Data from USB4F104151__84__12-12-59-701.txt Node

Date: Fri Mar 14 12:12:59 EDT 2025
User: louis
Spectrometer: USB4F10415
Trigger mode: 4
Integration Time (sec): 5.000000E-2
Scans to average: 1
Electric dark correction enabled: true
Nonlinearity correction enabled: false
Boxcar width: 0
XAxis mode: Wavelengths
Number of Pixels in Spectrum: 3648
>>>>>Begin Spectral Data<<<<<
178.204	-259.58
178.424	-259.58
178.644	-259.58
178.864	-241.15
179.084	-189.95
179.304	2.56
179.524	-19.97
179.744	-11.78
179.964	45.57
180.184	25.09
180.404	8.7
180.624	-36.35
180.844	-17.92
181.064	-46.59
181.283	25.09
181.503	12.8
181.723	12.8
181.943	-28.16
182.163	107.01
182.383	10.75
182.602	98.81
182.822	57.86
183.042	74.24
183.262	8.7
183.482	-40.45
183.701	64
183.921	51.71
184.141	-103.93
184.361	61.95
184.58	35.33
184.8	41.47
185.02	-105.98
185.239	27.14
185.459	0.51
185.679	49.66
185.898	-30.21
186.118	18.94
186.338	-50.69
186.557	49.66
186.777	53.76
186.997	-46.59
187.216	-3.58
187.436	74.24
187.655	57.86
187.875	-5.63
188.095	-15.87
188.314	55.81
188.534	29.18
188.753	-30.21
188.973	74.24
189.192	92.67
189.412	59.9
189.631	49.66
189.851	-1.54
190.07	107.01
190.29	14.85
190.509	10.75
190.729	14.85
190.948	115.2
191.168	213.5
191.387	59.9
191.607	14.85
191.826	43.52
192.045	-19.97
192.265	51.71
192.484	43.52
192.704	-48.64
192.923	-3.58
193.142	49.66
193.362	14.85
193.581	55.81
193.8	90.62
194.02	96.77
194.239	39.42
194.458	47.62
194.678	-48.64
194.897	47.62
195.116	80.38
195.335	74.24
195.555	33.28
195.774	39.42
195.993	-3.58
196.212	18.94
196.432	53.76
196.651	29.18
196.87	-5.63
197.089	152.06
197.308	4.61
197.528	29.18
197.747	31.23
197.966	94.72
198.185	72.19
198.404	4.61
198.623	74.24
198.842	68.09
199.062	180.73
199.281	86.53
199.5	-50.69
199.719	45.57
199.938	57.86
200.157	76.29
200.376	84.48
200.595	66.05
200.814	127.49
201.033	57.86
201.252	133.63
201.471	29.18
201.69	55.81
201.909	64
202.128	53.76
202.347	96.77
202.566	47.62
202.785	-42.5
203.004	82.43
203.223	123.39
203.442	16.9
203.661	-32.26
203.879	-36.35
204.098	92.67
204.317	39.42
204.536	27.14
204.755	43.52
204.974	64
205.193	-15.87
205.411	164.35
205.63	6.66
205.849	143.87
206.068	-13.82
206.287	-58.88
206.505	51.71
206.724	113.15
206.943	53.76
207.162	18.94
207.381	18.94
207.599	37.38
207.818	76.29
208.037	16.9
208.255	41.47
208.474	6.66
208.693	47.62
208.911	64
209.13	78.33
209.349	0.51
209.567	111.1
209.786	76.29
210.005	20.99
210.223	47.62
210.442	-5.63
210.661	29.18
210.879	18.94
211.098	-5.63
211.316	-52.74
211.535	43.52
211.753	20.99
211.972	45.57
212.191	4.61
212.409	84.48
212.628	133.63
212.846	-5.63
213.065	-11.78
213.283	107.01
213.502	-67.07
213.72	25.09
213.938	80.38
214.157	-71.17
214.375	96.77
214.594	-5.63
214.812	57.86
215.031	43.52
215.249	66.05
215.467	41.47
215.686	57.86
215.904	100.86
216.122	59.9
216.341	29.18
216.559	113.15
216.778	23.04
216.996	82.43
217.214	-22.02
217.432	51.71
217.651	-24.06
217.869	25.09
218.087	-28.16
218.306	-48.64
218.524	84.48
218.742	0.51
218.96	33.28
219.179	29.18
219.397	49.66
219.615	154.11
219.833	27.14
220.051	-15.87
220.27	41.47
220.488	64
220.706	2.56
220.924	-38.4
221.142	-26.11
221.36	8.7
221.578	107.01
221.796	-40.45
222.015	-36.35
222.233	14.85
222.451	55.81
222.669	23.04
222.887	0.51
223.105	82.43
223.323	84.48
223.541	-50.69
223.759	76.29
223.977	25.09
224.195	115.2
224.413	92.67
224.631	16.9
224.849	51.71
225.067	150.01
225.285	-15.87
225.503	86.53
225.721	-19.97
225.939	-5.63
226.157	49.66
226.375	184.83
226.592	-5.63
226.81	-15.87
227.028	107.01
227.246	90.62
227.464	16.9
227.682	113.15
227.9	29.18
228.117	-26.11
228.335	107.01
228.553	-15.87
228.771	49.66
228.989	51.71
229.206	33.28
229.424	14.85
229.642	-13.82
229.86	-105.98
230.077	61.95
230.295	61.95
230.513	129.53
230.731	66.05
230.948	43.52
231.166	188.93
231.384	-28.16
231.601	-52.74
231.819	78.33
232.037	-15.87
232.254	72.19
232.472	23.04
232.689	12.8
232.907	55.81
233.125	68.09
233.342	43.52
233.56	-91.65
233.777	-5.63
233.995	76.29
234.213	84.48
234.43	59.9
234.648	74.24
234.865	-83.45
235.083	49.66
235.3	123.39
235.518	33.28
235.735	131.58
235.953	43.52
236.17	29.18
236.388	-28.16
236.605	76.29
236.822	70.14
237.04	66.05
237.257	33.28
237.475	-34.3
237.692	-3.58
237.909	37.38
238.127	25.09
238.344	41.47
238.562	6.66
238.779	-32.26
238.996	33.28
239.214	74.24
239.431	117.25
239.648	41.47
239.865	80.38
240.083	100.86
240.3	37.38
240.517	53.76
240.735	55.81
240.952	86.53
241.169	10.75
241.386	-48.64
241.603	25.09
241.821	6.66
242.038	88.57
242.255	57.86
242.472	-7.68
242.689	94.72
242.907	43.52
243.124	23.04
243.341	92.67
243.558	-11.78
243.775	-87.55
243.992	-15.87
244.209	80.38
244.426	102.91
244.643	45.57
244.86	-36.35
245.078	96.77
245.295	57.86
245.512	25.09
245.729	16.9
245.946	59.9
246.163	6.66
246.38	27.14
246.597	43.52
246.814	47.62
247.031	14.85
247.248	53.76
247.464	98.81
247.681	8.7
247.898	76.29
248.115	49.66
248.332	-13.82
248.549	57.86
248.766	125.44
248.983	90.62
249.2	-46.59
249.417	92.67
249.633	45.57
249.85	35.33
250.067	0.51
250.284	10.75
250.501	68.09
250.717	107.01
250.934	-9.73
251.151	12.8
251.368	2.56
251.585	107.01
251.801	72.19
252.018	72.19
252.235	92.67
252.451	43.52
252.668	51.71
252.885	-58.88
253.102	29.18
253.318	43.52
253.535	-36.35
253.752	-1.54
253.968	51.71
254.185	-93.69
254.401	4.61
254.618	49.66
254.835	-9.73
255.051	43.52
255.268	47.62
255.484	86.53
255.701	156.16
255.917	8.7
256.134	-38.4
256.351	45.57
256.567	33.28
256.784	23.04
257	-48.64
257.217	59.9
257.433	107.01
257.65	55.81
257.866	76.29
258.082	-11.78
258.299	0.51
258.515	84.48
258.732	43.52
258.948	-54.78
259.165	-26.11
259.381	20.99
259.597	82.43
259.814	6.66
260.03	18.94
260.246	115.2
260.463	107.01
260.679	61.95
260.895	35.33
261.112	74.24
261.328	23.04
261.544	-42.5
261.761	68.09
261.977	8.7
262.193	61.95
262.409	10.75
262.626	86.53
262.842	8.7
263.058	-26.11
263.274	20.99
263.49	10.75
263.707	145.92
263.923	74.24
264.139	76.29
264.355	6.66
264.571	4.61
264.787	51.71
265.004	61.95
265.22	-13.82
265.436	57.86
265.652	-28.16
265.868	90.62
266.084	6.66
266.3	64
266.516	31.23
266.732	-28.16
266.948	43.52
267.164	57.86
267.38	127.49
267.596	35.33
267.812	92.67
268.028	76.29
268.244	27.14
268.46	35.33
268.676	-34.3
268.892	70.14
269.108	18.94
269.324	-3.58
269.54	2.56
269.756	135.68
269.972	0.51
270.188	-71.17
270.403	-5.63
270.619	109.05
270.835	10.75
271.051	43.52
271.267	14.85
271.483	-40.45
271.698	55.81
271.914	23.04
272.13	82.43
272.346	-9.73
272.562	6.66
272.777	64
272.993	18.94
273.209	76.29
273.425	-3.58
273.64	51.71
273.856	39.42
274.072	53.76
274.287	53.76
274.503	16.9
274.719	76.29
274.934	-5.63
275.15	-62.98
275.366	29.18
275.581	31.23
275.797	37.38
276.012	70.14
276.228	23.04
276.444	64
276.659	47.62
276.875	-56.83
277.09	2.56
277.306	-67.07
277.521	88.57
277.737	100.86
277.952	74.24
278.168	33.28
278.383	51.71
278.599	27.14
278.814	135.68
279.03	100.86
279.245	84.48
279.461	18.94
279.676	76.29
279.892	20.99
280.107	-71.17
280.322	41.47
280.538	82.43
280.753	-24.06
280.969	49.66
281.184	-11.78
281.399	25.09
281.615	98.81
281.83	31.23
282.045	-34.3
282.26	18.94
282.476	47.62
282.691	68.09
282.906	137.73
283.122	61.95
283.337	-71.17
283.552	41.47
283.767	66.05
283.983	25.09
284.198	-40.45
284.413	66.05
284.628	-91.65
284.843	18.94
285.058	20.99
285.274	47.62
285.489	-22.02
285.704	64
285.919	16.9
286.134	25.09
286.349	10.75
286.564	29.18
286.779	133.63
286.995	12.8
287.21	-62.98
287.425	61.95
287.64	41.47
287.855	20.99
288.07	41.47
288.285	90.62
288.5	0.51
288.715	113.15
288.93	6.66
289.145	-19.97
289.36	90.62
289.575	37.38
289.79	61.95
290.004	-34.3
290.219	76.29
290.434	35.33
290.649	-22.02
290.864	-1.54
291.079	18.94
291.294	23.04
291.509	96.77
291.724	10.75
291.938	-17.92
292.153	74.24
292.368	55.81
292.583	-13.82
292.798	88.57
293.012	82.43
293.227	78.33
293.442	-44.54
293.657	66.05
293.871	45.57
294.086	64
294.301	66.05
294.516	57.86
294.73	14.85
294.945	31.23
295.16	0.51
295.374	109.05
295.589	84.48
295.804	57.86
296.018	76.29
296.233	141.82
296.447	37.38
296.662	-5.63
296.877	74.24
297.091	-13.82
297.306	-32.26
297.52	41.47
297.735	70.14
297.949	49.66
298.164	143.87
298.378	29.18
298.593	-50.69
298.807	23.04
299.022	-5.63
299.236	72.19
299.451	12.8
299.665	-5.63
299.88	25.09
300.094	84.48
300.309	35.33
300.523	25.09
300.737	35.33
300.952	39.42
301.166	8.7
301.381	102.91
301.595	-13.82
301.809	102.91
302.024	12.8
302.238	-46.59
302.452	113.15
302.667	-7.68
302.881	31.23
303.095	72.19
303.309	115.2
303.524	-36.35
303.738	33.28
303.952	-56.83
304.166	64
304.381	-67.07
304.595	76.29
304.809	37.38
305.023	14.85
305.237	-1.54
305.452	135.68
305.666	92.67
305.88	51.71
306.094	20.99
306.308	80.38
306.522	29.18
306.736	78.33
306.95	25.09
307.164	10.75
307.379	51.71
307.593	57.86
307.807	35.33
308.021	16.9
308.235	88.57
308.449	-1.54
308.663	8.7
308.877	193.02
309.091	104.96
309.305	35.33
309.519	4.61
309.733	29.18
309.947	-38.4
310.161	80.38
310.374	72.19
310.588	82.43
310.802	-54.78
311.016	-22.02
311.23	49.66
311.444	16.9
311.658	-13.82
311.872	119.29
312.085	125.44
312.299	92.67
312.513	53.76
312.727	117.25
312.941	-30.21
313.154	-5.63
313.368	74.24
313.582	-3.58
313.796	25.09
314.009	-11.78
314.223	27.14
314.437	113.15
314.651	-9.73
314.864	-32.26
315.078	8.7
315.292	-38.4
315.505	27.14
315.719	39.42
315.933	45.57
316.146	-26.11
316.36	-7.68
316.573	92.67
316.787	-11.78
317.001	61.95
317.214	66.05
317.428	78.33
317.641	-11.78
317.855	8.7
318.068	14.85
318.282	59.9
318.495	96.77
318.709	27.14
318.922	51.71
319.136	-62.98
319.349	137.73
319.563	-50.69
319.776	51.71
319.99	16.9
320.203	35.33
320.417	27.14
320.63	59.9
320.843	90.62
321.057	6.66
321.27	53.76
321.483	29.18
321.697	121.34
321.91	72.19
322.124	70.14
322.337	-9.73
322.55	16.9
322.763	109.05
322.977	127.49
323.19	59.9
323.403	47.62
323.617	57.86
323.83	176.64
324.043	-48.64
324.256	6.66
324.469	61.95
324.683	152.06
324.896	-5.63
325.109	129.53
325.322	-19.97
325.535	16.9
325.748	61.95
325.962	96.77
326.175	51.71
326.388	29.18
326.601	111.1
326.814	43.52
327.027	14.85
327.24	76.29
327.453	-26.11
327.666	31.23
327.879	143.87
328.092	55.81
328.305	61.95
328.518	92.67
328.731	29.18
328.944	10.75
329.157	-26.11
329.37	41.47
329.583	121.34
329.796	125.44
330.009	-5.63
330.222	76.29
330.435	59.9
330.648	43.52
330.861	92.67
331.073	-13.82
331.286	102.91
331.499	74.24
331.712	57.86
331.925	43.52
332.138	29.18
332.35	88.57
332.563	80.38
332.776	33.28
332.989	10.75
333.202	25.09
333.414	18.94
333.627	76.29
333.84	-26.11
334.053	18.94
334.265	-36.35
334.478	12.8
334.691	49.66
334.903	-22.02
335.116	6.66
335.329	51.71
335.541	61.95
335.754	76.29
335.966	45.57
336.179	-9.73
336.392	39.42
336.604	10.75
336.817	68.09
337.029	109.05
337.242	8.7
337.454	139.77
337.667	49.66
337.88	152.06
338.092	0.51
338.305	111.1
338.517	-28.16
338.729	53.76
338.942	76.29
339.154	-40.45
339.367	47.62
339.579	18.94
339.792	-44.54
340.004	8.7
340.217	45.57
340.429	37.38
340.641	-28.16
340.854	-32.26
341.066	-11.78
341.278	31.23
341.491	141.82
341.703	64
341.915	-89.6
342.128	57.86
342.34	-1.54
342.552	16.9
342.764	55.81
342.977	33.28
343.189	64
343.401	109.05
343.613	-1.54
343.826	18.94
344.038	23.04
344.25	-13.82
344.462	-15.87
344.674	-15.87
344.886	-1.54
345.099	49.66
345.311	109.05
345.523	-19.97
345.735	-50.69
345.947	53.76
346.159	12.8
346.371	90.62
346.583	25.09
346.795	133.63
347.007	-32.26
347.219	131.58
347.431	6.66
347.643	104.96
347.855	84.48
348.067	143.87
348.279	0.51
348.491	113.15
348.703	72.19
348.915	6.66
349.127	-11.78
349.339	33.28
349.551	8.7
349.763	82.43
349.975	80.38
350.187	127.49
350.399	127.49
350.61	66.05
350.822	14.85
351.034	72.19
351.246	70.14
351.458	72.19
351.669	72.19
351.881	76.29
352.093	72.19
352.305	135.68
352.517	43.52
352.728	78.33
352.94	47.62
353.152	-11.78
353.363	39.42
353.575	111.1
353.787	61.95
353.999	37.38
354.21	68.09
354.422	33.28
354.633	23.04
354.845	-36.35
355.057	-3.58
355.268	8.7
355.48	49.66
355.692	31.23
355.903	4.61
356.115	-15.87
356.326	-44.54
356.538	47.62
356.749	82.43
356.961	121.34
357.172	-11.78
357.384	-3.58
357.595	80.38
357.807	14.85
358.018	6.66
358.23	10.75
358.441	92.67
358.653	90.62
358.864	33.28
359.075	-46.59
359.287	39.42
359.498	-52.74
359.709	72.19
359.921	23.04
360.132	59.9
360.344	51.71
360.555	68.09
360.766	92.67
360.977	88.57
361.189	137.73
361.4	70.14
361.611	90.62
361.823	49.66
362.034	29.18
362.245	-22.02
362.456	-1.54
362.667	-30.21
362.879	49.66
363.09	41.47
363.301	35.33
363.512	12.8
363.723	-36.35
363.935	-1.54
364.146	37.38
364.357	59.9
364.568	12.8
364.779	-15.87
364.99	137.73
365.201	10.75
365.412	27.14
365.623	10.75
365.834	18.94
366.045	92.67
366.256	16.9
366.467	90.62
366.678	8.7
366.889	6.66
367.1	-42.5
367.311	-7.68
367.522	35.33
367.733	25.09
367.944	68.09
368.155	59.9
368.366	72.19
368.577	94.72
368.788	150.01
368.999	-46.59
369.209	59.9
369.42	190.97
369.631	129.53
369.842	6.66
370.053	64
370.264	53.76
370.474	27.14
370.685	47.62
370.896	12.8
371.107	102.91
371.317	68.09
371.528	25.09
371.739	76.29
371.95	8.7
372.16	45.57
372.371	-15.87
372.582	-11.78
372.792	10.75
373.003	18.94
373.214	61.95
373.424	94.72
373.635	14.85
373.846	129.53
374.056	80.38
374.267	68.09
374.477	57.86
374.688	64
374.898	70.14
375.109	74.24
375.319	-13.82
375.53	119.29
375.74	43.52
375.951	31.23
376.161	39.42
376.372	49.66
376.582	16.9
376.793	2.56
377.003	70.14
377.214	51.71
377.424	25.09
377.635	59.9
377.845	27.14
378.055	57.86
378.266	27.14
378.476	31.23
378.686	59.9
378.897	78.33
379.107	109.05
379.317	23.04
379.528	43.52
379.738	80.38
379.948	-46.59
380.158	92.67
380.369	0.51
380.579	59.9
380.789	-15.87
380.999	156.16
381.21	53.76
381.42	92.67
381.63	-24.06
381.84	92.67
382.05	45.57
382.261	78.33
382.471	25.09
382.681	39.42
382.891	90.62
383.101	72.19
383.311	10.75
383.521	-38.4
383.731	55.81
383.941	80.38
384.151	64
384.361	76.29
384.571	45.57
384.781	72.19
384.991	102.91
385.201	111.1
385.411	55.81
385.621	18.94
385.831	20.99
386.041	4.61
386.251	16.9
386.461	41.47
386.671	41.47
386.881	78.33
387.091	29.18
387.301	96.77
387.511	12.8
387.72	64
387.93	78.33
388.14	-19.97
388.35	139.77
388.56	139.77
388.769	66.05
388.979	49.66
389.189	35.33
389.399	72.19
389.609	147.97
389.818	135.68
390.028	70.14
390.238	92.67
390.447	4.61
390.657	102.91
390.867	57.86
391.076	47.62
391.286	102.91
391.496	37.38
391.705	35.33
391.915	43.52
392.125	127.49
392.334	-5.63
392.544	113.15
392.753	107.01
392.963	29.18
393.172	8.7
393.382	59.9
393.591	92.67
393.801	70.14
394.01	23.04
394.22	29.18
394.429	113.15
394.639	74.24
394.848	64
395.058	0.51
395.267	80.38
395.477	41.47
395.686	174.59
395.895	119.29
396.105	154.11
396.314	43.52
396.524	57.86
396.733	39.42
396.942	127.49
397.152	98.81
397.361	123.39
397.57	125.44
397.78	133.63
397.989	47.62
398.198	219.64
398.407	104.96
398.617	107.01
398.826	57.86
399.035	84.48
399.244	82.43
399.453	113.15
399.663	96.77
399.872	109.05
400.081	119.29
400.29	199.16
400.499	55.81
400.708	84.48
400.917	125.44
401.127	141.82
401.336	-32.26
401.545	133.63
401.754	139.77
401.963	121.34
402.172	59.9
402.381	39.42
402.59	55.81
402.799	57.86
403.008	137.73
403.217	143.87
403.426	137.73
403.635	133.63
403.844	123.39
404.053	82.43
404.262	45.57
404.471	188.93
404.68	186.88
404.888	113.15
405.097	145.92
405.306	152.06
405.515	164.35
405.724	125.44
405.933	205.31
406.142	104.96
406.35	209.4
406.559	160.25
406.768	205.31
406.977	195.07
407.185	197.12
407.394	121.34
407.603	113.15
407.812	225.79
408.02	244.22
408.229	225.79
408.438	190.97
408.646	141.82
408.855	195.07
409.064	201.21
409.272	248.32
409.481	279.04
409.69	305.66
409.898	207.36
410.107	279.04
410.315	285.18
410.524	250.36
410.733	313.85
410.941	283.13
411.15	365.05
411.358	311.8
411.567	367.1
411.775	344.57
411.984	315.9
412.192	297.47
412.401	293.37
412.609	428.54
412.818	489.98
413.026	430.59
413.234	463.35
413.443	416.25
413.651	403.96
413.86	582.14
414.068	475.64
414.276	678.39
414.485	520.7
414.693	543.22
414.901	662.01
415.11	526.84
415.318	655.86
415.526	633.33
415.734	657.91
415.943	670.2
416.151	686.58
416.359	705.01
416.567	674.29
416.776	772.6
416.984	840.18
417.192	797.17
417.4	879.09
417.608	889.33
417.817	821.75
418.025	905.71
418.233	1044.98
418.441	932.34
418.649	1024.5
418.857	1008.11
419.065	1130.99
419.273	1061.36
419.481	1122.8
419.689	1221.1
419.897	1303.02
420.105	1325.55
420.313	1405.42
420.521	1380.84
420.729	1282.54
420.937	1360.36
421.145	1417.71
421.353	1536.49
421.561	1606.12
421.769	1604.07
421.977	1657.32
422.185	1712.61
422.393	1704.42
422.601	1815.01
422.809	1921.51
423.017	1847.78
423.224	2093.54
423.432	1993.19
423.64	2028
423.848	2175.45
424.056	2255.33
424.263	2187.74
424.471	2370.01
424.679	2449.88
424.887	2556.38
425.094	2603.48
425.302	2628.06
425.51	2687.45
425.718	2834.9
425.925	2761.17
426.133	2912.72
426.341	3187.15
426.548	3158.48
426.756	3350.99
426.964	3267.02
427.171	3334.61
427.379	3572.17
427.586	3586.51
427.794	3828.17
428.001	3963.33
428.209	4069.83
428.417	3989.96
428.624	4270.53
428.832	4352.45
429.039	4143.55
429.247	4288.96
429.454	4680.12
429.662	4899.25
429.869	4667.83
430.076	4915.64
430.284	4866.49
430.491	5032.37
430.699	5235.12
430.906	5372.33
431.114	5388.72
431.321	5646.76
431.528	5751.21
431.736	6136.23
431.943	6185.38
432.15	6115.75
432.358	6142.37
432.565	6621.59
432.772	6457.76
432.979	6875.54
433.187	7041.43
433.394	7041.43
433.601	7395.73
433.808	7469.45
434.016	7424.4
434.223	7725.45
434.43	8341.89
434.637	8020.36
434.844	8595.84
435.052	8706.43
435.259	8624.51
435.466	8937.85
435.673	8757.63
435.88	9439.6
436.087	9687.4
436.294	9517.42
436.501	9507.18
436.708	9750.89
436.915	10178.92
437.122	10535.26
437.329	10373.47
437.537	10701.15
437.743	10926.43
437.95	10754.4
438.157	11499.86
438.364	11831.63
438.571	11553.1
438.778	11938.12
438.985	12898.62
439.192	12233.03
439.399	12853.56
439.606	12691.77
439.813	13304.12
440.02	14172.46
440.227	13748.53
440.433	13777.2
440.64	14041.39
440.847	13988.14
441.054	14471.46
441.261	15401.24
441.467	15141.14
441.674	15194.39
441.881	16144.65
442.088	15773.97
442.294	15800.59
442.501	16308.49
442.708	16564.48
442.914	17205.5
443.121	18108.65
443.328	17424.63
443.534	18827.49
443.741	18165.99
443.948	18067.69
444.154	19292.38
444.361	19165.4
444.568	19364.06
444.774	19159.26
444.981	19366.1
445.187	20013.26
445.394	20582.6
445.6	20615.37
445.807	22544.55
446.013	21559.48
446.22	22100.14
446.426	22919.33
446.633	23034.02
446.839	24144.02
447.046	22818.98
447.252	24240.27
447.459	24250.51
447.665	24008.85
447.871	25305.21
448.078	26478.7
448.284	25096.32
448.491	25510.01
448.697	26490.99
448.903	27367.52
449.11	27400.29
449.316	27072.61
449.522	27072.61
449.728	27906.13
449.935	27961.43
450.141	28231.76
450.347	28770.38
450.553	27906.13
450.76	28254.29
450.966	29120.58
451.172	28870.73
451.378	29581.37
451.584	29034.56
451.791	29872.18
451.997	29345.86
452.203	30107.7
452.409	30199.86
452.615	30083.12
452.821	28766.28
453.027	28450.89
453.233	30019.64
453.44	28897.35
453.646	29241.41
453.852	29374.53
454.058	30017.59
454.264	28655.69
454.47	29431.87
454.676	28536.91
454.882	29491.26
455.088	27064.42
455.294	27201.63
455.5	27783.26
455.705	28498
455.911	27125.86
456.117	26556.52
456.323	26212.46
456.529	24983.68
456.735	25809.01
456.941	25118.85
457.147	24572.04
457.352	23910.55
457.558	23685.27
457.764	23959.7
457.97	23447.71
458.176	23146.65
458.381	22603.94
458.587	21780.66
458.793	21797.04
458.999	20574.41
459.204	22089.9
459.41	21342.39
459.616	19982.54
459.821	20162.76
460.027	19865.81
460.233	19345.62
460.438	18612.45
460.644	18673.89
460.85	17740.02
461.055	17746.16
461.261	17453.3
461.466	16195.85
461.672	15700.24
461.878	16705.79
462.083	15896.85
462.289	15335.7
462.494	15221.02
462.7	14481.7
462.905	14459.17
463.111	14805.28
463.316	14911.77
463.522	14391.59
463.727	14174.5
463.932	14227.75
464.138	14203.18
464.343	14295.33
464.549	13824.3
464.754	14358.82
464.959	14160.17
465.165	14135.59
465.37	13592.88
465.575	13326.64
465.781	13662.51
465.986	13697.33
466.191	13279.54
466.397	13146.42
466.602	12368.2
466.807	12654.91
467.012	13072.7
467.218	12650.81
