Data from USB4F104151__40__12-12-02-857.txt Node

Date: Fri Mar 14 12:12:02 EDT 2025
User: louis
Spectrometer: USB4F10415
Trigger mode: 4
Integration Time (sec): 5.000000E-2
Scans to average: 1
Electric dark correction enabled: true
Nonlinearity correction enabled: false
Boxcar width: 0
XAxis mode: Wavelengths
Number of Pixels in Spectrum: 3648
>>>>>Begin Spectral Data<<<<<
178.204	-223.4
178.424	-223.4
178.644	-223.4
178.864	-260.26
179.084	-241.83
179.304	-57.51
179.524	-6.31
179.744	-10.41
179.964	20.31
180.184	-16.55
180.404	38.74
180.624	-20.65
180.844	59.22
181.064	18.26
181.283	-30.89
181.503	-37.03
181.723	42.84
181.943	-34.99
182.163	30.55
182.383	5.97
182.602	55.12
182.822	89.94
183.042	46.93
183.262	28.5
183.482	40.79
183.701	-41.13
183.921	65.36
184.141	-32.94
184.361	77.65
184.58	3.93
184.8	30.55
185.02	-26.79
185.239	30.55
185.459	-45.23
185.679	75.6
185.898	-55.47
186.118	-34.99
186.338	59.22
186.557	81.75
186.777	-37.03
186.997	8.02
187.216	-22.7
187.436	149.33
187.655	81.75
187.875	42.84
188.095	-69.8
188.314	112.47
188.534	57.17
188.753	-34.99
188.973	40.79
189.192	85.84
189.412	-34.99
189.631	26.45
189.851	61.27
190.07	130.9
190.29	28.5
190.509	-49.32
190.729	1.88
190.948	48.98
191.168	157.52
191.387	79.7
191.607	61.27
191.826	18.26
192.045	22.36
192.265	-2.22
192.484	94.04
192.704	-43.18
192.923	-28.84
193.142	63.32
193.362	42.84
193.581	-16.55
193.8	26.45
194.02	96.08
194.239	-32.94
194.458	48.98
194.678	-10.41
194.897	8.02
195.116	-30.89
195.335	59.22
195.555	10.07
195.774	32.6
195.993	14.17
196.212	-14.51
196.432	-71.85
196.651	-57.51
196.87	51.03
197.089	178
197.308	83.8
197.528	40.79
197.747	-43.18
197.966	5.97
198.185	42.84
198.404	46.93
198.623	-45.23
198.842	-12.46
199.062	55.12
199.281	120.66
199.5	38.74
199.719	1.88
199.938	87.89
200.157	59.22
200.376	77.65
200.595	18.26
200.814	14.17
201.033	-26.79
201.252	94.04
201.471	8.02
201.69	75.6
201.909	24.4
202.128	34.64
202.347	38.74
202.566	1.88
202.785	-12.46
203.004	-10.41
203.223	114.52
203.442	3.93
203.661	14.17
203.879	79.7
204.098	116.56
204.317	-6.31
204.536	110.42
204.755	30.55
204.974	100.18
205.193	85.84
205.411	83.8
205.63	22.36
205.849	-4.27
206.068	-12.46
206.287	65.36
206.505	73.56
206.724	38.74
206.943	61.27
207.162	8.02
207.381	-8.36
207.599	5.97
207.818	34.64
208.037	24.4
208.255	14.17
208.474	-4.27
208.693	42.84
208.911	-18.6
209.13	32.6
209.349	12.12
209.567	73.56
209.786	98.13
210.005	-16.55
210.223	48.98
210.442	-20.65
210.661	51.03
210.879	5.97
211.098	26.45
211.316	-8.36
211.535	104.28
211.753	42.84
211.972	5.97
212.191	-26.79
212.409	94.04
212.628	46.93
212.846	96.08
213.065	12.12
213.283	126.8
213.502	30.55
213.72	-4.27
213.938	79.7
214.157	-2.22
214.375	98.13
214.594	42.84
214.812	12.12
215.031	24.4
215.249	65.36
215.467	57.17
215.686	10.07
215.904	128.85
216.122	14.17
216.341	145.24
216.559	77.65
216.778	65.36
216.996	114.52
217.214	26.45
217.432	14.17
217.651	-71.85
217.869	-10.41
218.087	3.93
218.306	-4.27
218.524	79.7
218.742	3.93
218.96	42.84
219.179	-18.6
219.397	75.6
219.615	114.52
219.833	-6.31
220.051	-16.55
220.27	137.04
220.488	116.56
220.706	-53.42
220.924	12.12
221.142	18.26
221.36	24.4
221.578	114.52
221.796	5.97
222.015	28.5
222.233	89.94
222.451	91.99
222.669	34.64
222.887	135
223.105	57.17
223.323	-28.84
223.541	14.17
223.759	46.93
223.977	-8.36
224.195	85.84
224.413	32.6
224.631	59.22
224.849	8.02
225.067	94.04
225.285	-12.46
225.503	38.74
225.721	12.12
225.939	1.88
226.157	46.93
226.375	104.28
226.592	-20.65
226.81	18.26
227.028	53.08
227.246	147.28
227.464	-28.84
227.682	116.56
227.9	16.21
228.117	30.55
228.335	81.75
228.553	71.51
228.771	-92.33
228.989	85.84
229.206	63.32
229.424	5.97
229.642	5.97
229.86	32.6
230.077	100.18
230.295	-2.22
230.513	12.12
230.731	75.6
230.948	34.64
231.166	91.99
231.384	20.31
231.601	1.88
231.819	59.22
232.037	5.97
232.254	-49.32
232.472	20.31
232.689	5.97
232.907	98.13
233.125	-22.7
233.342	22.36
233.56	63.32
233.777	22.36
233.995	-6.31
234.213	65.36
234.43	22.36
234.648	32.6
234.865	10.07
235.083	96.08
235.3	-8.36
235.518	51.03
235.735	77.65
235.953	10.07
236.17	10.07
236.388	48.98
236.605	32.6
236.822	71.51
237.04	38.74
237.257	12.12
237.475	-32.94
237.692	34.64
237.909	-6.31
238.127	65.36
238.344	81.75
238.562	20.31
238.779	-24.75
238.996	-10.41
239.214	44.88
239.431	89.94
239.648	-22.7
239.865	53.08
240.083	32.6
240.3	-41.13
240.517	-32.94
240.735	51.03
240.952	91.99
241.169	83.8
241.386	100.18
241.603	87.89
241.821	-80.04
242.038	102.23
242.255	51.03
242.472	5.97
242.689	-10.41
242.907	77.65
243.124	16.21
243.341	26.45
243.558	1.88
243.775	-24.75
243.992	-43.18
244.209	53.08
244.426	122.71
244.643	42.84
244.86	-4.27
245.078	44.88
245.295	20.31
245.512	61.27
245.729	-53.42
245.946	-41.13
246.163	91.99
246.38	59.22
246.597	5.97
246.814	-0.17
247.031	34.64
247.248	46.93
247.464	71.51
247.681	3.93
247.898	46.93
248.115	8.02
248.332	-2.22
248.549	22.36
248.766	124.76
248.983	40.79
249.2	16.21
249.417	57.17
249.633	36.69
249.85	128.85
250.067	-84.14
250.284	5.97
250.501	143.19
250.717	38.74
250.934	5.97
251.151	79.7
251.368	32.6
251.585	42.84
251.801	18.26
252.018	30.55
252.235	55.12
252.451	-0.17
252.668	53.08
252.885	63.32
253.102	42.84
253.318	18.26
253.535	-8.36
253.752	-2.22
253.968	81.75
254.185	5.97
254.401	-4.27
254.618	46.93
254.835	-47.27
255.051	108.37
255.268	69.46
255.484	94.04
255.701	-2.22
255.917	67.41
256.134	-22.7
256.351	-26.79
256.567	-8.36
256.784	65.36
257	-0.17
257.217	61.27
257.433	57.17
257.65	5.97
257.866	155.47
258.082	-32.94
258.299	-10.41
258.515	91.99
258.732	-16.55
258.948	12.12
259.165	67.41
259.381	-34.99
259.597	40.79
259.814	46.93
260.03	89.94
260.246	26.45
260.463	132.95
260.679	38.74
260.895	51.03
261.112	53.08
261.328	-51.37
261.544	-32.94
261.761	91.99
261.977	16.21
262.193	-47.27
262.409	34.64
262.626	65.36
262.842	59.22
263.058	-37.03
263.274	83.8
263.49	67.41
263.707	75.6
263.923	79.7
264.139	-104.62
264.355	-22.7
264.571	137.04
264.787	75.6
265.004	79.7
265.22	28.5
265.436	-14.51
265.652	24.4
265.868	-0.17
266.084	-43.18
266.3	3.93
266.516	34.64
266.732	42.84
266.948	-12.46
267.164	12.12
267.38	5.97
267.596	77.65
267.812	89.94
268.028	38.74
268.244	30.55
268.46	-16.55
268.676	44.88
268.892	8.02
269.108	46.93
269.324	3.93
269.54	-34.99
269.756	71.51
269.972	-43.18
270.188	38.74
270.403	28.5
270.619	65.36
270.835	32.6
271.051	-2.22
271.267	-12.46
271.483	8.02
271.698	48.98
271.914	24.4
272.13	42.84
272.346	55.12
272.562	63.32
272.777	48.98
272.993	61.27
273.209	59.22
273.425	38.74
273.64	-20.65
273.856	30.55
274.072	-53.42
274.287	3.93
274.503	8.02
274.719	57.17
274.934	3.93
275.15	-49.32
275.366	-2.22
275.581	1.88
275.797	63.32
276.012	44.88
276.228	-28.84
276.444	94.04
276.659	114.52
276.875	-73.9
277.09	5.97
277.306	26.45
277.521	53.08
277.737	63.32
277.952	40.79
278.168	1.88
278.383	20.31
278.599	63.32
278.814	40.79
279.03	51.03
279.245	94.04
279.461	-18.6
279.676	106.32
279.892	16.21
280.107	14.17
280.322	-4.27
280.538	65.36
280.753	61.27
280.969	104.28
281.184	-6.31
281.399	38.74
281.615	-37.03
281.83	16.21
282.045	5.97
282.26	-10.41
282.476	10.07
282.691	32.6
282.906	44.88
283.122	-20.65
283.337	-4.27
283.552	59.22
283.767	71.51
283.983	18.26
284.198	-6.31
284.413	110.42
284.628	-2.22
284.843	48.98
285.058	69.46
285.274	24.4
285.489	1.88
285.704	96.08
285.919	-65.71
286.134	26.45
286.349	-8.36
286.564	48.98
286.779	71.51
286.995	48.98
287.21	-57.51
287.425	169.81
287.64	-0.17
287.855	96.08
288.07	-4.27
288.285	85.84
288.5	67.41
288.715	71.51
288.93	10.07
289.145	65.36
289.36	112.47
289.575	-6.31
289.79	100.18
290.004	46.93
290.219	106.32
290.434	5.97
290.649	36.69
290.864	75.6
291.079	12.12
291.294	28.5
291.509	-47.27
291.724	38.74
291.938	-59.56
292.153	53.08
292.368	67.41
292.583	24.4
292.798	34.64
293.012	65.36
293.227	8.02
293.442	91.99
293.657	73.56
293.871	89.94
294.086	38.74
294.301	108.37
294.516	104.28
294.73	10.07
294.945	1.88
295.16	55.12
295.374	71.51
295.589	38.74
295.804	-12.46
296.018	24.4
296.233	128.85
296.447	44.88
296.662	34.64
296.877	14.17
297.091	87.89
297.306	22.36
297.52	-0.17
297.735	71.51
297.949	-55.47
298.164	34.64
298.378	38.74
298.593	-20.65
298.807	-4.27
299.022	73.56
299.236	32.6
299.451	77.65
299.665	32.6
299.88	53.08
300.094	63.32
300.309	12.12
300.523	100.18
300.737	36.69
300.952	32.6
301.166	48.98
301.381	12.12
301.595	22.36
301.809	32.6
302.024	16.21
302.238	65.36
302.452	75.6
302.667	38.74
302.881	104.28
303.095	96.08
303.309	65.36
303.524	63.32
303.738	55.12
303.952	28.5
304.166	69.46
304.381	-59.56
304.595	139.09
304.809	63.32
305.023	67.41
305.237	-0.17
305.452	-88.23
305.666	20.31
305.88	81.75
306.094	24.4
306.308	10.07
306.522	71.51
306.736	57.17
306.95	40.79
307.164	-20.65
307.379	12.12
307.593	42.84
307.807	30.55
308.021	79.7
308.235	14.17
308.449	-45.23
308.663	96.08
308.877	141.14
309.091	75.6
309.305	36.69
309.519	-18.6
309.733	63.32
309.947	24.4
310.161	36.69
310.374	40.79
310.588	120.66
310.802	32.6
311.016	59.22
311.23	20.31
311.444	-26.79
311.658	48.98
311.872	46.93
312.085	-12.46
312.299	223.06
312.513	163.67
312.727	55.12
312.941	-65.71
313.154	-8.36
313.368	30.55
313.582	-30.89
313.796	67.41
314.009	124.76
314.223	-2.22
314.437	87.89
314.651	79.7
314.864	55.12
315.078	26.45
315.292	28.5
315.505	-0.17
315.719	-4.27
315.933	12.12
316.146	96.08
316.36	61.27
316.573	32.6
316.787	81.75
317.001	120.66
317.214	14.17
317.428	22.36
317.641	3.93
317.855	18.26
318.068	-39.08
318.282	18.26
318.495	120.66
318.709	48.98
318.922	3.93
319.136	77.65
319.349	102.23
319.563	-2.22
319.776	79.7
319.99	-22.7
320.203	53.08
320.417	48.98
320.63	16.21
320.843	124.76
321.057	85.84
321.27	-32.94
321.483	63.32
321.697	94.04
321.91	91.99
322.124	36.69
322.337	-8.36
322.55	42.84
322.763	102.23
322.977	5.97
323.19	24.4
323.403	114.52
323.617	120.66
323.83	100.18
324.043	14.17
324.256	10.07
324.469	-24.75
324.683	57.17
324.896	-10.41
325.109	44.88
325.322	22.36
325.535	81.75
325.748	114.52
325.962	59.22
326.175	65.36
326.388	61.27
326.601	77.65
326.814	5.97
327.027	44.88
327.24	216.91
327.453	-24.75
327.666	108.37
327.879	145.24
328.092	59.22
328.305	22.36
328.518	53.08
328.731	26.45
328.944	118.61
329.157	85.84
329.37	12.12
329.583	75.6
329.796	98.13
330.009	28.5
330.222	46.93
330.435	1.88
330.648	67.41
330.861	59.22
331.073	130.9
331.286	171.86
331.499	104.28
331.712	46.93
331.925	73.56
332.138	122.71
332.35	40.79
332.563	-86.19
332.776	-2.22
332.989	-4.27
333.202	22.36
333.414	-16.55
333.627	-32.94
333.84	51.03
334.053	59.22
334.265	-12.46
334.478	-26.79
334.691	-2.22
334.903	18.26
335.116	38.74
335.329	5.97
335.541	10.07
335.754	124.76
335.966	30.55
336.179	-26.79
336.392	28.5
336.604	-4.27
336.817	5.97
337.029	53.08
337.242	44.88
337.454	81.75
337.667	104.28
337.88	8.02
338.092	40.79
338.305	10.07
338.517	-37.03
338.729	53.08
338.942	81.75
339.154	63.32
339.367	46.93
339.579	42.84
339.792	-20.65
340.004	112.47
340.217	14.17
340.429	40.79
340.641	14.17
340.854	38.74
341.066	28.5
341.278	167.76
341.491	77.65
341.703	44.88
341.915	-37.03
342.128	61.27
342.34	67.41
342.552	-4.27
342.764	5.97
342.977	77.65
343.189	67.41
343.401	44.88
343.613	-22.7
343.826	12.12
344.038	-30.89
344.25	34.64
344.462	73.56
344.674	173.91
344.886	51.03
345.099	57.17
345.311	55.12
345.523	63.32
345.735	-84.14
345.947	-8.36
346.159	38.74
346.371	65.36
346.583	1.88
346.795	151.38
347.007	104.28
347.219	61.27
347.431	32.6
347.643	65.36
347.855	34.64
348.067	75.6
348.279	18.26
348.491	20.31
348.703	44.88
348.915	75.6
349.127	34.64
349.339	67.41
349.551	-37.03
349.763	104.28
349.975	77.65
350.187	106.32
350.399	100.18
350.61	-2.22
350.822	1.88
351.034	1.88
351.246	40.79
351.458	104.28
351.669	118.61
351.881	104.28
352.093	55.12
352.305	79.7
352.517	81.75
352.728	75.6
352.94	61.27
353.152	22.36
353.363	-10.41
353.575	104.28
353.787	100.18
353.999	38.74
354.21	137.04
354.422	34.64
354.633	-39.08
354.845	130.9
355.057	91.99
355.268	65.36
355.48	114.52
355.692	8.02
355.903	20.31
356.115	34.64
356.326	42.84
356.538	75.6
356.749	112.47
356.961	116.56
357.172	94.04
357.384	-53.42
357.595	137.04
357.807	-12.46
358.018	1.88
358.23	34.64
358.441	141.14
358.653	149.33
358.864	-0.17
359.075	16.21
359.287	-20.65
359.498	40.79
359.709	171.86
359.921	5.97
360.132	83.8
360.344	55.12
360.555	83.8
360.766	24.4
360.977	32.6
361.189	114.52
361.4	79.7
361.611	59.22
361.823	167.76
362.034	48.98
362.245	14.17
362.456	44.88
362.667	71.51
362.879	24.4
363.09	65.36
363.301	44.88
363.512	71.51
363.723	128.85
363.935	-16.55
364.146	94.04
364.357	98.13
364.568	44.88
364.779	1.88
364.99	137.04
365.201	12.12
365.412	124.76
365.623	-63.66
365.834	46.93
366.045	53.08
366.256	102.23
366.467	46.93
366.678	55.12
366.889	34.64
367.1	104.28
367.311	28.5
367.522	71.51
367.733	63.32
367.944	55.12
368.155	5.97
368.366	63.32
368.577	55.12
368.788	91.99
368.999	-20.65
369.209	8.02
369.42	180.05
369.631	202.58
369.842	130.9
370.053	48.98
370.264	96.08
370.474	8.02
370.685	65.36
370.896	75.6
371.107	116.56
371.317	81.75
371.528	106.32
371.739	104.28
371.95	102.23
372.16	124.76
372.371	3.93
372.582	59.22
372.792	26.45
373.003	96.08
373.214	120.66
373.424	83.8
373.635	-6.31
373.846	122.71
374.056	40.79
374.267	-41.13
374.477	61.27
374.688	57.17
374.898	96.08
375.109	71.51
375.319	40.79
375.53	96.08
375.74	-65.71
375.951	18.26
376.161	42.84
376.372	83.8
376.582	-6.31
376.793	18.26
377.003	22.36
377.214	38.74
377.424	42.84
377.635	98.13
377.845	65.36
378.055	108.37
378.266	-2.22
378.476	67.41
378.686	12.12
378.897	61.27
379.107	81.75
379.317	61.27
379.528	34.64
379.738	44.88
379.948	-0.17
380.158	42.84
380.369	85.84
380.579	73.56
380.789	8.02
380.999	10.07
381.21	87.89
381.42	116.56
381.63	87.89
381.84	63.32
382.05	59.22
382.261	110.42
382.471	51.03
382.681	112.47
382.891	135
383.101	34.64
383.311	-12.46
383.521	38.74
383.731	73.56
383.941	91.99
384.151	-12.46
384.361	36.69
384.571	69.46
384.781	53.08
384.991	194.39
385.201	120.66
385.411	71.51
385.621	67.41
385.831	96.08
386.041	94.04
386.251	5.97
386.461	65.36
386.671	28.5
386.881	48.98
387.091	34.64
387.301	69.46
387.511	94.04
387.72	71.51
387.93	120.66
388.14	-34.99
388.35	79.7
388.56	147.28
388.769	130.9
388.979	32.6
389.189	-6.31
389.399	71.51
389.609	83.8
389.818	85.84
390.028	36.69
390.238	22.36
390.447	98.13
390.657	69.46
390.867	-4.27
391.076	59.22
391.286	30.55
391.496	32.6
391.705	46.93
391.915	188.24
392.125	122.71
392.334	73.56
392.544	108.37
392.753	106.32
392.963	26.45
393.172	83.8
393.382	61.27
393.591	212.82
393.801	3.93
394.01	141.14
394.22	147.28
394.429	112.47
394.639	-41.13
394.848	87.89
395.058	108.37
395.267	124.76
395.477	75.6
395.686	118.61
395.895	212.82
396.105	171.86
396.314	163.67
396.524	180.05
396.733	89.94
396.942	182.1
397.152	96.08
397.361	126.8
397.57	135
397.78	141.14
397.989	116.56
398.198	231.25
398.407	143.19
398.617	157.52
398.826	147.28
399.035	132.95
399.244	75.6
399.453	141.14
399.663	130.9
399.872	165.71
400.081	69.46
400.29	231.25
400.499	108.37
400.708	188.24
400.917	130.9
401.127	180.05
401.336	130.9
401.545	264.02
401.754	186.19
401.963	231.25
402.172	122.71
402.381	87.89
402.59	143.19
402.799	120.66
403.008	135
403.217	225.11
403.426	255.83
403.635	114.52
403.844	218.96
404.053	206.67
404.262	94.04
404.471	255.83
404.68	218.96
404.888	173.91
405.097	202.58
405.306	251.73
405.515	255.83
405.724	204.63
405.933	264.02
406.142	255.83
406.35	325.46
406.559	309.07
406.768	251.73
406.977	352.08
407.185	237.39
407.394	255.83
407.603	321.36
407.812	339.79
408.02	319.31
408.229	290.64
408.438	362.32
408.646	382.8
408.855	397.14
409.064	415.57
409.272	411.47
409.481	464.72
409.69	438.09
409.898	309.07
410.107	542.54
410.315	560.97
410.524	466.77
410.733	532.3
410.941	491.34
411.15	536.4
411.358	614.22
411.567	649.04
411.775	634.7
411.984	747.34
412.192	716.62
412.401	714.57
412.609	769.87
412.818	757.58
413.026	835.4
413.234	829.26
413.443	870.22
413.651	757.58
413.86	911.18
414.068	939.85
414.276	1025.86
414.485	941.89
414.693	1066.82
414.901	1146.69
415.11	1148.74
415.318	1181.51
415.526	1146.69
415.734	1259.33
415.943	1251.14
416.151	1294.15
416.359	1300.29
416.567	1439.55
416.776	1525.57
416.984	1492.8
417.192	1550.14
417.4	1634.11
417.608	1533.76
417.817	1560.38
418.025	1689.4
418.233	1853.24
418.441	1843
418.649	1767.23
418.857	1986.36
419.065	1945.4
419.273	1992.5
419.481	2090.81
419.689	2404.14
419.897	2354.99
420.105	2387.76
420.313	2488.11
420.521	2617.13
420.729	2602.8
420.937	2596.65
421.145	2664.24
421.353	2948.9
421.561	3100.45
421.769	3057.45
421.977	3065.64
422.185	3110.69
422.393	3340.07
422.601	3661.6
422.809	3503.9
423.017	3618.59
423.224	3708.7
423.432	3862.3
423.64	3940.12
423.848	4243.22
424.056	4218.64
424.263	4495.12
424.471	4357.91
424.679	4558.61
424.887	4747.02
425.094	4830.99
425.302	4767.5
425.51	5123.85
425.718	5222.15
425.925	5285.64
426.133	5420.8
426.341	5797.63
426.548	6070.01
426.756	6203.13
426.964	6143.74
427.171	6387.44
427.379	6782.7
427.586	6672.11
427.794	7130.86
428.001	7386.85
428.209	7683.81
428.417	7479.01
428.624	8011.48
428.832	8097.5
429.039	7882.46
429.247	7880.41
429.454	8685.26
429.662	9250.5
429.869	8701.65
430.076	9475.78
430.284	9109.19
430.491	9178.83
430.699	9840.32
430.906	9918.14
431.114	10124.99
431.321	10335.93
431.528	10589.88
431.736	11423.4
431.943	12009.12
432.15	11464.36
432.358	11820.7
432.565	12287.64
432.772	12076.7
432.979	12711.57
433.187	12777.11
433.394	12752.53
433.601	13954.69
433.808	14126.72
434.016	14069.37
434.223	14456.44
434.43	15447.66
434.637	15046.26
434.844	15973.99
435.052	16199.26
435.259	16055.9
435.466	16236.13
435.673	15816.29
435.88	17069.65
436.087	17901.12
436.294	17888.84
436.501	17524.3
436.708	17778.25
436.915	18488.89
437.122	19387.95
437.329	19140.15
437.537	19504.68
437.743	19760.68
437.95	20231.71
438.157	21204.5
438.364	21376.53
438.571	21589.52
438.778	21610
438.985	23954.92
439.192	23025.14
439.399	23199.22
439.606	22928.89
439.813	24370.66
440.02	25746.89
440.227	25013.72
440.433	24851.93
440.64	25630.16
440.847	25302.48
441.054	26154.44
441.261	27876.78
441.467	27651.5
441.674	28042.67
441.881	29154.71
442.088	28827.04
442.294	28761.5
442.501	29633.94
442.708	29801.87
442.914	30909.82
443.121	32298.34
443.328	31542.64
443.534	33699.16
443.741	32839.01
443.948	32195.95
444.154	34805.06
444.361	34264.39
444.568	34583.88
444.774	34731.33
444.981	34796.87
445.187	35417.4
445.394	37575.96
445.6	36795.68
445.807	39963.89
446.013	38864.13
446.22	39228.67
446.426	40613.1
446.633	41063.65
446.839	42228.94
447.046	40473.84
447.252	42732.75
447.459	42568.91
447.665	42650.83
447.871	44534.96
448.078	46410.9
448.284	44338.35
448.491	45012.13
448.697	46763.15
448.903	47572.1
449.11	47391.87
449.316	47090.82
449.522	47955.07
449.728	49077.35
449.935	49046.63
450.141	48620.66
450.347	50191.45
450.553	48596.08
450.76	49214.57
450.966	50693.2
451.172	50005.08
451.378	50932.81
451.584	49863.77
451.791	50889.8
451.997	50852.94
452.203	51770.43
452.409	51889.21
452.615	51389.51
452.821	49560.67
453.027	49241.19
453.233	51584.07
453.44	49534.05
453.646	49779.81
453.852	50009.18
454.058	50824.27
454.264	49259.62
454.47	50279.51
454.676	48690.29
454.882	50543.7
455.088	46179.48
455.294	46908.55
455.5	47262.85
455.705	48053.37
455.911	46085.27
456.117	45190.31
456.323	44461.23
456.529	42484.94
456.735	44098.74
456.941	42755.27
457.147	42130.64
457.352	40803.56
457.558	40025.33
457.764	40375.53
457.97	39535.87
458.176	39003.39
458.381	38634.76
458.587	36670.76
458.793	36893.99
458.999	34643.27
459.204	37152.03
459.41	36527.4
459.616	33719.63
459.821	33715.54
460.027	33619.28
460.233	32957.79
460.438	31241.59
460.644	31577.46
460.85	29674.9
461.055	29582.74
461.261	29640.08
461.466	27590.06
461.672	26459.59
461.878	28302.76
462.083	26426.82
462.289	25621.97
462.494	25703.89
462.7	24231.4
462.905	23846.38
463.111	24204.77
463.316	24634.85
463.522	24012.26
463.727	24161.76
463.932	23891.43
464.138	23797.23
464.343	23516.65
464.549	22760.95
464.754	23578.09
464.959	23627.24
465.165	23397.87
465.37	22187.52
465.575	21812.74
465.781	22588.92
465.986	22887.93
466.191	21845.51
466.397	21415.44
466.602	20491.8
