Data from USB4F104151__66__12-12-32-003.txt Node

Date: Fri Mar 14 12:12:32 EDT 2025
User: louis
Spectrometer: USB4F10415
Trigger mode: 4
Integration Time (sec): 5.000000E-2
Scans to average: 1
Electric dark correction enabled: true
Nonlinearity correction enabled: false
Boxcar width: 0
XAxis mode: Wavelengths
Number of Pixels in Spectrum: 3648
>>>>>Begin Spectral Data<<<<<
178.204	-262.31
178.424	-262.31
178.644	-262.31
178.864	-284.84
179.084	-129.19
179.304	-59.56
179.524	-8.36
179.744	16.21
179.964	24.4
180.184	16.21
180.404	98.13
180.624	51.03
180.844	1.88
181.064	-82.09
181.283	3.93
181.503	-90.28
181.723	28.5
181.943	-39.08
182.163	94.04
182.383	-43.18
182.602	36.69
182.822	28.5
183.042	98.13
183.262	-24.75
183.482	79.7
183.701	-16.55
183.921	20.31
184.141	75.6
184.361	89.94
184.58	-12.46
184.8	-22.7
185.02	98.13
185.239	112.47
185.459	40.79
185.679	69.46
185.898	1.88
186.118	75.6
186.338	28.5
186.557	163.67
186.777	-0.17
186.997	89.94
187.216	40.79
187.436	194.39
187.655	34.64
187.875	104.28
188.095	1.88
188.314	102.23
188.534	102.23
188.753	-24.75
188.973	48.98
189.192	128.85
189.412	24.4
189.631	26.45
189.851	126.8
190.07	110.42
190.29	75.6
190.509	3.93
190.729	-39.08
190.948	83.8
191.168	159.57
191.387	30.55
191.607	16.21
191.826	118.61
192.045	36.69
192.265	67.41
192.484	69.46
192.704	26.45
192.923	-65.71
193.142	51.03
193.362	16.21
193.581	83.8
193.8	12.12
194.02	130.9
194.239	96.08
194.458	34.64
194.678	-47.27
194.897	3.93
195.116	57.17
195.335	61.27
195.555	85.84
195.774	67.41
195.993	-59.56
196.212	-14.51
196.432	48.98
196.651	10.07
196.87	63.32
197.089	110.42
197.308	102.23
197.528	118.61
197.747	3.93
197.966	34.64
198.185	184.15
198.404	1.88
198.623	61.27
198.842	91.99
199.062	65.36
199.281	81.75
199.5	79.7
199.719	122.71
199.938	139.09
200.157	81.75
200.376	94.04
200.595	108.37
200.814	85.84
201.033	3.93
201.252	124.76
201.471	48.98
201.69	79.7
201.909	1.88
202.128	108.37
202.347	44.88
202.566	18.26
202.785	-16.55
203.004	3.93
203.223	96.08
203.442	-2.22
203.661	83.8
203.879	71.51
204.098	98.13
204.317	-30.89
204.536	118.61
204.755	12.12
204.974	-0.17
205.193	18.26
205.411	175.95
205.63	77.65
205.849	48.98
206.068	-6.31
206.287	71.51
206.505	132.95
206.724	55.12
206.943	22.36
207.162	40.79
207.381	102.23
207.599	-43.18
207.818	24.4
208.037	1.88
208.255	-6.31
208.474	63.32
208.693	108.37
208.911	30.55
209.13	28.5
209.349	67.41
209.567	-6.31
209.786	104.28
210.005	8.02
210.223	1.88
210.442	18.26
210.661	75.6
210.879	83.8
211.098	3.93
211.316	61.27
211.535	112.47
211.753	18.26
211.972	20.31
212.191	3.93
212.409	98.13
212.628	-32.94
212.846	20.31
213.065	22.36
213.283	94.04
213.502	65.36
213.72	81.75
213.938	100.18
214.157	-0.17
214.375	87.89
214.594	20.31
214.812	61.27
215.031	26.45
215.249	59.22
215.467	42.84
215.686	-2.22
215.904	34.64
216.122	32.6
216.341	61.27
216.559	48.98
216.778	163.67
216.996	116.56
217.214	-53.42
217.432	-12.46
217.651	10.07
217.869	122.71
218.087	28.5
218.306	30.55
218.524	48.98
218.742	59.22
218.96	51.03
219.179	40.79
219.397	83.8
219.615	175.95
219.833	55.12
220.051	36.69
220.27	79.7
220.488	34.64
220.706	57.17
220.924	48.98
221.142	40.79
221.36	18.26
221.578	75.6
221.796	71.51
222.015	108.37
222.233	108.37
222.451	147.28
222.669	-20.65
222.887	32.6
223.105	42.84
223.323	79.7
223.541	5.97
223.759	-2.22
223.977	61.27
224.195	59.22
224.413	75.6
224.631	18.26
224.849	61.27
225.067	102.23
225.285	18.26
225.503	34.64
225.721	-22.7
225.939	5.97
226.157	40.79
226.375	163.67
226.592	65.36
226.81	57.17
227.028	61.27
227.246	83.8
227.464	79.7
227.682	96.08
227.9	44.88
228.117	79.7
228.335	51.03
228.553	42.84
228.771	16.21
228.989	32.6
229.206	85.84
229.424	-30.89
229.642	-30.89
229.86	1.88
230.077	104.28
230.295	102.23
230.513	96.08
230.731	85.84
230.948	128.85
231.166	130.9
231.384	63.32
231.601	63.32
231.819	167.76
232.037	18.26
232.254	65.36
232.472	-4.27
232.689	8.02
232.907	96.08
233.125	100.18
233.342	-2.22
233.56	-12.46
233.777	65.36
233.995	48.98
234.213	116.56
234.43	83.8
234.648	-2.22
234.865	1.88
235.083	91.99
235.3	32.6
235.518	48.98
235.735	77.65
235.953	106.32
236.17	8.02
236.388	5.97
236.605	38.74
236.822	89.94
237.04	51.03
237.257	63.32
237.475	3.93
237.692	57.17
237.909	110.42
238.127	-47.27
238.344	102.23
238.562	124.76
238.779	18.26
238.996	26.45
239.214	46.93
239.431	151.38
239.648	59.22
239.865	36.69
240.083	38.74
240.3	-4.27
240.517	20.31
240.735	8.02
240.952	38.74
241.169	120.66
241.386	28.5
241.603	73.56
241.821	1.88
242.038	81.75
242.255	73.56
242.472	-63.66
242.689	48.98
242.907	143.19
243.124	61.27
243.341	28.5
243.558	-8.36
243.775	26.45
243.992	-10.41
244.209	87.89
244.426	159.57
244.643	77.65
244.86	85.84
245.078	100.18
245.295	42.84
245.512	94.04
245.729	57.17
245.946	24.4
246.163	-8.36
246.38	46.93
246.597	63.32
246.814	46.93
247.031	8.02
247.248	75.6
247.464	42.84
247.681	-8.36
247.898	53.08
248.115	89.94
248.332	3.93
248.549	135
248.766	106.32
248.983	77.65
249.2	-26.79
249.417	38.74
249.633	89.94
249.85	67.41
250.067	-0.17
250.284	30.55
250.501	94.04
250.717	87.89
250.934	28.5
251.151	-37.03
251.368	10.07
251.585	-14.51
251.801	59.22
252.018	42.84
252.235	20.31
252.451	-43.18
252.668	18.26
252.885	75.6
253.102	26.45
253.318	24.4
253.535	3.93
253.752	48.98
253.968	87.89
254.185	-26.79
254.401	79.7
254.618	46.93
254.835	-4.27
255.051	114.52
255.268	-4.27
255.484	69.46
255.701	-22.7
255.917	24.4
256.134	-18.6
256.351	69.46
256.567	48.98
256.784	87.89
257	-14.51
257.217	114.52
257.433	100.18
257.65	91.99
257.866	48.98
258.082	-18.6
258.299	5.97
258.515	-10.41
258.732	-20.65
258.948	-4.27
259.165	5.97
259.381	-32.94
259.597	44.88
259.814	69.46
260.03	61.27
260.246	-12.46
260.463	1.88
260.679	143.19
260.895	48.98
261.112	91.99
261.328	10.07
261.544	14.17
261.761	130.9
261.977	10.07
262.193	-73.9
262.409	67.41
262.626	16.21
262.842	28.5
263.058	3.93
263.274	89.94
263.49	61.27
263.707	77.65
263.923	167.76
264.139	22.36
264.355	59.22
264.571	139.09
264.787	132.95
265.004	40.79
265.22	-37.03
265.436	20.31
265.652	118.61
265.868	89.94
266.084	-24.75
266.3	63.32
266.516	32.6
266.732	83.8
266.948	32.6
267.164	65.36
267.38	69.46
267.596	98.13
267.812	71.51
268.028	79.7
268.244	67.41
268.46	32.6
268.676	81.75
268.892	83.8
269.108	51.03
269.324	46.93
269.54	1.88
269.756	139.09
269.972	61.27
270.188	36.69
270.403	77.65
270.619	24.4
270.835	61.27
271.051	32.6
271.267	-12.46
271.483	57.17
271.698	30.55
271.914	81.75
272.13	24.4
272.346	149.33
272.562	18.26
272.777	48.98
272.993	14.17
273.209	61.27
273.425	-30.89
273.64	-34.99
273.856	89.94
274.072	-2.22
274.287	-65.71
274.503	57.17
274.719	114.52
274.934	40.79
275.15	5.97
275.366	-10.41
275.581	116.56
275.797	126.8
276.012	-34.99
276.228	139.09
276.444	-24.75
276.659	118.61
276.875	-49.32
277.09	85.84
277.306	20.31
277.521	77.65
277.737	-16.55
277.952	65.36
278.168	108.37
278.383	61.27
278.599	26.45
278.814	110.42
279.03	3.93
279.245	116.56
279.461	3.93
279.676	83.8
279.892	20.31
280.107	116.56
280.322	-20.65
280.538	20.31
280.753	44.88
280.969	32.6
281.184	22.36
281.399	85.84
281.615	28.5
281.83	44.88
282.045	-80.04
282.26	-39.08
282.476	42.84
282.691	85.84
282.906	12.12
283.122	3.93
283.337	-4.27
283.552	42.84
283.767	16.21
283.983	110.42
284.198	22.36
284.413	98.13
284.628	10.07
284.843	57.17
285.058	87.89
285.274	73.56
285.489	77.65
285.704	118.61
285.919	36.69
286.134	-20.65
286.349	24.4
286.564	-34.99
286.779	91.99
286.995	75.6
287.21	-22.7
287.425	16.21
287.64	18.26
287.855	124.76
288.07	-12.46
288.285	89.94
288.5	63.32
288.715	112.47
288.93	73.56
289.145	3.93
289.36	48.98
289.575	28.5
289.79	65.36
290.004	34.64
290.219	61.27
290.434	22.36
290.649	75.6
290.864	28.5
291.079	65.36
291.294	63.32
291.509	1.88
291.724	118.61
291.938	-26.79
292.153	34.64
292.368	20.31
292.583	61.27
292.798	46.93
293.012	14.17
293.227	112.47
293.442	38.74
293.657	130.9
293.871	85.84
294.086	132.95
294.301	180.05
294.516	165.71
294.73	104.28
294.945	-34.99
295.16	3.93
295.374	69.46
295.589	149.33
295.804	-0.17
296.018	51.03
296.233	87.89
296.447	55.12
296.662	34.64
296.877	159.57
297.091	106.32
297.306	48.98
297.52	24.4
297.735	48.98
297.949	40.79
298.164	57.17
298.378	89.94
298.593	48.98
298.807	20.31
299.022	69.46
299.236	22.36
299.451	-2.22
299.665	-18.6
299.88	65.36
300.094	147.28
300.309	48.98
300.523	94.04
300.737	-0.17
300.952	91.99
301.166	79.7
301.381	5.97
301.595	32.6
301.809	147.28
302.024	8.02
302.238	24.4
302.452	51.03
302.667	96.08
302.881	112.47
303.095	55.12
303.309	24.4
303.524	10.07
303.738	8.02
303.952	14.17
304.166	51.03
304.381	-24.75
304.595	196.43
304.809	-2.22
305.023	91.99
305.237	28.5
305.452	26.45
305.666	145.24
305.88	149.33
306.094	89.94
306.308	98.13
306.522	114.52
306.736	38.74
306.95	79.7
307.164	5.97
307.379	26.45
307.593	126.8
307.807	124.76
308.021	83.8
308.235	42.84
308.449	36.69
308.663	81.75
308.877	147.28
309.091	57.17
309.305	114.52
309.519	-71.85
309.733	104.28
309.947	16.21
310.161	106.32
310.374	65.36
310.588	65.36
310.802	38.74
311.016	32.6
311.23	104.28
311.444	20.31
311.658	61.27
311.872	63.32
312.085	71.51
312.299	34.64
312.513	89.94
312.727	44.88
312.941	3.93
313.154	34.64
313.368	120.66
313.582	36.69
313.796	145.24
314.009	26.45
314.223	-4.27
314.437	-4.27
314.651	94.04
314.864	-8.36
315.078	3.93
315.292	-12.46
315.505	87.89
315.719	83.8
315.933	55.12
316.146	28.5
316.36	-2.22
316.573	108.37
316.787	94.04
317.001	94.04
317.214	77.65
317.428	79.7
317.641	79.7
317.855	61.27
318.068	61.27
318.282	81.75
318.495	137.04
318.709	114.52
318.922	30.55
319.136	83.8
319.349	106.32
319.563	14.17
319.776	83.8
319.99	-22.7
320.203	63.32
320.417	40.79
320.63	71.51
320.843	10.07
321.057	55.12
321.27	57.17
321.483	1.88
321.697	126.8
321.91	112.47
322.124	137.04
322.337	104.28
322.55	108.37
322.763	104.28
322.977	65.36
323.19	40.79
323.403	12.12
323.617	61.27
323.83	96.08
324.043	40.79
324.256	16.21
324.469	100.18
324.683	173.91
324.896	59.22
325.109	40.79
325.322	51.03
325.535	147.28
325.748	100.18
325.962	94.04
326.175	38.74
326.388	85.84
326.601	48.98
326.814	51.03
327.027	81.75
327.24	122.71
327.453	12.12
327.666	22.36
327.879	130.9
328.092	75.6
328.305	42.84
328.518	32.6
328.731	46.93
328.944	30.55
329.157	79.7
329.37	38.74
329.583	155.47
329.796	116.56
330.009	14.17
330.222	55.12
330.435	118.61
330.648	32.6
330.861	128.85
331.073	67.41
331.286	141.14
331.499	96.08
331.712	14.17
331.925	71.51
332.138	30.55
332.35	155.47
332.563	63.32
332.776	57.17
332.989	120.66
333.202	63.32
333.414	79.7
333.627	96.08
333.84	28.5
334.053	53.08
334.265	85.84
334.478	83.8
334.691	79.7
334.903	59.22
335.116	-8.36
335.329	59.22
335.541	28.5
335.754	165.71
335.966	30.55
336.179	-14.51
336.392	44.88
336.604	104.28
336.817	71.51
337.029	69.46
337.242	20.31
337.454	161.62
337.667	106.32
337.88	79.7
338.092	67.41
338.305	87.89
338.517	-4.27
338.729	91.99
338.942	-8.36
339.154	24.4
339.367	51.03
339.579	79.7
339.792	5.97
340.004	77.65
340.217	132.95
340.429	73.56
340.641	34.64
340.854	-6.31
341.066	30.55
341.278	108.37
341.491	126.8
341.703	40.79
341.915	1.88
342.128	98.13
342.34	44.88
342.552	22.36
342.764	57.17
342.977	135
343.189	36.69
343.401	116.56
343.613	71.51
343.826	77.65
344.038	12.12
344.25	104.28
344.462	1.88
344.674	79.7
344.886	71.51
345.099	87.89
345.311	153.43
345.523	65.36
345.735	3.93
345.947	100.18
346.159	59.22
346.371	147.28
346.583	63.32
346.795	128.85
347.007	63.32
347.219	100.18
347.431	65.36
347.643	153.43
347.855	69.46
348.067	128.85
348.279	-18.6
348.491	57.17
348.703	18.26
348.915	59.22
349.127	79.7
349.339	59.22
349.551	81.75
349.763	153.43
349.975	38.74
350.187	110.42
350.399	118.61
350.61	145.24
350.822	32.6
351.034	77.65
351.246	24.4
351.458	32.6
351.669	75.6
351.881	73.56
352.093	116.56
352.305	48.98
352.517	98.13
352.728	200.53
352.94	51.03
353.152	1.88
353.363	8.02
353.575	116.56
353.787	91.99
353.999	-14.51
354.21	130.9
354.422	-47.27
354.633	1.88
354.845	44.88
355.057	-2.22
355.268	40.79
355.48	48.98
355.692	-59.56
355.903	-24.75
356.115	22.36
356.326	-49.32
356.538	65.36
356.749	18.26
356.961	165.71
357.172	59.22
357.384	18.26
357.595	253.78
357.807	73.56
358.018	34.64
358.23	51.03
358.441	124.76
358.653	104.28
358.864	83.8
359.075	-30.89
359.287	65.36
359.498	120.66
359.709	69.46
359.921	120.66
360.132	69.46
360.344	83.8
360.555	10.07
360.766	36.69
360.977	1.88
361.189	96.08
361.4	51.03
361.611	87.89
361.823	-4.27
362.034	51.03
362.245	22.36
362.456	53.08
362.667	18.26
362.879	71.51
363.09	55.12
363.301	67.41
363.512	87.89
363.723	106.32
363.935	67.41
364.146	79.7
364.357	63.32
364.568	110.42
364.779	-6.31
364.99	128.85
365.201	16.21
365.412	169.81
365.623	22.36
365.834	55.12
366.045	40.79
366.256	81.75
366.467	63.32
366.678	69.46
366.889	75.6
367.1	77.65
367.311	28.5
367.522	34.64
367.733	94.04
367.944	130.9
368.155	14.17
368.366	89.94
368.577	182.1
368.788	32.6
368.999	67.41
369.209	10.07
369.42	137.04
369.631	118.61
369.842	147.28
370.053	132.95
370.264	106.32
370.474	-22.7
370.685	83.8
370.896	46.93
371.107	79.7
371.317	83.8
371.528	48.98
371.739	126.8
371.95	48.98
372.16	77.65
372.371	83.8
372.582	28.5
372.792	81.75
373.003	102.23
373.214	28.5
373.424	44.88
373.635	1.88
373.846	139.09
374.056	57.17
374.267	53.08
374.477	51.03
374.688	112.47
374.898	59.22
375.109	53.08
375.319	40.79
375.53	141.14
375.74	145.24
375.951	71.51
376.161	73.56
376.372	180.05
376.582	65.36
376.793	98.13
377.003	46.93
377.214	-0.17
377.424	178
377.635	46.93
377.845	32.6
378.055	98.13
378.266	73.56
378.476	83.8
378.686	77.65
378.897	141.14
379.107	36.69
379.317	63.32
379.528	63.32
379.738	67.41
379.948	75.6
380.158	59.22
380.369	71.51
380.579	124.76
380.789	3.93
380.999	65.36
381.21	73.56
381.42	208.72
381.63	57.17
381.84	91.99
382.05	89.94
382.261	118.61
382.471	106.32
382.681	65.36
382.891	137.04
383.101	79.7
383.311	59.22
383.521	28.5
383.731	85.84
383.941	94.04
384.151	16.21
384.361	61.27
384.571	73.56
384.781	79.7
384.991	130.9
385.201	126.8
385.411	147.28
385.621	100.18
385.831	51.03
386.041	96.08
386.251	69.46
386.461	182.1
386.671	79.7
386.881	51.03
387.091	77.65
387.301	151.38
387.511	24.4
387.72	26.45
387.93	110.42
388.14	-2.22
388.35	145.24
388.56	116.56
388.769	167.76
388.979	69.46
389.189	81.75
389.399	36.69
389.609	100.18
389.818	65.36
390.028	96.08
390.238	91.99
390.447	8.02
390.657	116.56
390.867	55.12
391.076	-0.17
391.286	81.75
391.496	126.8
391.705	61.27
391.915	106.32
392.125	126.8
392.334	106.32
392.544	204.63
392.753	106.32
392.963	18.26
393.172	89.94
393.382	53.08
393.591	132.95
393.801	112.47
394.01	132.95
394.22	77.65
394.429	67.41
394.639	108.37
394.848	155.47
395.058	118.61
395.267	153.43
395.477	178
395.686	55.12
395.895	194.39
396.105	221.01
396.314	126.8
396.524	67.41
396.733	120.66
396.942	190.29
397.152	161.62
397.361	153.43
397.57	165.71
397.78	163.67
397.989	210.77
398.198	190.29
398.407	157.52
398.617	139.09
398.826	165.71
399.035	112.47
399.244	198.48
399.453	128.85
399.663	96.08
399.872	135
400.081	120.66
400.29	229.2
400.499	120.66
400.708	278.35
400.917	167.76
401.127	200.53
401.336	167.76
401.545	237.39
401.754	204.63
401.963	210.77
402.172	143.19
402.381	24.4
402.59	100.18
402.799	145.24
403.008	180.05
403.217	190.29
403.426	171.86
403.635	161.62
403.844	198.48
404.053	223.06
404.262	231.25
404.471	286.54
404.68	143.19
404.888	235.35
405.097	216.91
405.306	180.05
405.515	270.16
405.724	229.2
405.933	276.31
406.142	259.92
406.35	272.21
406.559	296.78
406.768	288.59
406.977	380.75
407.185	284.5
407.394	376.66
407.603	245.59
407.812	298.83
408.02	384.85
408.229	286.54
408.438	413.52
408.646	329.55
408.855	413.52
409.064	417.61
409.272	325.46
409.481	454.48
409.69	442.19
409.898	319.31
410.107	393.04
410.315	460.62
410.524	417.61
410.733	560.97
410.941	491.34
411.15	495.44
411.358	581.45
411.567	673.61
411.775	669.52
411.984	589.64
412.192	618.32
412.401	614.22
412.609	700.23
412.818	714.57
413.026	685.9
413.234	757.58
413.443	898.89
413.651	806.73
413.86	806.73
414.068	855.88
414.276	941.89
414.485	925.51
414.693	964.42
414.901	1034.05
415.11	991.05
415.318	991.05
415.526	1032.01
415.734	1056.58
415.943	1199.94
416.151	1019.72
416.359	1288
416.567	1238.85
416.776	1345.34
416.984	1257.28
417.192	1445.7
417.4	1376.06
417.608	1466.17
417.817	1468.22
418.025	1632.06
418.233	1732.41
418.441	1597.24
418.649	1759.03
418.857	1744.7
419.065	1791.8
419.273	1789.75
419.481	1873.72
419.689	2012.98
419.897	2062.13
420.105	2246.45
420.313	2277.17
420.521	2307.89
420.729	2367.28
420.937	2432.82
421.145	2453.3
421.353	2615.09
421.561	2836.27
421.769	2830.12
421.977	2826.03
422.185	2961.19
422.393	2920.23
422.601	3258.15
422.809	3170.08
423.017	3176.23
423.224	3254.05
423.432	3428.13
423.64	3501.86
423.848	3831.58
424.056	3723.04
424.263	3968.79
424.471	3819.29
424.679	3927.83
424.887	4136.73
425.094	4482.83
425.302	4413.2
425.51	4476.69
425.718	4759.31
425.925	4663.05
426.133	4826.89
426.341	5197.57
426.548	5355.27
426.756	5340.93
426.964	5332.74
427.171	5644.03
427.379	5850.88
427.586	5912.32
427.794	6227.7
428.001	6330.1
428.209	6749.93
428.417	6471.41
428.624	6907.63
428.832	7134.95
429.039	6999.79
429.247	6999.79
429.454	7532.26
429.662	8101.59
429.869	7579.36
430.076	8081.11
430.284	7925.47
430.491	8226.52
430.699	8552.15
430.906	8541.91
431.114	8746.7
431.321	9092.81
431.528	8980.17
431.736	9662.15
431.943	9963.2
432.15	9961.15
432.358	10186.43
432.565	10495.67
432.772	10436.28
432.979	10868.4
433.187	11253.42
433.394	11247.27
433.601	11828.9
433.808	11955.87
434.016	11869.86
434.223	12474.01
434.43	13084.3
434.637	12787.35
434.844	13336.2
435.052	13688.45
435.259	13764.23
435.466	13852.29
435.673	13598.34
435.88	14624.37
436.087	15384.17
436.294	15335.02
436.501	14902.9
436.708	15027.82
436.915	15611.5
437.122	16283.23
437.329	16225.89
437.537	16639.58
437.743	17010.26
437.95	17081.94
438.157	17589.83
438.364	18316.86
438.571	18216.51
438.778	17921.6
438.985	19805.74
439.192	18832.95
439.399	19430.96
439.606	19086.9
439.813	20252.19
440.02	21648.91
440.227	20979.22
440.433	20768.28
440.64	21059.09
440.847	21224.98
441.054	21865.99
441.261	23184.88
441.467	22490.62
441.674	23115.25
441.881	23848.43
442.088	23668.2
442.294	23440.88
442.501	23926.25
442.708	24282.59
442.914	25462.22
443.121	26166.73
443.328	25869.77
443.534	27301.3
443.741	26672.57
443.948	26176.97
444.154	28157.35
444.361	27878.83
444.568	28052.91
444.774	28169.64
444.981	28321.19
445.187	28937.63
445.394	30213.51
445.6	29732.24
445.807	32623.97
446.013	31001.98
446.22	31767.92
446.426	32697.7
446.633	33160.54
446.839	33994.06
447.046	32968.03
447.252	34325.83
447.459	34032.97
447.665	34213.2
447.871	35751.22
448.078	37133.6
448.284	34999.62
448.491	35878.19
448.697	37494.04
448.903	37829.91
449.11	38251.79
449.316	37471.51
449.522	37956.88
449.728	39089.41
449.935	38886.66
450.141	39230.72
450.347	39890.16
450.553	38518.03
450.76	38677.77
450.966	40131.82
451.172	39562.49
451.378	40492.27
451.584	40043.76
451.791	40451.31
451.997	40502.51
452.203	40836.33
452.409	40660.2
452.615	40682.73
452.821	39054.59
453.027	38272.27
453.233	40977.64
453.44	38993.15
453.646	39283.97
453.852	39390.46
454.058	39519.48
454.264	38579.46
454.47	39417.08
454.676	38327.56
454.882	39439.61
455.088	36332.84
455.294	36404.52
455.5	36701.48
455.705	37510.42
455.911	35980.59
456.117	35067.2
456.323	34366.79
456.529	32345.45
456.735	34106.7
456.941	32994.65
457.147	32660.83
457.352	31403.38
457.558	31194.49
457.764	31065.47
457.97	30545.28
458.176	29758.86
458.381	29642.13
458.587	28231.08
458.793	28503.46
458.999	26482.11
459.204	28482.98
459.41	27514.29
459.616	25884.11
459.821	26011.08
460.027	25441.75
460.233	24968.66
460.438	23963.11
460.644	24065.51
460.85	22785.53
461.055	22259.2
461.261	22466.05
461.466	20545.05
461.672	19865.13
461.878	21485.07
462.083	19938.85
462.289	19295.79
462.494	19486.25
462.7	18542.14
462.905	18046.53
463.111	18599.48
463.316	18882.1
463.522	18202.18
463.727	18075.2
463.932	18198.08
464.138	17440.33
464.343	17958.47
464.549	17231.44
464.754	17851.97
464.959	17716.81
465.165	17630.79
465.37	16428.63
465.575	16387.68
465.781	17030.74
465.986	16922.2
466.191	16395.87
466.397	16006.75
466.602	15128.17
