Data from USB4F104151__10__12-11-30-111.txt Node

Date: Fri Mar 14 12:11:30 EDT 2025
User: louis
Spectrometer: USB4F10415
Trigger mode: 4
Integration Time (sec): 5.000000E-2
Scans to average: 1
Electric dark correction enabled: true
Nonlinearity correction enabled: false
Boxcar width: 0
XAxis mode: Wavelengths
Number of Pixels in Spectrum: 3648
>>>>>Begin Spectral Data<<<<<
178.204	-189.95
178.424	-189.95
178.644	-189.95
178.864	-196.09
179.084	-282.11
179.304	4.61
179.524	-42.5
179.744	-30.21
179.964	74.24
180.184	-15.87
180.404	45.57
180.624	25.09
180.844	25.09
181.064	-48.64
181.283	39.42
181.503	-112.13
181.723	35.33
181.943	-118.27
182.163	94.72
182.383	20.99
182.602	70.14
182.822	68.09
183.042	53.76
183.262	0.51
183.482	-17.92
183.701	35.33
183.921	41.47
184.141	-11.78
184.361	80.38
184.58	18.94
184.8	-44.54
185.02	43.52
185.239	25.09
185.459	31.23
185.679	78.33
185.898	-46.59
186.118	57.86
186.338	8.7
186.557	61.95
186.777	25.09
186.997	-17.92
187.216	8.7
187.436	90.62
187.655	0.51
187.875	143.87
188.095	96.77
188.314	51.71
188.534	72.19
188.753	27.14
188.973	96.77
189.192	47.62
189.412	74.24
189.631	-13.82
189.851	57.86
190.07	129.53
190.29	10.75
190.509	43.52
190.729	37.38
190.948	35.33
191.168	233.98
191.387	47.62
191.607	-13.82
191.826	37.38
192.045	31.23
192.265	47.62
192.484	39.42
192.704	47.62
192.923	-60.93
193.142	113.15
193.362	47.62
193.581	88.57
193.8	49.66
194.02	74.24
194.239	115.2
194.458	27.14
194.678	76.29
194.897	2.56
195.116	25.09
195.335	-24.06
195.555	33.28
195.774	-13.82
195.993	0.51
196.212	-11.78
196.432	14.85
196.651	-54.78
196.87	-22.02
197.089	88.57
197.308	-24.06
197.528	86.53
197.747	-22.02
197.966	66.05
198.185	141.82
198.404	-40.45
198.623	41.47
198.842	45.57
199.062	41.47
199.281	27.14
199.5	16.9
199.719	57.86
199.938	0.51
200.157	96.77
200.376	53.76
200.595	121.34
200.814	84.48
201.033	18.94
201.252	53.76
201.471	8.7
201.69	88.57
201.909	70.14
202.128	70.14
202.347	96.77
202.566	53.76
202.785	4.61
203.004	14.85
203.223	219.64
203.442	121.34
203.661	59.9
203.879	-11.78
204.098	121.34
204.317	-60.93
204.536	27.14
204.755	102.91
204.974	-13.82
205.193	-3.58
205.411	199.16
205.63	78.33
205.849	-3.58
206.068	-34.3
206.287	-11.78
206.505	100.86
206.724	61.95
206.943	0.51
207.162	-17.92
207.381	92.67
207.599	12.8
207.818	27.14
208.037	10.75
208.255	47.62
208.474	37.38
208.693	45.57
208.911	12.8
209.13	61.95
209.349	29.18
209.567	102.91
209.786	29.18
210.005	53.76
210.223	57.86
210.442	25.09
210.661	-1.54
210.879	102.91
211.098	23.04
211.316	100.86
211.535	-28.16
211.753	23.04
211.972	20.99
212.191	-11.78
212.409	29.18
212.628	-13.82
212.846	55.81
213.065	100.86
213.283	88.57
213.502	45.57
213.72	78.33
213.938	10.75
214.157	53.76
214.375	113.15
214.594	-19.97
214.812	137.73
215.031	80.38
215.249	59.9
215.467	27.14
215.686	-1.54
215.904	88.57
216.122	55.81
216.341	115.2
216.559	64
216.778	86.53
216.996	37.38
217.214	4.61
217.432	49.66
217.651	27.14
217.869	61.95
218.087	72.19
218.306	-48.64
218.524	64
218.742	-28.16
218.96	35.33
219.179	117.25
219.397	14.85
219.615	176.64
219.833	88.57
220.051	0.51
220.27	121.34
220.488	96.77
220.706	37.38
220.924	53.76
221.142	-65.02
221.36	61.95
221.578	-28.16
221.796	18.94
222.015	68.09
222.233	57.86
222.451	127.49
222.669	2.56
222.887	61.95
223.105	18.94
223.323	72.19
223.541	2.56
223.759	23.04
223.977	-17.92
224.195	123.39
224.413	33.28
224.631	90.62
224.849	51.71
225.067	133.63
225.285	-11.78
225.503	-52.74
225.721	-79.36
225.939	14.85
226.157	29.18
226.375	152.06
226.592	41.47
226.81	59.9
227.028	70.14
227.246	90.62
227.464	12.8
227.682	29.18
227.9	80.38
228.117	39.42
228.335	-34.3
228.553	27.14
228.771	39.42
228.989	84.48
229.206	37.38
229.424	-60.93
229.642	-44.54
229.86	113.15
230.077	86.53
230.295	76.29
230.513	61.95
230.731	-1.54
230.948	98.81
231.166	37.38
231.384	20.99
231.601	-32.26
231.819	162.3
232.037	70.14
232.254	-62.98
232.472	78.33
232.689	-32.26
232.907	66.05
233.125	14.85
233.342	-73.21
233.56	-9.73
233.777	-36.35
233.995	102.91
234.213	82.43
234.43	74.24
234.648	23.04
234.865	53.76
235.083	4.61
235.3	-13.82
235.518	68.09
235.735	129.53
235.953	55.81
236.17	49.66
236.388	39.42
236.605	20.99
236.822	8.7
237.04	68.09
237.257	37.38
237.475	-62.98
237.692	2.56
237.909	-9.73
238.127	29.18
238.344	102.91
238.562	61.95
238.779	-11.78
238.996	-48.64
239.214	18.94
239.431	61.95
239.648	49.66
239.865	23.04
240.083	90.62
240.3	20.99
240.517	64
240.735	39.42
240.952	88.57
241.169	18.94
241.386	70.14
241.603	66.05
241.821	37.38
242.038	96.77
242.255	86.53
242.472	-3.58
242.689	45.57
242.907	111.1
243.124	2.56
243.341	23.04
243.558	4.61
243.775	-69.12
243.992	-17.92
244.209	80.38
244.426	193.02
244.643	29.18
244.86	-7.68
245.078	117.25
245.295	66.05
245.512	20.99
245.729	55.81
245.946	115.2
246.163	59.9
246.38	0.51
246.597	27.14
246.814	68.09
247.031	55.81
247.248	98.81
247.464	-17.92
247.681	-17.92
247.898	68.09
248.115	61.95
248.332	49.66
248.549	88.57
248.766	66.05
248.983	76.29
249.2	119.29
249.417	102.91
249.633	-1.54
249.85	96.77
250.067	31.23
250.284	14.85
250.501	51.71
250.717	94.72
250.934	-24.06
251.151	41.47
251.368	2.56
251.585	43.52
251.801	16.9
252.018	14.85
252.235	53.76
252.451	-11.78
252.668	29.18
252.885	35.33
253.102	20.99
253.318	64
253.535	0.51
253.752	47.62
253.968	90.62
254.185	-52.74
254.401	66.05
254.618	47.62
254.835	-38.4
255.051	107.01
255.268	10.75
255.484	41.47
255.701	25.09
255.917	94.72
256.134	-65.02
256.351	41.47
256.567	-9.73
256.784	-15.87
257	-40.45
257.217	74.24
257.433	39.42
257.65	-26.11
257.866	86.53
258.082	10.75
258.299	-13.82
258.515	49.66
258.732	47.62
258.948	-32.26
259.165	45.57
259.381	-60.93
259.597	127.49
259.814	-7.68
260.03	18.94
260.246	-17.92
260.463	117.25
260.679	12.8
260.895	-7.68
261.112	96.77
261.328	6.66
261.544	74.24
261.761	84.48
261.977	2.56
262.193	-30.21
262.409	27.14
262.626	72.19
262.842	76.29
263.058	-17.92
263.274	27.14
263.49	61.95
263.707	90.62
263.923	29.18
264.139	-62.98
264.355	29.18
264.571	162.3
264.787	29.18
265.004	98.81
265.22	76.29
265.436	8.7
265.652	33.28
265.868	37.38
266.084	14.85
266.3	92.67
266.516	-1.54
266.732	33.28
266.948	-17.92
267.164	-11.78
267.38	70.14
267.596	139.77
267.812	164.35
268.028	39.42
268.244	45.57
268.46	51.71
268.676	-17.92
268.892	25.09
269.108	2.56
269.324	-24.06
269.54	47.62
269.756	100.86
269.972	37.38
270.188	39.42
270.403	-24.06
270.619	33.28
270.835	33.28
271.051	14.85
271.267	98.81
271.483	49.66
271.698	47.62
271.914	37.38
272.13	25.09
272.346	2.56
272.562	-5.63
272.777	102.91
272.993	-32.26
273.209	18.94
273.425	96.77
273.64	-9.73
273.856	55.81
274.072	55.81
274.287	51.71
274.503	37.38
274.719	115.2
274.934	59.9
275.15	0.51
275.366	35.33
275.581	59.9
275.797	10.75
276.012	4.61
276.228	-34.3
276.444	61.95
276.659	82.43
276.875	-13.82
277.09	-7.68
277.306	41.47
277.521	160.25
277.737	53.76
277.952	66.05
278.168	39.42
278.383	12.8
278.599	-11.78
278.814	23.04
279.03	-1.54
279.245	74.24
279.461	45.57
279.676	88.57
279.892	-58.88
280.107	-58.88
280.322	-34.3
280.538	107.01
280.753	-40.45
280.969	55.81
281.184	100.86
281.399	127.49
281.615	88.57
281.83	78.33
282.045	-44.54
282.26	18.94
282.476	33.28
282.691	37.38
282.906	61.95
283.122	78.33
283.337	-24.06
283.552	10.75
283.767	18.94
283.983	94.72
284.198	27.14
284.413	98.81
284.628	14.85
284.843	31.23
285.058	33.28
285.274	98.81
285.489	14.85
285.704	92.67
285.919	8.7
286.134	49.66
286.349	55.81
286.564	-50.69
286.779	84.48
286.995	47.62
287.21	-130.56
287.425	18.94
287.64	16.9
287.855	41.47
288.07	55.81
288.285	129.53
288.5	92.67
288.715	115.2
288.93	43.52
289.145	-46.59
289.36	74.24
289.575	-3.58
289.79	123.39
290.004	53.76
290.219	68.09
290.434	23.04
290.649	31.23
290.864	-1.54
291.079	107.01
291.294	20.99
291.509	72.19
291.724	29.18
291.938	61.95
292.153	90.62
292.368	2.56
292.583	70.14
292.798	35.33
293.012	-42.5
293.227	45.57
293.442	14.85
293.657	61.95
293.871	129.53
294.086	111.1
294.301	127.49
294.516	35.33
294.73	2.56
294.945	-40.45
295.16	70.14
295.374	64
295.589	84.48
295.804	39.42
296.018	59.9
296.233	92.67
296.447	82.43
296.662	-26.11
296.877	76.29
297.091	66.05
297.306	12.8
297.52	20.99
297.735	74.24
297.949	82.43
298.164	86.53
298.378	27.14
298.593	20.99
298.807	6.66
299.022	35.33
299.236	82.43
299.451	37.38
299.665	-65.02
299.88	82.43
300.094	49.66
300.309	41.47
300.523	41.47
300.737	0.51
300.952	82.43
301.166	66.05
301.381	59.9
301.595	61.95
301.809	8.7
302.024	57.86
302.238	66.05
302.452	88.57
302.667	90.62
302.881	47.62
303.095	66.05
303.309	88.57
303.524	0.51
303.738	-1.54
303.952	-3.58
304.166	57.86
304.381	86.53
304.595	64
304.809	-52.74
305.023	12.8
305.237	10.75
305.452	4.61
305.666	59.9
305.88	64
306.094	98.81
306.308	86.53
306.522	61.95
306.736	-1.54
306.95	-9.73
307.164	94.72
307.379	27.14
307.593	90.62
307.807	158.21
308.021	-40.45
308.235	57.86
308.449	0.51
308.663	-1.54
308.877	123.39
309.091	115.2
309.305	55.81
309.519	33.28
309.733	51.71
309.947	-24.06
310.161	88.57
310.374	37.38
310.588	78.33
310.802	37.38
311.016	-11.78
311.23	23.04
311.444	-1.54
311.658	-13.82
311.872	59.9
312.085	90.62
312.299	100.86
312.513	100.86
312.727	78.33
312.941	35.33
313.154	68.09
313.368	4.61
313.582	47.62
313.796	72.19
314.009	16.9
314.223	84.48
314.437	61.95
314.651	104.96
314.864	12.8
315.078	51.71
315.292	-28.16
315.505	-26.11
315.719	115.2
315.933	86.53
316.146	-36.35
316.36	-24.06
316.573	115.2
316.787	51.71
317.001	31.23
317.214	4.61
317.428	88.57
317.641	-26.11
317.855	-36.35
318.068	35.33
318.282	23.04
318.495	92.67
318.709	55.81
318.922	41.47
319.136	170.49
319.349	57.86
319.563	-42.5
319.776	102.91
319.99	-9.73
320.203	53.76
320.417	-1.54
320.63	51.71
320.843	176.64
321.057	-3.58
321.27	-34.3
321.483	51.71
321.697	156.16
321.91	-1.54
322.124	18.94
322.337	55.81
322.55	-17.92
322.763	113.15
322.977	8.7
323.19	20.99
323.403	25.09
323.617	39.42
323.83	64
324.043	27.14
324.256	59.9
324.469	-38.4
324.683	168.45
324.896	96.77
325.109	35.33
325.322	18.94
325.535	68.09
325.748	102.91
325.962	-22.02
326.175	27.14
326.388	82.43
326.601	117.25
326.814	53.76
327.027	-36.35
327.24	131.58
327.453	-77.31
327.666	96.77
327.879	61.95
328.092	78.33
328.305	98.81
328.518	-17.92
328.731	23.04
328.944	20.99
329.157	33.28
329.37	16.9
329.583	137.73
329.796	84.48
330.009	-28.16
330.222	119.29
330.435	119.29
330.648	96.77
330.861	74.24
331.073	47.62
331.286	72.19
331.499	6.66
331.712	-3.58
331.925	29.18
332.138	68.09
332.35	123.39
332.563	-56.83
332.776	-1.54
332.989	-28.16
333.202	43.52
333.414	20.99
333.627	78.33
333.84	18.94
334.053	45.57
334.265	53.76
334.478	59.9
334.691	-24.06
334.903	68.09
335.116	2.56
335.329	-9.73
335.541	117.25
335.754	115.2
335.966	0.51
336.179	43.52
336.392	-1.54
336.604	129.53
336.817	80.38
337.029	41.47
337.242	53.76
337.454	92.67
337.667	55.81
337.88	178.69
338.092	49.66
338.305	115.2
338.517	-32.26
338.729	59.9
338.942	39.42
339.154	-19.97
339.367	2.56
339.579	86.53
339.792	88.57
340.004	76.29
340.217	-36.35
340.429	98.81
340.641	-22.02
340.854	47.62
341.066	-19.97
341.278	41.47
341.491	154.11
341.703	29.18
341.915	25.09
342.128	84.48
342.34	33.28
342.552	-34.3
342.764	14.85
342.977	59.9
343.189	33.28
343.401	78.33
343.613	4.61
343.826	51.71
344.038	51.71
344.25	39.42
344.462	-28.16
344.674	74.24
344.886	41.47
345.099	64
345.311	14.85
345.523	-28.16
345.735	-62.98
345.947	31.23
346.159	29.18
346.371	82.43
346.583	92.67
346.795	141.82
347.007	78.33
347.219	78.33
347.431	-40.45
347.643	78.33
347.855	-13.82
348.067	88.57
348.279	37.38
348.491	-26.11
348.703	41.47
348.915	43.52
349.127	131.58
349.339	123.39
349.551	2.56
349.763	102.91
349.975	20.99
350.187	86.53
350.399	147.97
350.61	68.09
350.822	59.9
351.034	57.86
351.246	86.53
351.458	27.14
351.669	-3.58
351.881	47.62
352.093	84.48
352.305	84.48
352.517	-7.68
352.728	127.49
352.94	68.09
353.152	76.29
353.363	14.85
353.575	33.28
353.787	102.91
353.999	74.24
354.21	92.67
354.422	29.18
354.633	-1.54
354.845	-13.82
355.057	-3.58
355.268	-11.78
355.48	45.57
355.692	-36.35
355.903	16.9
356.115	-7.68
356.326	-11.78
356.538	156.16
356.749	41.47
356.961	78.33
357.172	35.33
357.384	-15.87
357.595	107.01
357.807	2.56
358.018	59.9
358.23	14.85
358.441	82.43
358.653	111.1
358.864	37.38
359.075	12.8
359.287	37.38
359.498	35.33
359.709	64
359.921	29.18
360.132	61.95
360.344	-15.87
360.555	2.56
360.766	64
360.977	74.24
361.189	61.95
361.4	45.57
361.611	57.86
361.823	125.44
362.034	47.62
362.245	2.56
362.456	-11.78
362.667	123.39
362.879	70.14
363.09	25.09
363.301	64
363.512	-40.45
363.723	74.24
363.935	29.18
364.146	29.18
364.357	33.28
364.568	49.66
364.779	-54.78
364.99	68.09
365.201	6.66
365.412	76.29
365.623	10.75
365.834	27.14
366.045	59.9
366.256	27.14
366.467	45.57
366.678	88.57
366.889	47.62
367.1	86.53
367.311	-11.78
367.522	49.66
367.733	111.1
367.944	70.14
368.155	141.82
368.366	64
368.577	107.01
368.788	23.04
368.999	4.61
369.209	43.52
369.42	68.09
369.631	104.96
369.842	39.42
370.053	-9.73
370.264	109.05
370.474	-17.92
370.685	53.76
370.896	31.23
371.107	139.77
371.317	37.38
371.528	43.52
371.739	137.73
371.95	72.19
372.16	51.71
372.371	33.28
372.582	-28.16
372.792	59.9
373.003	8.7
373.214	29.18
373.424	55.81
373.635	0.51
373.846	88.57
374.056	51.71
374.267	61.95
374.477	37.38
374.688	0.51
374.898	70.14
375.109	47.62
375.319	61.95
375.53	102.91
375.74	27.14
375.951	8.7
376.161	16.9
376.372	102.91
376.582	-5.63
376.793	64
377.003	-19.97
377.214	0.51
377.424	35.33
377.635	64
377.845	-17.92
378.055	88.57
378.266	-1.54
378.476	-26.11
378.686	61.95
378.897	96.77
379.107	133.63
379.317	53.76
379.528	31.23
379.738	45.57
379.948	-81.41
380.158	94.72
380.369	84.48
380.579	111.1
380.789	45.57
380.999	64
381.21	80.38
381.42	70.14
381.63	31.23
381.84	-7.68
382.05	94.72
382.261	53.76
382.471	82.43
382.681	53.76
382.891	94.72
383.101	98.81
383.311	-11.78
383.521	53.76
383.731	160.25
383.941	96.77
384.151	-9.73
384.361	74.24
384.571	6.66
384.781	-11.78
384.991	180.73
385.201	178.69
385.411	47.62
385.621	109.05
385.831	72.19
386.041	88.57
386.251	88.57
386.461	64
386.671	-30.21
386.881	59.9
387.091	2.56
387.301	141.82
387.511	66.05
387.72	25.09
387.93	33.28
388.14	33.28
388.35	53.76
388.56	45.57
388.769	84.48
388.979	64
389.189	-40.45
389.399	31.23
389.609	80.38
389.818	68.09
390.028	111.1
390.238	45.57
390.447	29.18
390.657	31.23
390.867	39.42
391.076	45.57
391.286	10.75
391.496	102.91
391.705	-26.11
391.915	127.49
392.125	64
392.334	86.53
392.544	205.31
392.753	37.38
392.963	12.8
393.172	78.33
393.382	-11.78
393.591	131.58
393.801	-24.06
394.01	37.38
394.22	-15.87
394.429	96.77
394.639	10.75
394.848	61.95
395.058	68.09
395.267	102.91
395.477	57.86
395.686	0.51
395.895	147.97
396.105	213.5
396.314	74.24
396.524	72.19
396.733	113.15
396.942	70.14
397.152	59.9
397.361	92.67
397.57	2.56
397.78	98.81
397.989	25.09
398.198	143.87
398.407	88.57
398.617	131.58
398.826	55.81
399.035	121.34
399.244	129.53
399.453	68.09
399.663	90.62
399.872	16.9
400.081	-1.54
400.29	129.53
400.499	74.24
400.708	109.05
400.917	41.47
401.127	115.2
401.336	92.67
401.545	107.01
401.754	117.25
401.963	139.77
402.172	154.11
402.381	57.86
402.59	115.2
402.799	92.67
403.008	107.01
403.217	82.43
403.426	119.29
403.635	82.43
403.844	117.25
404.053	102.91
404.262	64
404.471	195.07
404.68	203.26
404.888	137.73
405.097	164.35
405.306	160.25
405.515	143.87
405.724	125.44
405.933	139.77
406.142	145.92
406.35	264.7
406.559	172.54
406.768	88.57
406.977	254.46
407.185	156.16
407.394	205.31
407.603	135.68
407.812	215.55
408.02	150.01
408.229	217.6
408.438	111.1
408.646	162.3
408.855	225.79
409.064	262.65
409.272	178.69
409.481	156.16
409.69	156.16
409.898	147.97
410.107	160.25
410.315	236.03
410.524	223.74
410.733	211.45
410.941	207.36
411.15	266.75
411.358	295.42
411.567	244.22
411.775	272.89
411.984	233.98
412.192	301.56
412.401	301.56
412.609	406.01
412.818	406.01
413.026	408.06
413.234	358.91
413.443	311.8
413.651	367.1
413.86	338.43
414.068	483.83
414.276	543.22
414.485	426.49
414.693	485.88
414.901	489.98
415.11	512.5
415.318	434.68
415.526	520.7
415.734	557.56
415.943	510.46
416.151	551.42
416.359	532.98
416.567	512.5
416.776	616.95
416.984	680.44
417.192	717.3
417.4	627.19
417.608	645.62
417.817	672.25
418.025	786.93
418.233	866.8
418.441	733.68
418.649	778.74
418.857	842.23
419.065	848.37
419.273	852.47
419.481	930.29
419.689	924.15
419.897	950.77
420.105	981.49
420.313	1008.11
420.521	1036.78
420.729	1130.99
420.937	1069.55
421.145	1104.37
421.353	1253.87
421.561	1307.12
421.769	1321.45
421.977	1335.79
422.185	1321.45
422.393	1397.23
422.601	1485.29
422.809	1452.52
423.017	1532.39
423.224	1561.06
423.432	1624.55
423.64	1554.92
423.848	1804.77
424.056	1735.14
424.263	1853.92
424.471	1821.16
424.679	2003.43
424.887	1970.66
425.094	2068.96
425.302	2071.01
425.51	2130.4
425.718	2277.85
425.925	2243.04
426.133	2333.15
426.341	2443.74
426.548	2548.19
426.756	2439.64
426.964	2490.84
427.171	2623.96
427.379	2806.23
427.586	2759.13
427.794	2863.57
428.001	2990.55
428.209	3252.69
428.417	3148.24
428.624	3396.04
428.832	3330.51
429.039	3355.08
429.247	3226.06
429.454	3674.57
429.662	3854.79
429.869	3637.7
430.076	3969.48
430.284	3815.88
430.491	3969.48
430.699	4121.03
430.906	4082.11
431.114	4254.14
431.321	4420.03
431.528	4448.7
431.736	4743.61
431.943	4759.99
432.15	4725.18
432.358	4729.27
432.565	5249.46
432.772	5015.99
432.979	5257.65
433.187	5204.4
433.394	5312.94
433.601	5681.58
433.808	5751.21
434.016	5640.62
434.223	5933.48
434.43	6273.44
434.637	6427.04
434.844	6597.02
435.052	6750.62
435.259	6576.54
435.466	6719.9
435.673	6588.83
435.88	7027.09
436.087	7446.93
436.294	7434.64
436.501	7303.57
436.708	7582.09
436.915	7752.07
437.122	8161.67
437.329	8059.27
437.537	8098.18
437.743	8399.23
437.95	8401.28
438.157	8634.75
438.364	8896.89
438.571	9007.48
438.778	9261.43
438.985	9961.83
439.192	9558.38
439.399	9580.91
439.606	9505.13
439.813	10287.46
440.02	10877.27
440.227	10684.76
440.433	10471.78
440.64	10668.38
440.847	10660.19
441.054	11088.21
441.261	11786.57
441.467	11440.47
441.674	11862.35
441.881	12308.8
442.088	12185.93
442.294	12079.43
442.501	12327.24
442.708	12704.06
442.914	12964.15
443.121	13629.74
443.328	13257.01
443.534	14014.76
443.741	13642.03
443.948	13463.86
444.154	14719.26
444.361	14299.43
444.568	14541.09
444.774	14444.84
444.981	14438.69
445.187	14876.96
445.394	15739.15
445.6	15407.38
445.807	16806.14
446.013	16206.09
446.22	16412.93
446.426	17389.81
446.633	17324.28
446.839	17862.9
447.046	16963.84
447.252	18069.74
447.459	18243.82
447.665	18010.35
447.871	18774.24
448.078	19687.64
448.284	18604.26
448.491	19316.95
448.697	19775.7
448.903	20259.02
449.11	20121.8
449.316	19777.75
449.522	20605.13
449.728	20846.79
449.935	20914.37
450.141	21078.21
450.347	21397.69
450.553	20506.82
450.76	20963.52
450.966	21733.56
451.172	21733.56
451.378	22235.31
451.584	21469.37
451.791	22167.73
451.997	21659.83
452.203	22339.76
452.409	22153.39
452.615	22069.42
452.821	21350.59
453.027	21115.07
453.233	22108.33
453.44	21311.67
453.646	21364.92
453.852	21481.66
454.058	21776.56
454.264	21014.72
454.47	21530.81
454.676	20885.7
454.882	21629.11
455.088	19970.26
455.294	20056.27
455.5	20345.03
455.705	20936.9
455.911	19693.78
456.117	19255.51
456.323	19063.01
456.529	18043.12
456.735	18954.46
456.941	18333.93
457.147	18168.04
457.352	17656.05
457.558	17285.37
457.764	17438.97
457.97	17051.9
458.176	16634.11
458.381	16455.94
458.587	15941.9
458.793	15847.69
458.999	15036.7
459.204	15776.02
459.41	15399.19
459.616	14352.68
459.821	14463.27
460.027	14321.96
460.233	14127.4
460.438	13381.94
460.644	13633.84
460.85	13041.98
461.055	12906.81
461.261	12917.05
461.466	11798.86
461.672	11645.26
461.878	12243.27
462.083	11514.19
462.289	11108.69
462.494	10676.57
462.7	10539.36
462.905	10183.01
463.111	10510.69
463.316	10514.78
463.522	10309.99
463.727	10262.88
463.932	10279.27
464.138	10361.19
464.343	10240.36
464.549	9959.78
464.754	10383.71
464.959	9976.17
465.165	10338.66
465.37	9521.52
465.575	9410.93
465.781	9783.66
465.986	9933.16
466.191	9441.65
466.397	9392.5
466.602	9001.33
466.807	9238.9
467.012	9374.06
467.218	9236.85
467.423	9199.99
467.628	9120.12
