Data from USB4F104151__38__12-11-59-857.txt Node

Date: Fri Mar 14 12:11:59 EDT 2025
User: louis
Spectrometer: USB4F10415
Trigger mode: 4
Integration Time (sec): 5.000000E-2
Scans to average: 1
Electric dark correction enabled: true
Nonlinearity correction enabled: false
Boxcar width: 0
XAxis mode: Wavelengths
Number of Pixels in Spectrum: 3648
>>>>>Begin Spectral Data<<<<<
178.204	-224.08
178.424	-224.08
178.644	-224.08
178.864	-258.9
179.084	-285.52
179.304	-76.63
179.524	13.48
179.744	25.77
179.964	3.24
180.184	27.82
180.404	-4.95
180.624	-4.95
180.844	31.91
181.064	-33.62
181.283	-17.24
181.503	-9.05
181.723	44.2
181.943	-2.9
182.163	142.5
182.383	13.48
182.602	83.11
182.822	79.02
183.042	44.2
183.262	74.92
183.482	-19.29
183.701	-64.34
183.921	27.82
184.141	-4.95
184.361	36.01
184.58	3.24
184.8	11.43
185.02	83.11
185.239	76.97
185.459	-11.09
185.679	115.88
185.898	-47.96
186.118	56.49
186.338	68.78
186.557	99.5
186.777	87.21
186.997	7.34
187.216	17.58
187.436	119.98
187.655	58.54
187.875	85.16
188.095	-33.62
188.314	58.54
188.534	-25.43
188.753	27.82
188.973	48.3
189.192	124.07
189.412	-2.9
189.631	29.87
189.851	44.2
190.07	29.87
190.29	-45.91
190.509	1.19
190.729	33.96
190.948	122.02
191.168	240.81
191.387	60.59
191.607	-2.9
191.826	9.39
192.045	-25.43
192.265	42.15
192.484	128.17
192.704	-0.85
192.923	-0.85
193.142	156.84
193.362	52.39
193.581	103.59
193.8	46.25
194.02	-27.48
194.239	-7
194.458	103.59
194.678	46.25
194.897	33.96
195.116	83.11
195.335	113.83
195.555	95.4
195.774	-9.05
195.993	62.63
196.212	50.35
196.432	-95.06
196.651	33.96
196.87	9.39
197.089	138.41
197.308	33.96
197.528	101.55
197.747	-33.62
197.966	-29.52
198.185	132.26
198.404	81.07
198.623	113.83
198.842	66.73
199.062	87.21
199.281	21.67
199.5	81.07
199.719	62.63
199.938	76.97
200.157	124.07
200.376	89.26
200.595	5.29
200.814	109.74
201.033	72.87
201.252	91.31
201.471	68.78
201.69	56.49
201.909	113.83
202.128	52.39
202.347	93.35
202.566	52.39
202.785	-0.85
203.004	-4.95
203.223	197.8
203.442	42.15
203.661	13.48
203.879	17.58
204.098	13.48
204.317	-35.67
204.536	91.31
204.755	142.5
204.974	-11.09
205.193	64.68
205.411	148.65
205.63	132.26
205.849	27.82
206.068	-17.24
206.287	44.2
206.505	33.96
206.724	-9.05
206.943	64.68
207.162	-37.72
207.381	-21.33
207.599	29.87
207.818	72.87
208.037	64.68
208.255	23.72
208.474	79.02
208.693	95.4
208.911	56.49
209.13	50.35
209.349	21.67
209.567	93.35
209.786	76.97
210.005	74.92
210.223	23.72
210.442	-70.48
210.661	-4.95
210.879	83.11
211.098	48.3
211.316	31.91
211.535	13.48
211.753	9.39
211.972	25.77
212.191	29.87
212.409	50.35
212.628	115.88
212.846	-54.1
213.065	117.93
213.283	66.73
213.502	66.73
213.72	31.91
213.938	15.53
214.157	25.77
214.375	52.39
214.594	-47.96
214.812	56.49
215.031	-29.52
215.249	17.58
215.467	103.59
215.686	89.26
215.904	87.21
216.122	25.77
216.341	115.88
216.559	11.43
216.778	132.26
216.996	33.96
217.214	91.31
217.432	-19.29
217.651	9.39
217.869	31.91
218.087	-0.85
218.306	19.63
218.524	23.72
218.742	-64.34
218.96	85.16
219.179	54.44
219.397	70.83
219.615	103.59
219.833	50.35
220.051	-84.82
220.27	42.15
220.488	70.83
220.706	15.53
220.924	17.58
221.142	44.2
221.36	-13.14
221.578	-19.29
221.796	19.63
222.015	42.15
222.233	70.83
222.451	62.63
222.669	-4.95
222.887	99.5
223.105	17.58
223.323	5.29
223.541	-47.96
223.759	-2.9
223.977	-15.19
224.195	68.78
224.413	50.35
224.631	60.59
224.849	93.35
225.067	128.17
225.285	40.11
225.503	13.48
225.721	-64.34
225.939	23.72
226.157	81.07
226.375	146.6
226.592	-19.29
226.81	-33.62
227.028	23.72
227.246	152.74
227.464	66.73
227.682	76.97
227.9	85.16
228.117	46.25
228.335	-27.48
228.553	62.63
228.771	50.35
228.989	81.07
229.206	95.4
229.424	36.01
229.642	11.43
229.86	27.82
230.077	83.11
230.295	23.72
230.513	122.02
230.731	70.83
230.948	165.03
231.166	117.93
231.384	-35.67
231.601	89.26
231.819	130.22
232.037	-25.43
232.254	-72.53
232.472	25.77
232.689	-11.09
232.907	25.77
233.125	-7
233.342	25.77
233.56	-11.09
233.777	11.43
233.995	36.01
234.213	140.46
234.43	-2.9
234.648	48.3
234.865	1.19
235.083	-31.57
235.3	13.48
235.518	-4.95
235.735	103.59
235.953	36.01
236.17	58.54
236.388	38.06
236.605	33.96
236.822	103.59
237.04	25.77
237.257	56.49
237.475	-2.9
237.692	33.96
237.909	44.2
238.127	72.87
238.344	-13.14
238.562	74.92
238.779	-27.48
238.996	-58.2
239.214	72.87
239.431	105.64
239.648	-4.95
239.865	15.53
240.083	38.06
240.3	42.15
240.517	5.29
240.735	-35.67
240.952	150.7
241.169	103.59
241.386	29.87
241.603	-13.14
241.821	5.29
242.038	19.63
242.255	87.21
242.472	1.19
242.689	74.92
242.907	83.11
243.124	-25.43
243.341	-27.48
243.558	-47.96
243.775	21.67
243.992	-17.24
244.209	27.82
244.426	93.35
244.643	68.78
244.86	25.77
245.078	21.67
245.295	29.87
245.512	23.72
245.729	64.68
245.946	62.63
246.163	87.21
246.38	3.24
246.597	23.72
246.814	23.72
247.031	21.67
247.248	9.39
247.464	183.46
247.681	40.11
247.898	132.26
248.115	95.4
248.332	-23.38
248.549	40.11
248.766	91.31
248.983	89.26
249.2	-13.14
249.417	113.83
249.633	-99.16
249.85	60.59
250.067	-0.85
250.284	54.44
250.501	13.48
250.717	68.78
250.934	-62.29
251.151	31.91
251.368	52.39
251.585	42.15
251.801	36.01
252.018	-9.05
252.235	66.73
252.451	13.48
252.668	97.45
252.885	66.73
253.102	109.74
253.318	42.15
253.535	-23.38
253.752	64.68
253.968	-4.95
254.185	-76.63
254.401	52.39
254.618	-21.33
254.835	-50
255.051	111.78
255.268	9.39
255.484	87.21
255.701	-7
255.917	5.29
256.134	-2.9
256.351	36.01
256.567	13.48
256.784	95.4
257	-7
257.217	38.06
257.433	-27.48
257.65	54.44
257.866	68.78
258.082	25.77
258.299	-21.33
258.515	81.07
258.732	85.16
258.948	-43.86
259.165	36.01
259.381	1.19
259.597	66.73
259.814	124.07
260.03	68.78
260.246	46.25
260.463	81.07
260.679	85.16
260.895	33.96
261.112	19.63
261.328	23.72
261.544	-0.85
261.761	156.84
261.977	-2.9
262.193	-52.05
262.409	72.87
262.626	91.31
262.842	48.3
263.058	29.87
263.274	46.25
263.49	66.73
263.707	33.96
263.923	64.68
264.139	-80.72
264.355	42.15
264.571	117.93
264.787	19.63
265.004	101.55
265.22	85.16
265.436	76.97
265.652	48.3
265.868	89.26
266.084	70.83
266.3	36.01
266.516	11.43
266.732	83.11
266.948	72.87
267.164	56.49
267.38	52.39
267.596	48.3
267.812	162.98
268.028	79.02
268.244	58.54
268.46	17.58
268.676	33.96
268.892	21.67
269.108	83.11
269.324	38.06
269.54	-11.09
269.756	48.3
269.972	-37.72
270.188	-56.15
270.403	44.2
270.619	54.44
270.835	29.87
271.051	115.88
271.267	5.29
271.483	7.34
271.698	70.83
271.914	42.15
272.13	42.15
272.346	56.49
272.562	-45.91
272.777	62.63
272.993	-17.24
273.209	21.67
273.425	79.02
273.64	-27.48
273.856	9.39
274.072	-2.9
274.287	7.34
274.503	29.87
274.719	46.25
274.934	-9.05
275.15	46.25
275.366	56.49
275.581	38.06
275.797	93.35
276.012	46.25
276.228	15.53
276.444	56.49
276.659	3.24
276.875	70.83
277.09	38.06
277.306	11.43
277.521	103.59
277.737	56.49
277.952	70.83
278.168	31.91
278.383	7.34
278.599	7.34
278.814	105.64
279.03	-43.86
279.245	81.07
279.461	85.16
279.676	158.89
279.892	13.48
280.107	-15.19
280.322	19.63
280.538	58.54
280.753	-31.57
280.969	54.44
281.184	68.78
281.399	64.68
281.615	40.11
281.83	107.69
282.045	52.39
282.26	-15.19
282.476	-13.14
282.691	7.34
282.906	89.26
283.122	72.87
283.337	74.92
283.552	74.92
283.767	50.35
283.983	42.15
284.198	48.3
284.413	21.67
284.628	33.96
284.843	-25.43
285.058	15.53
285.274	-7
285.489	50.35
285.704	111.78
285.919	-2.9
286.134	58.54
286.349	58.54
286.564	9.39
286.779	29.87
286.995	58.54
287.21	23.72
287.425	29.87
287.64	19.63
287.855	128.17
288.07	-33.62
288.285	103.59
288.5	33.96
288.715	64.68
288.93	64.68
289.145	15.53
289.36	29.87
289.575	44.2
289.79	62.63
290.004	60.59
290.219	66.73
290.434	-4.95
290.649	23.72
290.864	83.11
291.079	23.72
291.294	19.63
291.509	99.5
291.724	13.48
291.938	-4.95
292.153	-11.09
292.368	85.16
292.583	91.31
292.798	124.07
293.012	23.72
293.227	93.35
293.442	-17.24
293.657	48.3
293.871	81.07
294.086	19.63
294.301	111.78
294.516	42.15
294.73	17.58
294.945	-47.96
295.16	-0.85
295.374	95.4
295.589	23.72
295.804	17.58
296.018	33.96
296.233	91.31
296.447	115.88
296.662	-35.67
296.877	48.3
297.091	115.88
297.306	1.19
297.52	52.39
297.735	38.06
297.949	11.43
298.164	46.25
298.378	44.2
298.593	27.82
298.807	50.35
299.022	-52.05
299.236	40.11
299.451	9.39
299.665	-0.85
299.88	33.96
300.094	48.3
300.309	38.06
300.523	42.15
300.737	46.25
300.952	3.24
301.166	44.2
301.381	19.63
301.595	-7
301.809	7.34
302.024	46.25
302.238	5.29
302.452	50.35
302.667	7.34
302.881	130.22
303.095	117.93
303.309	52.39
303.524	7.34
303.738	11.43
303.952	27.82
304.166	109.74
304.381	-76.63
304.595	56.49
304.809	54.44
305.023	76.97
305.237	81.07
305.452	1.19
305.666	76.97
305.88	111.78
306.094	54.44
306.308	60.59
306.522	81.07
306.736	-50
306.95	3.24
307.164	25.77
307.379	3.24
307.593	31.91
307.807	66.73
308.021	40.11
308.235	93.35
308.449	-7
308.663	58.54
308.877	152.74
309.091	29.87
309.305	136.36
309.519	11.43
309.733	76.97
309.947	40.11
310.161	146.6
310.374	91.31
310.588	124.07
310.802	95.4
311.016	40.11
311.23	68.78
311.444	50.35
311.658	62.63
311.872	140.46
312.085	68.78
312.299	119.98
312.513	44.2
312.727	5.29
312.941	1.19
313.154	42.15
313.368	36.01
313.582	-7
313.796	33.96
314.009	52.39
314.223	23.72
314.437	3.24
314.651	60.59
314.864	29.87
315.078	46.25
315.292	19.63
315.505	44.2
315.719	113.83
315.933	36.01
316.146	101.55
316.36	25.77
316.573	130.22
316.787	130.22
317.001	99.5
317.214	-35.67
317.428	38.06
317.641	-7
317.855	-7
318.068	81.07
318.282	76.97
318.495	105.64
318.709	76.97
318.922	48.3
319.136	76.97
319.349	105.64
319.563	-0.85
319.776	113.83
319.99	-33.62
320.203	99.5
320.417	70.83
320.63	70.83
320.843	150.7
321.057	50.35
321.27	48.3
321.483	146.6
321.697	17.58
321.91	60.59
322.124	40.11
322.337	60.59
322.55	-15.19
322.763	19.63
322.977	40.11
323.19	-47.96
323.403	25.77
323.617	130.22
323.83	42.15
324.043	33.96
324.256	79.02
324.469	31.91
324.683	48.3
324.896	50.35
325.109	21.67
325.322	9.39
325.535	-4.95
325.748	44.2
325.962	33.96
326.175	64.68
326.388	19.63
326.601	25.77
326.814	50.35
327.027	95.4
327.24	72.87
327.453	-4.95
327.666	87.21
327.879	31.91
328.092	-13.14
328.305	64.68
328.518	-4.95
328.731	23.72
328.944	79.02
329.157	62.63
329.37	44.2
329.583	140.46
329.796	93.35
330.009	-19.29
330.222	66.73
330.435	126.12
330.648	33.96
330.861	72.87
331.073	95.4
331.286	138.41
331.499	-17.24
331.712	-21.33
331.925	38.06
332.138	66.73
332.35	72.87
332.563	50.35
332.776	107.69
332.989	-25.43
333.202	64.68
333.414	52.39
333.627	17.58
333.84	-9.05
334.053	58.54
334.265	74.92
334.478	27.82
334.691	83.11
334.903	101.55
335.116	33.96
335.329	15.53
335.541	25.77
335.754	66.73
335.966	-33.62
336.179	-7
336.392	38.06
336.604	72.87
336.817	21.67
337.029	76.97
337.242	89.26
337.454	58.54
337.667	56.49
337.88	99.5
338.092	93.35
338.305	56.49
338.517	-27.48
338.729	83.11
338.942	60.59
339.154	-17.24
339.367	-54.1
339.579	9.39
339.792	13.48
340.004	97.45
340.217	-80.72
340.429	93.35
340.641	19.63
340.854	-2.9
341.066	38.06
341.278	85.16
341.491	122.02
341.703	33.96
341.915	-17.24
342.128	97.45
342.34	62.63
342.552	38.06
342.764	74.92
342.977	38.06
343.189	68.78
343.401	103.59
343.613	23.72
343.826	-21.33
344.038	-54.1
344.25	25.77
344.462	33.96
344.674	40.11
344.886	5.29
345.099	25.77
345.311	11.43
345.523	3.24
345.735	31.91
345.947	109.74
346.159	1.19
346.371	42.15
346.583	50.35
346.795	162.98
347.007	58.54
347.219	109.74
347.431	15.53
347.643	62.63
347.855	46.25
348.067	66.73
348.279	-58.2
348.491	109.74
348.703	33.96
348.915	11.43
349.127	58.54
349.339	93.35
349.551	-0.85
349.763	64.68
349.975	17.58
350.187	48.3
350.399	113.83
350.61	167.08
350.822	9.39
351.034	99.5
351.246	76.97
351.458	132.26
351.669	99.5
351.881	119.98
352.093	46.25
352.305	-35.67
352.517	64.68
352.728	76.97
352.94	54.44
353.152	107.69
353.363	11.43
353.575	58.54
353.787	156.84
353.999	68.78
354.21	165.03
354.422	-39.76
354.633	40.11
354.845	107.69
355.057	31.91
355.268	52.39
355.48	25.77
355.692	-54.1
355.903	40.11
356.115	50.35
356.326	-4.95
356.538	66.73
356.749	33.96
356.961	111.78
357.172	42.15
357.384	-21.33
357.595	152.74
357.807	33.96
358.018	-4.95
358.23	113.83
358.441	150.7
358.653	68.78
358.864	15.53
359.075	36.01
359.287	81.07
359.498	115.88
359.709	58.54
359.921	-29.52
360.132	23.72
360.344	68.78
360.555	76.97
360.766	66.73
360.977	105.64
361.189	97.45
361.4	58.54
361.611	117.93
361.823	70.83
362.034	68.78
362.245	5.29
362.456	7.34
362.667	66.73
362.879	23.72
363.09	124.07
363.301	101.55
363.512	111.78
363.723	44.2
363.935	48.3
364.146	81.07
364.357	33.96
364.568	40.11
364.779	-29.52
364.99	99.5
365.201	9.39
365.412	27.82
365.623	38.06
365.834	97.45
366.045	-4.95
366.256	87.21
366.467	36.01
366.678	105.64
366.889	107.69
367.1	36.01
367.311	83.11
367.522	-4.95
367.733	160.94
367.944	113.83
368.155	119.98
368.366	122.02
368.577	101.55
368.788	97.45
368.999	5.29
369.209	44.2
369.42	136.36
369.631	99.5
369.842	117.93
370.053	46.25
370.264	83.11
370.474	21.67
370.685	-7
370.896	21.67
371.107	72.87
371.317	13.48
371.528	74.92
371.739	158.89
371.95	117.93
372.16	89.26
372.371	-54.1
372.582	44.2
372.792	95.4
373.003	50.35
373.214	79.02
373.424	115.88
373.635	42.15
373.846	60.59
374.056	62.63
374.267	54.44
374.477	79.02
374.688	46.25
374.898	48.3
375.109	107.69
375.319	99.5
375.53	27.82
375.74	52.39
375.951	72.87
376.161	74.92
376.372	128.17
376.582	38.06
376.793	11.43
377.003	-11.09
377.214	48.3
377.424	48.3
377.635	31.91
377.845	48.3
378.055	95.4
378.266	-31.57
378.476	31.91
378.686	122.02
378.897	76.97
379.107	138.41
379.317	52.39
379.528	36.01
379.738	83.11
379.948	52.39
380.158	130.22
380.369	23.72
380.579	103.59
380.789	64.68
380.999	29.87
381.21	119.98
381.42	183.46
381.63	52.39
381.84	74.92
382.05	-0.85
382.261	89.26
382.471	68.78
382.681	64.68
382.891	79.02
383.101	54.44
383.311	11.43
383.521	27.82
383.731	23.72
383.941	154.79
384.151	126.12
384.361	72.87
384.571	5.29
384.781	60.59
384.991	134.31
385.201	54.44
385.411	117.93
385.621	83.11
385.831	29.87
386.041	130.22
386.251	158.89
386.461	68.78
386.671	38.06
386.881	58.54
387.091	158.89
387.301	99.5
387.511	74.92
387.72	87.21
387.93	103.59
388.14	-23.38
388.35	58.54
388.56	136.36
388.769	72.87
388.979	48.3
389.189	85.16
389.399	87.21
389.609	64.68
389.818	146.6
390.028	27.82
390.238	113.83
390.447	70.83
390.657	48.3
390.867	91.31
391.076	-2.9
391.286	48.3
391.496	99.5
391.705	50.35
391.915	132.26
392.125	134.31
392.334	56.49
392.544	144.55
392.753	42.15
392.963	81.07
393.172	70.83
393.382	60.59
393.591	156.84
393.801	56.49
394.01	150.7
394.22	144.55
394.429	142.5
394.639	128.17
394.848	146.6
395.058	31.91
395.267	-7
395.477	122.02
395.686	128.17
395.895	169.13
396.105	122.02
396.314	191.66
396.524	148.65
396.733	97.45
396.942	109.74
397.152	187.56
397.361	236.71
397.57	117.93
397.78	76.97
397.989	140.46
398.198	201.9
398.407	97.45
398.617	122.02
398.826	23.72
399.035	66.73
399.244	152.74
399.453	132.26
399.663	52.39
399.872	242.85
400.081	162.98
400.29	205.99
400.499	44.2
400.708	111.78
400.917	58.54
401.127	150.7
401.336	103.59
401.545	173.22
401.754	64.68
401.963	105.64
402.172	111.78
402.381	107.69
402.59	158.89
402.799	132.26
403.008	132.26
403.217	91.31
403.426	79.02
403.635	111.78
403.844	89.26
404.053	146.6
404.262	93.35
404.471	216.23
404.68	171.18
404.888	126.12
405.097	150.7
405.306	158.89
405.515	183.46
405.724	199.85
405.933	242.85
406.142	140.46
406.35	238.76
406.559	201.9
406.768	289.96
406.977	283.81
407.185	222.38
407.394	269.48
407.603	189.61
407.812	234.66
408.02	210.09
408.229	283.81
408.438	232.62
408.646	222.38
408.855	242.85
409.064	281.77
409.272	285.86
409.481	369.83
409.69	244.9
409.898	255.14
410.107	287.91
410.315	304.29
410.524	279.72
410.733	351.4
410.941	386.21
411.15	410.79
411.358	394.4
411.567	435.36
411.775	416.93
411.984	425.12
412.192	431.27
412.401	550.05
412.609	574.63
412.818	484.52
413.026	494.76
413.234	527.52
413.443	513.19
413.651	509.09
413.86	537.76
414.068	728.22
414.276	703.65
414.485	621.73
414.693	636.06
414.901	734.37
415.11	775.33
415.318	689.31
415.526	752.8
415.734	824.48
415.943	763.04
416.151	873.63
416.359	842.91
416.567	961.69
416.776	978.08
416.984	1131.67
417.192	1027.23
417.4	953.5
417.608	1033.37
417.817	1055.9
418.025	1272.98
418.233	1338.52
418.441	1197.21
418.649	1166.49
418.857	1334.42
419.065	1330.33
419.273	1275.03
419.481	1442.96
419.689	1528.98
419.897	1426.58
420.105	1500.31
420.313	1580.18
420.521	1666.19
420.729	1721.49
420.937	1739.92
421.145	1764.5
421.353	1957
421.561	1961.1
421.769	2049.16
421.977	2088.07
422.185	1926.29
422.393	2233.48
422.601	2337.93
422.809	2270.34
423.017	2331.78
423.224	2499.72
423.432	2604.16
423.64	2626.69
423.848	2876.54
424.056	2712.71
424.263	3013.76
424.471	2720.9
424.679	3040.38
424.887	3118.2
425.094	3353.72
425.302	3232.89
425.51	3308.66
425.718	3488.89
425.925	3595.38
426.133	3626.1
426.341	3851.38
426.548	3992.69
426.756	4004.97
426.964	3908.72
427.171	4050.03
427.379	4375.66
427.586	4353.13
427.794	4625.51
428.001	4826.21
428.209	5065.82
428.417	4858.98
428.624	5270.62
428.832	5354.58
429.039	5231.71
429.247	5227.61
429.454	5778.51
429.662	6110.29
429.869	5590.1
430.076	6200.4
430.284	5913.68
430.491	6184.01
430.699	6534.21
430.906	6667.33
431.114	6642.76
431.321	6935.62
431.528	6978.62
431.736	7451.7
431.943	7756.85
432.15	7568.44
432.358	7740.47
432.565	8186.93
432.772	7949.36
432.979	8506.41
433.187	8723.49
433.394	8612.9
433.601	9020.45
433.808	9399.32
434.016	9163.81
434.223	9567.26
434.43	10236.94
434.637	9909.27
434.844	10593.29
435.052	10900.48
435.259	10628.1
435.466	11027.46
435.673	10732.55
435.88	11289.6
436.087	12143.6
436.294	12159.99
436.501	11693.05
436.708	11932.66
436.915	12289.01
437.122	12835.81
437.329	12801
437.537	13222.88
437.743	13495.26
437.95	13548.51
438.157	14058.45
438.364	14369.74
438.571	14410.7
438.778	14574.54
438.985	15760.31
439.192	15520.7
439.399	15862.71
439.606	15467.45
439.813	16477.1
440.02	17292.19
440.227	17058.73
440.433	16956.33
440.64	17478.56
440.847	17410.98
441.054	17974.17
441.261	19004.3
441.467	18701.2
441.674	19121.03
441.881	19491.71
442.088	19516.29
442.294	19248
442.501	20044.66
442.708	20636.53
442.914	21267.3
443.121	21994.33
443.328	21504.87
443.534	23161.67
443.741	22426.45
443.948	22092.63
444.154	23788.35
444.361	23313.22
444.568	23708.48
444.774	23976.76
444.981	24009.53
445.187	24781.62
445.394	25740.07
445.6	25400.1
445.807	27988.74
446.013	26874.64
446.22	27011.85
446.426	28568.31
446.633	28390.14
446.839	29659.88
447.046	28160.76
447.252	29795.04
447.459	30040.8
447.665	29817.57
447.871	30776.02
448.078	32402.11
448.284	31113.94
448.491	31578.82
448.697	32877.24
448.903	33579.69
449.11	33591.98
449.316	33213.1
449.522	33639.08
449.728	34638.49
449.935	35127.95
450.141	34644.63
450.347	35482.25
450.553	34454.17
450.76	35154.58
450.966	36047.49
451.172	35764.87
451.378	36561.53
451.584	35953.29
451.791	36809.34
451.997	36442.75
452.203	37573.23
452.409	37436.02
452.615	37165.68
452.821	35854.98
453.027	35142.29
453.233	37345.9
453.44	36078.21
453.646	36242.05
453.852	36414.08
454.058	36866.68
454.264	35496.59
454.47	36727.42
454.676	35824.26
454.882	36981.37
455.088	33817.25
455.294	34276
455.5	34744.98
455.705	35334.8
455.911	33747.62
456.117	33141.42
456.323	32660.15
456.529	30878.42
456.735	31763.14
456.941	31613.64
457.147	30925.52
457.352	30028.51
457.558	29641.45
457.764	29948.64
457.97	28938.99
458.176	28390.14
458.381	28463.86
458.587	27054.86
458.793	27308.81
458.999	25899.81
459.204	27759.36
459.41	26581.78
459.616	25189.16
459.821	25084.72
460.027	25051.95
460.233	24517.43
460.438	23333.7
460.644	23696.19
460.85	22424.4
461.055	22084.44
461.261	21926.75
461.466	20679.54
461.672	19919.74
461.878	21351.27
462.083	20149.11
462.289	19635.07
462.494	19112.84
462.7	18322.32
462.905	18045.85
463.111	18713.49
463.316	18711.44
463.522	18267.03
463.727	18133.91
463.932	18305.94
464.138	18070.42
464.343	18017.18
464.549	17660.83
464.754	18054.04
464.959	18070.42
465.165	17941.4
465.37	17093.54
465.575	16407.47
465.781	17531.81
465.986	17382.31
466.191	16667.56
466.397	16391.09
466.602	15838.14
466.807	16174
467.012	16223.16
467.218	16178.1
