Data from USB4F104151__15__12-11-37-360.txt Node

Date: Fri Mar 14 12:11:37 EDT 2025
User: louis
Spectrometer: USB4F10415
Trigger mode: 4
Integration Time (sec): 5.000000E-2
Scans to average: 1
Electric dark correction enabled: true
Nonlinearity correction enabled: false
Boxcar width: 0
XAxis mode: Wavelengths
Number of Pixels in Spectrum: 3648
>>>>>Begin Spectral Data<<<<<
178.204	-277.84
178.424	-277.84
178.644	-277.84
178.864	-263.51
179.084	-251.22
179.304	-17.75
179.524	-50.52
179.744	-40.28
179.964	109.22
180.184	21.16
180.404	17.07
180.624	8.87
180.844	31.4
181.064	-83.28
181.283	-1.37
181.503	-25.94
181.723	31.4
181.943	-89.43
182.163	43.69
182.383	31.4
182.602	51.88
182.822	80.55
183.042	-34.13
183.262	2.73
183.482	-1.37
183.701	64.17
183.921	6.83
184.141	-44.37
184.361	25.26
184.58	6.83
184.8	70.31
185.02	6.83
185.239	62.12
185.459	60.07
185.679	76.46
185.898	-21.85
186.118	29.35
186.338	66.22
186.557	27.31
186.777	4.78
186.997	21.16
187.216	-46.42
187.436	86.7
187.655	35.5
187.875	84.65
188.095	45.74
188.314	58.03
188.534	66.22
188.753	-36.18
188.973	101.03
189.192	105.13
189.412	-21.85
189.631	25.26
189.851	-19.8
190.07	103.08
190.29	25.26
190.509	-42.32
190.729	-21.85
190.948	10.92
191.168	223.91
191.387	64.17
191.607	15.02
191.826	66.22
192.045	-13.65
192.265	-38.23
192.484	-9.56
192.704	76.46
192.923	-101.72
193.142	127.66
193.362	86.7
193.581	152.23
193.8	37.55
194.02	2.73
194.239	2.73
194.458	29.35
194.678	10.92
194.897	41.64
195.116	-60.76
195.335	37.55
195.555	98.99
195.774	23.21
195.993	62.12
196.212	4.78
196.432	23.21
196.651	-50.52
196.87	49.83
197.089	90.79
197.308	64.17
197.528	8.87
197.747	-87.38
197.966	0.68
198.185	39.59
198.404	23.21
198.623	17.07
198.842	12.97
199.062	31.4
199.281	92.84
199.5	27.31
199.719	-1.37
199.938	72.36
200.157	62.12
200.376	58.03
200.595	12.97
200.814	92.84
201.033	31.4
201.252	60.07
201.471	33.45
201.69	88.75
201.909	25.26
202.128	62.12
202.347	39.59
202.566	-23.89
202.785	25.26
203.004	-38.23
203.223	105.13
203.442	-21.85
203.661	-23.89
203.879	-71
204.098	64.17
204.317	-56.66
204.536	12.97
204.755	55.98
204.974	49.83
205.193	-11.61
205.411	150.18
205.63	17.07
205.849	88.75
206.068	-13.65
206.287	2.73
206.505	43.69
206.724	53.93
206.943	27.31
207.162	25.26
207.381	-32.08
207.599	4.78
207.818	29.35
208.037	33.45
208.255	2.73
208.474	-11.61
208.693	127.66
208.911	2.73
209.13	66.22
209.349	72.36
209.567	58.03
209.786	31.4
210.005	-11.61
210.223	-52.56
210.442	2.73
210.661	10.92
210.879	35.5
211.098	4.78
211.316	2.73
211.535	-3.41
211.753	-3.41
211.972	19.11
212.191	-5.46
212.409	29.35
212.628	37.55
212.846	43.69
213.065	29.35
213.283	88.75
213.502	-5.46
213.72	55.98
213.938	10.92
214.157	10.92
214.375	70.31
214.594	15.02
214.812	25.26
215.031	51.88
215.249	-23.89
215.467	6.83
215.686	23.21
215.904	101.03
216.122	76.46
216.341	58.03
216.559	21.16
216.778	8.87
216.996	64.17
217.214	107.18
217.432	41.64
217.651	-19.8
217.869	-11.61
218.087	8.87
218.306	12.97
218.524	6.83
218.742	-40.28
218.96	25.26
219.179	-44.37
219.397	51.88
219.615	137.9
219.833	58.03
220.051	31.4
220.27	4.78
220.488	-5.46
220.706	0.68
220.924	47.79
221.142	-30.04
221.36	8.87
221.578	15.02
221.796	-7.51
222.015	-46.42
222.233	-30.04
222.451	58.03
222.669	31.4
222.887	8.87
223.105	4.78
223.323	-27.99
223.541	2.73
223.759	94.89
223.977	-36.18
224.195	39.59
224.413	62.12
224.631	-13.65
224.849	0.68
225.067	45.74
225.285	-66.9
225.503	31.4
225.721	-109.91
225.939	43.69
226.157	27.31
226.375	141.99
226.592	-25.94
226.81	29.35
227.028	72.36
227.246	105.13
227.464	37.55
227.682	25.26
227.9	45.74
228.117	8.87
228.335	-17.75
228.553	55.98
228.771	-5.46
228.989	37.55
229.206	105.13
229.424	76.46
229.642	-48.47
229.86	-42.32
230.077	113.32
230.295	47.79
230.513	78.51
230.731	-23.89
230.948	49.83
231.166	37.55
231.384	2.73
231.601	-36.18
231.819	115.37
232.037	-19.8
232.254	-13.65
232.472	-5.46
232.689	-64.85
232.907	103.08
233.125	-48.47
233.342	8.87
233.56	45.74
233.777	-15.7
233.995	-58.71
234.213	127.66
234.43	37.55
234.648	49.83
234.865	2.73
235.083	41.64
235.3	-7.51
235.518	19.11
235.735	-3.41
235.953	55.98
236.17	88.75
236.388	49.83
236.605	-34.13
236.822	98.99
237.04	55.98
237.257	-44.37
237.475	39.59
237.692	80.55
237.909	27.31
238.127	-23.89
238.344	37.55
238.562	31.4
238.779	-21.85
238.996	27.31
239.214	39.59
239.431	37.55
239.648	-1.37
239.865	49.83
240.083	117.42
240.3	-52.56
240.517	19.11
240.735	49.83
240.952	101.03
241.169	58.03
241.386	-25.94
241.603	-36.18
241.821	15.02
242.038	101.03
242.255	37.55
242.472	-77.14
242.689	2.73
242.907	45.74
243.124	74.41
243.341	-7.51
243.558	8.87
243.775	-27.99
243.992	-116.05
244.209	45.74
244.426	43.69
244.643	88.75
244.86	-48.47
245.078	51.88
245.295	74.41
245.512	68.27
245.729	43.69
245.946	19.11
246.163	17.07
246.38	-50.52
246.597	37.55
246.814	-19.8
247.031	72.36
247.248	27.31
247.464	62.12
247.681	-32.08
247.898	55.98
248.115	15.02
248.332	-36.18
248.549	-25.94
248.766	41.64
248.983	37.55
249.2	31.4
249.417	-17.75
249.633	72.36
249.85	113.32
250.067	10.92
250.284	43.69
250.501	-3.41
250.717	70.31
250.934	-3.41
251.151	-30.04
251.368	27.31
251.585	4.78
251.801	41.64
252.018	-13.65
252.235	88.75
252.451	-48.47
252.668	0.68
252.885	-1.37
253.102	-30.04
253.318	27.31
253.535	-25.94
253.752	-23.89
253.968	4.78
254.185	-25.94
254.401	27.31
254.618	8.87
254.835	-34.13
255.051	66.22
255.268	53.93
255.484	53.93
255.701	-52.56
255.917	86.7
256.134	6.83
256.351	2.73
256.567	-21.85
256.784	-1.37
257	-52.56
257.217	25.26
257.433	31.4
257.65	76.46
257.866	31.4
258.082	-3.41
258.299	-56.66
258.515	6.83
258.732	-19.8
258.948	-44.37
259.165	4.78
259.381	-95.57
259.597	0.68
259.814	-17.75
260.03	-15.7
260.246	23.21
260.463	92.84
260.679	29.35
260.895	39.59
261.112	53.93
261.328	45.74
261.544	-54.61
261.761	98.99
261.977	-27.99
262.193	-3.41
262.409	78.51
262.626	27.31
262.842	53.93
263.058	27.31
263.274	-7.51
263.49	64.17
263.707	55.98
263.923	31.4
264.139	-13.65
264.355	31.4
264.571	37.55
264.787	4.78
265.004	53.93
265.22	27.31
265.436	21.16
265.652	76.46
265.868	-32.08
266.084	-25.94
266.3	23.21
266.516	25.26
266.732	92.84
266.948	19.11
267.164	10.92
267.38	45.74
267.596	-7.51
267.812	72.36
268.028	-11.61
268.244	0.68
268.46	-3.41
268.676	-62.8
268.892	-17.75
269.108	29.35
269.324	2.73
269.54	10.92
269.756	51.88
269.972	-46.42
270.188	6.83
270.403	58.03
270.619	62.12
270.835	70.31
271.051	-40.28
271.267	-46.42
271.483	37.55
271.698	-50.52
271.914	31.4
272.13	12.97
272.346	0.68
272.562	17.07
272.777	90.79
272.993	43.69
273.209	-1.37
273.425	55.98
273.64	-68.95
273.856	88.75
274.072	10.92
274.287	-38.23
274.503	4.78
274.719	58.03
274.934	-46.42
275.15	-19.8
275.366	98.99
275.581	-52.56
275.797	19.11
276.012	-15.7
276.228	-11.61
276.444	-9.56
276.659	31.4
276.875	-75.09
277.09	-36.18
277.306	-21.85
277.521	47.79
277.737	-27.99
277.952	31.4
278.168	-38.23
278.383	-5.46
278.599	21.16
278.814	4.78
279.03	-21.85
279.245	47.79
279.461	58.03
279.676	27.31
279.892	4.78
280.107	-62.8
280.322	35.5
280.538	-3.41
280.753	-68.95
280.969	88.75
281.184	-48.47
281.399	117.42
281.615	-56.66
281.83	35.5
282.045	-1.37
282.26	-17.75
282.476	19.11
282.691	68.27
282.906	23.21
283.122	-13.65
283.337	-19.8
283.552	-38.23
283.767	-11.61
283.983	25.26
284.198	-42.32
284.413	33.45
284.628	-9.56
284.843	119.46
285.058	-1.37
285.274	-48.47
285.489	35.5
285.704	15.02
285.919	0.68
286.134	23.21
286.349	-32.08
286.564	-27.99
286.779	109.22
286.995	21.16
287.21	-60.76
287.425	4.78
287.64	-5.46
287.855	12.97
288.07	-56.66
288.285	58.03
288.5	35.5
288.715	27.31
288.93	-50.52
289.145	39.59
289.36	-30.04
289.575	-13.65
289.79	115.37
290.004	21.16
290.219	45.74
290.434	80.55
290.649	-25.94
290.864	31.4
291.079	17.07
291.294	-15.7
291.509	68.27
291.724	-13.65
291.938	-58.71
292.153	37.55
292.368	-19.8
292.583	2.73
292.798	105.13
293.012	29.35
293.227	39.59
293.442	-120.15
293.657	39.59
293.871	58.03
294.086	-3.41
294.301	72.36
294.516	-9.56
294.73	-11.61
294.945	4.78
295.16	31.4
295.374	37.55
295.589	70.31
295.804	29.35
296.018	82.6
296.233	115.37
296.447	4.78
296.662	-34.13
296.877	68.27
297.091	64.17
297.306	23.21
297.52	41.64
297.735	-56.66
297.949	15.02
298.164	2.73
298.378	27.31
298.593	31.4
298.807	-46.42
299.022	27.31
299.236	10.92
299.451	23.21
299.665	-3.41
299.88	12.97
300.094	6.83
300.309	64.17
300.523	37.55
300.737	-13.65
300.952	12.97
301.166	92.84
301.381	-62.8
301.595	-32.08
301.809	51.88
302.024	4.78
302.238	-11.61
302.452	25.26
302.667	-34.13
302.881	78.51
303.095	35.5
303.309	76.46
303.524	19.11
303.738	-17.75
303.952	-48.47
304.166	55.98
304.381	-52.56
304.595	82.6
304.809	-30.04
305.023	-15.7
305.237	43.69
305.452	-60.76
305.666	94.89
305.88	43.69
306.094	62.12
306.308	31.4
306.522	27.31
306.736	96.94
306.95	62.12
307.164	58.03
307.379	-17.75
307.593	47.79
307.807	60.07
308.021	76.46
308.235	70.31
308.449	-71
308.663	4.78
308.877	43.69
309.091	2.73
309.305	47.79
309.519	2.73
309.733	103.08
309.947	-38.23
310.161	10.92
310.374	15.02
310.588	19.11
310.802	29.35
311.016	-15.7
311.23	-19.8
311.444	-56.66
311.658	47.79
311.872	82.6
312.085	8.87
312.299	60.07
312.513	4.78
312.727	10.92
312.941	-23.89
313.154	58.03
313.368	-11.61
313.582	10.92
313.796	12.97
314.009	15.02
314.223	35.5
314.437	55.98
314.651	43.69
314.864	-7.51
315.078	8.87
315.292	-11.61
315.505	-3.41
315.719	23.21
315.933	51.88
316.146	15.02
316.36	45.74
316.573	135.85
316.787	43.69
317.001	37.55
317.214	-13.65
317.428	-71
317.641	-60.76
317.855	-50.52
318.068	37.55
318.282	47.79
318.495	101.03
318.709	6.83
318.922	29.35
319.136	17.07
319.349	47.79
319.563	47.79
319.776	-5.46
319.99	-60.76
320.203	74.41
320.417	45.74
320.63	19.11
320.843	86.7
321.057	68.27
321.27	21.16
321.483	-42.32
321.697	105.13
321.91	55.98
322.124	-81.24
322.337	-1.37
322.55	21.16
322.763	17.07
322.977	15.02
323.19	-9.56
323.403	10.92
323.617	2.73
323.83	86.7
324.043	-23.89
324.256	-7.51
324.469	-11.61
324.683	115.37
324.896	33.45
325.109	90.79
325.322	-48.47
325.535	12.97
325.748	0.68
325.962	-64.85
326.175	37.55
326.388	43.69
326.601	66.22
326.814	-54.61
327.027	45.74
327.24	45.74
327.453	-54.61
327.666	45.74
327.879	121.51
328.092	37.55
328.305	96.94
328.518	-48.47
328.731	-73.04
328.944	64.17
329.157	6.83
329.37	29.35
329.583	74.41
329.796	82.6
330.009	-48.47
330.222	86.7
330.435	62.12
330.648	12.97
330.861	-1.37
331.073	-13.65
331.286	23.21
331.499	107.18
331.712	-13.65
331.925	-19.8
332.138	33.45
332.35	41.64
332.563	2.73
332.776	33.45
332.989	8.87
333.202	49.83
333.414	-38.23
333.627	-1.37
333.84	41.64
334.053	60.07
334.265	-36.18
334.478	17.07
334.691	47.79
334.903	-5.46
335.116	-7.51
335.329	12.97
335.541	45.74
335.754	68.27
335.966	-7.51
336.179	-13.65
336.392	-46.42
336.604	62.12
336.817	66.22
337.029	21.16
337.242	4.78
337.454	37.55
337.667	-3.41
337.88	66.22
338.092	53.93
338.305	19.11
338.517	27.31
338.729	21.16
338.942	101.03
339.154	-48.47
339.367	-36.18
339.579	-48.47
339.792	-17.75
340.004	103.08
340.217	25.26
340.429	64.17
340.641	74.41
340.854	17.07
341.066	66.22
341.278	101.03
341.491	64.17
341.703	92.84
341.915	-23.89
342.128	31.4
342.34	4.78
342.552	-68.95
342.764	51.88
342.977	25.26
343.189	-3.41
343.401	25.26
343.613	-21.85
343.826	92.84
344.038	-40.28
344.25	39.59
344.462	-50.52
344.674	33.45
344.886	41.64
345.099	49.83
345.311	-3.41
345.523	-27.99
345.735	51.88
345.947	21.16
346.159	-46.42
346.371	41.64
346.583	8.87
346.795	53.93
347.007	-21.85
347.219	2.73
347.431	2.73
347.643	111.27
347.855	27.31
348.067	139.94
348.279	-30.04
348.491	111.27
348.703	27.31
348.915	10.92
349.127	-7.51
349.339	49.83
349.551	-52.56
349.763	-40.28
349.975	45.74
350.187	53.93
350.399	19.11
350.61	10.92
350.822	-25.94
351.034	21.16
351.246	58.03
351.458	55.98
351.669	37.55
351.881	15.02
352.093	0.68
352.305	15.02
352.517	53.93
352.728	64.17
352.94	-7.51
353.152	0.68
353.363	23.21
353.575	37.55
353.787	86.7
353.999	12.97
354.21	111.27
354.422	70.31
354.633	29.35
354.845	12.97
355.057	41.64
355.268	41.64
355.48	92.84
355.692	-36.18
355.903	-9.56
356.115	-32.08
356.326	-15.7
356.538	105.13
356.749	51.88
356.961	4.78
357.172	-17.75
357.384	-68.95
357.595	121.51
357.807	-71
358.018	55.98
358.23	-15.7
358.441	90.79
358.653	-15.7
358.864	2.73
359.075	-9.56
359.287	25.26
359.498	19.11
359.709	55.98
359.921	58.03
360.132	23.21
360.344	58.03
360.555	27.31
360.766	53.93
360.977	27.31
361.189	45.74
361.4	29.35
361.611	25.26
361.823	129.7
362.034	35.5
362.245	-25.94
362.456	-36.18
362.667	82.6
362.879	37.55
363.09	0.68
363.301	103.08
363.512	35.5
363.723	10.92
363.935	12.97
364.146	25.26
364.357	-32.08
364.568	15.02
364.779	29.35
364.99	55.98
365.201	76.46
365.412	60.07
365.623	-75.09
365.834	45.74
366.045	-21.85
366.256	10.92
366.467	62.12
366.678	45.74
366.889	-44.37
367.1	-52.56
367.311	64.17
367.522	-19.8
367.733	4.78
367.944	33.45
368.155	45.74
368.366	90.79
368.577	127.66
368.788	80.55
368.999	-19.8
369.209	2.73
369.42	113.32
369.631	113.32
369.842	21.16
370.053	-21.85
370.264	64.17
370.474	45.74
370.685	6.83
370.896	27.31
371.107	98.99
371.317	2.73
371.528	17.07
371.739	10.92
371.95	0.68
372.16	6.83
372.371	-5.46
372.582	-25.94
372.792	41.64
373.003	17.07
373.214	-21.85
373.424	37.55
373.635	-56.66
373.846	47.79
374.056	29.35
374.267	49.83
374.477	15.02
374.688	-34.13
374.898	47.79
375.109	12.97
375.319	8.87
375.53	12.97
375.74	17.07
375.951	-7.51
376.161	41.64
376.372	72.36
376.582	10.92
376.793	29.35
377.003	12.97
377.214	-9.56
377.424	117.42
377.635	-48.47
377.845	-42.32
378.055	70.31
378.266	-36.18
378.476	-21.85
378.686	2.73
378.897	-13.65
379.107	66.22
379.317	84.65
379.528	35.5
379.738	51.88
379.948	-73.04
380.158	4.78
380.369	10.92
380.579	82.6
380.789	43.69
380.999	74.41
381.21	47.79
381.42	76.46
381.63	8.87
381.84	47.79
382.05	2.73
382.261	80.55
382.471	58.03
382.681	-38.23
382.891	115.37
383.101	84.65
383.311	-62.8
383.521	23.21
383.731	41.64
383.941	86.7
384.151	-1.37
384.361	19.11
384.571	66.22
384.781	35.5
384.991	39.59
385.201	103.08
385.411	60.07
385.621	41.64
385.831	62.12
386.041	49.83
386.251	-15.7
386.461	72.36
386.671	-60.76
386.881	25.26
387.091	62.12
387.301	94.89
387.511	78.51
387.72	8.87
387.93	60.07
388.14	-81.24
388.35	43.69
388.56	111.27
388.769	58.03
388.979	-71
389.189	-44.37
389.399	0.68
389.609	80.55
389.818	103.08
390.028	-3.41
390.238	31.4
390.447	12.97
390.657	72.36
390.867	23.21
391.076	107.18
391.286	29.35
391.496	-32.08
391.705	19.11
391.915	96.94
392.125	88.75
392.334	51.88
392.544	94.89
392.753	92.84
392.963	-30.04
393.172	37.55
393.382	21.16
393.591	144.04
393.801	4.78
394.01	35.5
394.22	-23.89
394.429	35.5
394.639	47.79
394.848	76.46
395.058	31.4
395.267	-21.85
395.477	80.55
395.686	-36.18
395.895	129.7
396.105	205.48
396.314	-9.56
396.524	37.55
396.733	53.93
396.942	86.7
397.152	70.31
397.361	68.27
397.57	25.26
397.78	-21.85
397.989	62.12
398.198	105.13
398.407	35.5
398.617	96.94
398.826	41.64
399.035	33.45
399.244	74.41
399.453	35.5
399.663	43.69
399.872	70.31
400.081	39.59
400.29	80.55
400.499	-19.8
400.708	64.17
400.917	76.46
401.127	68.27
401.336	84.65
401.545	148.14
401.754	117.42
401.963	19.11
402.172	47.79
402.381	43.69
402.59	-3.41
402.799	-11.61
403.008	131.75
403.217	51.88
403.426	154.28
403.635	64.17
403.844	21.16
404.053	78.51
404.262	60.07
404.471	98.99
404.68	127.66
404.888	47.79
405.097	51.88
405.306	53.93
405.515	195.24
405.724	82.6
405.933	150.18
406.142	70.31
406.35	141.99
406.559	125.61
406.768	123.56
406.977	213.67
407.185	185
407.394	82.6
407.603	150.18
407.812	225.96
408.02	135.85
408.229	111.27
408.438	172.71
408.646	68.27
408.855	119.46
409.064	150.18
409.272	154.28
409.481	201.38
409.69	137.9
409.898	141.99
410.107	221.86
410.315	223.91
410.524	191.14
410.733	170.66
410.941	234.15
411.15	311.97
411.358	293.54
411.567	322.21
411.775	303.78
411.984	240.29
412.192	250.53
412.401	193.19
412.609	326.31
412.818	326.31
413.026	359.08
413.234	279.21
413.443	207.53
413.651	303.78
413.86	385.7
414.068	352.93
414.276	506.53
414.485	389.8
414.693	424.61
414.901	490.15
415.11	348.84
415.318	445.09
415.526	436.9
415.734	537.25
415.943	524.96
416.151	481.96
416.359	436.9
416.567	582.31
416.776	527.01
416.984	645.79
417.192	613.03
417.4	582.31
417.608	494.24
417.817	621.22
418.025	647.84
418.233	813.73
418.441	664.22
418.649	711.33
418.857	780.96
419.065	799.39
419.273	819.87
419.481	854.69
419.689	912.03
419.897	856.73
420.105	895.64
420.313	1045.15
420.521	1030.81
420.729	1043.1
420.937	973.47
421.145	1049.24
421.353	1108.63
421.561	1192.6
421.769	1188.5
421.977	1241.75
422.185	1235.61
422.393	1397.4
422.601	1460.88
422.809	1424.02
423.017	1426.07
423.224	1553.04
423.432	1553.04
423.64	1538.71
423.848	1747.6
424.056	1604.24
424.263	1696.4
424.471	1704.59
424.679	1860.24
424.887	1817.23
425.094	2017.93
425.302	1950.35
425.51	2030.22
425.718	2067.08
425.925	2136.71
426.133	2169.48
426.341	2407.05
426.548	2388.61
426.756	2423.43
426.964	2372.23
427.171	2482.82
427.379	2718.34
427.586	2648.71
427.794	2740.86
428.001	2892.41
428.209	3052.16
428.417	2970.24
428.624	3256.95
428.832	3086.97
429.039	3224.19
429.247	3064.44
429.454	3443.32
429.662	3566.2
429.869	3334.78
430.076	3572.34
430.284	3553.91
430.491	3793.52
430.699	3906.16
430.906	3940.97
431.114	3924.59
431.321	4100.72
431.528	4055.66
431.736	4315.75
431.943	4569.7
432.15	4489.83
432.358	4510.31
432.565	4936.29
432.772	4715.11
432.979	5028.45
433.187	4938.34
433.394	5210.72
433.601	5569.11
433.808	5495.38
434.016	5552.73
434.223	5655.12
434.43	5902.93
434.637	5980.75
434.844	6128.21
435.052	6416.97
435.259	6263.37
435.466	6574.66
435.673	6382.15
435.88	6718.02
436.087	6996.54
436.294	7182.91
436.501	7174.72
436.708	7117.37
436.915	7213.63
437.122	7723.57
437.329	7662.13
437.537	7901.75
437.743	7922.23
437.95	8038.96
438.157	8391.21
438.364	8774.18
438.571	8745.51
438.778	8843.81
438.985	9519.64
439.192	9288.22
439.399	9384.48
439.606	9136.67
439.813	9669.14
440.02	10277.39
440.227	10121.74
440.433	10101.26
440.64	10557.96
440.847	10187.28
441.054	10502.67
441.261	11430.4
441.467	11035.14
441.674	11188.74
441.881	11690.49
442.088	11819.51
442.294	11758.07
442.501	12030.45
442.708	12259.82
442.914	12517.87
443.121	13113.83
443.328	12931.56
443.534	13752.79
443.741	13484.51
443.948	13093.35
444.154	14053.84
444.361	14244.31
444.568	14203.35
444.774	14141.91
444.981	14453.2
445.187	14932.42
445.394	15438.27
445.6	15102.4
445.807	16751.02
446.013	15790.52
446.22	15946.17
446.426	16705.96
446.633	17050.02
446.839	17742.24
447.046	16849.32
447.252	17918.36
447.459	17703.32
447.665	17830.3
447.871	18676.11
448.078	19362.18
448.284	18553.23
448.491	18987.4
448.697	19616.13
448.903	20148.6
449.11	20038.01
449.316	19855.74
449.522	20304.24
449.728	20705.65
449.935	20654.45
450.141	20820.33
450.347	21582.18
450.553	20578.67
450.76	20969.83
450.966	21602.66
451.172	21320.04
451.378	21856.61
451.584	21352.8
451.791	22083.93
451.997	21903.71
452.203	22395.22
452.409	22624.59
452.615	22069.59
452.821	21420.39
453.027	20990.31
453.233	22528.34
453.44	21670.24
453.646	21655.9
453.852	21846.37
454.058	22389.08
454.264	21246.31
454.47	21776.73
454.676	21432.68
454.882	22079.83
455.088	20013.43
455.294	20470.13
455.5	20773.23
455.705	21061.99
455.911	20463.99
456.117	19726.72
456.323	19372.42
456.529	18516.37
456.735	19253.64
456.941	19005.83
457.147	18293.14
457.352	17797.53
457.558	17551.77
457.764	17727.9
457.97	17357.22
458.176	16986.54
458.381	16867.75
458.587	15929.78
458.793	16368.05
458.999	15346.11
459.204	16441.78
459.41	15724.99
459.616	14823.88
459.821	15155.65
460.027	14735.82
460.233	14565.84
460.438	13679.07
460.644	13937.11
460.85	13580.76
461.055	13033.96
461.261	12831.21
461.466	12167.66
461.672	11688.44
461.878	12446.19
462.083	11782.65
462.289	11549.18
462.494	11551.23
462.7	10906.12
462.905	10492.43
463.111	10951.17
463.316	11035.14
463.522	10496.52
463.727	10639.88
463.932	10527.24
464.138	10621.45
464.343	10533.39
464.549	10381.84
464.754	10625.54
464.959	10568.2
465.165	10625.54
465.37	10080.78
465.575	9843.22
465.781	10109.46
465.986	10455.56
466.191	9775.64
466.397	9462.3
466.602	9296.41
466.807	9724.44
467.012	9570.84
467.218	9327.13
