Data from USB4F104151__94__12-13-15-249.txt Node

Date: Fri Mar 14 12:13:15 EDT 2025
User: louis
Spectrometer: USB4F10415
Trigger mode: 4
Integration Time (sec): 5.000000E-2
Scans to average: 1
Electric dark correction enabled: true
Nonlinearity correction enabled: false
Boxcar width: 0
XAxis mode: Wavelengths
Number of Pixels in Spectrum: 3648
>>>>>Begin Spectral Data<<<<<
178.204	-157.86
178.424	-157.86
178.644	-157.86
178.864	-217.26
179.084	-204.97
179.304	18.26
179.524	-86.19
179.744	24.4
179.964	8.02
180.184	-22.7
180.404	-18.6
180.624	-28.84
180.844	-30.89
181.064	20.31
181.283	5.97
181.503	28.5
181.723	81.75
181.943	-137.38
182.163	79.7
182.383	-28.84
182.602	87.89
182.822	32.6
183.042	116.56
183.262	18.26
183.482	59.22
183.701	-32.94
183.921	26.45
184.141	-53.42
184.361	48.98
184.58	75.6
184.8	61.27
185.02	8.02
185.239	79.7
185.459	55.12
185.679	98.13
185.898	-22.7
186.118	-14.51
186.338	98.13
186.557	18.26
186.777	-55.47
186.997	-16.55
187.216	20.31
187.436	77.65
187.655	28.5
187.875	132.95
188.095	20.31
188.314	110.42
188.534	-22.7
188.753	-22.7
188.973	91.99
189.192	120.66
189.412	18.26
189.631	61.27
189.851	40.79
190.07	89.94
190.29	-26.79
190.509	57.17
190.729	14.17
190.948	126.8
191.168	155.47
191.387	118.61
191.607	59.22
191.826	61.27
192.045	5.97
192.265	75.6
192.484	18.26
192.704	30.55
192.923	-10.41
193.142	145.24
193.362	36.69
193.581	81.75
193.8	108.37
194.02	12.12
194.239	26.45
194.458	36.69
194.678	12.12
194.897	63.32
195.116	18.26
195.335	106.32
195.555	53.08
195.774	77.65
195.993	77.65
196.212	77.65
196.432	65.36
196.651	53.08
196.87	71.51
197.089	91.99
197.308	75.6
197.528	87.89
197.747	-6.31
197.966	130.9
198.185	51.03
198.404	-37.03
198.623	22.36
198.842	102.23
199.062	114.52
199.281	98.13
199.5	-28.84
199.719	79.7
199.938	48.98
200.157	96.08
200.376	61.27
200.595	57.17
200.814	108.37
201.033	-26.79
201.252	77.65
201.471	63.32
201.69	118.61
201.909	87.89
202.128	40.79
202.347	34.64
202.566	55.12
202.785	-34.99
203.004	18.26
203.223	182.1
203.442	18.26
203.661	-26.79
203.879	10.07
204.098	155.47
204.317	-30.89
204.536	77.65
204.755	-20.65
204.974	96.08
205.193	32.6
205.411	94.04
205.63	48.98
205.849	73.56
206.068	-2.22
206.287	42.84
206.505	102.23
206.724	-41.13
206.943	20.31
207.162	3.93
207.381	53.08
207.599	32.6
207.818	46.93
208.037	-49.32
208.255	40.79
208.474	-0.17
208.693	-8.36
208.911	-8.36
209.13	16.21
209.349	20.31
209.567	96.08
209.786	85.84
210.005	14.17
210.223	5.97
210.442	-71.85
210.661	20.31
210.879	22.36
211.098	-8.36
211.316	51.03
211.535	85.84
211.753	-32.94
211.972	40.79
212.191	-10.41
212.409	16.21
212.628	137.04
212.846	42.84
213.065	1.88
213.283	91.99
213.502	77.65
213.72	40.79
213.938	-4.27
214.157	55.12
214.375	26.45
214.594	-20.65
214.812	18.26
215.031	3.93
215.249	28.5
215.467	-18.6
215.686	10.07
215.904	128.85
216.122	16.21
216.341	79.7
216.559	89.94
216.778	77.65
216.996	-2.22
217.214	-47.27
217.432	61.27
217.651	8.02
217.869	5.97
218.087	-24.75
218.306	-30.89
218.524	120.66
218.742	106.32
218.96	81.75
219.179	14.17
219.397	-41.13
219.615	188.24
219.833	1.88
220.051	-75.95
220.27	130.9
220.488	61.27
220.706	91.99
220.924	-6.31
221.142	30.55
221.36	44.88
221.578	53.08
221.796	16.21
222.015	-30.89
222.233	28.5
222.451	87.89
222.669	-2.22
222.887	94.04
223.105	44.88
223.323	-8.36
223.541	46.93
223.759	96.08
223.977	20.31
224.195	61.27
224.413	102.23
224.631	87.89
224.849	12.12
225.067	184.15
225.285	-18.6
225.503	67.41
225.721	-10.41
225.939	57.17
226.157	34.64
226.375	110.42
226.592	-12.46
226.81	-6.31
227.028	102.23
227.246	87.89
227.464	36.69
227.682	34.64
227.9	1.88
228.117	3.93
228.335	149.33
228.553	16.21
228.771	-6.31
228.989	8.02
229.206	53.08
229.424	18.26
229.642	-51.37
229.86	-53.42
230.077	71.51
230.295	-6.31
230.513	10.07
230.731	71.51
230.948	81.75
231.166	94.04
231.384	34.64
231.601	-30.89
231.819	145.24
232.037	-39.08
232.254	-47.27
232.472	-14.51
232.689	38.74
232.907	143.19
233.125	57.17
233.342	63.32
233.56	-2.22
233.777	63.32
233.995	44.88
234.213	128.85
234.43	83.8
234.648	-8.36
234.865	79.7
235.083	77.65
235.3	26.45
235.518	18.26
235.735	112.47
235.953	67.41
236.17	-10.41
236.388	-28.84
236.605	116.56
236.822	69.46
237.04	108.37
237.257	89.94
237.475	-34.99
237.692	24.4
237.909	63.32
238.127	-12.46
238.344	69.46
238.562	83.8
238.779	83.8
238.996	-41.13
239.214	59.22
239.431	-4.27
239.648	-14.51
239.865	20.31
240.083	42.84
240.3	57.17
240.517	30.55
240.735	89.94
240.952	79.7
241.169	102.23
241.386	118.61
241.603	24.4
241.821	34.64
242.038	96.08
242.255	81.75
242.472	53.08
242.689	3.93
242.907	75.6
243.124	44.88
243.341	34.64
243.558	63.32
243.775	-39.08
243.992	-59.56
244.209	81.75
244.426	102.23
244.643	106.32
244.86	42.84
245.078	1.88
245.295	67.41
245.512	51.03
245.729	-18.6
245.946	112.47
246.163	8.02
246.38	85.84
246.597	18.26
246.814	30.55
247.031	38.74
247.248	44.88
247.464	40.79
247.681	55.12
247.898	22.36
248.115	48.98
248.332	-12.46
248.549	161.62
248.766	110.42
248.983	-0.17
249.2	81.75
249.417	102.23
249.633	5.97
249.85	55.12
250.067	12.12
250.284	71.51
250.501	22.36
250.717	53.08
250.934	40.79
251.151	46.93
251.368	46.93
251.585	55.12
251.801	104.28
252.018	-67.75
252.235	32.6
252.451	-16.55
252.668	42.84
252.885	73.56
253.102	77.65
253.318	8.02
253.535	57.17
253.752	-57.51
253.968	18.26
254.185	-43.18
254.401	87.89
254.618	85.84
254.835	-75.95
255.051	96.08
255.268	89.94
255.484	73.56
255.701	1.88
255.917	94.04
256.134	-8.36
256.351	53.08
256.567	34.64
256.784	30.55
257	22.36
257.217	94.04
257.433	128.85
257.65	30.55
257.866	108.37
258.082	28.5
258.299	-0.17
258.515	16.21
258.732	14.17
258.948	55.12
259.165	120.66
259.381	1.88
259.597	63.32
259.814	30.55
260.03	-34.99
260.246	112.47
260.463	69.46
260.679	67.41
260.895	-20.65
261.112	112.47
261.328	16.21
261.544	22.36
261.761	188.24
261.977	5.97
262.193	-4.27
262.409	30.55
262.626	24.4
262.842	130.9
263.058	118.61
263.274	116.56
263.49	42.84
263.707	102.23
263.923	38.74
264.139	32.6
264.355	40.79
264.571	18.26
264.787	118.61
265.004	65.36
265.22	-45.23
265.436	34.64
265.652	5.97
265.868	14.17
266.084	42.84
266.3	30.55
266.516	14.17
266.732	-0.17
266.948	32.6
267.164	-0.17
267.38	100.18
267.596	53.08
267.812	79.7
268.028	-4.27
268.244	48.98
268.46	22.36
268.676	12.12
268.892	44.88
269.108	-57.51
269.324	-24.75
269.54	12.12
269.756	51.03
269.972	24.4
270.188	59.22
270.403	26.45
270.619	-24.75
270.835	36.69
271.051	61.27
271.267	5.97
271.483	28.5
271.698	55.12
271.914	108.37
272.13	36.69
272.346	-73.9
272.562	30.55
272.777	85.84
272.993	53.08
273.209	16.21
273.425	44.88
273.64	8.02
273.856	69.46
274.072	-43.18
274.287	16.21
274.503	14.17
274.719	91.99
274.934	-16.55
275.15	16.21
275.366	77.65
275.581	28.5
275.797	53.08
276.012	28.5
276.228	-0.17
276.444	83.8
276.659	55.12
276.875	1.88
277.09	28.5
277.306	-28.84
277.521	53.08
277.737	65.36
277.952	132.95
278.168	85.84
278.383	44.88
278.599	-22.7
278.814	104.28
279.03	67.41
279.245	108.37
279.461	73.56
279.676	120.66
279.892	-32.94
280.107	1.88
280.322	26.45
280.538	118.61
280.753	-32.94
280.969	18.26
281.184	-61.61
281.399	128.85
281.615	-32.94
281.83	10.07
282.045	51.03
282.26	59.22
282.476	51.03
282.691	14.17
282.906	46.93
283.122	87.89
283.337	-47.27
283.552	30.55
283.767	34.64
283.983	81.75
284.198	10.07
284.413	147.28
284.628	-12.46
284.843	100.18
285.058	12.12
285.274	18.26
285.489	57.17
285.704	65.36
285.919	-8.36
286.134	-0.17
286.349	32.6
286.564	-6.31
286.779	51.03
286.995	83.8
287.21	18.26
287.425	46.93
287.64	85.84
287.855	85.84
288.07	36.69
288.285	73.56
288.5	51.03
288.715	79.7
288.93	53.08
289.145	46.93
289.36	69.46
289.575	-53.42
289.79	108.37
290.004	85.84
290.219	110.42
290.434	57.17
290.649	22.36
290.864	139.09
291.079	57.17
291.294	128.85
291.509	98.13
291.724	44.88
291.938	-20.65
292.153	-4.27
292.368	5.97
292.583	69.46
292.798	55.12
293.012	104.28
293.227	81.75
293.442	-2.22
293.657	151.38
293.871	110.42
294.086	79.7
294.301	98.13
294.516	102.23
294.73	53.08
294.945	-41.13
295.16	61.27
295.374	120.66
295.589	91.99
295.804	-14.51
296.018	51.03
296.233	38.74
296.447	91.99
296.662	5.97
296.877	89.94
297.091	18.26
297.306	96.08
297.52	51.03
297.735	38.74
297.949	89.94
298.164	48.98
298.378	-39.08
298.593	-4.27
298.807	77.65
299.022	-73.9
299.236	69.46
299.451	46.93
299.665	30.55
299.88	20.31
300.094	100.18
300.309	38.74
300.523	55.12
300.737	44.88
300.952	59.22
301.166	61.27
301.381	-28.84
301.595	22.36
301.809	96.08
302.024	8.02
302.238	-30.89
302.452	132.95
302.667	65.36
302.881	83.8
303.095	91.99
303.309	20.31
303.524	65.36
303.738	53.08
303.952	-16.55
304.166	122.71
304.381	3.93
304.595	91.99
304.809	16.21
305.023	-6.31
305.237	-28.84
305.452	71.51
305.666	71.51
305.88	71.51
306.094	96.08
306.308	38.74
306.522	110.42
306.736	96.08
306.95	118.61
307.164	-8.36
307.379	48.98
307.593	118.61
307.807	36.69
308.021	85.84
308.235	3.93
308.449	-8.36
308.663	8.02
308.877	190.29
309.091	91.99
309.305	79.7
309.519	-47.27
309.733	75.6
309.947	-30.89
310.161	73.56
310.374	42.84
310.588	71.51
310.802	-6.31
311.016	12.12
311.23	42.84
311.444	5.97
311.658	-43.18
311.872	40.79
312.085	53.08
312.299	118.61
312.513	120.66
312.727	67.41
312.941	96.08
313.154	24.4
313.368	40.79
313.582	48.98
313.796	51.03
314.009	32.6
314.223	48.98
314.437	77.65
314.651	67.41
314.864	28.5
315.078	79.7
315.292	-4.27
315.505	12.12
315.719	85.84
315.933	102.23
316.146	12.12
316.36	14.17
316.573	46.93
316.787	-16.55
317.001	46.93
317.214	44.88
317.428	87.89
317.641	130.9
317.855	44.88
318.068	22.36
318.282	40.79
318.495	106.32
318.709	46.93
318.922	55.12
319.136	44.88
319.349	102.23
319.563	55.12
319.776	149.33
319.99	69.46
320.203	83.8
320.417	20.31
320.63	120.66
320.843	69.46
321.057	48.98
321.27	102.23
321.483	40.79
321.697	159.57
321.91	112.47
322.124	79.7
322.337	48.98
322.55	44.88
322.763	67.41
322.977	-16.55
323.19	-24.75
323.403	32.6
323.617	36.69
323.83	114.52
324.043	18.26
324.256	110.42
324.469	-47.27
324.683	71.51
324.896	24.4
325.109	20.31
325.322	-6.31
325.535	106.32
325.748	65.36
325.962	-47.27
326.175	71.51
326.388	116.56
326.601	120.66
326.814	30.55
327.027	22.36
327.24	151.38
327.453	-6.31
327.666	161.62
327.879	124.76
328.092	46.93
328.305	3.93
328.518	36.69
328.731	61.27
328.944	-2.22
329.157	-16.55
329.37	-18.6
329.583	178
329.796	120.66
330.009	-41.13
330.222	116.56
330.435	48.98
330.648	89.94
330.861	196.43
331.073	63.32
331.286	104.28
331.499	18.26
331.712	-43.18
331.925	12.12
332.138	75.6
332.35	89.94
332.563	-32.94
332.776	71.51
332.989	16.21
333.202	67.41
333.414	79.7
333.627	67.41
333.84	24.4
334.053	-4.27
334.265	65.36
334.478	51.03
334.691	67.41
334.903	98.13
335.116	14.17
335.329	108.37
335.541	63.32
335.754	67.41
335.966	73.56
336.179	34.64
336.392	57.17
336.604	-20.65
336.817	30.55
337.029	22.36
337.242	89.94
337.454	65.36
337.667	30.55
337.88	106.32
338.092	53.08
338.305	96.08
338.517	-4.27
338.729	46.93
338.942	137.04
339.154	-55.47
339.367	-12.46
339.579	79.7
339.792	40.79
340.004	116.56
340.217	57.17
340.429	18.26
340.641	28.5
340.854	10.07
341.066	81.75
341.278	75.6
341.491	96.08
341.703	108.37
341.915	67.41
342.128	22.36
342.34	30.55
342.552	22.36
342.764	-10.41
342.977	114.52
343.189	118.61
343.401	85.84
343.613	-45.23
343.826	81.75
344.038	36.69
344.25	85.84
344.462	24.4
344.674	75.6
344.886	42.84
345.099	110.42
345.311	96.08
345.523	38.74
345.735	24.4
345.947	40.79
346.159	-45.23
346.371	32.6
346.583	40.79
346.795	79.7
347.007	57.17
347.219	67.41
347.431	59.22
347.643	130.9
347.855	26.45
348.067	153.43
348.279	96.08
348.491	57.17
348.703	55.12
348.915	-2.22
349.127	94.04
349.339	53.08
349.551	85.84
349.763	112.47
349.975	40.79
350.187	151.38
350.399	128.85
350.61	73.56
350.822	85.84
351.034	65.36
351.246	79.7
351.458	12.12
351.669	91.99
351.881	59.22
352.093	38.74
352.305	98.13
352.517	122.71
352.728	147.28
352.94	24.4
353.152	110.42
353.363	-4.27
353.575	89.94
353.787	116.56
353.999	28.5
354.21	71.51
354.422	57.17
354.633	30.55
354.845	1.88
355.057	69.46
355.268	63.32
355.48	48.98
355.692	55.12
355.903	30.55
356.115	-8.36
356.326	-2.22
356.538	110.42
356.749	104.28
356.961	112.47
357.172	151.38
357.384	67.41
357.595	151.38
357.807	-8.36
358.018	44.88
358.23	83.8
358.441	91.99
358.653	71.51
358.864	79.7
359.075	59.22
359.287	91.99
359.498	132.95
359.709	108.37
359.921	10.07
360.132	91.99
360.344	87.89
360.555	-20.65
360.766	48.98
360.977	40.79
361.189	48.98
361.4	53.08
361.611	53.08
361.823	145.24
362.034	75.6
362.245	-47.27
362.456	42.84
362.667	75.6
362.879	53.08
363.09	89.94
363.301	83.8
363.512	-6.31
363.723	100.18
363.935	16.21
364.146	130.9
364.357	147.28
364.568	48.98
364.779	-67.75
364.99	165.71
365.201	81.75
365.412	79.7
365.623	-0.17
365.834	53.08
366.045	91.99
366.256	55.12
366.467	73.56
366.678	38.74
366.889	110.42
367.1	16.21
367.311	118.61
367.522	10.07
367.733	40.79
367.944	87.89
368.155	-4.27
368.366	178
368.577	42.84
368.788	110.42
368.999	18.26
369.209	14.17
369.42	171.86
369.631	212.82
369.842	102.23
370.053	-6.31
370.264	143.19
370.474	18.26
370.685	118.61
370.896	5.97
371.107	67.41
371.317	24.4
371.528	28.5
371.739	61.27
371.95	98.13
372.16	5.97
372.371	42.84
372.582	-24.75
372.792	116.56
373.003	38.74
373.214	102.23
373.424	57.17
373.635	-28.84
373.846	96.08
374.056	34.64
374.267	102.23
374.477	26.45
374.688	5.97
374.898	98.13
375.109	69.46
375.319	94.04
375.53	34.64
375.74	139.09
375.951	79.7
376.161	48.98
376.372	51.03
376.582	14.17
376.793	124.76
377.003	-4.27
377.214	94.04
377.424	73.56
377.635	10.07
377.845	18.26
378.055	100.18
378.266	16.21
378.476	22.36
378.686	96.08
378.897	85.84
379.107	143.19
379.317	112.47
379.528	28.5
379.738	151.38
379.948	98.13
380.158	141.14
380.369	77.65
380.579	87.89
380.789	85.84
380.999	67.41
381.21	137.04
381.42	163.67
381.63	55.12
381.84	96.08
382.05	126.8
382.261	122.71
382.471	79.7
382.681	79.7
382.891	100.18
383.101	38.74
383.311	57.17
383.521	-67.75
383.731	100.18
383.941	65.36
384.151	30.55
384.361	-24.75
384.571	85.84
384.781	18.26
384.991	159.57
385.201	87.89
385.411	149.33
385.621	-22.7
385.831	40.79
386.041	77.65
386.251	65.36
386.461	106.32
386.671	57.17
386.881	100.18
387.091	26.45
387.301	114.52
387.511	85.84
387.72	106.32
387.93	112.47
388.14	-26.79
388.35	34.64
388.56	112.47
388.769	77.65
388.979	63.32
389.189	57.17
389.399	12.12
389.609	81.75
389.818	137.04
390.028	32.6
390.238	87.89
390.447	34.64
390.657	38.74
390.867	14.17
391.076	16.21
391.286	73.56
391.496	79.7
391.705	69.46
391.915	87.89
392.125	71.51
392.334	34.64
392.544	206.67
392.753	77.65
392.963	96.08
393.172	132.95
393.382	143.19
393.591	120.66
393.801	120.66
394.01	149.33
394.22	118.61
394.429	32.6
394.639	51.03
394.848	102.23
395.058	57.17
395.267	122.71
395.477	130.9
395.686	132.95
395.895	165.71
396.105	128.85
396.314	122.71
396.524	22.36
396.733	87.89
396.942	155.47
397.152	96.08
397.361	126.8
397.57	22.36
397.78	116.56
397.989	157.52
398.198	184.15
398.407	71.51
398.617	120.66
398.826	110.42
399.035	145.24
399.244	79.7
399.453	130.9
399.663	143.19
399.872	149.33
400.081	83.8
400.29	94.04
400.499	67.41
400.708	171.86
400.917	139.09
401.127	184.15
401.336	190.29
401.545	210.77
401.754	169.81
401.963	178
402.172	235.35
402.381	122.71
402.59	112.47
402.799	132.95
403.008	206.67
403.217	135
403.426	114.52
403.635	130.9
403.844	186.19
404.053	118.61
404.262	157.52
404.471	155.47
404.68	149.33
404.888	139.09
405.097	137.04
405.306	155.47
405.515	143.19
405.724	225.11
405.933	216.91
406.142	167.76
406.35	186.19
406.559	257.87
406.768	233.3
406.977	257.87
407.185	241.49
407.394	261.97
407.603	165.71
407.812	235.35
408.02	284.5
408.229	227.15
408.438	233.3
408.646	274.26
408.855	286.54
409.064	319.31
409.272	251.73
409.481	300.88
409.69	251.73
409.898	229.2
410.107	327.5
410.315	370.51
410.524	331.6
410.733	417.61
410.941	364.37
411.15	403.28
411.358	413.52
411.567	544.59
411.775	364.37
411.984	446.29
412.192	405.33
412.401	446.29
412.609	601.93
412.818	491.34
413.026	515.92
413.234	567.12
413.443	560.97
413.651	540.49
413.86	546.64
414.068	638.8
414.276	761.67
414.485	505.68
414.693	808.78
414.901	778.06
415.11	755.53
415.318	622.41
415.526	771.91
415.734	835.4
415.943	819.02
416.151	874.31
416.359	862.02
416.567	778.06
416.776	878.41
416.984	1019.72
417.192	1085.25
417.4	950.09
417.608	968.52
417.817	993.09
418.025	1138.5
418.233	1216.32
418.441	1175.36
418.649	1195.84
418.857	1316.67
419.065	1371.97
419.273	1390.4
419.481	1453.89
419.689	1474.37
419.897	1455.94
420.105	1511.23
420.313	1552.19
420.521	1617.72
420.729	1754.94
420.937	1752.89
421.145	1705.79
421.353	1986.36
421.561	1933.11
421.769	1947.45
421.977	2068.28
422.185	2008.89
422.393	2271.03
422.601	2350.9
422.809	2387.76
423.017	2350.9
423.224	2449.2
423.432	2602.8
423.64	2412.34
423.848	2711.34
424.056	2828.07
424.263	2922.28
424.471	2889.51
424.679	3000.1
424.887	3094.31
425.094	3094.31
425.302	3077.93
425.51	3315.49
425.718	3477.28
425.925	3563.29
426.133	3594.01
426.341	3723.04
426.548	3847.96
426.756	3880.73
426.964	4077.34
427.171	4280.08
427.379	4306.71
427.586	4319
427.794	4566.8
428.001	4816.65
428.209	4960.01
428.417	4873.99
428.624	5136.13
428.832	5209.86
429.039	5267.2
429.247	5287.68
429.454	5697.28
429.662	6129.4
429.869	5801.72
430.076	6094.58
430.284	5996.28
430.491	6055.67
430.699	6586.1
430.906	6538.99
431.114	6637.3
431.321	6954.73
431.528	7059.18
431.736	7399.14
431.943	7794.4
432.15	7597.79
432.358	7712.48
432.565	8128.22
432.772	8031.96
432.979	8431.32
433.187	8711.89
433.394	8744.66
433.601	9195.21
433.808	9281.22
434.016	9131.72
434.223	9645.76
434.43	10385.08
434.637	10081.98
434.844	10716.85
435.052	10806.96
435.259	10878.64
435.466	10743.47
435.673	10958.51
435.88	11316.9
436.087	11984.54
436.294	12062.37
436.501	11935.39
436.708	12105.37
436.915	12453.53
437.122	13037.2
437.329	12914.32
437.537	13395.59
437.743	14009.98
437.95	13461.13
438.157	14360.19
438.364	14597.75
438.571	14906.99
438.778	15017.58
438.985	16051.81
439.192	15502.95
439.399	15935.07
439.606	15732.33
439.813	16512.6
440.02	17507.91
440.227	17155.66
440.433	17131.09
440.64	17712.71
440.847	17264.21
441.054	17995.33
441.261	19385.9
441.467	18943.54
441.674	19377.71
441.881	20112.93
442.088	20309.54
442.294	19689
442.501	20256.29
442.708	20682.27
442.914	21786.12
443.121	22683.13
443.328	22334.98
443.534	23483.89
443.741	23080.44
443.948	22566.4
444.154	24477.15
444.361	24151.52
444.568	24538.59
444.774	24063.46
444.981	24696.28
445.187	25322.96
445.394	26473.92
445.6	25837
445.807	28743.07
446.013	27332.02
446.22	27620.78
446.426	28814.75
446.633	29488.53
446.839	29943.18
447.046	28876.19
447.252	30469.51
447.459	30621.06
447.665	30475.65
447.871	31958.38
448.078	33342.81
448.284	31714.67
448.491	32556.39
448.697	33852.75
448.903	34919.74
449.11	34721.09
449.316	34131.28
449.522	34960.7
449.728	35532.09
449.935	35853.62
450.141	35937.58
450.347	36539.69
450.553	35204.41
450.76	36117.81
450.966	37152.03
451.172	36730.15
451.378	37848.34
451.584	37315.87
451.791	38044.94
451.997	37764.37
452.203	38423.82
452.409	38479.11
452.615	38178.06
452.821	36982.05
453.027	36543.78
453.233	38522.12
453.44	37129.5
453.646	37864.72
453.852	37481.75
454.058	38452.49
454.264	36764.96
454.47	37889.3
454.676	36767.01
454.882	38376.72
455.088	35118.4
455.294	35312.95
455.5	35693.88
455.705	36338.99
455.911	34860.35
456.117	34250.06
456.323	33695.06
456.529	32365.93
456.735	33600.85
456.941	32671.07
457.147	32224.62
457.352	31128.95
457.558	30467.46
457.764	30932.35
457.97	30377.35
458.176	29697.42
458.381	29656.46
458.587	28587.43
458.793	28401.06
458.999	26830.27
459.204	28630.43
459.41	27911.6
459.616	26062.28
459.821	26322.37
460.027	26125.77
460.233	25331.15
460.438	24258.02
460.644	24444.38
460.85	23549.42
461.055	23150.07
461.261	23004.66
461.466	21364.24
461.672	20616.73
461.878	22474.24
462.083	20782.62
462.289	20366.88
462.494	19940.9
462.7	19486.25
462.905	18560.57
463.111	19338.8
463.316	18974.26
463.522	18890.29
463.727	19148.34
463.932	18896.44
464.138	18806.33
464.343	18853.43
464.549	18204.22
464.754	18759.22
464.959	18933.3
465.165	18808.37
465.37	17913.41
465.575	17301.07
465.781	18024
465.986	18294.33
466.191	17616.46
