Data from USB4F104151__18__12-11-38-410.txt Node

Date: Fri Mar 14 12:11:38 EDT 2025
User: louis
Spectrometer: USB4F10415
Trigger mode: 4
Integration Time (sec): 5.000000E-2
Scans to average: 1
Electric dark correction enabled: true
Nonlinearity correction enabled: false
Boxcar width: 0
XAxis mode: Wavelengths
Number of Pixels in Spectrum: 3648
>>>>>Begin Spectral Data<<<<<
178.204	-173.05
178.424	-173.05
178.644	-173.05
178.864	-246.78
179.084	-238.59
179.304	-1.02
179.524	80.89
179.744	-46.08
179.964	11.26
180.184	-9.22
180.404	-76.8
180.624	-11.26
180.844	39.94
181.064	-21.5
181.283	31.74
181.503	-15.36
181.723	17.41
181.943	-76.8
182.163	111.61
182.383	17.41
182.602	-5.12
182.822	41.98
183.042	103.42
183.262	19.46
183.482	-19.46
183.701	-60.42
183.921	-84.99
184.141	48.13
184.361	17.41
184.58	54.27
184.8	-15.36
185.02	-17.41
185.239	37.89
185.459	-48.13
185.679	23.55
185.898	-89.09
186.118	33.79
186.338	-9.22
186.557	29.7
186.777	-5.12
186.997	7.17
187.216	44.03
187.436	70.65
187.655	33.79
187.875	15.36
188.095	3.07
188.314	39.94
188.534	33.79
188.753	-13.31
188.973	15.36
189.192	99.33
189.412	33.79
189.631	3.07
189.851	-15.36
190.07	64.51
190.29	-91.13
190.509	-15.36
190.729	3.07
190.948	1.02
191.168	164.86
191.387	95.23
191.607	-52.22
191.826	46.08
192.045	39.94
192.265	-25.6
192.484	37.89
192.704	-35.84
192.923	-62.46
193.142	164.86
193.362	107.52
193.581	111.61
193.8	72.7
194.02	29.7
194.239	50.18
194.458	50.18
194.678	-13.31
194.897	5.12
195.116	31.74
195.335	33.79
195.555	9.22
195.774	-15.36
195.993	78.85
196.212	-35.84
196.432	-58.37
196.651	5.12
196.87	-33.79
197.089	130.05
197.308	5.12
197.528	-15.36
197.747	3.07
197.966	13.31
198.185	-15.36
198.404	5.12
198.623	80.89
198.842	21.5
199.062	87.04
199.281	23.55
199.5	-23.55
199.719	70.65
199.938	-17.41
200.157	17.41
200.376	54.27
200.595	11.26
200.814	33.79
201.033	-33.79
201.252	60.42
201.471	19.46
201.69	72.7
201.909	17.41
202.128	48.13
202.347	31.74
202.566	-5.12
202.785	-3.07
203.004	-103.42
203.223	181.25
203.442	11.26
203.661	-60.42
203.879	39.94
204.098	50.18
204.317	-33.79
204.536	62.46
204.755	70.65
204.974	56.32
205.193	39.94
205.411	89.09
205.63	66.56
205.849	84.99
206.068	21.5
206.287	82.94
206.505	39.94
206.724	-82.94
206.943	56.32
207.162	-37.89
207.381	-11.26
207.599	31.74
207.818	37.89
208.037	23.55
208.255	-46.08
208.474	44.03
208.693	60.42
208.911	15.36
209.13	-21.5
209.349	103.42
209.567	17.41
209.786	31.74
210.005	46.08
210.223	-13.31
210.442	-13.31
210.661	-27.65
210.879	25.6
211.098	-19.46
211.316	9.22
211.535	101.37
211.753	13.31
211.972	11.26
212.191	3.07
212.409	-76.8
212.628	25.6
212.846	39.94
213.065	19.46
213.283	84.99
213.502	-9.22
213.72	-52.22
213.938	23.55
214.157	19.46
214.375	17.41
214.594	27.65
214.812	-7.17
215.031	50.18
215.249	3.07
215.467	-9.22
215.686	68.61
215.904	74.75
216.122	15.36
216.341	58.37
216.559	35.84
216.778	-11.26
216.996	25.6
217.214	21.5
217.432	25.6
217.651	17.41
217.869	17.41
218.087	-3.07
218.306	23.55
218.524	15.36
218.742	5.12
218.96	109.57
219.179	13.31
219.397	5.12
219.615	89.09
219.833	33.79
220.051	5.12
220.27	39.94
220.488	37.89
220.706	-33.79
220.924	-52.22
221.142	15.36
221.36	5.12
221.578	-37.89
221.796	80.89
222.015	54.27
222.233	21.5
222.451	70.65
222.669	-23.55
222.887	56.32
223.105	52.22
223.323	-11.26
223.541	1.02
223.759	-25.6
223.977	-11.26
224.195	123.9
224.413	31.74
224.631	50.18
224.849	44.03
225.067	39.94
225.285	-39.94
225.503	-31.74
225.721	-50.18
225.939	-11.26
226.157	-39.94
226.375	78.85
226.592	-68.61
226.81	17.41
227.028	27.65
227.246	89.09
227.464	1.02
227.682	48.13
227.9	37.89
228.117	70.65
228.335	17.41
228.553	-60.42
228.771	-62.46
228.989	64.51
229.206	82.94
229.424	-31.74
229.642	-11.26
229.86	54.27
230.077	76.8
230.295	-50.18
230.513	70.65
230.731	31.74
230.948	78.85
231.166	99.33
231.384	-48.13
231.601	-33.79
231.819	35.84
232.037	-15.36
232.254	-91.13
232.472	-15.36
232.689	-13.31
232.907	1.02
233.125	-54.27
233.342	-3.07
233.56	-25.6
233.777	-5.12
233.995	72.7
234.213	76.8
234.43	1.02
234.648	-46.08
234.865	-33.79
235.083	125.95
235.3	25.6
235.518	74.75
235.735	84.99
235.953	1.02
236.17	3.07
236.388	7.17
236.605	56.32
236.822	46.08
237.04	66.56
237.257	-44.03
237.475	-1.02
237.692	41.98
237.909	-23.55
238.127	1.02
238.344	33.79
238.562	37.89
238.779	-62.46
238.996	13.31
239.214	11.26
239.431	78.85
239.648	-23.55
239.865	-17.41
240.083	56.32
240.3	-23.55
240.517	-72.7
240.735	-15.36
240.952	74.75
241.169	91.13
241.386	-50.18
241.603	1.02
241.821	-41.98
242.038	48.13
242.255	113.66
242.472	-1.02
242.689	31.74
242.907	19.46
243.124	62.46
243.341	-52.22
243.558	-48.13
243.775	-31.74
243.992	-70.65
244.209	-15.36
244.426	95.23
244.643	64.51
244.86	1.02
245.078	25.6
245.295	78.85
245.512	3.07
245.729	-19.46
245.946	19.46
246.163	54.27
246.38	-17.41
246.597	23.55
246.814	33.79
247.031	1.02
247.248	54.27
247.464	23.55
247.681	41.98
247.898	-58.37
248.115	105.47
248.332	-33.79
248.549	62.46
248.766	66.56
248.983	103.42
249.2	-1.02
249.417	46.08
249.633	11.26
249.85	1.02
250.067	-31.74
250.284	17.41
250.501	5.12
250.717	7.17
250.934	37.89
251.151	82.94
251.368	54.27
251.585	41.98
251.801	46.08
252.018	-50.18
252.235	66.56
252.451	-3.07
252.668	-58.37
252.885	-31.74
253.102	84.99
253.318	7.17
253.535	-7.17
253.752	11.26
253.968	-37.89
254.185	-15.36
254.401	-9.22
254.618	33.79
254.835	-54.27
255.051	93.18
255.268	15.36
255.484	21.5
255.701	35.84
255.917	56.32
256.134	-58.37
256.351	-11.26
256.567	-87.04
256.784	78.85
257	-17.41
257.217	44.03
257.433	101.37
257.65	62.46
257.866	21.5
258.082	-72.7
258.299	-56.32
258.515	9.22
258.732	21.5
258.948	-72.7
259.165	76.8
259.381	19.46
259.597	-7.17
259.814	27.65
260.03	-19.46
260.246	-25.6
260.463	39.94
260.679	64.51
260.895	21.5
261.112	44.03
261.328	15.36
261.544	-33.79
261.761	93.18
261.977	-31.74
262.193	-15.36
262.409	-11.26
262.626	-39.94
262.842	19.46
263.058	-27.65
263.274	-3.07
263.49	35.84
263.707	13.31
263.923	21.5
264.139	-29.7
264.355	-37.89
264.571	17.41
264.787	1.02
265.004	-1.02
265.22	5.12
265.436	41.98
265.652	-56.32
265.868	70.65
266.084	-21.5
266.3	39.94
266.516	11.26
266.732	60.42
266.948	-19.46
267.164	11.26
267.38	31.74
267.596	56.32
267.812	113.66
268.028	82.94
268.244	13.31
268.46	39.94
268.676	-11.26
268.892	52.22
269.108	21.5
269.324	-25.6
269.54	-50.18
269.756	33.79
269.972	3.07
270.188	17.41
270.403	-41.98
270.619	-33.79
270.835	11.26
271.051	-19.46
271.267	15.36
271.483	97.28
271.698	46.08
271.914	52.22
272.13	5.12
272.346	29.7
272.562	-3.07
272.777	89.09
272.993	46.08
273.209	-60.42
273.425	35.84
273.64	-46.08
273.856	9.22
274.072	-3.07
274.287	7.17
274.503	23.55
274.719	-33.79
274.934	9.22
275.15	-9.22
275.366	1.02
275.581	-1.02
275.797	70.65
276.012	33.79
276.228	-41.98
276.444	27.65
276.659	130.05
276.875	-50.18
277.09	54.27
277.306	29.7
277.521	-29.7
277.737	-5.12
277.952	87.04
278.168	39.94
278.383	74.75
278.599	25.6
278.814	54.27
279.03	-48.13
279.245	101.37
279.461	41.98
279.676	25.6
279.892	44.03
280.107	-5.12
280.322	-72.7
280.538	-44.03
280.753	-74.75
280.969	89.09
281.184	-5.12
281.399	72.7
281.615	41.98
281.83	-60.42
282.045	37.89
282.26	-27.65
282.476	25.6
282.691	148.48
282.906	-15.36
283.122	13.31
283.337	-62.46
283.552	3.07
283.767	-25.6
283.983	52.22
284.198	31.74
284.413	11.26
284.628	-103.42
284.843	33.79
285.058	54.27
285.274	-76.8
285.489	-80.89
285.704	44.03
285.919	-56.32
286.134	-3.07
286.349	5.12
286.564	-27.65
286.779	37.89
286.995	-25.6
287.21	-58.37
287.425	3.07
287.64	-11.26
287.855	25.6
288.07	-44.03
288.285	15.36
288.5	23.55
288.715	72.7
288.93	-27.65
289.145	-46.08
289.36	39.94
289.575	-1.02
289.79	44.03
290.004	-3.07
290.219	39.94
290.434	-41.98
290.649	-37.89
290.864	5.12
291.079	33.79
291.294	19.46
291.509	76.8
291.724	-29.7
291.938	-70.65
292.153	50.18
292.368	-46.08
292.583	-25.6
292.798	29.7
293.012	39.94
293.227	-56.32
293.442	13.31
293.657	78.85
293.871	132.09
294.086	39.94
294.301	103.42
294.516	52.22
294.73	17.41
294.945	21.5
295.16	-1.02
295.374	7.17
295.589	72.7
295.804	48.13
296.018	-1.02
296.233	93.18
296.447	-29.7
296.662	7.17
296.877	125.95
297.091	-17.41
297.306	3.07
297.52	-48.13
297.735	66.56
297.949	-13.31
298.164	7.17
298.378	-41.98
298.593	-76.8
298.807	27.65
299.022	15.36
299.236	13.31
299.451	21.5
299.665	7.17
299.88	39.94
300.094	33.79
300.309	19.46
300.523	5.12
300.737	64.51
300.952	64.51
301.166	74.75
301.381	-41.98
301.595	-37.89
301.809	5.12
302.024	17.41
302.238	-3.07
302.452	148.48
302.667	-17.41
302.881	19.46
303.095	25.6
303.309	35.84
303.524	52.22
303.738	60.42
303.952	-84.99
304.166	-25.6
304.381	-119.81
304.595	44.03
304.809	-25.6
305.023	-31.74
305.237	-27.65
305.452	-3.07
305.666	-5.12
305.88	13.31
306.094	46.08
306.308	87.04
306.522	93.18
306.736	13.31
306.95	-9.22
307.164	-39.94
307.379	41.98
307.593	52.22
307.807	95.23
308.021	-35.84
308.235	-1.02
308.449	-72.7
308.663	35.84
308.877	128
309.091	41.98
309.305	-29.7
309.519	15.36
309.733	87.04
309.947	-74.75
310.161	39.94
310.374	33.79
310.588	58.37
310.802	-56.32
311.016	-19.46
311.23	11.26
311.444	-7.17
311.658	68.61
311.872	52.22
312.085	62.46
312.299	41.98
312.513	119.81
312.727	-7.17
312.941	19.46
313.154	56.32
313.368	-9.22
313.582	21.5
313.796	78.85
314.009	-54.27
314.223	56.32
314.437	-15.36
314.651	-33.79
314.864	-64.51
315.078	-21.5
315.292	-27.65
315.505	-39.94
315.719	74.75
315.933	50.18
316.146	35.84
316.36	-72.7
316.573	9.22
316.787	-5.12
317.001	72.7
317.214	-27.65
317.428	33.79
317.641	-76.8
317.855	-41.98
318.068	31.74
318.282	103.42
318.495	66.56
318.709	31.74
318.922	-80.89
319.136	93.18
319.349	105.47
319.563	-31.74
319.776	13.31
319.99	-3.07
320.203	56.32
320.417	-7.17
320.63	82.94
320.843	66.56
321.057	-5.12
321.27	7.17
321.483	27.65
321.697	64.51
321.91	50.18
322.124	84.99
322.337	29.7
322.55	-46.08
322.763	66.56
322.977	46.08
323.19	-35.84
323.403	-31.74
323.617	48.13
323.83	72.7
324.043	31.74
324.256	-1.02
324.469	-66.56
324.683	136.19
324.896	-9.22
325.109	5.12
325.322	-5.12
325.535	39.94
325.748	27.65
325.962	-39.94
326.175	7.17
326.388	9.22
326.601	17.41
326.814	70.65
327.027	9.22
327.24	72.7
327.453	-13.31
327.666	111.61
327.879	23.55
328.092	54.27
328.305	29.7
328.518	-31.74
328.731	-91.13
328.944	-31.74
329.157	50.18
329.37	-70.65
329.583	31.74
329.796	70.65
330.009	-87.04
330.222	50.18
330.435	78.85
330.648	29.7
330.861	1.02
331.073	41.98
331.286	13.31
331.499	-21.5
331.712	-19.46
331.925	17.41
332.138	-23.55
332.35	-21.5
332.563	-46.08
332.776	64.51
332.989	-21.5
333.202	-66.56
333.414	-56.32
333.627	-46.08
333.84	52.22
334.053	29.7
334.265	56.32
334.478	-33.79
334.691	-5.12
334.903	64.51
335.116	-109.57
335.329	-27.65
335.541	23.55
335.754	50.18
335.966	39.94
336.179	91.13
336.392	33.79
336.604	62.46
336.817	44.03
337.029	21.5
337.242	80.89
337.454	44.03
337.667	-5.12
337.88	-1.02
338.092	52.22
338.305	70.65
338.517	-39.94
338.729	89.09
338.942	105.47
339.154	58.37
339.367	5.12
339.579	56.32
339.792	-21.5
340.004	70.65
340.217	37.89
340.429	35.84
340.641	31.74
340.854	-27.65
341.066	15.36
341.278	50.18
341.491	3.07
341.703	54.27
341.915	-103.42
342.128	60.42
342.34	-60.42
342.552	-70.65
342.764	7.17
342.977	33.79
343.189	-35.84
343.401	21.5
343.613	-31.74
343.826	-19.46
344.038	-76.8
344.25	-15.36
344.462	-27.65
344.674	76.8
344.886	3.07
345.099	31.74
345.311	15.36
345.523	-41.98
345.735	1.02
345.947	-50.18
346.159	-1.02
346.371	15.36
346.583	3.07
346.795	134.14
347.007	7.17
347.219	25.6
347.431	-5.12
347.643	27.65
347.855	-35.84
348.067	39.94
348.279	-29.7
348.491	62.46
348.703	93.18
348.915	7.17
349.127	-44.03
349.339	60.42
349.551	-17.41
349.763	27.65
349.975	-7.17
350.187	103.42
350.399	80.89
350.61	-70.65
350.822	19.46
351.034	64.51
351.246	5.12
351.458	-15.36
351.669	13.31
351.881	89.09
352.093	39.94
352.305	111.61
352.517	-7.17
352.728	62.46
352.94	-70.65
353.152	25.6
353.363	11.26
353.575	-60.42
353.787	113.66
353.999	13.31
354.21	128
354.422	-25.6
354.633	31.74
354.845	-21.5
355.057	9.22
355.268	1.02
355.48	95.23
355.692	-7.17
355.903	46.08
356.115	-82.94
356.326	-3.07
356.538	80.89
356.749	50.18
356.961	121.85
357.172	-23.55
357.384	-74.75
357.595	97.28
357.807	56.32
358.018	-21.5
358.23	41.98
358.441	93.18
358.653	64.51
358.864	23.55
359.075	15.36
359.287	72.7
359.498	39.94
359.709	78.85
359.921	11.26
360.132	95.23
360.344	13.31
360.555	-23.55
360.766	-9.22
360.977	-17.41
361.189	72.7
361.4	-19.46
361.611	103.42
361.823	35.84
362.034	37.89
362.245	15.36
362.456	-66.56
362.667	89.09
362.879	-50.18
363.09	19.46
363.301	13.31
363.512	-66.56
363.723	-31.74
363.935	19.46
364.146	84.99
364.357	-25.6
364.568	19.46
364.779	1.02
364.99	158.72
365.201	39.94
365.412	46.08
365.623	-13.31
365.834	60.42
366.045	7.17
366.256	56.32
366.467	60.42
366.678	-52.22
366.889	44.03
367.1	46.08
367.311	87.04
367.522	-5.12
367.733	56.32
367.944	105.47
368.155	41.98
368.366	15.36
368.577	60.42
368.788	101.37
368.999	44.03
369.209	35.84
369.42	121.85
369.631	76.8
369.842	5.12
370.053	31.74
370.264	68.61
370.474	13.31
370.685	21.5
370.896	33.79
371.107	78.85
371.317	7.17
371.528	5.12
371.739	46.08
371.95	23.55
372.16	50.18
372.371	-17.41
372.582	-3.07
372.792	33.79
373.003	52.22
373.214	7.17
373.424	50.18
373.635	-46.08
373.846	60.42
374.056	-19.46
374.267	-1.02
374.477	56.32
374.688	19.46
374.898	29.7
375.109	5.12
375.319	1.02
375.53	70.65
375.74	-66.56
375.951	-31.74
376.161	17.41
376.372	95.23
376.582	15.36
376.793	54.27
377.003	11.26
377.214	-33.79
377.424	17.41
377.635	37.89
377.845	-3.07
378.055	64.51
378.266	-37.89
378.476	9.22
378.686	50.18
378.897	44.03
379.107	60.42
379.317	37.89
379.528	3.07
379.738	41.98
379.948	-35.84
380.158	-27.65
380.369	-27.65
380.579	74.75
380.789	-52.22
380.999	-3.07
381.21	70.65
381.42	162.81
381.63	31.74
381.84	41.98
382.05	-1.02
382.261	33.79
382.471	101.37
382.681	56.32
382.891	93.18
383.101	25.6
383.311	5.12
383.521	21.5
383.731	119.81
383.941	-35.84
384.151	44.03
384.361	37.89
384.571	56.32
384.781	52.22
384.991	82.94
385.201	68.61
385.411	70.65
385.621	97.28
385.831	-58.37
386.041	29.7
386.251	29.7
386.461	99.33
386.671	-9.22
386.881	35.84
387.091	91.13
387.301	60.42
387.511	39.94
387.72	74.75
387.93	132.09
388.14	-76.8
388.35	23.55
388.56	35.84
388.769	76.8
388.979	74.75
389.189	1.02
389.399	33.79
389.609	68.61
389.818	60.42
390.028	-7.17
390.238	48.13
390.447	105.47
390.657	60.42
390.867	-19.46
391.076	-19.46
391.286	23.55
391.496	68.61
391.705	52.22
391.915	84.99
392.125	125.95
392.334	15.36
392.544	109.57
392.753	15.36
392.963	21.5
393.172	15.36
393.382	-3.07
393.591	107.52
393.801	-89.09
394.01	123.9
394.22	3.07
394.429	19.46
394.639	-31.74
394.848	-17.41
395.058	29.7
395.267	1.02
395.477	76.8
395.686	44.03
395.895	89.09
396.105	95.23
396.314	29.7
396.524	19.46
396.733	-5.12
396.942	103.42
397.152	78.85
397.361	64.51
397.57	48.13
397.78	-11.26
397.989	46.08
398.198	97.28
398.407	99.33
398.617	70.65
398.826	-44.03
399.035	19.46
399.244	84.99
399.453	76.8
399.663	-11.26
399.872	41.98
400.081	82.94
400.29	89.09
400.499	66.56
400.708	95.23
400.917	-25.6
401.127	80.89
401.336	60.42
401.545	105.47
401.754	37.89
401.963	82.94
402.172	-11.26
402.381	23.55
402.59	70.65
402.799	70.65
403.008	97.28
403.217	23.55
403.426	164.86
403.635	29.7
403.844	70.65
404.053	60.42
404.262	70.65
404.471	168.96
404.68	138.24
404.888	82.94
405.097	80.89
405.306	72.7
405.515	105.47
405.724	29.7
405.933	179.2
406.142	87.04
406.35	191.49
406.559	41.98
406.768	89.09
406.977	134.14
407.185	64.51
407.394	123.9
407.603	111.61
407.812	56.32
408.02	199.68
408.229	156.67
408.438	154.62
408.646	138.24
408.855	134.14
409.064	164.86
409.272	138.24
409.481	152.57
409.69	97.28
409.898	142.33
410.107	105.47
410.315	183.29
410.524	195.58
410.733	211.96
410.941	144.38
411.15	250.88
411.358	277.5
411.567	281.6
411.775	175.1
411.984	361.47
412.192	254.97
412.401	279.55
412.609	248.83
412.818	357.37
413.026	355.32
413.234	324.6
413.443	320.51
413.651	359.42
413.86	265.21
414.068	373.75
414.276	394.23
414.485	353.27
414.693	414.71
414.901	529.4
415.11	457.72
415.318	377.85
415.526	377.85
415.734	535.54
415.943	451.58
416.151	545.78
416.359	515.06
416.567	603.13
416.776	480.25
416.984	539.64
417.192	594.93
417.4	531.45
417.608	523.26
417.817	588.79
418.025	674.81
418.233	842.74
418.441	676.85
418.649	615.41
418.857	803.83
419.065	777.2
419.273	744.44
419.481	926.71
419.689	883.7
419.897	873.46
420.105	953.33
420.313	961.52
420.521	920.56
420.729	1033.2
420.937	1025.01
421.145	1147.89
421.353	1125.36
421.561	1201.13
421.769	1166.32
421.977	1135.6
422.185	1235.95
422.393	1283.05
422.601	1381.35
422.809	1354.73
423.017	1395.69
423.224	1465.32
423.432	1627.11
423.64	1524.71
423.848	1756.13
424.056	1604.58
424.263	1858.53
424.471	1663.97
424.679	1833.96
424.887	1850.34
425.094	1928.16
425.302	2005.99
425.51	1960.93
425.718	2020.32
425.925	2106.34
426.133	2083.81
426.341	2300.89
426.548	2284.51
426.756	2276.32
426.964	2393.05
427.171	2497.5
427.379	2567.13
427.586	2636.76
427.794	2786.26
428.001	2806.74
428.209	2935.76
428.417	3017.68
428.624	3173.33
428.832	3148.75
429.039	3187.66
429.247	3150.8
429.454	3423.18
429.662	3867.59
429.869	3341.26
430.076	3730.38
430.284	3705.8
430.491	3748.81
430.699	3902.4
430.906	3937.22
431.114	3836.87
431.321	4148.16
431.528	4025.28
431.736	4481.98
431.943	4735.93
432.15	4496.32
432.358	4586.43
432.565	4776.89
432.772	4651.96
432.979	5133.23
433.187	5166
433.394	5086.13
433.601	5372.85
433.808	5653.42
434.016	5493.68
434.223	5749.67
434.43	6040.48
434.637	6056.87
434.844	6198.18
435.052	6497.18
435.259	6517.66
435.466	6630.3
435.673	6306.72
435.88	6945.69
436.087	7181.2
436.294	7183.25
436.501	6847.38
436.708	7130
436.915	7414.67
437.122	7670.67
437.329	7596.94
437.537	7981.96
437.743	8084.36
437.95	7902.09
438.157	8651.64
438.364	8631.16
438.571	8739.71
438.778	8762.23
438.985	9622.38
439.192	9220.98
439.399	9603.95
439.606	9098.1
439.813	9694.06
440.02	10367.84
440.227	10269.54
440.433	10146.66
440.64	10394.47
440.847	10412.9
441.054	10646.37
441.261	11156.31
441.467	11184.98
441.674	11461.46
441.881	11756.36
442.088	11653.97
442.294	11580.24
442.501	11909.96
442.708	12331.84
442.914	12718.91
443.121	13183.8
443.328	12974.91
443.534	13646.64
443.741	13126.46
443.948	13140.79
444.154	14215.98
444.361	14140.2
444.568	14144.3
444.774	14246.69
444.981	14424.87
445.187	14924.57
445.394	15455
445.6	15199
445.807	16624.39
446.013	15899.41
446.22	16177.93
446.426	17068.8
446.633	17169.15
446.839	17644.27
447.046	17191.67
447.252	17941.23
447.459	17935.09
447.665	17765.1
447.871	18412.26
448.078	19493.59
448.284	18569.96
448.491	19026.65
448.697	19751.63
448.903	20224.72
449.11	20075.21
449.316	19841.75
449.522	20484.81
449.728	20806.34
449.935	20769.48
450.141	20503.24
450.347	21068.48
450.553	20802.24
450.76	20896.45
450.966	21631.67
451.172	21508.79
451.378	21850.8
451.584	21551.8
451.791	21961.39
451.997	22137.52
452.203	22350.51
452.409	22334.12
452.615	22438.57
452.821	21426.87
453.027	20953.79
453.233	22211.25
453.44	21357.24
453.646	21713.59
453.852	21951.15
454.058	21836.47
454.264	21504.7
454.47	21887.67
454.676	21347
454.882	22020.78
455.088	20136.65
455.294	20419.27
455.5	20761.28
455.705	20935.36
455.911	20124.36
456.117	19903.18
456.323	19391.19
456.529	18586.34
456.735	19229.4
456.941	18815.71
457.147	18471.65
457.352	17842.93
457.558	17658.61
457.764	17740.53
457.97	17251.06
458.176	16751.36
458.381	17062.65
458.587	16268.04
458.793	16243.46
458.999	15237.91
459.204	16292.62
459.41	15862.54
459.616	14635.81
459.821	14836.51
460.027	14766.88
460.233	14598.95
460.438	13925.16
460.644	14072.62
460.85	13351.73
461.055	13161.27
461.261	13060.92
461.466	12139.33
461.672	11584.34
461.878	12446.53
462.083	11905.87
462.289	11545.42
462.494	11264.85
462.7	10885.98
462.905	10543.97
463.111	11006.81
463.316	11000.66
463.522	10808.16
463.727	10705.76
463.932	10883.93
464.138	10433.38
464.343	10392.42
464.549	10326.88
464.754	10627.93
464.959	10654.56
465.165	10468.19
465.37	9943.91
465.575	9853.8
465.781	10009.45
465.986	10070.89
466.191	9855.85
466.397	9618.29
466.602	9063.29
466.807	9630.57
467.012	9626.48
467.218	9560.94
467.423	9249.65
