Data from USB4F104151__26__12-11-45-359.txt Node

Date: Fri Mar 14 12:11:45 EDT 2025
User: louis
Spectrometer: USB4F10415
Trigger mode: 4
Integration Time (sec): 5.000000E-2
Scans to average: 1
Electric dark correction enabled: true
Nonlinearity correction enabled: false
Boxcar width: 0
XAxis mode: Wavelengths
Number of Pixels in Spectrum: 3648
>>>>>Begin Spectral Data<<<<<
178.204	-190.63
178.424	-190.63
178.644	-190.63
178.864	-164.01
179.084	-182.44
179.304	-30.89
179.524	-24.75
179.744	51.03
179.964	110.42
180.184	-32.94
180.404	18.26
180.624	-16.55
180.844	36.69
181.064	-77.99
181.283	-2.22
181.503	-55.47
181.723	24.4
181.943	14.17
182.163	145.24
182.383	38.74
182.602	110.42
182.822	81.75
183.042	91.99
183.262	96.08
183.482	67.41
183.701	28.5
183.921	38.74
184.141	-12.46
184.361	71.51
184.58	24.4
184.8	28.5
185.02	28.5
185.239	122.71
185.459	3.93
185.679	120.66
185.898	16.21
186.118	132.95
186.338	-4.27
186.557	69.46
186.777	61.27
186.997	67.41
187.216	18.26
187.436	108.37
187.655	34.64
187.875	106.32
188.095	-0.17
188.314	173.91
188.534	114.52
188.753	30.55
188.973	59.22
189.192	89.94
189.412	40.79
189.631	59.22
189.851	73.56
190.07	120.66
190.29	-22.7
190.509	18.26
190.729	85.84
190.948	73.56
191.168	311.12
191.387	73.56
191.607	40.79
191.826	16.21
192.045	79.7
192.265	-0.17
192.484	85.84
192.704	67.41
192.923	-12.46
193.142	190.29
193.362	46.93
193.581	57.17
193.8	89.94
194.02	153.43
194.239	77.65
194.458	112.47
194.678	12.12
194.897	28.5
195.116	73.56
195.335	10.07
195.555	102.23
195.774	22.36
195.993	122.71
196.212	8.02
196.432	18.26
196.651	38.74
196.87	48.98
197.089	204.63
197.308	126.8
197.528	26.45
197.747	-14.51
197.966	26.45
198.185	98.13
198.404	-2.22
198.623	137.04
198.842	130.9
199.062	106.32
199.281	126.8
199.5	10.07
199.719	-18.6
199.938	83.8
200.157	94.04
200.376	143.19
200.595	151.38
200.814	104.28
201.033	59.22
201.252	85.84
201.471	69.46
201.69	132.95
201.909	-4.27
202.128	36.69
202.347	108.37
202.566	-10.41
202.785	-28.84
203.004	22.36
203.223	165.71
203.442	38.74
203.661	34.64
203.879	53.08
204.098	98.13
204.317	-34.99
204.536	96.08
204.755	94.04
204.974	69.46
205.193	26.45
205.411	169.81
205.63	69.46
205.849	61.27
206.068	83.8
206.287	102.23
206.505	81.75
206.724	79.7
206.943	8.02
207.162	46.93
207.381	85.84
207.599	65.36
207.818	57.17
208.037	71.51
208.255	22.36
208.474	91.99
208.693	30.55
208.911	135
209.13	198.48
209.349	20.31
209.567	106.32
209.786	77.65
210.005	61.27
210.223	81.75
210.442	-16.55
210.661	61.27
210.879	71.51
211.098	46.93
211.316	34.64
211.535	61.27
211.753	75.6
211.972	42.84
212.191	53.08
212.409	94.04
212.628	96.08
212.846	-16.55
213.065	112.47
213.283	100.18
213.502	40.79
213.72	67.41
213.938	40.79
214.157	16.21
214.375	122.71
214.594	96.08
214.812	67.41
215.031	-10.41
215.249	-2.22
215.467	-37.03
215.686	-12.46
215.904	85.84
216.122	18.26
216.341	91.99
216.559	48.98
216.778	120.66
216.996	1.88
217.214	59.22
217.432	59.22
217.651	91.99
217.869	34.64
218.087	96.08
218.306	-24.75
218.524	104.28
218.742	57.17
218.96	67.41
219.179	12.12
219.397	69.46
219.615	114.52
219.833	73.56
220.051	24.4
220.27	102.23
220.488	61.27
220.706	130.9
220.924	26.45
221.142	69.46
221.36	75.6
221.578	40.79
221.796	57.17
222.015	61.27
222.233	65.36
222.451	128.85
222.669	-6.31
222.887	87.89
223.105	-20.65
223.323	-37.03
223.541	-14.51
223.759	77.65
223.977	-6.31
224.195	108.37
224.413	38.74
224.631	75.6
224.849	71.51
225.067	48.98
225.285	32.6
225.503	75.6
225.721	-12.46
225.939	63.32
226.157	98.13
226.375	216.91
226.592	36.69
226.81	8.02
227.028	159.57
227.246	153.43
227.464	10.07
227.682	112.47
227.9	59.22
228.117	32.6
228.335	110.42
228.553	-10.41
228.771	102.23
228.989	61.27
229.206	75.6
229.424	-22.7
229.642	89.94
229.86	5.97
230.077	73.56
230.295	26.45
230.513	155.47
230.731	28.5
230.948	149.33
231.166	96.08
231.384	24.4
231.601	87.89
231.819	59.22
232.037	-59.56
232.254	-71.85
232.472	-12.46
232.689	53.08
232.907	63.32
233.125	104.28
233.342	-6.31
233.56	67.41
233.777	40.79
233.995	87.89
234.213	130.9
234.43	1.88
234.648	18.26
234.865	34.64
235.083	63.32
235.3	22.36
235.518	71.51
235.735	141.14
235.953	57.17
236.17	63.32
236.388	75.6
236.605	-37.03
236.822	110.42
237.04	1.88
237.257	63.32
237.475	12.12
237.692	79.7
237.909	44.88
238.127	8.02
238.344	65.36
238.562	38.74
238.779	-2.22
238.996	-6.31
239.214	51.03
239.431	67.41
239.648	48.98
239.865	53.08
240.083	75.6
240.3	28.5
240.517	-30.89
240.735	67.41
240.952	141.14
241.169	124.76
241.386	83.8
241.603	75.6
241.821	-16.55
242.038	91.99
242.255	24.4
242.472	32.6
242.689	59.22
242.907	130.9
243.124	71.51
243.341	104.28
243.558	24.4
243.775	28.5
243.992	-73.9
244.209	87.89
244.426	194.39
244.643	114.52
244.86	75.6
245.078	132.95
245.295	65.36
245.512	-37.03
245.729	-0.17
245.946	44.88
246.163	51.03
246.38	83.8
246.597	-14.51
246.814	34.64
247.031	12.12
247.248	38.74
247.464	98.13
247.681	-41.13
247.898	65.36
248.115	36.69
248.332	26.45
248.549	71.51
248.766	157.52
248.983	69.46
249.2	12.12
249.417	16.21
249.633	81.75
249.85	71.51
250.067	38.74
250.284	61.27
250.501	16.21
250.717	102.23
250.934	-0.17
251.151	65.36
251.368	55.12
251.585	102.23
251.801	10.07
252.018	22.36
252.235	24.4
252.451	94.04
252.668	53.08
252.885	153.43
253.102	130.9
253.318	-4.27
253.535	28.5
253.752	-12.46
253.968	83.8
254.185	28.5
254.401	1.88
254.618	81.75
254.835	36.69
255.051	96.08
255.268	143.19
255.484	36.69
255.701	22.36
255.917	77.65
256.134	5.97
256.351	5.97
256.567	53.08
256.784	114.52
257	-20.65
257.217	135
257.433	79.7
257.65	-4.27
257.866	61.27
258.082	-75.95
258.299	-10.41
258.515	53.08
258.732	20.31
258.948	100.18
259.165	126.8
259.381	57.17
259.597	87.89
259.814	79.7
260.03	81.75
260.246	28.5
260.463	69.46
260.679	77.65
260.895	3.93
261.112	73.56
261.328	26.45
261.544	36.69
261.761	214.87
261.977	12.12
262.193	-14.51
262.409	118.61
262.626	85.84
262.842	122.71
263.058	28.5
263.274	91.99
263.49	108.37
263.707	100.18
263.923	59.22
264.139	3.93
264.355	-6.31
264.571	114.52
264.787	110.42
265.004	122.71
265.22	20.31
265.436	85.84
265.652	30.55
265.868	149.33
266.084	20.31
266.3	59.22
266.516	26.45
266.732	79.7
266.948	12.12
267.164	5.97
267.38	122.71
267.596	38.74
267.812	184.15
268.028	69.46
268.244	46.93
268.46	61.27
268.676	128.85
268.892	-16.55
269.108	18.26
269.324	8.02
269.54	1.88
269.756	106.32
269.972	-20.65
270.188	-0.17
270.403	26.45
270.619	122.71
270.835	89.94
271.051	24.4
271.267	16.21
271.483	32.6
271.698	98.13
271.914	44.88
272.13	36.69
272.346	102.23
272.562	116.56
272.777	139.09
272.993	51.03
273.209	57.17
273.425	112.47
273.64	71.51
273.856	132.95
274.072	26.45
274.287	-22.7
274.503	18.26
274.719	81.75
274.934	79.7
275.15	16.21
275.366	1.88
275.581	5.97
275.797	53.08
276.012	91.99
276.228	75.6
276.444	57.17
276.659	167.76
276.875	57.17
277.09	36.69
277.306	77.65
277.521	44.88
277.737	38.74
277.952	63.32
278.168	87.89
278.383	26.45
278.599	-18.6
278.814	102.23
279.03	59.22
279.245	135
279.461	-55.47
279.676	108.37
279.892	-30.89
280.107	-12.46
280.322	91.99
280.538	55.12
280.753	34.64
280.969	85.84
281.184	-2.22
281.399	30.55
281.615	91.99
281.83	141.14
282.045	38.74
282.26	32.6
282.476	89.94
282.691	48.98
282.906	96.08
283.122	36.69
283.337	3.93
283.552	124.76
283.767	-2.22
283.983	55.12
284.198	-37.03
284.413	102.23
284.628	-32.94
284.843	32.6
285.058	69.46
285.274	65.36
285.489	16.21
285.704	69.46
285.919	89.94
286.134	75.6
286.349	38.74
286.564	-20.65
286.779	126.8
286.995	38.74
287.21	-12.46
287.425	98.13
287.64	10.07
287.855	126.8
288.07	-30.89
288.285	81.75
288.5	44.88
288.715	79.7
288.93	87.89
289.145	51.03
289.36	42.84
289.575	79.7
289.79	108.37
290.004	8.02
290.219	81.75
290.434	32.6
290.649	12.12
290.864	69.46
291.079	44.88
291.294	71.51
291.509	81.75
291.724	51.03
291.938	32.6
292.153	91.99
292.368	20.31
292.583	34.64
292.798	94.04
293.012	102.23
293.227	1.88
293.442	59.22
293.657	28.5
293.871	91.99
294.086	67.41
294.301	73.56
294.516	67.41
294.73	32.6
294.945	75.6
295.16	59.22
295.374	81.75
295.589	98.13
295.804	34.64
296.018	38.74
296.233	63.32
296.447	85.84
296.662	-10.41
296.877	20.31
297.091	59.22
297.306	59.22
297.52	53.08
297.735	-10.41
297.949	26.45
298.164	42.84
298.378	20.31
298.593	-24.75
298.807	42.84
299.022	77.65
299.236	102.23
299.451	34.64
299.665	-2.22
299.88	67.41
300.094	26.45
300.309	85.84
300.523	51.03
300.737	122.71
300.952	36.69
301.166	104.28
301.381	55.12
301.595	14.17
301.809	61.27
302.024	48.98
302.238	71.51
302.452	57.17
302.667	63.32
302.881	98.13
303.095	42.84
303.309	116.56
303.524	22.36
303.738	30.55
303.952	108.37
304.166	89.94
304.381	14.17
304.595	102.23
304.809	38.74
305.023	98.13
305.237	20.31
305.452	26.45
305.666	69.46
305.88	51.03
306.094	48.98
306.308	44.88
306.522	114.52
306.736	91.99
306.95	145.24
307.164	36.69
307.379	8.02
307.593	81.75
307.807	85.84
308.021	79.7
308.235	36.69
308.449	51.03
308.663	102.23
308.877	145.24
309.091	18.26
309.305	89.94
309.519	-24.75
309.733	100.18
309.947	51.03
310.161	26.45
310.374	149.33
310.588	75.6
310.802	28.5
311.016	65.36
311.23	16.21
311.444	-28.84
311.658	59.22
311.872	141.14
312.085	20.31
312.299	34.64
312.513	28.5
312.727	26.45
312.941	10.07
313.154	65.36
313.368	55.12
313.582	18.26
313.796	22.36
314.009	18.26
314.223	145.24
314.437	57.17
314.651	63.32
314.864	-26.79
315.078	14.17
315.292	-30.89
315.505	-6.31
315.719	44.88
315.933	73.56
316.146	5.97
316.36	10.07
316.573	26.45
316.787	67.41
317.001	139.09
317.214	-22.7
317.428	87.89
317.641	22.36
317.855	-12.46
318.068	-0.17
318.282	-6.31
318.495	167.76
318.709	71.51
318.922	28.5
319.136	120.66
319.349	114.52
319.563	12.12
319.776	71.51
319.99	-16.55
320.203	135
320.417	48.98
320.63	75.6
320.843	18.26
321.057	98.13
321.27	73.56
321.483	55.12
321.697	96.08
321.91	73.56
322.124	73.56
322.337	94.04
322.55	-6.31
322.763	16.21
322.977	77.65
323.19	16.21
323.403	42.84
323.617	-0.17
323.83	79.7
324.043	44.88
324.256	34.64
324.469	3.93
324.683	169.81
324.896	38.74
325.109	10.07
325.322	-71.85
325.535	141.14
325.748	67.41
325.962	8.02
326.175	77.65
326.388	149.33
326.601	71.51
326.814	18.26
327.027	30.55
327.24	165.71
327.453	96.08
327.666	81.75
327.879	75.6
328.092	89.94
328.305	100.18
328.518	-0.17
328.731	-10.41
328.944	91.99
329.157	46.93
329.37	65.36
329.583	89.94
329.796	173.91
330.009	40.79
330.222	112.47
330.435	94.04
330.648	46.93
330.861	57.17
331.073	130.9
331.286	147.28
331.499	100.18
331.712	53.08
331.925	-4.27
332.138	116.56
332.35	163.67
332.563	42.84
332.776	57.17
332.989	-32.94
333.202	77.65
333.414	77.65
333.627	57.17
333.84	55.12
334.053	34.64
334.265	18.26
334.478	22.36
334.691	108.37
334.903	38.74
335.116	34.64
335.329	55.12
335.541	73.56
335.754	130.9
335.966	42.84
336.179	36.69
336.392	73.56
336.604	40.79
336.817	104.28
337.029	102.23
337.242	22.36
337.454	167.76
337.667	3.93
337.88	118.61
338.092	87.89
338.305	85.84
338.517	71.51
338.729	126.8
338.942	159.57
339.154	36.69
339.367	-22.7
339.579	57.17
339.792	40.79
340.004	132.95
340.217	28.5
340.429	51.03
340.641	34.64
340.854	114.52
341.066	30.55
341.278	55.12
341.491	139.09
341.703	96.08
341.915	-12.46
342.128	96.08
342.34	67.41
342.552	-16.55
342.764	10.07
342.977	24.4
343.189	63.32
343.401	42.84
343.613	32.6
343.826	36.69
344.038	1.88
344.25	116.56
344.462	10.07
344.674	141.14
344.886	112.47
345.099	46.93
345.311	141.14
345.523	71.51
345.735	57.17
345.947	51.03
346.159	61.27
346.371	51.03
346.583	5.97
346.795	139.09
347.007	77.65
347.219	20.31
347.431	55.12
347.643	61.27
347.855	26.45
348.067	24.4
348.279	10.07
348.491	53.08
348.703	102.23
348.915	14.17
349.127	24.4
349.339	96.08
349.551	44.88
349.763	69.46
349.975	14.17
350.187	145.24
350.399	51.03
350.61	151.38
350.822	89.94
351.034	53.08
351.246	106.32
351.458	51.03
351.669	42.84
351.881	87.89
352.093	63.32
352.305	112.47
352.517	114.52
352.728	89.94
352.94	147.28
353.152	73.56
353.363	63.32
353.575	67.41
353.787	110.42
353.999	130.9
354.21	118.61
354.422	16.21
354.633	61.27
354.845	28.5
355.057	24.4
355.268	77.65
355.48	61.27
355.692	20.31
355.903	118.61
356.115	44.88
356.326	48.98
356.538	67.41
356.749	59.22
356.961	175.95
357.172	81.75
357.384	18.26
357.595	186.19
357.807	10.07
358.018	89.94
358.23	108.37
358.441	161.62
358.653	116.56
358.864	100.18
359.075	59.22
359.287	100.18
359.498	104.28
359.709	106.32
359.921	104.28
360.132	65.36
360.344	110.42
360.555	12.12
360.766	112.47
360.977	83.8
361.189	104.28
361.4	46.93
361.611	110.42
361.823	79.7
362.034	75.6
362.245	-75.95
362.456	59.22
362.667	51.03
362.879	75.6
363.09	42.84
363.301	171.86
363.512	118.61
363.723	51.03
363.935	132.95
364.146	135
364.357	18.26
364.568	44.88
364.779	34.64
364.99	171.86
365.201	12.12
365.412	98.13
365.623	12.12
365.834	61.27
366.045	89.94
366.256	126.8
366.467	46.93
366.678	36.69
366.889	89.94
367.1	102.23
367.311	128.85
367.522	22.36
367.733	102.23
367.944	108.37
368.155	83.8
368.366	110.42
368.577	110.42
368.788	44.88
368.999	38.74
369.209	100.18
369.42	157.52
369.631	163.67
369.842	30.55
370.053	40.79
370.264	149.33
370.474	-24.75
370.685	40.79
370.896	57.17
371.107	102.23
371.317	147.28
371.528	85.84
371.739	69.46
371.95	81.75
372.16	-34.99
372.371	42.84
372.582	-4.27
372.792	-0.17
373.003	-10.41
373.214	59.22
373.424	38.74
373.635	-47.27
373.846	87.89
374.056	116.56
374.267	139.09
374.477	59.22
374.688	12.12
374.898	100.18
375.109	96.08
375.319	85.84
375.53	96.08
375.74	157.52
375.951	79.7
376.161	85.84
376.372	96.08
376.582	79.7
376.793	102.23
377.003	53.08
377.214	61.27
377.424	44.88
377.635	106.32
377.845	-6.31
378.055	59.22
378.266	5.97
378.476	10.07
378.686	26.45
378.897	83.8
379.107	100.18
379.317	71.51
379.528	83.8
379.738	91.99
379.948	16.21
380.158	94.04
380.369	38.74
380.579	94.04
380.789	87.89
380.999	132.95
381.21	94.04
381.42	188.24
381.63	104.28
381.84	75.6
382.05	167.76
382.261	71.51
382.471	79.7
382.681	24.4
382.891	116.56
383.101	100.18
383.311	69.46
383.521	38.74
383.731	85.84
383.941	91.99
384.151	67.41
384.361	26.45
384.571	32.6
384.781	108.37
384.991	100.18
385.201	100.18
385.411	77.65
385.621	53.08
385.831	94.04
386.041	137.04
386.251	85.84
386.461	108.37
386.671	77.65
386.881	116.56
387.091	46.93
387.301	77.65
387.511	108.37
387.72	130.9
387.93	44.88
388.14	42.84
388.35	30.55
388.56	110.42
388.769	75.6
388.979	18.26
389.189	28.5
389.399	94.04
389.609	106.32
389.818	132.95
390.028	71.51
390.238	91.99
390.447	89.94
390.657	-20.65
390.867	26.45
391.076	65.36
391.286	81.75
391.496	94.04
391.705	137.04
391.915	143.19
392.125	108.37
392.334	-10.41
392.544	157.52
392.753	85.84
392.963	53.08
393.172	67.41
393.382	40.79
393.591	104.28
393.801	51.03
394.01	135
394.22	128.85
394.429	118.61
394.639	57.17
394.848	112.47
395.058	65.36
395.267	122.71
395.477	145.24
395.686	143.19
395.895	175.95
396.105	159.57
396.314	147.28
396.524	108.37
396.733	100.18
396.942	81.75
397.152	69.46
397.361	186.19
397.57	100.18
397.78	94.04
397.989	132.95
398.198	155.47
398.407	48.98
398.617	79.7
398.826	94.04
399.035	102.23
399.244	214.87
399.453	124.76
399.663	161.62
399.872	100.18
400.081	55.12
400.29	216.91
400.499	87.89
400.708	182.1
400.917	151.38
401.127	137.04
401.336	143.19
401.545	141.14
401.754	210.77
401.963	69.46
402.172	163.67
402.381	71.51
402.59	91.99
402.799	188.24
403.008	110.42
403.217	110.42
403.426	145.24
403.635	73.56
403.844	159.57
404.053	190.29
404.262	143.19
404.471	276.31
404.68	118.61
404.888	200.53
405.097	149.33
405.306	169.81
405.515	130.9
405.724	206.67
405.933	290.64
406.142	171.86
406.35	280.4
406.559	178
406.768	210.77
406.977	268.11
407.185	274.26
407.394	200.53
407.603	227.15
407.812	231.25
408.02	325.46
408.229	171.86
408.438	292.69
408.646	200.53
408.855	202.58
409.064	282.45
409.272	264.02
409.481	309.07
409.69	257.87
409.898	288.59
410.107	300.88
410.315	425.81
410.524	257.87
410.733	417.61
410.941	376.66
411.15	407.38
411.358	413.52
411.567	499.53
411.775	470.86
411.984	454.48
412.192	503.63
412.401	499.53
412.609	565.07
412.818	554.83
413.026	542.54
413.234	567.12
413.443	567.12
413.651	606.03
413.86	646.99
414.068	692.04
414.276	671.56
414.485	649.04
414.693	728.91
414.901	798.54
415.11	710.47
415.318	712.52
415.526	786.25
415.734	821.06
415.943	864.07
416.151	905.03
416.359	849.74
416.567	1017.67
416.776	833.35
416.984	1081.16
417.192	958.28
417.4	939.85
417.608	1050.44
417.817	997.19
418.025	1142.6
418.233	1216.32
418.441	1156.93
418.649	1324.87
418.857	1322.82
419.065	1439.55
419.273	1181.51
419.481	1326.91
419.689	1462.08
419.897	1535.81
420.105	1400.64
420.313	1685.31
420.521	1775.42
420.729	1664.83
420.937	1822.52
421.145	1904.44
421.353	1888.06
421.561	1990.45
421.769	2004.79
421.977	2127.67
422.185	2131.76
422.393	2279.22
422.601	2266.93
422.809	2287.41
423.017	2285.36
423.224	2305.84
423.432	2545.45
423.64	2518.83
423.848	2791.21
424.056	2654
424.263	2944.81
424.471	2887.47
424.679	3036.97
424.887	3198.76
425.094	3243.81
425.302	3385.12
425.51	3411.75
425.718	3522.34
425.925	3579.68
426.133	3708.7
426.341	3940.12
426.548	3823.39
426.756	4116.25
426.964	4097.81
427.171	4224.79
427.379	4329.24
427.586	4437.78
427.794	4597.52
428.001	4886.28
428.209	4984.59
428.417	4955.91
428.624	5183.24
428.832	5234.44
429.039	5273.35
429.247	5158.66
429.454	5818.11
429.662	5965.56
429.869	5697.28
430.076	6129.4
430.284	5811.96
430.491	6311.67
430.699	6561.52
430.906	6577.9
431.114	6788.85
431.321	7003.88
431.528	7188.2
431.736	7495.39
431.943	7900.89
432.15	7499.49
432.358	7661.28
432.565	8189.66
432.772	8177.37
432.979	8548.05
433.187	8519.38
433.394	8675.02
433.601	9291.46
433.808	9332.42
434.016	9221.83
434.223	9682.63
434.43	10139.32
434.637	10032.83
434.844	10829.49
435.052	10935.98
435.259	10729.14
435.466	10862.26
435.673	10688.18
435.88	11333.29
436.087	12015.26
436.294	11959.97
436.501	11769.51
436.708	11945.63
436.915	12555.93
437.122	13069.97
437.329	12975.76
437.537	13313.67
437.743	13584.01
437.95	13686.4
438.157	13893.25
438.364	14505.59
438.571	14513.78
438.778	14694.01
438.985	16162.4
439.192	15402.6
439.399	15853.16
439.606	15564.39
439.813	16209.5
440.02	17129.04
440.227	17047.12
440.433	17010.26
440.64	17698.38
440.847	17407.56
441.054	17903.17
441.261	18777.65
441.467	18529.85
441.674	19103.28
441.881	19584.55
442.088	19629.61
442.294	19668.52
442.501	20229.66
442.708	20454.94
442.914	21186.07
443.121	22214.15
443.328	21599.76
443.534	23213.56
443.741	22709.75
443.948	22144.52
444.154	23801.32
444.361	23504.37
444.568	23645.68
444.774	23774.7
444.981	23918.06
445.187	24919.51
445.394	25841.1
445.6	25341.39
445.807	27905.45
446.013	26641.85
446.22	26824.12
446.426	27993.51
446.633	28509.6
446.839	29529.49
447.046	27975.08
447.252	29781.39
447.459	29715.86
447.665	29509.01
447.871	31020.41
448.078	32490.85
448.284	31020.41
448.491	31384.95
448.697	32744.8
448.903	33174.88
449.11	33553.75
449.316	33015.13
449.522	33406.3
449.728	34458.95
449.935	34469.19
450.141	34454.86
450.347	35439.93
450.553	34000.21
450.76	34606.41
450.966	35870
451.172	35315
451.378	36175.15
451.584	35087.68
451.791	36848.93
451.997	35933.49
452.203	36488.49
452.409	36930.85
452.615	36240.68
452.821	35280.19
453.027	34776.39
453.233	36724
453.44	35175.74
453.646	35853.62
453.852	35937.58
454.058	36259.12
454.264	34966.85
454.47	36140.33
454.676	35130.69
454.882	36293.93
455.088	33187.16
455.294	33228.12
455.5	34057.55
455.705	34331.98
455.911	32922.97
456.117	32523.62
456.323	31860.08
456.529	30182.79
456.735	31378.81
456.941	30852.48
457.147	30117.26
457.352	29273.49
457.558	28839.33
457.764	28960.16
457.97	28390.82
458.176	27913.64
458.381	27897.26
458.587	26240.45
458.793	26658.24
458.999	24839.64
459.204	26709.44
459.41	25968.07
459.616	24268.26
459.821	24157.67
460.027	24425.95
460.233	23485.93
460.438	22789.63
460.644	22760.95
460.85	21861.9
461.055	21364.24
461.261	21294.61
461.466	19633.71
461.672	19226.16
461.878	20600.35
462.083	19082.8
462.289	18828.85
462.494	18669.11
462.7	17616.46
462.905	17262.16
463.111	17798.73
463.316	17806.92
463.522	17475.15
463.727	17608.26
463.932	17532.49
464.138	17448.52
464.343	17454.67
464.549	16926.29
464.754	17370.7
464.959	17213.01
465.165	17012.31
465.37	16488.03
465.575	16272.99
465.781	16545.37
465.986	16723.54
