Data from USB4F104151__31__12-11-50-809.txt Node

Date: Fri Mar 14 12:11:50 EDT 2025
User: louis
Spectrometer: USB4F10415
Trigger mode: 4
Integration Time (sec): 5.000000E-2
Scans to average: 1
Electric dark correction enabled: true
Nonlinearity correction enabled: false
Boxcar width: 0
XAxis mode: Wavelengths
Number of Pixels in Spectrum: 3648
>>>>>Begin Spectral Data<<<<<
178.204	-257.02
178.424	-257.02
178.644	-257.02
178.864	-218.11
179.084	-197.63
179.304	-9.22
179.524	-56.32
179.744	-17.41
179.964	5.12
180.184	-15.36
180.404	62.46
180.624	89.09
180.844	41.98
181.064	-41.98
181.283	13.31
181.503	-58.37
181.723	-13.31
181.943	-1.02
182.163	41.98
182.383	-29.7
182.602	33.79
182.822	82.94
183.042	39.94
183.262	68.61
183.482	-1.02
183.701	-54.27
183.921	-27.65
184.141	-41.98
184.361	11.26
184.58	119.81
184.8	23.55
185.02	-9.22
185.239	29.7
185.459	-27.65
185.679	80.89
185.898	-50.18
186.118	125.95
186.338	46.08
186.557	31.74
186.777	-41.98
186.997	46.08
187.216	-17.41
187.436	105.47
187.655	52.22
187.875	66.56
188.095	-11.26
188.314	89.09
188.534	91.13
188.753	21.5
188.973	54.27
189.192	33.79
189.412	52.22
189.631	3.07
189.851	50.18
190.07	66.56
190.29	-13.31
190.509	-58.37
190.729	5.12
190.948	62.46
191.168	248.83
191.387	80.89
191.607	44.03
191.826	35.84
192.045	-44.03
192.265	35.84
192.484	39.94
192.704	46.08
192.923	-21.5
193.142	46.08
193.362	84.99
193.581	3.07
193.8	46.08
194.02	125.95
194.239	58.37
194.458	17.41
194.678	25.6
194.897	-17.41
195.116	138.24
195.335	-1.02
195.555	-9.22
195.774	19.46
195.993	58.37
196.212	35.84
196.432	97.28
196.651	-1.02
196.87	-31.74
197.089	87.04
197.308	138.24
197.528	93.18
197.747	-31.74
197.966	13.31
198.185	60.42
198.404	-5.12
198.623	5.12
198.842	56.32
199.062	130.05
199.281	146.43
199.5	48.13
199.719	-11.26
199.938	35.84
200.157	80.89
200.376	60.42
200.595	93.18
200.814	99.33
201.033	-19.46
201.252	117.76
201.471	80.89
201.69	52.22
201.909	27.65
202.128	46.08
202.347	44.03
202.566	50.18
202.785	5.12
203.004	11.26
203.223	115.71
203.442	-11.26
203.661	-1.02
203.879	-13.31
204.098	39.94
204.317	25.6
204.536	60.42
204.755	-44.03
204.974	-7.17
205.193	41.98
205.411	144.38
205.63	13.31
205.849	15.36
206.068	33.79
206.287	27.65
206.505	50.18
206.724	23.55
206.943	103.42
207.162	-19.46
207.381	87.04
207.599	19.46
207.818	-15.36
208.037	-15.36
208.255	39.94
208.474	27.65
208.693	48.13
208.911	44.03
209.13	25.6
209.349	-5.12
209.567	68.61
209.786	142.33
210.005	62.46
210.223	17.41
210.442	-35.84
210.661	37.89
210.879	64.51
211.098	-50.18
211.316	62.46
211.535	1.02
211.753	1.02
211.972	33.79
212.191	-19.46
212.409	35.84
212.628	74.75
212.846	-23.55
213.065	25.6
213.283	68.61
213.502	76.8
213.72	62.46
213.938	95.23
214.157	-23.55
214.375	60.42
214.594	33.79
214.812	21.5
215.031	66.56
215.249	82.94
215.467	25.6
215.686	64.51
215.904	64.51
216.122	-29.7
216.341	111.61
216.559	134.14
216.778	48.13
216.996	21.5
217.214	33.79
217.432	9.22
217.651	80.89
217.869	25.6
218.087	-19.46
218.306	37.89
218.524	60.42
218.742	1.02
218.96	11.26
219.179	-15.36
219.397	-9.22
219.615	168.96
219.833	89.09
220.051	-3.07
220.27	134.14
220.488	46.08
220.706	-5.12
220.924	27.65
221.142	33.79
221.36	-13.31
221.578	23.55
221.796	7.17
222.015	-3.07
222.233	-78.85
222.451	68.61
222.669	-15.36
222.887	105.47
223.105	13.31
223.323	25.6
223.541	-25.6
223.759	72.7
223.977	23.55
224.195	89.09
224.413	23.55
224.631	54.27
224.849	25.6
225.067	144.38
225.285	-52.22
225.503	5.12
225.721	-117.76
225.939	48.13
226.157	48.13
226.375	105.47
226.592	7.17
226.81	76.8
227.028	66.56
227.246	66.56
227.464	93.18
227.682	87.04
227.9	93.18
228.117	64.51
228.335	-1.02
228.553	1.02
228.771	13.31
228.989	48.13
229.206	134.14
229.424	-37.89
229.642	-44.03
229.86	-48.13
230.077	29.7
230.295	31.74
230.513	91.13
230.731	105.47
230.948	78.85
231.166	156.67
231.384	-33.79
231.601	-5.12
231.819	84.99
232.037	-1.02
232.254	-3.07
232.472	-50.18
232.689	-33.79
232.907	138.24
233.125	46.08
233.342	5.12
233.56	-11.26
233.777	41.98
233.995	-15.36
234.213	23.55
234.43	66.56
234.648	70.65
234.865	-9.22
235.083	82.94
235.3	-11.26
235.518	58.37
235.735	123.9
235.953	80.89
236.17	19.46
236.388	70.65
236.605	60.42
236.822	82.94
237.04	76.8
237.257	66.56
237.475	-25.6
237.692	37.89
237.909	41.98
238.127	-33.79
238.344	13.31
238.562	41.98
238.779	58.37
238.996	-35.84
239.214	33.79
239.431	52.22
239.648	5.12
239.865	62.46
240.083	78.85
240.3	76.8
240.517	78.85
240.735	-9.22
240.952	66.56
241.169	146.43
241.386	9.22
241.603	19.46
241.821	-15.36
242.038	35.84
242.255	111.61
242.472	-7.17
242.689	48.13
242.907	164.86
243.124	37.89
243.341	1.02
243.558	-44.03
243.775	-91.13
243.992	-48.13
244.209	97.28
244.426	123.9
244.643	-3.07
244.86	60.42
245.078	-3.07
245.295	41.98
245.512	7.17
245.729	-1.02
245.946	56.32
246.163	-11.26
246.38	62.46
246.597	7.17
246.814	39.94
247.031	-7.17
247.248	29.7
247.464	58.37
247.681	19.46
247.898	60.42
248.115	138.24
248.332	-21.5
248.549	76.8
248.766	109.57
248.983	62.46
249.2	58.37
249.417	101.37
249.633	80.89
249.85	11.26
250.067	-9.22
250.284	21.5
250.501	72.7
250.717	39.94
250.934	44.03
251.151	21.5
251.368	62.46
251.585	44.03
251.801	80.89
252.018	23.55
252.235	54.27
252.451	31.74
252.668	7.17
252.885	68.61
253.102	19.46
253.318	27.65
253.535	60.42
253.752	13.31
253.968	3.07
254.185	-62.46
254.401	-1.02
254.618	50.18
254.835	91.13
255.051	142.33
255.268	50.18
255.484	76.8
255.701	3.07
255.917	27.65
256.134	-46.08
256.351	62.46
256.567	68.61
256.784	13.31
257	-50.18
257.217	7.17
257.433	58.37
257.65	23.55
257.866	41.98
258.082	-27.65
258.299	-66.56
258.515	17.41
258.732	37.89
258.948	39.94
259.165	54.27
259.381	-15.36
259.597	-27.65
259.814	82.94
260.03	15.36
260.246	11.26
260.463	-5.12
260.679	56.32
260.895	84.99
261.112	15.36
261.328	-17.41
261.544	-23.55
261.761	54.27
261.977	-52.22
262.193	5.12
262.409	13.31
262.626	50.18
262.842	99.33
263.058	48.13
263.274	25.6
263.49	3.07
263.707	74.75
263.923	44.03
264.139	-119.81
264.355	48.13
264.571	134.14
264.787	-48.13
265.004	115.71
265.22	19.46
265.436	23.55
265.652	78.85
265.868	84.99
266.084	41.98
266.3	9.22
266.516	-13.31
266.732	95.23
266.948	15.36
267.164	-31.74
267.38	-5.12
267.596	66.56
267.812	146.43
268.028	82.94
268.244	76.8
268.46	44.03
268.676	-9.22
268.892	62.46
269.108	35.84
269.324	3.07
269.54	-29.7
269.756	70.65
269.972	-21.5
270.188	52.22
270.403	48.13
270.619	70.65
270.835	7.17
271.051	-17.41
271.267	25.6
271.483	54.27
271.698	125.95
271.914	17.41
272.13	66.56
272.346	48.13
272.562	-3.07
272.777	52.22
272.993	-15.36
273.209	17.41
273.425	52.22
273.64	-60.42
273.856	64.51
274.072	-11.26
274.287	-27.65
274.503	35.84
274.719	84.99
274.934	7.17
275.15	3.07
275.366	17.41
275.581	29.7
275.797	-17.41
276.012	23.55
276.228	15.36
276.444	-19.46
276.659	146.43
276.875	1.02
277.09	60.42
277.306	-50.18
277.521	48.13
277.737	68.61
277.952	35.84
278.168	60.42
278.383	60.42
278.599	15.36
278.814	41.98
279.03	27.65
279.245	21.5
279.461	64.51
279.676	128
279.892	-15.36
280.107	76.8
280.322	-13.31
280.538	66.56
280.753	-13.31
280.969	7.17
281.184	56.32
281.399	113.66
281.615	78.85
281.83	19.46
282.045	74.75
282.26	-39.94
282.476	35.84
282.691	56.32
282.906	39.94
283.122	78.85
283.337	29.7
283.552	68.61
283.767	-46.08
283.983	-1.02
284.198	48.13
284.413	66.56
284.628	-60.42
284.843	60.42
285.058	66.56
285.274	1.02
285.489	-29.7
285.704	52.22
285.919	-1.02
286.134	37.89
286.349	-1.02
286.564	21.5
286.779	93.18
286.995	-23.55
287.21	-35.84
287.425	25.6
287.64	-56.32
287.855	-21.5
288.07	35.84
288.285	103.42
288.5	35.84
288.715	111.61
288.93	1.02
289.145	-80.89
289.36	41.98
289.575	74.75
289.79	56.32
290.004	82.94
290.219	54.27
290.434	-23.55
290.649	21.5
290.864	21.5
291.079	1.02
291.294	64.51
291.509	7.17
291.724	25.6
291.938	66.56
292.153	-3.07
292.368	-13.31
292.583	39.94
292.798	82.94
293.012	-19.46
293.227	29.7
293.442	-35.84
293.657	25.6
293.871	99.33
294.086	117.76
294.301	117.76
294.516	72.7
294.73	23.55
294.945	-78.85
295.16	60.42
295.374	64.51
295.589	84.99
295.804	17.41
296.018	19.46
296.233	58.37
296.447	5.12
296.662	-48.13
296.877	109.57
297.091	58.37
297.306	11.26
297.52	56.32
297.735	-1.02
297.949	111.61
298.164	58.37
298.378	41.98
298.593	-7.17
298.807	9.22
299.022	66.56
299.236	11.26
299.451	134.14
299.665	-35.84
299.88	128
300.094	46.08
300.309	17.41
300.523	46.08
300.737	21.5
300.952	13.31
301.166	64.51
301.381	-17.41
301.595	74.75
301.809	58.37
302.024	33.79
302.238	46.08
302.452	39.94
302.667	64.51
302.881	115.71
303.095	37.89
303.309	66.56
303.524	-15.36
303.738	31.74
303.952	39.94
304.166	7.17
304.381	-11.26
304.595	164.86
304.809	-15.36
305.023	7.17
305.237	-48.13
305.452	80.89
305.666	117.76
305.88	62.46
306.094	33.79
306.308	17.41
306.522	130.05
306.736	56.32
306.95	56.32
307.164	-11.26
307.379	60.42
307.593	168.96
307.807	66.56
308.021	9.22
308.235	68.61
308.449	15.36
308.663	68.61
308.877	148.48
309.091	62.46
309.305	60.42
309.519	-7.17
309.733	70.65
309.947	-80.89
310.161	56.32
310.374	41.98
310.588	84.99
310.802	-56.32
311.016	-58.37
311.23	41.98
311.444	3.07
311.658	99.33
311.872	105.47
312.085	44.03
312.299	84.99
312.513	74.75
312.727	48.13
312.941	-9.22
313.154	44.03
313.368	21.5
313.582	-15.36
313.796	5.12
314.009	-37.89
314.223	39.94
314.437	50.18
314.651	23.55
314.864	46.08
315.078	9.22
315.292	-23.55
315.505	-1.02
315.719	109.57
315.933	-11.26
316.146	9.22
316.36	-23.55
316.573	109.57
316.787	76.8
317.001	41.98
317.214	7.17
317.428	33.79
317.641	-21.5
317.855	-5.12
318.068	13.31
318.282	-56.32
318.495	193.53
318.709	74.75
318.922	21.5
319.136	44.03
319.349	3.07
319.563	5.12
319.776	70.65
319.99	-48.13
320.203	78.85
320.417	62.46
320.63	54.27
320.843	136.19
321.057	50.18
321.27	62.46
321.483	123.9
321.697	66.56
321.91	-9.22
322.124	-37.89
322.337	84.99
322.55	-5.12
322.763	1.02
322.977	7.17
323.19	-91.13
323.403	54.27
323.617	1.02
323.83	17.41
324.043	70.65
324.256	66.56
324.469	-7.17
324.683	11.26
324.896	-19.46
325.109	15.36
325.322	-50.18
325.535	144.38
325.748	84.99
325.962	9.22
326.175	58.37
326.388	39.94
326.601	82.94
326.814	-17.41
327.027	37.89
327.24	146.43
327.453	-37.89
327.666	39.94
327.879	84.99
328.092	9.22
328.305	29.7
328.518	29.7
328.731	-33.79
328.944	64.51
329.157	97.28
329.37	44.03
329.583	136.19
329.796	78.85
330.009	-21.5
330.222	74.75
330.435	39.94
330.648	87.04
330.861	17.41
331.073	54.27
331.286	134.14
331.499	91.13
331.712	-74.75
331.925	33.79
332.138	7.17
332.35	70.65
332.563	-1.02
332.776	130.05
332.989	29.7
333.202	9.22
333.414	-21.5
333.627	56.32
333.84	52.22
334.053	119.81
334.265	89.09
334.478	5.12
334.691	-13.31
334.903	56.32
335.116	95.23
335.329	15.36
335.541	7.17
335.754	68.61
335.966	41.98
336.179	-15.36
336.392	29.7
336.604	48.13
336.817	7.17
337.029	80.89
337.242	66.56
337.454	89.09
337.667	-15.36
337.88	107.52
338.092	44.03
338.305	15.36
338.517	37.89
338.729	60.42
338.942	171.01
339.154	-60.42
339.367	9.22
339.579	17.41
339.792	25.6
340.004	68.61
340.217	5.12
340.429	82.94
340.641	15.36
340.854	-23.55
341.066	48.13
341.278	89.09
341.491	113.66
341.703	-3.07
341.915	-7.17
342.128	99.33
342.34	23.55
342.552	48.13
342.764	46.08
342.977	35.84
343.189	82.94
343.401	5.12
343.613	-5.12
343.826	15.36
344.038	46.08
344.25	119.81
344.462	46.08
344.674	5.12
344.886	3.07
345.099	56.32
345.311	74.75
345.523	29.7
345.735	-44.03
345.947	37.89
346.159	33.79
346.371	7.17
346.583	39.94
346.795	78.85
347.007	-19.46
347.219	9.22
347.431	7.17
347.643	21.5
347.855	46.08
348.067	9.22
348.279	5.12
348.491	33.79
348.703	19.46
348.915	50.18
349.127	-31.74
349.339	-1.02
349.551	15.36
349.763	44.03
349.975	33.79
350.187	50.18
350.399	41.98
350.61	105.47
350.822	41.98
351.034	80.89
351.246	31.74
351.458	54.27
351.669	91.13
351.881	62.46
352.093	84.99
352.305	76.8
352.517	58.37
352.728	41.98
352.94	21.5
353.152	80.89
353.363	-107.52
353.575	50.18
353.787	117.76
353.999	39.94
354.21	123.9
354.422	-35.84
354.633	21.5
354.845	29.7
355.057	37.89
355.268	41.98
355.48	70.65
355.692	-15.36
355.903	23.55
356.115	113.66
356.326	-76.8
356.538	44.03
356.749	82.94
356.961	107.52
357.172	72.7
357.384	29.7
357.595	166.91
357.807	19.46
358.018	29.7
358.23	31.74
358.441	70.65
358.653	52.22
358.864	62.46
359.075	-35.84
359.287	89.09
359.498	62.46
359.709	72.7
359.921	7.17
360.132	-3.07
360.344	-15.36
360.555	13.31
360.766	91.13
360.977	72.7
361.189	97.28
361.4	62.46
361.611	44.03
361.823	78.85
362.034	-1.02
362.245	7.17
362.456	17.41
362.667	48.13
362.879	-33.79
363.09	74.75
363.301	68.61
363.512	35.84
363.723	56.32
363.935	37.89
364.146	39.94
364.357	60.42
364.568	109.57
364.779	-11.26
364.99	123.9
365.201	-27.65
365.412	56.32
365.623	-107.52
365.834	-29.7
366.045	68.61
366.256	84.99
366.467	15.36
366.678	-17.41
366.889	-68.61
367.1	52.22
367.311	113.66
367.522	5.12
367.733	78.85
367.944	111.61
368.155	60.42
368.366	64.51
368.577	7.17
368.788	91.13
368.999	-19.46
369.209	82.94
369.42	179.2
369.631	189.44
369.842	56.32
370.053	60.42
370.264	74.75
370.474	33.79
370.685	5.12
370.896	41.98
371.107	56.32
371.317	105.47
371.528	-3.07
371.739	142.33
371.95	91.13
372.16	66.56
372.371	25.6
372.582	101.37
372.792	54.27
373.003	17.41
373.214	64.51
373.424	125.95
373.635	48.13
373.846	68.61
374.056	76.8
374.267	58.37
374.477	48.13
374.688	50.18
374.898	41.98
375.109	9.22
375.319	56.32
375.53	-1.02
375.74	58.37
375.951	46.08
376.161	107.52
376.372	17.41
376.582	44.03
376.793	23.55
377.003	11.26
377.214	60.42
377.424	146.43
377.635	74.75
377.845	44.03
378.055	191.49
378.266	-1.02
378.476	25.6
378.686	19.46
378.897	99.33
379.107	25.6
379.317	82.94
379.528	-3.07
379.738	31.74
379.948	-33.79
380.158	99.33
380.369	82.94
380.579	35.84
380.789	44.03
380.999	84.99
381.21	78.85
381.42	78.85
381.63	64.51
381.84	50.18
382.05	33.79
382.261	50.18
382.471	91.13
382.681	-33.79
382.891	80.89
383.101	91.13
383.311	-37.89
383.521	-15.36
383.731	103.42
383.941	89.09
384.151	-27.65
384.361	60.42
384.571	58.37
384.781	21.5
384.991	144.38
385.201	134.14
385.411	87.04
385.621	58.37
385.831	29.7
386.041	64.51
386.251	80.89
386.461	138.24
386.671	23.55
386.881	-9.22
387.091	25.6
387.301	87.04
387.511	9.22
387.72	33.79
387.93	48.13
388.14	31.74
388.35	15.36
388.56	107.52
388.769	29.7
388.979	27.65
389.189	5.12
389.399	11.26
389.609	109.57
389.818	76.8
390.028	52.22
390.238	93.18
390.447	-29.7
390.657	82.94
390.867	-3.07
391.076	-13.31
391.286	35.84
391.496	-11.26
391.705	17.41
391.915	74.75
392.125	93.18
392.334	-1.02
392.544	82.94
392.753	33.79
392.963	27.65
393.172	111.61
393.382	-48.13
393.591	113.66
393.801	64.51
394.01	123.9
394.22	15.36
394.429	107.52
394.639	50.18
394.848	168.96
395.058	9.22
395.267	11.26
395.477	109.57
395.686	15.36
395.895	84.99
396.105	154.62
396.314	56.32
396.524	62.46
396.733	80.89
396.942	25.6
397.152	19.46
397.361	56.32
397.57	234.49
397.78	41.98
397.989	60.42
398.198	214.01
398.407	31.74
398.617	89.09
398.826	33.79
399.035	25.6
399.244	66.56
399.453	105.47
399.663	54.27
399.872	119.81
400.081	84.99
400.29	80.89
400.499	3.07
400.708	146.43
400.917	17.41
401.127	46.08
401.336	70.65
401.545	154.62
401.754	91.13
401.963	134.14
402.172	93.18
402.381	27.65
402.59	162.81
402.799	56.32
403.008	87.04
403.217	115.71
403.426	183.29
403.635	7.17
403.844	84.99
404.053	107.52
404.262	68.61
404.471	152.57
404.68	111.61
404.888	99.33
405.097	146.43
405.306	132.09
405.515	158.72
405.724	33.79
405.933	130.05
406.142	101.37
406.35	168.96
406.559	132.09
406.768	74.75
406.977	197.63
407.185	150.53
407.394	171.01
407.603	109.57
407.812	189.44
408.02	218.11
408.229	183.29
408.438	185.34
408.646	142.33
408.855	154.62
409.064	187.39
409.272	168.96
409.481	232.44
409.69	224.25
409.898	146.43
410.107	189.44
410.315	242.68
410.524	187.39
410.733	191.49
410.941	283.64
411.15	347.13
411.358	226.3
411.567	263.16
411.775	320.51
411.984	338.94
412.192	293.88
412.401	355.32
412.609	359.42
412.818	435.19
413.026	457.72
413.234	447.48
413.443	451.58
413.651	474.1
413.86	496.63
414.068	449.53
414.276	445.43
414.485	486.39
414.693	500.73
414.901	568.31
415.11	539.64
415.318	525.3
415.526	560.12
415.734	601.08
415.943	680.95
416.151	652.28
416.359	607.22
416.567	607.22
416.776	648.18
416.984	730.1
417.192	832.5
417.4	693.24
417.608	697.33
417.817	834.55
418.025	848.88
418.233	910.32
418.441	834.55
418.649	848.88
418.857	996.34
419.065	1043.44
419.273	1041.39
419.481	1035.25
419.689	945.14
419.897	1192.94
420.105	1113.07
420.313	1235.95
420.521	1235.95
420.729	1197.04
420.937	1235.95
421.145	1295.34
421.353	1332.2
421.561	1416.17
421.769	1471.47
421.977	1498.09
422.185	1510.38
422.393	1604.58
422.601	1721.32
422.809	1801.19
423.017	1678.31
423.224	1758.18
423.432	1758.18
423.64	1899.49
423.848	1993.7
424.056	1946.59
424.263	2126.82
424.471	2120.67
424.679	2114.53
424.887	2278.37
425.094	2448.35
425.302	2286.56
425.51	2485.21
425.718	2542.55
425.925	2628.57
426.133	2511.83
426.341	2763.73
426.548	2761.69
426.756	2976.72
426.964	2903
427.171	3068.88
427.379	3079.12
427.586	3240.91
427.794	3380.17
428.001	3406.8
428.209	3666.89
428.417	3460.04
428.624	3720.14
428.832	3847.11
429.039	3642.31
429.247	3787.72
429.454	4002.75
429.662	4193.22
429.869	4355.01
430.076	4330.43
430.284	4166.59
430.491	4553.66
430.699	4582.33
430.906	4621.24
431.114	4752.31
431.321	4924.34
431.528	4916.15
431.736	5411.76
431.943	5628.84
432.15	5303.22
432.358	5452.72
432.565	5956.52
432.772	5538.73
432.979	6015.91
433.187	6046.63
433.394	6095.78
433.601	6568.86
433.808	6474.65
434.016	6564.76
434.223	6822.81
434.43	7336.85
434.637	7105.43
434.844	7576.46
435.052	7631.76
435.259	7652.24
435.466	7697.29
435.673	7598.99
435.88	8172.42
436.087	8557.44
436.294	8442.75
436.501	8285.06
436.708	8549.25
436.915	8760.19
437.122	9192.31
437.329	9225.08
437.537	9337.71
437.743	9360.24
437.95	9530.22
438.157	10093.41
438.364	10244.96
438.571	10181.48
438.778	10204
438.985	11045.72
439.192	10910.55
439.399	11113.3
439.606	10810.2
439.813	11531.09
440.02	12190.53
440.227	12186.44
440.433	12026.7
440.64	12065.61
440.847	12139.33
441.054	12395.33
441.261	13108.02
441.467	13177.65
441.674	13364.02
441.881	13761.33
442.088	13699.89
442.294	13777.71
442.501	14048.04
442.708	14304.04
442.914	14709.54
443.121	15432.47
443.328	15076.12
443.534	16005.9
443.741	15411.99
443.948	15465.24
444.154	16601.86
444.361	16270.09
444.568	16491.27
444.774	16415.49
444.981	16581.38
445.187	17328.89
445.394	18096.88
445.6	17767.15
445.807	19561.17
446.013	18510.57
446.22	18776.8
446.426	19782.35
446.633	19651.28
446.839	20687.56
447.046	19432.15
447.252	20781.76
447.459	20630.21
447.665	20384.46
447.871	21664.44
448.078	22184.62
448.284	21557.94
448.491	22114.99
448.697	22911.65
448.903	23394.97
449.11	23311
449.316	22721.19
449.522	23268
449.728	24083.09
449.935	24183.44
450.141	24238.73
450.347	24816.26
450.553	24015.51
450.76	24316.56
450.966	24822.41
451.172	24752.77
451.378	25371.26
451.584	24744.58
451.791	25406.08
451.997	25531
452.203	25571.96
452.409	25805.43
452.615	25477.76
452.821	24711.81
453.027	24423.05
453.233	25500.28
453.44	24654.47
453.646	24963.72
453.852	24654.47
454.058	25051.78
454.264	24386.19
454.47	24892.04
454.676	24330.89
454.882	25164.42
455.088	22790.82
455.294	23382.68
455.5	23974.55
455.705	24212.11
455.911	22805.16
456.117	22239.92
456.323	21949.11
456.529	20931.26
456.735	21826.23
456.941	21316.28
457.147	21027.52
457.352	20566.73
457.558	20177.61
457.764	20427.46
457.97	19378.9
458.176	19174.11
458.381	18997.98
458.587	18236.14
458.793	18639.59
458.999	17251.06
459.204	18391.78
459.41	17820.4
459.616	16909.05
459.821	16747.26
460.027	16714.5
460.233	16427.78
460.438	15500.05
460.644	15868.69
460.85	15043.35
461.055	14711.58
461.261	14521.12
461.466	13382.45
461.672	12985.15
461.878	14031.66
462.083	13130.55
462.289	12673.85
462.494	12608.32
462.7	12182.34
462.905	11764.56
463.111	12151.62
463.316	12225.35
463.522	11852.62
463.727	12018.5
463.932	12014.41
464.138	11760.46
464.343	11821.9
464.549	11465.55
464.754	11891.53
464.959	11739.98
465.165	11713.36
465.37	11215.7
465.575	10959.7
465.781	11137.88
465.986	11299.67
466.191	10881.88
466.397	10623.84
466.602	10105.7
466.807	10437.47
467.012	10656.61
467.218	10400.61
