Data from USB4F104151__28__12-11-45-963.txt Node

Date: Fri Mar 14 12:11:45 EDT 2025
User: louis
Spectrometer: USB4F10415
Trigger mode: 4
Integration Time (sec): 5.000000E-2
Scans to average: 1
Electric dark correction enabled: true
Nonlinearity correction enabled: false
Boxcar width: 0
XAxis mode: Wavelengths
Number of Pixels in Spectrum: 3648
>>>>>Begin Spectral Data<<<<<
178.204	-248.66
178.424	-248.66
178.644	-248.66
178.864	-207.7
179.084	-265.04
179.304	60.59
179.524	11.43
179.744	-90.96
179.964	-9.05
180.184	83.11
180.404	19.63
180.624	-33.62
180.844	15.53
181.064	-33.62
181.283	11.43
181.503	-56.15
181.723	21.67
181.943	-113.49
182.163	85.16
182.383	3.24
182.602	-35.67
182.822	62.63
183.042	-54.1
183.262	-56.15
183.482	1.19
183.701	25.77
183.921	23.72
184.141	-27.48
184.361	29.87
184.58	-2.9
184.8	17.58
185.02	-11.09
185.239	3.24
185.459	-37.72
185.679	46.25
185.898	-68.44
186.118	60.59
186.338	-88.92
186.557	56.49
186.777	-45.91
186.997	-41.81
187.216	-29.52
187.436	36.01
187.655	50.35
187.875	19.63
188.095	25.77
188.314	44.2
188.534	31.91
188.753	-9.05
188.973	46.25
189.192	58.54
189.412	23.72
189.631	48.3
189.851	25.77
190.07	42.15
190.29	-52.05
190.509	-0.85
190.729	-52.05
190.948	134.31
191.168	181.42
191.387	46.25
191.607	-29.52
191.826	7.34
192.045	-0.85
192.265	3.24
192.484	-0.85
192.704	17.58
192.923	-58.2
193.142	140.46
193.362	105.64
193.581	58.54
193.8	-9.05
194.02	52.39
194.239	-0.85
194.458	21.67
194.678	56.49
194.897	-29.52
195.116	25.77
195.335	29.87
195.555	-19.29
195.774	29.87
195.993	56.49
196.212	19.63
196.432	-60.24
196.651	-19.29
196.87	-23.38
197.089	124.07
197.308	-9.05
197.528	91.31
197.747	-74.58
197.966	-9.05
198.185	128.17
198.404	27.82
198.623	36.01
198.842	42.15
199.062	62.63
199.281	-17.24
199.5	-0.85
199.719	-13.14
199.938	48.3
200.157	21.67
200.376	25.77
200.595	25.77
200.814	-52.05
201.033	-52.05
201.252	-0.85
201.471	-25.43
201.69	21.67
201.909	66.73
202.128	83.11
202.347	1.19
202.566	11.43
202.785	-39.76
203.004	-35.67
203.223	144.55
203.442	-64.34
203.661	-29.52
203.879	21.67
204.098	87.21
204.317	-58.2
204.536	3.24
204.755	-17.24
204.974	60.59
205.193	-17.24
205.411	173.22
205.63	25.77
205.849	89.26
206.068	-19.29
206.287	-13.14
206.505	25.77
206.724	3.24
206.943	27.82
207.162	-4.95
207.381	19.63
207.599	-19.29
207.818	17.58
208.037	-27.48
208.255	33.96
208.474	-4.95
208.693	89.26
208.911	9.39
209.13	-45.91
209.349	23.72
209.567	-19.29
209.786	56.49
210.005	-13.14
210.223	54.44
210.442	-15.19
210.661	-33.62
210.879	36.01
211.098	7.34
211.316	-17.24
211.535	66.73
211.753	-47.96
211.972	9.39
212.191	85.16
212.409	-0.85
212.628	-0.85
212.846	-7
213.065	60.59
213.283	103.59
213.502	-9.05
213.72	66.73
213.938	15.53
214.157	-23.38
214.375	-31.57
214.594	-2.9
214.812	36.01
215.031	-7
215.249	19.63
215.467	27.82
215.686	-33.62
215.904	81.07
216.122	46.25
216.341	52.39
216.559	15.53
216.778	124.07
216.996	93.35
217.214	1.19
217.432	56.49
217.651	-11.09
217.869	-15.19
218.087	64.68
218.306	-78.68
218.524	11.43
218.742	21.67
218.96	42.15
219.179	3.24
219.397	72.87
219.615	70.83
219.833	44.2
220.051	17.58
220.27	105.64
220.488	5.29
220.706	11.43
220.924	-25.43
221.142	-0.85
221.36	68.78
221.578	3.24
221.796	-2.9
222.015	52.39
222.233	17.58
222.451	58.54
222.669	-33.62
222.887	-2.9
223.105	-66.39
223.323	9.39
223.541	-33.62
223.759	70.83
223.977	-37.72
224.195	105.64
224.413	40.11
224.631	-21.33
224.849	-17.24
225.067	66.73
225.285	-39.76
225.503	29.87
225.721	-58.2
225.939	19.63
226.157	-11.09
226.375	177.32
226.592	-27.48
226.81	-54.1
227.028	15.53
227.246	87.21
227.464	5.29
227.682	107.69
227.9	62.63
228.117	17.58
228.335	-64.34
228.553	38.06
228.771	-13.14
228.989	40.11
229.206	19.63
229.424	-25.43
229.642	-45.91
229.86	29.87
230.077	107.69
230.295	-15.19
230.513	162.98
230.731	58.54
230.948	9.39
231.166	9.39
231.384	54.44
231.601	23.72
231.819	91.31
232.037	-15.19
232.254	-95.06
232.472	7.34
232.689	-23.38
232.907	62.63
233.125	-25.43
233.342	54.44
233.56	-54.1
233.777	13.48
233.995	-37.72
234.213	93.35
234.43	50.35
234.648	-33.62
234.865	31.91
235.083	11.43
235.3	52.39
235.518	15.53
235.735	81.07
235.953	46.25
236.17	31.91
236.388	-7
236.605	-4.95
236.822	58.54
237.04	54.44
237.257	-11.09
237.475	9.39
237.692	79.02
237.909	15.53
238.127	-60.24
238.344	74.92
238.562	-17.24
238.779	-47.96
238.996	-52.05
239.214	31.91
239.431	-2.9
239.648	-7
239.865	66.73
240.083	99.5
240.3	21.67
240.517	46.25
240.735	3.24
240.952	3.24
241.169	23.72
241.386	-25.43
241.603	46.25
241.821	15.53
242.038	136.36
242.255	7.34
242.472	-99.16
242.689	38.06
242.907	105.64
243.124	-21.33
243.341	93.35
243.558	-17.24
243.775	-19.29
243.992	-117.59
244.209	40.11
244.426	54.44
244.643	58.54
244.86	38.06
245.078	19.63
245.295	9.39
245.512	11.43
245.729	-95.06
245.946	36.01
246.163	40.11
246.38	13.48
246.597	5.29
246.814	66.73
247.031	1.19
247.248	31.91
247.464	58.54
247.681	-19.29
247.898	52.39
248.115	31.91
248.332	33.96
248.549	33.96
248.766	95.4
248.983	-7
249.2	9.39
249.417	9.39
249.633	-54.1
249.85	-27.48
250.067	15.53
250.284	-9.05
250.501	-80.72
250.717	9.39
250.934	-13.14
251.151	-21.33
251.368	-86.87
251.585	33.96
251.801	-11.09
252.018	-27.48
252.235	5.29
252.451	-41.81
252.668	-76.63
252.885	46.25
253.102	-29.52
253.318	33.96
253.535	-45.91
253.752	29.87
253.968	-58.2
254.185	-58.2
254.401	-21.33
254.618	31.91
254.835	29.87
255.051	91.31
255.268	23.72
255.484	-23.38
255.701	11.43
255.917	91.31
256.134	7.34
256.351	-15.19
256.567	-66.39
256.784	-25.43
257	3.24
257.217	38.06
257.433	46.25
257.65	11.43
257.866	99.5
258.082	5.29
258.299	17.58
258.515	46.25
258.732	-43.86
258.948	-99.16
259.165	-4.95
259.381	29.87
259.597	85.16
259.814	33.96
260.03	-39.76
260.246	-37.72
260.463	62.63
260.679	36.01
260.895	15.53
261.112	-72.53
261.328	3.24
261.544	-76.63
261.761	109.74
261.977	-78.68
262.193	-11.09
262.409	-37.72
262.626	64.68
262.842	33.96
263.058	-45.91
263.274	93.35
263.49	-0.85
263.707	38.06
263.923	-56.15
264.139	-47.96
264.355	40.11
264.571	109.74
264.787	-76.63
265.004	25.77
265.22	23.72
265.436	48.3
265.652	-29.52
265.868	-19.29
266.084	-56.15
266.3	-13.14
266.516	9.39
266.732	95.4
266.948	48.3
267.164	21.67
267.38	1.19
267.596	-76.63
267.812	60.59
268.028	-4.95
268.244	-19.29
268.46	11.43
268.676	-33.62
268.892	21.67
269.108	-15.19
269.324	1.19
269.54	-27.48
269.756	17.58
269.972	-2.9
270.188	-0.85
270.403	-23.38
270.619	89.26
270.835	-25.43
271.051	44.2
271.267	-9.05
271.483	19.63
271.698	42.15
271.914	83.11
272.13	-37.72
272.346	-41.81
272.562	64.68
272.777	95.4
272.993	-19.29
273.209	-88.92
273.425	9.39
273.64	-54.1
273.856	89.26
274.072	11.43
274.287	-21.33
274.503	-68.44
274.719	50.35
274.934	31.91
275.15	5.29
275.366	-37.72
275.581	-11.09
275.797	13.48
276.012	13.48
276.228	-13.14
276.444	-4.95
276.659	85.16
276.875	-25.43
277.09	-17.24
277.306	17.58
277.521	46.25
277.737	-11.09
277.952	25.77
278.168	66.73
278.383	-11.09
278.599	70.83
278.814	21.67
279.03	44.2
279.245	58.54
279.461	93.35
279.676	-2.9
279.892	-119.64
280.107	-50
280.322	-33.62
280.538	58.54
280.753	-54.1
280.969	40.11
281.184	-7
281.399	54.44
281.615	25.77
281.83	-17.24
282.045	19.63
282.26	-90.96
282.476	-47.96
282.691	56.49
282.906	54.44
283.122	5.29
283.337	-19.29
283.552	44.2
283.767	56.49
283.983	40.11
284.198	-56.15
284.413	38.06
284.628	-9.05
284.843	15.53
285.058	-0.85
285.274	-37.72
285.489	-31.57
285.704	58.54
285.919	19.63
286.134	25.77
286.349	-13.14
286.564	-13.14
286.779	85.16
286.995	-17.24
287.21	-52.05
287.425	19.63
287.64	-62.29
287.855	-2.9
288.07	-52.05
288.285	15.53
288.5	9.39
288.715	-9.05
288.93	-19.29
289.145	13.48
289.36	83.11
289.575	-31.57
289.79	50.35
290.004	91.31
290.219	87.21
290.434	-109.4
290.649	-58.2
290.864	-115.54
291.079	-0.85
291.294	33.96
291.509	76.97
291.724	40.11
291.938	-56.15
292.153	-35.67
292.368	25.77
292.583	-19.29
292.798	29.87
293.012	5.29
293.227	29.87
293.442	85.16
293.657	87.21
293.871	33.96
294.086	-54.1
294.301	42.15
294.516	109.74
294.73	-45.91
294.945	-13.14
295.16	-58.2
295.374	83.11
295.589	33.96
295.804	-27.48
296.018	-0.85
296.233	31.91
296.447	126.12
296.662	-35.67
296.877	23.72
297.091	85.16
297.306	23.72
297.52	-35.67
297.735	36.01
297.949	-2.9
298.164	-13.14
298.378	11.43
298.593	3.24
298.807	3.24
299.022	38.06
299.236	79.02
299.451	11.43
299.665	-27.48
299.88	-7
300.094	7.34
300.309	9.39
300.523	-19.29
300.737	42.15
300.952	-0.85
301.166	52.39
301.381	33.96
301.595	-33.62
301.809	-11.09
302.024	19.63
302.238	-54.1
302.452	-13.14
302.667	-9.05
302.881	50.35
303.095	83.11
303.309	23.72
303.524	31.91
303.738	-2.9
303.952	-35.67
304.166	-2.9
304.381	-74.58
304.595	68.78
304.809	-97.11
305.023	46.25
305.237	15.53
305.452	54.44
305.666	44.2
305.88	15.53
306.094	38.06
306.308	74.92
306.522	58.54
306.736	-45.91
306.95	1.19
307.164	117.93
307.379	-60.24
307.593	79.02
307.807	23.72
308.021	31.91
308.235	46.25
308.449	-74.58
308.663	21.67
308.877	33.96
309.091	64.68
309.305	17.58
309.519	-76.63
309.733	91.31
309.947	-25.43
310.161	87.21
310.374	76.97
310.588	72.87
310.802	-64.34
311.016	-7
311.23	58.54
311.444	-4.95
311.658	48.3
311.872	11.43
312.085	38.06
312.299	29.87
312.513	5.29
312.727	29.87
312.941	-37.72
313.154	19.63
313.368	-2.9
313.582	-19.29
313.796	38.06
314.009	17.58
314.223	54.44
314.437	-25.43
314.651	29.87
314.864	40.11
315.078	50.35
315.292	15.53
315.505	3.24
315.719	52.39
315.933	13.48
316.146	29.87
316.36	-33.62
316.573	13.48
316.787	115.88
317.001	-9.05
317.214	-62.29
317.428	52.39
317.641	-23.38
317.855	-7
318.068	97.45
318.282	1.19
318.495	31.91
318.709	19.63
318.922	11.43
319.136	89.26
319.349	54.44
319.563	15.53
319.776	-35.67
319.99	-60.24
320.203	40.11
320.417	21.67
320.63	25.77
320.843	154.79
321.057	-21.33
321.27	-27.48
321.483	48.3
321.697	79.02
321.91	-33.62
322.124	50.35
322.337	91.31
322.55	-15.19
322.763	-43.86
322.977	-60.24
323.19	-58.2
323.403	-15.19
323.617	68.78
323.83	101.55
324.043	-0.85
324.256	29.87
324.469	-80.72
324.683	83.11
324.896	50.35
325.109	40.11
325.322	-27.48
325.535	25.77
325.748	25.77
325.962	54.44
326.175	-7
326.388	42.15
326.601	66.73
326.814	21.67
327.027	9.39
327.24	140.46
327.453	-7
327.666	-47.96
327.879	46.25
328.092	48.3
328.305	13.48
328.518	-11.09
328.731	29.87
328.944	-19.29
329.157	-27.48
329.37	1.19
329.583	103.59
329.796	74.92
330.009	-70.48
330.222	85.16
330.435	5.29
330.648	23.72
330.861	44.2
331.073	128.17
331.286	56.49
331.499	44.2
331.712	-50
331.925	-7
332.138	17.58
332.35	31.91
332.563	-33.62
332.776	54.44
332.989	5.29
333.202	21.67
333.414	1.19
333.627	-0.85
333.84	-33.62
334.053	42.15
334.265	-70.48
334.478	70.83
334.691	21.67
334.903	95.4
335.116	-45.91
335.329	33.96
335.541	-2.9
335.754	38.06
335.966	11.43
336.179	-33.62
336.392	-27.48
336.604	-0.85
336.817	-23.38
337.029	3.24
337.242	-54.1
337.454	52.39
337.667	83.11
337.88	95.4
338.092	31.91
338.305	5.29
338.517	-52.05
338.729	40.11
338.942	91.31
339.154	-72.53
339.367	54.44
339.579	-11.09
339.792	-35.67
340.004	107.69
340.217	25.77
340.429	-11.09
340.641	38.06
340.854	-25.43
341.066	50.35
341.278	-7
341.491	58.54
341.703	1.19
341.915	-62.29
342.128	3.24
342.34	-7
342.552	-11.09
342.764	23.72
342.977	79.02
343.189	-2.9
343.401	60.59
343.613	-74.58
343.826	42.15
344.038	-41.81
344.25	3.24
344.462	-31.57
344.674	-4.95
344.886	-21.33
345.099	103.59
345.311	-62.29
345.523	9.39
345.735	-68.44
345.947	64.68
346.159	38.06
346.371	-13.14
346.583	-2.9
346.795	74.92
347.007	15.53
347.219	38.06
347.431	-23.38
347.643	74.92
347.855	-0.85
348.067	42.15
348.279	-82.77
348.491	27.82
348.703	-4.95
348.915	91.31
349.127	3.24
349.339	31.91
349.551	5.29
349.763	72.87
349.975	-7
350.187	-13.14
350.399	87.21
350.61	72.87
350.822	87.21
351.034	15.53
351.246	11.43
351.458	66.73
351.669	-0.85
351.881	74.92
352.093	97.45
352.305	1.19
352.517	54.44
352.728	36.01
352.94	-4.95
353.152	64.68
353.363	-45.91
353.575	44.2
353.787	132.26
353.999	81.07
354.21	105.64
354.422	-19.29
354.633	-21.33
354.845	38.06
355.057	7.34
355.268	74.92
355.48	29.87
355.692	-70.48
355.903	38.06
356.115	-76.63
356.326	27.82
356.538	103.59
356.749	19.63
356.961	91.31
357.172	62.63
357.384	21.67
357.595	119.98
357.807	21.67
358.018	-7
358.23	29.87
358.441	124.07
358.653	29.87
358.864	60.59
359.075	11.43
359.287	-0.85
359.498	-2.9
359.709	31.91
359.921	25.77
360.132	13.48
360.344	25.77
360.555	-27.48
360.766	-0.85
360.977	54.44
361.189	-19.29
361.4	-29.52
361.611	44.2
361.823	54.44
362.034	-11.09
362.245	-60.24
362.456	-70.48
362.667	29.87
362.879	25.77
363.09	-15.19
363.301	23.72
363.512	31.91
363.723	7.34
363.935	93.35
364.146	23.72
364.357	23.72
364.568	27.82
364.779	-2.9
364.99	124.07
365.201	-9.05
365.412	13.48
365.623	-17.24
365.834	56.49
366.045	46.25
366.256	85.16
366.467	21.67
366.678	-11.09
366.889	-2.9
367.1	29.87
367.311	64.68
367.522	7.34
367.733	29.87
367.944	-0.85
368.155	11.43
368.366	85.16
368.577	-19.29
368.788	66.73
368.999	-27.48
369.209	44.2
369.42	109.74
369.631	95.4
369.842	91.31
370.053	52.39
370.264	13.48
370.474	54.44
370.685	13.48
370.896	11.43
371.107	40.11
371.317	11.43
371.528	11.43
371.739	-64.34
371.95	103.59
372.16	83.11
372.371	-52.05
372.582	-70.48
372.792	40.11
373.003	27.82
373.214	-13.14
373.424	36.01
373.635	27.82
373.846	-11.09
374.056	62.63
374.267	29.87
374.477	15.53
374.688	31.91
374.898	27.82
375.109	19.63
375.319	70.83
375.53	91.31
375.74	97.45
375.951	3.24
376.161	23.72
376.372	85.16
376.582	33.96
376.793	31.91
377.003	-99.16
377.214	-23.38
377.424	-7
377.635	38.06
377.845	21.67
378.055	175.27
378.266	-17.24
378.476	40.11
378.686	60.59
378.897	130.22
379.107	66.73
379.317	-15.19
379.528	29.87
379.738	119.98
379.948	-15.19
380.158	23.72
380.369	33.96
380.579	54.44
380.789	-11.09
380.999	23.72
381.21	109.74
381.42	97.45
381.63	13.48
381.84	27.82
382.05	93.35
382.261	38.06
382.471	-11.09
382.681	19.63
382.891	95.4
383.101	60.59
383.311	-103.25
383.521	-15.19
383.731	64.68
383.941	70.83
384.151	66.73
384.361	11.43
384.571	-21.33
384.781	74.92
384.991	107.69
385.201	85.16
385.411	79.02
385.621	27.82
385.831	40.11
386.041	-9.05
386.251	-15.19
386.461	93.35
386.671	60.59
386.881	31.91
387.091	58.54
387.301	76.97
387.511	7.34
387.72	40.11
387.93	122.02
388.14	-60.24
388.35	21.67
388.56	83.11
388.769	72.87
388.979	-7
389.189	-0.85
389.399	33.96
389.609	15.53
389.818	91.31
390.028	160.94
390.238	76.97
390.447	-17.24
390.657	-17.24
390.867	-9.05
391.076	15.53
391.286	-23.38
391.496	27.82
391.705	40.11
391.915	128.17
392.125	7.34
392.334	-7
392.544	99.5
392.753	64.68
392.963	29.87
393.172	68.78
393.382	38.06
393.591	117.93
393.801	15.53
394.01	38.06
394.22	1.19
394.429	54.44
394.639	136.36
394.848	70.83
395.058	70.83
395.267	15.53
395.477	44.2
395.686	62.63
395.895	76.97
396.105	144.55
396.314	117.93
396.524	62.63
396.733	144.55
396.942	111.78
397.152	83.11
397.361	171.18
397.57	128.17
397.78	-4.95
397.989	113.83
398.198	140.46
398.407	74.92
398.617	56.49
398.826	85.16
399.035	38.06
399.244	79.02
399.453	169.13
399.663	11.43
399.872	74.92
400.081	68.78
400.29	132.26
400.499	50.35
400.708	162.98
400.917	44.2
401.127	126.12
401.336	68.78
401.545	128.17
401.754	81.07
401.963	138.41
402.172	105.64
402.381	13.48
402.59	89.26
402.799	74.92
403.008	91.31
403.217	81.07
403.426	195.75
403.635	52.39
403.844	162.98
404.053	105.64
404.262	105.64
404.471	140.46
404.68	122.02
404.888	99.5
405.097	130.22
405.306	99.5
405.515	183.46
405.724	140.46
405.933	191.66
406.142	142.5
406.35	160.94
406.559	189.61
406.768	85.16
406.977	191.66
407.185	201.9
407.394	169.13
407.603	187.56
407.812	214.18
408.02	300.2
408.229	228.52
408.438	208.04
408.646	103.59
408.855	201.9
409.064	318.63
409.272	302.25
409.481	251.05
409.69	263.33
409.898	269.48
410.107	208.04
410.315	294.05
410.524	191.66
410.733	322.73
410.941	269.48
411.15	337.06
411.358	292.01
411.567	357.54
411.775	363.69
411.984	439.46
412.192	380.07
412.401	421.03
412.609	447.65
412.818	400.55
413.026	525.47
413.234	494.76
413.443	543.91
413.651	482.47
413.86	513.19
414.068	599.2
414.276	638.11
414.485	595.11
414.693	756.9
414.901	750.75
415.11	711.84
415.318	582.82
415.526	693.41
415.734	760.99
415.943	806.05
416.151	943.26
416.359	863.39
416.567	910.49
416.776	920.73
416.984	865.44
417.192	1025.18
417.4	910.49
417.608	947.36
417.817	1076.38
418.025	1098.91
418.233	1270.94
418.441	1148.06
418.649	1100.95
418.857	1242.26
419.065	1223.83
419.273	1340.57
419.481	1338.52
419.689	1338.52
419.897	1379.48
420.105	1465.49
420.313	1463.44
420.521	1660.05
420.729	1676.43
420.937	1666.19
421.145	1791.12
421.353	1791.12
421.561	1936.53
421.769	2004.11
421.977	2053.26
422.185	2002.06
422.393	2225.29
422.601	2385.03
422.809	2352.26
423.017	2288.78
423.224	2413.7
423.432	2559.11
423.64	2509.96
423.848	2765.95
424.056	2632.83
424.263	2942.08
424.471	2825.34
424.679	2993.28
424.887	3124.35
425.094	3286.14
425.302	3327.1
425.51	3304.57
425.718	3474.55
425.925	3359.86
426.133	3513.46
426.341	3769.46
426.548	3863.66
426.756	3935.34
426.964	4115.56
427.171	4240.49
427.379	4332.65
427.586	4600.93
427.794	4439.14
428.001	5028.96
428.209	5088.35
428.417	4920.42
428.624	5243.99
428.832	5264.47
429.039	5301.34
429.247	5375.06
429.454	5747.79
429.662	6024.27
429.869	5747.79
430.076	6239.31
430.284	6134.86
430.491	6270.03
430.699	6626.37
430.906	6655.05
431.114	6679.62
431.321	6956.1
431.528	7140.41
431.736	7380.03
431.943	7898.16
432.15	7732.28
432.358	7705.65
432.565	8236.08
432.772	8008.75
432.979	8543.27
433.187	8549.42
433.394	8911.91
433.601	9149.47
433.808	9235.49
434.016	9139.23
434.223	9700.37
434.43	10376.2
434.637	9888.79
434.844	10537.99
435.052	10816.52
435.259	10882.05
435.466	10847.24
435.673	10646.54
435.88	11600.89
436.087	12157.94
436.294	11854.84
436.501	11848.69
436.708	11938.8
436.915	12397.55
437.122	12938.21
437.329	12757.99
437.537	13521.88
437.743	13525.98
437.95	13544.41
438.157	14261.2
438.364	14543.82
438.571	14650.32
438.778	14609.36
438.985	15748.03
439.192	15391.68
439.399	15842.23
439.606	15635.39
439.813	16391.09
440.02	17359.78
440.227	17365.92
440.433	16913.32
440.64	17445.79
440.847	17202.08
441.054	18039.7
441.261	19035.02
441.467	18715.53
441.674	19243.91
441.881	19907.45
442.088	19827.58
442.294	19831.68
442.501	20169.59
442.708	20448.11
442.914	21388.13
443.121	22260.57
443.328	21521.25
443.534	23151.43
443.741	22690.64
443.948	22272.85
444.154	23608.13
444.361	23661.38
444.568	23939.9
444.774	23720.77
444.981	24036.16
445.187	24963.89
445.394	25951.01
445.6	25533.22
445.807	28039.93
446.013	26700.56
446.22	27427.59
446.426	28232.44
446.633	28474.1
446.839	29367.02
447.046	28226.3
447.252	29887.2
447.459	30194.4
447.665	29661.93
447.871	31003.35
448.078	32602.81
448.284	30855.89
448.491	31609.54
448.697	33243.82
448.903	33309.36
449.11	33639.08
449.316	32938.68
449.522	33759.91
449.728	34513.56
449.935	34620.06
450.141	34957.97
450.347	35494.54
450.553	34626.2
450.76	34933.4
450.966	36031.11
451.172	35590.8
451.378	36403.84
451.584	35844.74
451.791	36889.21
451.997	36653.69
452.203	37137.01
452.409	36838.01
452.615	36510.33
452.821	35601.04
453.027	35084.95
453.233	36893.3
453.44	35519.12
453.646	35381.9
453.852	35777.16
454.058	36196.99
454.264	35818.12
454.47	36194.95
454.676	35173.01
454.882	36358.78
455.088	33391.28
455.294	33677.99
455.5	33888.93
455.705	34359.97
455.911	32961.2
456.117	32537.27
456.323	32074.43
456.529	30737.11
456.735	32037.57
456.941	30866.13
457.147	30354.14
457.352	29391.59
457.558	28918.51
457.764	28732.15
457.97	28695.28
458.176	27618.05
458.381	27669.25
458.587	26741.52
458.793	26620.69
458.999	25066.28
459.204	26958.61
459.41	26174.24
459.616	24587.06
459.821	24619.83
460.027	24124.22
460.233	23933.76
460.438	22745.94
460.644	22881.1
460.85	21660.51
461.055	21635.94
461.261	21406.56
461.466	19876.73
461.672	19221.38
461.878	20726.64
462.083	19219.33
462.289	18822.03
462.494	18652.05
462.7	17806.23
462.905	17185.7
463.111	17822.62
463.316	17892.25
463.522	17707.93
463.727	17546.14
463.932	17605.53
464.138	17535.9
464.343	17617.82
464.549	17030.05
464.754	17441.7
464.959	17517.47
465.165	17204.13
465.37	16522.16
465.575	16100.28
465.781	16710.57
465.986	16694.19
466.191	16303.03
