Data from USB4F104151__97__12-13-18-598.txt Node

Date: Fri Mar 14 12:13:18 EDT 2025
User: louis
Spectrometer: USB4F10415
Trigger mode: 4
Integration Time (sec): 5.000000E-2
Scans to average: 1
Electric dark correction enabled: true
Nonlinearity correction enabled: false
Boxcar width: 0
XAxis mode: Wavelengths
Number of Pixels in Spectrum: 3648
>>>>>Begin Spectral Data<<<<<
178.204	-283.98
178.424	-283.98
178.644	-283.98
178.864	-230.74
179.084	-218.45
179.304	-9.56
179.524	6.83
179.744	8.87
179.964	64.17
180.184	25.26
180.404	-89.43
180.624	45.74
180.844	41.64
181.064	-40.28
181.283	-44.37
181.503	6.83
181.723	-15.7
181.943	-91.48
182.163	105.13
182.383	-46.42
182.602	76.46
182.822	62.12
183.042	-27.99
183.262	-7.51
183.482	-23.89
183.701	-13.65
183.921	101.03
184.141	0.68
184.361	-40.28
184.58	23.21
184.8	33.45
185.02	-27.99
185.239	47.79
185.459	31.4
185.679	111.27
185.898	0.68
186.118	105.13
186.338	-21.85
186.557	58.03
186.777	-83.28
186.997	17.07
187.216	31.4
187.436	152.23
187.655	74.41
187.875	76.46
188.095	10.92
188.314	88.75
188.534	45.74
188.753	10.92
188.973	51.88
189.192	125.61
189.412	-7.51
189.631	-11.61
189.851	53.93
190.07	94.89
190.29	-42.32
190.509	-7.51
190.729	-17.75
190.948	51.88
191.168	191.14
191.387	66.22
191.607	-36.18
191.826	96.94
192.045	-54.61
192.265	19.11
192.484	-9.56
192.704	-1.37
192.923	10.92
193.142	111.27
193.362	-25.94
193.581	137.9
193.8	-46.42
194.02	119.46
194.239	27.31
194.458	76.46
194.678	-25.94
194.897	64.17
195.116	21.16
195.335	76.46
195.555	64.17
195.774	70.31
195.993	-15.7
196.212	31.4
196.432	-11.61
196.651	-13.65
196.87	-23.89
197.089	80.55
197.308	58.03
197.528	72.36
197.747	0.68
197.966	68.27
198.185	55.98
198.404	-34.13
198.623	21.16
198.842	109.23
199.062	35.5
199.281	131.75
199.5	72.36
199.719	10.92
199.938	21.16
200.157	39.59
200.376	49.83
200.595	31.4
200.814	53.93
201.033	41.64
201.252	0.68
201.471	15.02
201.69	41.64
201.909	105.13
202.128	125.61
202.347	41.64
202.566	53.93
202.785	31.4
203.004	-44.37
203.223	107.18
203.442	0.68
203.661	-11.61
203.879	78.51
204.098	62.12
204.317	-21.85
204.536	62.12
204.755	19.11
204.974	94.89
205.193	15.02
205.411	176.81
205.63	101.03
205.849	27.31
206.068	-42.32
206.287	-30.04
206.505	47.79
206.724	21.16
206.943	43.69
207.162	-52.56
207.381	88.75
207.599	-21.85
207.818	39.59
208.037	70.31
208.255	23.21
208.474	-11.61
208.693	8.87
208.911	47.79
209.13	141.99
209.349	90.79
209.567	43.69
209.786	80.55
210.005	178.86
210.223	98.99
210.442	-5.46
210.661	55.98
210.879	-36.18
211.098	53.93
211.316	-11.61
211.535	-15.7
211.753	6.83
211.972	33.45
212.191	31.4
212.409	21.16
212.628	88.75
212.846	-21.85
213.065	98.99
213.283	103.08
213.502	-13.65
213.72	-21.85
213.938	68.27
214.157	8.87
214.375	117.42
214.594	86.7
214.812	-23.89
215.031	76.46
215.249	6.83
215.467	64.17
215.686	35.5
215.904	94.89
216.122	92.84
216.341	125.61
216.559	117.42
216.778	39.59
216.996	70.31
217.214	-1.37
217.432	78.51
217.651	-7.51
217.869	68.27
218.087	-44.37
218.306	72.36
218.524	-7.51
218.742	-17.75
218.96	49.83
219.179	23.21
219.397	19.11
219.615	72.36
219.833	70.31
220.051	4.78
220.27	55.98
220.488	31.4
220.706	-62.8
220.924	6.83
221.142	29.35
221.36	29.35
221.578	45.74
221.796	-1.37
222.015	4.78
222.233	68.27
222.451	103.08
222.669	51.88
222.887	2.73
223.105	-44.37
223.323	10.92
223.541	-79.19
223.759	-1.37
223.977	-42.32
224.195	125.61
224.413	25.26
224.631	58.03
224.849	23.21
225.067	88.75
225.285	0.68
225.503	-38.23
225.721	-36.18
225.939	25.26
226.157	51.88
226.375	207.53
226.592	27.31
226.81	19.11
227.028	53.93
227.246	55.98
227.464	25.26
227.682	125.61
227.9	15.02
228.117	29.35
228.335	37.55
228.553	10.92
228.771	96.94
228.989	12.97
229.206	86.7
229.424	31.4
229.642	-9.56
229.86	-7.51
230.077	72.36
230.295	-75.09
230.513	60.07
230.731	43.69
230.948	74.41
231.166	37.55
231.384	0.68
231.601	6.83
231.819	82.6
232.037	-91.48
232.254	6.83
232.472	-3.41
232.689	29.35
232.907	154.28
233.125	-38.23
233.342	-68.95
233.56	47.79
233.777	-42.32
233.995	43.69
234.213	115.37
234.43	12.97
234.648	27.31
234.865	23.21
235.083	58.03
235.3	74.41
235.518	15.02
235.735	109.23
235.953	60.07
236.17	62.12
236.388	25.26
236.605	33.45
236.822	55.98
237.04	121.51
237.257	-7.51
237.475	-11.61
237.692	39.59
237.909	39.59
238.127	53.93
238.344	141.99
238.562	-17.75
238.779	4.78
238.996	21.16
239.214	-3.41
239.431	101.03
239.648	6.83
239.865	90.79
240.083	86.7
240.3	21.16
240.517	-23.89
240.735	4.78
240.952	55.98
241.169	82.6
241.386	74.41
241.603	92.84
241.821	10.92
242.038	10.92
242.255	4.78
242.472	-11.61
242.689	76.46
242.907	113.32
243.124	37.55
243.341	55.98
243.558	-9.56
243.775	19.11
243.992	-38.23
244.209	49.83
244.426	109.23
244.643	4.78
244.86	12.97
245.078	64.17
245.295	-34.13
245.512	105.13
245.729	-25.94
245.946	19.11
246.163	51.88
246.38	-19.8
246.597	21.16
246.814	62.12
247.031	43.69
247.248	60.07
247.464	55.98
247.681	37.55
247.898	-11.61
248.115	27.31
248.332	25.26
248.549	-17.75
248.766	80.55
248.983	86.7
249.2	10.92
249.417	23.21
249.633	-58.71
249.85	49.83
250.067	31.4
250.284	49.83
250.501	55.98
250.717	35.5
250.934	4.78
251.151	33.45
251.368	25.26
251.585	68.27
251.801	47.79
252.018	-11.61
252.235	80.55
252.451	0.68
252.668	-13.65
252.885	125.61
253.102	23.21
253.318	-32.08
253.535	-73.04
253.752	70.31
253.968	31.4
254.185	23.21
254.401	53.93
254.618	17.07
254.835	53.93
255.051	92.84
255.268	51.88
255.484	12.97
255.701	60.07
255.917	72.36
256.134	-19.8
256.351	-9.56
256.567	17.07
256.784	43.69
257	-11.61
257.217	62.12
257.433	55.98
257.65	43.69
257.866	115.37
258.082	37.55
258.299	-64.85
258.515	55.98
258.732	-17.75
258.948	-48.47
259.165	51.88
259.381	47.79
259.597	-7.51
259.814	72.36
260.03	47.79
260.246	68.27
260.463	94.89
260.679	49.83
260.895	21.16
261.112	107.18
261.328	35.5
261.544	-34.13
261.761	152.23
261.977	60.07
262.193	0.68
262.409	33.45
262.626	92.84
262.842	37.55
263.058	12.97
263.274	21.16
263.49	15.02
263.707	74.41
263.923	6.83
264.139	-23.89
264.355	17.07
264.571	105.13
264.787	80.55
265.004	123.56
265.22	21.16
265.436	-5.46
265.652	25.26
265.868	-54.61
266.084	-27.99
266.3	2.73
266.516	-25.94
266.732	-7.51
266.948	49.83
267.164	6.83
267.38	47.79
267.596	82.6
267.812	154.28
268.028	23.21
268.244	17.07
268.46	27.31
268.676	10.92
268.892	-9.56
269.108	-40.28
269.324	21.16
269.54	-30.04
269.756	80.55
269.972	-68.95
270.188	47.79
270.403	51.88
270.619	-13.65
270.835	17.07
271.051	-13.65
271.267	-17.75
271.483	-11.61
271.698	35.5
271.914	35.5
272.13	33.45
272.346	-36.18
272.562	41.64
272.777	55.98
272.993	-7.51
273.209	-27.99
273.425	60.07
273.64	-27.99
273.856	62.12
274.072	-3.41
274.287	-13.65
274.503	80.55
274.719	49.83
274.934	2.73
275.15	-54.61
275.366	51.88
275.581	-3.41
275.797	15.02
276.012	51.88
276.228	41.64
276.444	45.74
276.659	98.99
276.875	-7.51
277.09	39.59
277.306	-32.08
277.521	51.88
277.737	2.73
277.952	78.51
278.168	6.83
278.383	121.51
278.599	90.79
278.814	51.88
279.03	-11.61
279.245	105.13
279.461	70.31
279.676	80.55
279.892	10.92
280.107	-5.46
280.322	10.92
280.538	-40.28
280.753	-25.94
280.969	101.03
281.184	82.6
281.399	29.35
281.615	-11.61
281.83	6.83
282.045	-73.04
282.26	-17.75
282.476	15.02
282.691	84.65
282.906	0.68
283.122	41.64
283.337	55.98
283.552	80.55
283.767	-50.52
283.983	62.12
284.198	29.35
284.413	55.98
284.628	-9.56
284.843	47.79
285.058	117.42
285.274	62.12
285.489	-73.04
285.704	101.03
285.919	-52.56
286.134	10.92
286.349	23.21
286.564	-11.61
286.779	94.89
286.995	25.26
287.21	-38.23
287.425	31.4
287.64	82.6
287.855	39.59
288.07	-19.8
288.285	45.74
288.5	117.42
288.715	125.61
288.93	-15.7
289.145	51.88
289.36	31.4
289.575	33.45
289.79	105.13
290.004	51.88
290.219	88.75
290.434	47.79
290.649	0.68
290.864	74.41
291.079	2.73
291.294	41.64
291.509	-3.41
291.724	80.55
291.938	-7.51
292.153	41.64
292.368	62.12
292.583	-13.65
292.798	35.5
293.012	74.41
293.227	68.27
293.442	41.64
293.657	-5.46
293.871	96.94
294.086	2.73
294.301	113.32
294.516	103.08
294.73	10.92
294.945	29.35
295.16	25.26
295.374	74.41
295.589	82.6
295.804	-15.7
296.018	60.07
296.233	17.07
296.447	27.31
296.662	37.55
296.877	55.98
297.091	72.36
297.306	60.07
297.52	23.21
297.735	-9.56
297.949	25.26
298.164	107.18
298.378	41.64
298.593	-42.32
298.807	45.74
299.022	27.31
299.236	92.84
299.451	12.97
299.665	45.74
299.88	19.11
300.094	78.51
300.309	15.02
300.523	10.92
300.737	64.17
300.952	39.59
301.166	8.87
301.381	45.74
301.595	41.64
301.809	43.69
302.024	84.65
302.238	37.55
302.452	115.37
302.667	0.68
302.881	37.55
303.095	33.45
303.309	12.97
303.524	47.79
303.738	96.94
303.952	25.26
304.166	47.79
304.381	-11.61
304.595	84.65
304.809	-83.28
305.023	72.36
305.237	-3.41
305.452	-48.47
305.666	31.4
305.88	51.88
306.094	82.6
306.308	86.7
306.522	58.03
306.736	35.5
306.95	82.6
307.164	-95.57
307.379	45.74
307.593	115.37
307.807	23.21
308.021	107.18
308.235	-25.94
308.449	4.78
308.663	25.26
308.877	139.94
309.091	82.6
309.305	88.75
309.519	-44.37
309.733	43.69
309.947	-50.52
310.161	66.22
310.374	21.16
310.588	47.79
310.802	19.11
311.016	-60.76
311.23	33.45
311.444	-1.37
311.658	4.78
311.872	107.18
312.085	105.13
312.299	51.88
312.513	76.46
312.727	107.18
312.941	31.4
313.154	29.35
313.368	84.65
313.582	4.78
313.796	45.74
314.009	31.4
314.223	105.13
314.437	-23.89
314.651	47.79
314.864	-52.56
315.078	0.68
315.292	43.69
315.505	62.12
315.719	74.41
315.933	68.27
316.146	94.89
316.36	-48.47
316.573	76.46
316.787	-44.37
317.001	103.08
317.214	64.17
317.428	23.21
317.641	37.55
317.855	-3.41
318.068	70.31
318.282	23.21
318.495	162.47
318.709	39.59
318.922	25.26
319.136	80.55
319.349	94.89
319.563	23.21
319.776	90.79
319.99	-85.33
320.203	64.17
320.417	4.78
320.63	164.52
320.843	6.83
321.057	76.46
321.27	-56.66
321.483	76.46
321.697	113.32
321.91	51.88
322.124	31.4
322.337	-3.41
322.55	-40.28
322.763	-48.47
322.977	8.87
323.19	10.92
323.403	29.35
323.617	-32.08
323.83	51.88
324.043	12.97
324.256	55.98
324.469	0.68
324.683	31.4
324.896	53.93
325.109	58.03
325.322	19.11
325.535	135.85
325.748	6.83
325.962	-58.71
326.175	49.83
326.388	51.88
326.601	55.98
326.814	27.31
327.027	68.27
327.24	25.26
327.453	-23.89
327.666	66.22
327.879	76.46
328.092	72.36
328.305	78.51
328.518	-11.61
328.731	58.03
328.944	31.4
329.157	60.07
329.37	49.83
329.583	31.4
329.796	72.36
330.009	-27.99
330.222	96.94
330.435	62.12
330.648	49.83
330.861	21.16
331.073	12.97
331.286	129.7
331.499	37.55
331.712	37.55
331.925	41.64
332.138	12.97
332.35	72.36
332.563	45.74
332.776	47.79
332.989	23.21
333.202	49.83
333.414	23.21
333.627	21.16
333.84	-9.56
334.053	68.27
334.265	8.87
334.478	39.59
334.691	-17.75
334.903	58.03
335.116	29.35
335.329	39.59
335.541	66.22
335.754	49.83
335.966	-11.61
336.179	-3.41
336.392	-5.46
336.604	60.07
336.817	66.22
337.029	70.31
337.242	84.65
337.454	96.94
337.667	37.55
337.88	121.51
338.092	21.16
338.305	51.88
338.517	-38.23
338.729	37.55
338.942	107.18
339.154	45.74
339.367	10.92
339.579	152.23
339.792	-68.95
340.004	55.98
340.217	43.69
340.429	23.21
340.641	-15.7
340.854	-21.85
341.066	-9.56
341.278	62.12
341.491	78.51
341.703	-3.41
341.915	39.59
342.128	37.55
342.34	96.94
342.552	58.03
342.764	8.87
342.977	12.97
343.189	51.88
343.401	88.75
343.613	25.26
343.826	-40.28
344.038	23.21
344.25	4.78
344.462	47.79
344.674	82.6
344.886	47.79
345.099	-17.75
345.311	49.83
345.523	-9.56
345.735	-56.66
345.947	29.35
346.159	109.23
346.371	0.68
346.583	25.26
346.795	213.67
347.007	4.78
347.219	84.65
347.431	15.02
347.643	17.07
347.855	17.07
348.067	117.42
348.279	82.6
348.491	66.22
348.703	4.78
348.915	-25.94
349.127	25.26
349.339	-7.51
349.551	-1.37
349.763	131.75
349.975	68.27
350.187	107.18
350.399	-1.37
350.61	82.6
350.822	10.92
351.034	94.89
351.246	-52.56
351.458	23.21
351.669	45.74
351.881	-15.7
352.093	37.55
352.305	121.51
352.517	-7.51
352.728	53.93
352.94	33.45
353.152	88.75
353.363	-42.32
353.575	64.17
353.787	125.61
353.999	123.56
354.21	92.84
354.422	119.46
354.633	60.07
354.845	123.56
355.057	70.31
355.268	0.68
355.48	103.08
355.692	6.83
355.903	19.11
356.115	21.16
356.326	-58.71
356.538	127.66
356.749	33.45
356.961	170.66
357.172	43.69
357.384	2.73
357.595	113.32
357.807	39.59
358.018	43.69
358.23	-34.13
358.441	125.61
358.653	60.07
358.864	82.6
359.075	0.68
359.287	6.83
359.498	113.32
359.709	39.59
359.921	21.16
360.132	119.46
360.344	4.78
360.555	0.68
360.766	29.35
360.977	4.78
361.189	113.32
361.4	-25.94
361.611	109.23
361.823	148.14
362.034	78.51
362.245	-40.28
362.456	17.07
362.667	51.88
362.879	27.31
363.09	90.79
363.301	80.55
363.512	66.22
363.723	92.84
363.935	31.4
364.146	39.59
364.357	43.69
364.568	17.07
364.779	-46.42
364.99	80.55
365.201	-1.37
365.412	49.83
365.623	29.35
365.834	39.59
366.045	-17.75
366.256	17.07
366.467	31.4
366.678	-13.65
366.889	-34.13
367.1	-23.89
367.311	62.12
367.522	23.21
367.733	51.88
367.944	60.07
368.155	-17.75
368.366	72.36
368.577	76.46
368.788	60.07
368.999	17.07
369.209	88.75
369.42	152.23
369.631	78.51
369.842	25.26
370.053	2.73
370.264	0.68
370.474	31.4
370.685	-1.37
370.896	55.98
371.107	62.12
371.317	96.94
371.528	41.64
371.739	176.81
371.95	113.32
372.16	21.16
372.371	41.64
372.582	80.55
372.792	74.41
373.003	-25.94
373.214	31.4
373.424	160.42
373.635	58.03
373.846	78.51
374.056	37.55
374.267	58.03
374.477	68.27
374.688	23.21
374.898	72.36
375.109	70.31
375.319	125.61
375.53	27.31
375.74	133.8
375.951	21.16
376.161	29.35
376.372	51.88
376.582	19.11
376.793	15.02
377.003	25.26
377.214	64.17
377.424	70.31
377.635	82.6
377.845	6.83
378.055	66.22
378.266	-48.47
378.476	23.21
378.686	47.79
378.897	10.92
379.107	55.98
379.317	72.36
379.528	51.88
379.738	80.55
379.948	-15.7
380.158	19.11
380.369	68.27
380.579	37.55
380.789	66.22
380.999	47.79
381.21	131.75
381.42	174.76
381.63	51.88
381.84	39.59
382.05	105.13
382.261	53.93
382.471	115.37
382.681	25.26
382.891	141.99
383.101	111.27
383.311	29.35
383.521	-34.13
383.731	164.52
383.941	21.16
384.151	72.36
384.361	82.6
384.571	29.35
384.781	66.22
384.991	115.37
385.201	164.52
385.411	107.18
385.621	25.26
385.831	62.12
386.041	45.74
386.251	27.31
386.461	70.31
386.671	-1.37
386.881	107.18
387.091	8.87
387.301	123.56
387.511	70.31
387.72	43.69
387.93	123.56
388.14	25.26
388.35	98.99
388.56	64.17
388.769	10.92
388.979	39.59
389.189	-27.99
389.399	80.55
389.609	55.98
389.818	60.07
390.028	121.51
390.238	35.5
390.447	45.74
390.657	43.69
390.867	41.64
391.076	2.73
391.286	115.37
391.496	45.74
391.705	51.88
391.915	49.83
392.125	80.55
392.334	49.83
392.544	103.08
392.753	2.73
392.963	64.17
393.172	109.23
393.382	53.93
393.591	187.05
393.801	2.73
394.01	154.28
394.22	127.66
394.429	82.6
394.639	80.55
394.848	105.13
395.058	62.12
395.267	78.51
395.477	123.56
395.686	107.18
395.895	146.09
396.105	176.81
396.314	109.23
396.524	90.79
396.733	82.6
396.942	103.08
397.152	78.51
397.361	137.9
397.57	115.37
397.78	94.89
397.989	111.27
398.198	174.76
398.407	105.13
398.617	146.09
398.826	127.66
399.035	66.22
399.244	242.34
399.453	144.04
399.663	150.18
399.872	115.37
400.081	135.85
400.29	41.64
400.499	76.46
400.708	162.47
400.917	141.99
401.127	117.42
401.336	109.23
401.545	252.58
401.754	148.14
401.963	119.46
402.172	150.18
402.381	90.79
402.59	39.59
402.799	162.47
403.008	230.06
403.217	139.94
403.426	189.1
403.635	98.99
403.844	125.61
404.053	139.94
404.262	158.38
404.471	211.62
404.68	152.23
404.888	105.13
405.097	197.29
405.306	148.14
405.515	168.62
405.724	121.51
405.933	211.62
406.142	223.91
406.35	223.91
406.559	187.05
406.768	219.82
406.977	223.91
407.185	260.77
407.394	207.53
407.603	191.14
407.812	146.09
408.02	230.06
408.229	234.15
408.438	238.25
408.646	207.53
408.855	242.34
409.064	234.15
409.272	299.69
409.481	309.93
409.69	219.82
409.898	328.36
410.107	365.22
410.315	367.27
410.524	314.02
410.733	385.7
410.941	350.89
411.15	338.6
411.358	404.13
411.567	412.32
411.775	459.43
411.984	465.57
412.192	500.39
412.401	385.7
412.609	535.2
412.818	492.2
413.026	527.01
413.234	479.91
413.443	596.64
413.651	547.49
413.86	596.64
414.068	557.73
414.276	674.46
414.485	604.83
414.693	719.52
414.901	733.86
415.11	676.51
415.318	639.65
415.526	826.01
415.734	840.35
415.943	864.93
416.151	938.65
416.359	785.05
416.567	899.74
416.776	983.71
416.984	967.32
417.192	1094.3
417.4	1006.24
417.608	963.23
417.817	1045.15
418.025	1155.74
418.233	1270.42
418.441	1168.02
418.649	1270.42
418.857	1297.05
419.065	1356.44
419.273	1301.14
419.481	1348.25
419.689	1424.02
419.897	1690.26
420.105	1591.95
420.313	1667.73
420.521	1624.72
420.729	1669.78
420.937	1727.12
421.145	1886.86
421.353	1895.05
421.561	1966.73
421.769	2054.8
421.977	2120.33
422.185	2212.49
422.393	2222.73
422.601	2466.44
422.809	2327.18
423.017	2366.09
423.224	2531.97
423.432	2642.56
423.64	2636.42
423.848	2718.34
424.056	2624.13
424.263	3037.82
424.471	2978.43
424.679	3019.39
424.887	3160.7
425.094	3261.05
425.302	3244.67
425.51	3273.34
425.718	3533.43
425.925	3437.17
426.133	3588.72
426.341	3930.73
426.548	4070
426.756	4041.32
426.964	4084.33
427.171	4182.63
427.379	4334.18
427.586	4487.78
427.794	4657.76
428.001	4868.7
428.209	4983.39
428.417	4880.99
428.624	5468.76
428.832	5479
429.039	5313.11
429.247	5255.77
429.454	5773.91
429.662	6152.78
429.869	5741.14
430.076	6142.54
430.284	5958.22
430.491	6341.19
430.699	6591.05
430.906	6713.92
431.114	6666.82
431.321	7139.9
431.528	7090.75
431.736	7590.45
431.943	7934.51
432.15	7766.58
432.358	7877.17
432.565	8309.29
432.772	8155.69
432.979	8348.2
433.187	8841.76
433.394	8751.65
433.601	9167.39
433.808	9538.07
434.016	9310.75
434.223	9804.31
434.43	10371.6
434.637	10093.07
434.844	10861.06
435.052	11049.47
435.259	10953.22
435.466	11002.37
435.673	10953.22
435.88	11600.38
436.087	12239.34
436.294	12560.88
436.501	12001.78
436.708	12286.45
436.915	12665.32
437.122	13398.49
437.329	13394.4
437.537	13613.53
437.743	13717.98
437.95	13679.07
438.157	14477.77
438.364	14877.13
438.571	14928.33
438.778	15071.68
438.985	16372.14
439.192	15569.34
439.399	16314.8
439.606	15636.92
439.813	16740.78
440.02	17672.6
440.227	17494.43
440.433	17113.51
440.64	17758.62
440.847	17766.81
441.054	18323.86
441.261	19222.92
441.467	19292.55
441.674	19605.89
441.881	20203.89
442.088	20187.51
442.294	20103.54
442.501	20623.73
442.708	21002.6
442.914	21739.87
443.121	22708.56
443.328	22065.5
443.534	23808.32
443.741	22937.93
443.948	22710.61
444.154	24566.07
444.361	24025.4
444.568	24772.91
444.774	24371.51
444.981	24740.15
445.187	25463.08
445.394	26657.04
445.6	26145.05
445.807	28467.45
446.013	27552.01
446.22	27898.11
446.426	28907.76
446.633	29313.26
446.839	30587.1
447.046	29323.5
447.252	30748.89
447.459	30648.53
447.665	30638.3
447.871	32225.47
448.078	33593.51
448.284	31670.47
448.491	32673.98
448.697	33964.2
448.903	34396.32
449.11	34707.61
449.316	34070.69
449.522	34822.3
449.728	35590.28
449.935	36053.12
450.141	35852.42
450.347	36845.69
450.553	35530.89
450.76	36061.32
450.966	37564.53
451.172	36849.78
451.378	37754.99
451.584	36997.24
451.791	37967.98
451.997	37826.67
452.203	38625.37
452.409	38797.4
452.615	37898.34
452.821	36706.43
453.027	36403.33
453.233	38510.69
453.44	36741.24
453.646	37664.88
453.852	37515.37
454.058	37920.87
454.264	36925.56
454.47	37623.92
454.676	36737.15
454.882	38365.28
455.088	34574.49
455.294	35235.99
455.5	35897.48
455.705	36399.23
455.911	34674.84
456.117	34082.98
456.323	33779.88
456.529	32123.07
456.735	33261.74
456.941	32737.46
457.147	31856.84
457.352	31367.37
457.558	30511.32
457.764	30783.7
457.97	30197.98
458.176	29663.46
458.381	29739.24
458.587	28080.38
458.793	28188.92
458.999	26777.87
459.204	28393.72
459.41	27740.42
459.616	25909.54
459.821	25925.92
460.027	26032.41
460.233	25389.35
460.438	23851.33
460.644	24031.55
460.85	23173.45
461.055	22962.51
461.261	22749.52
461.466	21320.04
461.672	20320.63
461.878	21946.72
462.083	20541.81
462.289	20029.82
462.494	19739.01
462.7	18928.01
462.905	18325.91
463.111	19534.21
463.316	19458.43
463.522	18672.01
463.727	18940.3
463.932	18731.4
464.138	18592.14
464.343	18792.84
464.549	18002.33
464.754	18577.81
464.959	18311.57
465.165	18520.46
465.37	17691.04
465.575	17084.84
465.781	17873.31
465.986	17975.7
