Data from USB4F104151__14__12-11-31-611.txt Node

Date: Fri Mar 14 12:11:31 EDT 2025
User: louis
Spectrometer: USB4F10415
Trigger mode: 4
Integration Time (sec): 5.000000E-2
Scans to average: 1
Electric dark correction enabled: true
Nonlinearity correction enabled: false
Boxcar width: 0
XAxis mode: Wavelengths
Number of Pixels in Spectrum: 3648
>>>>>Begin Spectral Data<<<<<
178.204	-170.83
178.424	-170.83
178.644	-170.83
178.864	-170.83
179.084	-197.46
179.304	62.63
179.524	-21.33
179.744	-29.52
179.964	36.01
180.184	74.92
180.404	-62.29
180.624	5.29
180.844	31.91
181.064	-54.1
181.283	13.48
181.503	-68.44
181.723	11.43
181.943	-109.4
182.163	109.74
182.383	19.63
182.602	101.55
182.822	72.87
183.042	60.59
183.262	33.96
183.482	3.24
183.701	54.44
183.921	117.93
184.141	-105.3
184.361	9.39
184.58	83.11
184.8	79.02
185.02	66.73
185.239	89.26
185.459	85.16
185.679	46.25
185.898	-15.19
186.118	117.93
186.338	-2.9
186.557	101.55
186.777	-54.1
186.997	1.19
187.216	50.35
187.436	140.46
187.655	109.74
187.875	83.11
188.095	40.11
188.314	105.64
188.534	29.87
188.753	-54.1
188.973	154.79
189.192	48.3
189.412	76.97
189.631	13.48
189.851	19.63
190.07	97.45
190.29	13.48
190.509	31.91
190.729	-72.53
190.948	54.44
191.168	279.72
191.387	42.15
191.607	60.59
191.826	54.44
192.045	70.83
192.265	-27.48
192.484	48.3
192.704	1.19
192.923	29.87
193.142	177.32
193.362	44.2
193.581	79.02
193.8	74.92
194.02	99.5
194.239	162.98
194.458	46.25
194.678	13.48
194.897	-7
195.116	21.67
195.335	25.77
195.555	60.59
195.774	25.77
195.993	107.69
196.212	3.24
196.432	29.87
196.651	7.34
196.87	11.43
197.089	99.5
197.308	52.39
197.528	85.16
197.747	27.82
197.966	83.11
198.185	113.83
198.404	36.01
198.623	101.55
198.842	81.07
199.062	122.02
199.281	122.02
199.5	62.63
199.719	56.49
199.938	56.49
200.157	140.46
200.376	9.39
200.595	60.59
200.814	101.55
201.033	-25.43
201.252	36.01
201.471	68.78
201.69	46.25
201.909	33.96
202.128	93.35
202.347	27.82
202.566	23.72
202.785	9.39
203.004	7.34
203.223	146.6
203.442	79.02
203.661	54.44
203.879	60.59
204.098	-31.57
204.317	13.48
204.536	146.6
204.755	48.3
204.974	19.63
205.193	93.35
205.411	130.22
205.63	140.46
205.849	-19.29
206.068	91.31
206.287	1.19
206.505	70.83
206.724	31.91
206.943	31.91
207.162	31.91
207.381	60.59
207.599	54.44
207.818	68.78
208.037	31.91
208.255	-37.72
208.474	128.17
208.693	50.35
208.911	25.77
209.13	-9.05
209.349	150.7
209.567	115.88
209.786	91.31
210.005	29.87
210.223	68.78
210.442	-27.48
210.661	-41.81
210.879	-9.05
211.098	117.93
211.316	113.83
211.535	68.78
211.753	36.01
211.972	87.21
212.191	11.43
212.409	48.3
212.628	76.97
212.846	44.2
213.065	-19.29
213.283	17.58
213.502	-41.81
213.72	1.19
213.938	21.67
214.157	29.87
214.375	74.92
214.594	-11.09
214.812	50.35
215.031	126.12
215.249	58.54
215.467	62.63
215.686	89.26
215.904	70.83
216.122	79.02
216.341	87.21
216.559	48.3
216.778	160.94
216.996	74.92
217.214	52.39
217.432	-21.33
217.651	17.58
217.869	1.19
218.087	-4.95
218.306	-2.9
218.524	-23.38
218.742	-23.38
218.96	85.16
219.179	74.92
219.397	31.91
219.615	146.6
219.833	21.67
220.051	38.06
220.27	72.87
220.488	46.25
220.706	38.06
220.924	-17.24
221.142	-37.72
221.36	126.12
221.578	46.25
221.796	29.87
222.015	46.25
222.233	56.49
222.451	72.87
222.669	-9.05
222.887	48.3
223.105	40.11
223.323	31.91
223.541	-45.91
223.759	25.77
223.977	72.87
224.195	91.31
224.413	79.02
224.631	68.78
224.849	40.11
225.067	56.49
225.285	-21.33
225.503	21.67
225.721	-2.9
225.939	42.15
226.157	50.35
226.375	162.98
226.592	-0.85
226.81	19.63
227.028	70.83
227.246	140.46
227.464	-13.14
227.682	70.83
227.9	74.92
228.117	70.83
228.335	111.78
228.553	-23.38
228.771	117.93
228.989	7.34
229.206	64.68
229.424	-0.85
229.642	25.77
229.86	11.43
230.077	48.3
230.295	23.72
230.513	68.78
230.731	103.59
230.948	146.6
231.166	103.59
231.384	-35.67
231.601	115.88
231.819	103.59
232.037	-41.81
232.254	-54.1
232.472	-95.06
232.689	23.72
232.907	156.84
233.125	23.72
233.342	50.35
233.56	33.96
233.777	83.11
233.995	-0.85
234.213	115.88
234.43	29.87
234.648	93.35
234.865	-7
235.083	64.68
235.3	13.48
235.518	60.59
235.735	33.96
235.953	72.87
236.17	5.29
236.388	11.43
236.605	33.96
236.822	76.97
237.04	76.97
237.257	-21.33
237.475	17.58
237.692	33.96
237.909	56.49
238.127	-15.19
238.344	7.34
238.562	31.91
238.779	-23.38
238.996	-27.48
239.214	-0.85
239.431	140.46
239.648	44.2
239.865	11.43
240.083	105.64
240.3	42.15
240.517	-17.24
240.735	-109.4
240.952	70.83
241.169	119.98
241.386	56.49
241.603	76.97
241.821	-27.48
242.038	124.07
242.255	113.83
242.472	-21.33
242.689	99.5
242.907	66.73
243.124	9.39
243.341	-50
243.558	62.63
243.775	-11.09
243.992	-21.33
244.209	62.63
244.426	87.21
244.643	46.25
244.86	17.58
245.078	29.87
245.295	31.91
245.512	81.07
245.729	-41.81
245.946	111.78
246.163	-64.34
246.38	-17.24
246.597	38.06
246.814	-54.1
247.031	122.02
247.248	23.72
247.464	62.63
247.681	64.68
247.898	40.11
248.115	79.02
248.332	40.11
248.549	3.24
248.766	167.08
248.983	25.77
249.2	-21.33
249.417	19.63
249.633	56.49
249.85	119.98
250.067	15.53
250.284	40.11
250.501	25.77
250.717	54.44
250.934	-17.24
251.151	23.72
251.368	-7
251.585	74.92
251.801	27.82
252.018	9.39
252.235	140.46
252.451	15.53
252.668	-80.72
252.885	89.26
253.102	19.63
253.318	56.49
253.535	-15.19
253.752	58.54
253.968	11.43
254.185	-45.91
254.401	-7
254.618	-41.81
254.835	66.73
255.051	124.07
255.268	7.34
255.484	132.26
255.701	60.59
255.917	79.02
256.134	58.54
256.351	150.7
256.567	21.67
256.784	42.15
257	-70.48
257.217	83.11
257.433	52.39
257.65	29.87
257.866	54.44
258.082	-15.19
258.299	-45.91
258.515	42.15
258.732	33.96
258.948	-72.53
259.165	-9.05
259.381	56.49
259.597	74.92
259.814	-0.85
260.03	27.82
260.246	52.39
260.463	89.26
260.679	109.74
260.895	81.07
261.112	-19.29
261.328	25.77
261.544	44.2
261.761	130.22
261.977	68.78
262.193	33.96
262.409	50.35
262.626	-19.29
262.842	64.68
263.058	-9.05
263.274	74.92
263.49	31.91
263.707	128.17
263.923	40.11
264.139	56.49
264.355	-7
264.571	128.17
264.787	31.91
265.004	89.26
265.22	19.63
265.436	42.15
265.652	50.35
265.868	9.39
266.084	-68.44
266.3	50.35
266.516	-39.76
266.732	60.59
266.948	56.49
267.164	7.34
267.38	-29.52
267.596	11.43
267.812	195.75
268.028	48.3
268.244	58.54
268.46	36.01
268.676	5.29
268.892	68.78
269.108	-35.67
269.324	68.78
269.54	9.39
269.756	68.78
269.972	107.69
270.188	44.2
270.403	-90.96
270.619	21.67
270.835	21.67
271.051	60.59
271.267	21.67
271.483	-72.53
271.698	89.26
271.914	15.53
272.13	-43.86
272.346	64.68
272.562	46.25
272.777	136.36
272.993	-43.86
273.209	-2.9
273.425	64.68
273.64	62.63
273.856	76.97
274.072	50.35
274.287	23.72
274.503	46.25
274.719	42.15
274.934	-35.67
275.15	40.11
275.366	15.53
275.581	56.49
275.797	87.21
276.012	58.54
276.228	62.63
276.444	31.91
276.659	101.55
276.875	-19.29
277.09	124.07
277.306	-27.48
277.521	83.11
277.737	3.24
277.952	89.26
278.168	-2.9
278.383	87.21
278.599	60.59
278.814	119.98
279.03	36.01
279.245	74.92
279.461	-33.62
279.676	11.43
279.892	25.77
280.107	-76.63
280.322	7.34
280.538	31.91
280.753	-78.68
280.969	46.25
281.184	-25.43
281.399	64.68
281.615	-37.72
281.83	68.78
282.045	-43.86
282.26	-27.48
282.476	117.93
282.691	54.44
282.906	-17.24
283.122	48.3
283.337	1.19
283.552	46.25
283.767	-11.09
283.983	105.64
284.198	-7
284.413	79.02
284.628	-43.86
284.843	64.68
285.058	72.87
285.274	7.34
285.489	-25.43
285.704	91.31
285.919	58.54
286.134	-2.9
286.349	70.83
286.564	9.39
286.779	179.37
286.995	48.3
287.21	-23.38
287.425	70.83
287.64	-9.05
287.855	23.72
288.07	27.82
288.285	83.11
288.5	79.02
288.715	85.16
288.93	17.58
289.145	79.02
289.36	19.63
289.575	48.3
289.79	74.92
290.004	29.87
290.219	183.46
290.434	-37.72
290.649	31.91
290.864	5.29
291.079	-41.81
291.294	3.24
291.509	5.29
291.724	-4.95
291.938	52.39
292.153	122.02
292.368	36.01
292.583	109.74
292.798	115.88
293.012	-23.38
293.227	83.11
293.442	-4.95
293.657	19.63
293.871	107.69
294.086	60.59
294.301	91.31
294.516	50.35
294.73	5.29
294.945	40.11
295.16	56.49
295.374	50.35
295.589	107.69
295.804	25.77
296.018	54.44
296.233	93.35
296.447	81.07
296.662	19.63
296.877	105.64
297.091	105.64
297.306	13.48
297.52	-2.9
297.735	87.21
297.949	15.53
298.164	27.82
298.378	11.43
298.593	-93.01
298.807	-19.29
299.022	62.63
299.236	113.83
299.451	-11.09
299.665	5.29
299.88	38.06
300.094	29.87
300.309	119.98
300.523	70.83
300.737	31.91
300.952	-33.62
301.166	103.59
301.381	-27.48
301.595	-19.29
301.809	74.92
302.024	-9.05
302.238	42.15
302.452	56.49
302.667	-13.14
302.881	140.46
303.095	68.78
303.309	25.77
303.524	72.87
303.738	87.21
303.952	3.24
304.166	79.02
304.381	-62.29
304.595	25.77
304.809	52.39
305.023	66.73
305.237	9.39
305.452	-31.57
305.666	40.11
305.88	124.07
306.094	50.35
306.308	64.68
306.522	99.5
306.736	46.25
306.95	122.02
307.164	-52.05
307.379	52.39
307.593	40.11
307.807	48.3
308.021	79.02
308.235	31.91
308.449	-60.24
308.663	62.63
308.877	122.02
309.091	25.77
309.305	87.21
309.519	-60.24
309.733	31.91
309.947	19.63
310.161	87.21
310.374	87.21
310.588	122.02
310.802	-52.05
311.016	11.43
311.23	-4.95
311.444	19.63
311.658	21.67
311.872	152.74
312.085	44.2
312.299	64.68
312.513	87.21
312.727	42.15
312.941	-4.95
313.154	64.68
313.368	21.67
313.582	-9.05
313.796	103.59
314.009	50.35
314.223	99.5
314.437	93.35
314.651	46.25
314.864	23.72
315.078	56.49
315.292	-21.33
315.505	-7
315.719	48.3
315.933	68.78
316.146	5.29
316.36	-45.91
316.573	31.91
316.787	13.48
317.001	58.54
317.214	-0.85
317.428	29.87
317.641	7.34
317.855	40.11
318.068	31.91
318.282	70.83
318.495	122.02
318.709	-11.09
318.922	13.48
319.136	87.21
319.349	64.68
319.563	36.01
319.776	85.16
319.99	-45.91
320.203	56.49
320.417	70.83
320.63	70.83
320.843	119.98
321.057	5.29
321.27	72.87
321.483	52.39
321.697	68.78
321.91	29.87
322.124	72.87
322.337	23.72
322.55	-25.43
322.763	31.91
322.977	25.77
323.19	9.39
323.403	68.78
323.617	60.59
323.83	79.02
324.043	-23.38
324.256	29.87
324.469	-35.67
324.683	33.96
324.896	-9.05
325.109	23.72
325.322	-78.68
325.535	76.97
325.748	58.54
325.962	3.24
326.175	-9.05
326.388	136.36
326.601	38.06
326.814	33.96
327.027	23.72
327.24	62.63
327.453	-15.19
327.666	93.35
327.879	85.16
328.092	23.72
328.305	54.44
328.518	-15.19
328.731	13.48
328.944	23.72
329.157	44.2
329.37	-7
329.583	144.55
329.796	136.36
330.009	-4.95
330.222	76.97
330.435	66.73
330.648	36.01
330.861	27.82
331.073	33.96
331.286	97.45
331.499	15.53
331.712	3.24
331.925	122.02
332.138	62.63
332.35	17.58
332.563	76.97
332.776	72.87
332.989	-4.95
333.202	11.43
333.414	40.11
333.627	13.48
333.84	54.44
334.053	27.82
334.265	3.24
334.478	144.55
334.691	31.91
334.903	-17.24
335.116	-64.34
335.329	-17.24
335.541	81.07
335.754	122.02
335.966	29.87
336.179	-13.14
336.392	25.77
336.604	29.87
336.817	29.87
337.029	21.67
337.242	23.72
337.454	81.07
337.667	5.29
337.88	74.92
338.092	13.48
338.305	54.44
338.517	58.54
338.729	23.72
338.942	119.98
339.154	25.77
339.367	29.87
339.579	58.54
339.792	11.43
340.004	21.67
340.217	-2.9
340.429	58.54
340.641	1.19
340.854	38.06
341.066	21.67
341.278	68.78
341.491	76.97
341.703	68.78
341.915	-50
342.128	54.44
342.34	38.06
342.552	-27.48
342.764	-21.33
342.977	38.06
343.189	64.68
343.401	-17.24
343.613	46.25
343.826	13.48
344.038	-13.14
344.25	17.58
344.462	119.98
344.674	7.34
344.886	46.25
345.099	1.19
345.311	52.39
345.523	36.01
345.735	-19.29
345.947	54.44
346.159	66.73
346.371	-13.14
346.583	27.82
346.795	74.92
347.007	62.63
347.219	5.29
347.431	-29.52
347.643	136.36
347.855	-2.9
348.067	68.78
348.279	-9.05
348.491	15.53
348.703	13.48
348.915	81.07
349.127	5.29
349.339	38.06
349.551	42.15
349.763	-0.85
349.975	122.02
350.187	79.02
350.399	122.02
350.61	38.06
350.822	48.3
351.034	40.11
351.246	9.39
351.458	-19.29
351.669	44.2
351.881	60.59
352.093	46.25
352.305	66.73
352.517	83.11
352.728	36.01
352.94	66.73
353.152	-2.9
353.363	-25.43
353.575	33.96
353.787	54.44
353.999	95.4
354.21	91.31
354.422	-9.05
354.633	42.15
354.845	91.31
355.057	36.01
355.268	62.63
355.48	68.78
355.692	-15.19
355.903	40.11
356.115	107.69
356.326	-54.1
356.538	101.55
356.749	68.78
356.961	60.59
357.172	25.77
357.384	52.39
357.595	160.94
357.807	-17.24
358.018	23.72
358.23	119.98
358.441	173.22
358.653	128.17
358.864	87.21
359.075	-13.14
359.287	93.35
359.498	111.78
359.709	79.02
359.921	66.73
360.132	68.78
360.344	-27.48
360.555	29.87
360.766	79.02
360.977	29.87
361.189	-7
361.4	-23.38
361.611	85.16
361.823	40.11
362.034	107.69
362.245	27.82
362.456	-31.57
362.667	89.26
362.879	68.78
363.09	72.87
363.301	87.21
363.512	-17.24
363.723	36.01
363.935	-2.9
364.146	13.48
364.357	-19.29
364.568	44.2
364.779	29.87
364.99	64.68
365.201	31.91
365.412	5.29
365.623	11.43
365.834	105.64
366.045	27.82
366.256	70.83
366.467	66.73
366.678	-9.05
366.889	56.49
367.1	-0.85
367.311	19.63
367.522	36.01
367.733	-0.85
367.944	62.63
368.155	58.54
368.366	56.49
368.577	79.02
368.788	126.12
368.999	-29.52
369.209	74.92
369.42	156.84
369.631	146.6
369.842	56.49
370.053	87.21
370.264	79.02
370.474	38.06
370.685	138.41
370.896	-2.9
371.107	152.74
371.317	29.87
371.528	40.11
371.739	52.39
371.95	76.97
372.16	74.92
372.371	-45.91
372.582	13.48
372.792	23.72
373.003	70.83
373.214	58.54
373.424	119.98
373.635	-2.9
373.846	117.93
374.056	66.73
374.267	46.25
374.477	9.39
374.688	-37.72
374.898	29.87
375.109	54.44
375.319	-43.86
375.53	89.26
375.74	15.53
375.951	66.73
376.161	-4.95
376.372	109.74
376.582	91.31
376.793	91.31
377.003	-7
377.214	29.87
377.424	21.67
377.635	48.3
377.845	-41.81
378.055	132.26
378.266	-21.33
378.476	13.48
378.686	66.73
378.897	97.45
379.107	85.16
379.317	-11.09
379.528	87.21
379.738	70.83
379.948	44.2
380.158	152.74
380.369	83.11
380.579	50.35
380.789	95.4
380.999	64.68
381.21	68.78
381.42	136.36
381.63	50.35
381.84	126.12
382.05	70.83
382.261	134.31
382.471	46.25
382.681	33.96
382.891	103.59
383.101	33.96
383.311	54.44
383.521	-0.85
383.731	46.25
383.941	142.5
384.151	74.92
384.361	21.67
384.571	76.97
384.781	87.21
384.991	91.31
385.201	99.5
385.411	19.63
385.621	103.59
385.831	89.26
386.041	115.88
386.251	97.45
386.461	48.3
386.671	-11.09
386.881	38.06
387.091	13.48
387.301	76.97
387.511	5.29
387.72	81.07
387.93	54.44
388.14	-23.38
388.35	97.45
388.56	89.26
388.769	79.02
388.979	48.3
389.189	-29.52
389.399	54.44
389.609	124.07
389.818	103.59
390.028	29.87
390.238	9.39
390.447	15.53
390.657	107.69
390.867	23.72
391.076	-4.95
391.286	-17.24
391.496	146.6
391.705	91.31
391.915	89.26
392.125	124.07
392.334	19.63
392.544	105.64
392.753	52.39
392.963	25.77
393.172	113.83
393.382	54.44
393.591	119.98
393.801	38.06
394.01	64.68
394.22	99.5
394.429	7.34
394.639	72.87
394.848	97.45
395.058	31.91
395.267	-4.95
395.477	42.15
395.686	56.49
395.895	130.22
396.105	109.74
396.314	124.07
396.524	91.31
396.733	87.21
396.942	97.45
397.152	91.31
397.361	103.59
397.57	89.26
397.78	103.59
397.989	85.16
398.198	199.85
398.407	105.64
398.617	25.77
398.826	122.02
399.035	15.53
399.244	101.55
399.453	60.59
399.663	15.53
399.872	177.32
400.081	50.35
400.29	189.61
400.499	33.96
400.708	117.93
400.917	126.12
401.127	38.06
401.336	72.87
401.545	187.56
401.754	107.69
401.963	91.31
402.172	60.59
402.381	89.26
402.59	68.78
402.799	27.82
403.008	179.37
403.217	126.12
403.426	95.4
403.635	58.54
403.844	79.02
404.053	91.31
404.262	134.31
404.471	115.88
404.68	156.84
404.888	68.78
405.097	95.4
405.306	130.22
405.515	183.46
405.724	105.64
405.933	136.36
406.142	158.89
406.35	214.18
406.559	130.22
406.768	142.5
406.977	238.76
407.185	167.08
407.394	171.18
407.603	91.31
407.812	144.55
408.02	203.94
408.229	210.09
408.438	253.09
408.646	122.02
408.855	115.88
409.064	210.09
409.272	173.22
409.481	165.03
409.69	150.7
409.898	210.09
410.107	228.52
410.315	308.39
410.524	236.71
410.733	203.94
410.941	287.91
411.15	232.62
411.358	271.53
411.567	392.36
411.775	253.09
411.984	306.34
412.192	328.87
412.401	283.81
412.609	349.35
412.818	306.34
413.026	359.59
413.234	294.05
413.443	367.78
413.651	382.12
413.86	396.45
414.068	441.51
414.276	457.89
414.485	351.4
414.693	484.52
414.901	582.82
415.11	498.85
415.318	474.28
415.526	498.85
415.734	556.19
415.943	519.33
416.151	615.59
416.359	570.53
416.567	584.87
416.776	703.65
416.984	668.83
417.192	758.94
417.4	613.54
417.608	617.63
417.817	629.92
418.025	709.79
418.233	799.9
418.441	742.56
418.649	859.29
418.857	822.43
419.065	908.44
419.273	775.33
419.481	949.4
419.689	973.98
419.897	992.41
420.105	1023.13
420.313	986.27
420.521	1135.77
420.729	1109.15
420.937	1219.74
421.145	1133.72
421.353	1236.12
421.561	1283.22
421.769	1334.42
421.977	1299.61
422.185	1315.99
422.393	1338.52
422.601	1447.06
422.809	1418.39
423.017	1592.47
423.224	1567.89
423.432	1776.78
423.64	1561.75
423.848	1721.49
424.056	1698.96
424.263	1926.29
424.471	1873.04
424.679	1858.7
424.887	1969.29
425.094	2106.51
425.302	2118.79
425.51	2114.7
425.718	2354.31
425.925	2161.8
426.133	2274.44
426.341	2440.33
426.548	2591.88
426.756	2542.72
426.964	2651.27
427.171	2808.96
427.379	2735.23
427.586	2790.53
427.794	2854.02
428.001	3075.2
428.209	3097.72
428.417	3150.97
428.624	3366.01
428.832	3218.55
429.039	3241.08
429.247	3263.61
429.454	3607.67
429.662	3818.61
429.869	3593.33
430.076	3863.66
430.284	3802.22
430.491	3990.64
430.699	4207.72
430.906	4260.97
431.114	4285.55
431.321	4191.34
431.528	4463.72
431.736	4721.76
431.943	4985.95
432.15	4828.26
432.358	4854.88
432.565	5184.6
432.772	4924.51
432.979	5211.23
433.187	5452.89
433.394	5266.52
433.601	5772.37
433.808	5663.83
434.016	5698.64
434.223	5983.31
434.43	6476.87
434.637	6231.12
434.844	6483.02
435.052	6769.73
435.259	6671.43
435.466	6675.52
435.673	6669.38
435.88	6999.1
436.087	7392.31
436.294	7451.7
436.501	7273.53
436.708	7298.11
436.915	7623.73
437.122	8047.66
437.329	7857.2
437.537	8219.69
437.743	8451.11
437.95	8367.15
438.157	8731.69
438.364	9090.08
438.571	8891.43
438.778	9057.31
438.985	9919.51
439.192	9458.71
439.399	9628.7
439.606	9610.26
439.813	10144.78
440.02	10816.52
440.227	10619.91
440.433	10433.55
440.64	10468.36
440.847	10486.79
441.054	10771.46
441.261	11576.31
441.467	11367.42
441.674	11783.16
441.881	12272.62
442.088	11916.28
442.294	11883.51
442.501	12317.68
442.708	12567.53
442.914	13226.98
443.121	13579.23
443.328	13034.47
443.534	13898.71
443.741	13530.08
443.948	13691.87
444.154	14414.8
444.361	14445.52
444.568	14466
444.774	14447.57
444.981	14478.29
445.187	15102.92
445.394	15702.97
445.6	15514.56
445.807	16952.23
446.013	16237.49
446.22	16315.31
446.426	17443.74
446.633	17314.72
446.839	17634.21
447.046	17189.8
447.252	18258.84
447.459	18107.29
447.665	17865.63
447.871	18664.33
448.078	19811.2
448.284	18600.85
448.491	19286.92
448.697	19895.16
448.903	20292.47
449.11	20374.39
449.316	19837.82
449.522	20401.01
449.728	20642.67
449.935	20943.72
450.141	20884.33
450.347	21412.71
450.553	20458.35
450.76	20720.49
450.966	21734.24
451.172	21414.76
451.378	22098.78
451.584	21119.85
451.791	22027.1
451.997	21769.05
452.203	22379.35
452.409	22172.5
452.615	21984.09
452.821	21064.55
453.027	21191.53
453.233	22240.09
453.44	21169
453.646	21414.76
453.852	21805.92
454.058	21820.25
454.264	20935.53
454.47	21558.11
454.676	20947.82
454.882	22027.1
455.088	19643.26
455.294	20069.24
455.5	20319.09
455.705	20790.13
455.911	20063.1
456.117	19334.02
456.323	18957.19
456.529	18187.16
456.735	18908.04
456.941	18396.05
457.147	18140.05
457.352	17306.53
457.558	17322.91
457.764	17370.02
457.97	17161.12
458.176	16612.27
458.381	16536.49
458.587	15881.14
458.793	15915.96
458.999	14914.5
459.204	16034.74
459.41	15444.93
459.616	14304.21
459.821	14578.64
460.027	14498.77
460.233	14253.01
460.438	13685.72
460.644	13673.43
460.85	12872.68
461.055	12645.35
461.261	12862.44
461.466	11592.7
461.672	11387.9
461.878	12192.75
462.083	11265.02
462.289	11004.93
462.494	11090.95
462.7	10548.23
462.905	10439.69
463.111	10687.5
463.316	10667.02
463.522	10550.28
463.727	10161.17
463.932	10376.2
464.138	10292.24
464.343	10273.81
464.549	9903.12
464.754	10335.24
464.959	10134.54
465.165	10222.61
465.37	9673.75
465.575	9288.73
465.781	9770.01
465.986	9770.01
466.191	9552.92
466.397	9409.56
466.602	8995.87
466.807	9112.61
467.012	9108.51
