Data from USB4F104151__100__12-13-19-798.txt Node

Date: Fri Mar 14 12:13:19 EDT 2025
User: louis
Spectrometer: USB4F10415
Trigger mode: 4
Integration Time (sec): 5.000000E-2
Scans to average: 1
Electric dark correction enabled: true
Nonlinearity correction enabled: false
Boxcar width: 0
XAxis mode: Wavelengths
Number of Pixels in Spectrum: 3648
>>>>>Begin Spectral Data<<<<<
178.204	-214.01
178.424	-214.01
178.644	-214.01
178.864	-214.01
179.084	-191.49
179.304	-5.12
179.524	-27.65
179.744	-50.18
179.964	111.61
180.184	-31.74
180.404	-27.65
180.624	62.46
180.844	-21.5
181.064	9.22
181.283	25.6
181.503	-50.18
181.723	5.12
181.943	-11.26
182.163	132.09
182.383	-5.12
182.602	52.22
182.822	41.98
183.042	68.61
183.262	-7.17
183.482	111.61
183.701	21.5
183.921	3.07
184.141	7.17
184.361	91.13
184.58	64.51
184.8	62.46
185.02	17.41
185.239	74.75
185.459	109.57
185.679	29.7
185.898	3.07
186.118	93.18
186.338	15.36
186.557	54.27
186.777	-50.18
186.997	31.74
187.216	52.22
187.436	117.76
187.655	60.42
187.875	78.85
188.095	62.46
188.314	144.38
188.534	48.13
188.753	27.65
188.973	128
189.192	117.76
189.412	72.7
189.631	60.42
189.851	78.85
190.07	119.81
190.29	121.85
190.509	39.94
190.729	-25.6
190.948	54.27
191.168	273.4
191.387	80.89
191.607	46.08
191.826	19.46
192.045	56.32
192.265	35.84
192.484	177.15
192.704	46.08
192.923	-17.41
193.142	128
193.362	-13.31
193.581	105.47
193.8	121.85
194.02	64.51
194.239	97.28
194.458	37.89
194.678	-9.22
194.897	87.04
195.116	60.42
195.335	76.8
195.555	84.99
195.774	72.7
195.993	35.84
196.212	58.37
196.432	23.55
196.651	93.18
196.87	60.42
197.089	128
197.308	37.89
197.528	64.51
197.747	37.89
197.966	113.66
198.185	173.05
198.404	33.79
198.623	35.84
198.842	48.13
199.062	13.31
199.281	119.81
199.5	101.37
199.719	72.7
199.938	50.18
200.157	68.61
200.376	78.85
200.595	150.53
200.814	-17.41
201.033	87.04
201.252	60.42
201.471	58.37
201.69	115.71
201.909	101.37
202.128	15.36
202.347	72.7
202.566	11.26
202.785	-23.55
203.004	56.32
203.223	199.68
203.442	70.65
203.661	89.09
203.879	50.18
204.098	111.61
204.317	-17.41
204.536	103.42
204.755	37.89
204.974	91.13
205.193	78.85
205.411	175.1
205.63	134.14
205.849	54.27
206.068	64.51
206.287	46.08
206.505	56.32
206.724	35.84
206.943	7.17
207.162	21.5
207.381	33.79
207.599	31.74
207.818	72.7
208.037	97.28
208.255	1.02
208.474	44.03
208.693	31.74
208.911	5.12
209.13	54.27
209.349	23.55
209.567	62.46
209.786	70.65
210.005	64.51
210.223	66.56
210.442	-74.75
210.661	52.22
210.879	-17.41
211.098	48.13
211.316	138.24
211.535	101.37
211.753	60.42
211.972	27.65
212.191	1.02
212.409	33.79
212.628	97.28
212.846	39.94
213.065	48.13
213.283	103.42
213.502	-33.79
213.72	27.65
213.938	-19.46
214.157	17.41
214.375	68.61
214.594	68.61
214.812	74.75
215.031	5.12
215.249	97.28
215.467	33.79
215.686	52.22
215.904	78.85
216.122	-21.5
216.341	117.76
216.559	33.79
216.778	48.13
216.996	103.42
217.214	93.18
217.432	103.42
217.651	-17.41
217.869	113.66
218.087	-19.46
218.306	39.94
218.524	74.75
218.742	52.22
218.96	87.04
219.179	31.74
219.397	117.76
219.615	97.28
219.833	17.41
220.051	58.37
220.27	132.09
220.488	21.5
220.706	93.18
220.924	1.02
221.142	-3.07
221.36	15.36
221.578	-5.12
221.796	56.32
222.015	11.26
222.233	7.17
222.451	76.8
222.669	17.41
222.887	44.03
223.105	58.37
223.323	123.9
223.541	46.08
223.759	95.23
223.977	50.18
224.195	150.53
224.413	91.13
224.631	101.37
224.849	-46.08
225.067	177.15
225.285	-62.46
225.503	101.37
225.721	3.07
225.939	5.12
226.157	46.08
226.375	205.82
226.592	-31.74
226.81	19.46
227.028	109.57
227.246	87.04
227.464	76.8
227.682	132.09
227.9	121.85
228.117	68.61
228.335	93.18
228.553	50.18
228.771	27.65
228.989	50.18
229.206	64.51
229.424	-1.02
229.642	46.08
229.86	-9.22
230.077	99.33
230.295	41.98
230.513	21.5
230.731	78.85
230.948	105.47
231.166	121.85
231.384	-50.18
231.601	11.26
231.819	3.07
232.037	-66.56
232.254	-3.07
232.472	89.09
232.689	70.65
232.907	107.52
233.125	64.51
233.342	113.66
233.56	44.03
233.777	44.03
233.995	48.13
234.213	103.42
234.43	41.98
234.648	37.89
234.865	11.26
235.083	171.01
235.3	31.74
235.518	138.24
235.735	50.18
235.953	82.94
236.17	35.84
236.388	39.94
236.605	-5.12
236.822	144.38
237.04	-46.08
237.257	44.03
237.475	48.13
237.692	121.85
237.909	19.46
238.127	35.84
238.344	99.33
238.562	39.94
238.779	27.65
238.996	-15.36
239.214	27.65
239.431	128
239.648	52.22
239.865	25.6
240.083	72.7
240.3	117.76
240.517	-5.12
240.735	58.37
240.952	97.28
241.169	128
241.386	27.65
241.603	95.23
241.821	95.23
242.038	76.8
242.255	41.98
242.472	19.46
242.689	125.95
242.907	39.94
243.124	56.32
243.341	84.99
243.558	-7.17
243.775	29.7
243.992	19.46
244.209	64.51
244.426	93.18
244.643	111.61
244.86	78.85
245.078	140.29
245.295	84.99
245.512	58.37
245.729	44.03
245.946	37.89
246.163	70.65
246.38	60.42
246.597	68.61
246.814	39.94
247.031	64.51
247.248	-3.07
247.464	146.43
247.681	52.22
247.898	52.22
248.115	113.66
248.332	21.5
248.549	76.8
248.766	152.57
248.983	97.28
249.2	56.32
249.417	128
249.633	72.7
249.85	60.42
250.067	-5.12
250.284	54.27
250.501	25.6
250.717	82.94
250.934	3.07
251.151	50.18
251.368	15.36
251.585	70.65
251.801	74.75
252.018	50.18
252.235	128
252.451	31.74
252.668	-23.55
252.885	54.27
253.102	93.18
253.318	31.74
253.535	-52.22
253.752	33.79
253.968	9.22
254.185	19.46
254.401	54.27
254.618	78.85
254.835	80.89
255.051	199.68
255.268	99.33
255.484	70.65
255.701	70.65
255.917	142.33
256.134	37.89
256.351	5.12
256.567	50.18
256.784	-11.26
257	74.75
257.217	60.42
257.433	125.95
257.65	37.89
257.866	123.9
258.082	46.08
258.299	70.65
258.515	70.65
258.732	-35.84
258.948	-66.56
259.165	87.04
259.381	29.7
259.597	121.85
259.814	119.81
260.03	-87.04
260.246	31.74
260.463	117.76
260.679	48.13
260.895	1.02
261.112	48.13
261.328	-7.17
261.544	27.65
261.761	109.57
261.977	29.7
262.193	-56.32
262.409	-1.02
262.626	64.51
262.842	54.27
263.058	19.46
263.274	44.03
263.49	66.56
263.707	138.24
263.923	64.51
264.139	-89.09
264.355	64.51
264.571	132.09
264.787	64.51
265.004	142.33
265.22	58.37
265.436	31.74
265.652	11.26
265.868	11.26
266.084	52.22
266.3	41.98
266.516	3.07
266.732	74.75
266.948	80.89
267.164	13.31
267.38	64.51
267.596	15.36
267.812	39.94
268.028	52.22
268.244	-52.22
268.46	27.65
268.676	23.55
268.892	152.57
269.108	23.55
269.324	3.07
269.54	41.98
269.756	60.42
269.972	33.79
270.188	54.27
270.403	5.12
270.619	66.56
270.835	78.85
271.051	44.03
271.267	48.13
271.483	21.5
271.698	130.05
271.914	101.37
272.13	111.61
272.346	103.42
272.562	15.36
272.777	142.33
272.993	46.08
273.209	62.46
273.425	89.09
273.64	17.41
273.856	109.57
274.072	19.46
274.287	60.42
274.503	95.23
274.719	23.55
274.934	74.75
275.15	-15.36
275.366	46.08
275.581	17.41
275.797	-3.07
276.012	93.18
276.228	76.8
276.444	5.12
276.659	31.74
276.875	60.42
277.09	35.84
277.306	37.89
277.521	72.7
277.737	31.74
277.952	136.19
278.168	64.51
278.383	31.74
278.599	13.31
278.814	56.32
279.03	13.31
279.245	87.04
279.461	80.89
279.676	84.99
279.892	58.37
280.107	31.74
280.322	37.89
280.538	144.38
280.753	-3.07
280.969	80.89
281.184	48.13
281.399	74.75
281.615	25.6
281.83	39.94
282.045	35.84
282.26	95.23
282.476	50.18
282.691	3.07
282.906	39.94
283.122	66.56
283.337	-33.79
283.552	60.42
283.767	-31.74
283.983	103.42
284.198	84.99
284.413	97.28
284.628	-5.12
284.843	91.13
285.058	37.89
285.274	39.94
285.489	-48.13
285.704	132.09
285.919	60.42
286.134	58.37
286.349	23.55
286.564	130.05
286.779	128
286.995	54.27
287.21	9.22
287.425	50.18
287.64	37.89
287.855	27.65
288.07	21.5
288.285	64.51
288.5	62.46
288.715	70.65
288.93	54.27
289.145	44.03
289.36	101.37
289.575	7.17
289.79	134.14
290.004	13.31
290.219	66.56
290.434	64.51
290.649	-1.02
290.864	99.33
291.079	-19.46
291.294	80.89
291.509	117.76
291.724	84.99
291.938	9.22
292.153	76.8
292.368	39.94
292.583	101.37
292.798	101.37
293.012	-15.36
293.227	97.28
293.442	3.07
293.657	48.13
293.871	201.72
294.086	17.41
294.301	103.42
294.516	115.71
294.73	5.12
294.945	23.55
295.16	80.89
295.374	101.37
295.589	70.65
295.804	58.37
296.018	31.74
296.233	72.7
296.447	66.56
296.662	-5.12
296.877	93.18
297.091	74.75
297.306	7.17
297.52	60.42
297.735	56.32
297.949	109.57
298.164	66.56
298.378	78.85
298.593	-9.22
298.807	41.98
299.022	78.85
299.236	109.57
299.451	7.17
299.665	41.98
299.88	93.18
300.094	-21.5
300.309	3.07
300.523	1.02
300.737	103.42
300.952	60.42
301.166	87.04
301.381	41.98
301.595	58.37
301.809	37.89
302.024	62.46
302.238	11.26
302.452	95.23
302.667	-3.07
302.881	89.09
303.095	109.57
303.309	-5.12
303.524	66.56
303.738	15.36
303.952	103.42
304.166	19.46
304.381	-1.02
304.595	101.37
304.809	3.07
305.023	-17.41
305.237	-7.17
305.452	41.98
305.666	105.47
305.88	113.66
306.094	111.61
306.308	68.61
306.522	91.13
306.736	111.61
306.95	11.26
307.164	78.85
307.379	39.94
307.593	173.05
307.807	113.66
308.021	60.42
308.235	144.38
308.449	-7.17
308.663	19.46
308.877	99.33
309.091	74.75
309.305	68.61
309.519	-58.37
309.733	115.71
309.947	17.41
310.161	113.66
310.374	58.37
310.588	99.33
310.802	-13.31
311.016	87.04
311.23	76.8
311.444	95.23
311.658	13.31
311.872	78.85
312.085	66.56
312.299	109.57
312.513	93.18
312.727	-5.12
312.941	-1.02
313.154	-25.6
313.368	60.42
313.582	39.94
313.796	91.13
314.009	-1.02
314.223	72.7
314.437	7.17
314.651	103.42
314.864	70.65
315.078	19.46
315.292	-39.94
315.505	64.51
315.719	25.6
315.933	123.9
316.146	35.84
316.36	-21.5
316.573	64.51
316.787	128
317.001	46.08
317.214	-29.7
317.428	105.47
317.641	11.26
317.855	64.51
318.068	35.84
318.282	154.62
318.495	142.33
318.709	95.23
318.922	13.31
319.136	132.09
319.349	87.04
319.563	56.32
319.776	-25.6
319.99	11.26
320.203	80.89
320.417	15.36
320.63	54.27
320.843	158.72
321.057	56.32
321.27	95.23
321.483	66.56
321.697	62.46
321.91	35.84
322.124	60.42
322.337	66.56
322.55	7.17
322.763	97.28
322.977	25.6
323.19	5.12
323.403	70.65
323.617	50.18
323.83	64.51
324.043	27.65
324.256	74.75
324.469	31.74
324.683	166.91
324.896	68.61
325.109	46.08
325.322	-35.84
325.535	80.89
325.748	33.79
325.962	13.31
326.175	48.13
326.388	150.53
326.601	52.22
326.814	103.42
327.027	21.5
327.24	134.14
327.453	44.03
327.666	138.24
327.879	66.56
328.092	-33.79
328.305	68.61
328.518	31.74
328.731	35.84
328.944	3.07
329.157	119.81
329.37	58.37
329.583	224.25
329.796	125.95
330.009	3.07
330.222	87.04
330.435	103.42
330.648	80.89
330.861	17.41
331.073	72.7
331.286	109.57
331.499	125.95
331.712	11.26
331.925	91.13
332.138	91.13
332.35	52.22
332.563	-15.36
332.776	80.89
332.989	29.7
333.202	97.28
333.414	44.03
333.627	87.04
333.84	93.18
334.053	72.7
334.265	58.37
334.478	-23.55
334.691	44.03
334.903	58.37
335.116	-33.79
335.329	93.18
335.541	52.22
335.754	160.77
335.966	37.89
336.179	44.03
336.392	-1.02
336.604	29.7
336.817	103.42
337.029	54.27
337.242	37.89
337.454	93.18
337.667	91.13
337.88	144.38
338.092	99.33
338.305	134.14
338.517	23.55
338.729	162.81
338.942	150.53
339.154	5.12
339.367	-39.94
339.579	19.46
339.792	23.55
340.004	115.71
340.217	3.07
340.429	93.18
340.641	-1.02
340.854	44.03
341.066	62.46
341.278	64.51
341.491	181.25
341.703	142.33
341.915	56.32
342.128	121.85
342.34	58.37
342.552	-15.36
342.764	105.47
342.977	37.89
343.189	19.46
343.401	101.37
343.613	70.65
343.826	13.31
344.038	-15.36
344.25	113.66
344.462	23.55
344.674	78.85
344.886	48.13
345.099	80.89
345.311	111.61
345.523	109.57
345.735	3.07
345.947	1.02
346.159	95.23
346.371	82.94
346.583	160.77
346.795	173.05
347.007	76.8
347.219	27.65
347.431	62.46
347.643	130.05
347.855	80.89
348.067	203.77
348.279	-21.5
348.491	93.18
348.703	13.31
348.915	-13.31
349.127	44.03
349.339	29.7
349.551	87.04
349.763	68.61
349.975	109.57
350.187	97.28
350.399	62.46
350.61	89.09
350.822	-3.07
351.034	-3.07
351.246	130.05
351.458	13.31
351.669	48.13
351.881	128
352.093	52.22
352.305	117.76
352.517	93.18
352.728	109.57
352.94	136.19
353.152	60.42
353.363	74.75
353.575	150.53
353.787	166.91
353.999	62.46
354.21	164.86
354.422	-19.46
354.633	-7.17
354.845	9.22
355.057	56.32
355.268	66.56
355.48	52.22
355.692	60.42
355.903	-7.17
356.115	72.7
356.326	27.65
356.538	117.76
356.749	66.56
356.961	123.9
357.172	35.84
357.384	25.6
357.595	146.43
357.807	56.32
358.018	35.84
358.23	27.65
358.441	203.77
358.653	93.18
358.864	44.03
359.075	39.94
359.287	78.85
359.498	93.18
359.709	44.03
359.921	70.65
360.132	91.13
360.344	72.7
360.555	72.7
360.766	140.29
360.977	25.6
361.189	60.42
361.4	9.22
361.611	134.14
361.823	95.23
362.034	97.28
362.245	58.37
362.456	1.02
362.667	154.62
362.879	25.6
363.09	37.89
363.301	103.42
363.512	50.18
363.723	-68.61
363.935	78.85
364.146	54.27
364.357	-11.26
364.568	-15.36
364.779	80.89
364.99	130.05
365.201	41.98
365.412	181.25
365.623	-48.13
365.834	21.5
366.045	111.61
366.256	132.09
366.467	87.04
366.678	50.18
366.889	23.55
367.1	72.7
367.311	84.99
367.522	27.65
367.733	128
367.944	48.13
368.155	35.84
368.366	160.77
368.577	99.33
368.788	84.99
368.999	-11.26
369.209	35.84
369.42	99.33
369.631	160.77
369.842	101.37
370.053	23.55
370.264	95.23
370.474	95.23
370.685	121.85
370.896	82.94
371.107	78.85
371.317	72.7
371.528	66.56
371.739	146.43
371.95	52.22
372.16	9.22
372.371	-17.41
372.582	23.55
372.792	80.89
373.003	117.76
373.214	144.38
373.424	89.09
373.635	-17.41
373.846	152.57
374.056	54.27
374.267	125.95
374.477	19.46
374.688	58.37
374.898	13.31
375.109	72.7
375.319	-11.26
375.53	183.29
375.74	130.05
375.951	39.94
376.161	19.46
376.372	146.43
376.582	82.94
376.793	166.91
377.003	107.52
377.214	-27.65
377.424	39.94
377.635	31.74
377.845	54.27
378.055	166.91
378.266	15.36
378.476	11.26
378.686	70.65
378.897	119.81
379.107	121.85
379.317	148.48
379.528	3.07
379.738	203.77
379.948	-3.07
380.158	115.71
380.369	15.36
380.579	44.03
380.789	93.18
380.999	76.8
381.21	119.81
381.42	62.46
381.63	54.27
381.84	56.32
382.05	150.53
382.261	109.57
382.471	91.13
382.681	-1.02
382.891	146.43
383.101	37.89
383.311	-7.17
383.521	78.85
383.731	52.22
383.941	70.65
384.151	125.95
384.361	89.09
384.571	99.33
384.781	121.85
384.991	95.23
385.201	211.96
385.411	56.32
385.621	109.57
385.831	150.53
386.041	115.71
386.251	125.95
386.461	181.25
386.671	54.27
386.881	117.76
387.091	101.37
387.301	150.53
387.511	132.09
387.72	111.61
387.93	76.8
388.14	27.65
388.35	87.04
388.56	189.44
388.769	179.2
388.979	76.8
389.189	74.75
389.399	68.61
389.609	105.47
389.818	125.95
390.028	91.13
390.238	123.9
390.447	-1.02
390.657	95.23
390.867	72.7
391.076	99.33
391.286	138.24
391.496	105.47
391.705	115.71
391.915	74.75
392.125	80.89
392.334	25.6
392.544	123.9
392.753	54.27
392.963	66.56
393.172	130.05
393.382	93.18
393.591	183.29
393.801	46.08
394.01	125.95
394.22	105.47
394.429	91.13
394.639	95.23
394.848	84.99
395.058	91.13
395.267	113.66
395.477	103.42
395.686	146.43
395.895	134.14
396.105	216.06
396.314	103.42
396.524	136.19
396.733	160.77
396.942	187.39
397.152	152.57
397.361	138.24
397.57	101.37
397.78	91.13
397.989	134.14
398.198	197.63
398.407	80.89
398.617	107.52
398.826	101.37
399.035	91.13
399.244	177.15
399.453	78.85
399.663	187.39
399.872	150.53
400.081	117.76
400.29	195.58
400.499	168.96
400.708	246.78
400.917	119.81
401.127	162.81
401.336	72.7
401.545	185.34
401.754	189.44
401.963	150.53
402.172	136.19
402.381	117.76
402.59	128
402.799	128
403.008	177.15
403.217	209.92
403.426	125.95
403.635	152.57
403.844	148.48
404.053	84.99
404.262	107.52
404.471	234.49
404.68	140.29
404.888	187.39
405.097	87.04
405.306	209.92
405.515	162.81
405.724	173.05
405.933	191.49
406.142	187.39
406.35	242.68
406.559	197.63
406.768	211.96
406.977	275.45
407.185	234.49
407.394	222.2
407.603	209.92
407.812	277.5
408.02	250.88
408.229	320.51
408.438	289.79
408.646	179.2
408.855	175.1
409.064	343.03
409.272	322.56
409.481	310.27
409.69	295.93
409.898	295.93
410.107	340.99
410.315	424.95
410.524	355.32
410.733	400.38
410.941	318.46
411.15	404.47
411.358	476.15
411.567	433.15
411.775	420.86
411.984	467.96
412.192	504.82
412.401	515.06
412.609	515.06
412.818	594.93
413.026	539.64
413.234	465.91
413.443	537.59
413.651	545.78
413.86	644.09
414.068	719.86
414.276	599.03
414.485	621.56
414.693	771.06
414.901	715.77
415.11	666.61
415.318	719.86
415.526	771.06
415.734	828.4
415.943	799.73
416.151	846.84
416.359	945.14
416.567	898.03
416.776	887.79
416.984	1002.48
417.192	1076.21
417.4	936.95
417.608	984.05
417.817	1156.08
418.025	1074.16
418.233	1244.14
418.441	1123.31
418.649	1272.81
418.857	1248.24
419.065	1301.48
419.273	1291.24
419.481	1340.4
419.689	1450.99
419.897	1541.1
420.105	1602.54
420.313	1563.62
420.521	1733.61
420.729	1739.75
420.937	1688.55
421.145	1838.05
421.353	1819.62
421.561	1993.7
421.769	1981.41
421.977	2075.62
422.185	2034.66
422.393	2198.49
422.601	2452.44
422.809	2249.69
423.017	2395.1
423.224	2438.11
423.432	2571.22
423.64	2501.59
423.848	2888.66
424.056	2741.21
424.263	2907.09
424.471	2909.14
424.679	2986.96
424.887	3015.63
425.094	3218.38
425.302	3267.53
425.51	3435.47
425.718	3615.69
425.925	3484.62
426.133	3587.02
426.341	3789.77
426.548	3965.89
426.756	3775.43
426.964	4135.87
427.171	4352.96
427.379	4375.49
427.586	4359.1
427.794	4699.06
428.001	4746.17
428.209	5012.4
428.417	4889.53
428.624	5209.01
428.832	5182.38
429.039	5061.55
429.247	5073.84
429.454	5786.54
429.662	6108.07
429.869	5671.85
430.076	6179.75
430.284	6126.5
430.491	6230.94
430.699	6423.45
430.906	6544.28
431.114	6769.56
431.321	6753.18
431.528	6861.72
431.736	7363.47
431.943	7574.41
432.15	7558.03
432.358	7738.25
432.565	8125.32
432.772	7871.37
432.979	8414.08
433.187	8639.36
433.394	8590.2
433.601	8973.18
433.808	9325.43
434.016	9094.01
434.223	9610.09
434.43	10234.72
434.637	10150.76
434.844	10699.61
435.052	10773.34
435.259	10548.06
435.466	10773.34
435.673	10775.39
435.88	11457.36
436.087	12190.53
436.294	12069.7
436.501	11682.64
436.708	12041.03
436.915	12170.05
437.122	12886.84
437.329	12739.39
437.537	13490.99
437.743	13685.55
437.95	13366.07
438.157	14240.55
438.364	14615.33
438.571	14701.34
438.778	14703.39
438.985	16120.59
439.192	15436.56
439.399	15837.97
439.606	15502.1
439.813	16583.43
440.02	17572.6
440.227	17193.72
440.433	16800.51
440.64	17433.33
440.847	17171.19
441.054	17978.09
441.261	19108.57
441.467	18893.54
441.674	19217.11
441.881	19516.12
442.088	19894.99
442.294	19718.87
442.501	20337.35
442.708	20449.99
442.914	21209.79
443.121	22358.7
443.328	21596.85
443.534	23261.85
443.741	22713
443.948	22436.52
444.154	24046.23
444.361	23792.28
444.568	23947.92
444.774	23835.28
444.981	24068.75
445.187	25094.79
445.394	26116.72
445.6	25473.66
445.807	28406.35
446.013	26937.96
446.22	27634.27
446.426	28686.92
446.633	28805.7
446.839	30009.91
447.046	28283.47
447.252	30399.02
447.459	30102.07
447.665	29901.37
447.871	31773.21
448.078	32932.36
448.284	31136.29
448.491	31842.84
448.697	32954.89
448.903	33856
449.11	33968.63
449.316	33597.95
449.522	34081.27
449.728	35092.97
449.935	35056.11
450.141	35312.1
450.347	35842.53
450.553	34646.51
450.76	35404.26
450.966	36317.65
451.172	35869.15
451.378	37224.9
451.584	36276.69
451.791	36993.48
451.997	37079.5
452.203	37732.8
452.409	37892.54
452.615	37554.63
452.821	36368.85
453.027	35516.9
453.233	37663.17
453.44	36164.06
453.646	36655.57
453.852	36864.46
454.058	37185.99
454.264	36301.27
454.47	36809.17
454.676	35971.55
454.882	37390.79
455.088	34120.18
455.294	34822.64
455.5	34705.9
455.705	35676.64
455.911	34271.73
456.117	33366.53
456.323	32782.86
456.529	31250.98
456.735	32576.01
456.941	31935
457.147	31072.81
457.352	30224.95
457.558	30161.46
457.764	30317.11
457.97	29489.73
458.176	29239.87
458.381	29063.75
458.587	27447.9
458.793	27798.1
458.999	26126.96
459.204	27791.96
459.41	27189.86
459.616	25567.87
459.821	25528.95
460.027	25135.74
460.233	24803.97
460.438	23622.3
460.644	23732.89
460.85	22868.64
461.055	22201.01
461.261	22250.16
461.466	20724.42
461.672	19989.2
461.878	21422.78
462.083	20138.7
462.289	19624.66
462.494	19223.26
462.7	18696.93
462.905	18113.26
463.111	18690.79
463.316	18789.09
463.522	18586.34
463.727	18465.51
463.932	18647.78
464.138	18467.56
464.343	18244.33
464.549	17879.79
464.754	18141.93
464.959	17873.65
465.165	18049.77
465.37	17410.81
465.575	16816.9
465.781	17658.61
465.986	17591.03
