Data from USB4F104151__60__12-12-26-404.txt Node

Date: Fri Mar 14 12:12:26 EDT 2025
User: louis
Spectrometer: USB4F10415
Trigger mode: 4
Integration Time (sec): 5.000000E-2
Scans to average: 1
Electric dark correction enabled: true
Nonlinearity correction enabled: false
Boxcar width: 0
XAxis mode: Wavelengths
Number of Pixels in Spectrum: 3648
>>>>>Begin Spectral Data<<<<<
178.204	-239.95
178.424	-239.95
178.644	-239.95
178.864	-254.29
179.084	-217.43
179.304	3.75
179.524	-26.96
179.744	-37.2
179.964	71.34
180.184	16.04
180.404	-63.83
180.624	-41.3
180.844	67.24
181.064	-16.73
181.283	-2.39
181.503	-2.39
181.723	32.43
181.943	-84.31
182.163	173.74
182.383	5.8
182.602	18.09
182.822	89.77
183.042	5.8
183.262	-14.68
183.482	24.23
183.701	118.44
183.921	5.8
184.141	3.75
184.361	7.85
184.58	65.19
184.8	59.05
185.02	81.58
185.239	102.06
185.459	-14.68
185.679	5.8
185.898	5.8
186.118	5.8
186.338	57
186.557	11.95
186.777	-20.82
186.997	-24.92
187.216	-10.58
187.436	108.2
187.655	28.33
187.875	34.47
188.095	-43.35
188.314	130.73
188.534	79.53
188.753	-20.82
188.973	46.76
189.192	81.58
189.412	-10.58
189.631	-6.49
189.851	32.43
190.07	63.15
190.29	9.9
190.509	24.23
190.729	-8.53
190.948	100.01
191.168	190.12
191.387	65.19
191.607	-8.53
191.826	16.04
192.045	48.81
192.265	26.28
192.484	77.48
192.704	13.99
192.923	-16.73
193.142	128.68
193.362	67.24
193.581	108.2
193.8	36.52
194.02	30.38
194.239	-10.58
194.458	104.11
194.678	46.76
194.897	65.19
195.116	40.62
195.335	57
195.555	69.29
195.774	-0.34
195.993	48.81
196.212	73.39
196.432	5.8
196.651	38.57
196.87	-18.77
197.089	149.16
197.308	16.04
197.528	132.78
197.747	42.67
197.966	22.19
198.185	147.11
198.404	69.29
198.623	-2.39
198.842	114.34
199.062	-18.77
199.281	52.91
199.5	36.52
199.719	46.76
199.938	100.01
200.157	73.39
200.376	50.86
200.595	110.25
200.814	7.85
201.033	-10.58
201.252	44.71
201.471	9.9
201.69	77.48
201.909	-8.53
202.128	61.1
202.347	63.15
202.566	11.95
202.785	20.14
203.004	22.19
203.223	83.63
203.442	40.62
203.661	-31.06
203.879	3.75
204.098	11.95
204.317	-24.92
204.536	112.3
204.755	3.75
204.974	69.29
205.193	71.34
205.411	61.1
205.63	20.14
205.849	16.04
206.068	5.8
206.287	57
206.505	-59.73
206.724	34.47
206.943	3.75
207.162	30.38
207.381	42.67
207.599	44.71
207.818	36.52
208.037	-2.39
208.255	102.06
208.474	-8.53
208.693	67.24
208.911	34.47
209.13	30.38
209.349	36.52
209.567	40.62
209.786	83.63
210.005	65.19
210.223	71.34
210.442	-12.63
210.661	-43.35
210.879	-12.63
211.098	-39.25
211.316	89.77
211.535	34.47
211.753	89.77
211.972	102.06
212.191	46.76
212.409	44.71
212.628	11.95
212.846	-0.34
213.065	102.06
213.283	140.97
213.502	40.62
213.72	-4.44
213.938	36.52
214.157	5.8
214.375	42.67
214.594	-45.4
214.812	28.33
215.031	34.47
215.249	59.05
215.467	75.43
215.686	20.14
215.904	77.48
216.122	-31.06
216.341	87.72
216.559	57
216.778	16.04
216.996	38.57
217.214	48.81
217.432	-72.02
217.651	-63.83
217.869	52.91
218.087	-16.73
218.306	34.47
218.524	75.43
218.742	75.43
218.96	114.34
219.179	1.71
219.397	11.95
219.615	83.63
219.833	63.15
220.051	46.76
220.27	93.87
220.488	61.1
220.706	69.29
220.924	16.04
221.142	3.75
221.36	57
221.578	44.71
221.796	9.9
222.015	3.75
222.233	-4.44
222.451	87.72
222.669	7.85
222.887	71.34
223.105	-37.2
223.323	71.34
223.541	54.95
223.759	59.05
223.977	89.77
224.195	102.06
224.413	20.14
224.631	122.54
224.849	65.19
225.067	73.39
225.285	-6.49
225.503	59.05
225.721	-53.59
225.939	-4.44
226.157	18.09
226.375	173.74
226.592	-12.63
226.81	42.67
227.028	95.91
227.246	57
227.464	38.57
227.682	-10.58
227.9	79.53
228.117	11.95
228.335	1.71
228.553	-12.63
228.771	-2.39
228.989	-10.58
229.206	36.52
229.424	-18.77
229.642	-4.44
229.86	-20.82
230.077	83.63
230.295	-16.73
230.513	77.48
230.731	81.58
230.948	61.1
231.166	42.67
231.384	-0.34
231.601	77.48
231.819	63.15
232.037	73.39
232.254	5.8
232.472	-33.11
232.689	52.91
232.907	112.3
233.125	112.3
233.342	79.53
233.56	46.76
233.777	136.87
233.995	32.43
234.213	124.58
234.43	50.86
234.648	28.33
234.865	67.24
235.083	59.05
235.3	16.04
235.518	-12.63
235.735	9.9
235.953	16.04
236.17	7.85
236.388	24.23
236.605	-6.49
236.822	44.71
237.04	61.1
237.257	52.91
237.475	26.28
237.692	36.52
237.909	3.75
238.127	-22.87
238.344	79.53
238.562	28.33
238.779	3.75
238.996	-106.84
239.214	75.43
239.431	38.57
239.648	81.58
239.865	59.05
240.083	67.24
240.3	-0.34
240.517	5.8
240.735	44.71
240.952	124.58
241.169	48.81
241.386	67.24
241.603	50.86
241.821	7.85
242.038	104.11
242.255	46.76
242.472	7.85
242.689	69.29
242.907	57
243.124	54.95
243.341	-8.53
243.558	-2.39
243.775	-96.6
243.992	-26.96
244.209	22.19
244.426	108.2
244.643	24.23
244.86	-10.58
245.078	97.96
245.295	79.53
245.512	38.57
245.729	-8.53
245.946	20.14
246.163	54.95
246.38	26.28
246.597	44.71
246.814	48.81
247.031	9.9
247.248	-14.68
247.464	11.95
247.681	36.52
247.898	30.38
248.115	87.72
248.332	5.8
248.549	46.76
248.766	75.43
248.983	87.72
249.2	44.71
249.417	114.34
249.633	3.75
249.85	13.99
250.067	-6.49
250.284	-8.53
250.501	42.67
250.717	128.68
250.934	-12.63
251.151	22.19
251.368	44.71
251.585	81.58
251.801	40.62
252.018	1.71
252.235	40.62
252.451	30.38
252.668	28.33
252.885	102.06
253.102	44.71
253.318	-69.97
253.535	16.04
253.752	-0.34
253.968	46.76
254.185	-94.55
254.401	48.81
254.618	63.15
254.835	-20.82
255.051	63.15
255.268	110.25
255.484	138.92
255.701	48.81
255.917	75.43
256.134	16.04
256.351	95.91
256.567	-43.35
256.784	67.24
257	-45.4
257.217	67.24
257.433	71.34
257.65	30.38
257.866	122.54
258.082	-18.77
258.299	5.8
258.515	-67.92
258.732	-2.39
258.948	-57.68
259.165	89.77
259.381	102.06
259.597	-16.73
259.814	-47.44
260.03	-20.82
260.246	136.87
260.463	93.87
260.679	171.69
260.895	71.34
261.112	28.33
261.328	-43.35
261.544	13.99
261.761	85.67
261.977	24.23
262.193	-0.34
262.409	165.54
262.626	91.82
262.842	134.82
263.058	-6.49
263.274	46.76
263.49	48.81
263.707	87.72
263.923	67.24
264.139	1.71
264.355	32.43
264.571	153.26
264.787	34.47
265.004	89.77
265.22	24.23
265.436	11.95
265.652	-47.44
265.868	30.38
266.084	-18.77
266.3	26.28
266.516	-31.06
266.732	61.1
266.948	5.8
267.164	50.86
267.38	30.38
267.596	75.43
267.812	18.09
268.028	36.52
268.244	44.71
268.46	40.62
268.676	-6.49
268.892	83.63
269.108	-2.39
269.324	46.76
269.54	1.71
269.756	81.58
269.972	-39.25
270.188	3.75
270.403	61.1
270.619	73.39
270.835	87.72
271.051	32.43
271.267	7.85
271.483	110.25
271.698	18.09
271.914	32.43
272.13	-0.34
272.346	18.09
272.562	28.33
272.777	106.15
272.993	83.63
273.209	26.28
273.425	50.86
273.64	7.85
273.856	-24.92
274.072	28.33
274.287	9.9
274.503	18.09
274.719	22.19
274.934	71.34
275.15	54.95
275.366	77.48
275.581	-6.49
275.797	61.1
276.012	-37.2
276.228	13.99
276.444	-18.77
276.659	106.15
276.875	3.75
277.09	-16.73
277.306	-16.73
277.521	46.76
277.737	-43.35
277.952	59.05
278.168	18.09
278.383	67.24
278.599	13.99
278.814	42.67
279.03	67.24
279.245	122.54
279.461	-14.68
279.676	42.67
279.892	-8.53
280.107	16.04
280.322	-51.54
280.538	20.14
280.753	9.9
280.969	52.91
281.184	40.62
281.399	57
281.615	20.14
281.83	26.28
282.045	-63.83
282.26	16.04
282.476	48.81
282.691	93.87
282.906	-14.68
283.122	48.81
283.337	57
283.552	28.33
283.767	36.52
283.983	50.86
284.198	32.43
284.413	102.06
284.628	-8.53
284.843	38.57
285.058	44.71
285.274	36.52
285.489	22.19
285.704	120.49
285.919	1.71
286.134	59.05
286.349	52.91
286.564	-14.68
286.779	110.25
286.995	9.9
287.21	-16.73
287.425	3.75
287.64	77.48
287.855	30.38
288.07	-18.77
288.285	61.1
288.5	97.96
288.715	36.52
288.93	-31.06
289.145	18.09
289.36	73.39
289.575	-41.3
289.79	126.63
290.004	54.95
290.219	54.95
290.434	75.43
290.649	-53.59
290.864	1.71
291.079	18.09
291.294	42.67
291.509	61.1
291.724	11.95
291.938	-72.02
292.153	75.43
292.368	28.33
292.583	50.86
292.798	-10.58
293.012	77.48
293.227	114.34
293.442	34.47
293.657	126.63
293.871	100.01
294.086	57
294.301	130.73
294.516	120.49
294.73	-10.58
294.945	-24.92
295.16	3.75
295.374	61.1
295.589	-4.44
295.804	11.95
296.018	22.19
296.233	138.92
296.447	67.24
296.662	-35.16
296.877	95.91
297.091	155.3
297.306	-2.39
297.52	18.09
297.735	28.33
297.949	153.26
298.164	112.3
298.378	13.99
298.593	48.81
298.807	22.19
299.022	122.54
299.236	54.95
299.451	77.48
299.665	13.99
299.88	7.85
300.094	138.92
300.309	69.29
300.523	65.19
300.737	3.75
300.952	67.24
301.166	13.99
301.381	16.04
301.595	18.09
301.809	36.52
302.024	-6.49
302.238	7.85
302.452	71.34
302.667	-63.83
302.881	104.11
303.095	42.67
303.309	13.99
303.524	-6.49
303.738	50.86
303.952	-20.82
304.166	18.09
304.381	-65.88
304.595	110.25
304.809	30.38
305.023	36.52
305.237	48.81
305.452	40.62
305.666	73.39
305.88	65.19
306.094	20.14
306.308	77.48
306.522	46.76
306.736	95.91
306.95	54.95
307.164	73.39
307.379	-59.73
307.593	108.2
307.807	65.19
308.021	40.62
308.235	71.34
308.449	-43.35
308.663	52.91
308.877	102.06
309.091	13.99
309.305	77.48
309.519	-55.64
309.733	38.57
309.947	30.38
310.161	89.77
310.374	159.4
310.588	77.48
310.802	-43.35
311.016	28.33
311.23	-2.39
311.444	16.04
311.658	36.52
311.872	112.3
312.085	71.34
312.299	151.21
312.513	40.62
312.727	-0.34
312.941	38.57
313.154	75.43
313.368	30.38
313.582	77.48
313.796	67.24
314.009	40.62
314.223	-35.16
314.437	50.86
314.651	83.63
314.864	20.14
315.078	46.76
315.292	-14.68
315.505	-51.54
315.719	-18.77
315.933	50.86
316.146	28.33
316.36	22.19
316.573	73.39
316.787	104.11
317.001	40.62
317.214	44.71
317.428	38.57
317.641	-2.39
317.855	108.2
318.068	16.04
318.282	30.38
318.495	73.39
318.709	120.49
318.922	36.52
319.136	57
319.349	26.28
319.563	34.47
319.776	59.05
319.99	-26.96
320.203	54.95
320.417	50.86
320.63	116.39
320.843	161.45
321.057	69.29
321.27	16.04
321.483	28.33
321.697	44.71
321.91	3.75
322.124	69.29
322.337	57
322.55	42.67
322.763	87.72
322.977	34.47
323.19	59.05
323.403	16.04
323.617	5.8
323.83	63.15
324.043	63.15
324.256	20.14
324.469	-2.39
324.683	104.11
324.896	57
325.109	11.95
325.322	59.05
325.535	18.09
325.748	-33.11
325.962	-16.73
326.175	16.04
326.388	87.72
326.601	38.57
326.814	-4.44
327.027	91.82
327.24	118.44
327.453	5.8
327.666	128.68
327.879	22.19
328.092	83.63
328.305	-29.01
328.518	108.2
328.731	81.58
328.944	48.81
329.157	-20.82
329.37	48.81
329.583	81.58
329.796	126.63
330.009	-16.73
330.222	83.63
330.435	44.71
330.648	40.62
330.861	26.28
331.073	52.91
331.286	48.81
331.499	112.3
331.712	-8.53
331.925	54.95
332.138	87.72
332.35	87.72
332.563	-33.11
332.776	140.97
332.989	22.19
333.202	-24.92
333.414	16.04
333.627	36.52
333.84	91.82
334.053	34.47
334.265	-18.77
334.478	63.15
334.691	134.82
334.903	-39.25
335.116	11.95
335.329	63.15
335.541	16.04
335.754	138.92
335.966	1.71
336.179	9.9
336.392	-55.64
336.604	57
336.817	89.77
337.029	13.99
337.242	28.33
337.454	26.28
337.667	71.34
337.88	163.5
338.092	63.15
338.305	95.91
338.517	-22.87
338.729	85.67
338.942	118.44
339.154	18.09
339.367	20.14
339.579	40.62
339.792	50.86
340.004	44.71
340.217	28.33
340.429	-0.34
340.641	22.19
340.854	59.05
341.066	-24.92
341.278	73.39
341.491	73.39
341.703	44.71
341.915	-14.68
342.128	40.62
342.34	85.67
342.552	44.71
342.764	59.05
342.977	-8.53
343.189	52.91
343.401	30.38
343.613	16.04
343.826	32.43
344.038	7.85
344.25	52.91
344.462	38.57
344.674	22.19
344.886	36.52
345.099	34.47
345.311	85.67
345.523	11.95
345.735	-31.06
345.947	16.04
346.159	87.72
346.371	65.19
346.583	9.9
346.795	145.06
347.007	24.23
347.219	-2.39
347.431	5.8
347.643	93.87
347.855	65.19
348.067	38.57
348.279	-76.12
348.491	7.85
348.703	63.15
348.915	-8.53
349.127	-6.49
349.339	30.38
349.551	59.05
349.763	134.82
349.975	36.52
350.187	36.52
350.399	118.44
350.61	114.34
350.822	91.82
351.034	89.77
351.246	46.76
351.458	-24.92
351.669	-16.73
351.881	65.19
352.093	77.48
352.305	134.82
352.517	59.05
352.728	91.82
352.94	1.71
353.152	42.67
353.363	-22.87
353.575	54.95
353.787	57
353.999	79.53
354.21	93.87
354.422	-29.01
354.633	87.72
354.845	93.87
355.057	-22.87
355.268	-41.3
355.48	112.3
355.692	36.52
355.903	34.47
356.115	5.8
356.326	-76.12
356.538	95.91
356.749	93.87
356.961	81.58
357.172	54.95
357.384	44.71
357.595	179.88
357.807	3.75
358.018	-31.06
358.23	28.33
358.441	108.2
358.653	38.57
358.864	-26.96
359.075	3.75
359.287	149.16
359.498	165.54
359.709	91.82
359.921	-31.06
360.132	30.38
360.344	52.91
360.555	-20.82
360.766	75.43
360.977	63.15
361.189	118.44
361.4	-26.96
361.611	79.53
361.823	73.39
362.034	28.33
362.245	38.57
362.456	30.38
362.667	89.77
362.879	-31.06
363.09	44.71
363.301	44.71
363.512	46.76
363.723	30.38
363.935	26.28
364.146	95.91
364.357	85.67
364.568	54.95
364.779	-8.53
364.99	110.25
365.201	26.28
365.412	104.11
365.623	7.85
365.834	110.25
366.045	24.23
366.256	79.53
366.467	40.62
366.678	44.71
366.889	-47.44
367.1	54.95
367.311	28.33
367.522	77.48
367.733	83.63
367.944	104.11
368.155	61.1
368.366	5.8
368.577	108.2
368.788	140.97
368.999	52.91
369.209	71.34
369.42	177.83
369.631	120.49
369.842	52.91
370.053	-20.82
370.264	89.77
370.474	1.71
370.685	50.86
370.896	83.63
371.107	132.78
371.317	24.23
371.528	46.76
371.739	102.06
371.95	67.24
372.16	124.58
372.371	-14.68
372.582	-0.34
372.792	83.63
373.003	30.38
373.214	30.38
373.424	138.92
373.635	48.81
373.846	136.87
374.056	18.09
374.267	42.67
374.477	18.09
374.688	30.38
374.898	69.29
375.109	65.19
375.319	118.44
375.53	89.77
375.74	77.48
375.951	44.71
376.161	42.67
376.372	114.34
376.582	32.43
376.793	97.96
377.003	85.67
377.214	16.04
377.424	48.81
377.635	44.71
377.845	22.19
378.055	67.24
378.266	34.47
378.476	46.76
378.686	26.28
378.897	57
379.107	87.72
379.317	26.28
379.528	-51.54
379.738	79.53
379.948	-51.54
380.158	128.68
380.369	-37.2
380.579	89.77
380.789	100.01
380.999	54.95
381.21	59.05
381.42	151.21
381.63	93.87
381.84	112.3
382.05	77.48
382.261	138.92
382.471	-12.63
382.681	116.39
382.891	200.36
383.101	61.1
383.311	61.1
383.521	-39.25
383.731	112.3
383.941	69.29
384.151	7.85
384.361	44.71
384.571	42.67
384.781	36.52
384.991	81.58
385.201	116.39
385.411	34.47
385.621	110.25
385.831	89.77
386.041	38.57
386.251	32.43
386.461	95.91
386.671	18.09
386.881	54.95
387.091	75.43
387.301	118.44
387.511	128.68
387.72	89.77
387.93	30.38
388.14	85.67
388.35	5.8
388.56	134.82
388.769	97.96
388.979	87.72
389.189	38.57
389.399	59.05
389.609	59.05
389.818	34.47
390.028	81.58
390.238	95.91
390.447	26.28
390.657	63.15
390.867	-0.34
391.076	1.71
391.286	130.73
391.496	102.06
391.705	-10.58
391.915	108.2
392.125	42.67
392.334	57
392.544	36.52
392.753	36.52
392.963	-2.39
393.172	38.57
393.382	-2.39
393.591	79.53
393.801	-12.63
394.01	155.3
394.22	128.68
394.429	42.67
394.639	26.28
394.848	143.02
395.058	108.2
395.267	59.05
395.477	100.01
395.686	161.45
395.895	147.11
396.105	169.64
396.314	161.45
396.524	75.43
396.733	112.3
396.942	163.5
397.152	38.57
397.361	183.98
397.57	171.69
397.78	83.63
397.989	38.57
398.198	122.54
398.407	85.67
398.617	132.78
398.826	140.97
399.035	65.19
399.244	143.02
399.453	120.49
399.663	147.11
399.872	140.97
400.081	73.39
400.29	134.82
400.499	44.71
400.708	159.4
400.917	28.33
401.127	110.25
401.336	102.06
401.545	220.84
401.754	181.93
401.963	132.78
402.172	124.58
402.381	67.24
402.59	149.16
402.799	126.63
403.008	200.36
403.217	181.93
403.426	100.01
403.635	87.72
403.844	114.34
404.053	118.44
404.262	155.3
404.471	257.7
404.68	181.93
404.888	186.02
405.097	136.87
405.306	153.26
405.515	192.17
405.724	138.92
405.933	247.46
406.142	200.36
406.35	249.51
406.559	202.41
406.768	220.84
406.977	251.56
407.185	251.56
407.394	249.51
407.603	261.8
407.812	212.65
408.02	204.46
408.229	235.18
408.438	267.94
408.646	198.31
408.855	284.33
409.064	310.95
409.272	321.19
409.481	265.89
409.69	300.71
409.898	267.94
410.107	374.44
410.315	411.3
410.524	313
410.733	444.07
410.941	356.01
411.15	462.5
411.358	401.06
411.567	446.12
411.775	429.73
411.984	439.97
412.192	480.93
412.401	433.83
412.609	468.64
412.818	595.62
413.026	595.62
413.234	485.03
413.443	599.71
413.651	593.57
413.86	634.53
414.068	597.67
414.276	710.3
414.485	736.93
414.693	743.07
414.901	765.6
415.11	732.83
415.318	775.84
415.526	763.55
415.734	923.29
415.943	859.81
416.151	933.53
416.359	904.86
416.567	857.76
416.776	1015.45
416.984	1083.03
417.192	1121.95
417.4	1164.95
417.608	1048.22
417.817	1074.84
418.025	1238.68
418.233	1281.69
418.441	1212.06
418.649	1283.74
418.857	1425.04
419.065	1466
419.273	1361.56
419.481	1519.25
419.689	1517.2
419.897	1627.79
420.105	1674.9
420.313	1785.49
420.521	1789.58
420.729	1836.69
420.937	1738.38
421.145	1928.85
421.353	2002.57
421.561	2152.07
421.769	2143.88
421.977	2137.74
422.185	2164.36
422.393	2315.91
422.601	2389.64
422.809	2449.03
423.017	2533
423.224	2559.62
423.432	2807.42
423.64	2758.27
423.848	2975.36
424.056	2952.83
424.263	2975.36
424.471	3081.85
424.679	3110.52
424.887	3280.5
425.094	3343.99
425.302	3454.58
425.51	3456.63
425.718	3563.12
425.925	3624.56
426.133	3812.98
426.341	4075.12
426.548	4195.95
426.756	4216.43
426.964	4296.3
427.171	4636.26
427.379	4474.47
427.586	4623.97
427.794	4669.03
428.001	4908.64
428.209	5178.97
428.417	5103.2
428.624	5480.02
428.832	5488.21
429.039	5426.78
429.247	5381.72
429.454	5979.73
429.662	6434.38
429.869	5762.64
430.076	6434.38
430.284	6250.06
430.491	6456.9
430.699	6807.11
430.906	6852.16
431.114	6821.44
431.321	7233.08
431.528	7327.29
431.736	7769.65
431.943	7951.92
432.15	7804.47
432.358	7902.77
432.565	8431.15
432.772	8472.11
432.979	8840.74
433.187	8875.56
433.394	8891.94
433.601	9360.92
433.808	9606.68
434.016	9379.36
434.223	9938.45
434.43	10536.46
434.637	10090
434.844	11062.79
435.052	11214.34
435.259	10948.1
435.466	11267.58
435.673	10939.91
435.88	11552.25
436.087	12283.38
436.294	12154.35
436.501	12062.19
436.708	12148.21
436.915	12459.5
437.122	13157.86
437.329	12948.97
437.537	13610.46
437.743	13659.61
437.95	13667.8
438.157	14552.52
438.364	14429.65
438.571	14663.11
438.778	14878.15
438.985	16180.66
439.192	15797.69
439.399	15865.27
439.606	15441.34
439.813	16350.64
440.02	17601.95
440.227	17370.53
440.433	16694.7
440.64	17503.65
440.847	17540.51
441.054	17784.22
441.261	19000.71
441.467	18996.62
441.674	19060.1
441.881	19879.29
442.088	19604.86
442.294	19549.57
442.501	20145.53
442.708	20557.17
442.914	21378.4
443.121	22277.46
443.328	21646.69
443.534	22947.15
443.741	22158.68
443.948	21835.1
444.154	23512.39
444.361	23223.62
444.568	23233.86
444.774	23665.99
444.981	23881.02
445.187	24356.15
445.394	25492.77
445.6	25091.37
445.807	27464.97
446.013	26473.75
446.22	26703.12
446.426	28130.56
446.633	27847.94
446.839	28953.84
447.046	27815.17
447.252	29318.38
447.459	29285.61
447.665	29271.28
447.871	30610.65
448.078	31890.63
448.284	30428.38
448.491	31116.5
448.697	32175.3
448.903	32584.89
449.11	32767.16
449.316	32410.81
449.522	32918.71
449.728	33258.67
449.935	34073.76
450.141	34206.88
450.347	34577.56
450.553	33340.59
450.76	34061.47
450.966	34940.05
451.172	34469.02
451.378	35916.93
451.584	34602.14
451.791	35392.65
451.997	35488.91
452.203	35835.02
452.409	35873.93
452.615	35882.12
452.821	34645.15
453.027	34153.63
453.233	35640.46
453.44	34155.68
453.646	35064.98
453.852	35042.45
454.058	35894.41
454.264	34165.92
454.47	34690.2
454.676	34163.87
454.882	35087.51
455.088	32326.85
455.294	32736.44
455.5	33037.49
455.705	33275.05
455.911	32509.11
456.117	31472.84
456.323	31046.86
456.529	29097.2
456.735	30641.37
456.941	29768.93
457.147	29498.6
457.352	28345.59
457.558	27708.68
457.764	28232.96
457.97	27505.93
458.176	27014.41
458.381	26897.68
458.587	25527.59
458.793	25494.82
458.999	24044.86
459.204	26074.4
459.41	25113.9
459.616	23227.72
459.821	23510.34
460.027	23502.15
460.233	22975.82
460.438	21865.82
460.644	22058.33
460.85	21073.26
461.055	20616.56
461.261	20671.86
461.466	19099.02
461.672	18408.85
461.878	19694.97
462.083	18441.62
462.289	18025.88
462.494	17757.6
462.7	16995.75
462.905	16485.81
463.111	17376.67
463.316	17567.13
463.522	16655.79
463.727	16788.91
463.932	16795.05
464.138	16399.79
464.343	16680.36
464.549	16334.26
464.754	16487.86
464.959	16186.8
465.165	16119.22
465.37	15580.6
465.575	15205.83
465.781	15748.54
465.986	15805.88
466.191	15377.86
466.397	14779.85
466.602	14357.97
466.807	14728.65
467.012	14722.51
