Data from USB4F104151__42__12-12-03-557.txt Node

Date: Fri Mar 14 12:12:03 EDT 2025
User: louis
Spectrometer: USB4F10415
Trigger mode: 4
Integration Time (sec): 5.000000E-2
Scans to average: 1
Electric dark correction enabled: true
Nonlinearity correction enabled: false
Boxcar width: 0
XAxis mode: Wavelengths
Number of Pixels in Spectrum: 3648
>>>>>Begin Spectral Data<<<<<
178.204	-183.81
178.424	-183.81
178.644	-183.81
178.864	-138.75
179.084	-212.48
179.304	2.56
179.524	-48.64
179.744	31.23
179.964	-1.54
180.184	-36.35
180.404	-13.82
180.624	-26.11
180.844	8.7
181.064	6.66
181.283	33.28
181.503	-26.11
181.723	70.14
181.943	-54.78
182.163	92.67
182.383	35.33
182.602	88.57
182.822	125.44
183.042	100.86
183.262	-28.16
183.482	49.66
183.701	-36.35
183.921	25.09
184.141	2.56
184.361	154.11
184.58	18.94
184.8	18.94
185.02	33.28
185.239	53.76
185.459	78.33
185.679	41.47
185.898	-28.16
186.118	111.1
186.338	-15.87
186.557	162.3
186.777	-71.17
186.997	20.99
187.216	-7.68
187.436	145.92
187.655	18.94
187.875	104.96
188.095	-19.97
188.314	98.81
188.534	43.52
188.753	8.7
188.973	68.09
189.192	92.67
189.412	35.33
189.631	49.66
189.851	-22.02
190.07	55.81
190.29	-15.87
190.509	39.42
190.729	35.33
190.948	16.9
191.168	201.21
191.387	76.29
191.607	-65.02
191.826	64
192.045	-73.21
192.265	64
192.484	111.1
192.704	35.33
192.923	43.52
193.142	94.72
193.362	35.33
193.581	33.28
193.8	20.99
194.02	111.1
194.239	82.43
194.458	55.81
194.678	2.56
194.897	10.75
195.116	45.57
195.335	98.81
195.555	18.94
195.774	49.66
195.993	29.18
196.212	-22.02
196.432	57.86
196.651	33.28
196.87	16.9
197.089	182.78
197.308	113.15
197.528	76.29
197.747	-1.54
197.966	35.33
198.185	111.1
198.404	-11.78
198.623	0.51
198.842	78.33
199.062	57.86
199.281	113.15
199.5	61.95
199.719	100.86
199.938	107.01
200.157	123.39
200.376	59.9
200.595	92.67
200.814	33.28
201.033	104.96
201.252	55.81
201.471	121.34
201.69	119.29
201.909	61.95
202.128	84.48
202.347	66.05
202.566	70.14
202.785	55.81
203.004	23.04
203.223	164.35
203.442	158.21
203.661	35.33
203.879	47.62
204.098	61.95
204.317	104.96
204.536	82.43
204.755	-11.78
204.974	107.01
205.193	2.56
205.411	82.43
205.63	29.18
205.849	27.14
206.068	41.47
206.287	57.86
206.505	109.05
206.724	-65.02
206.943	47.62
207.162	20.99
207.381	33.28
207.599	25.09
207.818	86.53
208.037	41.47
208.255	12.8
208.474	20.99
208.693	84.48
208.911	10.75
209.13	39.42
209.349	39.42
209.567	176.64
209.786	-15.87
210.005	47.62
210.223	35.33
210.442	10.75
210.661	10.75
210.879	57.86
211.098	55.81
211.316	109.05
211.535	100.86
211.753	72.19
211.972	80.38
212.191	-3.58
212.409	49.66
212.628	104.96
212.846	6.66
213.065	41.47
213.283	160.25
213.502	23.04
213.72	23.04
213.938	61.95
214.157	-71.17
214.375	41.47
214.594	33.28
214.812	109.05
215.031	18.94
215.249	43.52
215.467	104.96
215.686	70.14
215.904	96.77
216.122	-1.54
216.341	76.29
216.559	59.9
216.778	98.81
216.996	76.29
217.214	61.95
217.432	74.24
217.651	-5.63
217.869	88.57
218.087	-15.87
218.306	59.9
218.524	61.95
218.742	-22.02
218.96	23.04
219.179	-1.54
219.397	119.29
219.615	135.68
219.833	47.62
220.051	-48.64
220.27	80.38
220.488	4.61
220.706	59.9
220.924	68.09
221.142	6.66
221.36	57.86
221.578	64
221.796	20.99
222.015	66.05
222.233	147.97
222.451	168.45
222.669	-19.97
222.887	174.59
223.105	66.05
223.323	43.52
223.541	14.85
223.759	104.96
223.977	29.18
224.195	104.96
224.413	80.38
224.631	33.28
224.849	-30.21
225.067	166.4
225.285	57.86
225.503	-5.63
225.721	-50.69
225.939	66.05
226.157	-7.68
226.375	180.73
226.592	43.52
226.81	-5.63
227.028	109.05
227.246	150.01
227.464	59.9
227.682	66.05
227.9	47.62
228.117	41.47
228.335	55.81
228.553	70.14
228.771	-3.58
228.989	47.62
229.206	125.44
229.424	102.91
229.642	51.71
229.86	16.9
230.077	72.19
230.295	20.99
230.513	119.29
230.731	88.57
230.948	102.91
231.166	104.96
231.384	27.14
231.601	-75.26
231.819	59.9
232.037	-13.82
232.254	-9.73
232.472	18.94
232.689	53.76
232.907	92.67
233.125	94.72
233.342	25.09
233.56	-79.36
233.777	16.9
233.995	-44.54
234.213	145.92
234.43	84.48
234.648	49.66
234.865	55.81
235.083	20.99
235.3	-40.45
235.518	78.33
235.735	59.9
235.953	92.67
236.17	76.29
236.388	10.75
236.605	27.14
236.822	76.29
237.04	82.43
237.257	55.81
237.475	14.85
237.692	82.43
237.909	127.49
238.127	16.9
238.344	51.71
238.562	74.24
238.779	-93.69
238.996	-1.54
239.214	27.14
239.431	47.62
239.648	-36.35
239.865	-3.58
240.083	90.62
240.3	47.62
240.517	90.62
240.735	10.75
240.952	145.92
241.169	86.53
241.386	133.63
241.603	-28.16
241.821	92.67
242.038	90.62
242.255	84.48
242.472	-24.06
242.689	49.66
242.907	145.92
243.124	16.9
243.341	23.04
243.558	-24.06
243.775	-5.63
243.992	-24.06
244.209	4.61
244.426	133.63
244.643	109.05
244.86	-40.45
245.078	64
245.295	150.01
245.512	31.23
245.729	53.76
245.946	64
246.163	29.18
246.38	104.96
246.597	55.81
246.814	35.33
247.031	78.33
247.248	29.18
247.464	109.05
247.681	20.99
247.898	23.04
248.115	78.33
248.332	10.75
248.549	109.05
248.766	150.01
248.983	96.77
249.2	43.52
249.417	16.9
249.633	33.28
249.85	53.76
250.067	-40.45
250.284	68.09
250.501	57.86
250.717	82.43
250.934	-83.45
251.151	-101.89
251.368	92.67
251.585	143.87
251.801	23.04
252.018	-1.54
252.235	57.86
252.451	-30.21
252.668	41.47
252.885	55.81
253.102	10.75
253.318	-52.74
253.535	43.52
253.752	10.75
253.968	6.66
254.185	-54.78
254.401	25.09
254.618	31.23
254.835	-30.21
255.051	98.81
255.268	20.99
255.484	64
255.701	14.85
255.917	84.48
256.134	-17.92
256.351	78.33
256.567	14.85
256.784	66.05
257	-9.73
257.217	137.73
257.433	20.99
257.65	53.76
257.866	43.52
258.082	-28.16
258.299	37.38
258.515	43.52
258.732	29.18
258.948	-1.54
259.165	104.96
259.381	61.95
259.597	115.2
259.814	27.14
260.03	45.57
260.246	57.86
260.463	68.09
260.679	18.94
260.895	92.67
261.112	158.21
261.328	37.38
261.544	39.42
261.761	129.53
261.977	59.9
262.193	33.28
262.409	43.52
262.626	68.09
262.842	43.52
263.058	-5.63
263.274	78.33
263.49	10.75
263.707	49.66
263.923	129.53
264.139	-17.92
264.355	10.75
264.571	109.05
264.787	12.8
265.004	45.57
265.22	61.95
265.436	31.23
265.652	-5.63
265.868	39.42
266.084	14.85
266.3	82.43
266.516	16.9
266.732	41.47
266.948	47.62
267.164	4.61
267.38	80.38
267.596	10.75
267.812	74.24
268.028	45.57
268.244	-36.35
268.46	-24.06
268.676	-38.4
268.892	53.76
269.108	-50.69
269.324	-30.21
269.54	-44.54
269.756	72.19
269.972	35.33
270.188	31.23
270.403	4.61
270.619	12.8
270.835	16.9
271.051	45.57
271.267	18.94
271.483	27.14
271.698	37.38
271.914	6.66
272.13	-13.82
272.346	33.28
272.562	59.9
272.777	55.81
272.993	4.61
273.209	20.99
273.425	41.47
273.64	37.38
273.856	82.43
274.072	-34.3
274.287	51.71
274.503	86.53
274.719	14.85
274.934	119.29
275.15	20.99
275.366	14.85
275.581	64
275.797	16.9
276.012	20.99
276.228	0.51
276.444	10.75
276.659	90.62
276.875	-65.02
277.09	-36.35
277.306	25.09
277.521	66.05
277.737	-3.58
277.952	-5.63
278.168	66.05
278.383	74.24
278.599	55.81
278.814	176.64
279.03	37.38
279.245	139.77
279.461	18.94
279.676	133.63
279.892	51.71
280.107	-7.68
280.322	41.47
280.538	18.94
280.753	8.7
280.969	25.09
281.184	64
281.399	61.95
281.615	10.75
281.83	53.76
282.045	-34.3
282.26	-17.92
282.476	98.81
282.691	90.62
282.906	98.81
283.122	8.7
283.337	14.85
283.552	16.9
283.767	129.53
283.983	90.62
284.198	23.04
284.413	55.81
284.628	-48.64
284.843	70.14
285.058	61.95
285.274	94.72
285.489	-5.63
285.704	31.23
285.919	68.09
286.134	43.52
286.349	4.61
286.564	64
286.779	45.57
286.995	59.9
287.21	27.14
287.425	6.66
287.64	4.61
287.855	96.77
288.07	-44.54
288.285	104.96
288.5	68.09
288.715	49.66
288.93	117.25
289.145	61.95
289.36	111.1
289.575	61.95
289.79	47.62
290.004	10.75
290.219	115.2
290.434	8.7
290.649	20.99
290.864	61.95
291.079	18.94
291.294	82.43
291.509	53.76
291.724	90.62
291.938	6.66
292.153	100.86
292.368	80.38
292.583	82.43
292.798	78.33
293.012	84.48
293.227	92.67
293.442	90.62
293.657	49.66
293.871	154.11
294.086	41.47
294.301	98.81
294.516	107.01
294.73	68.09
294.945	100.86
295.16	-30.21
295.374	31.23
295.589	78.33
295.804	-3.58
296.018	39.42
296.233	113.15
296.447	68.09
296.662	45.57
296.877	150.01
297.091	68.09
297.306	16.9
297.52	-5.63
297.735	-5.63
297.949	68.09
298.164	94.72
298.378	29.18
298.593	61.95
298.807	59.9
299.022	39.42
299.236	27.14
299.451	10.75
299.665	31.23
299.88	0.51
300.094	51.71
300.309	51.71
300.523	18.94
300.737	74.24
300.952	92.67
301.166	104.96
301.381	96.77
301.595	86.53
301.809	-13.82
302.024	107.01
302.238	51.71
302.452	51.71
302.667	70.14
302.881	111.1
303.095	84.48
303.309	90.62
303.524	88.57
303.738	113.15
303.952	2.56
304.166	160.25
304.381	-38.4
304.595	113.15
304.809	12.8
305.023	37.38
305.237	51.71
305.452	23.04
305.666	0.51
305.88	133.63
306.094	45.57
306.308	55.81
306.522	51.71
306.736	92.67
306.95	98.81
307.164	37.38
307.379	80.38
307.593	90.62
307.807	107.01
308.021	35.33
308.235	68.09
308.449	33.28
308.663	49.66
308.877	137.73
309.091	84.48
309.305	129.53
309.519	-56.83
309.733	123.39
309.947	10.75
310.161	31.23
310.374	102.91
310.588	100.86
310.802	0.51
311.016	10.75
311.23	57.86
311.444	18.94
311.658	64
311.872	147.97
312.085	166.4
312.299	127.49
312.513	127.49
312.727	78.33
312.941	-5.63
313.154	119.29
313.368	20.99
313.582	8.7
313.796	55.81
314.009	86.53
314.223	61.95
314.437	72.19
314.651	18.94
314.864	23.04
315.078	70.14
315.292	-11.78
315.505	53.76
315.719	4.61
315.933	29.18
316.146	35.33
316.36	45.57
316.573	107.01
316.787	115.2
317.001	39.42
317.214	82.43
317.428	92.67
317.641	102.91
317.855	57.86
318.068	70.14
318.282	53.76
318.495	121.34
318.709	76.29
318.922	100.86
319.136	123.39
319.349	111.1
319.563	29.18
319.776	160.25
319.99	55.81
320.203	8.7
320.417	-7.68
320.63	119.29
320.843	152.06
321.057	78.33
321.27	172.54
321.483	31.23
321.697	92.67
321.91	55.81
322.124	119.29
322.337	66.05
322.55	18.94
322.763	18.94
322.977	43.52
323.19	-62.98
323.403	41.47
323.617	94.72
323.83	88.57
324.043	98.81
324.256	57.86
324.469	25.09
324.683	131.58
324.896	18.94
325.109	-11.78
325.322	12.8
325.535	33.28
325.748	72.19
325.962	-19.97
326.175	51.71
326.388	127.49
326.601	-1.54
326.814	-11.78
327.027	84.48
327.24	131.58
327.453	23.04
327.666	64
327.879	111.1
328.092	80.38
328.305	57.86
328.518	57.86
328.731	-28.16
328.944	127.49
329.157	109.05
329.37	59.9
329.583	131.58
329.796	205.31
330.009	-15.87
330.222	139.77
330.435	117.25
330.648	47.62
330.861	113.15
331.073	20.99
331.286	72.19
331.499	125.44
331.712	25.09
331.925	64
332.138	80.38
332.35	57.86
332.563	51.71
332.776	152.06
332.989	86.53
333.202	102.91
333.414	92.67
333.627	47.62
333.84	55.81
334.053	57.86
334.265	107.01
334.478	14.85
334.691	78.33
334.903	80.38
335.116	-24.06
335.329	107.01
335.541	-19.97
335.754	98.81
335.966	53.76
336.179	98.81
336.392	18.94
336.604	129.53
336.817	37.38
337.029	98.81
337.242	23.04
337.454	6.66
337.667	64
337.88	66.05
338.092	115.2
338.305	107.01
338.517	66.05
338.729	37.38
338.942	68.09
339.154	64
339.367	-15.87
339.579	76.29
339.792	2.56
340.004	76.29
340.217	35.33
340.429	35.33
340.641	82.43
340.854	59.9
341.066	70.14
341.278	141.82
341.491	86.53
341.703	57.86
341.915	74.24
342.128	45.57
342.34	59.9
342.552	23.04
342.764	53.76
342.977	43.52
343.189	109.05
343.401	39.42
343.613	80.38
343.826	98.81
344.038	-26.11
344.25	133.63
344.462	29.18
344.674	104.96
344.886	-1.54
345.099	47.62
345.311	88.57
345.523	70.14
345.735	-52.74
345.947	43.52
346.159	109.05
346.371	104.96
346.583	29.18
346.795	82.43
347.007	-24.06
347.219	80.38
347.431	20.99
347.643	137.73
347.855	0.51
348.067	82.43
348.279	43.52
348.491	119.29
348.703	86.53
348.915	-62.98
349.127	-9.73
349.339	74.24
349.551	35.33
349.763	123.39
349.975	49.66
350.187	41.47
350.399	51.71
350.61	57.86
350.822	47.62
351.034	37.38
351.246	113.15
351.458	139.77
351.669	59.9
351.881	154.11
352.093	139.77
352.305	49.66
352.517	133.63
352.728	123.39
352.94	29.18
353.152	96.77
353.363	35.33
353.575	107.01
353.787	104.96
353.999	57.86
354.21	59.9
354.422	-46.59
354.633	70.14
354.845	92.67
355.057	59.9
355.268	135.68
355.48	20.99
355.692	66.05
355.903	-5.63
356.115	68.09
356.326	-28.16
356.538	172.54
356.749	78.33
356.961	113.15
357.172	39.42
357.384	2.56
357.595	190.97
357.807	23.04
358.018	-7.68
358.23	55.81
358.441	162.3
358.653	27.14
358.864	6.66
359.075	45.57
359.287	104.96
359.498	57.86
359.709	59.9
359.921	45.57
360.132	72.19
360.344	107.01
360.555	53.76
360.766	16.9
360.977	47.62
361.189	80.38
361.4	14.85
361.611	72.19
361.823	78.33
362.034	49.66
362.245	35.33
362.456	68.09
362.667	141.82
362.879	-24.06
363.09	86.53
363.301	43.52
363.512	111.1
363.723	23.04
363.935	31.23
364.146	107.01
364.357	49.66
364.568	76.29
364.779	-11.78
364.99	209.4
365.201	102.91
365.412	180.73
365.623	12.8
365.834	78.33
366.045	55.81
366.256	66.05
366.467	92.67
366.678	68.09
366.889	59.9
367.1	27.14
367.311	12.8
367.522	61.95
367.733	147.97
367.944	121.34
368.155	39.42
368.366	104.96
368.577	94.72
368.788	143.87
368.999	92.67
369.209	41.47
369.42	201.21
369.631	186.88
369.842	57.86
370.053	20.99
370.264	150.01
370.474	-44.54
370.685	80.38
370.896	117.25
371.107	133.63
371.317	162.3
371.528	80.38
371.739	113.15
371.95	107.01
372.16	49.66
372.371	27.14
372.582	68.09
372.792	154.11
373.003	20.99
373.214	53.76
373.424	162.3
373.635	2.56
373.846	127.49
374.056	47.62
374.267	0.51
374.477	18.94
374.688	55.81
374.898	72.19
375.109	57.86
375.319	119.29
375.53	117.25
375.74	92.67
375.951	100.86
376.161	53.76
376.372	164.35
376.582	80.38
376.793	39.42
377.003	23.04
377.214	18.94
377.424	66.05
377.635	80.38
377.845	20.99
378.055	123.39
378.266	-15.87
378.476	72.19
378.686	111.1
378.897	33.28
379.107	158.21
379.317	100.86
379.528	57.86
379.738	16.9
379.948	-77.31
380.158	59.9
380.369	49.66
380.579	59.9
380.789	23.04
380.999	123.39
381.21	158.21
381.42	156.16
381.63	61.95
381.84	57.86
382.05	84.48
382.261	88.57
382.471	100.86
382.681	-3.58
382.891	104.96
383.101	53.76
383.311	14.85
383.521	47.62
383.731	135.68
383.941	125.44
384.151	123.39
384.361	57.86
384.571	31.23
384.781	2.56
384.991	111.1
385.201	131.58
385.411	164.35
385.621	174.59
385.831	119.29
386.041	72.19
386.251	33.28
386.461	174.59
386.671	70.14
386.881	64
387.091	109.05
387.301	59.9
387.511	80.38
387.72	111.1
387.93	186.88
388.14	6.66
388.35	43.52
388.56	53.76
388.769	92.67
388.979	82.43
389.189	59.9
389.399	43.52
389.609	31.23
389.818	174.59
390.028	127.49
390.238	115.2
390.447	68.09
390.657	102.91
390.867	41.47
391.076	39.42
391.286	199.16
391.496	96.77
391.705	84.48
391.915	84.48
392.125	152.06
392.334	131.58
392.544	98.81
392.753	139.77
392.963	90.62
393.172	131.58
393.382	-5.63
393.591	139.77
393.801	119.29
394.01	156.16
394.22	137.73
394.429	72.19
394.639	102.91
394.848	80.38
395.058	158.21
395.267	57.86
395.477	104.96
395.686	119.29
395.895	184.83
396.105	207.36
396.314	178.69
396.524	182.78
396.733	145.92
396.942	193.02
397.152	139.77
397.361	96.77
397.57	84.48
397.78	156.16
397.989	211.45
398.198	246.27
398.407	131.58
398.617	96.77
398.826	154.11
399.035	190.97
399.244	193.02
399.453	156.16
399.663	174.59
399.872	115.2
400.081	104.96
400.29	168.45
400.499	92.67
400.708	182.78
400.917	109.05
401.127	178.69
401.336	174.59
401.545	199.16
401.754	203.26
401.963	287.23
402.172	150.01
402.381	143.87
402.59	139.77
402.799	172.54
403.008	211.45
403.217	203.26
403.426	195.07
403.635	127.49
403.844	233.98
404.053	160.25
404.262	184.83
404.471	330.23
404.68	225.79
404.888	240.12
405.097	223.74
405.306	244.22
405.515	254.46
405.724	225.79
405.933	272.89
406.142	213.5
406.35	346.62
406.559	207.36
406.768	281.08
406.977	426.49
407.185	262.65
407.394	330.23
407.603	332.28
407.812	311.8
408.02	393.72
408.229	356.86
408.438	262.65
408.646	350.71
408.855	399.87
409.064	430.59
409.272	346.62
409.481	408.06
409.69	461.3
409.898	430.59
410.107	522.74
410.315	539.13
410.524	442.87
410.733	510.46
410.941	479.74
411.15	606.71
411.358	698.87
411.567	641.53
411.775	594.42
411.984	625.14
412.192	690.68
412.401	649.72
412.609	721.4
412.818	780.79
413.026	778.74
413.234	846.32
413.443	819.7
413.651	827.89
413.86	891.38
414.068	1051.12
414.276	1069.55
414.485	971.25
414.693	1087.98
414.901	1165.81
415.11	1087.98
415.318	1141.23
415.526	1067.5
415.734	1237.49
415.943	1262.06
416.151	1343.98
416.359	1253.87
416.567	1241.58
416.776	1475.05
416.984	1442.28
417.192	1597.93
417.4	1458.67
417.608	1477.1
417.817	1569.26
418.025	1726.95
418.233	1798.63
418.441	1753.57
418.649	1939.94
418.857	1960.42
419.065	2073.06
419.273	1944.03
419.481	2066.91
419.689	2310.62
419.897	2306.52
420.105	2462.17
420.313	2429.4
420.521	2447.83
420.729	2599.38
420.937	2765.27
421.145	2818.52
421.353	2857.43
421.561	3107.28
421.769	3148.24
421.977	3248.59
422.185	3205.58
422.393	3422.67
422.601	3635.66
422.809	3674.57
423.017	3627.46
423.224	3805.64
423.432	3938.76
423.64	3836.36
423.848	4313.53
424.056	4110.79
424.263	4487.61
424.471	4358.59
424.679	4592.06
424.887	4780.47
425.094	4952.5
425.302	4886.97
425.51	5155.25
425.718	5181.87
425.925	5388.72
426.133	5413.29
426.341	5863.85
426.548	6099.36
426.756	5990.82
426.964	6101.41
427.171	6429.09
427.379	6801.82
427.586	6619.55
427.794	7045.52
428.001	7278.99
428.209	7711.11
428.417	7440.78
428.624	8065.41
428.832	7960.97
429.039	7825.8
429.247	8016.26
429.454	8601.98
429.662	9255.28
429.869	8587.64
430.076	9245.04
430.284	9179.51
430.491	9386.35
430.699	9875.82
430.906	10070.37
431.114	10209.64
431.321	10479.97
431.528	10619.23
431.736	11200.85
431.943	11751.76
432.15	11534.67
432.358	11698.51
432.565	12085.58
432.772	11981.13
432.979	12796.22
433.187	12886.33
433.394	13099.32
433.601	13990.19
433.808	13930.8
434.016	13904.17
434.223	14414.12
434.43	15200.54
434.637	14731.55
434.844	15986.96
435.052	16173.32
435.259	15993.1
435.466	16341.25
435.673	15919.37
435.88	17297.66
436.087	17762.54
436.294	18069.74
436.501	17709.3
436.708	17795.31
436.915	18557.16
437.122	19235.03
437.329	19165.4
437.537	19517.65
437.743	20232.4
437.95	19884.24
438.157	21119.17
438.364	21704.88
438.571	21502.14
438.778	21680.31
438.985	23707.8
439.192	22784.16
439.399	23310.49
439.606	22956.19
439.813	24537.23
440.02	25704.57
440.227	25174.14
440.433	24856.71
440.64	25901.17
440.847	25442.43
441.054	26167.41
441.261	27781.21
441.467	27478.11
441.674	28164.18
441.881	28956.74
442.088	29048.9
442.294	28745.8
442.501	29485.12
442.708	29823.03
442.914	31053.86
443.121	32612.37
443.328	31191.08
443.534	33552.38
443.741	32622.61
443.948	32137.24
444.154	35006.44
444.361	34082.81
444.568	34334.71
444.774	34551.79
444.981	34779.12
445.187	35514.34
445.394	37554.11
445.6	36591.57
445.807	40490.9
446.013	38416.31
446.22	39186.35
446.426	40531.86
446.633	40753.04
446.839	42129.28
447.046	40447.89
447.252	43118.45
447.459	42735.48
447.665	42536.82
447.871	44236.64
448.078	46264.13
448.284	44189.53
448.491	45180.75
448.697	46858.04
448.903	47732.52
449.11	47666.98
449.316	46972.72
449.522	47642.41
449.728	48525.08
449.935	48801.56
450.141	49102.61
450.347	49966.85
450.553	48133.92
450.76	49051.41
450.966	50499.33
451.172	50071.3
451.378	50888.44
451.584	49952.52
451.791	51091.19
451.997	51255.03
452.203	51504.88
452.409	52010.73
452.615	51160.82
452.821	49598.22
453.027	49325.84
453.233	51545.84
453.44	48940.82
453.646	50142.98
453.852	50216.71
454.058	50810.62
454.264	49428.24
454.47	50210.56
454.676	49041.17
454.882	50427.65
455.088	46391.1
455.294	46817.08
455.5	47464.24
455.705	47849.25
455.911	45535.05
456.117	44785.49
456.323	44189.53
456.529	42039.17
456.735	43781.99
456.941	42311.55
457.147	41930.62
457.352	40540.05
457.558	40394.65
457.764	40392.6
457.97	39405.48
458.176	38547.38
458.381	38637.49
458.587	36569.04
458.793	36538.32
458.999	34877.42
459.204	37146.57
459.41	36038.62
459.616	33452.03
459.821	33316.87
460.027	33468.42
460.233	32460.82
460.438	31197.22
460.644	31518.75
460.85	29829.18
461.055	29595.71
461.261	29612.09
461.466	27261.02
461.672	26382.45
461.878	28078.16
462.083	26372.21
462.289	25575.55
462.494	25489.53
462.7	24348.81
462.905	23916.69
463.111	24572.04
463.316	24416.4
463.522	24242.32
463.727	24027.28
463.932	23810.2
464.138	23425.18
464.343	23574.68
464.549	22843.56
464.754	23763.09
464.959	23472.28
465.165	23363.74
465.37	22489.26
