Data from USB4F104151__41__12-12-03-157.txt Node

Date: Fri Mar 14 12:12:03 EDT 2025
User: louis
Spectrometer: USB4F10415
Trigger mode: 4
Integration Time (sec): 5.000000E-2
Scans to average: 1
Electric dark correction enabled: true
Nonlinearity correction enabled: false
Boxcar width: 0
XAxis mode: Wavelengths
Number of Pixels in Spectrum: 3648
>>>>>Begin Spectral Data<<<<<
178.204	-283.13
178.424	-283.13
178.644	-283.13
178.864	-262.65
179.084	-287.23
179.304	-27.14
179.524	50.69
179.744	-27.14
179.964	95.74
180.184	-66.05
180.404	42.5
180.624	28.16
180.844	5.63
181.064	-121.34
181.283	-20.99
181.503	36.35
181.723	3.58
181.943	-37.38
182.163	130.56
182.383	69.12
182.602	38.4
182.822	22.02
183.042	9.73
183.262	-39.42
183.482	73.21
183.701	9.73
183.921	9.73
184.141	50.69
184.361	83.45
184.58	42.5
184.8	50.69
185.02	56.83
185.239	99.84
185.459	79.36
185.679	103.93
185.898	-35.33
186.118	130.56
186.338	30.21
186.557	42.5
186.777	42.5
186.997	5.63
187.216	19.97
187.436	116.22
187.655	46.59
187.875	108.03
188.095	73.21
188.314	36.35
188.534	142.85
188.753	40.45
188.973	34.3
189.192	136.7
189.412	1.54
189.631	30.21
189.851	22.02
190.07	122.37
190.29	-39.42
190.509	3.58
190.729	19.97
190.948	73.21
191.168	241.15
191.387	108.03
191.607	52.74
191.826	5.63
192.045	69.12
192.265	91.65
192.484	58.88
192.704	-16.9
192.923	-53.76
193.142	134.65
193.362	-18.94
193.581	110.08
193.8	134.65
194.02	99.84
194.239	54.78
194.458	58.88
194.678	54.78
194.897	-23.04
195.116	-4.61
195.335	81.41
195.555	87.55
195.774	60.93
195.993	65.02
196.212	9.73
196.432	83.45
196.651	48.64
196.87	56.83
197.089	58.88
197.308	89.6
197.528	34.3
197.747	-70.14
197.966	17.92
198.185	95.74
198.404	-41.47
198.623	38.4
198.842	101.89
199.062	48.64
199.281	142.85
199.5	42.5
199.719	105.98
199.938	-0.51
200.157	116.22
200.376	11.78
200.595	30.21
200.814	46.59
201.033	40.45
201.252	81.41
201.471	60.93
201.69	165.37
201.909	24.06
202.128	24.06
202.347	38.4
202.566	13.82
202.785	3.58
203.004	-29.18
203.223	124.41
203.442	83.45
203.661	-51.71
203.879	24.06
204.098	73.21
204.317	54.78
204.536	112.13
204.755	-2.56
204.974	56.83
205.193	83.45
205.411	142.85
205.63	75.26
205.849	54.78
206.068	40.45
206.287	75.26
206.505	71.17
206.724	73.21
206.943	-20.99
207.162	-37.38
207.381	112.13
207.599	28.16
207.818	54.78
208.037	34.3
208.255	79.36
208.474	52.74
208.693	142.85
208.911	-18.94
209.13	101.89
209.349	40.45
209.567	28.16
209.786	105.98
210.005	75.26
210.223	44.54
210.442	-16.9
210.661	-6.66
210.879	54.78
211.098	-12.8
211.316	46.59
211.535	103.93
211.753	54.78
211.972	52.74
212.191	83.45
212.409	60.93
212.628	87.55
212.846	-10.75
213.065	40.45
213.283	52.74
213.502	15.87
213.72	97.79
213.938	3.58
214.157	62.98
214.375	40.45
214.594	-43.52
214.812	112.13
215.031	34.3
215.249	3.58
215.467	83.45
215.686	-20.99
215.904	138.75
216.122	65.02
216.341	103.93
216.559	75.26
216.778	91.65
216.996	87.55
217.214	77.31
217.432	62.98
217.651	13.82
217.869	-14.85
218.087	85.5
218.306	52.74
218.524	46.59
218.742	67.07
218.96	19.97
219.179	3.58
219.397	101.89
219.615	42.5
219.833	91.65
220.051	-35.33
220.27	56.83
220.488	118.27
220.706	65.02
220.924	3.58
221.142	-49.66
221.36	44.54
221.578	38.4
221.796	83.45
222.015	26.11
222.233	91.65
222.451	136.7
222.669	83.45
222.887	60.93
223.105	75.26
223.323	67.07
223.541	-8.7
223.759	103.93
223.977	95.74
224.195	56.83
224.413	75.26
224.631	142.85
224.849	75.26
225.067	157.18
225.285	58.88
225.503	77.31
225.721	-45.57
225.939	44.54
226.157	36.35
226.375	208.38
226.592	87.55
226.81	65.02
227.028	124.41
227.246	112.13
227.464	71.17
227.682	122.37
227.9	58.88
228.117	103.93
228.335	1.54
228.553	28.16
228.771	71.17
228.989	69.12
229.206	122.37
229.424	38.4
229.642	26.11
229.86	-45.57
230.077	44.54
230.295	36.35
230.513	105.98
230.731	118.27
230.948	132.61
231.166	101.89
231.384	-4.61
231.601	54.78
231.819	108.03
232.037	28.16
232.254	-23.04
232.472	22.02
232.689	60.93
232.907	38.4
233.125	56.83
233.342	58.88
233.56	-25.09
233.777	1.54
233.995	62.98
234.213	171.52
234.43	81.41
234.648	-25.09
234.865	36.35
235.083	40.45
235.3	-18.94
235.518	126.46
235.735	50.69
235.953	105.98
236.17	73.21
236.388	42.5
236.605	93.69
236.822	108.03
237.04	75.26
237.257	-4.61
237.475	3.58
237.692	179.71
237.909	19.97
238.127	-68.09
238.344	134.65
238.562	46.59
238.779	48.64
238.996	9.73
239.214	69.12
239.431	67.07
239.648	11.78
239.865	44.54
240.083	85.5
240.3	42.5
240.517	11.78
240.735	15.87
240.952	175.61
241.169	103.93
241.386	50.69
241.603	58.88
241.821	-45.57
242.038	60.93
242.255	110.08
242.472	-57.86
242.689	77.31
242.907	62.98
243.124	73.21
243.341	9.73
243.558	5.63
243.775	-18.94
243.992	5.63
244.209	91.65
244.426	108.03
244.643	38.4
244.86	-2.56
245.078	83.45
245.295	50.69
245.512	-27.14
245.729	83.45
245.946	69.12
246.163	69.12
246.38	-0.51
246.597	32.26
246.814	112.13
247.031	-33.28
247.248	103.93
247.464	73.21
247.681	50.69
247.898	36.35
248.115	-2.56
248.332	-47.62
248.549	13.82
248.766	120.32
248.983	89.6
249.2	67.07
249.417	73.21
249.633	-37.38
249.85	108.03
250.067	-47.62
250.284	99.84
250.501	99.84
250.717	148.99
250.934	-20.99
251.151	19.97
251.368	44.54
251.585	73.21
251.801	91.65
252.018	38.4
252.235	105.98
252.451	69.12
252.668	54.78
252.885	126.46
253.102	79.36
253.318	32.26
253.535	17.92
253.752	73.21
253.968	87.55
254.185	7.68
254.401	30.21
254.618	58.88
254.835	95.74
255.051	65.02
255.268	79.36
255.484	105.98
255.701	62.98
255.917	136.7
256.134	-4.61
256.351	-33.28
256.567	75.26
256.784	15.87
257	11.78
257.217	67.07
257.433	108.03
257.65	58.88
257.866	79.36
258.082	-29.18
258.299	30.21
258.515	52.74
258.732	-33.28
258.948	-23.04
259.165	13.82
259.381	58.88
259.597	-0.51
259.814	97.79
260.03	60.93
260.246	7.68
260.463	46.59
260.679	142.85
260.895	40.45
261.112	77.31
261.328	40.45
261.544	26.11
261.761	110.08
261.977	-25.09
262.193	34.3
262.409	128.51
262.626	26.11
262.842	48.64
263.058	1.54
263.274	1.54
263.49	69.12
263.707	151.04
263.923	7.68
264.139	60.93
264.355	7.68
264.571	120.32
264.787	52.74
265.004	118.27
265.22	73.21
265.436	38.4
265.652	3.58
265.868	73.21
266.084	24.06
266.3	44.54
266.516	97.79
266.732	81.41
266.948	99.84
267.164	24.06
267.38	36.35
267.596	85.5
267.812	128.51
268.028	114.17
268.244	26.11
268.46	38.4
268.676	1.54
268.892	-2.56
269.108	58.88
269.324	-37.38
269.54	32.26
269.756	114.17
269.972	50.69
270.188	38.4
270.403	-53.76
270.619	32.26
270.835	71.17
271.051	-12.8
271.267	26.11
271.483	15.87
271.698	114.17
271.914	77.31
272.13	52.74
272.346	99.84
272.562	99.84
272.777	50.69
272.993	1.54
273.209	1.54
273.425	54.78
273.64	-29.18
273.856	77.31
274.072	28.16
274.287	-4.61
274.503	79.36
274.719	36.35
274.934	73.21
275.15	15.87
275.366	77.31
275.581	-61.95
275.797	58.88
276.012	38.4
276.228	-23.04
276.444	-0.51
276.659	120.32
276.875	32.26
277.09	44.54
277.306	-86.53
277.521	60.93
277.737	22.02
277.952	24.06
278.168	50.69
278.383	9.73
278.599	58.88
278.814	73.21
279.03	-25.09
279.245	11.78
279.461	97.79
279.676	110.08
279.892	50.69
280.107	58.88
280.322	17.92
280.538	69.12
280.753	36.35
280.969	11.78
281.184	62.98
281.399	62.98
281.615	75.26
281.83	17.92
282.045	3.58
282.26	42.5
282.476	-33.28
282.691	87.55
282.906	15.87
283.122	-4.61
283.337	42.5
283.552	67.07
283.767	79.36
283.983	128.51
284.198	97.79
284.413	85.5
284.628	3.58
284.843	26.11
285.058	52.74
285.274	56.83
285.489	1.54
285.704	62.98
285.919	48.64
286.134	60.93
286.349	9.73
286.564	17.92
286.779	97.79
286.995	-10.75
287.21	-61.95
287.425	-6.66
287.64	83.45
287.855	93.69
288.07	-41.47
288.285	130.56
288.5	50.69
288.715	77.31
288.93	36.35
289.145	-45.57
289.36	73.21
289.575	28.16
289.79	1.54
290.004	26.11
290.219	134.65
290.434	48.64
290.649	26.11
290.864	11.78
291.079	44.54
291.294	50.69
291.509	-6.66
291.724	-16.9
291.938	44.54
292.153	93.69
292.368	67.07
292.583	28.16
292.798	1.54
293.012	71.17
293.227	50.69
293.442	87.55
293.657	87.55
293.871	124.41
294.086	87.55
294.301	130.56
294.516	54.78
294.73	34.3
294.945	34.3
295.16	-14.85
295.374	77.31
295.589	77.31
295.804	-2.56
296.018	26.11
296.233	132.61
296.447	62.98
296.662	42.5
296.877	105.98
297.091	36.35
297.306	71.17
297.52	15.87
297.735	42.5
297.949	50.69
298.164	71.17
298.378	77.31
298.593	15.87
298.807	-23.04
299.022	-14.85
299.236	40.45
299.451	28.16
299.665	65.02
299.88	44.54
300.094	42.5
300.309	67.07
300.523	52.74
300.737	-4.61
300.952	65.02
301.166	58.88
301.381	69.12
301.595	22.02
301.809	79.36
302.024	60.93
302.238	11.78
302.452	132.61
302.667	73.21
302.881	26.11
303.095	101.89
303.309	105.98
303.524	42.5
303.738	52.74
303.952	87.55
304.166	65.02
304.381	42.5
304.595	73.21
304.809	11.78
305.023	32.26
305.237	7.68
305.452	122.37
305.666	77.31
305.88	-16.9
306.094	7.68
306.308	134.65
306.522	73.21
306.736	58.88
306.95	122.37
307.164	32.26
307.379	73.21
307.593	179.71
307.807	130.56
308.021	48.64
308.235	5.63
308.449	32.26
308.663	99.84
308.877	130.56
309.091	67.07
309.305	83.45
309.519	-2.56
309.733	77.31
309.947	24.06
310.161	97.79
310.374	85.5
310.588	65.02
310.802	48.64
311.016	24.06
311.23	50.69
311.444	-14.85
311.658	52.74
311.872	97.79
312.085	138.75
312.299	26.11
312.513	77.31
312.727	44.54
312.941	83.45
313.154	89.6
313.368	1.54
313.582	3.58
313.796	52.74
314.009	108.03
314.223	75.26
314.437	-4.61
314.651	99.84
314.864	11.78
315.078	40.45
315.292	-4.61
315.505	58.88
315.719	116.22
315.933	22.02
316.146	42.5
316.36	-8.7
316.573	87.55
316.787	87.55
317.001	95.74
317.214	40.45
317.428	48.64
317.641	9.73
317.855	71.17
318.068	56.83
318.282	112.13
318.495	85.5
318.709	97.79
318.922	87.55
319.136	97.79
319.349	71.17
319.563	52.74
319.776	48.64
319.99	9.73
320.203	81.41
320.417	79.36
320.63	89.6
320.843	114.17
321.057	83.45
321.27	140.8
321.483	75.26
321.697	148.99
321.91	95.74
322.124	105.98
322.337	28.16
322.55	42.5
322.763	120.32
322.977	24.06
323.19	36.35
323.403	155.13
323.617	17.92
323.83	112.13
324.043	99.84
324.256	81.41
324.469	-41.47
324.683	142.85
324.896	75.26
325.109	79.36
325.322	-43.52
325.535	120.32
325.748	99.84
325.962	9.73
326.175	67.07
326.388	112.13
326.601	157.18
326.814	32.26
327.027	110.08
327.24	79.36
327.453	-35.33
327.666	73.21
327.879	58.88
328.092	83.45
328.305	1.54
328.518	-27.14
328.731	19.97
328.944	83.45
329.157	93.69
329.37	-47.62
329.583	81.41
329.796	124.41
330.009	56.83
330.222	114.17
330.435	79.36
330.648	83.45
330.861	30.21
331.073	69.12
331.286	144.89
331.499	17.92
331.712	15.87
331.925	124.41
332.138	79.36
332.35	65.02
332.563	95.74
332.776	87.55
332.989	9.73
333.202	-23.04
333.414	54.78
333.627	9.73
333.84	50.69
334.053	112.13
334.265	44.54
334.478	42.5
334.691	7.68
334.903	48.64
335.116	34.3
335.329	73.21
335.541	56.83
335.754	60.93
335.966	42.5
336.179	40.45
336.392	65.02
336.604	32.26
336.817	114.17
337.029	73.21
337.242	-18.94
337.454	101.89
337.667	3.58
337.88	85.5
338.092	46.59
338.305	175.61
338.517	54.78
338.729	105.98
338.942	128.51
339.154	-4.61
339.367	54.78
339.579	83.45
339.792	-33.28
340.004	65.02
340.217	-14.85
340.429	42.5
340.641	22.02
340.854	73.21
341.066	17.92
341.278	126.46
341.491	120.32
341.703	17.92
341.915	-0.51
342.128	110.08
342.34	93.69
342.552	60.93
342.764	130.56
342.977	24.06
343.189	79.36
343.401	62.98
343.613	50.69
343.826	38.4
344.038	60.93
344.25	-20.99
344.462	46.59
344.674	69.12
344.886	54.78
345.099	165.37
345.311	71.17
345.523	42.5
345.735	-16.9
345.947	85.5
346.159	71.17
346.371	54.78
346.583	77.31
346.795	159.23
347.007	85.5
347.219	101.89
347.431	9.73
347.643	112.13
347.855	-31.23
348.067	85.5
348.279	99.84
348.491	48.64
348.703	99.84
348.915	40.45
349.127	62.98
349.339	101.89
349.551	85.5
349.763	85.5
349.975	52.74
350.187	124.41
350.399	126.46
350.61	81.41
350.822	-12.8
351.034	-10.75
351.246	85.5
351.458	75.26
351.669	22.02
351.881	62.98
352.093	9.73
352.305	46.59
352.517	75.26
352.728	105.98
352.94	69.12
353.152	108.03
353.363	81.41
353.575	126.46
353.787	52.74
353.999	56.83
354.21	110.08
354.422	15.87
354.633	17.92
354.845	11.78
355.057	67.07
355.268	58.88
355.48	146.94
355.692	30.21
355.903	101.89
356.115	62.98
356.326	-29.18
356.538	110.08
356.749	60.93
356.961	185.85
357.172	54.78
357.384	48.64
357.595	116.22
357.807	73.21
358.018	-0.51
358.23	38.4
358.441	132.61
358.653	89.6
358.864	17.92
359.075	34.3
359.287	67.07
359.498	110.08
359.709	-10.75
359.921	108.03
360.132	101.89
360.344	67.07
360.555	7.68
360.766	93.69
360.977	52.74
361.189	110.08
361.4	40.45
361.611	99.84
361.823	103.93
362.034	52.74
362.245	15.87
362.456	38.4
362.667	105.98
362.879	54.78
363.09	26.11
363.301	85.5
363.512	99.84
363.723	75.26
363.935	-0.51
364.146	83.45
364.357	95.74
364.568	-6.66
364.779	73.21
364.99	140.8
365.201	58.88
365.412	118.27
365.623	19.97
365.834	114.17
366.045	140.8
366.256	46.59
366.467	120.32
366.678	48.64
366.889	-16.9
367.1	85.5
367.311	69.12
367.522	130.56
367.733	87.55
367.944	140.8
368.155	56.83
368.366	71.17
368.577	85.5
368.788	93.69
368.999	7.68
369.209	71.17
369.42	171.52
369.631	138.75
369.842	79.36
370.053	40.45
370.264	118.27
370.474	-4.61
370.685	105.98
370.896	69.12
371.107	114.17
371.317	50.69
371.528	1.54
371.739	122.37
371.95	77.31
372.16	118.27
372.371	-12.8
372.582	48.64
372.792	97.79
373.003	130.56
373.214	99.84
373.424	99.84
373.635	9.73
373.846	91.65
374.056	65.02
374.267	48.64
374.477	146.94
374.688	75.26
374.898	91.65
375.109	101.89
375.319	140.8
375.53	163.33
375.74	93.69
375.951	112.13
376.161	73.21
376.372	108.03
376.582	24.06
376.793	116.22
377.003	34.3
377.214	62.98
377.424	83.45
377.635	81.41
377.845	42.5
378.055	116.22
378.266	97.79
378.476	40.45
378.686	7.68
378.897	75.26
379.107	157.18
379.317	89.6
379.528	110.08
379.738	97.79
379.948	-43.52
380.158	87.55
380.369	77.31
380.579	155.13
380.789	58.88
380.999	75.26
381.21	112.13
381.42	118.27
381.63	34.3
381.84	138.75
382.05	36.35
382.261	50.69
382.471	101.89
382.681	81.41
382.891	134.65
383.101	122.37
383.311	-18.94
383.521	56.83
383.731	24.06
383.941	67.07
384.151	91.65
384.361	62.98
384.571	95.74
384.781	132.61
384.991	122.37
385.201	138.75
385.411	65.02
385.621	89.6
385.831	105.98
386.041	-25.09
386.251	28.16
386.461	112.13
386.671	101.89
386.881	89.6
387.091	32.26
387.301	87.55
387.511	77.31
387.72	58.88
387.93	142.85
388.14	-14.85
388.35	157.18
388.56	50.69
388.769	140.8
388.979	81.41
389.189	-2.56
389.399	62.98
389.609	103.93
389.818	85.5
390.028	105.98
390.238	159.23
390.447	73.21
390.657	171.52
390.867	73.21
391.076	81.41
391.286	65.02
391.496	87.55
391.705	171.52
391.915	142.85
392.125	136.7
392.334	32.26
392.544	95.74
392.753	116.22
392.963	67.07
393.172	108.03
393.382	128.51
393.591	79.36
393.801	146.94
394.01	83.45
394.22	148.99
394.429	116.22
394.639	148.99
394.848	136.7
395.058	79.36
395.267	36.35
395.477	218.62
395.686	136.7
395.895	216.57
396.105	228.86
396.314	110.08
396.524	91.65
396.733	130.56
396.942	226.81
397.152	97.79
397.361	165.37
397.57	146.94
397.78	155.13
397.989	146.94
398.198	210.43
398.407	173.57
398.617	171.52
398.826	179.71
399.035	69.12
399.244	243.2
399.453	208.38
399.663	185.85
399.872	165.37
400.081	50.69
400.29	155.13
400.499	124.41
400.708	212.48
400.917	146.94
401.127	177.66
401.336	148.99
401.545	247.29
401.754	202.24
401.963	232.96
402.172	148.99
402.381	171.52
402.59	120.32
402.799	157.18
403.008	173.57
403.217	218.62
403.426	204.28
403.635	93.69
403.844	159.23
404.053	93.69
404.262	198.14
404.471	202.24
404.68	216.57
404.888	239.1
405.097	159.23
405.306	226.81
405.515	251.39
405.724	306.68
405.933	275.96
406.142	316.92
406.35	267.77
406.559	288.25
406.768	292.35
406.977	378.36
407.185	310.78
407.394	284.16
407.603	216.57
407.812	382.46
408.02	470.52
408.229	386.55
408.438	298.49
408.646	271.87
408.855	357.88
409.064	378.36
409.272	454.14
409.481	470.52
409.69	450.04
409.898	437.75
410.107	468.47
410.315	499.19
410.524	431.61
410.733	527.86
410.941	480.76
411.15	552.44
411.358	638.45
411.567	640.5
411.775	638.45
411.984	677.37
412.192	703.99
412.401	650.74
412.609	763.38
412.818	822.77
413.026	841.2
413.234	773.62
413.443	804.34
413.651	890.35
413.86	884.21
414.068	959.99
414.276	1000.94
414.485	974.32
414.693	1043.95
414.901	1084.91
415.11	1265.13
415.318	1076.72
415.526	1119.73
415.734	1261.04
415.943	1246.7
416.151	1359.34
416.359	1312.24
416.567	1338.86
416.776	1598.95
416.984	1424.87
417.192	1568.23
417.4	1549.8
417.608	1502.7
417.817	1705.45
418.025	1654.25
418.233	1793.51
418.441	1781.22
418.649	1863.14
418.857	2041.31
419.065	2104.8
419.273	2084.32
419.481	2104.8
419.689	2221.53
419.897	2414.04
420.105	2387.42
420.313	2514.39
420.521	2526.68
420.729	2563.54
420.937	2729.43
421.145	2747.86
421.353	2874.84
421.561	3122.64
421.769	3050.96
421.977	3323.34
422.185	3243.47
422.393	3431.88
422.601	3435.98
422.809	3698.12
423.017	3644.87
423.224	3847.62
423.432	3837.38
423.64	3904.96
423.848	4300.22
424.056	4148.67
424.263	4386.24
424.471	4306.37
424.679	4455.87
424.887	4828.6
425.094	4883.89
425.302	5025.2
425.51	5213.62
425.718	5264.82
425.925	5367.21
426.133	5524.91
426.341	5856.68
426.548	5893.54
426.756	6178.21
426.964	6167.97
427.171	6395.29
427.379	6569.37
427.586	6825.37
427.794	7064.98
428.001	7361.94
428.209	7730.57
428.417	7452.05
428.624	8091.01
428.832	8187.27
429.039	7886.22
429.247	7986.57
429.454	8717.69
429.662	9198.96
429.869	8635.77
430.076	9268.59
430.284	9164.15
430.491	9534.83
430.699	10059.11
430.906	10003.82
431.114	10093.93
431.321	10452.32
431.528	10601.82
431.736	11388.24
431.943	11808.08
432.15	11550.03
432.358	11597.14
432.565	12395.84
432.772	12125.51
432.979	12834.11
433.187	13038.91
433.394	12932.41
433.601	14003.5
433.808	14007.59
434.016	14066.99
434.223	14349.61
434.43	15228.18
434.637	15000.86
434.844	15914.25
435.052	16016.65
435.259	16160.01
435.466	16286.98
435.673	16121.1
435.88	17163.51
436.087	18093.29
436.294	18074.86
436.501	17446.13
436.708	17997.04
436.915	18392.3
437.122	19227.87
437.329	19219.67
437.537	20024.53
437.743	20180.17
437.95	19807.44
438.157	21116.09
438.364	21712.05
438.571	21619.89
438.778	21896.37
438.985	23766.17
439.192	22830.24
439.399	23344.28
439.606	22820
439.813	24114.32
440.02	25676.92
440.227	25275.52
440.433	24806.53
440.64	25838.71
440.847	25398.4
441.054	26113.14
441.261	27831.38
441.467	27395.17
441.674	27890.77
441.881	29277.25
442.088	29119.56
442.294	28726.35
442.501	29248.58
442.708	30030.9
442.914	30759.98
443.121	32494.61
443.328	31368.23
443.534	33752.06
443.741	32535.57
443.948	32181.27
444.154	34542.58
444.361	34243.57
444.568	34610.16
444.774	34454.51
444.981	34624.5
445.187	35681.25
445.394	37428.16
445.6	36797.39
445.807	40678.29
446.013	38630.32
446.22	39087.02
446.426	40842.13
446.633	40997.77
446.839	42378.11
447.046	40555.41
447.252	42656.63
447.459	42898.29
447.665	42693.49
447.871	44475.23
448.078	46207.81
448.284	43914.08
448.491	45058.9
448.697	46785.33
448.903	47653.67
449.11	47465.26
449.316	46848.82
449.522	47903.53
449.728	48956.18
449.935	49054.48
450.141	48620.31
450.347	49896.2
450.553	48540.44
450.76	48907.03
450.966	50569.98
451.172	49629.96
451.378	51024.63
451.584	49857.29
451.791	51348.21
451.997	50957.05
452.203	52013.8
452.409	51720.94
452.615	51292.91
452.821	49687.31
453.027	49083.16
453.233	51053.3
453.44	49101.59
453.646	49779.46
453.852	49853.19
454.058	50873.08
454.264	49232.66
454.47	50455.29
454.676	48530.2
454.882	50803.45
455.088	45910.85
455.294	46459.71
455.5	47594.28
455.705	48063.27
455.911	46363.45
456.117	45509.45
456.323	44333.92
456.529	42261.37
456.735	43854.69
456.941	42515.32
457.147	41898.88
457.352	40940.43
457.558	40055.71
457.764	40586.13
457.97	39658.4
458.176	38812.59
458.381	38372.28
458.587	36893.65
458.793	36492.24
458.999	34583.54
459.204	37168.07
459.41	36289.49
459.616	33596.42
459.821	33391.62
460.027	33391.62
460.233	32906.25
460.438	31425.57
460.644	31304.74
460.85	29787.19
461.055	29494.33
461.261	29209.67
461.466	27014.24
461.672	26129.52
461.878	28339.28
462.083	26461.29
462.289	25685.11
462.494	25422.97
462.7	24224.91
462.905	23614.62
463.111	24534.15
463.316	24507.53
463.522	24140.94
463.727	24044.69
463.932	23932.05
464.138	23567.51
464.343	23721.11
464.549	22928.55
464.754	23858.32
464.959	23469.21
465.165	23276.7
465.37	22297.77
465.575	21533.88
