Data from USB4F104151__25__12-11-45-059.txt Node

Date: Fri Mar 14 12:11:45 EDT 2025
User: louis
Spectrometer: USB4F10415
Trigger mode: 4
Integration Time (sec): 5.000000E-2
Scans to average: 1
Electric dark correction enabled: true
Nonlinearity correction enabled: false
Boxcar width: 0
XAxis mode: Wavelengths
Number of Pixels in Spectrum: 3648
>>>>>Begin Spectral Data<<<<<
178.204	-183.81
178.424	-183.81
178.644	-183.81
178.864	-151.04
179.084	-212.48
179.304	-89.6
179.524	-34.3
179.744	-52.74
179.964	43.52
180.184	33.28
180.404	53.76
180.624	12.8
180.844	39.42
181.064	-46.59
181.283	-44.54
181.503	53.76
181.723	31.23
181.943	-13.82
182.163	156.16
182.383	20.99
182.602	80.38
182.822	107.01
183.042	-1.54
183.262	27.14
183.482	41.47
183.701	-26.11
183.921	-15.87
184.141	-1.54
184.361	115.2
184.58	64
184.8	41.47
185.02	-30.21
185.239	57.86
185.459	156.16
185.679	43.52
185.898	-71.17
186.118	57.86
186.338	61.95
186.557	94.72
186.777	-52.74
186.997	113.15
187.216	18.94
187.436	139.77
187.655	57.86
187.875	-7.68
188.095	-3.58
188.314	68.09
188.534	64
188.753	-32.26
188.973	78.33
189.192	80.38
189.412	55.81
189.631	64
189.851	33.28
190.07	131.58
190.29	43.52
190.509	82.43
190.729	12.8
190.948	113.15
191.168	233.98
191.387	84.48
191.607	14.85
191.826	59.9
192.045	-15.87
192.265	57.86
192.484	10.75
192.704	51.71
192.923	-28.16
193.142	115.2
193.362	117.25
193.581	111.1
193.8	33.28
194.02	74.24
194.239	-19.97
194.458	104.96
194.678	39.42
194.897	2.56
195.116	18.94
195.335	-9.73
195.555	47.62
195.774	53.76
195.993	80.38
196.212	51.71
196.432	64
196.651	100.86
196.87	33.28
197.089	168.45
197.308	100.86
197.528	111.1
197.747	-42.5
197.966	94.72
198.185	133.63
198.404	98.81
198.623	66.05
198.842	98.81
199.062	133.63
199.281	188.93
199.5	49.66
199.719	45.57
199.938	25.09
200.157	88.57
200.376	68.09
200.595	57.86
200.814	84.48
201.033	33.28
201.252	98.81
201.471	55.81
201.69	129.53
201.909	33.28
202.128	61.95
202.347	25.09
202.566	37.38
202.785	37.38
203.004	78.33
203.223	180.73
203.442	35.33
203.661	72.19
203.879	0.51
204.098	127.49
204.317	-32.26
204.536	100.86
204.755	121.34
204.974	39.42
205.193	90.62
205.411	98.81
205.63	39.42
205.849	49.66
206.068	43.52
206.287	61.95
206.505	-3.58
206.724	31.23
206.943	-24.06
207.162	4.61
207.381	100.86
207.599	92.67
207.818	41.47
208.037	-5.63
208.255	74.24
208.474	0.51
208.693	55.81
208.911	45.57
209.13	41.47
209.349	0.51
209.567	100.86
209.786	82.43
210.005	90.62
210.223	6.66
210.442	49.66
210.661	121.34
210.879	59.9
211.098	-13.82
211.316	4.61
211.535	125.44
211.753	18.94
211.972	8.7
212.191	-1.54
212.409	51.71
212.628	45.57
212.846	-13.82
213.065	16.9
213.283	78.33
213.502	37.38
213.72	-3.58
213.938	74.24
214.157	33.28
214.375	25.09
214.594	-34.3
214.812	59.9
215.031	25.09
215.249	94.72
215.467	78.33
215.686	23.04
215.904	115.2
216.122	43.52
216.341	94.72
216.559	66.05
216.778	111.1
216.996	127.49
217.214	0.51
217.432	47.62
217.651	-32.26
217.869	43.52
218.087	127.49
218.306	37.38
218.524	102.91
218.742	55.81
218.96	61.95
219.179	-28.16
219.397	57.86
219.615	115.2
219.833	51.71
220.051	-9.73
220.27	51.71
220.488	109.05
220.706	102.91
220.924	47.62
221.142	14.85
221.36	143.87
221.578	-24.06
221.796	-24.06
222.015	12.8
222.233	14.85
222.451	156.16
222.669	-52.74
222.887	-13.82
223.105	29.18
223.323	43.52
223.541	-17.92
223.759	25.09
223.977	76.29
224.195	162.3
224.413	31.23
224.631	76.29
224.849	27.14
225.067	109.05
225.285	53.76
225.503	37.38
225.721	-56.83
225.939	-13.82
226.157	61.95
226.375	219.64
226.592	-34.3
226.81	10.75
227.028	78.33
227.246	135.68
227.464	35.33
227.682	84.48
227.9	92.67
228.117	59.9
228.335	76.29
228.553	39.42
228.771	43.52
228.989	92.67
229.206	61.95
229.424	72.19
229.642	43.52
229.86	8.7
230.077	92.67
230.295	29.18
230.513	-7.68
230.731	43.52
230.948	98.81
231.166	92.67
231.384	18.94
231.601	76.29
231.819	78.33
232.037	80.38
232.254	-24.06
232.472	82.43
232.689	-17.92
232.907	43.52
233.125	57.86
233.342	33.28
233.56	-5.63
233.777	16.9
233.995	43.52
234.213	45.57
234.43	166.4
234.648	23.04
234.865	-54.78
235.083	98.81
235.3	16.9
235.518	66.05
235.735	178.69
235.953	150.01
236.17	16.9
236.388	70.14
236.605	100.86
236.822	98.81
237.04	117.25
237.257	80.38
237.475	-24.06
237.692	-5.63
237.909	59.9
238.127	16.9
238.344	37.38
238.562	127.49
238.779	57.86
238.996	-32.26
239.214	37.38
239.431	8.7
239.648	96.77
239.865	59.9
240.083	39.42
240.3	82.43
240.517	41.47
240.735	2.56
240.952	135.68
241.169	98.81
241.386	14.85
241.603	59.9
241.821	59.9
242.038	139.77
242.255	47.62
242.472	-118.27
242.689	66.05
242.907	82.43
243.124	39.42
243.341	25.09
243.558	-52.74
243.775	12.8
243.992	8.7
244.209	59.9
244.426	139.77
244.643	41.47
244.86	82.43
245.078	90.62
245.295	88.57
245.512	57.86
245.729	-42.5
245.946	78.33
246.163	76.29
246.38	31.23
246.597	2.56
246.814	12.8
247.031	74.24
247.248	125.44
247.464	129.53
247.681	66.05
247.898	78.33
248.115	51.71
248.332	23.04
248.549	49.66
248.766	92.67
248.983	131.58
249.2	64
249.417	41.47
249.633	-1.54
249.85	72.19
250.067	51.71
250.284	-34.3
250.501	70.14
250.717	82.43
250.934	18.94
251.151	31.23
251.368	2.56
251.585	68.09
251.801	57.86
252.018	-13.82
252.235	-3.58
252.451	61.95
252.668	-19.97
252.885	51.71
253.102	121.34
253.318	68.09
253.535	39.42
253.752	35.33
253.968	14.85
254.185	20.99
254.401	47.62
254.618	45.57
254.835	49.66
255.051	119.29
255.268	43.52
255.484	51.71
255.701	76.29
255.917	20.99
256.134	80.38
256.351	31.23
256.567	53.76
256.784	29.18
257	-9.73
257.217	49.66
257.433	64
257.65	88.57
257.866	113.15
258.082	-36.35
258.299	-54.78
258.515	127.49
258.732	-28.16
258.948	2.56
259.165	16.9
259.381	-30.21
259.597	8.7
259.814	-15.87
260.03	39.42
260.246	-17.92
260.463	123.39
260.679	117.25
260.895	-15.87
261.112	35.33
261.328	43.52
261.544	14.85
261.761	174.59
261.977	35.33
262.193	-13.82
262.409	78.33
262.626	-3.58
262.842	59.9
263.058	2.56
263.274	61.95
263.49	94.72
263.707	76.29
263.923	39.42
264.139	-24.06
264.355	35.33
264.571	49.66
264.787	68.09
265.004	129.53
265.22	43.52
265.436	16.9
265.652	20.99
265.868	147.97
266.084	10.75
266.3	68.09
266.516	-24.06
266.732	61.95
266.948	35.33
267.164	66.05
267.38	-17.92
267.596	61.95
267.812	127.49
268.028	104.96
268.244	0.51
268.46	76.29
268.676	80.38
268.892	82.43
269.108	45.57
269.324	94.72
269.54	29.18
269.756	90.62
269.972	-9.73
270.188	74.24
270.403	-40.45
270.619	25.09
270.835	98.81
271.051	18.94
271.267	6.66
271.483	14.85
271.698	14.85
271.914	53.76
272.13	45.57
272.346	49.66
272.562	90.62
272.777	49.66
272.993	86.53
273.209	-42.5
273.425	72.19
273.64	18.94
273.856	86.53
274.072	49.66
274.287	20.99
274.503	127.49
274.719	90.62
274.934	100.86
275.15	-13.82
275.366	74.24
275.581	59.9
275.797	29.18
276.012	115.2
276.228	12.8
276.444	41.47
276.659	92.67
276.875	27.14
277.09	23.04
277.306	25.09
277.521	131.58
277.737	35.33
277.952	41.47
278.168	94.72
278.383	74.24
278.599	76.29
278.814	96.77
279.03	74.24
279.245	4.61
279.461	-19.97
279.676	18.94
279.892	-36.35
280.107	68.09
280.322	2.56
280.538	59.9
280.753	-26.11
280.969	68.09
281.184	-7.68
281.399	78.33
281.615	57.86
281.83	96.77
282.045	-5.63
282.26	59.9
282.476	59.9
282.691	82.43
282.906	8.7
283.122	88.57
283.337	-24.06
283.552	90.62
283.767	8.7
283.983	88.57
284.198	4.61
284.413	-19.97
284.628	-9.73
284.843	107.01
285.058	84.48
285.274	94.72
285.489	70.14
285.704	72.19
285.919	-11.78
286.134	16.9
286.349	51.71
286.564	35.33
286.779	31.23
286.995	14.85
287.21	37.38
287.425	14.85
287.64	102.91
287.855	23.04
288.07	31.23
288.285	78.33
288.5	37.38
288.715	111.1
288.93	-5.63
289.145	35.33
289.36	90.62
289.575	45.57
289.79	39.42
290.004	49.66
290.219	-7.68
290.434	43.52
290.649	59.9
290.864	27.14
291.079	98.81
291.294	78.33
291.509	66.05
291.724	45.57
291.938	41.47
292.153	43.52
292.368	27.14
292.583	88.57
292.798	107.01
293.012	78.33
293.227	53.76
293.442	49.66
293.657	41.47
293.871	127.49
294.086	80.38
294.301	129.53
294.516	78.33
294.73	125.44
294.945	35.33
295.16	55.81
295.374	66.05
295.589	133.63
295.804	-40.45
296.018	76.29
296.233	121.34
296.447	98.81
296.662	47.62
296.877	72.19
297.091	51.71
297.306	68.09
297.52	143.87
297.735	2.56
297.949	86.53
298.164	129.53
298.378	72.19
298.593	-34.3
298.807	-19.97
299.022	41.47
299.236	64
299.451	4.61
299.665	80.38
299.88	-22.02
300.094	35.33
300.309	61.95
300.523	33.28
300.737	8.7
300.952	90.62
301.166	35.33
301.381	-54.78
301.595	45.57
301.809	98.81
302.024	39.42
302.238	18.94
302.452	41.47
302.667	25.09
302.881	113.15
303.095	94.72
303.309	53.76
303.524	-5.63
303.738	47.62
303.952	59.9
304.166	76.29
304.381	-38.4
304.595	57.86
304.809	-17.92
305.023	49.66
305.237	-28.16
305.452	-52.74
305.666	35.33
305.88	59.9
306.094	90.62
306.308	-3.58
306.522	-19.97
306.736	41.47
306.95	84.48
307.164	51.71
307.379	90.62
307.593	84.48
307.807	88.57
308.021	33.28
308.235	49.66
308.449	47.62
308.663	68.09
308.877	162.3
309.091	14.85
309.305	27.14
309.519	0.51
309.733	111.1
309.947	-5.63
310.161	92.67
310.374	129.53
310.588	25.09
310.802	-5.63
311.016	117.25
311.23	64
311.444	68.09
311.658	-22.02
311.872	145.92
312.085	43.52
312.299	64
312.513	143.87
312.727	64
312.941	68.09
313.154	53.76
313.368	47.62
313.582	25.09
313.796	35.33
314.009	29.18
314.223	127.49
314.437	102.91
314.651	92.67
314.864	16.9
315.078	-19.97
315.292	76.29
315.505	51.71
315.719	64
315.933	41.47
316.146	-40.45
316.36	29.18
316.573	51.71
316.787	199.16
317.001	137.73
317.214	-5.63
317.428	86.53
317.641	43.52
317.855	-17.92
318.068	64
318.282	51.71
318.495	92.67
318.709	49.66
318.922	55.81
319.136	147.97
319.349	20.99
319.563	68.09
319.776	137.73
319.99	41.47
320.203	147.97
320.417	64
320.63	57.86
320.843	121.34
321.057	18.94
321.27	57.86
321.483	53.76
321.697	61.95
321.91	107.01
322.124	131.58
322.337	68.09
322.55	125.44
322.763	43.52
322.977	-1.54
323.19	-7.68
323.403	123.39
323.617	43.52
323.83	104.96
324.043	-15.87
324.256	100.86
324.469	37.38
324.683	-11.78
324.896	16.9
325.109	104.96
325.322	-54.78
325.535	72.19
325.748	86.53
325.962	90.62
326.175	80.38
326.388	-9.73
326.601	72.19
326.814	57.86
327.027	64
327.24	113.15
327.453	14.85
327.666	135.68
327.879	131.58
328.092	55.81
328.305	61.95
328.518	57.86
328.731	25.09
328.944	18.94
329.157	-30.21
329.37	-3.58
329.583	125.44
329.796	178.69
330.009	-54.78
330.222	20.99
330.435	53.76
330.648	117.25
330.861	61.95
331.073	86.53
331.286	104.96
331.499	111.1
331.712	76.29
331.925	129.53
332.138	107.01
332.35	27.14
332.563	66.05
332.776	-15.87
332.989	45.57
333.202	68.09
333.414	31.23
333.627	72.19
333.84	80.38
334.053	76.29
334.265	-32.26
334.478	-11.78
334.691	94.72
334.903	6.66
335.116	23.04
335.329	29.18
335.541	66.05
335.754	86.53
335.966	51.71
336.179	57.86
336.392	94.72
336.604	33.28
336.817	64
337.029	135.68
337.242	96.77
337.454	137.73
337.667	-13.82
337.88	84.48
338.092	43.52
338.305	66.05
338.517	55.81
338.729	90.62
338.942	107.01
339.154	18.94
339.367	55.81
339.579	78.33
339.792	6.66
340.004	80.38
340.217	90.62
340.429	66.05
340.641	10.75
340.854	37.38
341.066	57.86
341.278	90.62
341.491	147.97
341.703	43.52
341.915	-13.82
342.128	64
342.34	16.9
342.552	20.99
342.764	10.75
342.977	57.86
343.189	107.01
343.401	100.86
343.613	39.42
343.826	84.48
344.038	94.72
344.25	74.24
344.462	41.47
344.674	18.94
344.886	107.01
345.099	74.24
345.311	94.72
345.523	82.43
345.735	29.18
345.947	59.9
346.159	61.95
346.371	12.8
346.583	74.24
346.795	166.4
347.007	66.05
347.219	61.95
347.431	37.38
347.643	78.33
347.855	-77.31
348.067	55.81
348.279	-5.63
348.491	10.75
348.703	-13.82
348.915	6.66
349.127	27.14
349.339	61.95
349.551	68.09
349.763	107.01
349.975	55.81
350.187	86.53
350.399	145.92
350.61	49.66
350.822	90.62
351.034	72.19
351.246	4.61
351.458	78.33
351.669	78.33
351.881	115.2
352.093	35.33
352.305	115.2
352.517	31.23
352.728	47.62
352.94	35.33
353.152	147.97
353.363	66.05
353.575	111.1
353.787	121.34
353.999	109.05
354.21	139.77
354.422	57.86
354.633	53.76
354.845	25.09
355.057	37.38
355.268	68.09
355.48	104.96
355.692	10.75
355.903	47.62
356.115	23.04
356.326	-40.45
356.538	68.09
356.749	84.48
356.961	76.29
357.172	66.05
357.384	66.05
357.595	96.77
357.807	74.24
358.018	16.9
358.23	41.47
358.441	113.15
358.653	141.82
358.864	41.47
359.075	-22.02
359.287	-3.58
359.498	66.05
359.709	55.81
359.921	53.76
360.132	84.48
360.344	45.57
360.555	59.9
360.766	109.05
360.977	53.76
361.189	61.95
361.4	16.9
361.611	94.72
361.823	164.35
362.034	131.58
362.245	-30.21
362.456	55.81
362.667	92.67
362.879	25.09
363.09	51.71
363.301	2.56
363.512	-15.87
363.723	31.23
363.935	68.09
364.146	117.25
364.357	33.28
364.568	107.01
364.779	29.18
364.99	125.44
365.201	119.29
365.412	76.29
365.623	-42.5
365.834	82.43
366.045	12.8
366.256	164.35
366.467	66.05
366.678	61.95
366.889	64
367.1	90.62
367.311	51.71
367.522	14.85
367.733	127.49
367.944	41.47
368.155	107.01
368.366	-46.59
368.577	90.62
368.788	84.48
368.999	-1.54
369.209	16.9
369.42	201.21
369.631	266.75
369.842	84.48
370.053	66.05
370.264	100.86
370.474	8.7
370.685	23.04
370.896	10.75
371.107	137.73
371.317	70.14
371.528	72.19
371.739	68.09
371.95	88.57
372.16	84.48
372.371	41.47
372.582	33.28
372.792	107.01
373.003	27.14
373.214	39.42
373.424	66.05
373.635	18.94
373.846	100.86
374.056	47.62
374.267	23.04
374.477	47.62
374.688	43.52
374.898	43.52
375.109	43.52
375.319	133.63
375.53	31.23
375.74	143.87
375.951	53.76
376.161	57.86
376.372	90.62
376.582	-24.06
376.793	88.57
377.003	61.95
377.214	109.05
377.424	45.57
377.635	70.14
377.845	51.71
378.055	119.29
378.266	37.38
378.476	37.38
378.686	92.67
378.897	-7.68
379.107	55.81
379.317	29.18
379.528	-3.58
379.738	68.09
379.948	0.51
380.158	139.77
380.369	6.66
380.579	84.48
380.789	117.25
380.999	70.14
381.21	80.38
381.42	113.15
381.63	12.8
381.84	92.67
382.05	64
382.261	119.29
382.471	143.87
382.681	82.43
382.891	186.88
383.101	90.62
383.311	59.9
383.521	68.09
383.731	133.63
383.941	102.91
384.151	-15.87
384.361	64
384.571	139.77
384.781	88.57
384.991	96.77
385.201	64
385.411	98.81
385.621	92.67
385.831	82.43
386.041	78.33
386.251	45.57
386.461	121.34
386.671	68.09
386.881	72.19
387.091	94.72
387.301	147.97
387.511	86.53
387.72	137.73
387.93	154.11
388.14	29.18
388.35	92.67
388.56	135.68
388.769	68.09
388.979	53.76
389.189	43.52
389.399	76.29
389.609	92.67
389.818	12.8
390.028	51.71
390.238	68.09
390.447	33.28
390.657	31.23
390.867	74.24
391.076	-22.02
391.286	16.9
391.496	129.53
391.705	90.62
391.915	125.44
392.125	178.69
392.334	109.05
392.544	158.21
392.753	41.47
392.963	51.71
393.172	137.73
393.382	8.7
393.591	158.21
393.801	72.19
394.01	123.39
394.22	164.35
394.429	12.8
394.639	55.81
394.848	139.77
395.058	51.71
395.267	115.2
395.477	80.38
395.686	49.66
395.895	164.35
396.105	168.45
396.314	145.92
396.524	31.23
396.733	41.47
396.942	80.38
397.152	164.35
397.361	72.19
397.57	121.34
397.78	55.81
397.989	107.01
398.198	207.36
398.407	84.48
398.617	100.86
398.826	92.67
399.035	143.87
399.244	162.3
399.453	113.15
399.663	131.58
399.872	182.78
400.081	74.24
400.29	107.01
400.499	72.19
400.708	158.21
400.917	131.58
401.127	61.95
401.336	94.72
401.545	143.87
401.754	258.56
401.963	174.59
402.172	94.72
402.381	119.29
402.59	205.31
402.799	188.93
403.008	168.45
403.217	125.44
403.426	160.25
403.635	141.82
403.844	168.45
404.053	160.25
404.262	164.35
404.471	264.7
404.68	186.88
404.888	88.57
405.097	127.49
405.306	137.73
405.515	227.84
405.724	258.56
405.933	231.93
406.142	131.58
406.35	201.21
406.559	186.88
406.768	193.02
406.977	289.28
407.185	223.74
407.394	225.79
407.603	195.07
407.812	205.31
408.02	215.55
408.229	193.02
408.438	221.69
408.646	238.08
408.855	197.12
409.064	231.93
409.272	305.66
409.481	283.13
409.69	291.32
409.898	326.14
410.107	309.76
410.315	410.11
410.524	356.86
410.733	328.19
410.941	315.9
411.15	373.24
411.358	412.15
411.567	461.3
411.775	469.5
411.984	356.86
412.192	453.11
412.401	477.69
412.609	575.99
412.818	535.03
413.026	522.74
413.234	526.84
413.443	473.59
413.651	547.32
413.86	512.5
414.068	715.25
414.276	739.83
414.485	582.14
414.693	764.4
414.901	688.63
415.11	758.26
415.318	711.16
415.526	782.84
415.734	690.68
415.943	831.99
416.151	788.98
416.359	883.19
416.567	918
416.776	918
416.984	913.91
417.192	1057.26
417.4	1094.13
417.608	928.24
417.817	1192.43
418.025	1194.48
418.233	1335.79
418.441	1077.74
418.649	1225.2
418.857	1327.6
419.065	1354.22
419.273	1303.02
419.481	1358.32
419.689	1475.05
419.897	1524.2
420.105	1569.26
420.313	1708.52
420.521	1591.78
420.729	1675.75
420.937	1571.3
421.145	1626.6
421.353	1905.12
421.561	2048.48
421.769	1995.23
421.977	2034.14
422.185	2095.58
422.393	2220.51
422.601	2306.52
422.809	2165.21
423.017	2425.31
423.224	2554.33
423.432	2468.31
423.64	2570.71
423.848	2798.04
424.056	2605.53
424.263	2886.1
424.471	2851.28
424.679	2970.07
424.887	3066.32
425.094	3262.93
425.302	3209.68
425.51	3387.85
425.718	3447.24
425.925	3437
426.133	3566.03
426.341	3736.01
426.548	3924.42
426.756	3940.8
426.964	3969.48
427.171	4227.52
427.379	4213.18
427.586	4458.94
427.794	4516.28
428.001	4792.76
428.209	4968.88
428.417	4913.59
428.624	5153.2
428.832	5190.06
429.039	5245.36
429.247	5132.72
429.454	5669.29
429.662	6050.21
429.869	5720.49
430.076	6154.66
430.284	5966.24
430.491	6246.82
430.699	6644.12
430.906	6576.54
431.114	6672.79
431.321	6838.68
431.528	6951.32
431.736	7623.05
431.943	7887.24
432.15	7518.61
432.358	7674.25
432.565	8198.53
432.772	7942.53
432.979	8452.48
433.187	8651.13
433.394	8612.22
433.601	9167.22
433.808	9056.63
434.016	9173.36
434.223	9544.05
434.43	10170.72
434.637	10035.56
434.844	10535.26
435.052	10877.27
435.259	10725.72
435.466	10809.69
435.673	10705.24
435.88	11297.11
436.087	11983.18
436.294	11964.75
436.501	11743.56
436.708	11934.03
436.915	12185.93
437.122	12923.19
437.329	12656.96
437.537	13021.5
437.743	13437.23
437.95	13408.56
438.157	13883.69
438.364	14508.32
438.571	14557.47
438.778	14731.55
438.985	15911.18
439.192	15434
439.399	15595.79
439.606	15431.96
439.813	16218.38
440.02	17524.98
440.227	17006.84
440.433	16849.15
440.64	17275.13
440.847	17352.95
441.054	17469.69
441.261	18710.75
441.467	18569.44
441.674	18632.93
441.881	19800.27
442.088	19321.05
442.294	19704.02
442.501	19886.29
442.708	20539.59
442.914	21006.53
443.121	22036.66
443.328	21414.07
443.534	22904.99
443.741	22266.03
443.948	21631.16
444.154	23582.87
444.361	23445.66
444.568	23773.33
444.774	23548.06
444.981	23847.06
445.187	24705.16
445.394	25532.54
445.6	25337.98
445.807	27750.49
446.013	26591.34
446.22	26949.73
446.426	28121.17
446.633	28043.35
446.839	29222.98
447.046	28096.6
447.252	29710.39
447.459	29444.16
447.665	29222.98
447.871	30756.91
448.078	32311.31
448.284	30320.69
448.491	31211.56
448.697	32411.67
448.903	33476.61
449.11	33581.06
449.316	32331.79
449.522	32962.57
449.728	34109.43
449.935	34156.53
450.141	34281.46
450.347	34920.43
450.553	33830.91
450.76	34629.62
450.966	35258.34
451.172	34781.17
451.378	35692.51
451.584	34742.25
451.791	36114.39
451.997	36141.02
452.203	36642.77
452.409	36857.81
452.615	36327.38
452.821	34897.9
453.027	34174.97
453.233	36501.46
453.44	35051.5
453.646	35344.36
453.852	35368.93
454.058	36112.34
454.264	35012.59
454.47	35809.25
454.676	34734.06
454.882	35958.75
455.088	33204.23
455.294	33292.29
455.5	33927.16
455.705	34017.27
455.911	32438.29
456.117	32069.65
456.323	31645.73
456.529	29993.01
456.735	31017
456.941	30715.95
457.147	29818.94
457.352	29134.92
457.558	29065.28
457.764	28715.08
457.97	28006.48
458.176	27408.48
458.381	27545.69
458.587	25942.13
458.793	26366.06
458.999	24803.46
459.204	26466.41
459.41	26028.15
459.616	24123.54
459.821	24213.65
460.027	23885.97
460.233	23308.44
460.438	22094
460.644	22653.09
460.85	21385.4
461.055	21135.55
461.261	21133.5
461.466	19724.5
461.672	19183.84
461.878	20349.13
462.083	18948.32
462.289	18704.61
462.494	18438.37
462.7	17684.72
462.905	17094.91
463.111	17830.13
463.316	17993.97
463.522	17424.63
463.727	17639.67
463.932	17361.14
464.138	17105.15
464.343	17139.96
464.549	16601.35
464.754	17426.68
464.959	17133.82
465.165	17049.85
465.37	16326.92
465.575	15907.09
465.781	16507.14
465.986	16593.15
466.191	16025.87
466.397	15616.27
466.602	15089.95
