Data from USB4F104151__53__12-12-18-805.txt Node

Date: Fri Mar 14 12:12:18 EDT 2025
User: louis
Spectrometer: USB4F10415
Trigger mode: 4
Integration Time (sec): 5.000000E-2
Scans to average: 1
Electric dark correction enabled: true
Nonlinearity correction enabled: false
Boxcar width: 0
XAxis mode: Wavelengths
Number of Pixels in Spectrum: 3648
>>>>>Begin Spectral Data<<<<<
178.204	-223.74
178.424	-223.74
178.644	-223.74
178.864	-272.89
179.084	-291.32
179.304	-70.14
179.524	-49.66
179.744	-10.75
179.964	95.74
180.184	19.97
180.404	-0.51
180.624	32.26
180.844	26.11
181.064	-27.14
181.283	-20.99
181.503	-59.9
181.723	65.02
181.943	-66.05
182.163	136.7
182.383	15.87
182.602	26.11
182.822	105.98
183.042	-18.94
183.262	-25.09
183.482	28.16
183.701	-18.94
183.921	-6.66
184.141	-45.57
184.361	44.54
184.58	44.54
184.8	-10.75
185.02	-6.66
185.239	112.13
185.459	15.87
185.679	24.06
185.898	-20.99
186.118	71.17
186.338	11.78
186.557	28.16
186.777	22.02
186.997	44.54
187.216	-23.04
187.436	40.45
187.655	60.93
187.875	126.46
188.095	-16.9
188.314	89.6
188.534	89.6
188.753	24.06
188.973	81.41
189.192	85.5
189.412	15.87
189.631	69.12
189.851	15.87
190.07	11.78
190.29	-16.9
190.509	-31.23
190.729	36.35
190.948	13.82
191.168	267.77
191.387	44.54
191.607	-59.9
191.826	58.88
192.045	-37.38
192.265	-37.38
192.484	-47.62
192.704	17.92
192.923	-31.23
193.142	192
193.362	79.36
193.581	116.22
193.8	60.93
194.02	56.83
194.239	5.63
194.458	-16.9
194.678	24.06
194.897	7.68
195.116	50.69
195.335	9.73
195.555	81.41
195.774	54.78
195.993	87.55
196.212	26.11
196.432	-14.85
196.651	-0.51
196.87	38.4
197.089	118.27
197.308	110.08
197.528	62.98
197.747	-66.05
197.966	87.55
198.185	79.36
198.404	-20.99
198.623	26.11
198.842	60.93
199.062	110.08
199.281	144.89
199.5	9.73
199.719	22.02
199.938	13.82
200.157	73.21
200.376	65.02
200.595	62.98
200.814	40.45
201.033	62.98
201.252	58.88
201.471	-2.56
201.69	97.79
201.909	87.55
202.128	103.93
202.347	60.93
202.566	26.11
202.785	-10.75
203.004	17.92
203.223	73.21
203.442	15.87
203.661	9.73
203.879	50.69
204.098	93.69
204.317	-41.47
204.536	69.12
204.755	71.17
204.974	118.27
205.193	24.06
205.411	93.69
205.63	7.68
205.849	81.41
206.068	110.08
206.287	-10.75
206.505	7.68
206.724	93.69
206.943	-8.7
207.162	42.5
207.381	95.74
207.599	48.64
207.818	34.3
208.037	-10.75
208.255	9.73
208.474	85.5
208.693	75.26
208.911	-94.72
209.13	38.4
209.349	71.17
209.567	85.5
209.786	32.26
210.005	50.69
210.223	36.35
210.442	-53.76
210.661	60.93
210.879	54.78
211.098	71.17
211.316	87.55
211.535	151.04
211.753	142.85
211.972	73.21
212.191	28.16
212.409	-10.75
212.628	32.26
212.846	30.21
213.065	99.84
213.283	93.69
213.502	-31.23
213.72	30.21
213.938	24.06
214.157	-8.7
214.375	71.17
214.594	-10.75
214.812	67.07
215.031	77.31
215.249	3.58
215.467	19.97
215.686	-45.57
215.904	69.12
216.122	32.26
216.341	87.55
216.559	-29.18
216.778	28.16
216.996	24.06
217.214	-12.8
217.432	69.12
217.651	54.78
217.869	38.4
218.087	54.78
218.306	32.26
218.524	36.35
218.742	54.78
218.96	48.64
219.179	-8.7
219.397	79.36
219.615	144.89
219.833	17.92
220.051	15.87
220.27	60.93
220.488	89.6
220.706	46.59
220.924	-84.48
221.142	-16.9
221.36	24.06
221.578	40.45
221.796	40.45
222.015	77.31
222.233	-8.7
222.451	69.12
222.669	-6.66
222.887	-18.94
223.105	-53.76
223.323	11.78
223.541	28.16
223.759	101.89
223.977	83.45
224.195	50.69
224.413	26.11
224.631	-4.61
224.849	19.97
225.067	108.03
225.285	-18.94
225.503	3.58
225.721	-49.66
225.939	13.82
226.157	15.87
226.375	83.45
226.592	-80.38
226.81	54.78
227.028	91.65
227.246	69.12
227.464	9.73
227.682	38.4
227.9	48.64
228.117	13.82
228.335	71.17
228.553	13.82
228.771	17.92
228.989	60.93
229.206	-20.99
229.424	36.35
229.642	-33.28
229.86	30.21
230.077	50.69
230.295	-10.75
230.513	95.74
230.731	69.12
230.948	103.93
231.166	77.31
231.384	1.54
231.601	1.54
231.819	93.69
232.037	44.54
232.254	54.78
232.472	87.55
232.689	-35.33
232.907	48.64
233.125	-82.43
233.342	17.92
233.56	15.87
233.777	97.79
233.995	71.17
234.213	87.55
234.43	-18.94
234.648	5.63
234.865	38.4
235.083	110.08
235.3	85.5
235.518	3.58
235.735	69.12
235.953	62.98
236.17	5.63
236.388	9.73
236.605	-18.94
236.822	110.08
237.04	71.17
237.257	71.17
237.475	11.78
237.692	42.5
237.909	28.16
238.127	-0.51
238.344	46.59
238.562	73.21
238.779	-12.8
238.996	-53.76
239.214	9.73
239.431	28.16
239.648	40.45
239.865	46.59
240.083	36.35
240.3	124.41
240.517	5.63
240.735	65.02
240.952	40.45
241.169	42.5
241.386	-14.85
241.603	71.17
241.821	-45.57
242.038	60.93
242.255	134.65
242.472	22.02
242.689	34.3
242.907	73.21
243.124	62.98
243.341	7.68
243.558	50.69
243.775	17.92
243.992	-70.14
244.209	15.87
244.426	136.7
244.643	28.16
244.86	30.21
245.078	105.98
245.295	65.02
245.512	13.82
245.729	-6.66
245.946	44.54
246.163	-2.56
246.38	28.16
246.597	19.97
246.814	13.82
247.031	58.88
247.248	32.26
247.464	42.5
247.681	34.3
247.898	87.55
248.115	87.55
248.332	71.17
248.549	87.55
248.766	44.54
248.983	89.6
249.2	73.21
249.417	83.45
249.633	48.64
249.85	87.55
250.067	40.45
250.284	97.79
250.501	77.31
250.717	52.74
250.934	5.63
251.151	67.07
251.368	-27.14
251.585	44.54
251.801	28.16
252.018	5.63
252.235	105.98
252.451	-10.75
252.668	-61.95
252.885	11.78
253.102	79.36
253.318	1.54
253.535	-4.61
253.752	44.54
253.968	32.26
254.185	38.4
254.401	-8.7
254.618	71.17
254.835	19.97
255.051	85.5
255.268	73.21
255.484	46.59
255.701	22.02
255.917	28.16
256.134	50.69
256.351	9.73
256.567	26.11
256.784	28.16
257	-59.9
257.217	26.11
257.433	75.26
257.65	42.5
257.866	165.37
258.082	-27.14
258.299	54.78
258.515	28.16
258.732	7.68
258.948	22.02
259.165	58.88
259.381	15.87
259.597	54.78
259.814	26.11
260.03	-12.8
260.246	-0.51
260.463	140.8
260.679	91.65
260.895	79.36
261.112	38.4
261.328	-0.51
261.544	-16.9
261.761	120.32
261.977	-2.56
262.193	-33.28
262.409	46.59
262.626	24.06
262.842	9.73
263.058	56.83
263.274	36.35
263.49	13.82
263.707	91.65
263.923	-14.85
264.139	-47.62
264.355	75.26
264.571	81.41
264.787	48.64
265.004	60.93
265.22	79.36
265.436	9.73
265.652	3.58
265.868	3.58
266.084	-27.14
266.3	85.5
266.516	9.73
266.732	71.17
266.948	-10.75
267.164	28.16
267.38	69.12
267.596	67.07
267.812	75.26
268.028	60.93
268.244	65.02
268.46	22.02
268.676	-51.71
268.892	62.98
269.108	58.88
269.324	26.11
269.54	-10.75
269.756	52.74
269.972	24.06
270.188	11.78
270.403	-55.81
270.619	130.56
270.835	24.06
271.051	36.35
271.267	69.12
271.483	3.58
271.698	97.79
271.914	-37.38
272.13	71.17
272.346	56.83
272.562	40.45
272.777	122.37
272.993	50.69
273.209	34.3
273.425	77.31
273.64	11.78
273.856	77.31
274.072	5.63
274.287	9.73
274.503	67.07
274.719	32.26
274.934	38.4
275.15	69.12
275.366	40.45
275.581	-31.23
275.797	11.78
276.012	-6.66
276.228	-0.51
276.444	9.73
276.659	52.74
276.875	40.45
277.09	54.78
277.306	-6.66
277.521	34.3
277.737	5.63
277.952	15.87
278.168	-25.09
278.383	17.92
278.599	-49.66
278.814	58.88
279.03	22.02
279.245	136.7
279.461	-23.04
279.676	136.7
279.892	-37.38
280.107	46.59
280.322	-51.71
280.538	-45.57
280.753	36.35
280.969	-12.8
281.184	40.45
281.399	30.21
281.615	22.02
281.83	-35.33
282.045	3.58
282.26	50.69
282.476	79.36
282.691	124.41
282.906	46.59
283.122	46.59
283.337	-47.62
283.552	52.74
283.767	56.83
283.983	95.74
284.198	9.73
284.413	3.58
284.628	-31.23
284.843	19.97
285.058	-16.9
285.274	44.54
285.489	-12.8
285.704	54.78
285.919	32.26
286.134	52.74
286.349	-16.9
286.564	11.78
286.779	144.89
286.995	26.11
287.21	-78.33
287.425	9.73
287.64	34.3
287.855	-14.85
288.07	-27.14
288.285	62.98
288.5	60.93
288.715	89.6
288.93	-4.61
289.145	11.78
289.36	42.5
289.575	112.13
289.79	95.74
290.004	75.26
290.219	-0.51
290.434	-31.23
290.649	5.63
290.864	-4.61
291.079	142.85
291.294	134.65
291.509	71.17
291.724	-49.66
291.938	11.78
292.153	120.32
292.368	13.82
292.583	34.3
292.798	87.55
293.012	-12.8
293.227	13.82
293.442	-27.14
293.657	5.63
293.871	85.5
294.086	48.64
294.301	148.99
294.516	62.98
294.73	17.92
294.945	-61.95
295.16	5.63
295.374	54.78
295.589	46.59
295.804	56.83
296.018	58.88
296.233	120.32
296.447	48.64
296.662	-6.66
296.877	126.46
297.091	7.68
297.306	26.11
297.52	144.89
297.735	22.02
297.949	101.89
298.164	15.87
298.378	65.02
298.593	13.82
298.807	-25.09
299.022	60.93
299.236	5.63
299.451	-29.18
299.665	32.26
299.88	28.16
300.094	44.54
300.309	5.63
300.523	48.64
300.737	26.11
300.952	11.78
301.166	50.69
301.381	-4.61
301.595	-12.8
301.809	38.4
302.024	54.78
302.238	28.16
302.452	-2.56
302.667	22.02
302.881	1.54
303.095	103.93
303.309	30.21
303.524	-14.85
303.738	13.82
303.952	-31.23
304.166	116.22
304.381	-53.76
304.595	46.59
304.809	17.92
305.023	19.97
305.237	28.16
305.452	50.69
305.666	114.17
305.88	50.69
306.094	69.12
306.308	22.02
306.522	108.03
306.736	95.74
306.95	3.58
307.164	19.97
307.379	32.26
307.593	103.93
307.807	93.69
308.021	38.4
308.235	99.84
308.449	19.97
308.663	38.4
308.877	101.89
309.091	85.5
309.305	155.13
309.519	-47.62
309.733	38.4
309.947	-33.28
310.161	24.06
310.374	95.74
310.588	60.93
310.802	30.21
311.016	-35.33
311.23	42.5
311.444	19.97
311.658	1.54
311.872	67.07
312.085	73.21
312.299	34.3
312.513	83.45
312.727	71.17
312.941	1.54
313.154	11.78
313.368	58.88
313.582	71.17
313.796	5.63
314.009	-8.7
314.223	48.64
314.437	48.64
314.651	40.45
314.864	-6.66
315.078	42.5
315.292	26.11
315.505	-2.56
315.719	52.74
315.933	7.68
316.146	17.92
316.36	-47.62
316.573	24.06
316.787	77.31
317.001	40.45
317.214	3.58
317.428	15.87
317.641	-61.95
317.855	69.12
318.068	99.84
318.282	91.65
318.495	159.23
318.709	73.21
318.922	32.26
319.136	89.6
319.349	148.99
319.563	1.54
319.776	87.55
319.99	40.45
320.203	67.07
320.417	79.36
320.63	7.68
320.843	79.36
321.057	38.4
321.27	58.88
321.483	46.59
321.697	34.3
321.91	69.12
322.124	108.03
322.337	19.97
322.55	46.59
322.763	81.41
322.977	17.92
323.19	7.68
323.403	46.59
323.617	89.6
323.83	93.69
324.043	30.21
324.256	-23.04
324.469	69.12
324.683	83.45
324.896	-8.7
325.109	11.78
325.322	-45.57
325.535	28.16
325.748	79.36
325.962	-14.85
326.175	140.8
326.388	73.21
326.601	81.41
326.814	114.17
327.027	65.02
327.24	42.5
327.453	19.97
327.666	93.69
327.879	65.02
328.092	110.08
328.305	50.69
328.518	-35.33
328.731	15.87
328.944	-37.38
329.157	77.31
329.37	-0.51
329.583	110.08
329.796	181.76
330.009	28.16
330.222	11.78
330.435	73.21
330.648	83.45
330.861	46.59
331.073	73.21
331.286	42.5
331.499	38.4
331.712	15.87
331.925	15.87
332.138	77.31
332.35	13.82
332.563	-41.47
332.776	58.88
332.989	-25.09
333.202	69.12
333.414	34.3
333.627	38.4
333.84	99.84
334.053	54.78
334.265	-43.52
334.478	-20.99
334.691	19.97
334.903	60.93
335.116	-6.66
335.329	48.64
335.541	116.22
335.754	140.8
335.966	9.73
336.179	101.89
336.392	52.74
336.604	-0.51
336.817	60.93
337.029	22.02
337.242	77.31
337.454	28.16
337.667	48.64
337.88	114.17
338.092	54.78
338.305	99.84
338.517	26.11
338.729	26.11
338.942	165.37
339.154	-53.76
339.367	26.11
339.579	54.78
339.792	-31.23
340.004	85.5
340.217	-104.96
340.429	69.12
340.641	-31.23
340.854	-33.28
341.066	5.63
341.278	132.61
341.491	89.6
341.703	73.21
341.915	65.02
342.128	99.84
342.34	9.73
342.552	24.06
342.764	56.83
342.977	9.73
343.189	19.97
343.401	44.54
343.613	-59.9
343.826	40.45
344.038	-53.76
344.25	155.13
344.462	-27.14
344.674	1.54
344.886	58.88
345.099	36.35
345.311	75.26
345.523	24.06
345.735	-39.42
345.947	3.58
346.159	73.21
346.371	28.16
346.583	-0.51
346.795	155.13
347.007	19.97
347.219	26.11
347.431	38.4
347.643	114.17
347.855	17.92
348.067	97.79
348.279	52.74
348.491	5.63
348.703	1.54
348.915	-27.14
349.127	15.87
349.339	24.06
349.551	5.63
349.763	65.02
349.975	89.6
350.187	159.23
350.399	142.85
350.61	75.26
350.822	32.26
351.034	50.69
351.246	24.06
351.458	81.41
351.669	30.21
351.881	67.07
352.093	91.65
352.305	134.65
352.517	87.55
352.728	87.55
352.94	75.26
353.152	60.93
353.363	73.21
353.575	38.4
353.787	77.31
353.999	81.41
354.21	173.57
354.422	54.78
354.633	91.65
354.845	99.84
355.057	46.59
355.268	83.45
355.48	60.93
355.692	99.84
355.903	69.12
356.115	-6.66
356.326	-8.7
356.538	44.54
356.749	-6.66
356.961	83.45
357.172	1.54
357.384	-23.04
357.595	136.7
357.807	65.02
358.018	73.21
358.23	26.11
358.441	122.37
358.653	101.89
358.864	30.21
359.075	-10.75
359.287	-0.51
359.498	73.21
359.709	120.32
359.921	52.74
360.132	85.5
360.344	40.45
360.555	58.88
360.766	185.85
360.977	-10.75
361.189	81.41
361.4	-8.7
361.611	144.89
361.823	124.41
362.034	103.93
362.245	73.21
362.456	87.55
362.667	73.21
362.879	36.35
363.09	17.92
363.301	54.78
363.512	108.03
363.723	30.21
363.935	-4.61
364.146	28.16
364.357	38.4
364.568	93.69
364.779	22.02
364.99	105.98
365.201	52.74
365.412	114.17
365.623	11.78
365.834	46.59
366.045	22.02
366.256	15.87
366.467	71.17
366.678	44.54
366.889	-14.85
367.1	-16.9
367.311	-10.75
367.522	54.78
367.733	89.6
367.944	144.89
368.155	11.78
368.366	95.74
368.577	54.78
368.788	177.66
368.999	-31.23
369.209	48.64
369.42	247.29
369.631	167.42
369.842	19.97
370.053	-6.66
370.264	95.74
370.474	-45.57
370.685	38.4
370.896	-10.75
371.107	71.17
371.317	52.74
371.528	-12.8
371.739	95.74
371.95	89.6
372.16	32.26
372.371	-4.61
372.582	28.16
372.792	-25.09
373.003	79.36
373.214	32.26
373.424	67.07
373.635	38.4
373.846	169.47
374.056	46.59
374.267	48.64
374.477	32.26
374.688	114.17
374.898	81.41
375.109	30.21
375.319	-6.66
375.53	146.94
375.74	87.55
375.951	36.35
376.161	99.84
376.372	108.03
376.582	60.93
376.793	22.02
377.003	42.5
377.214	-31.23
377.424	99.84
377.635	3.58
377.845	50.69
378.055	101.89
378.266	-31.23
378.476	69.12
378.686	-12.8
378.897	62.98
379.107	60.93
379.317	110.08
379.528	24.06
379.738	97.79
379.948	-4.61
380.158	5.63
380.369	60.93
380.579	62.98
380.789	38.4
380.999	95.74
381.21	50.69
381.42	83.45
381.63	50.69
381.84	95.74
382.05	114.17
382.261	32.26
382.471	97.79
382.681	36.35
382.891	60.93
383.101	87.55
383.311	-29.18
383.521	34.3
383.731	56.83
383.941	110.08
384.151	24.06
384.361	11.78
384.571	126.46
384.781	71.17
384.991	89.6
385.201	81.41
385.411	56.83
385.621	83.45
385.831	48.64
386.041	142.85
386.251	52.74
386.461	163.33
386.671	26.11
386.881	42.5
387.091	-2.56
387.301	126.46
387.511	-27.14
387.72	83.45
387.93	220.67
388.14	19.97
388.35	7.68
388.56	114.17
388.769	79.36
388.979	48.64
389.189	17.92
389.399	-6.66
389.609	34.3
389.818	120.32
390.028	77.31
390.238	77.31
390.447	30.21
390.657	71.17
390.867	-6.66
391.076	-14.85
391.286	79.36
391.496	77.31
391.705	50.69
391.915	32.26
392.125	130.56
392.334	112.13
392.544	108.03
392.753	32.26
392.963	-18.94
393.172	87.55
393.382	7.68
393.591	206.33
393.801	42.5
394.01	97.79
394.22	71.17
394.429	46.59
394.639	110.08
394.848	130.56
395.058	134.65
395.267	138.75
395.477	97.79
395.686	136.7
395.895	126.46
396.105	142.85
396.314	83.45
396.524	122.37
396.733	81.41
396.942	110.08
397.152	134.65
397.361	128.51
397.57	50.69
397.78	161.28
397.989	142.85
398.198	155.13
398.407	75.26
398.617	65.02
398.826	93.69
399.035	83.45
399.244	179.71
399.453	56.83
399.663	118.27
399.872	210.43
400.081	60.93
400.29	108.03
400.499	77.31
400.708	179.71
400.917	118.27
401.127	73.21
401.336	69.12
401.545	142.85
401.754	91.65
401.963	138.75
402.172	124.41
402.381	65.02
402.59	116.22
402.799	159.23
403.008	155.13
403.217	126.46
403.426	175.61
403.635	122.37
403.844	183.81
404.053	146.94
404.262	163.33
404.471	212.48
404.68	110.08
404.888	103.93
405.097	83.45
405.306	177.66
405.515	148.99
405.724	148.99
405.933	210.43
406.142	138.75
406.35	202.24
406.559	177.66
406.768	212.48
406.977	300.54
407.185	179.71
407.394	235
407.603	208.38
407.812	253.44
408.02	208.38
408.229	165.37
408.438	300.54
408.646	235
408.855	235
409.064	261.63
409.272	331.26
409.481	316.92
409.69	341.5
409.898	402.94
410.107	269.82
410.315	374.27
410.524	325.12
410.733	450.04
410.941	302.59
411.15	368.12
411.358	386.55
411.567	431.61
411.775	427.51
411.984	341.5
412.192	507.38
412.401	482.81
412.609	531.96
412.818	568.82
413.026	560.63
413.234	525.82
413.443	568.82
413.651	556.54
413.86	577.02
414.068	650.74
414.276	703.99
414.485	687.61
414.693	722.42
414.901	785.91
415.11	828.92
415.318	775.67
415.526	736.76
415.734	904.69
415.943	867.83
416.151	914.93
416.359	892.4
416.567	982.51
416.776	1017.33
416.984	1041.9
417.192	1084.91
417.4	1015.28
417.608	1052.14
417.817	1009.14
418.025	1115.63
418.233	1324.52
418.441	1224.17
418.649	1248.75
418.857	1342.96
419.065	1527.27
419.273	1428.97
419.481	1469.93
419.689	1517.03
419.897	1568.23
420.105	1615.34
420.313	1652.2
420.521	1789.41
420.729	1770.98
420.937	1891.81
421.145	1981.92
421.353	2002.4
421.561	2147.81
421.769	2026.98
421.977	2217.44
422.185	2246.11
422.393	2256.35
422.601	2491.87
422.809	2457.05
423.017	2461.15
423.224	2633.18
423.432	2776.53
423.64	2749.91
423.848	2911.7
424.056	2973.14
424.263	3055.06
424.471	3030.48
424.679	3136.98
424.887	3280.33
425.094	3464.65
425.302	3470.8
425.51	3587.53
425.718	3694.02
425.925	3765.7
426.133	3882.44
426.341	4117.95
426.548	4120
426.756	4201.92
426.964	4396.48
427.171	4357.57
427.379	4699.58
427.586	4707.77
427.794	4980.15
428.001	5211.57
428.209	5326.25
428.417	5256.62
428.624	5574.06
428.832	5754.28
429.039	5664.17
429.247	5629.35
429.454	6213.03
429.662	6579.61
429.869	6051.24
430.076	6630.81
430.284	6215.07
430.491	6534.56
430.699	7083.41
430.906	6915.48
431.114	7050.64
431.321	7214.48
431.528	7460.24
431.736	7869.83
431.943	8387.97
432.15	8066.44
432.358	8224.13
432.565	8629.63
432.772	8629.63
432.979	9139.57
433.187	9166.2
433.394	9391.47
433.601	9854.31
433.808	9782.63
434.016	9700.72
434.223	10263.91
434.43	10818.91
434.637	10689.88
434.844	11171.16
435.052	11378
435.259	11220.31
435.466	11402.58
435.673	11418.96
435.88	12133.7
436.087	12565.82
436.294	12692.8
436.501	12633.41
436.708	12651.84
436.915	13243.7
437.122	13755.69
437.329	13657.39
437.537	14038.31
437.743	14259.49
437.95	14085.42
438.157	14871.84
438.364	15453.46
438.571	15666.45
438.778	15437.08
438.985	16950.53
439.192	16147.72
439.399	16860.41
439.606	16278.79
439.813	17429.75
440.02	18367.72
440.227	17949.93
440.433	17775.86
440.64	18433.25
440.847	18431.21
441.054	18785.51
441.261	20169.93
441.467	19547.35
441.674	20010.19
441.881	20907.2
442.088	20970.69
442.294	20669.64
442.501	21091.52
442.708	21804.21
442.914	22561.96
443.121	23311.52
443.328	22879.39
443.534	24362.12
443.741	23846.04
443.948	23409.82
444.154	25242.75
444.361	24986.75
444.568	25148.54
444.774	25033.86
444.981	25402.49
445.187	26094.71
445.394	27014.24
445.6	26477.68
445.807	29215.81
446.013	28025.94
446.22	28841.03
446.426	29934.65
446.633	30233.65
446.839	30759.98
447.046	29707.32
447.252	31599.65
447.459	31214.63
447.665	31206.44
447.871	32760.84
448.078	33774.59
448.284	32191.51
448.491	33510.4
448.697	34554.86
448.903	34997.23
449.11	35150.82
449.316	34522.1
449.522	34903.02
449.728	36400.08
449.935	36174.81
450.141	36725.71
450.347	37432.26
450.553	36053.98
450.76	36277.21
450.966	37526.47
451.172	37118.92
451.378	38181.82
451.584	37225.42
451.791	37997.5
451.997	37878.72
452.203	38785.97
452.409	38640.56
452.615	38415.29
452.821	37047.24
453.027	36961.23
453.233	38513.59
453.44	36768.72
453.646	37354.44
453.852	37393.35
454.058	38073.28
454.264	36666.32
454.47	37835.71
454.676	36752.34
454.882	38046.65
455.088	34941.93
455.294	35242.98
455.5	35634.14
455.705	36232.15
455.911	34774
456.117	33717.25
456.323	33635.33
456.529	31980.57
456.735	33010.7
456.941	32304.15
457.147	31890.46
457.352	30964.78
457.558	30448.69
457.764	30395.44
457.97	30078.01
458.176	29076.55
458.381	28589.13
458.587	27835.48
458.793	27569.24
458.999	26274.93
459.204	28027.99
459.41	27188.32
459.616	25480.32
459.821	25572.47
460.027	25273.47
460.233	24808.58
460.438	23547.03
460.644	23940.24
460.85	22742.18
461.055	22453.42
461.261	22469.8
461.466	20636.87
461.672	19838.16
461.878	21296.32
462.083	19866.83
462.289	19438.81
462.494	19449.05
462.7	18615.52
462.905	17861.87
463.111	18803.94
463.316	18914.53
463.522	18459.88
463.727	18148.59
463.932	18205.93
464.138	18087.15
464.343	18017.52
464.549	17585.4
464.754	18214.12
464.959	18003.18
465.165	17607.92
465.37	16950.53
465.575	16655.62
465.781	17546.48
465.986	17501.43
466.191	16858.37
466.397	16243.98
466.602	15590.67
466.807	16258.31
