Data from USB4F104151__85__12-13-00-041.txt Node

Date: Fri Mar 14 12:13:00 EDT 2025
User: louis
Spectrometer: USB4F10415
Trigger mode: 4
Integration Time (sec): 5.000000E-2
Scans to average: 1
Electric dark correction enabled: true
Nonlinearity correction enabled: false
Boxcar width: 0
XAxis mode: Wavelengths
Number of Pixels in Spectrum: 3648
>>>>>Begin Spectral Data<<<<<
178.204	-218.28
178.424	-218.28
178.644	-218.28
178.864	-253.09
179.084	-201.9
179.304	-85.16
179.524	7
179.744	-31.91
179.964	52.05
180.184	-19.63
180.404	-11.43
180.624	-44.2
180.844	-64.68
181.064	35.67
181.283	41.81
181.503	23.38
181.723	97.11
181.943	-9.39
182.163	99.16
182.383	33.62
182.602	82.77
182.822	144.21
183.042	25.43
183.262	-7.34
183.482	-50.35
183.701	-29.87
183.921	-25.77
184.141	-9.39
184.361	66.39
184.58	43.86
184.8	-93.35
185.02	-58.54
185.239	47.96
185.459	9.05
185.679	21.33
185.898	-7.34
186.118	105.3
186.338	13.14
186.557	58.2
186.777	-19.63
186.997	-15.53
187.216	39.76
187.436	86.87
187.655	41.81
187.875	11.09
188.095	58.2
188.314	27.48
188.534	-31.91
188.753	-19.63
188.973	25.43
189.192	107.35
189.412	15.19
189.631	-42.15
189.851	-42.15
190.07	160.59
190.29	-9.39
190.509	-17.58
190.729	-27.82
190.948	80.72
191.168	176.98
191.387	76.63
191.607	21.33
191.826	86.87
192.045	-15.53
192.265	-21.67
192.484	21.33
192.704	25.43
192.923	4.95
193.142	66.39
193.362	56.15
193.581	90.96
193.8	31.57
194.02	-29.87
194.239	-52.39
194.458	17.24
194.678	31.57
194.897	-13.48
195.116	4.95
195.335	-42.15
195.555	56.15
195.774	-27.82
195.993	86.87
196.212	-40.11
196.432	-3.24
196.651	4.95
196.87	-15.53
197.089	72.53
197.308	82.77
197.528	56.15
197.747	-70.83
197.966	7
198.185	107.35
198.404	-3.24
198.623	4.95
198.842	0.85
199.062	72.53
199.281	76.63
199.5	7
199.719	66.39
199.938	37.72
200.157	131.92
200.376	9.05
200.595	56.15
200.814	-13.48
201.033	-54.44
201.252	13.14
201.471	-23.72
201.69	-21.67
201.909	27.48
202.128	25.43
202.347	45.91
202.566	-11.43
202.785	-15.53
203.004	-72.87
203.223	76.63
203.442	-27.82
203.661	-85.16
203.879	21.33
204.098	37.72
204.317	-38.06
204.536	52.05
204.755	-29.87
204.974	23.38
205.193	15.19
205.411	66.39
205.63	41.81
205.849	13.14
206.068	29.52
206.287	-38.06
206.505	41.81
206.724	4.95
206.943	-27.82
207.162	-38.06
207.381	56.15
207.599	-13.48
207.818	25.43
208.037	11.09
208.255	-9.39
208.474	-42.15
208.693	84.82
208.911	39.76
209.13	17.24
209.349	-33.96
209.567	-17.58
209.786	111.44
210.005	66.39
210.223	-13.48
210.442	-64.68
210.661	80.72
210.879	-5.29
211.098	-33.96
211.316	15.19
211.535	11.09
211.753	52.05
211.972	37.72
212.191	-62.63
212.409	45.91
212.628	47.96
212.846	-89.26
213.065	95.06
213.283	62.29
213.502	0.85
213.72	-13.48
213.938	62.29
214.157	9.05
214.375	113.49
214.594	-17.58
214.812	43.86
215.031	84.82
215.249	-29.87
215.467	-44.2
215.686	27.48
215.904	52.05
216.122	9.05
216.341	39.76
216.559	13.14
216.778	99.16
216.996	105.3
217.214	17.24
217.432	45.91
217.651	-62.63
217.869	50
218.087	-7.34
218.306	-7.34
218.524	76.63
218.742	-83.11
218.96	74.58
219.179	23.38
219.397	29.52
219.615	123.73
219.833	31.57
220.051	2.9
220.27	62.29
220.488	86.87
220.706	-19.63
220.924	-60.59
221.142	4.95
221.36	64.34
221.578	-7.34
221.796	43.86
222.015	21.33
222.233	82.77
222.451	21.33
222.669	-56.49
222.887	64.34
223.105	52.05
223.323	62.29
223.541	-7.34
223.759	43.86
223.977	-1.19
224.195	72.53
224.413	62.29
224.631	23.38
224.849	-9.39
225.067	136.02
225.285	-19.63
225.503	50
225.721	-25.77
225.939	0.85
226.157	21.33
226.375	207.7
226.592	-27.82
226.81	27.48
227.028	11.09
227.246	136.02
227.464	15.19
227.682	52.05
227.9	56.15
228.117	4.95
228.335	-3.24
228.553	41.81
228.771	54.1
228.989	21.33
229.206	37.72
229.424	-89.26
229.642	-11.43
229.86	-29.87
230.077	29.52
230.295	7
230.513	9.05
230.731	43.86
230.948	95.06
231.166	115.54
231.384	43.86
231.601	35.67
231.819	136.02
232.037	-5.29
232.254	-56.49
232.472	52.05
232.689	68.44
232.907	9.05
233.125	-5.29
233.342	-42.15
233.56	72.53
233.777	-36.01
233.995	0.85
234.213	21.33
234.43	-27.82
234.648	-7.34
234.865	-1.19
235.083	60.24
235.3	2.9
235.518	37.72
235.735	52.05
235.953	54.1
236.17	58.2
236.388	-56.49
236.605	-9.39
236.822	-1.19
237.04	7
237.257	4.95
237.475	-3.24
237.692	17.24
237.909	58.2
238.127	-62.63
238.344	-25.77
238.562	-5.29
238.779	-52.39
238.996	-7.34
239.214	-21.67
239.431	41.81
239.648	-36.01
239.865	117.59
240.083	37.72
240.3	9.05
240.517	0.85
240.735	-38.06
240.952	88.92
241.169	62.29
241.386	50
241.603	17.24
241.821	-56.49
242.038	66.39
242.255	19.29
242.472	-11.43
242.689	4.95
242.907	82.77
243.124	7
243.341	-33.96
243.558	-56.49
243.775	-17.58
243.992	-17.58
244.209	-5.29
244.426	35.67
244.643	27.48
244.86	31.57
245.078	-3.24
245.295	-11.43
245.512	-1.19
245.729	-29.87
245.946	88.92
246.163	45.91
246.38	-5.29
246.597	-27.82
246.814	29.52
247.031	47.96
247.248	13.14
247.464	17.24
247.681	4.95
247.898	29.52
248.115	41.81
248.332	-50.35
248.549	50
248.766	66.39
248.983	-1.19
249.2	58.2
249.417	41.81
249.633	-25.77
249.85	35.67
250.067	33.62
250.284	-11.43
250.501	70.48
250.717	43.86
250.934	-1.19
251.151	-27.82
251.368	-68.78
251.585	39.76
251.801	15.19
252.018	-27.82
252.235	50
252.451	-58.54
252.668	-38.06
252.885	68.44
253.102	66.39
253.318	-31.91
253.535	-25.77
253.752	-11.43
253.968	19.29
254.185	33.62
254.401	70.48
254.618	50
254.835	-11.43
255.051	72.53
255.268	27.48
255.484	78.68
255.701	45.91
255.917	9.05
256.134	56.15
256.351	78.68
256.567	-3.24
256.784	-31.91
257	-62.63
257.217	19.29
257.433	23.38
257.65	-31.91
257.866	76.63
258.082	-9.39
258.299	-15.53
258.515	-36.01
258.732	-97.45
258.948	-7.34
259.165	97.11
259.381	-3.24
259.597	86.87
259.814	-27.82
260.03	11.09
260.246	31.57
260.463	84.82
260.679	11.09
260.895	-9.39
261.112	13.14
261.328	7
261.544	76.63
261.761	158.55
261.977	-115.88
262.193	-36.01
262.409	-27.82
262.626	39.76
262.842	-25.77
263.058	-89.26
263.274	-5.29
263.49	35.67
263.707	35.67
263.923	58.2
264.139	-52.39
264.355	-29.87
264.571	41.81
264.787	47.96
265.004	97.11
265.22	78.68
265.436	-21.67
265.652	-7.34
265.868	2.9
266.084	-44.2
266.3	50
266.516	-44.2
266.732	21.33
266.948	29.52
267.164	-56.49
267.38	29.52
267.596	35.67
267.812	97.11
268.028	84.82
268.244	-68.78
268.46	50
268.676	21.33
268.892	95.06
269.108	-40.11
269.324	-87.21
269.54	-52.39
269.756	70.48
269.972	11.09
270.188	-38.06
270.403	-36.01
270.619	-11.43
270.835	13.14
271.051	15.19
271.267	2.9
271.483	-33.96
271.698	17.24
271.914	17.24
272.13	33.62
272.346	23.38
272.562	-9.39
272.777	97.11
272.993	-66.73
273.209	-11.43
273.425	-29.87
273.64	-87.21
273.856	-27.82
274.072	-48.3
274.287	-23.72
274.503	25.43
274.719	2.9
274.934	-23.72
275.15	-29.87
275.366	33.62
275.581	-15.53
275.797	9.05
276.012	29.52
276.228	33.62
276.444	74.58
276.659	43.86
276.875	21.33
277.09	2.9
277.306	-58.54
277.521	-21.67
277.737	31.57
277.952	19.29
278.168	4.95
278.383	68.44
278.599	62.29
278.814	27.48
279.03	62.29
279.245	52.05
279.461	11.09
279.676	47.96
279.892	-50.35
280.107	-7.34
280.322	19.29
280.538	17.24
280.753	-17.58
280.969	-48.3
281.184	41.81
281.399	29.52
281.615	-40.11
281.83	13.14
282.045	-31.91
282.26	-60.59
282.476	56.15
282.691	4.95
282.906	25.43
283.122	-17.58
283.337	-33.96
283.552	41.81
283.767	-64.68
283.983	-19.63
284.198	7
284.413	54.1
284.628	4.95
284.843	11.09
285.058	-17.58
285.274	-29.87
285.489	41.81
285.704	43.86
285.919	-25.77
286.134	-21.67
286.349	50
286.564	-40.11
286.779	74.58
286.995	50
287.21	-89.26
287.425	109.4
287.64	-62.63
287.855	-5.29
288.07	-33.96
288.285	103.25
288.5	27.48
288.715	50
288.93	25.43
289.145	19.29
289.36	7
289.575	21.33
289.79	68.44
290.004	-48.3
290.219	88.92
290.434	2.9
290.649	15.19
290.864	-17.58
291.079	54.1
291.294	31.57
291.509	107.35
291.724	13.14
291.938	7
292.153	-46.25
292.368	39.76
292.583	-1.19
292.798	-13.48
293.012	17.24
293.227	72.53
293.442	-1.19
293.657	45.91
293.871	23.38
294.086	19.29
294.301	113.49
294.516	95.06
294.73	21.33
294.945	27.48
295.16	-50.35
295.374	74.58
295.589	70.48
295.804	-3.24
296.018	2.9
296.233	70.48
296.447	41.81
296.662	2.9
296.877	2.9
297.091	78.68
297.306	9.05
297.52	-27.82
297.735	11.09
297.949	-7.34
298.164	54.1
298.378	88.92
298.593	84.82
298.807	-21.67
299.022	-1.19
299.236	50
299.451	15.19
299.665	19.29
299.88	-15.53
300.094	7
300.309	-25.77
300.523	54.1
300.737	-25.77
300.952	45.91
301.166	-1.19
301.381	0.85
301.595	7
301.809	-85.16
302.024	7
302.238	62.29
302.452	68.44
302.667	0.85
302.881	41.81
303.095	43.86
303.309	33.62
303.524	-19.63
303.738	-19.63
303.952	-15.53
304.166	-17.58
304.381	-70.83
304.595	113.49
304.809	-11.43
305.023	52.05
305.237	-56.49
305.452	25.43
305.666	52.05
305.88	41.81
306.094	2.9
306.308	47.96
306.522	35.67
306.736	62.29
306.95	52.05
307.164	-17.58
307.379	19.29
307.593	111.44
307.807	56.15
308.021	144.21
308.235	27.48
308.449	-21.67
308.663	2.9
308.877	129.88
309.091	-15.53
309.305	70.48
309.519	-76.97
309.733	-15.53
309.947	-5.29
310.161	35.67
310.374	-29.87
310.588	86.87
310.802	-36.01
311.016	27.48
311.23	-19.63
311.444	-60.59
311.658	-56.49
311.872	21.33
312.085	13.14
312.299	80.72
312.513	99.16
312.727	-11.43
312.941	-48.3
313.154	-9.39
313.368	2.9
313.582	-25.77
313.796	-19.63
314.009	41.81
314.223	52.05
314.437	105.3
314.651	-1.19
314.864	-17.58
315.078	-29.87
315.292	-60.59
315.505	-40.11
315.719	-15.53
315.933	90.96
316.146	33.62
316.36	-56.49
316.573	72.53
316.787	47.96
317.001	-17.58
317.214	17.24
317.428	17.24
317.641	-13.48
317.855	29.52
318.068	-62.63
318.282	43.86
318.495	131.92
318.709	2.9
318.922	27.48
319.136	84.82
319.349	64.34
319.563	-25.77
319.776	84.82
319.99	-58.54
320.203	21.33
320.417	-27.82
320.63	-9.39
320.843	99.16
321.057	88.92
321.27	-25.77
321.483	84.82
321.697	86.87
321.91	-46.25
322.124	-29.87
322.337	29.52
322.55	13.14
322.763	64.34
322.977	-52.39
323.19	-27.82
323.403	41.81
323.617	25.43
323.83	90.96
324.043	-15.53
324.256	4.95
324.469	-40.11
324.683	45.91
324.896	-11.43
325.109	-15.53
325.322	-62.63
325.535	70.48
325.748	97.11
325.962	29.52
326.175	47.96
326.388	29.52
326.601	101.2
326.814	60.24
327.027	80.72
327.24	60.24
327.453	-58.54
327.666	13.14
327.879	31.57
328.092	95.06
328.305	35.67
328.518	-76.97
328.731	-29.87
328.944	13.14
329.157	52.05
329.37	47.96
329.583	84.82
329.796	62.29
330.009	-93.35
330.222	-13.48
330.435	33.62
330.648	2.9
330.861	27.48
331.073	-3.24
331.286	82.77
331.499	66.39
331.712	19.29
331.925	2.9
332.138	-5.29
332.35	64.34
332.563	-31.91
332.776	23.38
332.989	-87.21
333.202	62.29
333.414	60.24
333.627	58.2
333.84	72.53
334.053	62.29
334.265	25.43
334.478	-13.48
334.691	35.67
334.903	37.72
335.116	-15.53
335.329	27.48
335.541	17.24
335.754	2.9
335.966	11.09
336.179	13.14
336.392	4.95
336.604	0.85
336.817	58.2
337.029	-7.34
337.242	-25.77
337.454	60.24
337.667	-36.01
337.88	70.48
338.092	13.14
338.305	31.57
338.517	15.19
338.729	19.29
338.942	-27.82
339.154	-3.24
339.367	-58.54
339.579	0.85
339.792	-40.11
340.004	62.29
340.217	13.14
340.429	68.44
340.641	-19.63
340.854	0.85
341.066	-5.29
341.278	60.24
341.491	45.91
341.703	29.52
341.915	9.05
342.128	27.48
342.34	-46.25
342.552	11.09
342.764	-25.77
342.977	39.76
343.189	11.09
343.401	7
343.613	-89.26
343.826	21.33
344.038	-23.72
344.25	-5.29
344.462	-17.58
344.674	-17.58
344.886	27.48
345.099	19.29
345.311	-23.72
345.523	62.29
345.735	-52.39
345.947	-11.43
346.159	29.52
346.371	-1.19
346.583	58.2
346.795	119.64
347.007	-11.43
347.219	-56.49
347.431	21.33
347.643	99.16
347.855	23.38
348.067	50
348.279	-15.53
348.491	11.09
348.703	0.85
348.915	52.05
349.127	33.62
349.339	72.53
349.551	47.96
349.763	-21.67
349.975	60.24
350.187	-5.29
350.399	78.68
350.61	41.81
350.822	-5.29
351.034	15.19
351.246	-15.53
351.458	23.38
351.669	62.29
351.881	47.96
352.093	52.05
352.305	39.76
352.517	43.86
352.728	95.06
352.94	-56.49
353.152	-62.63
353.363	-23.72
353.575	76.63
353.787	47.96
353.999	72.53
354.21	29.52
354.422	-40.11
354.633	15.19
354.845	33.62
355.057	-46.25
355.268	31.57
355.48	-13.48
355.692	-42.15
355.903	25.43
356.115	-15.53
356.326	-62.63
356.538	90.96
356.749	25.43
356.961	113.49
357.172	17.24
357.384	11.09
357.595	105.3
357.807	7
358.018	37.72
358.23	21.33
358.441	86.87
358.653	13.14
358.864	11.09
359.075	-31.91
359.287	31.57
359.498	7
359.709	37.72
359.921	-17.58
360.132	70.48
360.344	-7.34
360.555	15.19
360.766	25.43
360.977	-9.39
361.189	56.15
361.4	-1.19
361.611	56.15
361.823	35.67
362.034	119.64
362.245	-85.16
362.456	-79.02
362.667	47.96
362.879	-33.96
363.09	33.62
363.301	37.72
363.512	95.06
363.723	45.91
363.935	56.15
364.146	54.1
364.357	37.72
364.568	35.67
364.779	37.72
364.99	35.67
365.201	27.48
365.412	58.2
365.623	9.05
365.834	41.81
366.045	82.77
366.256	62.29
366.467	86.87
366.678	-56.49
366.889	-3.24
367.1	35.67
367.311	-25.77
367.522	-89.26
367.733	129.88
367.944	11.09
368.155	11.09
368.366	27.48
368.577	117.59
368.788	39.76
368.999	4.95
369.209	68.44
369.42	148.31
369.631	133.97
369.842	90.96
370.053	-7.34
370.264	45.91
370.474	-33.96
370.685	47.96
370.896	-13.48
371.107	101.2
371.317	72.53
371.528	-64.68
371.739	66.39
371.95	2.9
372.16	-29.87
372.371	-52.39
372.582	0.85
372.792	-5.29
373.003	29.52
373.214	133.97
373.424	33.62
373.635	-29.87
373.846	103.25
374.056	-11.43
374.267	-5.29
374.477	39.76
374.688	-3.24
374.898	23.38
375.109	107.35
375.319	93.01
375.53	19.29
375.74	74.58
375.951	56.15
376.161	52.05
376.372	162.64
376.582	-7.34
376.793	27.48
377.003	-48.3
377.214	17.24
377.424	56.15
377.635	17.24
377.845	-11.43
378.055	54.1
378.266	-42.15
378.476	54.1
378.686	31.57
378.897	19.29
379.107	33.62
379.317	60.24
379.528	84.82
379.738	56.15
379.948	41.81
380.158	11.09
380.369	50
380.579	-44.2
380.789	0.85
380.999	15.19
381.21	13.14
381.42	74.58
381.63	-11.43
381.84	21.33
382.05	-19.63
382.261	33.62
382.471	39.76
382.681	-46.25
382.891	-9.39
383.101	88.92
383.311	-21.67
383.521	-9.39
383.731	-31.91
383.941	56.15
384.151	19.29
384.361	43.86
384.571	29.52
384.781	54.1
384.991	80.72
385.201	74.58
385.411	35.67
385.621	60.24
385.831	-33.96
386.041	39.76
386.251	4.95
386.461	50
386.671	2.9
386.881	41.81
387.091	35.67
387.301	127.83
387.511	-13.48
387.72	17.24
387.93	-11.43
388.14	43.86
388.35	-1.19
388.56	-21.67
388.769	76.63
388.979	76.63
389.189	43.86
389.399	-17.58
389.609	90.96
389.818	117.59
390.028	0.85
390.238	99.16
390.447	15.19
390.657	2.9
390.867	39.76
391.076	17.24
391.286	68.44
391.496	88.92
391.705	2.9
391.915	103.25
392.125	66.39
392.334	-31.91
392.544	107.35
392.753	82.77
392.963	-21.67
393.172	64.34
393.382	58.2
393.591	183.12
393.801	54.1
394.01	129.88
394.22	123.73
394.429	84.82
394.639	76.63
394.848	-29.87
395.058	78.68
395.267	29.52
395.477	166.74
395.686	93.01
395.895	107.35
396.105	41.81
396.314	80.72
396.524	80.72
396.733	47.96
396.942	121.68
397.152	58.2
397.361	45.91
397.57	76.63
397.78	99.16
397.989	86.87
398.198	133.97
398.407	140.12
398.617	101.2
398.826	109.4
399.035	50
399.244	115.54
399.453	64.34
399.663	105.3
399.872	90.96
400.081	35.67
400.29	168.79
400.499	19.29
400.708	43.86
400.917	84.82
401.127	31.57
401.336	119.64
401.545	164.69
401.754	117.59
401.963	52.05
402.172	103.25
402.381	52.05
402.59	54.1
402.799	105.3
403.008	148.31
403.217	119.64
403.426	60.24
403.635	27.48
403.844	142.16
404.053	158.55
404.262	101.2
404.471	166.74
404.68	119.64
404.888	105.3
405.097	140.12
405.306	138.07
405.515	174.93
405.724	138.07
405.933	136.02
406.142	156.5
406.35	160.59
406.559	109.4
406.768	179.03
406.977	215.89
407.185	176.98
407.394	142.16
407.603	125.78
407.812	234.32
408.02	228.18
408.229	125.78
408.438	215.89
408.646	97.11
408.855	166.74
409.064	250.71
409.272	131.92
409.481	222.03
409.69	138.07
409.898	156.5
410.107	234.32
410.315	312.14
410.524	273.23
410.733	156.5
410.941	176.98
411.15	277.33
411.358	301.9
411.567	353.1
411.775	301.9
411.984	275.28
412.192	293.71
412.401	310.1
412.609	402.26
412.818	439.12
413.026	312.14
413.234	443.21
413.443	416.59
413.651	387.92
413.86	437.07
414.068	527.18
414.276	623.44
414.485	387.92
414.693	508.75
414.901	627.53
415.11	562
415.318	590.67
415.526	578.38
415.734	592.72
415.943	600.91
416.151	731.98
416.359	715.59
416.567	736.07
416.776	652.11
416.984	822.09
417.192	873.29
417.4	805.71
417.608	830.28
417.817	758.6
418.025	861
418.233	1043.27
418.441	922.44
418.649	994.12
418.857	1028.93
419.065	1073.99
419.273	1004.36
419.481	1190.72
419.689	1233.73
419.897	1276.74
420.105	1260.35
420.313	1305.41
420.521	1405.76
420.729	1379.14
420.937	1389.38
421.145	1387.33
421.353	1612.6
421.561	1579.84
421.769	1585.98
421.977	1680.19
422.185	1710.91
422.393	1764.15
422.601	1772.35
422.809	1790.78
423.017	1862.46
423.224	1927.99
423.432	2069.3
423.64	2011.96
423.848	2204.47
424.056	2198.32
424.263	2356.02
424.471	2280.24
424.679	2384.69
424.887	2366.26
425.094	2603.82
425.302	2585.39
425.51	2632.49
425.718	2726.7
425.925	2902.83
426.133	2911.02
426.341	2988.84
426.548	3234.6
426.756	3132.2
426.964	3318.56
427.171	3408.67
427.379	3490.59
427.586	3476.26
427.794	3679.01
428.001	3885.85
428.209	3992.34
428.417	4008.73
428.624	4205.33
428.832	4356.88
429.039	4297.49
429.247	4174.61
429.454	4670.22
429.662	4866.83
429.869	4573.97
430.076	4907.79
430.284	4784.91
430.491	4975.37
430.699	5239.56
430.906	5282.56
431.114	5384.96
431.321	5511.94
431.528	5733.12
431.736	6044.41
431.943	6339.32
432.15	5985.02
432.358	6085.37
432.565	6566.64
432.772	6484.72
432.979	6906.6
433.187	7121.64
433.394	7056.11
433.601	7539.43
433.808	7430.88
434.016	7279.33
434.223	7865.05
434.43	8217.3
434.637	8250.07
434.844	8678.1
435.052	8798.93
435.259	8522.45
435.466	8729.3
435.673	8786.64
435.88	9341.64
436.087	9712.32
436.294	9663.17
436.501	9579.2
436.708	9622.21
436.915	9896.64
437.122	10429.11
437.329	10324.66
437.537	10756.79
437.743	10955.44
437.95	11066.03
438.157	11446.95
438.364	11692.71
438.571	11686.56
438.778	11971.23
438.985	12972.69
439.192	12333.72
439.399	12757.65
439.606	12661.4
439.813	13331.08
440.02	14027.39
440.227	13976.19
440.433	13679.24
440.64	14230.14
440.847	13904.51
441.054	14236.28
441.261	15358.57
441.467	14981.74
441.674	15475.31
441.881	16052.83
442.088	15942.24
442.294	15665.77
442.501	16216.67
442.708	16722.52
442.914	17214.03
443.121	17850.95
443.328	17472.07
443.534	18770.49
443.741	17945.16
443.948	17893.96
444.154	19409.45
444.361	19143.22
444.568	19122.74
444.774	19198.51
444.981	19366.45
445.187	20054.56
445.394	20744.73
445.6	20605.47
445.807	22440.45
446.013	21660.17
446.22	21844.49
446.426	22745.59
446.633	22833.66
446.839	23914.98
447.046	22835.7
447.252	23839.21
447.459	24195.56
447.665	23990.76
447.871	25287.12
448.078	26251.72
448.284	25049.56
448.491	25684.43
448.697	26864.06
448.903	26835.39
449.11	27226.55
449.316	26644.93
449.522	27367.86
449.728	27990.44
449.935	28301.73
450.141	28238.25
450.347	28772.77
450.553	27507.12
450.76	28027.31
450.966	29432.21
451.172	28891.55
451.378	29651.34
451.584	29223.32
451.791	29571.47
451.997	29858.19
452.203	30216.58
452.409	30077.32
452.615	29723.02
452.821	28860.83
453.027	28301.73
453.233	29708.69
453.44	28838.3
453.646	29159.83
453.852	28926.36
454.058	29401.49
454.264	28678.56
454.47	29360.53
454.676	28666.27
454.882	29610.39
455.088	27191.73
455.294	27470.26
455.5	27978.15
455.705	28101.03
455.911	26728.89
456.117	26485.19
456.323	26171.85
456.529	24646.11
456.735	25905.61
456.941	25366.99
457.147	24523.23
457.352	24164.84
457.558	23546.35
457.764	23489.01
457.97	23486.96
458.176	22628.86
458.381	22897.14
458.587	21641.74
458.793	21568.01
458.999	20726.3
459.204	22254.08
459.41	21316.11
459.616	19567.15
459.821	19894.82
460.027	19730.98
460.233	19352.11
460.438	18649.66
460.644	18731.58
460.85	17695.3
461.055	17676.87
461.261	17615.43
461.466	16265.82
461.672	15467.11
461.878	17177.17
462.083	15669.86
462.289	15307.37
462.494	15372.91
462.7	14672.5
462.905	14248.57
463.111	14652.02
463.316	14721.65
463.522	14281.34
463.727	14543.48
463.932	14512.76
464.138	14291.58
464.343	14400.12
464.549	13890.18
464.754	14326.39
464.959	14180.99
465.165	14187.13
465.37	13529.73
465.575	13124.24
465.781	13593.22
465.986	13843.07
466.191	13464.2
466.397	12950.16
466.602	12468.89
466.807	12714.64
467.012	13075.09
