Data from USB4F104151__52__12-12-18-455.txt Node

Date: Fri Mar 14 12:12:18 EDT 2025
User: louis
Spectrometer: USB4F10415
Trigger mode: 4
Integration Time (sec): 5.000000E-2
Scans to average: 1
Electric dark correction enabled: true
Nonlinearity correction enabled: false
Boxcar width: 0
XAxis mode: Wavelengths
Number of Pixels in Spectrum: 3648
>>>>>Begin Spectral Data<<<<<
178.204	-279.72
178.424	-279.72
178.644	-279.72
178.864	-232.62
179.084	-148.65
179.304	-5.29
179.524	-91.31
179.744	-27.82
179.964	99.16
180.184	2.9
180.404	21.33
180.624	-3.24
180.844	23.38
181.064	-25.77
181.283	-19.63
181.503	13.14
181.723	13.14
181.943	-64.68
182.163	25.43
182.383	17.24
182.602	70.48
182.822	129.88
183.042	27.48
183.262	-5.29
183.482	13.14
183.701	13.14
183.921	25.43
184.141	45.91
184.361	43.86
184.58	-50.35
184.8	29.52
185.02	45.91
185.239	95.06
185.459	50
185.679	50
185.898	17.24
186.118	33.62
186.338	19.29
186.557	74.58
186.777	-5.29
186.997	-1.19
187.216	39.76
187.436	39.76
187.655	76.63
187.875	31.57
188.095	68.44
188.314	45.91
188.534	146.26
188.753	7
188.973	15.19
189.192	142.16
189.412	54.1
189.631	74.58
189.851	88.92
190.07	90.96
190.29	33.62
190.509	-21.67
190.729	33.62
190.948	70.48
191.168	191.31
191.387	111.44
191.607	0.85
191.826	58.2
192.045	72.53
192.265	-25.77
192.484	-9.39
192.704	33.62
192.923	-52.39
193.142	127.83
193.362	80.72
193.581	95.06
193.8	-3.24
194.02	115.54
194.239	76.63
194.458	60.24
194.678	-27.82
194.897	82.77
195.116	72.53
195.335	107.35
195.555	47.96
195.774	39.76
195.993	43.86
196.212	115.54
196.432	88.92
196.651	27.48
196.87	68.44
197.089	158.55
197.308	107.35
197.528	117.59
197.747	-36.01
197.966	-7.34
198.185	88.92
198.404	47.96
198.623	95.06
198.842	37.72
199.062	119.64
199.281	56.15
199.5	39.76
199.719	50
199.938	78.68
200.157	117.59
200.376	131.92
200.595	33.62
200.814	115.54
201.033	27.48
201.252	64.34
201.471	62.29
201.69	152.4
201.909	82.77
202.128	82.77
202.347	82.77
202.566	72.53
202.785	-42.15
203.004	17.24
203.223	127.83
203.442	43.86
203.661	25.43
203.879	54.1
204.098	105.3
204.317	7
204.536	97.11
204.755	-50.35
204.974	35.67
205.193	60.24
205.411	76.63
205.63	35.67
205.849	80.72
206.068	105.3
206.287	121.68
206.505	45.91
206.724	99.16
206.943	58.2
207.162	17.24
207.381	35.67
207.599	-15.53
207.818	21.33
208.037	4.95
208.255	56.15
208.474	-25.77
208.693	25.43
208.911	37.72
209.13	47.96
209.349	39.76
209.567	103.25
209.786	86.87
210.005	111.44
210.223	70.48
210.442	23.38
210.661	27.48
210.879	-7.34
211.098	39.76
211.316	25.43
211.535	82.77
211.753	56.15
211.972	19.29
212.191	52.05
212.409	60.24
212.628	97.11
212.846	31.57
213.065	68.44
213.283	86.87
213.502	60.24
213.72	80.72
213.938	45.91
214.157	37.72
214.375	52.05
214.594	25.43
214.812	54.1
215.031	25.43
215.249	103.25
215.467	11.09
215.686	37.72
215.904	-1.19
216.122	97.11
216.341	166.74
216.559	-17.58
216.778	27.48
216.996	93.01
217.214	33.62
217.432	7
217.651	74.58
217.869	62.29
218.087	21.33
218.306	41.81
218.524	88.92
218.742	86.87
218.96	15.19
219.179	29.52
219.397	19.29
219.615	58.2
219.833	-33.96
220.051	-5.29
220.27	23.38
220.488	93.01
220.706	-38.06
220.924	64.34
221.142	-44.2
221.36	90.96
221.578	62.29
221.796	29.52
222.015	56.15
222.233	113.49
222.451	95.06
222.669	-31.91
222.887	95.06
223.105	-40.11
223.323	-19.63
223.541	-40.11
223.759	13.14
223.977	113.49
224.195	101.2
224.413	47.96
224.631	39.76
224.849	78.68
225.067	97.11
225.285	23.38
225.503	37.72
225.721	2.9
225.939	23.38
226.157	35.67
226.375	123.73
226.592	39.76
226.81	64.34
227.028	70.48
227.246	103.25
227.464	66.39
227.682	62.29
227.9	60.24
228.117	70.48
228.335	-11.43
228.553	27.48
228.771	54.1
228.989	74.58
229.206	90.96
229.424	19.29
229.642	29.52
229.86	-7.34
230.077	54.1
230.295	31.57
230.513	129.88
230.731	25.43
230.948	54.1
231.166	111.44
231.384	0.85
231.601	2.9
231.819	52.05
232.037	54.1
232.254	-5.29
232.472	11.09
232.689	86.87
232.907	121.68
233.125	11.09
233.342	-27.82
233.56	35.67
233.777	47.96
233.995	95.06
234.213	15.19
234.43	47.96
234.648	45.91
234.865	7
235.083	23.38
235.3	4.95
235.518	-38.06
235.735	113.49
235.953	39.76
236.17	43.86
236.388	88.92
236.605	45.91
236.822	74.58
237.04	47.96
237.257	45.91
237.475	4.95
237.692	52.05
237.909	64.34
238.127	72.53
238.344	84.82
238.562	123.73
238.779	9.05
238.996	82.77
239.214	50
239.431	88.92
239.648	70.48
239.865	93.01
240.083	101.2
240.3	47.96
240.517	43.86
240.735	50
240.952	37.72
241.169	88.92
241.386	70.48
241.603	99.16
241.821	41.81
242.038	90.96
242.255	60.24
242.472	29.52
242.689	103.25
242.907	74.58
243.124	66.39
243.341	21.33
243.558	21.33
243.775	31.57
243.992	-23.72
244.209	101.2
244.426	80.72
244.643	56.15
244.86	50
245.078	93.01
245.295	76.63
245.512	119.64
245.729	-7.34
245.946	9.05
246.163	37.72
246.38	27.48
246.597	45.91
246.814	148.31
247.031	0.85
247.248	70.48
247.464	62.29
247.681	95.06
247.898	121.68
248.115	62.29
248.332	-1.19
248.549	129.88
248.766	103.25
248.983	115.54
249.2	93.01
249.417	13.14
249.633	31.57
249.85	41.81
250.067	101.2
250.284	45.91
250.501	17.24
250.717	62.29
250.934	11.09
251.151	0.85
251.368	-1.19
251.585	56.15
251.801	82.77
252.018	74.58
252.235	160.59
252.451	105.3
252.668	-40.11
252.885	17.24
253.102	152.4
253.318	-1.19
253.535	-40.11
253.752	0.85
253.968	74.58
254.185	-33.96
254.401	86.87
254.618	2.9
254.835	-5.29
255.051	109.4
255.268	62.29
255.484	-9.39
255.701	47.96
255.917	33.62
256.134	-3.24
256.351	-52.39
256.567	-29.87
256.784	41.81
257	-11.43
257.217	15.19
257.433	99.16
257.65	39.76
257.866	78.68
258.082	74.58
258.299	43.86
258.515	113.49
258.732	4.95
258.948	-9.39
259.165	23.38
259.381	47.96
259.597	43.86
259.814	-1.19
260.03	-15.53
260.246	9.05
260.463	80.72
260.679	172.88
260.895	-3.24
261.112	95.06
261.328	-29.87
261.544	33.62
261.761	117.59
261.977	62.29
262.193	17.24
262.409	82.77
262.626	27.48
262.842	27.48
263.058	52.05
263.274	86.87
263.49	64.34
263.707	43.86
263.923	29.52
264.139	-9.39
264.355	15.19
264.571	168.79
264.787	76.63
265.004	93.01
265.22	-62.63
265.436	19.29
265.652	21.33
265.868	74.58
266.084	-42.15
266.3	78.68
266.516	11.09
266.732	52.05
266.948	41.81
267.164	15.19
267.38	39.76
267.596	39.76
267.812	168.79
268.028	9.05
268.244	-64.68
268.46	95.06
268.676	54.1
268.892	17.24
269.108	13.14
269.324	11.09
269.54	-17.58
269.756	84.82
269.972	-68.78
270.188	15.19
270.403	11.09
270.619	11.09
270.835	33.62
271.051	-9.39
271.267	27.48
271.483	25.43
271.698	123.73
271.914	11.09
272.13	9.05
272.346	-50.35
272.562	2.9
272.777	103.25
272.993	90.96
273.209	45.91
273.425	119.64
273.64	17.24
273.856	72.53
274.072	23.38
274.287	-27.82
274.503	93.01
274.719	58.2
274.934	74.58
275.15	17.24
275.366	37.72
275.581	-23.72
275.797	76.63
276.012	70.48
276.228	-7.34
276.444	-9.39
276.659	93.01
276.875	-23.72
277.09	7
277.306	21.33
277.521	45.91
277.737	21.33
277.952	56.15
278.168	88.92
278.383	86.87
278.599	80.72
278.814	129.88
279.03	-36.01
279.245	187.22
279.461	54.1
279.676	99.16
279.892	-11.43
280.107	43.86
280.322	11.09
280.538	2.9
280.753	17.24
280.969	-11.43
281.184	13.14
281.399	111.44
281.615	45.91
281.83	62.29
282.045	-62.63
282.26	2.9
282.476	45.91
282.691	23.38
282.906	29.52
283.122	78.68
283.337	-5.29
283.552	66.39
283.767	0.85
283.983	-21.67
284.198	41.81
284.413	13.14
284.628	-15.53
284.843	19.29
285.058	95.06
285.274	47.96
285.489	-1.19
285.704	144.21
285.919	52.05
286.134	41.81
286.349	52.05
286.564	111.44
286.779	82.77
286.995	80.72
287.21	-36.01
287.425	56.15
287.64	7
287.855	90.96
288.07	41.81
288.285	111.44
288.5	56.15
288.715	115.54
288.93	35.67
289.145	-5.29
289.36	172.88
289.575	4.95
289.79	95.06
290.004	27.48
290.219	121.68
290.434	37.72
290.649	-13.48
290.864	11.09
291.079	60.24
291.294	23.38
291.509	78.68
291.724	39.76
291.938	-76.97
292.153	64.34
292.368	25.43
292.583	15.19
292.798	107.35
293.012	95.06
293.227	39.76
293.442	68.44
293.657	93.01
293.871	39.76
294.086	-11.43
294.301	138.07
294.516	13.14
294.73	33.62
294.945	78.68
295.16	80.72
295.374	78.68
295.589	121.68
295.804	4.95
296.018	54.1
296.233	191.31
296.447	4.95
296.662	50
296.877	88.92
297.091	78.68
297.306	54.1
297.52	70.48
297.735	105.3
297.949	33.62
298.164	80.72
298.378	45.91
298.593	-3.24
298.807	86.87
299.022	7
299.236	148.31
299.451	74.58
299.665	62.29
299.88	7
300.094	54.1
300.309	29.52
300.523	82.77
300.737	64.34
300.952	119.64
301.166	82.77
301.381	41.81
301.595	37.72
301.809	-27.82
302.024	-11.43
302.238	60.24
302.452	107.35
302.667	0.85
302.881	72.53
303.095	25.43
303.309	86.87
303.524	27.48
303.738	29.52
303.952	31.57
304.166	60.24
304.381	-38.06
304.595	90.96
304.809	-27.82
305.023	78.68
305.237	60.24
305.452	21.33
305.666	78.68
305.88	68.44
306.094	29.52
306.308	52.05
306.522	68.44
306.736	76.63
306.95	103.25
307.164	0.85
307.379	93.01
307.593	140.12
307.807	127.83
308.021	60.24
308.235	111.44
308.449	-17.58
308.663	2.9
308.877	115.54
309.091	33.62
309.305	74.58
309.519	13.14
309.733	45.91
309.947	-3.24
310.161	47.96
310.374	52.05
310.588	136.02
310.802	11.09
311.016	15.19
311.23	162.64
311.444	-1.19
311.658	58.2
311.872	62.29
312.085	93.01
312.299	140.12
312.513	39.76
312.727	58.2
312.941	9.05
313.154	19.29
313.368	72.53
313.582	17.24
313.796	66.39
314.009	76.63
314.223	7
314.437	17.24
314.651	86.87
314.864	9.05
315.078	-3.24
315.292	-36.01
315.505	-5.29
315.719	64.34
315.933	62.29
316.146	27.48
316.36	-3.24
316.573	101.2
316.787	129.88
317.001	84.82
317.214	50
317.428	80.72
317.641	-15.53
317.855	-1.19
318.068	31.57
318.282	62.29
318.495	125.78
318.709	97.11
318.922	41.81
319.136	136.02
319.349	111.44
319.563	27.48
319.776	66.39
319.99	11.09
320.203	45.91
320.417	86.87
320.63	-3.24
320.843	119.64
321.057	41.81
321.27	41.81
321.483	74.58
321.697	76.63
321.91	39.76
322.124	41.81
322.337	119.64
322.55	-7.34
322.763	47.96
322.977	7
323.19	82.77
323.403	97.11
323.617	25.43
323.83	107.35
324.043	0.85
324.256	39.76
324.469	23.38
324.683	86.87
324.896	136.02
325.109	11.09
325.322	-1.19
325.535	82.77
325.748	15.19
325.962	25.43
326.175	35.67
326.388	74.58
326.601	90.96
326.814	78.68
327.027	58.2
327.24	129.88
327.453	62.29
327.666	121.68
327.879	86.87
328.092	86.87
328.305	27.48
328.518	31.57
328.731	54.1
328.944	64.34
329.157	45.91
329.37	-1.19
329.583	199.51
329.796	90.96
330.009	-42.15
330.222	86.87
330.435	70.48
330.648	23.38
330.861	23.38
331.073	76.63
331.286	90.96
331.499	90.96
331.712	19.29
331.925	25.43
332.138	88.92
332.35	95.06
332.563	37.72
332.776	103.25
332.989	64.34
333.202	113.49
333.414	95.06
333.627	23.38
333.84	33.62
334.053	31.57
334.265	29.52
334.478	-9.39
334.691	84.82
334.903	72.53
335.116	17.24
335.329	15.19
335.541	109.4
335.754	37.72
335.966	62.29
336.179	47.96
336.392	47.96
336.604	72.53
336.817	9.05
337.029	68.44
337.242	41.81
337.454	56.15
337.667	45.91
337.88	93.01
338.092	2.9
338.305	115.54
338.517	56.15
338.729	15.19
338.942	117.59
339.154	-13.48
339.367	-9.39
339.579	62.29
339.792	23.38
340.004	111.44
340.217	66.39
340.429	62.29
340.641	-13.48
340.854	43.86
341.066	52.05
341.278	50
341.491	103.25
341.703	15.19
341.915	-17.58
342.128	31.57
342.34	88.92
342.552	23.38
342.764	33.62
342.977	25.43
343.189	117.59
343.401	90.96
343.613	31.57
343.826	88.92
344.038	60.24
344.25	80.72
344.462	33.62
344.674	95.06
344.886	52.05
345.099	111.44
345.311	33.62
345.523	33.62
345.735	19.29
345.947	17.24
346.159	123.73
346.371	31.57
346.583	125.78
346.795	150.36
347.007	64.34
347.219	97.11
347.431	27.48
347.643	35.67
347.855	60.24
348.067	56.15
348.279	21.33
348.491	-15.53
348.703	107.35
348.915	-7.34
349.127	54.1
349.339	29.52
349.551	62.29
349.763	82.77
349.975	25.43
350.187	97.11
350.399	15.19
350.61	86.87
350.822	41.81
351.034	82.77
351.246	70.48
351.458	117.59
351.669	107.35
351.881	86.87
352.093	80.72
352.305	90.96
352.517	47.96
352.728	15.19
352.94	4.95
353.152	125.78
353.363	66.39
353.575	113.49
353.787	74.58
353.999	23.38
354.21	201.55
354.422	-25.77
354.633	27.48
354.845	62.29
355.057	119.64
355.268	95.06
355.48	33.62
355.692	2.9
355.903	54.1
356.115	0.85
356.326	15.19
356.538	115.54
356.749	131.92
356.961	105.3
357.172	56.15
357.384	86.87
357.595	189.27
357.807	27.48
358.018	2.9
358.23	101.2
358.441	119.64
358.653	80.72
358.864	78.68
359.075	7
359.287	90.96
359.498	103.25
359.709	56.15
359.921	121.68
360.132	50
360.344	-9.39
360.555	76.63
360.766	146.26
360.977	7
361.189	95.06
361.4	64.34
361.611	119.64
361.823	58.2
362.034	31.57
362.245	4.95
362.456	60.24
362.667	25.43
362.879	93.01
363.09	93.01
363.301	99.16
363.512	2.9
363.723	117.59
363.935	54.1
364.146	82.77
364.357	84.82
364.568	76.63
364.779	27.48
364.99	23.38
365.201	21.33
365.412	115.54
365.623	9.05
365.834	82.77
366.045	90.96
366.256	76.63
366.467	54.1
366.678	33.62
366.889	148.31
367.1	-3.24
367.311	113.49
367.522	47.96
367.733	140.12
367.944	54.1
368.155	25.43
368.366	58.2
368.577	41.81
368.788	117.59
368.999	-9.39
369.209	27.48
369.42	107.35
369.631	179.03
369.842	54.1
370.053	97.11
370.264	113.49
370.474	-25.77
370.685	86.87
370.896	-33.96
371.107	113.49
371.317	115.54
371.528	47.96
371.739	129.88
371.95	66.39
372.16	121.68
372.371	-27.82
372.582	72.53
372.792	88.92
373.003	86.87
373.214	68.44
373.424	33.62
373.635	50
373.846	119.64
374.056	68.44
374.267	39.76
374.477	84.82
374.688	45.91
374.898	93.01
375.109	86.87
375.319	29.52
375.53	154.45
375.74	123.73
375.951	76.63
376.161	62.29
376.372	97.11
376.582	84.82
376.793	123.73
377.003	33.62
377.214	11.09
377.424	105.3
377.635	17.24
377.845	88.92
378.055	80.72
378.266	-42.15
378.476	78.68
378.686	76.63
378.897	62.29
379.107	41.81
379.317	97.11
379.528	-40.11
379.738	33.62
379.948	33.62
380.158	80.72
380.369	62.29
380.579	62.29
380.789	84.82
380.999	103.25
381.21	29.52
381.42	164.69
381.63	125.78
381.84	133.97
382.05	105.3
382.261	82.77
382.471	78.68
382.681	60.24
382.891	109.4
383.101	131.92
383.311	21.33
383.521	33.62
383.731	174.93
383.941	133.97
384.151	50
384.361	60.24
384.571	60.24
384.781	70.48
384.991	9.05
385.201	123.73
385.411	105.3
385.621	39.76
385.831	19.29
386.041	4.95
386.251	72.53
386.461	119.64
386.671	119.64
386.881	-23.72
387.091	33.62
387.301	33.62
387.511	103.25
387.72	95.06
387.93	105.3
388.14	-11.43
388.35	7
388.56	105.3
388.769	86.87
388.979	23.38
389.189	-25.77
389.399	23.38
389.609	123.73
389.818	131.92
390.028	21.33
390.238	123.73
390.447	19.29
390.657	93.01
390.867	21.33
391.076	56.15
391.286	99.16
391.496	74.58
391.705	66.39
391.915	58.2
392.125	93.01
392.334	74.58
392.544	174.93
392.753	41.81
392.963	148.31
393.172	127.83
393.382	60.24
393.591	72.53
393.801	123.73
394.01	179.03
394.22	93.01
394.429	125.78
394.639	101.2
394.848	88.92
395.058	64.34
395.267	23.38
395.477	31.57
395.686	84.82
395.895	166.74
396.105	234.32
396.314	82.77
396.524	142.16
396.733	109.4
396.942	152.4
397.152	160.59
397.361	123.73
397.57	72.53
397.78	82.77
397.989	133.97
398.198	166.74
398.407	101.2
398.617	127.83
398.826	121.68
399.035	138.07
399.244	209.75
399.453	52.05
399.663	90.96
399.872	199.51
400.081	82.77
400.29	166.74
400.499	93.01
400.708	187.22
400.917	93.01
401.127	9.05
401.336	117.59
401.545	219.99
401.754	248.66
401.963	215.89
402.172	193.36
402.381	43.86
402.59	119.64
402.799	176.98
403.008	142.16
403.217	168.79
403.426	164.69
403.635	142.16
403.844	193.36
404.053	138.07
404.262	158.55
404.471	199.51
404.68	162.64
404.888	181.07
405.097	195.41
405.306	179.03
405.515	125.78
405.724	181.07
405.933	144.21
406.142	193.36
406.35	170.83
406.559	211.79
406.768	203.6
406.977	285.52
407.185	279.38
407.394	236.37
407.603	154.45
407.812	273.23
408.02	336.72
408.229	236.37
408.438	273.23
408.646	209.75
408.855	267.09
409.064	314.19
409.272	299.86
409.481	310.1
409.69	297.81
409.898	209.75
410.107	342.86
410.315	396.11
410.524	306
410.733	402.26
410.941	383.82
411.15	420.69
411.358	492.37
411.567	426.83
411.775	367.44
411.984	570.19
412.192	459.6
412.401	478.03
412.609	572.24
412.818	598.86
413.026	553.8
413.234	535.37
413.443	574.28
413.651	516.94
413.86	607.05
414.068	619.34
414.276	734.03
414.485	641.87
414.693	684.87
414.901	756.55
415.11	746.31
415.318	727.88
415.526	762.7
415.734	789.32
415.943	889.67
416.151	959.3
416.359	850.76
416.567	969.54
416.776	940.87
416.984	1108.8
417.192	1098.56
417.4	1078.08
417.608	1035.08
417.817	1030.98
418.025	1338.18
418.233	1284.93
418.441	1293.12
418.649	1293.12
418.857	1409.86
419.065	1465.15
419.273	1358.66
419.481	1436.48
419.689	1602.36
419.897	1596.22
420.105	1639.23
420.313	1721.15
420.521	1790.78
420.729	1815.35
420.937	1784.63
421.145	1878.84
421.353	2034.49
421.561	2073.4
421.769	2114.36
421.977	2274.1
422.185	2255.67
422.393	2286.39
422.601	2474.8
422.809	2485.04
423.017	2523.95
423.224	2652.97
423.432	2812.71
423.64	2607.92
423.848	3023.66
424.056	2861.87
424.263	3181.35
424.471	3156.77
424.679	3224.36
424.887	3365.67
425.094	3547.94
425.302	3461.92
425.51	3605.28
425.718	3648.29
425.925	3746.59
426.133	3789.6
426.341	4174.61
426.548	4141.85
426.756	4178.71
426.964	4309.78
427.171	4500.24
427.379	4752.14
427.586	4684.56
427.794	4805.39
428.001	5096.2
428.209	5323.52
428.417	5305.09
428.624	5643.01
428.832	5600
429.039	5626.62
429.247	5524.23
429.454	6017.79
429.662	6736.62
429.869	6228.73
430.076	6601.46
430.284	6255.35
430.491	6566.64
430.699	6904.56
430.906	7066.35
431.114	7172.84
431.321	7348.97
431.528	7539.43
431.736	7932.64
431.943	8168.15
432.15	8061.66
432.358	8274.65
432.565	8745.68
432.772	8504.02
432.979	9104.07
433.187	9173.71
433.394	9245.38
433.601	9784
433.808	9857.73
434.016	9751.23
434.223	10154.68
434.43	10613.43
434.637	10562.23
434.844	11176.62
435.052	11350.7
435.259	11354.79
435.466	11600.55
435.673	11301.54
435.88	12210.84
436.087	13032.08
436.294	12589.72
436.501	12509.85
436.708	12745.36
436.915	13476.49
437.122	13841.03
437.329	13589.13
437.537	14269.05
437.743	14445.18
437.95	14387.83
438.157	15034.99
438.364	15635.05
438.571	15366.76
438.778	15653.48
438.985	17085.01
439.192	16210.53
439.399	16763.48
439.606	16403.04
439.813	17185.36
440.02	18596.41
440.227	18254.4
440.433	17678.92
440.64	18569.79
440.847	18301.5
441.054	18698.81
441.261	19978.79
441.467	19966.5
441.674	20255.26
441.881	20947.48
442.088	20648.47
442.294	20640.28
442.501	21123.6
442.708	21606.92
442.914	22280.71
443.121	23386.61
443.328	22428.16
443.534	24293.86
443.741	23790.06
443.948	23282.16
444.154	25291.22
444.361	24979.93
444.568	25125.33
444.774	25225.68
444.981	25297.36
445.187	26204.61
445.394	26866.11
445.6	26606.02
445.807	29473.17
446.013	28152.23
446.22	28701.09
446.426	29944.2
446.633	30085.51
446.839	30873.98
447.046	29471.12
447.252	31293.82
447.459	31271.29
447.665	31259
447.871	32733.54
448.078	34150.73
448.284	31926.64
448.491	33270.11
448.697	34527.56
448.903	35092.8
449.11	35139.9
449.316	34396.49
449.522	35266.88
449.728	36397.35
449.935	36393.26
450.141	36079.92
450.347	36731.17
450.553	36120.88
450.76	36043.06
450.966	37486.87
451.172	37161.25
451.378	37757.21
451.584	37329.18
451.791	38320.4
451.997	37591.32
452.203	38349.07
452.409	38947.08
452.615	38009.11
452.821	36897.06
453.027	36966.69
453.233	38811.91
453.44	37138.72
453.646	37312.8
453.852	37505.31
454.058	38254.86
454.264	36618.53
454.47	37945.62
454.676	36673.83
454.882	37955.86
455.088	34777.41
455.294	35453.24
455.5	35850.55
455.705	36077.87
455.911	34920.77
456.117	34081.1
456.323	33831.25
456.529	31750.51
456.735	32776.55
456.941	32205.16
457.147	31748.46
457.352	30566.79
457.558	30423.43
457.764	30341.51
457.97	29995.4
458.176	29393.3
458.381	29221.27
458.587	28043.69
458.793	27703.73
458.999	26505.66
459.204	27980.2
459.41	27326.9
459.616	25532.88
459.821	25563.6
460.027	25309.65
460.233	24832.47
460.438	23732.72
460.644	23826.92
460.85	22753.79
461.055	22493.69
461.261	22299.14
461.466	20372
461.672	20146.72
461.878	21383.7
462.083	19952.16
462.289	19694.12
462.494	19110.45
462.7	18508.35
462.905	18186.82
463.111	18512.44
463.316	18573.88
463.522	18070.08
463.727	18377.28
463.932	18293.31
464.138	18010.69
464.343	18086.47
464.549	17402.44
464.754	18008.64
464.959	17840.71
465.165	17943.11
465.37	16988.75
465.575	16685.65
465.781	16951.89
465.986	17476.17
466.191	16661.08
466.397	16362.08
466.602	15534.7
466.807	16112.22
467.012	16038.5
467.218	15833.7
