Data from USB4F104151__96__12-13-15-999.txt Node

Date: Fri Mar 14 12:13:15 EDT 2025
User: louis
Spectrometer: USB4F10415
Trigger mode: 4
Integration Time (sec): 5.000000E-2
Scans to average: 1
Electric dark correction enabled: true
Nonlinearity correction enabled: false
Boxcar width: 0
XAxis mode: Wavelengths
Number of Pixels in Spectrum: 3648
>>>>>Begin Spectral Data<<<<<
178.204	-311.63
178.424	-311.63
178.644	-311.63
178.864	-213.33
179.084	-166.23
179.304	9.9
179.524	-14.68
179.744	-47.44
179.964	40.62
180.184	-53.59
180.404	-20.82
180.624	-53.59
180.844	61.1
181.064	-53.59
181.283	38.57
181.503	34.47
181.723	59.05
181.943	-47.44
182.163	114.34
182.383	-4.44
182.602	42.67
182.822	26.28
183.042	26.28
183.262	11.95
183.482	11.95
183.701	-2.39
183.921	-37.2
184.141	22.19
184.361	32.43
184.58	36.52
184.8	61.1
185.02	-35.16
185.239	61.1
185.459	73.39
185.679	44.71
185.898	5.8
186.118	57
186.338	-4.44
186.557	18.09
186.777	1.71
186.997	-2.39
187.216	-33.11
187.436	77.48
187.655	112.3
187.875	9.9
188.095	36.52
188.314	69.29
188.534	85.67
188.753	11.95
188.973	77.48
189.192	93.87
189.412	-18.77
189.631	-33.11
189.851	-22.87
190.07	122.54
190.29	7.85
190.509	30.38
190.729	36.52
190.948	69.29
191.168	165.54
191.387	13.99
191.607	40.62
191.826	20.14
192.045	28.33
192.265	38.57
192.484	-29.01
192.704	65.19
192.923	-6.49
193.142	118.44
193.362	100.01
193.581	52.91
193.8	38.57
194.02	38.57
194.239	40.62
194.458	65.19
194.678	11.95
194.897	22.19
195.116	-8.53
195.335	-12.63
195.555	18.09
195.774	-20.82
195.993	22.19
196.212	13.99
196.432	-20.82
196.651	77.48
196.87	52.91
197.089	95.91
197.308	-18.77
197.528	63.15
197.747	22.19
197.966	18.09
198.185	54.95
198.404	36.52
198.623	110.25
198.842	69.29
199.062	97.96
199.281	52.91
199.5	54.95
199.719	-10.58
199.938	54.95
200.157	50.86
200.376	83.63
200.595	-29.01
200.814	3.75
201.033	-8.53
201.252	79.53
201.471	57
201.69	97.96
201.909	69.29
202.128	124.58
202.347	5.8
202.566	48.81
202.785	-10.58
203.004	-2.39
203.223	100.01
203.442	18.09
203.661	3.75
203.879	30.38
204.098	118.44
204.317	-20.82
204.536	36.52
204.755	18.09
204.974	91.82
205.193	52.91
205.411	167.59
205.63	-2.39
205.849	44.71
206.068	-14.68
206.287	-4.44
206.505	61.1
206.724	48.81
206.943	-16.73
207.162	-12.63
207.381	102.06
207.599	9.9
207.818	30.38
208.037	-55.64
208.255	-14.68
208.474	81.58
208.693	-8.53
208.911	-37.2
209.13	93.87
209.349	36.52
209.567	13.99
209.786	89.77
210.005	59.05
210.223	-12.63
210.442	-106.84
210.661	-0.34
210.879	48.81
211.098	5.8
211.316	13.99
211.535	46.76
211.753	61.1
211.972	38.57
212.191	18.09
212.409	-6.49
212.628	46.76
212.846	-59.73
213.065	83.63
213.283	54.95
213.502	-18.77
213.72	-24.92
213.938	-8.53
214.157	-0.34
214.375	3.75
214.594	85.67
214.812	36.52
215.031	-33.11
215.249	-10.58
215.467	36.52
215.686	-16.73
215.904	48.81
216.122	-22.87
216.341	91.82
216.559	48.81
216.778	114.34
216.996	145.06
217.214	50.86
217.432	-0.34
217.651	-41.3
217.869	32.43
218.087	69.29
218.306	34.47
218.524	134.82
218.742	13.99
218.96	44.71
219.179	-57.68
219.397	57
219.615	81.58
219.833	18.09
220.051	-55.64
220.27	132.78
220.488	48.81
220.706	81.58
220.924	26.28
221.142	-0.34
221.36	38.57
221.578	1.71
221.796	3.75
222.015	71.34
222.233	50.86
222.451	75.43
222.669	-26.96
222.887	44.71
223.105	-67.92
223.323	-35.16
223.541	-33.11
223.759	22.19
223.977	-26.96
224.195	79.53
224.413	63.15
224.631	75.43
224.849	-0.34
225.067	132.78
225.285	-53.59
225.503	-45.4
225.721	1.71
225.939	57
226.157	3.75
226.375	157.35
226.592	73.39
226.81	-57.68
227.028	54.95
227.246	102.06
227.464	28.33
227.682	3.75
227.9	7.85
228.117	57
228.335	-8.53
228.553	-49.49
228.771	44.71
228.989	89.77
229.206	-67.92
229.424	54.95
229.642	42.67
229.86	22.19
230.077	85.67
230.295	28.33
230.513	9.9
230.731	40.62
230.948	89.77
231.166	42.67
231.384	44.71
231.601	-14.68
231.819	42.67
232.037	-2.39
232.254	-55.64
232.472	75.43
232.689	-31.06
232.907	44.71
233.125	59.05
233.342	-20.82
233.56	3.75
233.777	-8.53
233.995	34.47
234.213	48.81
234.43	38.57
234.648	-12.63
234.865	97.96
235.083	48.81
235.3	13.99
235.518	38.57
235.735	83.63
235.953	77.48
236.17	40.62
236.388	32.43
236.605	-14.68
236.822	44.71
237.04	91.82
237.257	22.19
237.475	-59.73
237.692	16.04
237.909	30.38
238.127	9.9
238.344	13.99
238.562	18.09
238.779	13.99
238.996	7.85
239.214	24.23
239.431	42.67
239.648	50.86
239.865	40.62
240.083	28.33
240.3	-31.06
240.517	7.85
240.735	-2.39
240.952	52.91
241.169	85.67
241.386	5.8
241.603	46.76
241.821	7.85
242.038	61.1
242.255	63.15
242.472	5.8
242.689	-8.53
242.907	77.48
243.124	69.29
243.341	-26.96
243.558	18.09
243.775	22.19
243.992	-2.39
244.209	-8.53
244.426	83.63
244.643	26.28
244.86	-47.44
245.078	32.43
245.295	24.23
245.512	69.29
245.729	-24.92
245.946	52.91
246.163	91.82
246.38	16.04
246.597	91.82
246.814	18.09
247.031	83.63
247.248	57
247.464	18.09
247.681	-14.68
247.898	52.91
248.115	93.87
248.332	-51.54
248.549	77.48
248.766	52.91
248.983	87.72
249.2	20.14
249.417	79.53
249.633	34.47
249.85	32.43
250.067	-12.63
250.284	-0.34
250.501	26.28
250.717	79.53
250.934	34.47
251.151	-12.63
251.368	36.52
251.585	26.28
251.801	52.91
252.018	-55.64
252.235	136.87
252.451	46.76
252.668	75.43
252.885	67.24
253.102	18.09
253.318	77.48
253.535	-43.35
253.752	-84.31
253.968	34.47
254.185	-6.49
254.401	59.05
254.618	42.67
254.835	30.38
255.051	100.01
255.268	11.95
255.484	-53.59
255.701	85.67
255.917	13.99
256.134	-20.82
256.351	3.75
256.567	1.71
256.784	-2.39
257	16.04
257.217	36.52
257.433	-16.73
257.65	11.95
257.866	79.53
258.082	-10.58
258.299	42.67
258.515	102.06
258.732	63.15
258.948	-55.64
259.165	30.38
259.381	3.75
259.597	79.53
259.814	44.71
260.03	1.71
260.246	-2.39
260.463	116.39
260.679	71.34
260.895	28.33
261.112	7.85
261.328	5.8
261.544	48.81
261.761	83.63
261.977	-24.92
262.193	-12.63
262.409	30.38
262.626	11.95
262.842	54.95
263.058	-18.77
263.274	3.75
263.49	44.71
263.707	100.01
263.923	5.8
264.139	24.23
264.355	-45.4
264.571	75.43
264.787	44.71
265.004	38.57
265.22	57
265.436	20.14
265.652	-18.77
265.868	36.52
266.084	-37.2
266.3	46.76
266.516	67.24
266.732	34.47
266.948	65.19
267.164	13.99
267.38	-10.58
267.596	81.58
267.812	175.78
268.028	97.96
268.244	16.04
268.46	-14.68
268.676	24.23
268.892	9.9
269.108	-14.68
269.324	-33.11
269.54	-59.73
269.756	65.19
269.972	30.38
270.188	11.95
270.403	1.71
270.619	65.19
270.835	77.48
271.051	16.04
271.267	42.67
271.483	34.47
271.698	26.28
271.914	-14.68
272.13	5.8
272.346	-26.96
272.562	-6.49
272.777	3.75
272.993	75.43
273.209	13.99
273.425	59.05
273.64	-18.77
273.856	87.72
274.072	36.52
274.287	-41.3
274.503	-0.34
274.719	40.62
274.934	9.9
275.15	44.71
275.366	3.75
275.581	59.05
275.797	61.1
276.012	32.43
276.228	48.81
276.444	-8.53
276.659	32.43
276.875	26.28
277.09	-4.44
277.306	42.67
277.521	46.76
277.737	-20.82
277.952	69.29
278.168	46.76
278.383	63.15
278.599	61.1
278.814	40.62
279.03	71.34
279.245	61.1
279.461	24.23
279.676	38.57
279.892	-6.49
280.107	44.71
280.322	-78.16
280.538	87.72
280.753	-6.49
280.969	38.57
281.184	87.72
281.399	192.17
281.615	9.9
281.83	44.71
282.045	9.9
282.26	40.62
282.476	48.81
282.691	65.19
282.906	46.76
283.122	40.62
283.337	-18.77
283.552	112.3
283.767	-37.2
283.983	89.77
284.198	3.75
284.413	36.52
284.628	-4.44
284.843	57
285.058	-18.77
285.274	-24.92
285.489	11.95
285.704	30.38
285.919	-2.39
286.134	-61.78
286.349	38.57
286.564	-20.82
286.779	9.9
286.995	52.91
287.21	30.38
287.425	100.01
287.64	-12.63
287.855	-49.49
288.07	3.75
288.285	91.82
288.5	69.29
288.715	83.63
288.93	1.71
289.145	-67.92
289.36	40.62
289.575	48.81
289.79	102.06
290.004	-4.44
290.219	42.67
290.434	-37.2
290.649	28.33
290.864	-10.58
291.079	-2.39
291.294	44.71
291.509	61.1
291.724	36.52
291.938	-20.82
292.153	24.23
292.368	-43.35
292.583	20.14
292.798	73.39
293.012	104.11
293.227	26.28
293.442	1.71
293.657	61.1
293.871	95.91
294.086	-35.16
294.301	65.19
294.516	50.86
294.73	50.86
294.945	-47.44
295.16	83.63
295.374	61.1
295.589	26.28
295.804	16.04
296.018	9.9
296.233	108.2
296.447	63.15
296.662	52.91
296.877	114.34
297.091	57
297.306	42.67
297.52	54.95
297.735	36.52
297.949	95.91
298.164	67.24
298.378	44.71
298.593	-24.92
298.807	-59.73
299.022	102.06
299.236	59.05
299.451	-26.96
299.665	77.48
299.88	48.81
300.094	93.87
300.309	3.75
300.523	54.95
300.737	-35.16
300.952	5.8
301.166	61.1
301.381	5.8
301.595	16.04
301.809	67.24
302.024	24.23
302.238	52.91
302.452	77.48
302.667	1.71
302.881	57
303.095	151.21
303.309	-43.35
303.524	50.86
303.738	63.15
303.952	24.23
304.166	81.58
304.381	-67.92
304.595	102.06
304.809	-26.96
305.023	38.57
305.237	-12.63
305.452	-12.63
305.666	13.99
305.88	18.09
306.094	22.19
306.308	83.63
306.522	7.85
306.736	116.39
306.95	40.62
307.164	34.47
307.379	9.9
307.593	136.87
307.807	54.95
308.021	-2.39
308.235	102.06
308.449	-20.82
308.663	42.67
308.877	18.09
309.091	-10.58
309.305	112.3
309.519	-74.07
309.733	110.25
309.947	-63.83
310.161	24.23
310.374	50.86
310.588	75.43
310.802	16.04
311.016	44.71
311.23	22.19
311.444	48.81
311.658	-43.35
311.872	153.26
312.085	61.1
312.299	104.11
312.513	112.3
312.727	-12.63
312.941	-29.01
313.154	73.39
313.368	-20.82
313.582	11.95
313.796	20.14
314.009	38.57
314.223	118.44
314.437	42.67
314.651	34.47
314.864	22.19
315.078	63.15
315.292	-35.16
315.505	46.76
315.719	18.09
315.933	42.67
316.146	112.3
316.36	-4.44
316.573	69.29
316.787	110.25
317.001	54.95
317.214	-51.54
317.428	75.43
317.641	-0.34
317.855	65.19
318.068	5.8
318.282	128.68
318.495	145.06
318.709	79.53
318.922	-2.39
319.136	83.63
319.349	54.95
319.563	44.71
319.776	30.38
319.99	-0.34
320.203	1.71
320.417	69.29
320.63	61.1
320.843	44.71
321.057	3.75
321.27	40.62
321.483	87.72
321.697	93.87
321.91	73.39
322.124	42.67
322.337	145.06
322.55	-61.78
322.763	-4.44
322.977	-10.58
323.19	22.19
323.403	9.9
323.617	-0.34
323.83	122.54
324.043	-14.68
324.256	91.82
324.469	24.23
324.683	95.91
324.896	46.76
325.109	20.14
325.322	-20.82
325.535	63.15
325.748	67.24
325.962	-2.39
326.175	-2.39
326.388	85.67
326.601	67.24
326.814	-10.58
327.027	3.75
327.24	75.43
327.453	-29.01
327.666	77.48
327.879	73.39
328.092	52.91
328.305	48.81
328.518	22.19
328.731	22.19
328.944	-41.3
329.157	114.34
329.37	52.91
329.583	36.52
329.796	36.52
330.009	18.09
330.222	91.82
330.435	36.52
330.648	40.62
330.861	28.33
331.073	114.34
331.286	-0.34
331.499	95.91
331.712	28.33
331.925	-8.53
332.138	18.09
332.35	87.72
332.563	26.28
332.776	-8.53
332.989	42.67
333.202	-2.39
333.414	22.19
333.627	65.19
333.84	20.14
334.053	71.34
334.265	-33.11
334.478	-4.44
334.691	-12.63
334.903	-18.77
335.116	-22.87
335.329	13.99
335.541	149.16
335.754	67.24
335.966	-31.06
336.179	38.57
336.392	34.47
336.604	28.33
336.817	57
337.029	24.23
337.242	13.99
337.454	1.71
337.667	36.52
337.88	63.15
338.092	28.33
338.305	124.58
338.517	44.71
338.729	89.77
338.942	42.67
339.154	-4.44
339.367	-24.92
339.579	97.96
339.792	7.85
340.004	-14.68
340.217	54.95
340.429	36.52
340.641	42.67
340.854	46.76
341.066	5.8
341.278	120.49
341.491	136.87
341.703	46.76
341.915	-63.83
342.128	108.2
342.34	143.02
342.552	48.81
342.764	73.39
342.977	93.87
343.189	-8.53
343.401	26.28
343.613	-18.77
343.826	1.71
344.038	20.14
344.25	100.01
344.462	36.52
344.674	77.48
344.886	-20.82
345.099	13.99
345.311	46.76
345.523	52.91
345.735	-22.87
345.947	50.86
346.159	85.67
346.371	67.24
346.583	91.82
346.795	114.34
347.007	91.82
347.219	46.76
347.431	91.82
347.643	118.44
347.855	71.34
348.067	67.24
348.279	-29.01
348.491	28.33
348.703	112.3
348.915	50.86
349.127	-35.16
349.339	52.91
349.551	44.71
349.763	28.33
349.975	89.77
350.187	100.01
350.399	116.39
350.61	63.15
350.822	11.95
351.034	61.1
351.246	114.34
351.458	3.75
351.669	34.47
351.881	165.54
352.093	63.15
352.305	108.2
352.517	42.67
352.728	120.49
352.94	9.9
353.152	48.81
353.363	11.95
353.575	20.14
353.787	91.82
353.999	24.23
354.21	118.44
354.422	-29.01
354.633	38.57
354.845	46.76
355.057	24.23
355.268	16.04
355.48	145.06
355.692	-47.44
355.903	-22.87
356.115	46.76
356.326	-26.96
356.538	118.44
356.749	24.23
356.961	50.86
357.172	9.9
357.384	-26.96
357.595	106.15
357.807	26.28
358.018	-26.96
358.23	57
358.441	200.36
358.653	102.06
358.864	52.91
359.075	65.19
359.287	20.14
359.498	136.87
359.709	97.96
359.921	9.9
360.132	42.67
360.344	-22.87
360.555	9.9
360.766	100.01
360.977	48.81
361.189	79.53
361.4	20.14
361.611	75.43
361.823	100.01
362.034	7.85
362.245	-51.54
362.456	36.52
362.667	79.53
362.879	-39.25
363.09	61.1
363.301	1.71
363.512	20.14
363.723	36.52
363.935	75.43
364.146	81.58
364.357	20.14
364.568	71.34
364.779	44.71
364.99	69.29
365.201	46.76
365.412	38.57
365.623	-39.25
365.834	93.87
366.045	95.91
366.256	100.01
366.467	-8.53
366.678	7.85
366.889	132.78
367.1	18.09
367.311	44.71
367.522	11.95
367.733	104.11
367.944	85.67
368.155	89.77
368.366	46.76
368.577	65.19
368.788	30.38
368.999	71.34
369.209	44.71
369.42	169.64
369.631	102.06
369.842	7.85
370.053	18.09
370.264	38.57
370.474	-53.59
370.685	3.75
370.896	44.71
371.107	46.76
371.317	20.14
371.528	79.53
371.739	65.19
371.95	-2.39
372.16	69.29
372.371	-20.82
372.582	61.1
372.792	69.29
373.003	61.1
373.214	-2.39
373.424	65.19
373.635	42.67
373.846	120.49
374.056	83.63
374.267	110.25
374.477	71.34
374.688	52.91
374.898	16.04
375.109	71.34
375.319	30.38
375.53	116.39
375.74	20.14
375.951	-4.44
376.161	32.43
376.372	71.34
376.582	16.04
376.793	87.72
377.003	7.85
377.214	-20.82
377.424	89.77
377.635	63.15
377.845	16.04
378.055	81.58
378.266	50.86
378.476	71.34
378.686	16.04
378.897	-37.2
379.107	50.86
379.317	46.76
379.528	-16.73
379.738	75.43
379.948	-12.63
380.158	171.69
380.369	73.39
380.579	79.53
380.789	11.95
380.999	50.86
381.21	136.87
381.42	167.59
381.63	-6.49
381.84	16.04
382.05	108.2
382.261	100.01
382.471	50.86
382.681	24.23
382.891	93.87
383.101	65.19
383.311	-20.82
383.521	16.04
383.731	69.29
383.941	124.58
384.151	50.86
384.361	48.81
384.571	116.39
384.781	102.06
384.991	85.67
385.201	143.02
385.411	95.91
385.621	46.76
385.831	71.34
386.041	57
386.251	36.52
386.461	67.24
386.671	32.43
386.881	40.62
387.091	73.39
387.301	26.28
387.511	77.48
387.72	91.82
387.93	85.67
388.14	-16.73
388.35	102.06
388.56	30.38
388.769	77.48
388.979	38.57
389.189	32.43
389.399	54.95
389.609	81.58
389.818	114.34
390.028	85.67
390.238	85.67
390.447	52.91
390.657	134.82
390.867	-0.34
391.076	-39.25
391.286	87.72
391.496	32.43
391.705	7.85
391.915	30.38
392.125	159.4
392.334	36.52
392.544	116.39
392.753	145.06
392.963	16.04
393.172	40.62
393.382	11.95
393.591	190.12
393.801	97.96
394.01	138.92
394.22	118.44
394.429	104.11
394.639	59.05
394.848	104.11
395.058	32.43
395.267	59.05
395.477	145.06
395.686	91.82
395.895	104.11
396.105	194.22
396.314	108.2
396.524	77.48
396.733	71.34
396.942	102.06
397.152	110.25
397.361	79.53
397.57	44.71
397.78	77.48
397.989	65.19
398.198	163.5
398.407	61.1
398.617	114.34
398.826	155.3
399.035	77.48
399.244	147.11
399.453	132.78
399.663	79.53
399.872	140.97
400.081	65.19
400.29	169.64
400.499	63.15
400.708	89.77
400.917	65.19
401.127	81.58
401.336	20.14
401.545	257.7
401.754	151.21
401.963	151.21
402.172	87.72
402.381	100.01
402.59	143.02
402.799	134.82
403.008	106.15
403.217	95.91
403.426	120.49
403.635	95.91
403.844	179.88
404.053	128.68
404.262	149.16
404.471	224.94
404.68	177.83
404.888	190.12
405.097	108.2
405.306	95.91
405.515	239.27
405.724	145.06
405.933	269.99
406.142	222.89
406.35	229.03
406.559	200.36
406.768	116.39
406.977	263.85
407.185	175.78
407.394	235.18
407.603	188.07
407.812	226.98
408.02	257.7
408.229	253.61
408.438	280.23
408.646	229.03
408.855	171.69
409.064	280.23
409.272	169.64
409.481	269.99
409.69	276.13
409.898	231.08
410.107	317.09
410.315	364.2
410.524	351.91
410.733	378.53
410.941	370.34
411.15	333.48
411.358	380.58
411.567	450.21
411.775	382.63
411.984	372.39
412.192	464.55
412.401	462.5
412.609	568.99
412.818	495.27
413.026	462.5
413.234	513.7
413.443	507.55
413.651	444.07
413.86	546.47
414.068	638.62
414.276	720.54
414.485	540.32
414.693	751.26
414.901	730.78
415.11	773.79
415.318	771.74
415.526	767.65
415.734	835.23
415.943	822.94
416.151	839.33
416.359	775.84
416.567	904.86
416.776	970.4
416.984	970.4
417.192	999.07
417.4	1013.4
417.608	994.97
417.817	1050.27
418.025	1095.32
418.233	1160.86
418.441	1218.2
418.649	1128.09
418.857	1179.29
419.065	1351.32
419.273	1205.91
419.481	1289.88
419.689	1599.12
419.897	1570.45
420.105	1572.5
420.313	1533.59
420.521	1588.88
420.729	1617.55
420.937	1681.04
421.145	1754.77
421.353	1861.26
421.561	1914.51
421.769	1867.41
421.977	1947.28
422.185	2104.97
422.393	2084.49
422.601	2277
422.809	2252.42
423.017	2254.47
423.224	2387.59
423.432	2594.44
423.64	2625.15
423.848	2762.37
424.056	2705.03
424.263	2993.79
424.471	2897.53
424.679	2958.97
424.887	3083.9
425.094	3137.15
425.302	3149.43
425.51	3374.71
425.718	3438.2
425.925	3468.92
426.133	3561.08
426.341	3720.82
426.548	4068.97
426.756	3911.28
426.964	3974.77
427.171	4148.84
427.379	4314.73
427.586	4423.27
427.794	4544.1
428.001	4742.75
428.209	5076.57
428.417	4937.31
428.624	5353.05
428.832	5119.58
429.039	5187.16
429.247	5146.2
429.454	5832.27
429.662	6121.04
429.869	5660.24
430.076	6184.52
430.284	6039.12
430.491	6311.5
430.699	6499.91
430.906	6606.41
431.114	6630.98
431.321	7095.87
431.528	7073.34
431.736	7534.14
431.943	7773.75
432.15	7611.96
432.358	7663.16
432.565	8220.21
432.772	7972.4
432.979	8506.92
433.187	8605.22
433.394	8640.04
433.601	9303.58
433.808	9115.17
434.016	9330.2
434.223	9877.01
434.43	10087.95
434.637	10051.09
434.844	10653.19
435.052	10780.17
435.259	10767.88
435.466	11058.69
435.673	10718.73
435.88	11474.43
436.087	11957.75
436.294	12045.81
436.501	11656.7
436.708	12088.82
436.915	12453.36
437.122	13137.38
437.329	12860.9
437.537	13606.36
437.743	13551.07
437.95	13735.39
438.157	14243.28
438.364	14781.9
438.571	14441.93
438.778	14855.62
438.985	16172.47
439.192	15525.31
439.399	16037.3
439.606	15787.45
439.813	16645.55
440.02	17687.96
440.227	17511.84
440.433	17159.59
440.64	17618.33
440.847	17546.65
441.054	18197.91
441.261	19068.3
441.467	18726.28
441.674	19443.07
441.881	19697.02
442.088	20043.13
442.294	19930.49
442.501	20579.7
442.708	20874.6
442.914	21884.25
443.121	22689.1
443.328	22039.9
443.534	23514.44
443.741	22670.67
443.948	22809.93
444.154	24501.56
444.361	24075.58
444.568	24487.22
444.774	24249.66
444.981	24399.16
445.187	25603.36
445.394	26570.01
445.6	26131.74
445.807	28511.48
446.013	27151.63
446.22	27835.65
446.426	29127.92
446.633	29228.27
446.839	30289.12
447.046	29220.08
447.252	30401.75
447.459	30823.64
447.665	30661.85
447.871	32124.1
448.078	33668.26
448.284	31509.71
448.491	32691.38
448.697	34053.28
448.903	34524.32
449.11	34692.25
449.316	33778.86
449.522	34856.09
449.728	35589.26
449.935	35839.11
450.141	35990.66
450.347	36641.92
450.553	35908.74
450.76	36117.64
450.966	37891.18
451.172	36719.74
451.378	37977.19
451.584	36936.82
451.791	37731.43
451.997	38005.86
452.203	38417.5
452.409	38900.83
452.615	38804.57
452.821	37205.11
453.027	36856.95
453.233	38675.55
453.44	37440.62
453.646	37715.05
453.852	37870.7
454.058	38290.53
454.264	37289.07
454.47	37831.79
454.676	37082.23
454.882	38288.48
455.088	35048.6
455.294	35738.76
455.5	36322.43
455.705	36705.4
455.911	34935.96
456.117	34448.54
456.323	33787.05
456.529	32031.94
456.735	33828.01
456.941	32658.62
457.147	32404.67
457.352	31235.28
457.558	30876.88
457.764	31053.01
457.97	30391.51
458.176	29867.23
458.381	30047.46
458.587	28183.8
458.793	28505.34
458.999	26995.98
459.204	28876.02
459.41	28187.9
459.616	26195.23
459.821	26430.74
460.027	25939.23
460.233	25580.84
460.438	24386.87
460.644	24511.8
460.85	23430.47
461.055	23225.67
461.261	23186.76
461.466	21210.47
461.672	20692.33
461.878	22371.67
462.083	20716.91
462.289	20331.89
462.494	19914.11
462.7	19301.76
462.905	18773.39
463.111	19312
463.316	19641.73
463.522	19246.47
463.727	19377.54
463.932	19008.9
464.138	19137.93
464.343	18896.27
464.549	18267.54
464.754	19027.34
464.959	18828.68
465.165	18742.67
465.37	17968.54
465.575	17503.65
465.781	17980.82
465.986	18236.82
466.191	17436.06
466.397	17198.5
466.602	16149.94
466.807	17145.25
467.012	17118.63
