Data from USB4F104151__88__12-13-03-900.txt Node

Date: Fri Mar 14 12:13:03 EDT 2025
User: louis
Spectrometer: USB4F10415
Trigger mode: 4
Integration Time (sec): 5.000000E-2
Scans to average: 1
Electric dark correction enabled: true
Nonlinearity correction enabled: false
Boxcar width: 0
XAxis mode: Wavelengths
Number of Pixels in Spectrum: 3648
>>>>>Begin Spectral Data<<<<<
178.204	-178.86
178.424	-178.86
178.644	-178.86
178.864	-187.05
179.084	-193.19
179.304	-12.97
179.524	-53.93
179.744	3.41
179.964	32.08
180.184	-47.79
180.404	54.61
180.624	-29.35
180.844	15.7
181.064	-66.22
181.283	81.24
181.503	3.41
181.723	19.8
181.943	-27.31
182.163	167.25
182.383	-27.31
182.602	183.63
182.822	91.48
183.042	91.48
183.262	64.85
183.482	83.28
183.701	-55.98
183.921	-8.87
184.141	-6.83
184.361	116.05
184.58	44.37
184.8	-27.31
185.02	-35.5
185.239	142.68
185.459	46.42
185.679	42.32
185.898	17.75
186.118	152.91
186.338	79.19
186.557	116.05
186.777	15.7
186.997	21.85
187.216	9.56
187.436	77.14
187.655	48.47
187.875	89.43
188.095	25.94
188.314	64.85
188.534	163.15
188.753	46.42
188.973	99.67
189.192	50.52
189.412	11.61
189.631	134.48
189.851	87.38
190.07	142.68
190.29	-43.69
190.509	23.89
190.729	9.56
190.948	42.32
191.168	167.25
191.387	58.71
191.607	11.61
191.826	54.61
192.045	13.65
192.265	48.47
192.484	42.32
192.704	60.76
192.923	-10.92
193.142	114
193.362	44.37
193.581	83.28
193.8	19.8
194.02	91.48
194.239	52.56
194.458	142.68
194.678	36.18
194.897	54.61
195.116	75.09
195.335	23.89
195.555	60.76
195.774	34.13
195.993	27.99
196.212	85.33
196.432	9.56
196.651	34.13
196.87	-10.92
197.089	161.11
197.308	77.14
197.528	15.7
197.747	25.94
197.966	75.09
198.185	48.47
198.404	13.65
198.623	52.56
198.842	50.52
199.062	120.15
199.281	75.09
199.5	5.46
199.719	46.42
199.938	7.51
200.157	71
200.376	99.67
200.595	83.28
200.814	77.14
201.033	-51.88
201.252	120.15
201.471	11.61
201.69	58.71
201.909	99.67
202.128	85.33
202.347	64.85
202.566	13.65
202.785	-29.35
203.004	27.99
203.223	171.35
203.442	32.08
203.661	66.9
203.879	-0.68
204.098	81.24
204.317	40.28
204.536	116.05
204.755	-4.78
204.974	-4.78
205.193	109.91
205.411	159.06
205.63	44.37
205.849	146.77
206.068	56.66
206.287	27.99
206.505	107.86
206.724	-17.07
206.943	-21.16
207.162	-25.26
207.381	48.47
207.599	3.41
207.818	71
208.037	52.56
208.255	-35.5
208.474	64.85
208.693	21.85
208.911	60.76
209.13	87.38
209.349	64.85
209.567	-6.83
209.786	52.56
210.005	58.71
210.223	-0.68
210.442	-29.35
210.661	73.04
210.879	111.96
211.098	9.56
211.316	66.9
211.535	97.62
211.753	38.23
211.972	50.52
212.191	30.04
212.409	79.19
212.628	99.67
212.846	64.85
213.065	91.48
213.283	105.81
213.502	25.94
213.72	91.48
213.938	56.66
214.157	93.52
214.375	83.28
214.594	25.94
214.812	46.42
215.031	1.37
215.249	7.51
215.467	23.89
215.686	75.09
215.904	136.53
216.122	-25.26
216.341	52.56
216.559	66.9
216.778	64.85
216.996	44.37
217.214	48.47
217.432	46.42
217.651	-10.92
217.869	23.89
218.087	58.71
218.306	11.61
218.524	89.43
218.742	73.04
218.96	71
219.179	54.61
219.397	138.58
219.615	187.73
219.833	-0.68
220.051	27.99
220.27	48.47
220.488	93.52
220.706	34.13
220.924	19.8
221.142	56.66
221.36	89.43
221.578	17.75
221.796	85.33
222.015	30.04
222.233	-29.35
222.451	38.23
222.669	46.42
222.887	85.33
223.105	34.13
223.323	42.32
223.541	-41.64
223.759	-27.31
223.977	7.51
224.195	140.63
224.413	66.9
224.631	114
224.849	89.43
225.067	111.96
225.285	5.46
225.503	21.85
225.721	13.65
225.939	40.28
226.157	5.46
226.375	124.24
226.592	-8.87
226.81	32.08
227.028	134.48
227.246	167.25
227.464	50.52
227.682	101.72
227.9	62.8
228.117	114
228.335	13.65
228.553	42.32
228.771	64.85
228.989	38.23
229.206	68.95
229.424	40.28
229.642	25.94
229.86	27.99
230.077	77.14
230.295	79.19
230.513	50.52
230.731	-37.55
230.948	11.61
231.166	148.82
231.384	-19.11
231.601	11.61
231.819	89.43
232.037	-8.87
232.254	48.47
232.472	38.23
232.689	54.61
232.907	89.43
233.125	54.61
233.342	56.66
233.56	11.61
233.777	5.46
233.995	36.18
234.213	44.37
234.43	42.32
234.648	36.18
234.865	38.23
235.083	-33.45
235.3	128.34
235.518	52.56
235.735	56.66
235.953	150.87
236.17	46.42
236.388	52.56
236.605	71
236.822	93.52
237.04	75.09
237.257	103.76
237.475	23.89
237.692	85.33
237.909	21.85
238.127	-0.68
238.344	81.24
238.562	62.8
238.779	-19.11
238.996	-21.16
239.214	87.38
239.431	85.33
239.648	50.52
239.865	56.66
240.083	95.57
240.3	38.23
240.517	7.51
240.735	9.56
240.952	5.46
241.169	89.43
241.386	5.46
241.603	-27.31
241.821	7.51
242.038	44.37
242.255	-33.45
242.472	30.04
242.689	140.63
242.907	97.62
243.124	-6.83
243.341	73.04
243.558	46.42
243.775	44.37
243.992	40.28
244.209	30.04
244.426	124.24
244.643	91.48
244.86	34.13
245.078	99.67
245.295	34.13
245.512	48.47
245.729	42.32
245.946	71
246.163	56.66
246.38	54.61
246.597	23.89
246.814	87.38
247.031	25.94
247.248	32.08
247.464	85.33
247.681	-78.51
247.898	48.47
248.115	79.19
248.332	25.94
248.549	171.35
248.766	120.15
248.983	109.91
249.2	52.56
249.417	99.67
249.633	64.85
249.85	150.87
250.067	56.66
250.284	120.15
250.501	17.75
250.717	54.61
250.934	-27.31
251.151	5.46
251.368	-17.07
251.585	36.18
251.801	27.99
252.018	-12.97
252.235	105.81
252.451	-23.21
252.668	60.76
252.885	64.85
253.102	-78.51
253.318	79.19
253.535	71
253.752	-4.78
253.968	50.52
254.185	-4.78
254.401	30.04
254.618	91.48
254.835	48.47
255.051	122.2
255.268	38.23
255.484	9.56
255.701	9.56
255.917	97.62
256.134	-2.73
256.351	54.61
256.567	-29.35
256.784	118.1
257	-43.69
257.217	75.09
257.433	101.72
257.65	1.37
257.866	77.14
258.082	-43.69
258.299	-53.93
258.515	25.94
258.732	32.08
258.948	9.56
259.165	54.61
259.381	-21.16
259.597	87.38
259.814	19.8
260.03	25.94
260.246	75.09
260.463	81.24
260.679	91.48
260.895	54.61
261.112	93.52
261.328	38.23
261.544	36.18
261.761	60.76
261.977	25.94
262.193	-15.02
262.409	52.56
262.626	85.33
262.842	36.18
263.058	-2.73
263.274	71
263.49	64.85
263.707	167.25
263.923	60.76
264.139	-43.69
264.355	114
264.571	128.34
264.787	148.82
265.004	91.48
265.22	23.89
265.436	77.14
265.652	19.8
265.868	36.18
266.084	-70.31
266.3	99.67
266.516	21.85
266.732	64.85
266.948	52.56
267.164	48.47
267.38	11.61
267.596	64.85
267.812	169.3
268.028	101.72
268.244	66.9
268.46	32.08
268.676	13.65
268.892	154.96
269.108	1.37
269.324	27.99
269.54	-35.5
269.756	107.86
269.972	-72.36
270.188	5.46
270.403	21.85
270.619	46.42
270.835	77.14
271.051	58.71
271.267	3.41
271.483	62.8
271.698	97.62
271.914	-2.73
272.13	85.33
272.346	77.14
272.562	38.23
272.777	134.48
272.993	21.85
273.209	130.39
273.425	52.56
273.64	5.46
273.856	50.52
274.072	11.61
274.287	-41.64
274.503	13.65
274.719	136.53
274.934	68.95
275.15	-8.87
275.366	103.76
275.581	79.19
275.797	71
276.012	81.24
276.228	-23.21
276.444	58.71
276.659	120.15
276.875	5.46
277.09	17.75
277.306	11.61
277.521	62.8
277.737	5.46
277.952	52.56
278.168	36.18
278.383	-62.12
278.599	54.61
278.814	101.72
279.03	71
279.245	62.8
279.461	120.15
279.676	46.42
279.892	-68.27
280.107	27.99
280.322	42.32
280.538	93.52
280.753	44.37
280.969	50.52
281.184	30.04
281.399	79.19
281.615	25.94
281.83	77.14
282.045	-10.92
282.26	9.56
282.476	58.71
282.691	68.95
282.906	87.38
283.122	25.94
283.337	58.71
283.552	48.47
283.767	7.51
283.983	9.56
284.198	42.32
284.413	21.85
284.628	9.56
284.843	62.8
285.058	99.67
285.274	21.85
285.489	42.32
285.704	58.71
285.919	-10.92
286.134	34.13
286.349	-43.69
286.564	50.52
286.779	130.39
286.995	-49.83
287.21	75.09
287.425	66.9
287.64	48.47
287.855	87.38
288.07	3.41
288.285	58.71
288.5	83.28
288.715	128.34
288.93	27.99
289.145	-39.59
289.36	109.91
289.575	75.09
289.79	93.52
290.004	109.91
290.219	97.62
290.434	13.65
290.649	75.09
290.864	42.32
291.079	21.85
291.294	44.37
291.509	-25.26
291.724	-4.78
291.938	3.41
292.153	64.85
292.368	-41.64
292.583	101.72
292.798	89.43
293.012	13.65
293.227	157.01
293.442	19.8
293.657	-45.74
293.871	97.62
294.086	138.58
294.301	146.77
294.516	146.77
294.73	40.28
294.945	30.04
295.16	-21.16
295.374	89.43
295.589	56.66
295.804	-78.51
296.018	144.72
296.233	114
296.447	21.85
296.662	-74.41
296.877	120.15
297.091	101.72
297.306	30.04
297.52	75.09
297.735	109.91
297.949	52.56
298.164	95.57
298.378	114
298.593	-25.26
298.807	-8.87
299.022	68.95
299.236	40.28
299.451	50.52
299.665	79.19
299.88	-17.07
300.094	60.76
300.309	23.89
300.523	95.57
300.737	118.1
300.952	140.63
301.166	114
301.381	46.42
301.595	30.04
301.809	56.66
302.024	95.57
302.238	15.7
302.452	-27.31
302.667	40.28
302.881	95.57
303.095	136.53
303.309	101.72
303.524	32.08
303.738	105.81
303.952	52.56
304.166	87.38
304.381	-41.64
304.595	130.39
304.809	1.37
305.023	25.94
305.237	-15.02
305.452	91.48
305.666	23.89
305.88	40.28
306.094	77.14
306.308	83.28
306.522	11.61
306.736	-23.21
306.95	103.76
307.164	85.33
307.379	60.76
307.593	50.52
307.807	68.95
308.021	128.34
308.235	111.96
308.449	-33.45
308.663	105.81
308.877	169.3
309.091	9.56
309.305	32.08
309.519	-82.6
309.733	77.14
309.947	-19.11
310.161	111.96
310.374	83.28
310.588	-2.73
310.802	38.23
311.016	40.28
311.23	75.09
311.444	-17.07
311.658	60.76
311.872	136.53
312.085	62.8
312.299	171.35
312.513	130.39
312.727	52.56
312.941	27.99
313.154	64.85
313.368	73.04
313.582	13.65
313.796	87.38
314.009	105.81
314.223	68.95
314.437	34.13
314.651	50.52
314.864	44.37
315.078	40.28
315.292	77.14
315.505	71
315.719	40.28
315.933	56.66
316.146	30.04
316.36	7.51
316.573	130.39
316.787	126.29
317.001	13.65
317.214	-8.87
317.428	-23.21
317.641	54.61
317.855	34.13
318.068	89.43
318.282	66.9
318.495	157.01
318.709	114
318.922	62.8
319.136	152.91
319.349	126.29
319.563	-33.45
319.776	52.56
319.99	11.61
320.203	32.08
320.417	62.8
320.63	107.86
320.843	105.81
321.057	99.67
321.27	54.61
321.483	93.52
321.697	95.57
321.91	27.99
322.124	81.24
322.337	19.8
322.55	-15.02
322.763	71
322.977	25.94
323.19	73.04
323.403	3.41
323.617	34.13
323.83	159.06
324.043	-51.88
324.256	-2.73
324.469	81.24
324.683	111.96
324.896	81.24
325.109	75.09
325.322	-74.41
325.535	62.8
325.748	103.76
325.962	9.56
326.175	105.81
326.388	91.48
326.601	111.96
326.814	17.75
327.027	32.08
327.24	191.83
327.453	19.8
327.666	103.76
327.879	175.44
328.092	40.28
328.305	71
328.518	-2.73
328.731	38.23
328.944	38.23
329.157	99.67
329.37	7.51
329.583	177.49
329.796	109.91
330.009	-58.03
330.222	126.29
330.435	120.15
330.648	46.42
330.861	-17.07
331.073	42.32
331.286	157.01
331.499	81.24
331.712	103.76
331.925	15.7
332.138	21.85
332.35	103.76
332.563	42.32
332.776	130.39
332.989	34.13
333.202	44.37
333.414	99.67
333.627	71
333.84	-27.31
334.053	167.25
334.265	17.75
334.478	52.56
334.691	50.52
334.903	75.09
335.116	46.42
335.329	-21.16
335.541	91.48
335.754	50.52
335.966	68.95
336.179	-0.68
336.392	54.61
336.604	54.61
336.817	62.8
337.029	50.52
337.242	68.95
337.454	134.48
337.667	64.85
337.88	32.08
338.092	62.8
338.305	-0.68
338.517	50.52
338.729	50.52
338.942	91.48
339.154	-37.55
339.367	44.37
339.579	95.57
339.792	11.61
340.004	40.28
340.217	-8.87
340.429	60.76
340.641	40.28
340.854	77.14
341.066	50.52
341.278	103.76
341.491	154.96
341.703	132.44
341.915	7.51
342.128	87.38
342.34	103.76
342.552	-4.78
342.764	83.28
342.977	105.81
343.189	79.19
343.401	71
343.613	-37.55
343.826	50.52
344.038	-86.7
344.25	54.61
344.462	97.62
344.674	60.76
344.886	-29.35
345.099	161.11
345.311	68.95
345.523	-60.07
345.735	-8.87
345.947	105.81
346.159	85.33
346.371	109.91
346.583	79.19
346.795	142.68
347.007	75.09
347.219	60.76
347.431	-17.07
347.643	99.67
347.855	50.52
348.067	105.81
348.279	46.42
348.491	9.56
348.703	81.24
348.915	-12.97
349.127	34.13
349.339	46.42
349.551	42.32
349.763	126.29
349.975	-19.11
350.187	124.24
350.399	154.96
350.61	9.56
350.822	46.42
351.034	38.23
351.246	50.52
351.458	109.91
351.669	95.57
351.881	75.09
352.093	83.28
352.305	48.47
352.517	60.76
352.728	101.72
352.94	42.32
353.152	52.56
353.363	19.8
353.575	120.15
353.787	116.05
353.999	107.86
354.21	144.72
354.422	21.85
354.633	44.37
354.845	60.76
355.057	103.76
355.268	9.56
355.48	163.15
355.692	7.51
355.903	73.04
356.115	19.8
356.326	-19.11
356.538	93.52
356.749	52.56
356.961	17.75
357.172	19.8
357.384	-37.55
357.595	138.58
357.807	99.67
358.018	13.65
358.23	40.28
358.441	163.15
358.653	52.56
358.864	48.47
359.075	116.05
359.287	87.38
359.498	95.57
359.709	71
359.921	15.7
360.132	-17.07
360.344	75.09
360.555	-78.51
360.766	62.8
360.977	-23.21
361.189	130.39
361.4	-39.59
361.611	89.43
361.823	142.68
362.034	30.04
362.245	-53.93
362.456	52.56
362.667	73.04
362.879	52.56
363.09	103.76
363.301	91.48
363.512	118.1
363.723	21.85
363.935	15.7
364.146	134.48
364.357	15.7
364.568	62.8
364.779	52.56
364.99	177.49
365.201	27.99
365.412	17.75
365.623	32.08
365.834	124.24
366.045	62.8
366.256	95.57
366.467	15.7
366.678	66.9
366.889	40.28
367.1	128.34
367.311	126.29
367.522	30.04
367.733	-12.97
367.944	114
368.155	44.37
368.366	130.39
368.577	136.53
368.788	118.1
368.999	21.85
369.209	42.32
369.42	99.67
369.631	216.4
369.842	34.13
370.053	23.89
370.264	81.24
370.474	27.99
370.685	-27.31
370.896	36.18
371.107	87.38
371.317	75.09
371.528	56.66
371.739	128.34
371.95	11.61
372.16	46.42
372.371	62.8
372.582	50.52
372.792	103.76
373.003	25.94
373.214	66.9
373.424	101.72
373.635	44.37
373.846	87.38
374.056	60.76
374.267	60.76
374.477	138.58
374.688	54.61
374.898	85.33
375.109	30.04
375.319	79.19
375.53	148.82
375.74	134.48
375.951	44.37
376.161	77.14
376.372	154.96
376.582	42.32
376.793	83.28
377.003	60.76
377.214	85.33
377.424	71
377.635	167.25
377.845	7.51
378.055	93.52
378.266	124.24
378.476	19.8
378.686	161.11
378.897	50.52
379.107	46.42
379.317	118.1
379.528	46.42
379.738	103.76
379.948	21.85
380.158	103.76
380.369	23.89
380.579	36.18
380.789	27.99
380.999	60.76
381.21	91.48
381.42	93.52
381.63	-55.98
381.84	64.85
382.05	91.48
382.261	116.05
382.471	134.48
382.681	36.18
382.891	83.28
383.101	60.76
383.311	30.04
383.521	11.61
383.731	66.9
383.941	101.72
384.151	87.38
384.361	68.95
384.571	87.38
384.781	107.86
384.991	183.63
385.201	177.49
385.411	161.11
385.621	3.41
385.831	58.71
386.041	42.32
386.251	56.66
386.461	91.48
386.671	66.9
386.881	124.24
387.091	17.75
387.301	71
387.511	116.05
387.72	118.1
387.93	97.62
388.14	-4.78
388.35	109.91
388.56	114
388.769	142.68
388.979	19.8
389.189	42.32
389.399	71
389.609	134.48
389.818	50.52
390.028	122.2
390.238	101.72
390.447	56.66
390.657	105.81
390.867	111.96
391.076	44.37
391.286	85.33
391.496	1.37
391.705	109.91
391.915	126.29
392.125	46.42
392.334	75.09
392.544	120.15
392.753	19.8
392.963	27.99
393.172	148.82
393.382	40.28
393.591	101.72
393.801	107.86
394.01	208.21
394.22	83.28
394.429	107.86
394.639	93.52
394.848	32.08
395.058	89.43
395.267	73.04
395.477	95.57
395.686	171.35
395.895	130.39
396.105	144.72
396.314	111.96
396.524	171.35
396.733	134.48
396.942	77.14
397.152	187.73
397.361	62.8
397.57	152.91
397.78	81.24
397.989	140.63
398.198	195.92
398.407	140.63
398.617	38.23
398.826	52.56
399.035	60.76
399.244	234.83
399.453	154.96
399.663	111.96
399.872	99.67
400.081	85.33
400.29	103.76
400.499	124.24
400.708	152.91
400.917	44.37
401.127	91.48
401.336	122.2
401.545	167.25
401.754	140.63
401.963	169.3
402.172	132.44
402.381	81.24
402.59	91.48
402.799	85.33
403.008	85.33
403.217	191.83
403.426	152.91
403.635	91.48
403.844	116.05
404.053	77.14
404.262	91.48
404.471	183.63
404.68	277.84
404.888	134.48
405.097	206.16
405.306	167.25
405.515	202.07
405.724	128.34
405.933	218.45
406.142	189.78
406.35	230.74
406.559	148.82
406.768	218.45
406.977	202.07
407.185	257.36
407.394	208.21
407.603	118.1
407.812	283.99
408.02	310.61
408.229	210.26
408.438	118.1
408.646	179.54
408.855	224.59
409.064	236.88
409.272	261.46
409.481	363.86
409.69	261.46
409.898	290.13
410.107	304.46
410.315	271.7
410.524	296.27
410.733	376.14
410.941	308.56
411.15	410.96
411.358	302.42
411.567	431.44
411.775	345.42
411.984	388.43
412.192	386.38
412.401	417.1
412.609	517.45
412.818	529.74
413.026	511.31
413.234	443.73
413.443	474.45
413.651	478.54
413.86	562.51
414.068	646.48
414.276	507.21
414.485	572.75
414.693	664.91
414.901	699.72
415.11	599.37
415.318	664.91
415.526	677.19
415.734	634.19
415.943	650.57
416.151	908.62
416.359	769.35
416.567	742.73
416.776	898.38
416.984	884.04
417.192	955.72
417.4	888.14
417.608	853.32
417.817	877.9
418.025	1006.92
418.233	1215.81
418.441	1013.06
418.649	1080.64
418.857	1189.19
419.065	1250.63
419.273	1181
419.481	1275.2
419.689	1230.15
419.897	1387.84
420.105	1414.46
420.313	1482.05
420.521	1441.09
420.729	1553.73
420.937	1553.73
421.145	1553.73
421.353	1707.32
421.561	1758.52
421.769	1717.56
421.977	1951.03
422.185	1840.44
422.393	1983.8
422.601	2266.42
422.809	2049.33
423.017	2213.17
423.224	2198.84
423.432	2311.47
423.64	2245.94
423.848	2581.81
424.056	2401.58
424.263	2618.67
424.471	2719.02
424.679	2719.02
424.887	2827.56
425.094	2850.09
425.302	2987.3
425.51	3145
425.718	3110.18
425.925	3128.61
426.133	3167.53
426.341	3517.73
426.548	3685.66
426.756	3667.23
426.964	3761.44
427.171	3753.24
427.379	4025.62
427.586	4015.38
427.794	4193.56
428.001	4406.55
428.209	4521.23
428.417	4418.83
428.624	4726.03
428.832	4771.08
429.039	4766.99
429.247	4723.98
429.454	5227.78
429.662	5485.83
429.869	5184.77
430.076	5430.53
430.284	5530.88
430.491	5620.99
430.699	6024.44
430.906	5977.34
431.114	6087.93
431.321	6104.31
431.528	6407.41
431.736	6829.29
431.943	7085.29
432.15	6968.56
432.358	6843.63
432.565	7363.81
432.772	7369.96
432.979	7582.95
433.187	7705.82
433.394	7881.95
433.601	8240.34
433.808	8209.62
434.016	8439
434.223	8641.75
434.43	9270.47
434.637	9159.88
434.844	9514.18
435.052	9800.9
435.259	9718.98
435.466	9772.22
435.673	9921.73
435.88	10319.03
436.087	10798.26
436.294	11007.15
436.501	10540.21
436.708	10810.54
436.915	11314.34
437.122	11646.12
437.329	11472.04
437.537	12156.06
437.743	12569.75
437.95	12301.47
438.157	12805.27
438.364	13184.14
438.571	13178
438.778	13417.61
438.985	14429.31
439.192	13954.18
439.399	14386.3
439.606	14083.2
439.813	14765.17
440.02	15787.11
440.227	15653.99
440.433	15328.36
440.64	15860.84
440.847	15580.26
441.054	16168.03
441.261	17192.01
441.467	16807
441.674	17511.5
441.881	18293.82
442.088	18052.16
442.294	17892.42
442.501	18232.38
442.708	18818.1
442.914	19317.81
443.121	20089.89
443.328	19790.89
443.534	21218.32
443.741	20231.2
443.948	20296.74
444.154	21718.03
444.361	21505.04
444.568	21695.5
444.774	21920.77
444.981	21836.81
445.187	22539.26
445.394	23251.95
445.6	23327.73
445.807	25422.8
446.013	24370.15
446.22	24663
446.426	26024.9
446.633	25947.08
446.839	26880.96
447.046	25578.45
447.252	26823.61
447.459	27100.09
447.665	26747.84
447.871	28410.79
448.078	29670.29
448.284	28042.15
448.491	29166.49
448.697	29639.57
448.903	30395.27
449.11	30540.68
449.316	29985.68
449.522	30569.35
449.728	31671.15
449.935	31472.5
450.141	31789.94
450.347	32269.16
450.553	31218.55
450.76	31558.52
450.966	32713.57
451.172	32635.75
451.378	33278.81
451.584	32594.79
451.791	33188.7
451.997	33241.95
452.203	33626.96
452.409	34155.34
452.615	33540.95
452.821	32764.77
453.027	32074.6
453.233	33854.29
453.44	32594.79
453.646	32666.47
453.852	32938.85
454.058	33700.69
454.264	32592.74
454.47	32940.89
454.676	32250.73
454.882	33426.26
455.088	30780.29
455.294	31036.28
455.5	31314.81
455.705	31775.6
455.911	30585.73
456.117	29619.09
456.323	29240.22
456.529	27909.04
456.735	29025.18
456.941	28406.69
457.147	27743.15
457.352	26741.69
457.558	26704.83
457.764	26993.59
457.97	26041.29
458.176	25578.45
458.381	25697.23
458.587	24523.74
458.793	24581.09
458.999	23266.29
459.204	25050.07
459.41	24185.83
459.616	22660.09
459.821	22653.95
460.027	22352.9
460.233	21830.66
460.438	20872.21
460.644	21382.16
460.85	20374.56
461.055	19815.46
461.261	19881
461.466	18349.12
461.672	17777.73
461.878	18908.21
462.083	18017.35
462.289	17421.39
462.494	17071.18
462.7	16645.21
462.905	15969.38
463.111	16680.02
463.316	16745.56
463.522	16235.61
463.727	16415.83
463.932	16303.2
464.138	16151.65
464.343	16252
464.549	15729.77
464.754	16383.07
464.959	16407.64
465.165	16198.75
465.37	15469.67
465.575	14865.52
465.781	15680.61
465.986	15635.56
466.191	14990.45
466.397	14822.52
466.602	14294.14
466.807	14716.02
