Data from USB4F104151__9__12-11-16-802.txt Node

Date: Fri Mar 14 12:11:16 EDT 2025
User: louis
Spectrometer: USB4F10415
Trigger mode: 4
Integration Time (sec): 5.000000E-2
Scans to average: 1
Electric dark correction enabled: true
Nonlinearity correction enabled: false
Boxcar width: 0
XAxis mode: Wavelengths
Number of Pixels in Spectrum: 3648
>>>>>Begin Spectral Data<<<<<
178.204	-256.34
178.424	-256.34
178.644	-256.34
178.864	-227.67
179.084	-235.86
179.304	-2.39
179.524	-0.34
179.744	-16.73
179.964	34.47
180.184	54.95
180.404	67.24
180.624	-29.01
180.844	5.8
181.064	-94.55
181.283	-37.2
181.503	-24.92
181.723	42.67
181.943	-88.4
182.163	130.73
182.383	18.09
182.602	79.53
182.822	16.04
183.042	36.52
183.262	1.71
183.482	3.75
183.701	1.71
183.921	89.77
184.141	-12.63
184.361	18.09
184.58	42.67
184.8	112.3
185.02	-102.74
185.239	79.53
185.459	93.87
185.679	87.72
185.898	-45.4
186.118	36.52
186.338	22.19
186.557	48.81
186.777	-57.68
186.997	-39.25
187.216	52.91
187.436	59.05
187.655	32.43
187.875	-18.77
188.095	63.15
188.314	93.87
188.534	155.3
188.753	-6.49
188.973	85.67
189.192	102.06
189.412	77.48
189.631	67.24
189.851	40.62
190.07	114.34
190.29	-57.68
190.509	-82.26
190.729	24.23
190.948	93.87
191.168	294.57
191.387	110.25
191.607	-29.01
191.826	36.52
192.045	52.91
192.265	22.19
192.484	36.52
192.704	97.96
192.923	-53.59
193.142	126.63
193.362	-12.63
193.581	100.01
193.8	26.28
194.02	93.87
194.239	26.28
194.458	9.9
194.678	16.04
194.897	26.28
195.116	-33.11
195.335	18.09
195.555	50.86
195.774	-2.39
195.993	95.91
196.212	5.8
196.432	16.04
196.651	-6.49
196.87	40.62
197.089	145.06
197.308	102.06
197.528	-10.58
197.747	-0.34
197.966	67.24
198.185	63.15
198.404	5.8
198.623	11.95
198.842	77.48
199.062	91.82
199.281	46.76
199.5	48.81
199.719	26.28
199.938	7.85
200.157	52.91
200.376	97.96
200.595	63.15
200.814	57
201.033	3.75
201.252	132.78
201.471	38.57
201.69	102.06
201.909	40.62
202.128	54.95
202.347	24.23
202.566	44.71
202.785	16.04
203.004	-8.53
203.223	147.11
203.442	28.33
203.661	20.14
203.879	54.95
204.098	89.77
204.317	-80.21
204.536	130.73
204.755	81.58
204.974	52.91
205.193	3.75
205.411	93.87
205.63	57
205.849	97.96
206.068	42.67
206.287	-41.3
206.505	153.26
206.724	36.52
206.943	3.75
207.162	-12.63
207.381	-6.49
207.599	-2.39
207.818	5.8
208.037	24.23
208.255	-24.92
208.474	26.28
208.693	57
208.911	-16.73
209.13	50.86
209.349	143.02
209.567	44.71
209.786	48.81
210.005	81.58
210.223	-8.53
210.442	-26.96
210.661	52.91
210.879	157.35
211.098	-29.01
211.316	54.95
211.535	67.24
211.753	16.04
211.972	54.95
212.191	-33.11
212.409	16.04
212.628	54.95
212.846	22.19
213.065	1.71
213.283	65.19
213.502	22.19
213.72	-8.53
213.938	81.58
214.157	-0.34
214.375	52.91
214.594	-39.25
214.812	-2.39
215.031	34.47
215.249	38.57
215.467	22.19
215.686	79.53
215.904	75.43
216.122	9.9
216.341	67.24
216.559	-6.49
216.778	100.01
216.996	83.63
217.214	20.14
217.432	71.34
217.651	-37.2
217.869	-2.39
218.087	67.24
218.306	-4.44
218.524	65.19
218.742	13.99
218.96	102.06
219.179	73.39
219.397	-10.58
219.615	81.58
219.833	57
220.051	32.43
220.27	147.11
220.488	89.77
220.706	71.34
220.924	44.71
221.142	-4.44
221.36	28.33
221.578	26.28
221.796	40.62
222.015	65.19
222.233	9.9
222.451	38.57
222.669	30.38
222.887	106.15
223.105	-16.73
223.323	54.95
223.541	-35.16
223.759	116.39
223.977	20.14
224.195	140.97
224.413	44.71
224.631	42.67
224.849	16.04
225.067	251.56
225.285	5.8
225.503	63.15
225.721	-16.73
225.939	-45.4
226.157	38.57
226.375	140.97
226.592	40.62
226.81	110.25
227.028	85.67
227.246	46.76
227.464	61.1
227.682	16.04
227.9	-14.68
228.117	46.76
228.335	38.57
228.553	54.95
228.771	-12.63
228.989	26.28
229.206	87.72
229.424	7.85
229.642	-35.16
229.86	-35.16
230.077	63.15
230.295	22.19
230.513	5.8
230.731	-22.87
230.948	108.2
231.166	95.91
231.384	20.14
231.601	-59.73
231.819	34.47
232.037	-14.68
232.254	-10.58
232.472	-16.73
232.689	11.95
232.907	28.33
233.125	-24.92
233.342	-4.44
233.56	-10.58
233.777	5.8
233.995	-33.11
234.213	54.95
234.43	63.15
234.648	26.28
234.865	59.05
235.083	65.19
235.3	40.62
235.518	57
235.735	79.53
235.953	116.39
236.17	-12.63
236.388	-2.39
236.605	7.85
236.822	83.63
237.04	48.81
237.257	177.83
237.475	20.14
237.692	50.86
237.909	81.58
238.127	89.77
238.344	36.52
238.562	75.43
238.779	-10.58
238.996	-10.58
239.214	32.43
239.431	69.29
239.648	32.43
239.865	5.8
240.083	89.77
240.3	22.19
240.517	42.67
240.735	48.81
240.952	114.34
241.169	44.71
241.386	50.86
241.603	-22.87
241.821	-0.34
242.038	48.81
242.255	77.48
242.472	1.71
242.689	138.92
242.907	-22.87
243.124	40.62
243.341	-12.63
243.558	1.71
243.775	-0.34
243.992	-20.82
244.209	-8.53
244.426	171.69
244.643	-0.34
244.86	48.81
245.078	79.53
245.295	5.8
245.512	9.9
245.729	-82.26
245.946	75.43
246.163	24.23
246.38	13.99
246.597	-49.49
246.814	3.75
247.031	67.24
247.248	38.57
247.464	30.38
247.681	-18.77
247.898	46.76
248.115	34.47
248.332	65.19
248.549	69.29
248.766	-12.63
248.983	18.09
249.2	52.91
249.417	67.24
249.633	40.62
249.85	16.04
250.067	44.71
250.284	59.05
250.501	26.28
250.717	52.91
250.934	-22.87
251.151	-31.06
251.368	7.85
251.585	57
251.801	85.67
252.018	30.38
252.235	46.76
252.451	-14.68
252.668	-26.96
252.885	71.34
253.102	7.85
253.318	-63.83
253.535	61.1
253.752	-29.01
253.968	-10.58
254.185	-18.77
254.401	69.29
254.618	38.57
254.835	1.71
255.051	118.44
255.268	40.62
255.484	24.23
255.701	-10.58
255.917	57
256.134	30.38
256.351	108.2
256.567	-14.68
256.784	46.76
257	-51.54
257.217	57
257.433	30.38
257.65	85.67
257.866	54.95
258.082	22.19
258.299	-53.59
258.515	63.15
258.732	18.09
258.948	22.19
259.165	-22.87
259.381	-104.79
259.597	83.63
259.814	52.91
260.03	18.09
260.246	-0.34
260.463	57
260.679	22.19
260.895	9.9
261.112	112.3
261.328	69.29
261.544	22.19
261.761	157.35
261.977	42.67
262.193	-72.02
262.409	87.72
262.626	38.57
262.842	44.71
263.058	18.09
263.274	69.29
263.49	100.01
263.707	77.48
263.923	57
264.139	-59.73
264.355	91.82
264.571	57
264.787	13.99
265.004	102.06
265.22	16.04
265.436	112.3
265.652	-31.06
265.868	20.14
266.084	-20.82
266.3	77.48
266.516	-80.21
266.732	38.57
266.948	87.72
267.164	1.71
267.38	83.63
267.596	38.57
267.812	77.48
268.028	24.23
268.244	-0.34
268.46	57
268.676	-12.63
268.892	57
269.108	63.15
269.324	-8.53
269.54	3.75
269.756	42.67
269.972	-22.87
270.188	24.23
270.403	1.71
270.619	46.76
270.835	-2.39
271.051	7.85
271.267	20.14
271.483	-24.92
271.698	-2.39
271.914	9.9
272.13	42.67
272.346	59.05
272.562	38.57
272.777	36.52
272.993	1.71
273.209	22.19
273.425	79.53
273.64	-29.01
273.856	120.49
274.072	50.86
274.287	44.71
274.503	134.82
274.719	44.71
274.934	-57.68
275.15	-49.49
275.366	16.04
275.581	16.04
275.797	38.57
276.012	57
276.228	54.95
276.444	-12.63
276.659	143.02
276.875	5.8
277.09	-49.49
277.306	-55.64
277.521	36.52
277.737	30.38
277.952	18.09
278.168	38.57
278.383	11.95
278.599	44.71
278.814	28.33
279.03	75.43
279.245	71.34
279.461	97.96
279.676	18.09
279.892	28.33
280.107	-22.87
280.322	18.09
280.538	44.71
280.753	9.9
280.969	-26.96
281.184	40.62
281.399	63.15
281.615	30.38
281.83	36.52
282.045	-74.07
282.26	-26.96
282.476	-18.77
282.691	50.86
282.906	3.75
283.122	36.52
283.337	67.24
283.552	73.39
283.767	3.75
283.983	11.95
284.198	-6.49
284.413	54.95
284.628	-18.77
284.843	7.85
285.058	59.05
285.274	63.15
285.489	-20.82
285.704	93.87
285.919	-6.49
286.134	63.15
286.349	34.47
286.564	11.95
286.779	116.39
286.995	26.28
287.21	-14.68
287.425	9.9
287.64	5.8
287.855	65.19
288.07	-41.3
288.285	48.81
288.5	46.76
288.715	44.71
288.93	36.52
289.145	9.9
289.36	50.86
289.575	36.52
289.79	110.25
290.004	11.95
290.219	34.47
290.434	69.29
290.649	24.23
290.864	46.76
291.079	44.71
291.294	28.33
291.509	91.82
291.724	32.43
291.938	102.06
292.153	30.38
292.368	-43.35
292.583	71.34
292.798	59.05
293.012	9.9
293.227	1.71
293.442	-26.96
293.657	118.44
293.871	104.11
294.086	85.67
294.301	50.86
294.516	71.34
294.73	-20.82
294.945	-33.11
295.16	-20.82
295.374	30.38
295.589	5.8
295.804	-10.58
296.018	46.76
296.233	40.62
296.447	32.43
296.662	-41.3
296.877	65.19
297.091	104.11
297.306	26.28
297.52	-26.96
297.735	40.62
297.949	-2.39
298.164	69.29
298.378	116.39
298.593	44.71
298.807	30.38
299.022	52.91
299.236	63.15
299.451	-53.59
299.665	-16.73
299.88	-8.53
300.094	-26.96
300.309	1.71
300.523	104.11
300.737	3.75
300.952	106.15
301.166	95.91
301.381	-39.25
301.595	46.76
301.809	-24.92
302.024	-14.68
302.238	32.43
302.452	77.48
302.667	22.19
302.881	52.91
303.095	93.87
303.309	100.01
303.524	22.19
303.738	44.71
303.952	-55.64
304.166	73.39
304.381	5.8
304.595	81.58
304.809	-8.53
305.023	57
305.237	13.99
305.452	38.57
305.666	16.04
305.88	42.67
306.094	46.76
306.308	36.52
306.522	-14.68
306.736	40.62
306.95	-6.49
307.164	-33.11
307.379	95.91
307.593	79.53
307.807	93.87
308.021	75.43
308.235	77.48
308.449	-63.83
308.663	3.75
308.877	61.1
309.091	81.58
309.305	54.95
309.519	-96.6
309.733	69.29
309.947	-26.96
310.161	116.39
310.374	67.24
310.588	126.63
310.802	-22.87
311.016	1.71
311.23	-8.53
311.444	-39.25
311.658	116.39
311.872	122.54
312.085	30.38
312.299	110.25
312.513	61.1
312.727	-26.96
312.941	-10.58
313.154	28.33
313.368	1.71
313.582	34.47
313.796	7.85
314.009	-22.87
314.223	118.44
314.437	24.23
314.651	48.81
314.864	44.71
315.078	-69.97
315.292	-10.58
315.505	-29.01
315.719	28.33
315.933	48.81
316.146	34.47
316.36	63.15
316.573	102.06
316.787	1.71
317.001	50.86
317.214	-84.31
317.428	63.15
317.641	1.71
317.855	-2.39
318.068	9.9
318.282	106.15
318.495	106.15
318.709	63.15
318.922	-2.39
319.136	100.01
319.349	30.38
319.563	-14.68
319.776	48.81
319.99	1.71
320.203	110.25
320.417	71.34
320.63	69.29
320.843	116.39
321.057	24.23
321.27	-4.44
321.483	5.8
321.697	143.02
321.91	46.76
322.124	87.72
322.337	5.8
322.55	22.19
322.763	91.82
322.977	89.77
323.19	11.95
323.403	-0.34
323.617	75.43
323.83	61.1
324.043	100.01
324.256	87.72
324.469	-86.36
324.683	136.87
324.896	-24.92
325.109	26.28
325.322	-43.35
325.535	122.54
325.748	57
325.962	30.38
326.175	120.49
326.388	18.09
326.601	34.47
326.814	1.71
327.027	-35.16
327.24	118.44
327.453	-67.92
327.666	63.15
327.879	67.24
328.092	-8.53
328.305	-8.53
328.518	20.14
328.731	108.2
328.944	75.43
329.157	20.14
329.37	77.48
329.583	128.68
329.796	130.73
330.009	-55.64
330.222	81.58
330.435	-12.63
330.648	-14.68
330.861	73.39
331.073	75.43
331.286	104.11
331.499	5.8
331.712	7.85
331.925	18.09
332.138	34.47
332.35	73.39
332.563	-6.49
332.776	44.71
332.989	5.8
333.202	48.81
333.414	-55.64
333.627	-0.34
333.84	-12.63
334.053	38.57
334.265	9.9
334.478	-31.06
334.691	-51.54
334.903	-0.34
335.116	-53.59
335.329	-10.58
335.541	52.91
335.754	102.06
335.966	-22.87
336.179	63.15
336.392	1.71
336.604	22.19
336.817	7.85
337.029	104.11
337.242	44.71
337.454	16.04
337.667	1.71
337.88	134.82
338.092	-14.68
338.305	93.87
338.517	7.85
338.729	89.77
338.942	108.2
339.154	18.09
339.367	1.71
339.579	46.76
339.792	-45.4
340.004	79.53
340.217	-2.39
340.429	73.39
340.641	87.72
340.854	1.71
341.066	-45.4
341.278	40.62
341.491	114.34
341.703	32.43
341.915	1.71
342.128	79.53
342.34	48.81
342.552	28.33
342.764	-4.44
342.977	-67.92
343.189	93.87
343.401	50.86
343.613	18.09
343.826	30.38
344.038	20.14
344.25	40.62
344.462	38.57
344.674	24.23
344.886	30.38
345.099	52.91
345.311	118.44
345.523	-16.73
345.735	-2.39
345.947	36.52
346.159	44.71
346.371	3.75
346.583	100.01
346.795	48.81
347.007	52.91
347.219	22.19
347.431	26.28
347.643	104.11
347.855	61.1
348.067	46.76
348.279	-26.96
348.491	46.76
348.703	24.23
348.915	50.86
349.127	3.75
349.339	24.23
349.551	-55.64
349.763	46.76
349.975	44.71
350.187	120.49
350.399	26.28
350.61	61.1
350.822	28.33
351.034	69.29
351.246	9.9
351.458	28.33
351.669	36.52
351.881	46.76
352.093	83.63
352.305	75.43
352.517	-47.44
352.728	79.53
352.94	59.05
353.152	87.72
353.363	-29.01
353.575	112.3
353.787	124.58
353.999	71.34
354.21	108.2
354.422	-12.63
354.633	75.43
354.845	48.81
355.057	61.1
355.268	48.81
355.48	61.1
355.692	-102.74
355.903	24.23
356.115	16.04
356.326	-45.4
356.538	140.97
356.749	36.52
356.961	20.14
357.172	102.06
357.384	93.87
357.595	169.64
357.807	83.63
358.018	5.8
358.23	44.71
358.441	83.63
358.653	52.91
358.864	44.71
359.075	1.71
359.287	54.95
359.498	143.02
359.709	79.53
359.921	77.48
360.132	32.43
360.344	-4.44
360.555	16.04
360.766	48.81
360.977	-49.49
361.189	54.95
361.4	-29.01
361.611	77.48
361.823	85.67
362.034	16.04
362.245	13.99
362.456	3.75
362.667	-2.39
362.879	-18.77
363.09	59.05
363.301	75.43
363.512	57
363.723	42.67
363.935	38.57
364.146	110.25
364.357	30.38
364.568	128.68
364.779	28.33
364.99	50.86
365.201	-10.58
365.412	40.62
365.623	34.47
365.834	42.67
366.045	-0.34
366.256	65.19
366.467	28.33
366.678	1.71
366.889	-0.34
367.1	28.33
367.311	-35.16
367.522	9.9
367.733	122.54
367.944	114.34
368.155	7.85
368.366	-4.44
368.577	48.81
368.788	48.81
368.999	-18.77
369.209	67.24
369.42	63.15
369.631	140.97
369.842	108.2
370.053	67.24
370.264	26.28
370.474	83.63
370.685	85.67
370.896	7.85
371.107	138.92
371.317	145.06
371.528	-2.39
371.739	118.44
371.95	126.63
372.16	48.81
372.371	95.91
372.582	73.39
372.792	52.91
373.003	61.1
373.214	-2.39
373.424	57
373.635	5.8
373.846	81.58
374.056	61.1
374.267	71.34
374.477	71.34
374.688	-20.82
374.898	13.99
375.109	57
375.319	34.47
375.53	126.63
375.74	71.34
375.951	54.95
376.161	48.81
376.372	79.53
376.582	69.29
376.793	102.06
377.003	63.15
377.214	18.09
377.424	20.14
377.635	-18.77
377.845	32.43
378.055	93.87
378.266	32.43
378.476	32.43
378.686	-16.73
378.897	54.95
379.107	46.76
379.317	16.04
379.528	40.62
379.738	104.11
379.948	75.43
380.158	91.82
380.369	81.58
380.579	24.23
380.789	-33.11
380.999	22.19
381.21	114.34
381.42	155.3
381.63	26.28
381.84	42.67
382.05	79.53
382.261	91.82
382.471	81.58
382.681	71.34
382.891	177.83
383.101	69.29
383.311	-8.53
383.521	-20.82
383.731	104.11
383.941	87.72
384.151	54.95
384.361	71.34
384.571	106.15
384.781	48.81
384.991	110.25
385.201	124.58
385.411	116.39
385.621	67.24
385.831	22.19
386.041	65.19
386.251	-0.34
386.461	97.96
386.671	-2.39
386.881	69.29
387.091	-26.96
387.301	104.11
387.511	42.67
387.72	7.85
387.93	93.87
388.14	42.67
388.35	42.67
388.56	46.76
388.769	116.39
388.979	-22.87
389.189	13.99
389.399	87.72
389.609	100.01
389.818	83.63
390.028	71.34
390.238	71.34
390.447	36.52
390.657	114.34
390.867	13.99
391.076	-69.97
391.286	132.78
391.496	89.77
391.705	93.87
391.915	104.11
392.125	112.3
392.334	16.04
392.544	85.67
392.753	32.43
392.963	7.85
393.172	91.82
393.382	28.33
393.591	114.34
393.801	13.99
394.01	32.43
394.22	143.02
394.429	-45.4
394.639	48.81
394.848	122.54
395.058	54.95
395.267	95.91
395.477	81.58
395.686	69.29
395.895	104.11
396.105	81.58
396.314	151.21
396.524	36.52
396.733	42.67
396.942	126.63
397.152	138.92
397.361	140.97
397.57	48.81
397.78	100.01
397.989	153.26
398.198	208.55
398.407	13.99
398.617	85.67
398.826	97.96
399.035	63.15
399.244	106.15
399.453	71.34
399.663	71.34
399.872	95.91
400.081	69.29
400.29	102.06
400.499	11.95
400.708	136.87
400.917	46.76
401.127	136.87
401.336	116.39
401.545	134.82
401.754	69.29
401.963	102.06
402.172	57
402.381	106.15
402.59	87.72
402.799	151.21
403.008	130.73
403.217	71.34
403.426	206.5
403.635	65.19
403.844	102.06
404.053	138.92
404.262	114.34
404.471	212.65
404.68	165.54
404.888	65.19
405.097	114.34
405.306	155.3
405.515	130.73
405.724	143.02
405.933	108.2
406.142	167.59
406.35	229.03
406.559	175.78
406.768	145.06
406.977	245.41
407.185	194.22
407.394	206.5
407.603	116.39
407.812	233.13
408.02	280.23
408.229	214.7
408.438	249.51
408.646	224.94
408.855	226.98
409.064	210.6
409.272	304.81
409.481	267.94
409.69	206.5
409.898	261.8
410.107	298.66
410.315	368.29
410.524	302.76
410.733	345.77
410.941	278.18
411.15	241.32
411.358	323.24
411.567	380.58
411.775	323.24
411.984	333.48
412.192	415.4
412.401	392.87
412.609	380.58
412.818	548.51
413.026	523.94
413.234	386.72
413.443	480.93
413.651	476.84
413.86	493.22
414.068	495.27
414.276	542.37
414.485	528.03
414.693	603.81
414.901	693.92
415.11	652.96
415.318	614.05
415.526	685.73
415.734	652.96
415.943	738.98
416.151	781.98
416.359	784.03
416.567	757.41
416.776	749.22
416.984	786.08
417.192	874.14
417.4	773.79
417.608	863.9
417.817	845.47
418.025	958.11
418.233	1060.51
418.441	954.01
418.649	1023.64
418.857	1099.42
419.065	1117.85
419.273	1142.43
419.481	1103.51
419.689	1154.71
419.897	1334.93
420.105	1263.26
420.313	1363.61
420.521	1412.76
420.729	1500.82
420.937	1506.96
421.145	1531.54
421.353	1633.94
421.561	1740.43
421.769	1779.34
421.977	1771.15
422.185	1830.54
422.393	1881.74
422.601	1986.19
422.809	1984.14
423.017	2010.76
423.224	2131.59
423.432	2115.21
423.64	2102.92
423.848	2393.73
424.056	2309.77
424.263	2393.73
424.471	2408.07
424.679	2580.1
424.887	2723.46
425.094	2776.7
425.302	2825.86
425.51	2813.57
425.718	2889.34
425.925	2958.97
426.133	3100.28
426.341	3200.63
426.548	3423.86
426.756	3473.01
426.964	3397.24
427.171	3481.21
427.379	3692.15
427.586	3634.8
427.794	3966.57
428.001	4130.41
428.209	4265.58
428.417	4120.17
428.624	4519.53
428.832	4445.8
429.039	4335.21
429.247	4441.7
429.454	4902.5
429.662	5330.52
429.869	4783.71
430.076	5318.23
430.284	4982.37
430.491	5252.7
430.699	5615.19
430.906	5529.17
431.114	5690.96
431.321	5656.15
431.528	5772.88
431.736	6188.62
431.943	6669.89
432.15	6389.32
432.358	6403.66
432.565	6876.74
432.772	6807.11
432.979	7175.74
433.187	7231.04
433.394	7206.46
433.601	7644.73
433.808	7888.43
434.016	7874.1
434.223	8238.64
434.43	8594.98
434.637	8414.76
434.844	8914.47
435.052	9262.62
435.259	9100.83
435.466	9276.96
435.673	8803.88
435.88	9412.12
436.087	10198.54
436.294	10257.93
436.501	9862.68
436.708	10010.13
436.915	10534.41
437.122	10944
437.329	10829.32
437.537	11214.34
437.743	11191.81
437.95	11400.7
438.157	12033.52
438.364	12375.53
438.571	12307.95
438.778	12418.54
438.985	13688.28
439.192	13069.8
439.399	13002.21
439.606	13184.48
439.813	13635.03
440.02	14599.63
440.227	14374.35
440.433	14206.42
440.64	14835.14
440.847	14388.69
441.054	15093.19
441.261	15979.96
441.467	15705.53
441.674	15877.56
441.881	16809.39
442.088	16786.86
442.294	16321.97
442.501	16850.35
442.708	17388.96
442.914	17790.36
443.121	18722.19
443.328	17976.73
443.534	19213.7
443.741	18812.3
443.948	18554.26
444.154	19907.96
444.361	19555.71
444.568	19934.59
444.774	19699.07
444.981	20184.44
445.187	20764.01
445.394	21658.98
445.6	21364.07
445.807	23033.16
446.013	22183.26
446.22	22652.24
446.426	23571.78
446.633	23913.79
446.839	24810.8
447.046	23536.96
447.252	25185.58
447.459	25226.54
447.665	24745.27
447.871	26051.87
448.078	27036.94
448.284	25885.98
448.491	26352.92
448.697	27534.6
448.903	28151.04
449.11	28302.59
449.316	27735.3
449.522	28148.99
449.728	28441.85
449.935	28970.22
450.141	29193.45
450.347	29699.3
450.553	28638.45
450.76	29316.33
450.966	30069.98
451.172	29852.9
451.378	30381.28
451.584	29580.52
451.791	30401.75
451.997	30663.89
452.203	31034.58
452.409	31012.05
452.615	31081.68
452.821	29629.67
453.027	29013.23
453.233	31028.43
453.44	29783.27
453.646	29807.84
453.852	30069.98
454.058	30954.71
454.264	29801.7
454.47	30608.6
454.676	29195.5
454.882	30594.26
455.088	27845.89
455.294	28517.62
455.5	28466.42
455.705	28976.37
455.911	27637
456.117	27294.99
456.323	26594.58
456.529	25759.01
456.735	26518.81
456.941	25785.63
457.147	25322.79
457.352	24462.65
457.558	24493.36
457.764	24485.17
457.97	23913.79
458.176	23475.52
458.381	23309.64
458.587	22291.8
458.793	22381.91
458.999	21194.09
459.204	22627.67
459.41	21599.59
459.616	20213.11
459.821	20319.6
460.027	20405.62
460.233	19963.26
460.438	19221.89
460.644	19234.18
460.85	18546.06
461.055	18072.98
461.261	18128.28
461.466	16491.95
461.672	16356.79
461.878	17360.29
462.083	16055.73
462.289	15814.07
462.494	15574.46
462.7	14810.57
462.905	14575.05
463.111	14712.27
463.316	14990.79
463.522	14878.15
463.727	14673.35
463.932	14458.32
464.138	14570.96
464.343	14470.61
464.549	13911.51
464.754	14599.63
464.959	14372.3
465.165	14409.17
465.37	13530.59
465.575	13409.76
465.781	13872.6
465.986	13757.91
466.191	13407.71
466.397	13065.7
466.602	12543.47
466.807	13256.16
467.012	13080.04
467.218	13028.84
