Data from USB4F104151__17__12-11-38-110.txt Node

Date: Fri Mar 14 12:11:38 EDT 2025
User: louis
Spectrometer: USB4F10415
Trigger mode: 4
Integration Time (sec): 5.000000E-2
Scans to average: 1
Electric dark correction enabled: true
Nonlinearity correction enabled: false
Boxcar width: 0
XAxis mode: Wavelengths
Number of Pixels in Spectrum: 3648
>>>>>Begin Spectral Data<<<<<
178.204	-209.06
178.424	-209.06
178.644	-209.06
178.864	-215.21
179.084	-188.58
179.304	10.07
179.524	46.93
179.744	-53.42
179.964	24.4
180.184	-20.65
180.404	-39.08
180.624	12.12
180.844	-30.89
181.064	-22.7
181.283	-26.79
181.503	38.74
181.723	61.27
181.943	-49.32
182.163	118.61
182.383	3.93
182.602	55.12
182.822	77.65
183.042	53.08
183.262	30.55
183.482	36.69
183.701	8.02
183.921	55.12
184.141	10.07
184.361	65.36
184.58	114.52
184.8	8.02
185.02	20.31
185.239	57.17
185.459	85.84
185.679	48.98
185.898	-18.6
186.118	89.94
186.338	32.6
186.557	65.36
186.777	1.88
186.997	-0.17
187.216	67.41
187.436	112.47
187.655	59.22
187.875	32.6
188.095	-6.31
188.314	83.8
188.534	85.84
188.753	-28.84
188.973	48.98
189.192	73.56
189.412	67.41
189.631	75.6
189.851	-0.17
190.07	116.56
190.29	-26.79
190.509	-22.7
190.729	36.69
190.948	85.84
191.168	288.59
191.387	126.8
191.607	106.32
191.826	32.6
192.045	40.79
192.265	-14.51
192.484	46.93
192.704	5.97
192.923	3.93
193.142	151.38
193.362	53.08
193.581	46.93
193.8	126.8
194.02	67.41
194.239	-37.03
194.458	24.4
194.678	32.6
194.897	-16.55
195.116	30.55
195.335	48.98
195.555	89.94
195.774	85.84
195.993	48.98
196.212	36.69
196.432	59.22
196.651	85.84
196.87	-28.84
197.089	190.29
197.308	104.28
197.528	89.94
197.747	-26.79
197.966	40.79
198.185	124.76
198.404	57.17
198.623	46.93
198.842	28.5
199.062	104.28
199.281	28.5
199.5	69.46
199.719	102.23
199.938	14.17
200.157	48.98
200.376	81.75
200.595	18.26
200.814	38.74
201.033	-20.65
201.252	139.09
201.471	151.38
201.69	98.13
201.909	57.17
202.128	59.22
202.347	69.46
202.566	44.88
202.785	26.45
203.004	36.69
203.223	135
203.442	16.21
203.661	-37.03
203.879	16.21
204.098	106.32
204.317	-20.65
204.536	51.03
204.755	55.12
204.974	147.28
205.193	130.9
205.411	91.99
205.63	77.65
205.849	20.31
206.068	73.56
206.287	-14.51
206.505	53.08
206.724	-12.46
206.943	-18.6
207.162	22.36
207.381	48.98
207.599	77.65
207.818	8.02
208.037	18.26
208.255	61.27
208.474	81.75
208.693	-0.17
208.911	69.46
209.13	28.5
209.349	96.08
209.567	12.12
209.786	112.47
210.005	124.76
210.223	79.7
210.442	-88.23
210.661	98.13
210.879	71.51
211.098	46.93
211.316	3.93
211.535	57.17
211.753	14.17
211.972	-47.27
212.191	44.88
212.409	10.07
212.628	63.32
212.846	-18.6
213.065	73.56
213.283	71.51
213.502	16.21
213.72	-26.79
213.938	73.56
214.157	65.36
214.375	71.51
214.594	81.75
214.812	34.64
215.031	1.88
215.249	32.6
215.467	10.07
215.686	67.41
215.904	28.5
216.122	44.88
216.341	135
216.559	61.27
216.778	96.08
216.996	51.03
217.214	-14.51
217.432	-2.22
217.651	-41.13
217.869	73.56
218.087	24.4
218.306	22.36
218.524	83.8
218.742	20.31
218.96	73.56
219.179	-10.41
219.397	67.41
219.615	122.71
219.833	32.6
220.051	-0.17
220.27	85.84
220.488	46.93
220.706	10.07
220.924	71.51
221.142	83.8
221.36	-4.27
221.578	34.64
221.796	18.26
222.015	89.94
222.233	-2.22
222.451	151.38
222.669	38.74
222.887	87.89
223.105	42.84
223.323	36.69
223.541	-28.84
223.759	32.6
223.977	-14.51
224.195	53.08
224.413	100.18
224.631	108.37
224.849	-53.42
225.067	91.99
225.285	53.08
225.503	-32.94
225.721	-22.7
225.939	16.21
226.157	36.69
226.375	112.47
226.592	-24.75
226.81	112.47
227.028	147.28
227.246	106.32
227.464	48.98
227.682	-12.46
227.9	48.98
228.117	91.99
228.335	20.31
228.553	-6.31
228.771	28.5
228.989	32.6
229.206	67.41
229.424	34.64
229.642	53.08
229.86	18.26
230.077	96.08
230.295	59.22
230.513	5.97
230.731	36.69
230.948	204.63
231.166	16.21
231.384	98.13
231.601	102.23
231.819	67.41
232.037	18.26
232.254	-2.22
232.472	83.8
232.689	34.64
232.907	124.76
233.125	1.88
233.342	3.93
233.56	-18.6
233.777	91.99
233.995	67.41
234.213	36.69
234.43	79.7
234.648	59.22
234.865	42.84
235.083	20.31
235.3	46.93
235.518	36.69
235.735	102.23
235.953	94.04
236.17	-45.23
236.388	14.17
236.605	16.21
236.822	108.37
237.04	91.99
237.257	18.26
237.475	-28.84
237.692	73.56
237.909	61.27
238.127	67.41
238.344	67.41
238.562	89.94
238.779	42.84
238.996	-41.13
239.214	83.8
239.431	83.8
239.648	34.64
239.865	48.98
240.083	110.42
240.3	5.97
240.517	34.64
240.735	28.5
240.952	83.8
241.169	32.6
241.386	61.27
241.603	42.84
241.821	-10.41
242.038	167.76
242.255	30.55
242.472	1.88
242.689	89.94
242.907	141.14
243.124	22.36
243.341	104.28
243.558	32.6
243.775	-51.37
243.992	-65.71
244.209	14.17
244.426	118.61
244.643	65.36
244.86	22.36
245.078	67.41
245.295	16.21
245.512	26.45
245.729	-6.31
245.946	14.17
246.163	83.8
246.38	48.98
246.597	141.14
246.814	102.23
247.031	36.69
247.248	32.6
247.464	91.99
247.681	57.17
247.898	44.88
248.115	110.42
248.332	26.45
248.549	32.6
248.766	79.7
248.983	81.75
249.2	59.22
249.417	100.18
249.633	34.64
249.85	26.45
250.067	61.27
250.284	10.07
250.501	94.04
250.717	44.88
250.934	-47.27
251.151	63.32
251.368	-28.84
251.585	79.7
251.801	57.17
252.018	14.17
252.235	81.75
252.451	-12.46
252.668	102.23
252.885	67.41
253.102	-14.51
253.318	-6.31
253.535	26.45
253.752	1.88
253.968	102.23
254.185	-10.41
254.401	36.69
254.618	44.88
254.835	-61.61
255.051	108.37
255.268	100.18
255.484	40.79
255.701	18.26
255.917	65.36
256.134	-16.55
256.351	124.76
256.567	36.69
256.784	-37.03
257	-51.37
257.217	57.17
257.433	44.88
257.65	32.6
257.866	96.08
258.082	3.93
258.299	48.98
258.515	112.47
258.732	69.46
258.948	-53.42
259.165	79.7
259.381	30.55
259.597	-10.41
259.814	20.31
260.03	53.08
260.246	59.22
260.463	48.98
260.679	81.75
260.895	1.88
261.112	46.93
261.328	69.46
261.544	26.45
261.761	182.1
261.977	26.45
262.193	1.88
262.409	85.84
262.626	44.88
262.842	-6.31
263.058	32.6
263.274	73.56
263.49	114.52
263.707	34.64
263.923	38.74
264.139	-10.41
264.355	12.12
264.571	104.28
264.787	-4.27
265.004	75.6
265.22	12.12
265.436	63.32
265.652	-24.75
265.868	100.18
266.084	-32.94
266.3	-43.18
266.516	-12.46
266.732	12.12
266.948	-39.08
267.164	67.41
267.38	14.17
267.596	122.71
267.812	159.57
268.028	118.61
268.244	-14.51
268.46	89.94
268.676	14.17
268.892	30.55
269.108	8.02
269.324	-51.37
269.54	-20.65
269.756	94.04
269.972	53.08
270.188	10.07
270.403	-28.84
270.619	28.5
270.835	77.65
271.051	14.17
271.267	32.6
271.483	24.4
271.698	-2.22
271.914	75.6
272.13	-26.79
272.346	40.79
272.562	-43.18
272.777	128.85
272.993	55.12
273.209	-63.66
273.425	26.45
273.64	71.51
273.856	116.56
274.072	5.97
274.287	42.84
274.503	44.88
274.719	67.41
274.934	81.75
275.15	48.98
275.366	10.07
275.581	-30.89
275.797	3.93
276.012	77.65
276.228	34.64
276.444	14.17
276.659	75.6
276.875	24.4
277.09	69.46
277.306	8.02
277.521	55.12
277.737	48.98
277.952	79.7
278.168	34.64
278.383	-53.42
278.599	24.4
278.814	67.41
279.03	96.08
279.245	114.52
279.461	22.36
279.676	83.8
279.892	-30.89
280.107	-47.27
280.322	40.79
280.538	61.27
280.753	1.88
280.969	42.84
281.184	-20.65
281.399	28.5
281.615	36.69
281.83	57.17
282.045	-6.31
282.26	3.93
282.476	122.71
282.691	106.32
282.906	44.88
283.122	102.23
283.337	22.36
283.552	3.93
283.767	14.17
283.983	96.08
284.198	-2.22
284.413	61.27
284.628	-37.03
284.843	61.27
285.058	73.56
285.274	16.21
285.489	-6.31
285.704	98.13
285.919	-4.27
286.134	36.69
286.349	14.17
286.564	48.98
286.779	96.08
286.995	42.84
287.21	-37.03
287.425	61.27
287.64	24.4
287.855	77.65
288.07	67.41
288.285	67.41
288.5	122.71
288.715	26.45
288.93	26.45
289.145	-63.66
289.36	8.02
289.575	32.6
289.79	167.76
290.004	16.21
290.219	200.53
290.434	98.13
290.649	-28.84
290.864	-57.51
291.079	36.69
291.294	91.99
291.509	69.46
291.724	40.79
291.938	-24.75
292.153	-10.41
292.368	44.88
292.583	65.36
292.798	55.12
293.012	46.93
293.227	110.42
293.442	-12.46
293.657	67.41
293.871	159.57
294.086	44.88
294.301	116.56
294.516	71.51
294.73	75.6
294.945	-45.23
295.16	38.74
295.374	67.41
295.589	100.18
295.804	-2.22
296.018	22.36
296.233	-24.75
296.447	153.43
296.662	-24.75
296.877	110.42
297.091	51.03
297.306	30.55
297.52	30.55
297.735	-14.51
297.949	26.45
298.164	61.27
298.378	38.74
298.593	79.7
298.807	79.7
299.022	5.97
299.236	141.14
299.451	22.36
299.665	14.17
299.88	67.41
300.094	28.5
300.309	83.8
300.523	73.56
300.737	24.4
300.952	112.47
301.166	26.45
301.381	-80.04
301.595	8.02
301.809	98.13
302.024	65.36
302.238	12.12
302.452	67.41
302.667	-49.32
302.881	75.6
303.095	22.36
303.309	24.4
303.524	8.02
303.738	38.74
303.952	16.21
304.166	83.8
304.381	-108.71
304.595	81.75
304.809	-37.03
305.023	34.64
305.237	-14.51
305.452	67.41
305.666	69.46
305.88	108.37
306.094	135
306.308	85.84
306.522	51.03
306.736	40.79
306.95	-18.6
307.164	18.26
307.379	61.27
307.593	44.88
307.807	55.12
308.021	108.37
308.235	116.56
308.449	-37.03
308.663	75.6
308.877	145.24
309.091	139.09
309.305	75.6
309.519	-82.09
309.733	42.84
309.947	-16.55
310.161	85.84
310.374	53.08
310.588	124.76
310.802	-55.47
311.016	8.02
311.23	51.03
311.444	-20.65
311.658	32.6
311.872	59.22
312.085	57.17
312.299	114.52
312.513	40.79
312.727	65.36
312.941	44.88
313.154	-2.22
313.368	63.32
313.582	59.22
313.796	46.93
314.009	36.69
314.223	89.94
314.437	137.04
314.651	24.4
314.864	-6.31
315.078	-12.46
315.292	-94.38
315.505	-20.65
315.719	26.45
315.933	32.6
316.146	53.08
316.36	36.69
316.573	126.8
316.787	69.46
317.001	-0.17
317.214	40.79
317.428	28.5
317.641	-65.71
317.855	-14.51
318.068	32.6
318.282	71.51
318.495	161.62
318.709	-10.41
318.922	20.31
319.136	128.85
319.349	73.56
319.563	20.31
319.776	73.56
319.99	48.98
320.203	57.17
320.417	61.27
320.63	61.27
320.843	114.52
321.057	3.93
321.27	40.79
321.483	-24.75
321.697	108.37
321.91	87.89
322.124	87.89
322.337	106.32
322.55	-45.23
322.763	73.56
322.977	12.12
323.19	16.21
323.403	5.97
323.617	30.55
323.83	85.84
324.043	98.13
324.256	26.45
324.469	-26.79
324.683	-14.51
324.896	-8.36
325.109	55.12
325.322	-51.37
325.535	20.31
325.748	24.4
325.962	-6.31
326.175	73.56
326.388	122.71
326.601	30.55
326.814	22.36
327.027	69.46
327.24	128.85
327.453	-24.75
327.666	114.52
327.879	63.32
328.092	-32.94
328.305	51.03
328.518	36.69
328.731	44.88
328.944	53.08
329.157	87.89
329.37	5.97
329.583	128.85
329.796	85.84
330.009	-45.23
330.222	10.07
330.435	55.12
330.648	104.28
330.861	20.31
331.073	36.69
331.286	30.55
331.499	67.41
331.712	8.02
331.925	40.79
332.138	180.05
332.35	120.66
332.563	-14.51
332.776	110.42
332.989	-4.27
333.202	46.93
333.414	26.45
333.627	91.99
333.84	-55.47
334.053	132.95
334.265	59.22
334.478	26.45
334.691	12.12
334.903	81.75
335.116	-0.17
335.329	28.5
335.541	59.22
335.754	100.18
335.966	14.17
336.179	-10.41
336.392	18.26
336.604	126.8
336.817	77.65
337.029	36.69
337.242	32.6
337.454	75.6
337.667	5.97
337.88	108.37
338.092	126.8
338.305	24.4
338.517	73.56
338.729	30.55
338.942	124.76
339.154	46.93
339.367	96.08
339.579	42.84
339.792	18.26
340.004	59.22
340.217	18.26
340.429	85.84
340.641	-4.27
340.854	3.93
341.066	3.93
341.278	38.74
341.491	112.47
341.703	91.99
341.915	61.27
342.128	53.08
342.34	26.45
342.552	40.79
342.764	48.98
342.977	-18.6
343.189	36.69
343.401	22.36
343.613	44.88
343.826	51.03
344.038	38.74
344.25	24.4
344.462	8.02
344.674	83.8
344.886	40.79
345.099	20.31
345.311	-16.55
345.523	38.74
345.735	14.17
345.947	67.41
346.159	28.5
346.371	18.26
346.583	-16.55
346.795	108.37
347.007	18.26
347.219	26.45
347.431	5.97
347.643	40.79
347.855	53.08
348.067	108.37
348.279	44.88
348.491	30.55
348.703	69.46
348.915	69.46
349.127	-84.14
349.339	26.45
349.551	53.08
349.763	1.88
349.975	16.21
350.187	96.08
350.399	96.08
350.61	18.26
350.822	16.21
351.034	55.12
351.246	79.7
351.458	67.41
351.669	55.12
351.881	59.22
352.093	77.65
352.305	73.56
352.517	38.74
352.728	81.75
352.94	30.55
353.152	10.07
353.363	22.36
353.575	79.7
353.787	63.32
353.999	130.9
354.21	155.47
354.422	1.88
354.633	5.97
354.845	30.55
355.057	67.41
355.268	22.36
355.48	108.37
355.692	36.69
355.903	48.98
356.115	8.02
356.326	-24.75
356.538	149.33
356.749	91.99
356.961	5.97
357.172	48.98
357.384	57.17
357.595	223.06
357.807	53.08
358.018	46.93
358.23	44.88
358.441	102.23
358.653	24.4
358.864	18.26
359.075	10.07
359.287	116.56
359.498	81.75
359.709	87.89
359.921	48.98
360.132	14.17
360.344	30.55
360.555	46.93
360.766	65.36
360.977	53.08
361.189	79.7
361.4	42.84
361.611	128.85
361.823	38.74
362.034	14.17
362.245	-4.27
362.456	44.88
362.667	83.8
362.879	36.69
363.09	53.08
363.301	89.94
363.512	34.64
363.723	69.46
363.935	40.79
364.146	106.32
364.357	57.17
364.568	59.22
364.779	-53.42
364.99	108.37
365.201	34.64
365.412	65.36
365.623	1.88
365.834	38.74
366.045	8.02
366.256	36.69
366.467	48.98
366.678	26.45
366.889	-22.7
367.1	-37.03
367.311	32.6
367.522	18.26
367.733	118.61
367.944	85.84
368.155	26.45
368.366	46.93
368.577	63.32
368.788	75.6
368.999	8.02
369.209	149.33
369.42	151.38
369.631	192.34
369.842	65.36
370.053	-8.36
370.264	44.88
370.474	-8.36
370.685	53.08
370.896	-41.13
371.107	114.52
371.317	63.32
371.528	-22.7
371.739	87.89
371.95	59.22
372.16	63.32
372.371	-63.66
372.582	18.26
372.792	73.56
373.003	16.21
373.214	73.56
373.424	77.65
373.635	48.98
373.846	42.84
374.056	32.6
374.267	98.13
374.477	-30.89
374.688	22.36
374.898	120.66
375.109	124.76
375.319	14.17
375.53	53.08
375.74	57.17
375.951	75.6
376.161	1.88
376.372	79.7
376.582	73.56
376.793	20.31
377.003	75.6
377.214	-24.75
377.424	69.46
377.635	-26.79
377.845	5.97
378.055	8.02
378.266	26.45
378.476	36.69
378.686	14.17
378.897	79.7
379.107	65.36
379.317	104.28
379.528	-43.18
379.738	81.75
379.948	-4.27
380.158	102.23
380.369	85.84
380.579	65.36
380.789	5.97
380.999	87.89
381.21	69.46
381.42	81.75
381.63	87.89
381.84	120.66
382.05	46.93
382.261	143.19
382.471	81.75
382.681	77.65
382.891	180.05
383.101	114.52
383.311	77.65
383.521	-34.99
383.731	48.98
383.941	145.24
384.151	91.99
384.361	-14.51
384.571	40.79
384.781	85.84
384.991	118.61
385.201	206.67
385.411	94.04
385.621	71.51
385.831	83.8
386.041	94.04
386.251	40.79
386.461	55.12
386.671	87.89
386.881	63.32
387.091	-6.31
387.301	89.94
387.511	44.88
387.72	22.36
387.93	51.03
388.14	-28.84
388.35	126.8
388.56	-16.55
388.769	73.56
388.979	32.6
389.189	18.26
389.399	141.14
389.609	38.74
389.818	112.47
390.028	-2.22
390.238	85.84
390.447	-16.55
390.657	75.6
390.867	32.6
391.076	-55.47
391.286	69.46
391.496	69.46
391.705	98.13
391.915	61.27
392.125	122.71
392.334	32.6
392.544	65.36
392.753	116.56
392.963	114.52
393.172	59.22
393.382	87.89
393.591	163.67
393.801	81.75
394.01	104.28
394.22	69.46
394.429	53.08
394.639	61.27
394.848	69.46
395.058	24.4
395.267	67.41
395.477	108.37
395.686	-55.47
395.895	200.53
396.105	216.91
396.314	116.56
396.524	18.26
396.733	30.55
396.942	118.61
397.152	184.15
397.361	75.6
397.57	65.36
397.78	96.08
397.989	26.45
398.198	184.15
398.407	77.65
398.617	38.74
398.826	85.84
399.035	51.03
399.244	94.04
399.453	77.65
399.663	155.47
399.872	110.42
400.081	-22.7
400.29	143.19
400.499	53.08
400.708	75.6
400.917	30.55
401.127	159.57
401.336	106.32
401.545	159.57
401.754	112.47
401.963	63.32
402.172	55.12
402.381	36.69
402.59	98.13
402.799	85.84
403.008	81.75
403.217	188.24
403.426	96.08
403.635	-14.51
403.844	118.61
404.053	130.9
404.262	77.65
404.471	157.52
404.68	120.66
404.888	79.7
405.097	81.75
405.306	206.67
405.515	161.62
405.724	194.39
405.933	194.39
406.142	153.43
406.35	173.91
406.559	114.52
406.768	221.01
406.977	200.53
407.185	135
407.394	145.24
407.603	120.66
407.812	169.81
408.02	145.24
408.229	227.15
408.438	114.52
408.646	108.37
408.855	186.19
409.064	132.95
409.272	223.06
409.481	192.34
409.69	192.34
409.898	221.01
410.107	184.15
410.315	239.44
410.524	196.43
410.733	157.52
410.941	128.85
411.15	173.91
411.358	200.53
411.567	264.02
411.775	229.2
411.984	302.93
412.192	380.75
412.401	315.22
412.609	309.07
412.818	315.22
413.026	325.46
413.234	317.26
413.443	364.37
413.651	321.36
413.86	440.14
414.068	434
414.276	417.61
414.485	386.9
414.693	499.53
414.901	526.16
415.11	462.67
415.318	401.23
415.526	468.81
415.734	458.57
415.943	548.68
416.151	446.29
416.359	501.58
416.567	511.82
416.776	491.34
416.984	626.51
417.192	722.76
417.4	634.7
417.608	583.5
417.817	579.4
418.025	698.19
418.233	802.63
418.441	679.75
418.649	788.3
418.857	773.96
419.065	839.5
419.273	790.35
419.481	878.41
419.689	954.18
419.897	915.27
420.105	876.36
420.313	991.05
420.521	1101.64
420.729	1095.49
420.937	1079.11
421.145	1097.54
421.353	1132.36
421.561	1224.51
421.769	1234.75
421.977	1228.61
422.185	1275.71
422.393	1288
422.601	1472.32
422.809	1412.93
423.017	1400.64
423.224	1460.03
423.432	1523.52
423.64	1453.89
423.848	1603.39
424.056	1562.43
424.263	1797.95
424.471	1775.42
424.679	1867.58
424.887	1900.34
425.094	2037.56
425.302	2000.69
425.51	2096.95
425.718	2090.81
425.925	2150.2
426.133	2142
426.341	2309.94
426.548	2398
426.756	2428.72
426.964	2441.01
427.171	2629.42
427.379	2776.87
427.586	2735.92
427.794	2875.18
428.001	2899.75
428.209	3131.17
428.417	3022.63
428.624	3088.17
428.832	3133.22
429.039	3184.42
429.247	3120.93
429.454	3577.63
429.662	3688.22
429.869	3434.27
430.076	3675.93
430.284	3491.62
430.491	3790.62
430.699	3974.94
430.906	3895.07
431.114	3933.98
431.321	4087.57
431.528	4263.7
431.736	4603.66
431.943	4632.33
432.15	4542.22
432.358	4767.5
432.565	4853.52
432.772	4890.38
432.979	4986.63
433.187	5324.55
433.394	5211.91
433.601	5494.53
433.808	5633.79
434.016	5629.7
434.223	5746.43
434.43	6063.86
434.637	5914.36
434.844	6278.9
435.052	6538.99
435.259	6604.53
435.466	6469.36
435.673	6457.07
435.88	6762.22
436.087	7163.62
436.294	7220.97
436.501	6993.64
436.708	7028.46
436.915	7374.56
437.122	7694.05
437.329	7491.3
437.537	7878.37
437.743	8068.83
437.95	8058.59
438.157	8373.97
438.364	8799.95
438.571	8670.93
438.778	8601.3
438.985	9492.16
439.192	9035.47
439.399	9518.79
439.606	9043.66
439.813	9686.72
440.02	10184.38
440.227	10090.17
440.433	10133.18
440.64	10544.82
440.847	10145.47
441.054	10497.72
441.261	11241.13
441.467	11173.55
441.674	11435.69
441.881	12002.97
442.088	11603.62
442.294	11720.35
442.501	11894.43
442.708	12281.5
442.914	12463.77
443.121	13362.83
443.328	12973.71
443.534	13831.81
443.741	13536.9
443.948	13088.4
444.154	14296.7
444.361	13977.22
444.568	14120.57
444.774	14407.29
444.981	14333.56
445.187	14886.51
445.394	15427.18
445.6	15119.98
445.807	16754.26
446.013	15865.44
446.22	16289.37
446.426	16987.73
446.633	17034.83
446.839	17677.9
447.046	16862.8
447.252	17888.84
447.459	17679.94
447.665	17782.34
447.871	18746.94
448.078	19369.52
448.284	18556.47
448.491	19232.3
448.697	19912.23
448.903	20268.58
449.11	20084.26
449.316	19760.68
449.522	20133.41
449.728	20672.03
449.935	20770.33
450.141	20815.38
450.347	21655.05
450.553	20710.94
450.76	20821.53
450.966	21677.58
451.172	21675.53
451.378	22081.03
451.584	21450.25
451.791	22201.86
451.997	21947.91
452.203	22386.18
452.409	22582.78
452.615	22179.33
452.821	21177.87
453.027	21204.5
453.233	22316.54
453.44	21452.3
453.646	21820.94
453.852	21757.45
454.058	22349.31
454.264	21229.07
454.47	21902.86
454.676	21345.81
454.882	21941.77
455.088	20153.89
455.294	20479.52
455.5	20631.07
455.705	20934.17
455.911	20174.37
456.117	19680.81
456.323	19277.36
456.529	18269.76
456.735	19033.65
456.941	18734.65
457.147	18601.53
457.352	18028.1
457.558	17479.24
457.764	17663.56
457.97	17446.48
458.176	16809.56
458.381	17241.68
458.587	16397.92
458.793	16105.06
458.999	15365.74
459.204	16531.03
459.41	16025.18
459.616	14943.86
459.821	14749.3
460.027	14585.46
460.233	14589.56
460.438	13921.92
460.644	14034.56
460.85	13233.8
461.055	13237.9
461.261	13115.02
461.466	11939.49
461.672	11818.66
461.878	12586.65
462.083	11794.08
462.289	11615.91
462.494	11460.26
462.7	10831.54
462.905	10620.6
463.111	10950.32
463.316	10942.13
463.522	10714.8
463.727	10976.94
463.932	10862.26
464.138	10661.55
464.343	10731.19
464.549	10514.1
464.754	10725.04
464.959	10690.23
465.165	10639.03
465.37	10104.51
465.575	9879.23
465.781	10282.68
465.986	10360.5
466.191	9858.75
466.397	9791.17
466.602	9322.18
466.807	9516.74
467.012	9578.18
467.218	9717.44
467.423	9348.81
