Data from USB4F104151__78__12-12-50-301.txt Node

Date: Fri Mar 14 12:12:50 EDT 2025
User: louis
Spectrometer: USB4F10415
Trigger mode: 4
Integration Time (sec): 5.000000E-2
Scans to average: 1
Electric dark correction enabled: true
Nonlinearity correction enabled: false
Boxcar width: 0
XAxis mode: Wavelengths
Number of Pixels in Spectrum: 3648
>>>>>Begin Spectral Data<<<<<
178.204	-183.29
178.424	-183.29
178.644	-183.29
178.864	-158.72
179.084	-224.25
179.304	27.65
179.524	-1.02
179.744	-11.26
179.964	29.7
180.184	-21.5
180.404	-27.65
180.624	-23.55
180.844	15.36
181.064	21.5
181.283	37.89
181.503	-54.27
181.723	7.17
181.943	-82.94
182.163	82.94
182.383	-21.5
182.602	-5.12
182.822	-1.02
183.042	17.41
183.262	19.46
183.482	9.22
183.701	27.65
183.921	39.94
184.141	11.26
184.361	72.7
184.58	41.98
184.8	17.41
185.02	-37.89
185.239	37.89
185.459	-17.41
185.679	41.98
185.898	-17.41
186.118	107.52
186.338	58.37
186.557	44.03
186.777	-64.51
186.997	-23.55
187.216	31.74
187.436	46.08
187.655	48.13
187.875	41.98
188.095	-58.37
188.314	35.84
188.534	25.6
188.753	-39.94
188.973	142.33
189.192	132.09
189.412	39.94
189.631	-1.02
189.851	-5.12
190.07	35.84
190.29	-64.51
190.509	48.13
190.729	142.33
190.948	50.18
191.168	216.06
191.387	130.05
191.607	62.46
191.826	29.7
192.045	37.89
192.265	1.02
192.484	-27.65
192.704	3.07
192.923	-25.6
193.142	105.47
193.362	-7.17
193.581	48.13
193.8	23.55
194.02	11.26
194.239	-146.43
194.458	95.23
194.678	-33.79
194.897	9.22
195.116	-3.07
195.335	-23.55
195.555	-21.5
195.774	48.13
195.993	29.7
196.212	46.08
196.432	46.08
196.651	11.26
196.87	54.27
197.089	148.48
197.308	19.46
197.528	62.46
197.747	-60.42
197.966	-29.7
198.185	117.76
198.404	-80.89
198.623	7.17
198.842	9.22
199.062	138.24
199.281	99.33
199.5	62.46
199.719	158.72
199.938	80.89
200.157	115.71
200.376	76.8
200.595	41.98
200.814	58.37
201.033	31.74
201.252	31.74
201.471	44.03
201.69	91.13
201.909	19.46
202.128	9.22
202.347	23.55
202.566	41.98
202.785	-13.31
203.004	-89.09
203.223	128
203.442	-99.33
203.661	78.85
203.879	74.75
204.098	13.31
204.317	25.6
204.536	11.26
204.755	84.99
204.974	-5.12
205.193	33.79
205.411	199.68
205.63	64.51
205.849	58.37
206.068	-35.84
206.287	11.26
206.505	74.75
206.724	62.46
206.943	-48.13
207.162	-46.08
207.381	35.84
207.599	41.98
207.818	37.89
208.037	48.13
208.255	46.08
208.474	76.8
208.693	93.18
208.911	17.41
209.13	50.18
209.349	84.99
209.567	97.28
209.786	70.65
210.005	56.32
210.223	-37.89
210.442	19.46
210.661	33.79
210.879	99.33
211.098	39.94
211.316	9.22
211.535	62.46
211.753	17.41
211.972	74.75
212.191	-21.5
212.409	-13.31
212.628	7.17
212.846	-56.32
213.065	15.36
213.283	93.18
213.502	-15.36
213.72	3.07
213.938	50.18
214.157	15.36
214.375	119.81
214.594	-64.51
214.812	-21.5
215.031	74.75
215.249	-27.65
215.467	60.42
215.686	41.98
215.904	35.84
216.122	11.26
216.341	115.71
216.559	-25.6
216.778	-19.46
216.996	125.95
217.214	23.55
217.432	-15.36
217.651	-7.17
217.869	-41.98
218.087	27.65
218.306	-1.02
218.524	3.07
218.742	27.65
218.96	25.6
219.179	44.03
219.397	19.46
219.615	150.53
219.833	-17.41
220.051	-103.42
220.27	103.42
220.488	13.31
220.706	25.6
220.924	-7.17
221.142	5.12
221.36	37.89
221.578	25.6
221.796	-1.02
222.015	68.61
222.233	-7.17
222.451	130.05
222.669	-17.41
222.887	52.22
223.105	-13.31
223.323	13.31
223.541	17.41
223.759	91.13
223.977	-25.6
224.195	56.32
224.413	76.8
224.631	48.13
224.849	-3.07
225.067	78.85
225.285	21.5
225.503	-5.12
225.721	-103.42
225.939	74.75
226.157	13.31
226.375	205.82
226.592	-46.08
226.81	1.02
227.028	95.23
227.246	56.32
227.464	72.7
227.682	37.89
227.9	27.65
228.117	25.6
228.335	41.98
228.553	-7.17
228.771	35.84
228.989	74.75
229.206	66.56
229.424	-3.07
229.642	-9.22
229.86	-13.31
230.077	46.08
230.295	46.08
230.513	103.42
230.731	50.18
230.948	54.27
231.166	123.9
231.384	-25.6
231.601	-111.61
231.819	23.55
232.037	-119.81
232.254	-35.84
232.472	13.31
232.689	-11.26
232.907	93.18
233.125	70.65
233.342	-76.8
233.56	74.75
233.777	-21.5
233.995	33.79
234.213	70.65
234.43	19.46
234.648	-19.46
234.865	33.79
235.083	39.94
235.3	60.42
235.518	91.13
235.735	76.8
235.953	132.09
236.17	11.26
236.388	-27.65
236.605	17.41
236.822	95.23
237.04	146.43
237.257	7.17
237.475	-41.98
237.692	50.18
237.909	-15.36
238.127	11.26
238.344	-5.12
238.562	54.27
238.779	-37.89
238.996	39.94
239.214	23.55
239.431	97.28
239.648	-19.46
239.865	35.84
240.083	39.94
240.3	37.89
240.517	-44.03
240.735	-23.55
240.952	29.7
241.169	52.22
241.386	-1.02
241.603	5.12
241.821	-41.98
242.038	60.42
242.255	17.41
242.472	-50.18
242.689	33.79
242.907	50.18
243.124	27.65
243.341	7.17
243.558	-11.26
243.775	35.84
243.992	-41.98
244.209	-1.02
244.426	115.71
244.643	60.42
244.86	54.27
245.078	64.51
245.295	48.13
245.512	19.46
245.729	-11.26
245.946	27.65
246.163	66.56
246.38	107.52
246.597	44.03
246.814	-37.89
247.031	-56.32
247.248	-21.5
247.464	-29.7
247.681	1.02
247.898	44.03
248.115	48.13
248.332	-17.41
248.549	25.6
248.766	134.14
248.983	64.51
249.2	1.02
249.417	3.07
249.633	-48.13
249.85	76.8
250.067	13.31
250.284	-19.46
250.501	119.81
250.717	70.65
250.934	-41.98
251.151	37.89
251.368	87.04
251.585	64.51
251.801	44.03
252.018	44.03
252.235	17.41
252.451	-3.07
252.668	-15.36
252.885	80.89
253.102	-25.6
253.318	-17.41
253.535	-41.98
253.752	56.32
253.968	-15.36
254.185	-25.6
254.401	72.7
254.618	39.94
254.835	-23.55
255.051	134.14
255.268	58.37
255.484	-35.84
255.701	80.89
255.917	95.23
256.134	35.84
256.351	-31.74
256.567	-60.42
256.784	125.95
257	-74.75
257.217	66.56
257.433	33.79
257.65	58.37
257.866	91.13
258.082	-58.37
258.299	-19.46
258.515	54.27
258.732	-3.07
258.948	-11.26
259.165	78.85
259.381	-21.5
259.597	23.55
259.814	78.85
260.03	39.94
260.246	25.6
260.463	35.84
260.679	23.55
260.895	103.42
261.112	-1.02
261.328	29.7
261.544	23.55
261.761	84.99
261.977	-44.03
262.193	-60.42
262.409	89.09
262.626	117.76
262.842	89.09
263.058	-7.17
263.274	76.8
263.49	7.17
263.707	23.55
263.923	66.56
264.139	-60.42
264.355	21.5
264.571	58.37
264.787	17.41
265.004	58.37
265.22	1.02
265.436	7.17
265.652	5.12
265.868	39.94
266.084	-7.17
266.3	72.7
266.516	-27.65
266.732	37.89
266.948	80.89
267.164	66.56
267.38	25.6
267.596	66.56
267.812	84.99
268.028	19.46
268.244	48.13
268.46	17.41
268.676	11.26
268.892	7.17
269.108	-52.22
269.324	23.55
269.54	-17.41
269.756	64.51
269.972	-1.02
270.188	-1.02
270.403	-23.55
270.619	-3.07
270.835	41.98
271.051	19.46
271.267	-27.65
271.483	-33.79
271.698	-1.02
271.914	33.79
272.13	29.7
272.346	9.22
272.562	-41.98
272.777	7.17
272.993	-39.94
273.209	-1.02
273.425	44.03
273.64	-3.07
273.856	46.08
274.072	-84.99
274.287	48.13
274.503	29.7
274.719	70.65
274.934	-5.12
275.15	-87.04
275.366	7.17
275.581	68.61
275.797	-39.94
276.012	-5.12
276.228	-52.22
276.444	46.08
276.659	66.56
276.875	-1.02
277.09	33.79
277.306	-15.36
277.521	60.42
277.737	1.02
277.952	37.89
278.168	80.89
278.383	-21.5
278.599	50.18
278.814	21.5
279.03	7.17
279.245	58.37
279.461	25.6
279.676	68.61
279.892	-58.37
280.107	-46.08
280.322	9.22
280.538	15.36
280.753	21.5
280.969	11.26
281.184	31.74
281.399	117.76
281.615	23.55
281.83	31.74
282.045	29.7
282.26	-58.37
282.476	-68.61
282.691	91.13
282.906	31.74
283.122	46.08
283.337	3.07
283.552	15.36
283.767	-7.17
283.983	25.6
284.198	27.65
284.413	58.37
284.628	-33.79
284.843	-25.6
285.058	-27.65
285.274	58.37
285.489	-19.46
285.704	107.52
285.919	-35.84
286.134	17.41
286.349	5.12
286.564	-17.41
286.779	132.09
286.995	-15.36
287.21	-1.02
287.425	78.85
287.64	29.7
287.855	119.81
288.07	-44.03
288.285	46.08
288.5	41.98
288.715	46.08
288.93	-52.22
289.145	-17.41
289.36	64.51
289.575	46.08
289.79	46.08
290.004	-25.6
290.219	54.27
290.434	27.65
290.649	-31.74
290.864	37.89
291.079	21.5
291.294	64.51
291.509	62.46
291.724	19.46
291.938	-1.02
292.153	41.98
292.368	-3.07
292.583	78.85
292.798	15.36
293.012	-7.17
293.227	60.42
293.442	76.8
293.657	66.56
293.871	70.65
294.086	15.36
294.301	117.76
294.516	50.18
294.73	-29.7
294.945	1.02
295.16	-66.56
295.374	115.71
295.589	62.46
295.804	15.36
296.018	-25.6
296.233	29.7
296.447	37.89
296.662	-17.41
296.877	37.89
297.091	48.13
297.306	-15.36
297.52	-50.18
297.735	-17.41
297.949	7.17
298.164	84.99
298.378	-11.26
298.593	37.89
298.807	-9.22
299.022	5.12
299.236	48.13
299.451	58.37
299.665	39.94
299.88	31.74
300.094	7.17
300.309	21.5
300.523	27.65
300.737	41.98
300.952	44.03
301.166	-87.04
301.381	56.32
301.595	21.5
301.809	68.61
302.024	52.22
302.238	3.07
302.452	17.41
302.667	-62.46
302.881	70.65
303.095	105.47
303.309	3.07
303.524	-35.84
303.738	60.42
303.952	-29.7
304.166	23.55
304.381	-93.18
304.595	117.76
304.809	-52.22
305.023	50.18
305.237	-15.36
305.452	-23.55
305.666	44.03
305.88	23.55
306.094	66.56
306.308	-37.89
306.522	68.61
306.736	-19.46
306.95	91.13
307.164	87.04
307.379	9.22
307.593	148.48
307.807	29.7
308.021	33.79
308.235	95.23
308.449	-56.32
308.663	3.07
308.877	115.71
309.091	56.32
309.305	-48.13
309.519	-46.08
309.733	-11.26
309.947	1.02
310.161	87.04
310.374	5.12
310.588	-3.07
310.802	-31.74
311.016	46.08
311.23	11.26
311.444	-33.79
311.658	-15.36
311.872	33.79
312.085	29.7
312.299	58.37
312.513	46.08
312.727	31.74
312.941	-48.13
313.154	-19.46
313.368	15.36
313.582	-17.41
313.796	17.41
314.009	50.18
314.223	58.37
314.437	60.42
314.651	17.41
314.864	-15.36
315.078	-19.46
315.292	-62.46
315.505	-23.55
315.719	39.94
315.933	54.27
316.146	-15.36
316.36	-58.37
316.573	-1.02
316.787	125.95
317.001	23.55
317.214	-5.12
317.428	-31.74
317.641	-72.7
317.855	-13.31
318.068	19.46
318.282	15.36
318.495	68.61
318.709	1.02
318.922	-13.31
319.136	158.72
319.349	-1.02
319.563	-23.55
319.776	33.79
319.99	-37.89
320.203	-33.79
320.417	33.79
320.63	3.07
320.843	78.85
321.057	44.03
321.27	1.02
321.483	58.37
321.697	121.85
321.91	13.31
322.124	89.09
322.337	-31.74
322.55	-11.26
322.763	-25.6
322.977	23.55
323.19	-35.84
323.403	-13.31
323.617	128
323.83	103.42
324.043	25.6
324.256	33.79
324.469	9.22
324.683	44.03
324.896	29.7
325.109	-7.17
325.322	-35.84
325.535	23.55
325.748	44.03
325.962	35.84
326.175	64.51
326.388	62.46
326.601	78.85
326.814	-39.94
327.027	17.41
327.24	128
327.453	-39.94
327.666	-17.41
327.879	95.23
328.092	21.5
328.305	25.6
328.518	19.46
328.731	-50.18
328.944	41.98
329.157	-15.36
329.37	1.02
329.583	99.33
329.796	140.29
330.009	-84.99
330.222	25.6
330.435	-33.79
330.648	-15.36
330.861	35.84
331.073	3.07
331.286	48.13
331.499	33.79
331.712	-31.74
331.925	101.37
332.138	31.74
332.35	101.37
332.563	39.94
332.776	41.98
332.989	5.12
333.202	52.22
333.414	3.07
333.627	-27.65
333.84	31.74
334.053	50.18
334.265	-82.94
334.478	-62.46
334.691	56.32
334.903	31.74
335.116	7.17
335.329	37.89
335.541	64.51
335.754	93.18
335.966	-19.46
336.179	17.41
336.392	74.75
336.604	41.98
336.817	-13.31
337.029	11.26
337.242	7.17
337.454	33.79
337.667	44.03
337.88	171.01
338.092	91.13
338.305	66.56
338.517	-7.17
338.729	23.55
338.942	58.37
339.154	13.31
339.367	-5.12
339.579	7.17
339.792	60.42
340.004	-31.74
340.217	23.55
340.429	48.13
340.641	31.74
340.854	11.26
341.066	54.27
341.278	60.42
341.491	-7.17
341.703	21.5
341.915	-21.5
342.128	52.22
342.34	9.22
342.552	19.46
342.764	11.26
342.977	-9.22
343.189	84.99
343.401	56.32
343.613	17.41
343.826	-3.07
344.038	1.02
344.25	60.42
344.462	31.74
344.674	60.42
344.886	78.85
345.099	66.56
345.311	91.13
345.523	-9.22
345.735	-60.42
345.947	115.71
346.159	60.42
346.371	33.79
346.583	33.79
346.795	82.94
347.007	46.08
347.219	-1.02
347.431	99.33
347.643	35.84
347.855	-17.41
348.067	64.51
348.279	-23.55
348.491	56.32
348.703	29.7
348.915	15.36
349.127	-15.36
349.339	41.98
349.551	-15.36
349.763	89.09
349.975	60.42
350.187	76.8
350.399	97.28
350.61	54.27
350.822	44.03
351.034	76.8
351.246	13.31
351.458	25.6
351.669	21.5
351.881	91.13
352.093	13.31
352.305	91.13
352.517	-44.03
352.728	105.47
352.94	-7.17
353.152	-37.89
353.363	-15.36
353.575	46.08
353.787	54.27
353.999	82.94
354.21	46.08
354.422	31.74
354.633	33.79
354.845	52.22
355.057	25.6
355.268	46.08
355.48	64.51
355.692	-50.18
355.903	-35.84
356.115	-7.17
356.326	-62.46
356.538	33.79
356.749	64.51
356.961	78.85
357.172	15.36
357.384	-23.55
357.595	87.04
357.807	64.51
358.018	33.79
358.23	76.8
358.441	74.75
358.653	33.79
358.864	82.94
359.075	5.12
359.287	78.85
359.498	84.99
359.709	60.42
359.921	23.55
360.132	23.55
360.344	17.41
360.555	39.94
360.766	66.56
360.977	39.94
361.189	64.51
361.4	-19.46
361.611	99.33
361.823	97.28
362.034	29.7
362.245	-54.27
362.456	23.55
362.667	58.37
362.879	-19.46
363.09	39.94
363.301	50.18
363.512	62.46
363.723	48.13
363.935	-46.08
364.146	29.7
364.357	-37.89
364.568	33.79
364.779	-3.07
364.99	91.13
365.201	-70.65
365.412	70.65
365.623	-5.12
365.834	39.94
366.045	11.26
366.256	52.22
366.467	11.26
366.678	27.65
366.889	-15.36
367.1	97.28
367.311	35.84
367.522	37.89
367.733	11.26
367.944	27.65
368.155	-44.03
368.366	76.8
368.577	37.89
368.788	101.37
368.999	15.36
369.209	-25.6
369.42	117.76
369.631	99.33
369.842	80.89
370.053	-3.07
370.264	7.17
370.474	-52.22
370.685	-15.36
370.896	39.94
371.107	107.52
371.317	66.56
371.528	17.41
371.739	93.18
371.95	21.5
372.16	19.46
372.371	5.12
372.582	-21.5
372.792	39.94
373.003	62.46
373.214	52.22
373.424	7.17
373.635	-11.26
373.846	107.52
374.056	82.94
374.267	41.98
374.477	15.36
374.688	-5.12
374.898	60.42
375.109	66.56
375.319	23.55
375.53	-7.17
375.74	-11.26
375.951	39.94
376.161	37.89
376.372	111.61
376.582	31.74
376.793	50.18
377.003	5.12
377.214	3.07
377.424	25.6
377.635	66.56
377.845	7.17
378.055	97.28
378.266	11.26
378.476	56.32
378.686	64.51
378.897	23.55
379.107	123.9
379.317	62.46
379.528	95.23
379.738	70.65
379.948	23.55
380.158	89.09
380.369	46.08
380.579	33.79
380.789	115.71
380.999	76.8
381.21	39.94
381.42	103.42
381.63	21.5
381.84	44.03
382.05	-27.65
382.261	41.98
382.471	80.89
382.681	13.31
382.891	91.13
383.101	109.57
383.311	46.08
383.521	62.46
383.731	33.79
383.941	64.51
384.151	33.79
384.361	41.98
384.571	48.13
384.781	82.94
384.991	66.56
385.201	109.57
385.411	41.98
385.621	72.7
385.831	19.46
386.041	31.74
386.251	37.89
386.461	128
386.671	31.74
386.881	121.85
387.091	-41.98
387.301	82.94
387.511	-19.46
387.72	48.13
387.93	95.23
388.14	-58.37
388.35	-3.07
388.56	148.48
388.769	21.5
388.979	-15.36
389.189	9.22
389.399	39.94
389.609	9.22
389.818	33.79
390.028	76.8
390.238	17.41
390.447	-15.36
390.657	37.89
390.867	50.18
391.076	-31.74
391.286	5.12
391.496	-46.08
391.705	-25.6
391.915	-3.07
392.125	76.8
392.334	-39.94
392.544	56.32
392.753	62.46
392.963	-23.55
393.172	99.33
393.382	-11.26
393.591	134.14
393.801	101.37
394.01	41.98
394.22	56.32
394.429	29.7
394.639	64.51
394.848	66.56
395.058	50.18
395.267	87.04
395.477	33.79
395.686	56.32
395.895	76.8
396.105	160.77
396.314	44.03
396.524	39.94
396.733	35.84
396.942	60.42
397.152	21.5
397.361	128
397.57	68.61
397.78	70.65
397.989	125.95
398.198	89.09
398.407	113.66
398.617	64.51
398.826	89.09
399.035	3.07
399.244	105.47
399.453	84.99
399.663	-3.07
399.872	68.61
400.081	-21.5
400.29	191.49
400.499	17.41
400.708	148.48
400.917	19.46
401.127	80.89
401.336	19.46
401.545	138.24
401.754	130.05
401.963	39.94
402.172	78.85
402.381	50.18
402.59	21.5
402.799	74.75
403.008	107.52
403.217	187.39
403.426	78.85
403.635	15.36
403.844	52.22
404.053	97.28
404.262	11.26
404.471	107.52
404.68	91.13
404.888	-3.07
405.097	3.07
405.306	95.23
405.515	76.8
405.724	35.84
405.933	105.47
406.142	103.42
406.35	195.58
406.559	56.32
406.768	166.91
406.977	74.75
407.185	109.57
407.394	140.29
407.603	33.79
407.812	109.57
408.02	146.43
408.229	179.2
408.438	166.91
408.646	78.85
408.855	105.47
409.064	152.57
409.272	171.01
409.481	185.34
409.69	76.8
409.898	119.81
410.107	224.25
410.315	220.16
410.524	193.53
410.733	173.05
410.941	242.68
411.15	207.87
411.358	220.16
411.567	238.59
411.775	197.63
411.984	238.59
412.192	269.31
412.401	277.5
412.609	312.32
412.818	320.51
413.026	357.37
413.234	273.4
413.443	343.03
413.651	312.32
413.86	220.16
414.068	275.45
414.276	427
414.485	367.61
414.693	408.57
414.901	377.85
415.11	381.95
415.318	390.14
415.526	433.15
415.734	527.35
415.943	447.48
416.151	551.93
416.359	525.3
416.567	494.58
416.776	527.35
416.984	621.56
417.192	578.55
417.4	586.74
417.608	539.64
417.817	599.03
418.025	666.61
418.233	785.4
418.441	656.37
418.649	582.65
418.857	754.68
419.065	865.27
419.273	719.86
419.481	775.16
419.689	865.27
419.897	771.06
420.105	869.36
420.313	967.67
420.521	1000.43
420.729	926.71
420.937	959.47
421.145	977.91
421.353	1055.73
421.561	1049.58
421.769	1106.93
421.977	1100.78
422.185	1156.08
422.393	1256.43
422.601	1295.34
422.809	1207.28
423.017	1246.19
423.224	1270.76
423.432	1420.27
423.64	1403.88
423.848	1573.86
424.056	1475.56
424.263	1541.1
424.471	1543.14
424.679	1711.08
424.887	1653.73
425.094	1813.48
425.302	1674.21
425.51	1745.89
425.718	1934.31
425.925	1905.63
426.133	1868.77
426.341	2124.77
426.548	2145.25
426.756	2175.97
426.964	2188.25
427.171	2337.76
427.379	2403.29
427.586	2401.24
427.794	2595.8
428.001	2647
428.209	2737.11
428.417	2659.29
428.624	2864.08
428.832	3056.59
429.039	2857.94
429.247	2835.41
429.454	3148.75
429.662	3316.69
429.869	3097.55
430.076	3421.13
430.284	3210.19
430.491	3458
430.699	3552.2
430.906	3615.69
431.114	3648.46
431.321	3779.53
431.528	3685.32
431.736	3963.84
431.943	4256.7
432.15	4125.63
432.358	4156.35
432.565	4516.8
432.772	4481.98
432.979	4578.23
433.187	4776.89
433.394	4539.32
433.601	4979.64
433.808	5198.77
434.016	5190.58
434.223	5149.62
434.43	5516.2
434.637	5454.76
434.844	5792.68
435.052	5876.65
435.259	5884.84
435.466	5925.8
435.673	5831.59
435.88	6237.09
436.087	6562.72
436.294	6529.95
436.501	6470.56
436.708	6593.44
436.915	6669.21
437.122	6992.79
437.329	7050.13
437.537	7177.11
437.743	7383.95
437.95	7373.71
438.157	7642
438.364	7861.13
438.571	7805.83
438.778	8141.7
438.985	8610.68
439.192	8430.46
439.399	8532.86
439.606	8342.4
439.813	8850.3
440.02	9513.84
440.227	9341.81
440.433	9184.12
440.64	9657.2
440.847	9581.42
441.054	9659.24
441.261	10251.11
441.467	9902.95
441.674	10271.59
441.881	10650.46
442.088	10589.02
442.294	10650.46
442.501	10986.33
442.708	11187.03
442.914	11463.51
443.121	12008.26
443.328	11570
443.534	12667.71
443.741	12165.96
443.948	11981.64
444.154	13013.82
444.361	12774.21
444.568	12825.4
444.774	13087.54
444.981	13005.63
445.187	13581.1
445.394	14082.86
445.6	13634.35
445.807	15055.64
446.013	14373.67
446.22	14723.87
446.426	15475.48
446.633	15342.36
446.839	15762.19
447.046	15389.46
447.252	16079.63
447.459	16220.94
447.665	15936.27
447.871	16737.02
448.078	17455.86
448.284	16657.15
448.491	16986.88
448.697	17941.23
448.903	18080.49
449.11	18254.57
449.316	17576.69
449.522	18178.79
449.728	18526.95
449.935	19139.29
450.141	18754.27
450.347	19335.9
450.553	18561.76
450.76	18848.48
450.966	19444.44
451.172	19356.38
451.378	19991.25
451.584	19397.34
451.791	19796.69
451.997	19823.31
452.203	20064.97
452.409	20337.35
452.615	19968.72
452.821	19270.36
453.027	19352.28
453.233	20249.29
453.44	19372.76
453.646	19616.47
453.852	19745.49
454.058	20079.31
454.264	19616.47
454.47	19808.98
454.676	19227.35
454.882	20050.64
455.088	18055.92
455.294	18469.61
455.5	18823.9
455.705	19342.04
455.911	18223.85
456.117	17670.9
456.323	17638.13
456.529	16642.82
456.735	17509.11
456.941	16986.88
457.147	16886.53
457.352	16237.32
457.558	15966.99
457.764	16110.35
457.97	15833.87
458.176	15287.06
458.381	15616.79
458.587	14773.02
458.793	14572.32
458.999	13845.29
459.204	15123.23
459.41	14414.63
459.616	13468.47
459.821	13630.26
460.027	13060.92
460.233	13079.35
460.438	12313.41
460.644	12616.51
460.85	12190.53
461.055	11803.47
461.261	11856.72
461.466	10992.47
461.672	10705.76
461.878	11535.18
462.083	10738.52
462.289	10537.82
462.494	10191.72
462.7	9974.63
462.905	9569.13
463.111	9911.14
463.316	9952.1
463.522	9773.93
463.727	9749.36
463.932	9624.43
464.138	9646.96
464.343	9530.22
464.549	9497.46
464.754	9757.55
464.959	9579.37
465.165	9331.57
465.37	9040.76
465.575	8811.39
465.781	9284.47
465.986	9208.69
466.191	8987.51
466.397	8747.9
466.602	8285.06
466.807	8508.29
467.012	8680.32
467.218	8596.35
467.423	8420.22
467.628	8358.78
