Data from USB4F104151__6__12-11-15-712.txt Node

Date: Fri Mar 14 12:11:15 EDT 2025
User: louis
Spectrometer: USB4F10415
Trigger mode: 4
Integration Time (sec): 5.000000E-2
Scans to average: 1
Electric dark correction enabled: true
Nonlinearity correction enabled: false
Boxcar width: 0
XAxis mode: Wavelengths
Number of Pixels in Spectrum: 3648
>>>>>Begin Spectral Data<<<<<
178.204	-233.81
178.424	-233.81
178.644	-233.81
178.864	-254.29
179.084	-254.29
179.304	-8.53
179.524	-76.12
179.744	-16.73
179.964	69.29
180.184	-29.01
180.404	75.43
180.624	28.33
180.844	7.85
181.064	-72.02
181.283	20.14
181.503	-31.06
181.723	32.43
181.943	-33.11
182.163	38.57
182.383	7.85
182.602	-67.92
182.822	42.67
183.042	24.23
183.262	-59.73
183.482	44.71
183.701	11.95
183.921	18.09
184.141	-43.35
184.361	95.91
184.58	-0.34
184.8	32.43
185.02	-24.92
185.239	71.34
185.459	63.15
185.679	95.91
185.898	-74.07
186.118	40.62
186.338	-20.82
186.557	79.53
186.777	-86.36
186.997	7.85
187.216	5.8
187.436	-2.39
187.655	48.81
187.875	30.38
188.095	-39.25
188.314	32.43
188.534	77.48
188.753	-45.4
188.973	24.23
189.192	130.73
189.412	-2.39
189.631	54.95
189.851	13.99
190.07	79.53
190.29	-88.4
190.509	48.81
190.729	-18.77
190.948	32.43
191.168	198.31
191.387	34.47
191.607	-31.06
191.826	50.86
192.045	-24.92
192.265	54.95
192.484	20.14
192.704	-2.39
192.923	-37.2
193.142	63.15
193.362	59.05
193.581	93.87
193.8	52.91
194.02	-16.73
194.239	-16.73
194.458	71.34
194.678	24.23
194.897	42.67
195.116	1.71
195.335	11.95
195.555	20.14
195.774	-59.73
195.993	106.15
196.212	-31.06
196.432	-22.87
196.651	9.9
196.87	1.71
197.089	42.67
197.308	-18.77
197.528	71.34
197.747	-26.96
197.966	46.76
198.185	32.43
198.404	22.19
198.623	79.53
198.842	-20.82
199.062	50.86
199.281	30.38
199.5	16.04
199.719	24.23
199.938	38.57
200.157	81.58
200.376	130.73
200.595	44.71
200.814	93.87
201.033	36.52
201.252	44.71
201.471	38.57
201.69	77.48
201.909	85.67
202.128	93.87
202.347	46.76
202.566	138.92
202.785	-31.06
203.004	48.81
203.223	104.11
203.442	-35.16
203.661	-12.63
203.879	54.95
204.098	73.39
204.317	3.75
204.536	108.2
204.755	52.91
204.974	63.15
205.193	-6.49
205.411	59.05
205.63	-8.53
205.849	-20.82
206.068	52.91
206.287	-4.44
206.505	61.1
206.724	42.67
206.943	-12.63
207.162	-6.49
207.381	22.19
207.599	-35.16
207.818	9.9
208.037	59.05
208.255	-39.25
208.474	7.85
208.693	36.52
208.911	-22.87
209.13	-8.53
209.349	13.99
209.567	100.01
209.786	114.34
210.005	48.81
210.223	50.86
210.442	-49.49
210.661	32.43
210.879	20.14
211.098	24.23
211.316	-24.92
211.535	-14.68
211.753	-39.25
211.972	67.24
212.191	-55.64
212.409	3.75
212.628	13.99
212.846	-4.44
213.065	7.85
213.283	1.71
213.502	108.2
213.72	5.8
213.938	42.67
214.157	-2.39
214.375	36.52
214.594	13.99
214.812	81.58
215.031	77.48
215.249	20.14
215.467	-6.49
215.686	1.71
215.904	77.48
216.122	-16.73
216.341	110.25
216.559	61.1
216.778	32.43
216.996	59.05
217.214	1.71
217.432	46.76
217.651	-31.06
217.869	71.34
218.087	28.33
218.306	-14.68
218.524	30.38
218.742	5.8
218.96	-31.06
219.179	-4.44
219.397	7.85
219.615	112.3
219.833	28.33
220.051	-6.49
220.27	104.11
220.488	5.8
220.706	-22.87
220.924	-55.64
221.142	-47.44
221.36	-6.49
221.578	5.8
221.796	-51.54
222.015	50.86
222.233	28.33
222.451	89.77
222.669	-63.83
222.887	-6.49
223.105	42.67
223.323	13.99
223.541	-33.11
223.759	40.62
223.977	1.71
224.195	28.33
224.413	24.23
224.631	36.52
224.849	-0.34
225.067	120.49
225.285	-55.64
225.503	-37.2
225.721	-94.55
225.939	30.38
226.157	7.85
226.375	110.25
226.592	-33.11
226.81	16.04
227.028	79.53
227.246	52.91
227.464	42.67
227.682	36.52
227.9	5.8
228.117	102.06
228.335	-41.3
228.553	16.04
228.771	44.71
228.989	30.38
229.206	-4.44
229.424	20.14
229.642	-41.3
229.86	-35.16
230.077	104.11
230.295	-4.44
230.513	75.43
230.731	-0.34
230.948	7.85
231.166	54.95
231.384	-90.45
231.601	1.71
231.819	71.34
232.037	13.99
232.254	-39.25
232.472	18.09
232.689	-37.2
232.907	18.09
233.125	26.28
233.342	7.85
233.56	-10.58
233.777	-37.2
233.995	-4.44
234.213	13.99
234.43	36.52
234.648	9.9
234.865	-18.77
235.083	-16.73
235.3	22.19
235.518	40.62
235.735	63.15
235.953	93.87
236.17	11.95
236.388	24.23
236.605	-61.78
236.822	-6.49
237.04	-0.34
237.257	57
237.475	-51.54
237.692	40.62
237.909	-51.54
238.127	-35.16
238.344	48.81
238.562	-4.44
238.779	-29.01
238.996	-92.5
239.214	-59.73
239.431	69.29
239.648	-35.16
239.865	20.14
240.083	11.95
240.3	52.91
240.517	9.9
240.735	-10.58
240.952	34.47
241.169	-4.44
241.386	-20.82
241.603	-2.39
241.821	26.28
242.038	-51.54
242.255	65.19
242.472	-35.16
242.689	20.14
242.907	38.57
243.124	-2.39
243.341	1.71
243.558	24.23
243.775	46.76
243.992	-61.78
244.209	38.57
244.426	93.87
244.643	54.95
244.86	13.99
245.078	22.19
245.295	116.39
245.512	-8.53
245.729	18.09
245.946	40.62
246.163	75.43
246.38	32.43
246.597	7.85
246.814	13.99
247.031	-16.73
247.248	52.91
247.464	97.96
247.681	42.67
247.898	77.48
248.115	71.34
248.332	-6.49
248.549	75.43
248.766	54.95
248.983	30.38
249.2	132.78
249.417	104.11
249.633	28.33
249.85	-14.68
250.067	22.19
250.284	-14.68
250.501	120.49
250.717	-12.63
250.934	3.75
251.151	34.47
251.368	22.19
251.585	75.43
251.801	13.99
252.018	-35.16
252.235	34.47
252.451	-20.82
252.668	-4.44
252.885	59.05
253.102	-4.44
253.318	42.67
253.535	-61.78
253.752	-69.97
253.968	-24.92
254.185	-12.63
254.401	46.76
254.618	34.47
254.835	-4.44
255.051	102.06
255.268	67.24
255.484	83.63
255.701	32.43
255.917	28.33
256.134	-16.73
256.351	22.19
256.567	-65.88
256.784	38.57
257	-18.77
257.217	100.01
257.433	22.19
257.65	79.53
257.866	73.39
258.082	-45.4
258.299	-0.34
258.515	63.15
258.732	22.19
258.948	-61.78
259.165	-0.34
259.381	-39.25
259.597	50.86
259.814	26.28
260.03	-6.49
260.246	-84.31
260.463	38.57
260.679	65.19
260.895	-4.44
261.112	46.76
261.328	-51.54
261.544	28.33
261.761	126.63
261.977	42.67
262.193	-37.2
262.409	-24.92
262.626	9.9
262.842	-8.53
263.058	-12.63
263.274	48.81
263.49	-29.01
263.707	122.54
263.923	-10.58
264.139	-74.07
264.355	65.19
264.571	71.34
264.787	34.47
265.004	59.05
265.22	28.33
265.436	42.67
265.652	22.19
265.868	16.04
266.084	-8.53
266.3	-2.39
266.516	-112.98
266.732	34.47
266.948	-22.87
267.164	20.14
267.38	40.62
267.596	57
267.812	26.28
268.028	-18.77
268.244	52.91
268.46	93.87
268.676	-31.06
268.892	42.67
269.108	-24.92
269.324	-10.58
269.54	3.75
269.756	48.81
269.972	-0.34
270.188	-55.64
270.403	-10.58
270.619	44.71
270.835	40.62
271.051	20.14
271.267	-96.6
271.483	7.85
271.698	44.71
271.914	28.33
272.13	3.75
272.346	44.71
272.562	48.81
272.777	79.53
272.993	-86.36
273.209	-2.39
273.425	7.85
273.64	-59.73
273.856	48.81
274.072	24.23
274.287	-0.34
274.503	-18.77
274.719	36.52
274.934	-4.44
275.15	-20.82
275.366	-55.64
275.581	26.28
275.797	-0.34
276.012	11.95
276.228	65.19
276.444	34.47
276.659	91.82
276.875	-49.49
277.09	34.47
277.306	7.85
277.521	38.57
277.737	-100.69
277.952	-24.92
278.168	-31.06
278.383	-4.44
278.599	3.75
278.814	3.75
279.03	75.43
279.245	22.19
279.461	38.57
279.676	-14.68
279.892	-69.97
280.107	-24.92
280.322	-41.3
280.538	13.99
280.753	-12.63
280.969	28.33
281.184	-8.53
281.399	126.63
281.615	9.9
281.83	18.09
282.045	-14.68
282.26	-12.63
282.476	9.9
282.691	81.58
282.906	9.9
283.122	18.09
283.337	-37.2
283.552	7.85
283.767	3.75
283.983	85.67
284.198	67.24
284.413	50.86
284.628	-45.4
284.843	-4.44
285.058	-10.58
285.274	-0.34
285.489	-41.3
285.704	104.11
285.919	32.43
286.134	-8.53
286.349	-2.39
286.564	-102.74
286.779	57
286.995	52.91
287.21	5.8
287.425	100.01
287.64	28.33
287.855	40.62
288.07	-108.88
288.285	120.49
288.5	110.25
288.715	11.95
288.93	-2.39
289.145	-47.44
289.36	61.1
289.575	-18.77
289.79	69.29
290.004	-10.58
290.219	28.33
290.434	-2.39
290.649	-2.39
290.864	-16.73
291.079	-14.68
291.294	30.38
291.509	-33.11
291.724	30.38
291.938	52.91
292.153	50.86
292.368	-33.11
292.583	110.25
292.798	83.63
293.012	-14.68
293.227	93.87
293.442	18.09
293.657	65.19
293.871	104.11
294.086	-69.97
294.301	116.39
294.516	110.25
294.73	22.19
294.945	-43.35
295.16	38.57
295.374	91.82
295.589	54.95
295.804	-33.11
296.018	-16.73
296.233	48.81
296.447	-18.77
296.662	-74.07
296.877	32.43
297.091	-2.39
297.306	7.85
297.52	40.62
297.735	81.58
297.949	-6.49
298.164	46.76
298.378	-6.49
298.593	-31.06
298.807	-12.63
299.022	63.15
299.236	22.19
299.451	-47.44
299.665	22.19
299.88	36.52
300.094	104.11
300.309	48.81
300.523	-0.34
300.737	-53.59
300.952	57
301.166	11.95
301.381	13.99
301.595	-20.82
301.809	-20.82
302.024	52.91
302.238	7.85
302.452	46.76
302.667	40.62
302.881	89.77
303.095	-4.44
303.309	63.15
303.524	-65.88
303.738	61.1
303.952	-6.49
304.166	48.81
304.381	-102.74
304.595	89.77
304.809	-0.34
305.023	11.95
305.237	-22.87
305.452	-0.34
305.666	93.87
305.88	-0.34
306.094	9.9
306.308	36.52
306.522	93.87
306.736	57
306.95	16.04
307.164	-59.73
307.379	-24.92
307.593	59.05
307.807	83.63
308.021	52.91
308.235	-6.49
308.449	-45.4
308.663	-6.49
308.877	157.35
309.091	-2.39
309.305	54.95
309.519	-20.82
309.733	91.82
309.947	-20.82
310.161	-16.73
310.374	59.05
310.588	83.63
310.802	-31.06
311.016	-26.96
311.23	18.09
311.444	-10.58
311.658	81.58
311.872	81.58
312.085	1.71
312.299	63.15
312.513	65.19
312.727	-14.68
312.941	-18.77
313.154	-31.06
313.368	9.9
313.582	11.95
313.796	22.19
314.009	22.19
314.223	69.29
314.437	50.86
314.651	59.05
314.864	5.8
315.078	-33.11
315.292	-35.16
315.505	-20.82
315.719	36.52
315.933	-4.44
316.146	30.38
316.36	-0.34
316.573	69.29
316.787	-8.53
317.001	108.2
317.214	-22.87
317.428	85.67
317.641	-57.68
317.855	-29.01
318.068	71.34
318.282	30.38
318.495	50.86
318.709	-12.63
318.922	65.19
319.136	69.29
319.349	34.47
319.563	-20.82
319.776	59.05
319.99	-22.87
320.203	73.39
320.417	5.8
320.63	28.33
320.843	71.34
321.057	-57.68
321.27	20.14
321.483	18.09
321.697	77.48
321.91	3.75
322.124	-4.44
322.337	5.8
322.55	-14.68
322.763	9.9
322.977	110.25
323.19	20.14
323.403	38.57
323.617	20.14
323.83	48.81
324.043	52.91
324.256	81.58
324.469	-63.83
324.683	46.76
324.896	69.29
325.109	40.62
325.322	-18.77
325.535	28.33
325.748	69.29
325.962	13.99
326.175	71.34
326.388	48.81
326.601	36.52
326.814	20.14
327.027	24.23
327.24	-0.34
327.453	-41.3
327.666	-8.53
327.879	91.82
328.092	5.8
328.305	38.57
328.518	26.28
328.731	-4.44
328.944	42.67
329.157	52.91
329.37	-55.64
329.583	52.91
329.796	71.34
330.009	-35.16
330.222	114.34
330.435	5.8
330.648	24.23
330.861	1.71
331.073	5.8
331.286	116.39
331.499	9.9
331.712	48.81
331.925	16.04
332.138	-18.77
332.35	-80.21
332.563	13.99
332.776	5.8
332.989	-16.73
333.202	28.33
333.414	24.23
333.627	16.04
333.84	-22.87
334.053	44.71
334.265	71.34
334.478	26.28
334.691	67.24
334.903	-43.35
335.116	32.43
335.329	71.34
335.541	65.19
335.754	59.05
335.966	-35.16
336.179	-63.83
336.392	63.15
336.604	44.71
336.817	81.58
337.029	3.75
337.242	-0.34
337.454	77.48
337.667	-0.34
337.88	108.2
338.092	24.23
338.305	-33.11
338.517	-72.02
338.729	-12.63
338.942	42.67
339.154	32.43
339.367	-6.49
339.579	97.96
339.792	-51.54
340.004	40.62
340.217	-47.44
340.429	11.95
340.641	-4.44
340.854	20.14
341.066	89.77
341.278	-45.4
341.491	89.77
341.703	-0.34
341.915	-51.54
342.128	79.53
342.34	34.47
342.552	-4.44
342.764	18.09
342.977	13.99
343.189	65.19
343.401	30.38
343.613	-65.88
343.826	-80.21
344.038	-14.68
344.25	65.19
344.462	3.75
344.674	-20.82
344.886	36.52
345.099	57
345.311	28.33
345.523	-16.73
345.735	-86.36
345.947	34.47
346.159	-33.11
346.371	16.04
346.583	1.71
346.795	110.25
347.007	-12.63
347.219	36.52
347.431	34.47
347.643	95.91
347.855	-59.73
348.067	116.39
348.279	3.75
348.491	7.85
348.703	83.63
348.915	54.95
349.127	52.91
349.339	24.23
349.551	-37.2
349.763	48.81
349.975	34.47
350.187	32.43
350.399	11.95
350.61	22.19
350.822	73.39
351.034	7.85
351.246	-35.16
351.458	57
351.669	46.76
351.881	34.47
352.093	22.19
352.305	63.15
352.517	67.24
352.728	63.15
352.94	26.28
353.152	-16.73
353.363	22.19
353.575	61.1
353.787	69.29
353.999	9.9
354.21	130.73
354.422	-12.63
354.633	22.19
354.845	-37.2
355.057	16.04
355.268	-10.58
355.48	24.23
355.692	-76.12
355.903	63.15
356.115	18.09
356.326	-41.3
356.538	116.39
356.749	97.96
356.961	93.87
357.172	20.14
357.384	3.75
357.595	114.34
357.807	-31.06
358.018	-16.73
358.23	40.62
358.441	46.76
358.653	93.87
358.864	7.85
359.075	11.95
359.287	13.99
359.498	89.77
359.709	24.23
359.921	-24.92
360.132	38.57
360.344	42.67
360.555	32.43
360.766	38.57
360.977	-22.87
361.189	79.53
361.4	7.85
361.611	61.1
361.823	67.24
362.034	-2.39
362.245	-22.87
362.456	24.23
362.667	-45.4
362.879	-69.97
363.09	1.71
363.301	132.78
363.512	-45.4
363.723	-0.34
363.935	69.29
364.146	22.19
364.357	-12.63
364.568	54.95
364.779	1.71
364.99	110.25
365.201	42.67
365.412	46.76
365.623	-22.87
365.834	34.47
366.045	18.09
366.256	102.06
366.467	20.14
366.678	22.19
366.889	32.43
367.1	22.19
367.311	79.53
367.522	24.23
367.733	-6.49
367.944	28.33
368.155	7.85
368.366	52.91
368.577	48.81
368.788	54.95
368.999	-4.44
369.209	59.05
369.42	104.11
369.631	138.92
369.842	52.91
370.053	28.33
370.264	-39.25
370.474	-4.44
370.685	-16.73
370.896	22.19
371.107	61.1
371.317	-26.96
371.528	-16.73
371.739	16.04
371.95	40.62
372.16	-10.58
372.371	-22.87
372.582	83.63
372.792	3.75
373.003	34.47
373.214	24.23
373.424	122.54
373.635	-31.06
373.846	106.15
374.056	77.48
374.267	26.28
374.477	-49.49
374.688	-0.34
374.898	40.62
375.109	75.43
375.319	34.47
375.53	61.1
375.74	-10.58
375.951	22.19
376.161	9.9
376.372	136.87
376.582	-2.39
376.793	-2.39
377.003	-0.34
377.214	44.71
377.424	71.34
377.635	32.43
377.845	5.8
378.055	42.67
378.266	-29.01
378.476	110.25
378.686	18.09
378.897	-24.92
379.107	114.34
379.317	77.48
379.528	9.9
379.738	52.91
379.948	-29.01
380.158	91.82
380.369	9.9
380.579	54.95
380.789	28.33
380.999	75.43
381.21	-8.53
381.42	120.49
381.63	54.95
381.84	106.15
382.05	57
382.261	134.82
382.471	63.15
382.681	97.96
382.891	93.87
383.101	3.75
383.311	-41.3
383.521	30.38
383.731	57
383.941	46.76
384.151	61.1
384.361	-20.82
384.571	61.1
384.781	3.75
384.991	85.67
385.201	157.35
385.411	71.34
385.621	11.95
385.831	34.47
386.041	-4.44
386.251	-16.73
386.461	54.95
386.671	44.71
386.881	71.34
387.091	-63.83
387.301	67.24
387.511	-6.49
387.72	48.81
387.93	93.87
388.14	30.38
388.35	-49.49
388.56	102.06
388.769	132.78
388.979	48.81
389.189	-43.35
389.399	-26.96
389.609	65.19
389.818	97.96
390.028	44.71
390.238	65.19
390.447	63.15
390.657	97.96
390.867	13.99
391.076	20.14
391.286	-0.34
391.496	-2.39
391.705	-10.58
391.915	69.29
392.125	52.91
392.334	22.19
392.544	89.77
392.753	63.15
392.963	85.67
393.172	26.28
393.382	87.72
393.591	97.96
393.801	44.71
394.01	97.96
394.22	54.95
394.429	-31.06
394.639	73.39
394.848	116.39
395.058	69.29
395.267	-31.06
395.477	91.82
395.686	91.82
395.895	140.97
396.105	134.82
396.314	116.39
396.524	136.87
396.733	124.58
396.942	155.3
397.152	67.24
397.361	85.67
397.57	124.58
397.78	48.81
397.989	63.15
398.198	116.39
398.407	13.99
398.617	71.34
398.826	100.01
399.035	34.47
399.244	91.82
399.453	71.34
399.663	116.39
399.872	77.48
400.081	-2.39
400.29	212.65
400.499	13.99
400.708	85.67
400.917	48.81
401.127	110.25
401.336	48.81
401.545	153.26
401.754	106.15
401.963	179.88
402.172	57
402.381	26.28
402.59	81.58
402.799	97.96
403.008	108.2
403.217	38.57
403.426	36.52
403.635	16.04
403.844	75.43
404.053	118.44
404.262	59.05
404.471	202.41
404.68	136.87
404.888	83.63
405.097	30.38
405.306	124.58
405.515	110.25
405.724	186.02
405.933	245.41
406.142	198.31
406.35	143.02
406.559	165.54
406.768	149.16
406.977	247.46
407.185	128.68
407.394	200.36
407.603	57
407.812	229.03
408.02	204.46
408.229	149.16
408.438	255.65
408.646	188.07
408.855	210.6
409.064	206.5
409.272	173.74
409.481	282.28
409.69	235.18
409.898	233.13
410.107	276.13
410.315	323.24
410.524	206.5
410.733	337.57
410.941	253.61
411.15	341.67
411.358	353.96
411.567	390.82
411.775	370.34
411.984	321.19
412.192	433.83
412.401	380.58
412.609	462.5
412.818	433.83
413.026	456.36
413.234	480.93
413.443	413.35
413.651	468.64
413.86	495.27
414.068	595.62
414.276	575.14
414.485	560.8
414.693	595.62
414.901	655.01
415.11	593.57
415.318	571.04
415.526	607.91
415.734	667.3
415.943	642.72
416.151	722.59
416.359	642.72
416.567	757.41
416.776	800.41
416.984	868
417.192	913.05
417.4	833.18
417.608	851.61
417.817	892.57
418.025	843.42
418.233	1033.88
418.441	980.64
418.649	990.88
418.857	1046.17
419.065	1152.67
419.273	1117.85
419.481	1109.66
419.689	1212.06
419.897	1271.45
420.105	1234.58
420.313	1349.27
420.521	1590.93
420.729	1537.68
420.937	1367.7
421.145	1478.29
421.353	1693.33
421.561	1724.05
421.769	1726.1
421.977	1724.05
422.185	1676.95
422.393	1918.61
422.601	2059.92
422.809	1918.61
423.017	1973.9
423.224	2008.72
423.432	2145.93
423.64	2078.35
423.848	2313.86
424.056	2236.04
424.263	2500.23
424.471	2434.69
424.679	2492.04
424.887	2610.82
425.094	2752.13
425.302	2590.34
425.51	2819.71
425.718	2870.91
425.925	2938.49
426.133	3022.46
426.341	3188.35
426.548	3468.92
426.756	3325.56
426.964	3333.75
427.171	3653.23
427.379	3708.53
427.586	3772.02
427.794	3870.32
428.001	3964.53
428.209	4243.05
428.417	4269.67
428.624	4578.92
428.832	4421.22
429.039	4324.97
429.247	4378.22
429.454	4789.86
429.662	5221.98
429.869	4933.22
430.076	5293.66
430.284	4931.17
430.491	5230.17
430.699	5660.24
430.906	5674.58
431.114	5695.06
431.321	5867.09
431.528	5903.95
431.736	6342.22
431.943	6723.14
432.15	6461
432.358	6346.31
432.565	6870.59
432.772	6929.98
432.979	7188.03
433.187	7355.96
433.394	7413.31
433.601	7792.18
433.808	7702.07
434.016	7872.05
434.223	8181.29
434.43	8617.51
434.637	8457.77
434.844	9123.36
435.052	9000.48
435.259	9227.81
435.466	9049.63
435.673	9166.37
435.88	9817.62
436.087	10073.62
436.294	10331.66
436.501	10196.5
436.708	10118.67
436.915	10245.65
437.122	11062.79
437.329	10941.96
437.537	11435.52
437.743	11392.51
437.95	11318.78
438.157	11783.67
438.364	12223.98
438.571	12203.5
438.778	12383.73
438.985	13268.45
439.192	13014.5
439.399	13254.11
439.606	12940.77
439.813	13927.89
440.02	14687.69
440.227	14403.02
440.433	14091.73
440.64	14530
440.847	14411.21
441.054	14958.02
441.261	15963.58
441.467	15908.28
441.674	16149.94
441.881	16760.23
442.088	16610.73
442.294	16483.76
442.501	17075.62
442.708	17196.45
442.914	17644.96
443.121	18652.56
443.328	17968.54
443.534	19436.93
443.741	18863.5
443.948	18746.76
444.154	20090.23
444.361	20229.49
444.568	19936.63
444.774	20090.23
444.981	20053.37
445.187	20938.09
445.394	21802.33
445.6	21532
445.807	23362.89
446.013	22521.17
446.22	22785.36
446.426	23708.99
446.633	24055.1
446.839	25031.98
447.046	23774.53
447.252	25101.61
447.459	25013.55
447.665	24814.9
447.871	25967.9
448.078	27077.9
448.284	25947.42
448.491	26926.35
448.697	27716.87
448.903	28337.4
449.11	28181.76
449.316	27540.74
449.522	28468.47
449.728	29310.19
449.935	29203.69
450.141	29082.86
450.347	29721.83
450.553	28830.96
450.76	29244.65
450.966	30358.75
451.172	29725.93
451.378	30655.7
451.584	29990.11
451.791	30573.78
451.997	30526.68
452.203	30969.04
452.409	31188.17
452.615	31040.72
452.821	29850.85
453.027	29506.79
453.233	31134.93
453.44	30049.5
453.646	30201.05
453.852	30479.58
454.058	30733.53
454.264	29809.89
454.47	30534.87
454.676	29441.26
454.882	30461.15
455.088	27915.52
455.294	28257.53
455.5	28581.11
455.705	29304.04
455.911	27864.32
456.117	27350.28
456.323	26799.38
456.529	25568.55
456.735	26617.11
456.941	26058.01
457.147	25386.28
457.352	24868.14
457.558	24511.8
457.764	24737.07
457.97	23887.17
458.176	23575.87
458.381	23502.15
458.587	22216.02
458.793	22398.29
458.999	21233
459.204	22850.89
459.41	21880.16
459.616	20587.89
459.821	20653.42
460.027	20532.59
460.233	20010.36
460.438	19094.92
460.644	19238.28
460.85	18062.74
461.055	18161.05
461.261	17921.43
461.466	16448.94
461.672	16164.28
461.878	17079.72
462.083	15990.2
462.289	15578.56
462.494	15697.34
462.7	15056.32
462.905	14790.09
463.111	15308.23
463.316	15162.82
463.522	14628.3
463.727	14923.21
463.932	14767.56
464.138	14525.9
464.343	14749.13
464.549	14134.74
464.754	14773.71
464.959	14577.1
465.165	14319.06
465.37	13913.56
465.575	13534.68
465.781	14075.35
465.986	13905.37
466.191	13604.32
466.397	13313.5
466.602	12834.28
