Data from USB4F104151__99__12-13-19-398.txt Node

Date: Fri Mar 14 12:13:19 EDT 2025
User: louis
Spectrometer: USB4F10415
Trigger mode: 4
Integration Time (sec): 5.000000E-2
Scans to average: 1
Electric dark correction enabled: true
Nonlinearity correction enabled: false
Boxcar width: 0
XAxis mode: Wavelengths
Number of Pixels in Spectrum: 3648
>>>>>Begin Spectral Data<<<<<
178.204	-178.69
178.424	-178.69
178.644	-178.69
178.864	-248.32
179.084	-166.4
179.304	-2.56
179.524	5.63
179.744	-39.42
179.964	44.54
180.184	5.63
180.404	13.82
180.624	30.21
180.844	36.35
181.064	-43.52
181.283	-20.99
181.503	-70.14
181.723	40.45
181.943	-86.53
182.163	58.88
182.383	-41.47
182.602	15.87
182.822	22.02
183.042	79.36
183.262	3.58
183.482	85.5
183.701	67.07
183.921	7.68
184.141	13.82
184.361	103.93
184.58	-29.18
184.8	56.83
185.02	5.63
185.239	24.06
185.459	36.35
185.679	56.83
185.898	-57.86
186.118	-20.99
186.338	-33.28
186.557	87.55
186.777	-84.48
186.997	42.5
187.216	-14.85
187.436	155.13
187.655	-12.8
187.875	110.08
188.095	15.87
188.314	85.5
188.534	24.06
188.753	1.54
188.973	19.97
189.192	24.06
189.412	1.54
189.631	15.87
189.851	22.02
190.07	89.6
190.29	-47.62
190.509	-10.75
190.729	-8.7
190.948	62.98
191.168	167.42
191.387	28.16
191.607	-0.51
191.826	36.35
192.045	75.26
192.265	71.17
192.484	38.4
192.704	-2.56
192.923	75.26
193.142	108.03
193.362	126.46
193.581	79.36
193.8	-33.28
194.02	138.75
194.239	56.83
194.458	93.69
194.678	-20.99
194.897	81.41
195.116	118.27
195.335	40.45
195.555	67.07
195.774	87.55
195.993	65.02
196.212	44.54
196.432	-76.29
196.651	-10.75
196.87	50.69
197.089	185.85
197.308	28.16
197.528	15.87
197.747	-35.33
197.966	30.21
198.185	89.6
198.404	52.74
198.623	71.17
198.842	19.97
199.062	69.12
199.281	89.6
199.5	22.02
199.719	114.17
199.938	83.45
200.157	77.31
200.376	85.5
200.595	13.82
200.814	50.69
201.033	-64
201.252	34.3
201.471	3.58
201.69	15.87
201.909	-4.61
202.128	138.75
202.347	93.69
202.566	65.02
202.785	-59.9
203.004	-59.9
203.223	116.22
203.442	69.12
203.661	-82.43
203.879	24.06
204.098	30.21
204.317	-4.61
204.536	89.6
204.755	32.26
204.974	56.83
205.193	19.97
205.411	22.02
205.63	7.68
205.849	1.54
206.068	-80.38
206.287	-39.42
206.505	136.7
206.724	22.02
206.943	-47.62
207.162	79.36
207.381	140.8
207.599	11.78
207.818	13.82
208.037	5.63
208.255	-2.56
208.474	-0.51
208.693	62.98
208.911	-16.9
209.13	48.64
209.349	62.98
209.567	77.31
209.786	99.84
210.005	69.12
210.223	36.35
210.442	-31.23
210.661	50.69
210.879	-2.56
211.098	1.54
211.316	-18.94
211.535	24.06
211.753	22.02
211.972	11.78
212.191	32.26
212.409	52.74
212.628	50.69
212.846	-88.57
213.065	34.3
213.283	77.31
213.502	50.69
213.72	13.82
213.938	-0.51
214.157	38.4
214.375	15.87
214.594	13.82
214.812	46.59
215.031	46.59
215.249	50.69
215.467	3.58
215.686	58.88
215.904	69.12
216.122	-57.86
216.341	-8.7
216.559	26.11
216.778	52.74
216.996	134.65
217.214	-25.09
217.432	9.73
217.651	-14.85
217.869	5.63
218.087	46.59
218.306	15.87
218.524	58.88
218.742	-25.09
218.96	-2.56
219.179	-2.56
219.397	15.87
219.615	161.28
219.833	1.54
220.051	11.78
220.27	75.26
220.488	105.98
220.706	40.45
220.924	-18.94
221.142	15.87
221.36	52.74
221.578	-29.18
221.796	13.82
222.015	-18.94
222.233	65.02
222.451	62.98
222.669	-41.47
222.887	28.16
223.105	30.21
223.323	-37.38
223.541	11.78
223.759	54.78
223.977	-47.62
224.195	-20.99
224.413	87.55
224.631	30.21
224.849	34.3
225.067	110.08
225.285	-29.18
225.503	-4.61
225.721	-4.61
225.939	-8.7
226.157	7.68
226.375	171.52
226.592	-70.14
226.81	-2.56
227.028	95.74
227.246	93.69
227.464	48.64
227.682	44.54
227.9	165.37
228.117	46.59
228.335	-0.51
228.553	-14.85
228.771	42.5
228.989	81.41
229.206	-2.56
229.424	-64
229.642	-55.81
229.86	-4.61
230.077	15.87
230.295	-14.85
230.513	7.68
230.731	67.07
230.948	122.37
231.166	52.74
231.384	-57.86
231.601	46.59
231.819	136.7
232.037	22.02
232.254	-39.42
232.472	-2.56
232.689	-10.75
232.907	65.02
233.125	3.58
233.342	79.36
233.56	-66.05
233.777	56.83
233.995	60.93
234.213	65.02
234.43	50.69
234.648	26.11
234.865	48.64
235.083	-6.66
235.3	15.87
235.518	52.74
235.735	73.21
235.953	42.5
236.17	73.21
236.388	17.92
236.605	-57.86
236.822	-10.75
237.04	30.21
237.257	124.41
237.475	-88.57
237.692	-82.43
237.909	7.68
238.127	15.87
238.344	-8.7
238.562	54.78
238.779	40.45
238.996	-33.28
239.214	-0.51
239.431	73.21
239.648	-29.18
239.865	85.5
240.083	91.65
240.3	122.37
240.517	-18.94
240.735	-37.38
240.952	91.65
241.169	58.88
241.386	17.92
241.603	13.82
241.821	-74.24
242.038	52.74
242.255	-23.04
242.472	-47.62
242.689	3.58
242.907	75.26
243.124	56.83
243.341	48.64
243.558	81.41
243.775	50.69
243.992	-37.38
244.209	17.92
244.426	163.33
244.643	122.37
244.86	30.21
245.078	38.4
245.295	60.93
245.512	52.74
245.729	1.54
245.946	17.92
246.163	1.54
246.38	36.35
246.597	-16.9
246.814	-14.85
247.031	-43.52
247.248	60.93
247.464	50.69
247.681	17.92
247.898	87.55
248.115	85.5
248.332	-16.9
248.549	79.36
248.766	177.66
248.983	36.35
249.2	3.58
249.417	54.78
249.633	-43.52
249.85	44.54
250.067	67.07
250.284	65.02
250.501	79.36
250.717	151.04
250.934	-39.42
251.151	-23.04
251.368	9.73
251.585	67.07
251.801	5.63
252.018	-29.18
252.235	44.54
252.451	50.69
252.668	-14.85
252.885	118.27
253.102	32.26
253.318	-0.51
253.535	19.97
253.752	5.63
253.968	30.21
254.185	-59.9
254.401	22.02
254.618	17.92
254.835	32.26
255.051	163.33
255.268	-2.56
255.484	73.21
255.701	-20.99
255.917	34.3
256.134	7.68
256.351	-16.9
256.567	-57.86
256.784	17.92
257	-96.77
257.217	97.79
257.433	71.17
257.65	13.82
257.866	34.3
258.082	1.54
258.299	13.82
258.515	105.98
258.732	11.78
258.948	-37.38
259.165	114.17
259.381	5.63
259.597	3.58
259.814	34.3
260.03	-2.56
260.246	50.69
260.463	-10.75
260.679	91.65
260.895	52.74
261.112	44.54
261.328	-0.51
261.544	-4.61
261.761	161.28
261.977	-4.61
262.193	-0.51
262.409	-4.61
262.626	-12.8
262.842	56.83
263.058	-70.14
263.274	36.35
263.49	58.88
263.707	77.31
263.923	30.21
264.139	-66.05
264.355	54.78
264.571	56.83
264.787	40.45
265.004	73.21
265.22	11.78
265.436	56.83
265.652	-8.7
265.868	-12.8
266.084	-74.24
266.3	-18.94
266.516	48.64
266.732	58.88
266.948	91.65
267.164	-8.7
267.38	83.45
267.596	48.64
267.812	50.69
268.028	-6.66
268.244	15.87
268.46	42.5
268.676	-18.94
268.892	34.3
269.108	36.35
269.324	32.26
269.54	-14.85
269.756	52.74
269.972	-12.8
270.188	11.78
270.403	28.16
270.619	-20.99
270.835	42.5
271.051	13.82
271.267	7.68
271.483	-41.47
271.698	65.02
271.914	71.17
272.13	-10.75
272.346	24.06
272.562	71.17
272.777	62.98
272.993	-16.9
273.209	-14.85
273.425	19.97
273.64	-12.8
273.856	54.78
274.072	-43.52
274.287	-43.52
274.503	50.69
274.719	60.93
274.934	50.69
275.15	-102.91
275.366	-8.7
275.581	-35.33
275.797	93.69
276.012	65.02
276.228	26.11
276.444	48.64
276.659	112.13
276.875	-39.42
277.09	3.58
277.306	5.63
277.521	38.4
277.737	75.26
277.952	46.59
278.168	13.82
278.383	50.69
278.599	-16.9
278.814	7.68
279.03	77.31
279.245	62.98
279.461	-33.28
279.676	15.87
279.892	22.02
280.107	3.58
280.322	-49.66
280.538	3.58
280.753	48.64
280.969	48.64
281.184	9.73
281.399	24.06
281.615	7.68
281.83	54.78
282.045	-31.23
282.26	36.35
282.476	-0.51
282.691	91.65
282.906	54.78
283.122	-10.75
283.337	30.21
283.552	34.3
283.767	26.11
283.983	-14.85
284.198	15.87
284.413	-2.56
284.628	44.54
284.843	62.98
285.058	9.73
285.274	40.45
285.489	17.92
285.704	56.83
285.919	44.54
286.134	67.07
286.349	1.54
286.564	26.11
286.779	157.18
286.995	-20.99
287.21	-37.38
287.425	7.68
287.64	11.78
287.855	-8.7
288.07	26.11
288.285	-29.18
288.5	54.78
288.715	97.79
288.93	-29.18
289.145	1.54
289.36	34.3
289.575	-43.52
289.79	77.31
290.004	9.73
290.219	-35.33
290.434	40.45
290.649	-25.09
290.864	-14.85
291.079	-2.56
291.294	15.87
291.509	34.3
291.724	36.35
291.938	24.06
292.153	40.45
292.368	52.74
292.583	-18.94
292.798	73.21
293.012	-12.8
293.227	30.21
293.442	-4.61
293.657	81.41
293.871	105.98
294.086	40.45
294.301	95.74
294.516	75.26
294.73	13.82
294.945	-0.51
295.16	36.35
295.374	89.6
295.589	130.56
295.804	-37.38
296.018	-45.57
296.233	77.31
296.447	110.08
296.662	7.68
296.877	81.41
297.091	87.55
297.306	28.16
297.52	48.64
297.735	62.98
297.949	-47.62
298.164	-10.75
298.378	30.21
298.593	42.5
298.807	-16.9
299.022	-2.56
299.236	40.45
299.451	36.35
299.665	15.87
299.88	7.68
300.094	34.3
300.309	32.26
300.523	67.07
300.737	-18.94
300.952	58.88
301.166	-12.8
301.381	-31.23
301.595	32.26
301.809	-14.85
302.024	40.45
302.238	-14.85
302.452	110.08
302.667	17.92
302.881	24.06
303.095	75.26
303.309	77.31
303.524	-29.18
303.738	-33.28
303.952	1.54
304.166	-0.51
304.381	-43.52
304.595	114.17
304.809	22.02
305.023	13.82
305.237	13.82
305.452	-20.99
305.666	24.06
305.88	3.58
306.094	103.93
306.308	26.11
306.522	62.98
306.736	75.26
306.95	3.58
307.164	-55.81
307.379	9.73
307.593	183.81
307.807	89.6
308.021	124.41
308.235	5.63
308.449	3.58
308.663	-23.04
308.877	83.45
309.091	65.02
309.305	-31.23
309.519	-107.01
309.733	42.5
309.947	-70.14
310.161	52.74
310.374	24.06
310.588	120.32
310.802	-74.24
311.016	36.35
311.23	-33.28
311.444	48.64
311.658	15.87
311.872	40.45
312.085	73.21
312.299	79.36
312.513	44.54
312.727	69.12
312.941	-49.66
313.154	13.82
313.368	87.55
313.582	30.21
313.796	73.21
314.009	-8.7
314.223	28.16
314.437	-31.23
314.651	71.17
314.864	87.55
315.078	-4.61
315.292	-45.57
315.505	-16.9
315.719	22.02
315.933	65.02
316.146	50.69
316.36	26.11
316.573	87.55
316.787	71.17
317.001	71.17
317.214	-59.9
317.428	-41.47
317.641	28.16
317.855	-0.51
318.068	-12.8
318.282	7.68
318.495	36.35
318.709	13.82
318.922	17.92
319.136	108.03
319.349	42.5
319.563	-6.66
319.776	22.02
319.99	-35.33
320.203	85.5
320.417	-2.56
320.63	44.54
320.843	142.85
321.057	-16.9
321.27	24.06
321.483	54.78
321.697	95.74
321.91	19.97
322.124	48.64
322.337	99.84
322.55	22.02
322.763	-10.75
322.977	11.78
323.19	-2.56
323.403	-4.61
323.617	-4.61
323.83	105.98
324.043	-12.8
324.256	58.88
324.469	19.97
324.683	11.78
324.896	7.68
325.109	-12.8
325.322	-27.14
325.535	56.83
325.748	50.69
325.962	36.35
326.175	56.83
326.388	1.54
326.601	48.64
326.814	13.82
327.027	46.59
327.24	118.27
327.453	-45.57
327.666	40.45
327.879	71.17
328.092	69.12
328.305	24.06
328.518	-8.7
328.731	46.59
328.944	34.3
329.157	44.54
329.37	-90.62
329.583	71.17
329.796	79.36
330.009	-27.14
330.222	62.98
330.435	11.78
330.648	-4.61
330.861	-4.61
331.073	85.5
331.286	89.6
331.499	44.54
331.712	62.98
331.925	-10.75
332.138	71.17
332.35	81.41
332.563	-6.66
332.776	93.69
332.989	1.54
333.202	46.59
333.414	62.98
333.627	-10.75
333.84	28.16
334.053	116.22
334.265	28.16
334.478	3.58
334.691	17.92
334.903	42.5
335.116	-14.85
335.329	28.16
335.541	50.69
335.754	120.32
335.966	40.45
336.179	69.12
336.392	-4.61
336.604	122.37
336.817	-80.38
337.029	60.93
337.242	9.73
337.454	62.98
337.667	-0.51
337.88	167.42
338.092	30.21
338.305	-12.8
338.517	5.63
338.729	95.74
338.942	77.31
339.154	-18.94
339.367	103.93
339.579	34.3
339.792	-25.09
340.004	93.69
340.217	-70.14
340.429	56.83
340.641	-27.14
340.854	5.63
341.066	-27.14
341.278	91.65
341.491	134.65
341.703	-4.61
341.915	99.84
342.128	79.36
342.34	83.45
342.552	5.63
342.764	85.5
342.977	-64
343.189	105.98
343.401	1.54
343.613	13.82
343.826	-23.04
344.038	-57.86
344.25	40.45
344.462	46.59
344.674	30.21
344.886	30.21
345.099	24.06
345.311	52.74
345.523	69.12
345.735	24.06
345.947	73.21
346.159	3.58
346.371	62.98
346.583	17.92
346.795	128.51
347.007	60.93
347.219	56.83
347.431	71.17
347.643	128.51
347.855	-27.14
348.067	71.17
348.279	-51.71
348.491	65.02
348.703	73.21
348.915	38.4
349.127	-47.62
349.339	99.84
349.551	36.35
349.763	108.03
349.975	73.21
350.187	97.79
350.399	89.6
350.61	58.88
350.822	34.3
351.034	50.69
351.246	122.37
351.458	77.31
351.669	40.45
351.881	26.11
352.093	7.68
352.305	118.27
352.517	44.54
352.728	118.27
352.94	-25.09
353.152	89.6
353.363	-31.23
353.575	56.83
353.787	110.08
353.999	112.13
354.21	65.02
354.422	30.21
354.633	11.78
354.845	-57.86
355.057	83.45
355.268	56.83
355.48	3.58
355.692	5.63
355.903	60.93
356.115	-10.75
356.326	-88.57
356.538	116.22
356.749	85.5
356.961	103.93
357.172	-8.7
357.384	-23.04
357.595	138.75
357.807	44.54
358.018	-57.86
358.23	95.74
358.441	103.93
358.653	46.59
358.864	-16.9
359.075	13.82
359.287	44.54
359.498	91.65
359.709	79.36
359.921	34.3
360.132	62.98
360.344	3.58
360.555	56.83
360.766	5.63
360.977	40.45
361.189	81.41
361.4	-2.56
361.611	71.17
361.823	30.21
362.034	30.21
362.245	5.63
362.456	5.63
362.667	40.45
362.879	15.87
363.09	73.21
363.301	30.21
363.512	44.54
363.723	46.59
363.935	73.21
364.146	38.4
364.357	5.63
364.568	67.07
364.779	-66.05
364.99	95.74
365.201	36.35
365.412	81.41
365.623	-51.71
365.834	32.26
366.045	3.58
366.256	75.26
366.467	52.74
366.678	38.4
366.889	79.36
367.1	-10.75
367.311	3.58
367.522	30.21
367.733	101.89
367.944	60.93
368.155	-0.51
368.366	75.26
368.577	89.6
368.788	91.65
368.999	56.83
369.209	91.65
369.42	108.03
369.631	163.33
369.842	112.13
370.053	22.02
370.264	13.82
370.474	15.87
370.685	40.45
370.896	11.78
371.107	136.7
371.317	122.37
371.528	46.59
371.739	108.03
371.95	48.64
372.16	34.3
372.371	-88.57
372.582	34.3
372.792	97.79
373.003	81.41
373.214	7.68
373.424	103.93
373.635	-27.14
373.846	44.54
374.056	62.98
374.267	32.26
374.477	71.17
374.688	54.78
374.898	99.84
375.109	75.26
375.319	67.07
375.53	62.98
375.74	130.56
375.951	13.82
376.161	40.45
376.372	56.83
376.582	17.92
376.793	30.21
377.003	52.74
377.214	50.69
377.424	81.41
377.635	-4.61
377.845	-2.56
378.055	103.93
378.266	7.68
378.476	34.3
378.686	30.21
378.897	103.93
379.107	83.45
379.317	-18.94
379.528	-2.56
379.738	116.22
379.948	-35.33
380.158	81.41
380.369	58.88
380.579	40.45
380.789	46.59
380.999	28.16
381.21	77.31
381.42	161.28
381.63	36.35
381.84	81.41
382.05	58.88
382.261	144.89
382.471	101.89
382.681	19.97
382.891	38.4
383.101	62.98
383.311	-25.09
383.521	-10.75
383.731	95.74
383.941	85.5
384.151	83.45
384.361	34.3
384.571	69.12
384.781	79.36
384.991	155.13
385.201	112.13
385.411	132.61
385.621	89.6
385.831	54.78
386.041	-20.99
386.251	-18.94
386.461	73.21
386.671	122.37
386.881	22.02
387.091	91.65
387.301	142.85
387.511	62.98
387.72	87.55
387.93	126.46
388.14	-8.7
388.35	34.3
388.56	112.13
388.769	62.98
388.979	-25.09
389.189	30.21
389.399	77.31
389.609	124.41
389.818	36.35
390.028	62.98
390.238	58.88
390.447	34.3
390.657	28.16
390.867	19.97
391.076	-8.7
391.286	97.79
391.496	-8.7
391.705	3.58
391.915	87.55
392.125	75.26
392.334	65.02
392.544	118.27
392.753	28.16
392.963	81.41
393.172	42.5
393.382	3.58
393.591	169.47
393.801	5.63
394.01	128.51
394.22	19.97
394.429	83.45
394.639	-45.57
394.848	122.37
395.058	89.6
395.267	77.31
395.477	114.17
395.686	146.94
395.895	97.79
396.105	183.81
396.314	83.45
396.524	138.75
396.733	36.35
396.942	136.7
397.152	112.13
397.361	79.36
397.57	50.69
397.78	120.32
397.989	95.74
398.198	112.13
398.407	77.31
398.617	75.26
398.826	79.36
399.035	32.26
399.244	142.85
399.453	136.7
399.663	110.08
399.872	132.61
400.081	110.08
400.29	120.32
400.499	11.78
400.708	118.27
400.917	60.93
401.127	120.32
401.336	40.45
401.545	181.76
401.754	155.13
401.963	122.37
402.172	56.83
402.381	42.5
402.59	116.22
402.799	134.65
403.008	122.37
403.217	103.93
403.426	103.93
403.635	146.94
403.844	71.17
404.053	165.37
404.262	118.27
404.471	241.15
404.68	134.65
404.888	130.56
405.097	132.61
405.306	103.93
405.515	198.14
405.724	120.32
405.933	132.61
406.142	183.81
406.35	198.14
406.559	151.04
406.768	159.23
406.977	235
407.185	259.58
407.394	181.76
407.603	214.52
407.812	228.86
408.02	288.25
408.229	226.81
408.438	282.11
408.646	161.28
408.855	247.29
409.064	247.29
409.272	300.54
409.481	282.11
409.69	316.92
409.898	208.38
410.107	364.03
410.315	316.92
410.524	341.5
410.733	341.5
410.941	339.45
411.15	415.23
411.358	441.85
411.567	450.04
411.775	359.93
411.984	400.89
412.192	521.72
412.401	439.8
412.609	488.95
412.818	515.58
413.026	531.96
413.234	458.23
413.443	540.15
413.651	548.34
413.86	554.49
414.068	691.7
414.276	665.08
414.485	648.69
414.693	617.97
414.901	749.04
415.11	706.04
415.318	703.99
415.526	824.82
415.734	798.2
415.943	787.96
416.151	873.97
416.359	873.97
416.567	921.07
416.776	947.7
416.984	931.31
417.192	1021.42
417.4	949.75
417.608	998.9
417.817	873.97
418.025	1144.3
418.233	1201.65
418.441	1177.07
418.649	1115.63
418.857	1357.29
419.065	1402.35
419.273	1338.86
419.481	1342.96
419.689	1390.06
419.897	1476.07
420.105	1510.89
420.313	1582.57
420.521	1713.64
420.729	1701.35
420.937	1797.6
421.145	1768.93
421.353	1918.43
421.561	1973.73
421.769	2004.45
421.977	2094.56
422.185	1969.63
422.393	2207.2
422.601	2291.17
422.809	2196.96
423.017	2235.87
423.224	2358.75
423.432	2569.69
423.64	2532.83
423.848	2819.54
424.056	2711
424.263	2942.42
424.471	2803.16
424.679	3050.96
424.887	3141.07
425.094	3192.27
425.302	3253.71
425.51	3327.44
425.718	3446.22
425.925	3421.64
426.133	3597.77
426.341	3898.82
426.548	3970.5
426.756	3945.92
426.964	4068.8
427.171	4234.69
427.379	4369.85
427.586	4451.77
427.794	4660.66
428.001	4881.85
428.209	5123.51
428.417	5062.07
428.624	5186.99
428.832	5453.23
429.039	5326.25
429.247	5252.53
429.454	5803.43
429.662	6235.55
429.869	5830.06
430.076	5987.75
430.284	6012.32
430.491	6288.8
430.699	6684.06
430.906	6559.13
431.114	6628.76
431.321	6829.46
431.528	7075.22
431.736	7380.37
431.943	7923.08
432.15	7587.21
432.358	7873.93
432.565	8224.13
432.772	8070.53
432.979	8643.96
433.187	8572.29
433.394	8607.1
433.601	9268.59
433.808	9313.65
434.016	9252.21
434.223	9704.81
434.43	10089.83
434.637	10095.97
434.844	10691.93
435.052	10968.41
435.259	10782.04
435.466	11173.21
435.673	10960.22
435.88	11324.76
436.087	11824.46
436.294	11992.39
436.501	11902.28
436.708	12152.13
436.915	12752.19
437.122	13006.14
437.329	12975.42
437.537	13411.64
437.743	13606.19
437.95	13757.74
438.157	14056.75
438.364	14605.6
438.571	15023.39
438.778	14998.81
438.985	16452.87
439.192	15519
439.399	16143.63
439.606	15887.63
439.813	16803.07
440.02	17698.03
440.227	17448.18
440.433	16942.33
440.64	17722.61
440.847	17650.93
441.054	17925.36
441.261	19561.69
441.467	19031.26
441.674	19344.6
441.881	20198.6
442.088	19973.33
442.294	20253.9
442.501	20411.59
442.708	21230.78
442.914	21728.44
443.121	22576.3
443.328	22064.3
443.534	23590.04
443.741	22723.75
443.948	22424.75
444.154	24020.11
444.361	24302.73
444.568	24263.82
444.774	24401.04
444.981	24382.6
445.187	25476.22
445.394	26371.18
445.6	25658.49
445.807	28351.57
446.013	27270.24
446.22	27743.32
446.426	28660.81
446.633	28789.83
446.839	30231.6
447.046	28818.5
447.252	30465.07
447.459	30372.91
447.665	30071.86
447.871	31722.52
448.078	33154.05
448.284	31726.62
448.491	32365.59
448.697	33567.74
448.903	34370.55
449.11	34282.48
449.316	33907.71
449.522	34907.12
449.728	35406.82
449.935	35580.9
450.141	35599.33
450.347	36451.28
450.553	35341.28
450.76	35748.83
450.966	37381.06
451.172	36680.66
451.378	37542.85
451.584	36625.36
451.791	37688.26
451.997	37600.19
452.203	38218.68
452.409	38214.58
452.615	37796.8
452.821	36570.07
453.027	36193.24
453.233	38425.53
453.44	36615.12
453.646	37071.82
453.852	37434.31
454.058	37950.4
454.264	36301.78
454.47	37376.97
454.676	36150.23
454.882	37690.3
455.088	34704.37
455.294	35382.24
455.5	35711.97
455.705	35769.31
455.911	34374.64
456.117	33813.5
456.323	33567.74
456.529	31712.28
456.735	32908.3
456.941	32031.77
457.147	31601.69
457.352	30630.96
457.558	30368.82
457.764	30590
457.97	29897.78
458.176	29215.81
458.381	28769.35
458.587	27931.73
458.793	27767.9
458.999	26078.32
459.204	28396.62
459.41	27079.78
459.616	25666.68
459.821	25986.16
460.027	25502.84
460.233	25076.87
460.438	23653.53
460.644	24118.42
460.85	22858.92
461.055	22598.82
461.261	22637.73
461.466	20892.87
461.672	20425.93
461.878	21976.24
462.083	20403.4
462.289	19864.78
462.494	19524.82
462.7	18689.25
462.905	18144.49
463.111	18922.72
463.316	18814.18
463.522	18658.53
463.727	18963.68
463.932	18846.94
464.138	18418.92
464.343	18642.15
464.549	17810.67
464.754	18341.1
464.959	18353.38
465.165	18296.04
465.37	17415.41
465.575	16989.44
465.781	17820.91
465.986	18011.37
466.191	17247.48
466.397	16866.56
466.602	15844.62
466.807	16825.6
