Data from USB4F104151__1__12-11-10-063.txt Node

Date: Fri Mar 14 12:11:10 EDT 2025
User: louis
Spectrometer: USB4F10415
Trigger mode: 4
Integration Time (sec): 5.000000E-2
Scans to average: 1
Electric dark correction enabled: true
Nonlinearity correction enabled: false
Boxcar width: 0
XAxis mode: Wavelengths
Number of Pixels in Spectrum: 3648
>>>>>Begin Spectral Data<<<<<
178.204	-189.1
178.424	-189.1
178.644	-189.1
178.864	-258.73
179.084	-217.77
179.304	-35.5
179.524	-6.83
179.744	11.61
179.964	32.08
180.184	-58.03
180.404	32.08
180.624	-0.68
180.844	1.37
181.064	17.75
181.283	9.56
181.503	-51.88
181.723	48.47
181.943	-35.5
182.163	159.06
182.383	42.32
182.602	101.72
182.822	85.33
183.042	-41.64
183.262	-66.22
183.482	-12.97
183.701	81.24
183.921	52.56
184.141	-6.83
184.361	118.1
184.58	-2.73
184.8	48.47
185.02	-15.02
185.239	50.52
185.459	52.56
185.679	124.24
185.898	-27.31
186.118	97.62
186.338	68.95
186.557	124.24
186.777	-84.65
186.997	44.37
187.216	50.52
187.436	89.43
187.655	58.71
187.875	54.61
188.095	107.86
188.314	93.52
188.534	89.43
188.753	-15.02
188.973	27.99
189.192	75.09
189.412	66.9
189.631	42.32
189.851	85.33
190.07	79.19
190.29	-80.55
190.509	101.72
190.729	73.04
190.948	134.48
191.168	114
191.387	128.34
191.607	85.33
191.826	122.2
192.045	30.04
192.265	46.42
192.484	27.99
192.704	-33.45
192.923	-15.02
193.142	138.58
193.362	71
193.581	128.34
193.8	58.71
194.02	138.58
194.239	42.32
194.458	79.19
194.678	23.89
194.897	73.04
195.116	62.8
195.335	54.61
195.555	48.47
195.774	91.48
195.993	58.71
196.212	56.66
196.432	42.32
196.651	60.76
196.87	9.56
197.089	138.58
197.308	54.61
197.528	173.39
197.747	7.51
197.966	13.65
198.185	120.15
198.404	40.28
198.623	34.13
198.842	77.14
199.062	60.76
199.281	30.04
199.5	48.47
199.719	89.43
199.938	101.72
200.157	101.72
200.376	58.71
200.595	83.28
200.814	11.61
201.033	62.8
201.252	54.61
201.471	56.66
201.69	146.77
201.909	111.96
202.128	89.43
202.347	99.67
202.566	32.08
202.785	38.23
203.004	34.13
203.223	101.72
203.442	89.43
203.661	99.67
203.879	1.37
204.098	64.85
204.317	38.23
204.536	152.92
204.755	68.95
204.974	87.38
205.193	89.43
205.411	169.3
205.63	27.99
205.849	11.61
206.068	105.81
206.287	21.85
206.505	64.85
206.724	9.56
206.943	50.52
207.162	42.32
207.381	87.38
207.599	32.08
207.818	34.13
208.037	-35.5
208.255	40.28
208.474	75.09
208.693	93.52
208.911	95.57
209.13	103.76
209.349	40.28
209.567	9.56
209.786	138.58
210.005	56.66
210.223	62.8
210.442	-2.73
210.661	93.52
210.879	75.09
211.098	38.23
211.316	75.09
211.535	132.44
211.753	36.18
211.972	58.71
212.191	30.04
212.409	19.8
212.628	68.95
212.846	-8.87
213.065	66.9
213.283	122.2
213.502	54.61
213.72	-8.87
213.938	21.85
214.157	42.32
214.375	73.04
214.594	60.76
214.812	91.48
215.031	71
215.249	36.18
215.467	23.89
215.686	19.8
215.904	60.76
216.122	-21.16
216.341	71
216.559	116.05
216.778	21.85
216.996	30.04
217.214	-10.92
217.432	64.85
217.651	21.85
217.869	5.46
218.087	71
218.306	36.18
218.524	128.34
218.742	116.05
218.96	-15.02
219.179	40.28
219.397	-31.4
219.615	105.81
219.833	66.9
220.051	17.75
220.27	128.34
220.488	93.52
220.706	81.24
220.924	44.37
221.142	40.28
221.36	77.14
221.578	83.28
221.796	15.7
222.015	32.08
222.233	52.56
222.451	103.76
222.669	83.28
222.887	66.9
223.105	-6.83
223.323	71
223.541	71
223.759	56.66
223.977	56.66
224.195	87.38
224.413	91.48
224.631	54.61
224.849	66.9
225.067	171.35
225.285	13.65
225.503	77.14
225.721	17.75
225.939	89.43
226.157	60.76
226.375	128.34
226.592	85.33
226.81	71
227.028	87.38
227.246	93.52
227.464	17.75
227.682	71
227.9	73.04
228.117	89.43
228.335	60.76
228.553	48.47
228.771	58.71
228.989	7.51
229.206	73.04
229.424	130.39
229.642	54.61
229.86	73.04
230.077	46.42
230.295	73.04
230.513	99.67
230.731	64.85
230.948	56.66
231.166	77.14
231.384	46.42
231.601	44.37
231.819	122.2
232.037	42.32
232.254	-0.68
232.472	77.14
232.689	11.61
232.907	120.15
233.125	48.47
233.342	-0.68
233.56	21.85
233.777	9.56
233.995	89.43
234.213	75.09
234.43	124.24
234.648	-12.97
234.865	54.61
235.083	136.53
235.3	75.09
235.518	71
235.735	87.38
235.953	91.48
236.17	89.43
236.388	75.09
236.605	58.71
236.822	87.38
237.04	93.52
237.257	77.14
237.475	11.61
237.692	161.11
237.909	73.04
238.127	34.13
238.344	-17.07
238.562	109.91
238.779	46.42
238.996	-12.97
239.214	71
239.431	109.91
239.648	23.89
239.865	-21.16
240.083	109.91
240.3	40.28
240.517	-2.73
240.735	36.18
240.952	122.2
241.169	34.13
241.386	27.99
241.603	23.89
241.821	-8.87
242.038	126.29
242.255	95.57
242.472	-2.73
242.689	91.48
242.907	89.43
243.124	71
243.341	122.2
243.558	23.89
243.775	-29.35
243.992	27.99
244.209	58.71
244.426	154.96
244.643	50.52
244.86	38.23
245.078	7.51
245.295	124.24
245.512	46.42
245.729	1.37
245.946	56.66
246.163	93.52
246.38	-90.79
246.597	-15.02
246.814	54.61
247.031	75.09
247.248	56.66
247.464	77.14
247.681	21.85
247.898	19.8
248.115	50.52
248.332	25.94
248.549	95.57
248.766	152.92
248.983	77.14
249.2	148.82
249.417	103.76
249.633	71
249.85	38.23
250.067	142.68
250.284	9.56
250.501	85.33
250.717	91.48
250.934	-0.68
251.151	38.23
251.368	-2.73
251.585	152.92
251.801	42.32
252.018	32.08
252.235	58.71
252.451	23.89
252.668	68.95
252.885	95.57
253.102	97.62
253.318	9.56
253.535	-0.68
253.752	56.66
253.968	105.81
254.185	-31.4
254.401	11.61
254.618	62.8
254.835	48.47
255.051	91.48
255.268	85.33
255.484	73.04
255.701	44.37
255.917	54.61
256.134	11.61
256.351	75.09
256.567	27.99
256.784	107.86
257	-27.31
257.217	132.44
257.433	38.23
257.65	50.52
257.866	93.52
258.082	-37.55
258.299	-8.87
258.515	91.48
258.732	-17.07
258.948	-37.55
259.165	132.44
259.381	13.65
259.597	73.04
259.814	3.41
260.03	11.61
260.246	54.61
260.463	118.1
260.679	83.28
260.895	103.76
261.112	42.32
261.328	7.51
261.544	11.61
261.761	122.2
261.977	36.18
262.193	-15.02
262.409	142.68
262.626	27.99
262.842	15.7
263.058	-0.68
263.274	71
263.49	54.61
263.707	107.86
263.923	144.72
264.139	-49.83
264.355	32.08
264.571	83.28
264.787	5.46
265.004	83.28
265.22	95.57
265.436	38.23
265.652	15.7
265.868	87.38
266.084	50.52
266.3	50.52
266.516	-27.31
266.732	42.32
266.948	21.85
267.164	116.05
267.38	132.44
267.596	73.04
267.812	93.52
268.028	116.05
268.244	79.19
268.46	87.38
268.676	46.42
268.892	5.46
269.108	38.23
269.324	13.65
269.54	-4.78
269.756	73.04
269.972	17.75
270.188	-45.74
270.403	66.9
270.619	21.85
270.835	50.52
271.051	-27.31
271.267	7.51
271.483	64.85
271.698	83.28
271.914	134.48
272.13	54.61
272.346	60.76
272.562	75.09
272.777	75.09
272.993	75.09
273.209	32.08
273.425	54.61
273.64	7.51
273.856	19.8
274.072	25.94
274.287	-8.87
274.503	32.08
274.719	25.94
274.934	21.85
275.15	-4.78
275.366	97.62
275.581	-25.26
275.797	-23.21
276.012	27.99
276.228	15.7
276.444	32.08
276.659	177.49
276.875	1.37
277.09	77.14
277.306	66.9
277.521	77.14
277.737	64.85
277.952	75.09
278.168	-19.11
278.383	81.24
278.599	81.24
278.814	66.9
279.03	3.41
279.245	81.24
279.461	73.04
279.676	103.76
279.892	-49.83
280.107	85.33
280.322	36.18
280.538	116.05
280.753	122.2
280.969	95.57
281.184	34.13
281.399	105.81
281.615	71
281.83	44.37
282.045	7.51
282.26	5.46
282.476	56.66
282.691	105.81
282.906	25.94
283.122	54.61
283.337	25.94
283.552	95.57
283.767	81.24
283.983	79.19
284.198	66.9
284.413	79.19
284.628	5.46
284.843	77.14
285.058	77.14
285.274	50.52
285.489	30.04
285.704	105.81
285.919	50.52
286.134	-2.73
286.349	118.1
286.564	75.09
286.779	150.87
286.995	7.51
287.21	3.41
287.425	91.48
287.64	40.28
287.855	60.76
288.07	75.09
288.285	130.39
288.5	89.43
288.715	64.85
288.93	30.04
289.145	1.37
289.36	68.95
289.575	77.14
289.79	87.38
290.004	34.13
290.219	93.52
290.434	-0.68
290.649	30.04
290.864	3.41
291.079	23.89
291.294	40.28
291.509	48.47
291.724	128.34
291.938	73.04
292.153	46.42
292.368	77.14
292.583	144.72
292.798	93.52
293.012	25.94
293.227	68.95
293.442	52.56
293.657	66.9
293.871	7.51
294.086	1.37
294.301	114
294.516	91.48
294.73	54.61
294.945	38.23
295.16	56.66
295.374	38.23
295.589	79.19
295.804	32.08
296.018	9.56
296.233	66.9
296.447	50.52
296.662	-33.45
296.877	126.29
297.091	99.67
297.306	30.04
297.52	48.47
297.735	66.9
297.949	15.7
298.164	89.43
298.378	62.8
298.593	27.99
298.807	-19.11
299.022	11.61
299.236	109.91
299.451	32.08
299.665	-15.02
299.88	50.52
300.094	42.32
300.309	1.37
300.523	83.28
300.737	38.23
300.952	-15.02
301.166	89.43
301.381	30.04
301.595	62.8
301.809	17.75
302.024	111.96
302.238	-6.83
302.452	75.09
302.667	30.04
302.881	148.82
303.095	122.2
303.309	42.32
303.524	42.32
303.738	44.37
303.952	-4.78
304.166	81.24
304.381	-35.5
304.595	95.57
304.809	1.37
305.023	107.86
305.237	48.47
305.452	58.71
305.666	21.85
305.88	79.19
306.094	79.19
306.308	109.91
306.522	77.14
306.736	111.96
306.95	118.1
307.164	73.04
307.379	23.89
307.593	183.63
307.807	81.24
308.021	75.09
308.235	71
308.449	-37.55
308.663	32.08
308.877	167.25
309.091	134.48
309.305	89.43
309.519	-60.07
309.733	152.92
309.947	36.18
310.161	191.83
310.374	124.24
310.588	118.1
310.802	-45.74
311.016	52.56
311.23	44.37
311.444	58.71
311.658	105.81
311.872	99.67
312.085	46.42
312.299	89.43
312.513	44.37
312.727	130.39
312.941	27.99
313.154	77.14
313.368	79.19
313.582	44.37
313.796	60.76
314.009	25.94
314.223	179.54
314.437	3.41
314.651	97.62
314.864	52.56
315.078	-37.55
315.292	-35.5
315.505	46.42
315.719	62.8
315.933	185.68
316.146	19.8
316.36	40.28
316.573	130.39
316.787	56.66
317.001	9.56
317.214	5.46
317.428	-0.68
317.641	19.8
317.855	-23.21
318.068	85.33
318.282	11.61
318.495	66.9
318.709	7.51
318.922	36.18
319.136	60.76
319.349	60.76
319.563	38.23
319.776	83.28
319.99	-8.87
320.203	79.19
320.417	111.96
320.63	95.57
320.843	171.35
321.057	54.61
321.27	91.48
321.483	85.33
321.697	167.25
321.91	30.04
322.124	93.52
322.337	54.61
322.55	56.66
322.763	79.19
322.977	52.56
323.19	27.99
323.403	-6.83
323.617	77.14
323.83	118.1
324.043	97.62
324.256	116.05
324.469	-41.64
324.683	75.09
324.896	5.46
325.109	30.04
325.322	-35.5
325.535	136.53
325.748	44.37
325.962	9.56
326.175	36.18
326.388	11.61
326.601	126.29
326.814	62.8
327.027	34.13
327.24	91.48
327.453	-4.78
327.666	56.66
327.879	52.56
328.092	99.67
328.305	79.19
328.518	128.34
328.731	23.89
328.944	32.08
329.157	99.67
329.37	50.52
329.583	206.16
329.796	148.82
330.009	-2.73
330.222	64.85
330.435	75.09
330.648	66.9
330.861	32.08
331.073	-2.73
331.286	128.34
331.499	101.72
331.712	54.61
331.925	46.42
332.138	85.33
332.35	114
332.563	30.04
332.776	146.77
332.989	-62.12
333.202	-4.78
333.414	36.18
333.627	124.24
333.84	87.38
334.053	-2.73
334.265	-8.87
334.478	19.8
334.691	34.13
334.903	66.9
335.116	-55.98
335.329	17.75
335.541	91.48
335.754	130.39
335.966	50.52
336.179	32.08
336.392	81.24
336.604	50.52
336.817	36.18
337.029	107.86
337.242	122.2
337.454	30.04
337.667	50.52
337.88	95.57
338.092	40.28
338.305	42.32
338.517	62.8
338.729	60.76
338.942	130.39
339.154	64.85
339.367	73.04
339.579	-12.97
339.792	-15.02
340.004	62.8
340.217	71
340.429	118.1
340.641	77.14
340.854	5.46
341.066	66.9
341.278	56.66
341.491	118.1
341.703	68.95
341.915	23.89
342.128	95.57
342.34	136.53
342.552	-17.07
342.764	60.76
342.977	93.52
343.189	60.76
343.401	157.01
343.613	32.08
343.826	5.46
344.038	71
344.25	132.44
344.462	-10.92
344.674	73.04
344.886	42.32
345.099	109.91
345.311	95.57
345.523	60.76
345.735	-27.31
345.947	79.19
346.159	30.04
346.371	118.1
346.583	64.85
346.795	118.1
347.007	50.52
347.219	124.24
347.431	60.76
347.643	177.49
347.855	7.51
348.067	142.68
348.279	27.99
348.491	60.76
348.703	66.9
348.915	32.08
349.127	44.37
349.339	105.81
349.551	93.52
349.763	200.02
349.975	77.14
350.187	85.33
350.399	83.28
350.61	48.47
350.822	54.61
351.034	95.57
351.246	25.94
351.458	107.86
351.669	71
351.881	75.09
352.093	66.9
352.305	103.76
352.517	73.04
352.728	126.29
352.94	77.14
353.152	77.14
353.363	34.13
353.575	34.13
353.787	124.24
353.999	66.9
354.21	15.7
354.422	103.76
354.633	48.47
354.845	124.24
355.057	75.09
355.268	77.14
355.48	134.48
355.692	-0.68
355.903	40.28
356.115	11.61
356.326	9.56
356.538	130.39
356.749	103.76
356.961	62.8
357.172	27.99
357.384	13.65
357.595	175.44
357.807	25.94
358.018	38.23
358.23	56.66
358.441	150.87
358.653	130.39
358.864	42.32
359.075	52.56
359.287	126.29
359.498	138.58
359.709	169.3
359.921	120.15
360.132	77.14
360.344	89.43
360.555	136.53
360.766	13.65
360.977	58.71
361.189	142.68
361.4	30.04
361.611	99.67
361.823	93.52
362.034	73.04
362.245	13.65
362.456	46.42
362.667	71
362.879	52.56
363.09	97.62
363.301	116.05
363.512	79.19
363.723	50.52
363.935	5.46
364.146	97.62
364.357	42.32
364.568	73.04
364.779	13.65
364.99	101.72
365.201	-27.31
365.412	62.8
365.623	38.23
365.834	68.95
366.045	66.9
366.256	128.34
366.467	99.67
366.678	40.28
366.889	46.42
367.1	73.04
367.311	77.14
367.522	42.32
367.733	128.34
367.944	103.76
368.155	25.94
368.366	136.53
368.577	144.72
368.788	161.11
368.999	60.76
369.209	122.2
369.42	148.82
369.631	165.2
369.842	91.48
370.053	40.28
370.264	50.52
370.474	15.7
370.685	87.38
370.896	-0.68
371.107	122.2
371.317	126.29
371.528	44.37
371.739	134.48
371.95	77.14
372.16	81.24
372.371	15.7
372.582	-45.74
372.792	48.47
373.003	46.42
373.214	111.96
373.424	116.05
373.635	7.51
373.846	73.04
374.056	40.28
374.267	48.47
374.477	146.77
374.688	9.56
374.898	132.44
375.109	17.75
375.319	120.15
375.53	165.2
375.74	150.87
375.951	83.28
376.161	85.33
376.372	83.28
376.582	1.37
376.793	68.95
377.003	-23.21
377.214	38.23
377.424	81.24
377.635	38.23
377.845	36.18
378.055	126.29
378.266	19.8
378.476	56.66
378.686	103.76
378.897	97.62
379.107	97.62
379.317	27.99
379.528	89.43
379.738	79.19
379.948	-21.16
380.158	124.24
380.369	66.9
380.579	101.72
380.789	42.32
380.999	120.15
381.21	93.52
381.42	81.24
381.63	85.33
381.84	87.38
382.05	105.81
382.261	91.48
382.471	25.94
382.681	79.19
382.891	163.15
383.101	17.75
383.311	52.56
383.521	62.8
383.731	126.29
383.941	101.72
384.151	68.95
384.361	17.75
384.571	52.56
384.781	46.42
384.991	212.31
385.201	95.57
385.411	159.06
385.621	66.9
385.831	122.2
386.041	81.24
386.251	89.43
386.461	128.34
386.671	19.8
386.881	36.18
387.091	85.33
387.301	109.91
387.511	71
387.72	97.62
387.93	122.2
388.14	11.61
388.35	85.33
388.56	111.96
388.769	107.86
388.979	85.33
389.189	91.48
389.399	-58.03
389.609	161.11
389.818	9.56
390.028	83.28
390.238	87.38
390.447	38.23
390.657	144.72
390.867	75.09
391.076	60.76
391.286	56.66
391.496	130.39
391.705	83.28
391.915	154.96
392.125	40.28
392.334	11.61
392.544	118.1
392.753	85.33
392.963	32.08
393.172	64.85
393.382	75.09
393.591	175.44
393.801	154.96
394.01	111.96
394.22	95.57
394.429	75.09
394.639	105.81
394.848	114
395.058	152.92
395.267	97.62
395.477	161.11
395.686	120.15
395.895	249.17
396.105	154.96
396.314	101.72
396.524	126.29
396.733	21.85
396.942	140.63
397.152	95.57
397.361	159.06
397.57	107.86
397.78	91.48
397.989	109.91
398.198	163.15
398.407	157.01
398.617	154.96
398.826	7.51
399.035	89.43
399.244	124.24
399.453	116.05
399.663	79.19
399.872	232.79
400.081	60.76
400.29	193.87
400.499	91.48
400.708	210.26
400.917	95.57
401.127	107.86
401.336	40.28
401.545	206.16
401.754	206.16
401.963	167.25
402.172	71
402.381	118.1
402.59	124.24
402.799	165.2
403.008	152.92
403.217	124.24
403.426	146.77
403.635	54.61
403.844	124.24
404.053	38.23
404.262	161.11
404.471	161.11
404.68	140.63
404.888	150.87
405.097	191.83
405.306	144.72
405.515	173.39
405.724	169.3
405.933	222.55
406.142	210.26
406.35	234.83
406.559	202.07
406.768	208.21
406.977	300.37
407.185	197.97
407.394	220.5
407.603	142.68
407.812	308.56
408.02	326.99
408.229	265.55
408.438	304.46
408.646	265.55
408.855	269.65
409.064	351.57
409.272	286.03
409.481	378.19
409.69	261.46
409.898	273.75
410.107	281.94
410.315	484.69
410.524	359.76
410.733	384.34
410.941	318.8
411.15	458.06
411.358	417.1
411.567	568.65
411.775	421.2
411.984	427.34
412.192	570.7
412.401	527.69
412.609	515.41
412.818	587.08
413.026	566.6
413.234	511.31
413.443	550.22
413.651	617.8
413.86	564.56
414.068	718.15
414.276	683.34
414.485	597.32
414.693	679.24
414.901	806.22
415.11	755.02
415.318	691.53
415.526	818.5
415.734	836.94
415.943	916.81
416.151	943.43
416.359	898.38
416.567	957.77
416.776	961.86
416.984	939.34
417.192	1117.51
417.4	982.34
417.608	1017.16
417.817	1080.64
418.025	1183.04
418.233	1219.91
418.441	1082.69
418.649	1312.07
418.857	1336.64
419.065	1318.21
419.273	1310.02
419.481	1508.67
419.689	1539.39
419.897	1631.55
420.105	1598.78
420.313	1715.52
420.521	1768.76
420.729	1709.37
420.937	1781.05
421.145	1750.33
421.353	1994.04
421.561	2018.61
421.769	2063.67
421.977	2250.03
422.185	2047.29
422.393	2237.75
422.601	2420.02
422.809	2344.24
423.017	2391.34
423.224	2546.99
423.432	2719.02
423.64	2587.95
423.848	2815.27
424.056	2686.25
424.263	3093.8
424.471	3097.89
424.679	3015.98
424.887	3120.42
425.094	3321.12
425.302	3435.81
425.51	3489.06
425.718	3603.74
425.925	3489.06
426.133	3648.8
426.341	4033.82
426.548	3958.04
426.756	4281.62
426.964	4140.31
427.171	4416.79
427.379	4566.29
427.586	4527.38
427.794	4703.5
428.001	4959.5
428.209	5063.94
428.417	4967.69
428.624	5485.83
428.832	5365
429.039	5430.53
429.247	5356.8
429.454	6010.11
429.662	6333.68
429.869	5819.64
430.076	6266.1
430.284	6151.42
430.491	6503.67
430.699	6780.14
430.906	6831.34
431.114	6862.06
431.321	7079.15
431.528	7220.46
431.736	7646.43
431.943	7978.2
432.15	7906.52
432.358	7947.48
432.565	8346.84
432.772	8086.75
432.979	8799.44
433.187	8926.41
433.394	8871.12
433.601	9538.76
433.808	9489.6
434.016	9518.28
434.223	9729.22
434.43	10550.45
434.637	10149.05
434.844	10810.54
435.052	11060.4
435.259	11015.34
435.466	10949.81
435.673	10871.98
435.88	11658.4
436.087	12280.99
436.294	12149.92
436.501	12090.52
436.708	12172.44
436.915	12852.37
437.122	13266.06
437.329	13264.01
437.537	13577.35
437.743	13823.11
437.95	13831.3
438.157	14414.97
438.364	14888.05
438.571	14976.11
438.778	15109.23
438.985	16440.41
439.192	15570.02
439.399	16460.89
439.606	15928.42
439.813	16741.46
440.02	17728.58
440.227	17617.99
440.433	17357.9
440.64	18027.59
440.847	17697.86
441.054	18256.96
441.261	19541.04
441.467	18920.5
441.674	19405.87
441.881	20163.62
442.088	19983.4
442.294	20114.47
442.501	20538.4
442.708	21005.33
442.914	21705.74
443.121	22522.88
443.328	22031.37
443.534	23679.98
443.741	22901.75
443.948	22408.19
444.154	24110.05
444.361	24224.74
444.568	24576.99
444.774	24206.31
444.981	24544.22
445.187	25131.99
445.394	26362.82
445.6	25996.23
445.807	28664.74
446.013	27540.4
446.22	27927.47
446.426	28924.83
446.633	29100.95
446.839	30063.5
447.046	29055.9
447.252	30464.9
447.459	30270.34
447.665	30360.45
447.871	31660.91
448.078	33155.93
448.284	31812.46
448.491	32236.39
448.697	33520.47
448.903	34286.41
449.11	34095.95
449.316	33532.76
449.522	34306.89
449.728	35199.8
449.935	35382.07
450.141	35494.71
450.347	36004.66
450.553	34890.56
450.76	35322.68
450.966	36854.56
451.172	36143.92
451.378	37249.82
451.584	36690.73
451.791	37456.67
451.997	36963.11
452.203	37743.38
452.409	37794.58
452.615	37729.05
452.821	35867.44
453.027	35599.16
453.233	37657.37
453.44	36418.35
453.646	36496.17
453.852	36576.04
454.058	37225.25
454.264	36238.12
454.47	36801.32
454.676	36051.76
454.882	37106.46
455.088	33667.92
455.294	34388.81
455.5	35115.84
455.705	35296.06
455.911	33653.59
456.117	33117.02
456.323	32947.04
456.529	31095.67
456.735	32076.65
456.941	31415.16
457.147	31091.58
457.352	30270.34
457.558	29805.45
457.764	29911.95
457.97	29182.87
458.176	28361.64
458.381	28167.08
458.587	27286.45
458.793	27280.31
458.999	25908.17
459.204	27519.92
459.41	26307.52
459.616	24630.24
459.821	25050.07
460.027	24734.68
460.233	24306.66
460.438	23149.56
460.644	23331.83
460.85	22416.38
461.055	21869.58
461.261	21947.4
461.466	20290.59
461.672	19340.33
461.878	20837.4
462.083	19573.8
462.289	19110.96
462.494	18854.97
462.7	18216
462.905	17501.26
463.111	18345.02
463.316	18484.28
463.522	17902.66
463.727	17790.02
463.932	17796.17
464.138	17718.34
464.343	17695.82
464.549	17275.98
464.754	17708.1
464.959	17826.89
465.165	17521.74
465.37	16993.36
465.575	16280.67
465.781	17056.85
465.986	17275.98
466.191	16499.8
466.397	16188.51
466.602	15465.58
466.807	15899.75
467.012	15869.03
467.218	15721.57
