Data from USB4F104151__55__12-12-24-693.txt Node

Date: Fri Mar 14 12:12:24 EDT 2025
User: louis
Spectrometer: USB4F10415
Trigger mode: 4
Integration Time (sec): 5.000000E-2
Scans to average: 1
Electric dark correction enabled: true
Nonlinearity correction enabled: false
Boxcar width: 0
XAxis mode: Wavelengths
Number of Pixels in Spectrum: 3648
>>>>>Begin Spectral Data<<<<<
178.204	-193.53
178.424	-193.53
178.644	-193.53
178.864	-220.16
179.084	-154.62
179.304	-17.41
179.524	-15.36
179.744	-41.98
179.964	-21.5
180.184	19.46
180.404	52.22
180.624	-23.55
180.844	29.7
181.064	-48.13
181.283	19.46
181.503	17.41
181.723	29.7
181.943	-25.6
182.163	138.24
182.383	52.22
182.602	29.7
182.822	115.71
183.042	13.31
183.262	-50.18
183.482	54.27
183.701	50.18
183.921	-11.26
184.141	-15.36
184.361	-21.5
184.58	23.55
184.8	-9.22
185.02	-27.65
185.239	11.26
185.459	68.61
185.679	99.33
185.898	-101.37
186.118	56.32
186.338	-5.12
186.557	-7.17
186.777	15.36
186.997	-39.94
187.216	-23.55
187.436	70.65
187.655	37.89
187.875	87.04
188.095	15.36
188.314	76.8
188.534	109.57
188.753	11.26
188.973	119.81
189.192	95.23
189.412	-21.5
189.631	-7.17
189.851	-13.31
190.07	72.7
190.29	-9.22
190.509	-15.36
190.729	9.22
190.948	76.8
191.168	273.4
191.387	64.51
191.607	-33.79
191.826	-9.22
192.045	-54.27
192.265	37.89
192.484	78.85
192.704	31.74
192.923	-52.22
193.142	107.52
193.362	68.61
193.581	123.9
193.8	82.94
194.02	19.46
194.239	44.03
194.458	31.74
194.678	31.74
194.897	29.7
195.116	48.13
195.335	-31.74
195.555	-33.79
195.774	46.08
195.993	138.24
196.212	-7.17
196.432	109.57
196.651	15.36
196.87	27.65
197.089	125.95
197.308	25.6
197.528	64.51
197.747	-25.6
197.966	35.84
198.185	160.77
198.404	21.5
198.623	1.02
198.842	117.76
199.062	119.81
199.281	58.37
199.5	52.22
199.719	-5.12
199.938	31.74
200.157	97.28
200.376	-1.02
200.595	23.55
200.814	15.36
201.033	35.84
201.252	39.94
201.471	76.8
201.69	179.2
201.909	78.85
202.128	1.02
202.347	64.51
202.566	13.31
202.785	-15.36
203.004	-7.17
203.223	136.19
203.442	54.27
203.661	44.03
203.879	76.8
204.098	99.33
204.317	-17.41
204.536	84.99
204.755	27.65
204.974	37.89
205.193	23.55
205.411	78.85
205.63	54.27
205.849	15.36
206.068	50.18
206.287	15.36
206.505	56.32
206.724	19.46
206.943	-5.12
207.162	-13.31
207.381	62.46
207.599	142.33
207.818	58.37
208.037	37.89
208.255	7.17
208.474	41.98
208.693	76.8
208.911	101.37
209.13	-17.41
209.349	44.03
209.567	68.61
209.786	76.8
210.005	11.26
210.223	3.07
210.442	46.08
210.661	-68.61
210.879	-9.22
211.098	23.55
211.316	84.99
211.535	82.94
211.753	54.27
211.972	58.37
212.191	17.41
212.409	19.46
212.628	1.02
212.846	-31.74
213.065	89.09
213.283	150.53
213.502	58.37
213.72	-5.12
213.938	7.17
214.157	-41.98
214.375	27.65
214.594	13.31
214.812	54.27
215.031	35.84
215.249	13.31
215.467	46.08
215.686	103.42
215.904	35.84
216.122	58.37
216.341	48.13
216.559	74.75
216.778	140.29
216.996	105.47
217.214	9.22
217.432	31.74
217.651	9.22
217.869	25.6
218.087	-17.41
218.306	35.84
218.524	41.98
218.742	1.02
218.96	-5.12
219.179	-15.36
219.397	84.99
219.615	103.42
219.833	19.46
220.051	-19.46
220.27	54.27
220.488	62.46
220.706	103.42
220.924	37.89
221.142	-72.7
221.36	117.76
221.578	9.22
221.796	-21.5
222.015	52.22
222.233	19.46
222.451	138.24
222.669	-25.6
222.887	48.13
223.105	1.02
223.323	13.31
223.541	-21.5
223.759	62.46
223.977	52.22
224.195	123.9
224.413	115.71
224.631	66.56
224.849	1.02
225.067	11.26
225.285	-25.6
225.503	-64.51
225.721	-41.98
225.939	-1.02
226.157	37.89
226.375	177.15
226.592	46.08
226.81	31.74
227.028	46.08
227.246	101.37
227.464	7.17
227.682	41.98
227.9	128
228.117	97.28
228.335	5.12
228.553	99.33
228.771	-5.12
228.989	58.37
229.206	5.12
229.424	-1.02
229.642	-56.32
229.86	-21.5
230.077	105.47
230.295	60.42
230.513	66.56
230.731	105.47
230.948	125.95
231.166	97.28
231.384	35.84
231.601	13.31
231.819	132.09
232.037	1.02
232.254	-7.17
232.472	23.55
232.689	68.61
232.907	70.65
233.125	13.31
233.342	27.65
233.56	-35.84
233.777	3.07
233.995	17.41
234.213	39.94
234.43	52.22
234.648	3.07
234.865	82.94
235.083	54.27
235.3	-7.17
235.518	3.07
235.735	134.14
235.953	31.74
236.17	29.7
236.388	-13.31
236.605	76.8
236.822	76.8
237.04	99.33
237.257	48.13
237.475	-48.13
237.692	54.27
237.909	19.46
238.127	-17.41
238.344	39.94
238.562	21.5
238.779	-23.55
238.996	-74.75
239.214	44.03
239.431	62.46
239.648	9.22
239.865	109.57
240.083	146.43
240.3	62.46
240.517	1.02
240.735	17.41
240.952	56.32
241.169	101.37
241.386	13.31
241.603	27.65
241.821	-25.6
242.038	21.5
242.255	91.13
242.472	-39.94
242.689	-11.26
242.907	89.09
243.124	-56.32
243.341	41.98
243.558	19.46
243.775	21.5
243.992	-1.02
244.209	37.89
244.426	119.81
244.643	89.09
244.86	33.79
245.078	39.94
245.295	91.13
245.512	-46.08
245.729	-52.22
245.946	1.02
246.163	41.98
246.38	50.18
246.597	56.32
246.814	68.61
247.031	68.61
247.248	56.32
247.464	44.03
247.681	115.71
247.898	60.42
248.115	-5.12
248.332	-15.36
248.549	89.09
248.766	103.42
248.983	-3.07
249.2	29.7
249.417	33.79
249.633	-1.02
249.85	-3.07
250.067	-25.6
250.284	70.65
250.501	66.56
250.717	48.13
250.934	-70.65
251.151	-9.22
251.368	37.89
251.585	41.98
251.801	5.12
252.018	-17.41
252.235	56.32
252.451	-76.8
252.668	-15.36
252.885	144.38
253.102	17.41
253.318	5.12
253.535	-27.65
253.752	97.28
253.968	35.84
254.185	-54.27
254.401	-1.02
254.618	21.5
254.835	25.6
255.051	64.51
255.268	46.08
255.484	-23.55
255.701	5.12
255.917	52.22
256.134	-58.37
256.351	93.18
256.567	-25.6
256.784	111.61
257	-37.89
257.217	19.46
257.433	11.26
257.65	101.37
257.866	66.56
258.082	-15.36
258.299	3.07
258.515	97.28
258.732	-39.94
258.948	35.84
259.165	41.98
259.381	-41.98
259.597	3.07
259.814	-3.07
260.03	52.22
260.246	58.37
260.463	50.18
260.679	54.27
260.895	46.08
261.112	29.7
261.328	23.55
261.544	1.02
261.761	125.95
261.977	-21.5
262.193	-17.41
262.409	27.65
262.626	97.28
262.842	52.22
263.058	-78.85
263.274	52.22
263.49	113.66
263.707	78.85
263.923	87.04
264.139	23.55
264.355	72.7
264.571	78.85
264.787	-1.02
265.004	72.7
265.22	-25.6
265.436	1.02
265.652	-35.84
265.868	41.98
266.084	31.74
266.3	54.27
266.516	27.65
266.732	80.89
266.948	80.89
267.164	-3.07
267.38	46.08
267.596	-7.17
267.812	156.67
268.028	58.37
268.244	23.55
268.46	27.65
268.676	46.08
268.892	23.55
269.108	-64.51
269.324	-23.55
269.54	-9.22
269.756	82.94
269.972	-1.02
270.188	-29.7
270.403	-9.22
270.619	48.13
270.835	84.99
271.051	60.42
271.267	-23.55
271.483	-50.18
271.698	23.55
271.914	60.42
272.13	37.89
272.346	-25.6
272.562	91.13
272.777	46.08
272.993	31.74
273.209	1.02
273.425	62.46
273.64	-19.46
273.856	15.36
274.072	3.07
274.287	11.26
274.503	-7.17
274.719	140.29
274.934	109.57
275.15	48.13
275.366	-31.74
275.581	-62.46
275.797	-1.02
276.012	9.22
276.228	5.12
276.444	48.13
276.659	15.36
276.875	15.36
277.09	21.5
277.306	-17.41
277.521	46.08
277.737	64.51
277.952	54.27
278.168	74.75
278.383	66.56
278.599	25.6
278.814	119.81
279.03	9.22
279.245	132.09
279.461	52.22
279.676	50.18
279.892	31.74
280.107	64.51
280.322	-58.37
280.538	1.02
280.753	-21.5
280.969	5.12
281.184	105.47
281.399	64.51
281.615	-15.36
281.83	-15.36
282.045	-46.08
282.26	-50.18
282.476	3.07
282.691	101.37
282.906	31.74
283.122	101.37
283.337	13.31
283.552	7.17
283.767	3.07
283.983	101.37
284.198	-1.02
284.413	66.56
284.628	-5.12
284.843	17.41
285.058	29.7
285.274	13.31
285.489	-21.5
285.704	82.94
285.919	3.07
286.134	23.55
286.349	23.55
286.564	76.8
286.779	78.85
286.995	62.46
287.21	52.22
287.425	27.65
287.64	46.08
287.855	19.46
288.07	-19.46
288.285	35.84
288.5	76.8
288.715	78.85
288.93	31.74
289.145	9.22
289.36	60.42
289.575	-7.17
289.79	31.74
290.004	-11.26
290.219	78.85
290.434	44.03
290.649	-68.61
290.864	-13.31
291.079	-31.74
291.294	95.23
291.509	125.95
291.724	19.46
291.938	-17.41
292.153	33.79
292.368	64.51
292.583	-7.17
292.798	80.89
293.012	17.41
293.227	50.18
293.442	-46.08
293.657	41.98
293.871	64.51
294.086	-19.46
294.301	62.46
294.516	130.05
294.73	-21.5
294.945	-41.98
295.16	-9.22
295.374	115.71
295.589	68.61
295.804	3.07
296.018	31.74
296.233	189.44
296.447	21.5
296.662	-13.31
296.877	70.65
297.091	95.23
297.306	37.89
297.52	-29.7
297.735	95.23
297.949	-48.13
298.164	5.12
298.378	74.75
298.593	-21.5
298.807	60.42
299.022	-5.12
299.236	140.29
299.451	-39.94
299.665	21.5
299.88	13.31
300.094	50.18
300.309	-7.17
300.523	58.37
300.737	-70.65
300.952	60.42
301.166	3.07
301.381	-15.36
301.595	27.65
301.809	-17.41
302.024	17.41
302.238	-56.32
302.452	72.7
302.667	33.79
302.881	125.95
303.095	78.85
303.309	54.27
303.524	7.17
303.738	35.84
303.952	29.7
304.166	87.04
304.381	-33.79
304.595	78.85
304.809	-19.46
305.023	5.12
305.237	15.36
305.452	17.41
305.666	56.32
305.88	132.09
306.094	21.5
306.308	70.65
306.522	111.61
306.736	15.36
306.95	80.89
307.164	52.22
307.379	9.22
307.593	148.48
307.807	128
308.021	117.76
308.235	-27.65
308.449	9.22
308.663	25.6
308.877	150.53
309.091	-19.46
309.305	-5.12
309.519	-103.42
309.733	74.75
309.947	-37.89
310.161	76.8
310.374	5.12
310.588	50.18
310.802	25.6
311.016	31.74
311.23	29.7
311.444	-25.6
311.658	-54.27
311.872	50.18
312.085	119.81
312.299	-7.17
312.513	87.04
312.727	11.26
312.941	58.37
313.154	13.31
313.368	64.51
313.582	31.74
313.796	66.56
314.009	68.61
314.223	58.37
314.437	35.84
314.651	78.85
314.864	44.03
315.078	-9.22
315.292	-13.31
315.505	68.61
315.719	3.07
315.933	64.51
316.146	-48.13
316.36	-52.22
316.573	93.18
316.787	105.47
317.001	72.7
317.214	-5.12
317.428	23.55
317.641	29.7
317.855	23.55
318.068	54.27
318.282	82.94
318.495	107.52
318.709	68.61
318.922	-46.08
319.136	97.28
319.349	128
319.563	39.94
319.776	9.22
319.99	-29.7
320.203	48.13
320.417	62.46
320.63	70.65
320.843	82.94
321.057	25.6
321.27	50.18
321.483	91.13
321.697	15.36
321.91	72.7
322.124	-35.84
322.337	62.46
322.55	15.36
322.763	1.02
322.977	39.94
323.19	13.31
323.403	-23.55
323.617	72.7
323.83	80.89
324.043	-60.42
324.256	11.26
324.469	-44.03
324.683	111.61
324.896	93.18
325.109	-23.55
325.322	-17.41
325.535	91.13
325.748	125.95
325.962	107.52
326.175	109.57
326.388	76.8
326.601	60.42
326.814	44.03
327.027	33.79
327.24	101.37
327.453	-54.27
327.666	70.65
327.879	107.52
328.092	74.75
328.305	50.18
328.518	27.65
328.731	-21.5
328.944	19.46
329.157	76.8
329.37	54.27
329.583	146.43
329.796	74.75
330.009	-15.36
330.222	50.18
330.435	80.89
330.648	7.17
330.861	50.18
331.073	76.8
331.286	93.18
331.499	99.33
331.712	3.07
331.925	1.02
332.138	74.75
332.35	109.57
332.563	-13.31
332.776	60.42
332.989	-72.7
333.202	46.08
333.414	23.55
333.627	52.22
333.84	19.46
334.053	7.17
334.265	-33.79
334.478	101.37
334.691	11.26
334.903	-19.46
335.116	-7.17
335.329	29.7
335.541	11.26
335.754	68.61
335.966	33.79
336.179	-21.5
336.392	27.65
336.604	103.42
336.817	50.18
337.029	66.56
337.242	56.32
337.454	91.13
337.667	39.94
337.88	107.52
338.092	11.26
338.305	9.22
338.517	-11.26
338.729	48.13
338.942	107.52
339.154	13.31
339.367	33.79
339.579	19.46
339.792	-9.22
340.004	103.42
340.217	17.41
340.429	78.85
340.641	-21.5
340.854	1.02
341.066	13.31
341.278	46.08
341.491	140.29
341.703	62.46
341.915	-70.65
342.128	52.22
342.34	15.36
342.552	-52.22
342.764	39.94
342.977	3.07
343.189	25.6
343.401	27.65
343.613	33.79
343.826	66.56
344.038	-21.5
344.25	37.89
344.462	-11.26
344.674	48.13
344.886	5.12
345.099	48.13
345.311	70.65
345.523	48.13
345.735	-62.46
345.947	72.7
346.159	41.98
346.371	-3.07
346.583	3.07
346.795	101.37
347.007	-11.26
347.219	37.89
347.431	-31.74
347.643	17.41
347.855	-64.51
348.067	58.37
348.279	-37.89
348.491	17.41
348.703	140.29
348.915	44.03
349.127	31.74
349.339	101.37
349.551	-25.6
349.763	117.76
349.975	138.24
350.187	111.61
350.399	171.01
350.61	103.42
350.822	3.07
351.034	117.76
351.246	84.99
351.458	-15.36
351.669	35.84
351.881	105.47
352.093	58.37
352.305	17.41
352.517	-17.41
352.728	109.57
352.94	60.42
353.152	103.42
353.363	17.41
353.575	39.94
353.787	128
353.999	54.27
354.21	62.46
354.422	15.36
354.633	-5.12
354.845	-23.55
355.057	33.79
355.268	-7.17
355.48	41.98
355.692	13.31
355.903	17.41
356.115	-11.26
356.326	-35.84
356.538	80.89
356.749	52.22
356.961	52.22
357.172	-7.17
357.384	-7.17
357.595	146.43
357.807	-9.22
358.018	50.18
358.23	97.28
358.441	82.94
358.653	105.47
358.864	13.31
359.075	72.7
359.287	23.55
359.498	134.14
359.709	9.22
359.921	-23.55
360.132	72.7
360.344	44.03
360.555	-21.5
360.766	-5.12
360.977	21.5
361.189	64.51
361.4	17.41
361.611	31.74
361.823	76.8
362.034	54.27
362.245	-17.41
362.456	-27.65
362.667	78.85
362.879	21.5
363.09	91.13
363.301	60.42
363.512	39.94
363.723	56.32
363.935	27.65
364.146	130.05
364.357	29.7
364.568	-19.46
364.779	-33.79
364.99	109.57
365.201	-15.36
365.412	54.27
365.623	-56.32
365.834	66.56
366.045	64.51
366.256	128
366.467	5.12
366.678	11.26
366.889	31.74
367.1	7.17
367.311	107.52
367.522	39.94
367.733	93.18
367.944	37.89
368.155	-27.65
368.366	35.84
368.577	37.89
368.788	50.18
368.999	27.65
369.209	29.7
369.42	162.81
369.631	123.9
369.842	48.13
370.053	35.84
370.264	130.05
370.474	21.5
370.685	72.7
370.896	15.36
371.107	144.38
371.317	97.28
371.528	60.42
371.739	117.76
371.95	87.04
372.16	62.46
372.371	-15.36
372.582	-84.99
372.792	29.7
373.003	93.18
373.214	52.22
373.424	76.8
373.635	-19.46
373.846	158.72
374.056	17.41
374.267	29.7
374.477	74.75
374.688	35.84
374.898	52.22
375.109	33.79
375.319	62.46
375.53	107.52
375.74	37.89
375.951	-33.79
376.161	9.22
376.372	103.42
376.582	-23.55
376.793	95.23
377.003	-41.98
377.214	1.02
377.424	1.02
377.635	60.42
377.845	21.5
378.055	93.18
378.266	23.55
378.476	31.74
378.686	52.22
378.897	19.46
379.107	152.57
379.317	33.79
379.528	-7.17
379.738	46.08
379.948	-27.65
380.158	101.37
380.369	21.5
380.579	123.9
380.789	-29.7
380.999	62.46
381.21	95.23
381.42	76.8
381.63	-19.46
381.84	72.7
382.05	76.8
382.261	91.13
382.471	103.42
382.681	27.65
382.891	72.7
383.101	142.33
383.311	13.31
383.521	46.08
383.731	82.94
383.941	103.42
384.151	-15.36
384.361	17.41
384.571	58.37
384.781	84.99
384.991	111.61
385.201	142.33
385.411	35.84
385.621	37.89
385.831	68.61
386.041	87.04
386.251	76.8
386.461	56.32
386.671	-54.27
386.881	58.37
387.091	-7.17
387.301	107.52
387.511	52.22
387.72	48.13
387.93	54.27
388.14	33.79
388.35	123.9
388.56	78.85
388.769	101.37
388.979	13.31
389.189	35.84
389.399	-35.84
389.609	37.89
389.818	91.13
390.028	70.65
390.238	74.75
390.447	-21.5
390.657	134.14
390.867	64.51
391.076	13.31
391.286	44.03
391.496	101.37
391.705	29.7
391.915	152.57
392.125	107.52
392.334	11.26
392.544	97.28
392.753	48.13
392.963	25.6
393.172	-11.26
393.382	-33.79
393.591	121.85
393.801	62.46
394.01	140.29
394.22	95.23
394.429	64.51
394.639	101.37
394.848	117.76
395.058	70.65
395.267	87.04
395.477	74.75
395.686	84.99
395.895	144.38
396.105	136.19
396.314	142.33
396.524	56.32
396.733	5.12
396.942	125.95
397.152	125.95
397.361	105.47
397.57	56.32
397.78	111.61
397.989	136.19
398.198	125.95
398.407	95.23
398.617	105.47
398.826	123.9
399.035	54.27
399.244	154.62
399.453	154.62
399.663	105.47
399.872	183.29
400.081	64.51
400.29	175.1
400.499	62.46
400.708	173.05
400.917	68.61
401.127	101.37
401.336	74.75
401.545	205.82
401.754	152.57
401.963	166.91
402.172	107.52
402.381	11.26
402.59	95.23
402.799	117.76
403.008	187.39
403.217	125.95
403.426	103.42
403.635	74.75
403.844	160.77
404.053	58.37
404.262	115.71
404.471	293.88
404.68	117.76
404.888	105.47
405.097	173.05
405.306	154.62
405.515	250.88
405.724	123.9
405.933	246.78
406.142	254.97
406.35	246.78
406.559	199.68
406.768	173.05
406.977	199.68
407.185	205.82
407.394	248.83
407.603	173.05
407.812	277.5
408.02	271.36
408.229	191.49
408.438	300.03
408.646	181.25
408.855	238.59
409.064	322.56
409.272	304.12
409.481	349.18
409.69	273.4
409.898	279.55
410.107	320.51
410.315	355.32
410.524	386.04
410.733	400.38
410.941	367.61
411.15	353.27
411.358	553.98
411.567	465.91
411.775	439.29
411.984	429.05
412.192	570.36
412.401	398.33
412.609	578.55
412.818	656.37
413.026	574.46
413.234	486.39
413.443	480.25
413.651	519.16
413.86	617.46
414.068	670.71
414.276	713.72
414.485	711.67
414.693	703.48
414.901	857.07
415.11	721.91
415.318	728.05
415.526	726
415.734	834.55
415.943	793.59
416.151	982
416.359	922.61
416.567	965.62
416.776	1039.34
416.984	1111.02
417.192	1149.93
417.4	1043.44
417.608	1053.68
417.817	1174.51
418.025	1154.03
418.233	1401.83
418.441	1301.48
418.649	1309.68
418.857	1428.46
419.065	1442.79
419.273	1356.78
419.481	1428.46
419.689	1545.19
419.897	1692.65
420.105	1700.84
420.313	1774.56
420.521	1717.22
420.729	1811.43
420.937	1774.56
421.145	1924.07
421.353	2055.14
421.561	2229.21
421.769	2030.56
421.977	2245.6
422.185	2157.54
422.393	2286.56
422.601	2491.35
422.809	2425.82
423.017	2579.42
423.224	2509.79
423.432	2786.26
423.64	2767.83
423.848	2911.19
424.056	2780.12
424.263	3085.26
424.471	2986.96
424.679	3220.43
424.887	3318.73
425.094	3492.81
425.302	3423.18
425.51	3613.64
425.718	3658.7
425.925	3668.94
426.133	3765.19
426.341	4035.52
426.548	4219.84
426.756	4154.3
426.964	4307.9
427.171	4549.56
427.379	4666.3
427.586	4660.15
427.794	4862.9
428.001	4961.2
428.209	5245.87
428.417	5012.4
428.624	5475.24
428.832	5618.6
429.039	5594.03
429.247	5596.07
429.454	6040.48
429.662	6413.21
429.869	6013.86
430.076	6546.33
430.284	6321.06
430.491	6488.99
430.699	6863.77
430.906	6986.65
431.114	6923.16
431.321	7273.36
431.528	7234.45
431.736	7685
431.943	8063.88
432.15	7797.64
432.358	7900.04
432.565	8528.77
432.772	8176.52
432.979	8782.71
433.187	9007.99
433.394	9116.53
433.601	9489.26
433.808	9759.6
434.016	9579.37
434.223	9929.58
434.43	10468.19
434.637	10216.29
434.844	10826.59
435.052	11062.1
435.259	11076.44
435.466	11078.49
435.673	10974.04
435.88	11662.16
436.087	12442.43
436.294	12450.63
436.501	11768.65
436.708	12256.07
436.915	12780.35
437.122	13183.8
437.329	12999.48
437.537	13431.6
437.743	13665.07
437.95	13933.36
438.157	14248.74
438.364	14775.07
438.571	14885.66
438.778	14869.28
438.985	16309
439.192	15829.77
439.399	16093.96
439.606	15762.19
439.813	16792.32
440.02	17677.04
440.227	17439.48
440.433	17173.24
440.64	17740.53
440.847	17687.28
441.054	18006.77
441.261	19319.51
441.467	18502.37
441.674	19376.86
441.881	20052.69
442.088	19716.82
442.294	19585.75
442.501	20120.27
442.708	20908.74
442.914	21265.08
443.121	22547.11
443.328	21490.36
443.534	23177.89
443.741	22332.08
443.948	21942.96
444.154	23861.91
444.361	23634.58
444.568	23571.1
444.774	23704.21
444.981	23966.35
445.187	24580.74
445.394	25858.68
445.6	25334.4
445.807	27685.47
446.013	26546.79
446.22	27091.55
446.426	28228.18
446.633	28215.89
446.839	29233.73
447.046	27978.33
447.252	29502.01
447.459	29729.34
447.665	29645.37
447.871	30470.7
448.078	32025.11
448.284	30294.58
448.491	31224.36
448.697	32410.13
448.903	33225.22
449.11	33114.63
449.316	32295.44
449.522	32942.6
449.728	33794.56
449.935	34079.22
450.141	33802.75
450.347	35015.15
450.553	33679.87
450.76	34318.84
450.966	35496.42
451.172	34863.6
451.378	35586.53
451.584	35185.13
451.791	35541.47
451.997	35721.69
452.203	36266.45
452.409	36323.8
452.615	35961.31
452.821	34851.31
453.027	34386.42
453.233	36028.89
453.44	34570.74
453.646	34990.57
453.852	35228.13
454.058	35615.2
454.264	34902.51
454.47	34965.99
454.676	34400.76
454.882	35310.05
455.088	32293.4
455.294	33157.64
455.5	33368.58
455.705	33743.36
455.911	32270.87
456.117	31777.31
456.323	31257.12
456.529	29579.84
456.735	30833.19
456.941	29989.43
457.147	29131.33
457.352	28596.81
457.558	28084.82
457.764	28412.49
457.97	27740.76
458.176	27101.79
458.381	27050.6
458.587	25780.85
458.793	26086
458.999	24433.29
459.204	25913.97
459.41	25281.15
459.616	23560.86
459.821	23900.82
460.027	23878.29
460.233	23022.24
460.438	22102.7
460.644	21996.21
460.85	21381.82
461.055	20695.75
461.261	20808.39
461.466	19335.9
461.672	18498.28
461.878	19847.89
462.083	18608.87
462.289	18107.12
462.494	18082.54
462.7	17103.61
462.905	16683.78
463.111	17107.71
463.316	17103.61
463.522	16763.65
463.727	16859.9
463.932	16816.9
464.138	16780.03
464.343	17015.55
464.549	16153.35
464.754	16544.52
464.959	16245.51
465.165	16524.04
465.37	15663.89
465.575	15278.87
465.781	15985.42
465.986	15850.25
466.191	15407.89
466.397	14900
466.602	14275.37
