Data from USB4F104151__82__12-12-51-801.txt Node

Date: Fri Mar 14 12:12:51 EDT 2025
User: louis
Spectrometer: USB4F10415
Trigger mode: 4
Integration Time (sec): 5.000000E-2
Scans to average: 1
Electric dark correction enabled: true
Nonlinearity correction enabled: false
Boxcar width: 0
XAxis mode: Wavelengths
Number of Pixels in Spectrum: 3648
>>>>>Begin Spectral Data<<<<<
178.204	-178.51
178.424	-178.51
178.644	-178.51
178.864	-242
179.084	-239.95
179.304	44.71
179.524	-6.49
179.744	20.14
179.964	65.19
180.184	-12.63
180.404	83.63
180.624	-39.25
180.844	-20.82
181.064	-78.16
181.283	-86.36
181.503	-14.68
181.723	44.71
181.943	-55.64
182.163	153.26
182.383	9.9
182.602	40.62
182.822	42.67
183.042	22.19
183.262	34.47
183.482	28.33
183.701	-2.39
183.921	-33.11
184.141	-20.82
184.361	42.67
184.58	20.14
184.8	-35.16
185.02	-102.74
185.239	36.52
185.459	32.43
185.679	22.19
185.898	-92.5
186.118	11.95
186.338	42.67
186.557	20.14
186.777	11.95
186.997	-22.87
187.216	-31.06
187.436	151.21
187.655	73.39
187.875	40.62
188.095	11.95
188.314	100.01
188.534	116.39
188.753	-39.25
188.973	13.99
189.192	87.72
189.412	61.1
189.631	44.71
189.851	-31.06
190.07	87.72
190.29	-106.84
190.509	5.8
190.729	20.14
190.948	36.52
191.168	286.37
191.387	83.63
191.607	-26.96
191.826	50.86
192.045	-22.87
192.265	36.52
192.484	75.43
192.704	63.15
192.923	-22.87
193.142	147.11
193.362	36.52
193.581	91.82
193.8	36.52
194.02	13.99
194.239	48.81
194.458	20.14
194.678	16.04
194.897	26.28
195.116	32.43
195.335	65.19
195.555	30.38
195.774	1.71
195.993	40.62
196.212	-72.02
196.432	-24.92
196.651	34.47
196.87	13.99
197.089	95.91
197.308	18.09
197.528	26.28
197.747	-49.49
197.966	18.09
198.185	44.71
198.404	-33.11
198.623	38.57
198.842	91.82
199.062	36.52
199.281	61.1
199.5	67.24
199.719	34.47
199.938	85.67
200.157	132.78
200.376	48.81
200.595	5.8
200.814	16.04
201.033	20.14
201.252	65.19
201.471	28.33
201.69	65.19
201.909	89.77
202.128	59.05
202.347	77.48
202.566	-29.01
202.785	20.14
203.004	-43.35
203.223	149.16
203.442	42.67
203.661	44.71
203.879	-22.87
204.098	114.34
204.317	-84.31
204.536	18.09
204.755	85.67
204.974	108.2
205.193	-20.82
205.411	79.53
205.63	48.81
205.849	-29.01
206.068	36.52
206.287	46.76
206.505	26.28
206.724	13.99
206.943	-6.49
207.162	-16.73
207.381	24.23
207.599	18.09
207.818	52.91
208.037	26.28
208.255	24.23
208.474	-14.68
208.693	57
208.911	16.04
209.13	34.47
209.349	91.82
209.567	40.62
209.786	83.63
210.005	59.05
210.223	-26.96
210.442	22.19
210.661	93.87
210.879	-22.87
211.098	69.29
211.316	85.67
211.535	71.34
211.753	24.23
211.972	-57.68
212.191	9.9
212.409	95.91
212.628	54.95
212.846	40.62
213.065	5.8
213.283	54.95
213.502	-12.63
213.72	20.14
213.938	26.28
214.157	100.01
214.375	1.71
214.594	-6.49
214.812	46.76
215.031	40.62
215.249	-2.39
215.467	13.99
215.686	9.9
215.904	75.43
216.122	52.91
216.341	108.2
216.559	-12.63
216.778	63.15
216.996	85.67
217.214	52.91
217.432	-26.96
217.651	-35.16
217.869	20.14
218.087	38.57
218.306	38.57
218.524	46.76
218.742	-78.16
218.96	34.47
219.179	-35.16
219.397	-6.49
219.615	130.73
219.833	7.85
220.051	30.38
220.27	26.28
220.488	44.71
220.706	-49.49
220.924	-10.58
221.142	-12.63
221.36	85.67
221.578	63.15
221.796	112.3
222.015	30.38
222.233	114.34
222.451	81.58
222.669	54.95
222.887	44.71
223.105	11.95
223.323	3.75
223.541	69.29
223.759	50.86
223.977	3.75
224.195	95.91
224.413	114.34
224.631	50.86
224.849	48.81
225.067	65.19
225.285	-8.53
225.503	-6.49
225.721	-12.63
225.939	26.28
226.157	7.85
226.375	171.69
226.592	7.85
226.81	-6.49
227.028	57
227.246	63.15
227.464	18.09
227.682	83.63
227.9	155.3
228.117	112.3
228.335	54.95
228.553	63.15
228.771	69.29
228.989	75.43
229.206	13.99
229.424	-24.92
229.642	-20.82
229.86	-65.88
230.077	65.19
230.295	-2.39
230.513	40.62
230.731	85.67
230.948	114.34
231.166	118.44
231.384	-6.49
231.601	3.75
231.819	91.82
232.037	-4.44
232.254	-12.63
232.472	69.29
232.689	22.19
232.907	24.23
233.125	32.43
233.342	3.75
233.56	-29.01
233.777	52.91
233.995	-31.06
234.213	16.04
234.43	128.68
234.648	28.33
234.865	-8.53
235.083	40.62
235.3	61.1
235.518	61.1
235.735	112.3
235.953	100.01
236.17	36.52
236.388	69.29
236.605	63.15
236.822	71.34
237.04	91.82
237.257	-45.4
237.475	13.99
237.692	67.24
237.909	-26.96
238.127	54.95
238.344	71.34
238.562	59.05
238.779	-43.35
238.996	-16.73
239.214	-2.39
239.431	136.87
239.648	106.15
239.865	57
240.083	44.71
240.3	16.04
240.517	26.28
240.735	59.05
240.952	89.77
241.169	-2.39
241.386	40.62
241.603	-2.39
241.821	-86.36
242.038	120.49
242.255	18.09
242.472	54.95
242.689	-6.49
242.907	73.39
243.124	42.67
243.341	5.8
243.558	16.04
243.775	1.71
243.992	22.19
244.209	34.47
244.426	73.39
244.643	95.91
244.86	34.47
245.078	-18.77
245.295	46.76
245.512	36.52
245.729	-24.92
245.946	61.1
246.163	26.28
246.38	44.71
246.597	-18.77
246.814	26.28
247.031	11.95
247.248	-4.44
247.464	-35.16
247.681	9.9
247.898	61.1
248.115	57
248.332	1.71
248.549	3.75
248.766	102.06
248.983	81.58
249.2	34.47
249.417	57
249.633	-39.25
249.85	89.77
250.067	-14.68
250.284	-22.87
250.501	93.87
250.717	18.09
250.934	-22.87
251.151	44.71
251.368	-12.63
251.585	30.38
251.801	63.15
252.018	-82.26
252.235	118.44
252.451	5.8
252.668	36.52
252.885	36.52
253.102	69.29
253.318	-0.34
253.535	-24.92
253.752	46.76
253.968	-14.68
254.185	-24.92
254.401	-14.68
254.618	30.38
254.835	26.28
255.051	52.91
255.268	36.52
255.484	-22.87
255.701	28.33
255.917	63.15
256.134	28.33
256.351	-37.2
256.567	28.33
256.784	-35.16
257	-121.17
257.217	44.71
257.433	-2.39
257.65	20.14
257.866	122.54
258.082	-0.34
258.299	32.43
258.515	26.28
258.732	48.81
258.948	-37.2
259.165	-14.68
259.381	-26.96
259.597	46.76
259.814	-45.4
260.03	7.85
260.246	69.29
260.463	95.91
260.679	32.43
260.895	59.05
261.112	57
261.328	-12.63
261.544	3.75
261.761	13.99
261.977	-26.96
262.193	9.9
262.409	81.58
262.626	63.15
262.842	50.86
263.058	-74.07
263.274	28.33
263.49	34.47
263.707	75.43
263.923	91.82
264.139	-18.77
264.355	9.9
264.571	7.85
264.787	46.76
265.004	81.58
265.22	30.38
265.436	54.95
265.652	-26.96
265.868	32.43
266.084	-61.78
266.3	-20.82
266.516	-51.54
266.732	42.67
266.948	50.86
267.164	9.9
267.38	67.24
267.596	9.9
267.812	91.82
268.028	42.67
268.244	-29.01
268.46	30.38
268.676	11.95
268.892	34.47
269.108	9.9
269.324	-63.83
269.54	9.9
269.756	57
269.972	-16.73
270.188	48.81
270.403	-72.02
270.619	20.14
270.835	69.29
271.051	11.95
271.267	32.43
271.483	-41.3
271.698	93.87
271.914	28.33
272.13	13.99
272.346	-6.49
272.562	22.19
272.777	44.71
272.993	63.15
273.209	48.81
273.425	40.62
273.64	-16.73
273.856	126.63
274.072	36.52
274.287	-10.58
274.503	63.15
274.719	57
274.934	38.57
275.15	-51.54
275.366	22.19
275.581	32.43
275.797	50.86
276.012	-35.16
276.228	13.99
276.444	50.86
276.659	24.23
276.875	3.75
277.09	7.85
277.306	-22.87
277.521	-26.96
277.737	52.91
277.952	-12.63
278.168	-35.16
278.383	61.1
278.599	20.14
278.814	26.28
279.03	-53.59
279.245	63.15
279.461	-10.58
279.676	91.82
279.892	-20.82
280.107	77.48
280.322	-29.01
280.538	73.39
280.753	26.28
280.969	-43.35
281.184	-6.49
281.399	-6.49
281.615	16.04
281.83	75.43
282.045	-63.83
282.26	-41.3
282.476	-24.92
282.691	32.43
282.906	-2.39
283.122	63.15
283.337	-22.87
283.552	69.29
283.767	34.47
283.983	-41.3
284.198	30.38
284.413	13.99
284.628	-65.88
284.843	40.62
285.058	22.19
285.274	61.1
285.489	-16.73
285.704	95.91
285.919	13.99
286.134	-31.06
286.349	-29.01
286.564	-53.59
286.779	61.1
286.995	16.04
287.21	-88.4
287.425	-2.39
287.64	22.19
287.855	30.38
288.07	-4.44
288.285	48.81
288.5	57
288.715	28.33
288.93	20.14
289.145	26.28
289.36	16.04
289.575	57
289.79	52.91
290.004	-14.68
290.219	85.67
290.434	32.43
290.649	20.14
290.864	30.38
291.079	-51.54
291.294	38.57
291.509	44.71
291.724	67.24
291.938	-20.82
292.153	9.9
292.368	24.23
292.583	36.52
292.798	65.19
293.012	65.19
293.227	48.81
293.442	52.91
293.657	24.23
293.871	57
294.086	22.19
294.301	159.4
294.516	97.96
294.73	97.96
294.945	52.91
295.16	11.95
295.374	67.24
295.589	9.9
295.804	-53.59
296.018	22.19
296.233	153.26
296.447	67.24
296.662	-2.39
296.877	81.58
297.091	93.87
297.306	46.76
297.52	81.58
297.735	20.14
297.949	-10.58
298.164	36.52
298.378	61.1
298.593	-76.12
298.807	-51.54
299.022	75.43
299.236	104.11
299.451	-12.63
299.665	48.81
299.88	38.57
300.094	52.91
300.309	65.19
300.523	5.8
300.737	38.57
300.952	30.38
301.166	16.04
301.381	65.19
301.595	-35.16
301.809	57
302.024	7.85
302.238	-22.87
302.452	42.67
302.667	67.24
302.881	118.44
303.095	57
303.309	24.23
303.524	24.23
303.738	20.14
303.952	-22.87
304.166	85.67
304.381	-22.87
304.595	106.15
304.809	-72.02
305.023	11.95
305.237	-8.53
305.452	11.95
305.666	95.91
305.88	71.34
306.094	5.8
306.308	28.33
306.522	48.81
306.736	54.95
306.95	26.28
307.164	13.99
307.379	87.72
307.593	69.29
307.807	77.48
308.021	77.48
308.235	36.52
308.449	48.81
308.663	-18.77
308.877	75.43
309.091	11.95
309.305	79.53
309.519	-57.68
309.733	67.24
309.947	-45.4
310.161	65.19
310.374	22.19
310.588	40.62
310.802	-39.25
311.016	28.33
311.23	-61.78
311.444	-2.39
311.658	-47.44
311.872	73.39
312.085	81.58
312.299	-16.73
312.513	5.8
312.727	48.81
312.941	7.85
313.154	83.63
313.368	38.57
313.582	11.95
313.796	63.15
314.009	61.1
314.223	97.96
314.437	44.71
314.651	73.39
314.864	42.67
315.078	-33.11
315.292	-18.77
315.505	73.39
315.719	61.1
315.933	-29.01
316.146	28.33
316.36	-6.49
316.573	44.71
316.787	42.67
317.001	11.95
317.214	-43.35
317.428	165.54
317.641	9.9
317.855	-35.16
318.068	7.85
318.282	40.62
318.495	104.11
318.709	91.82
318.922	-4.44
319.136	-20.82
319.349	79.53
319.563	36.52
319.776	-14.68
319.99	24.23
320.203	77.48
320.417	22.19
320.63	57
320.843	44.71
321.057	18.09
321.27	-20.82
321.483	28.33
321.697	149.16
321.91	-8.53
322.124	1.71
322.337	13.99
322.55	40.62
322.763	9.9
322.977	1.71
323.19	-6.49
323.403	61.1
323.617	-31.06
323.83	59.05
324.043	-14.68
324.256	38.57
324.469	30.38
324.683	93.87
324.896	52.91
325.109	63.15
325.322	-20.82
325.535	9.9
325.748	-45.4
325.962	7.85
326.175	-47.44
326.388	-10.58
326.601	67.24
326.814	-12.63
327.027	122.54
327.24	16.04
327.453	-59.73
327.666	83.63
327.879	122.54
328.092	48.81
328.305	20.14
328.518	48.81
328.731	-84.31
328.944	-14.68
329.157	69.29
329.37	75.43
329.583	48.81
329.796	134.82
330.009	-131.41
330.222	50.86
330.435	7.85
330.648	59.05
330.861	5.8
331.073	13.99
331.286	83.63
331.499	16.04
331.712	1.71
331.925	44.71
332.138	16.04
332.35	13.99
332.563	-125.27
332.776	106.15
332.989	-29.01
333.202	42.67
333.414	24.23
333.627	7.85
333.84	38.57
334.053	61.1
334.265	-8.53
334.478	48.81
334.691	-10.58
334.903	18.09
335.116	-43.35
335.329	-0.34
335.541	9.9
335.754	95.91
335.966	-51.54
336.179	-0.34
336.392	34.47
336.604	-0.34
336.817	61.1
337.029	20.14
337.242	73.39
337.454	16.04
337.667	-8.53
337.88	22.19
338.092	67.24
338.305	-4.44
338.517	-6.49
338.729	83.63
338.942	67.24
339.154	-33.11
339.367	-61.78
339.579	22.19
339.792	-2.39
340.004	40.62
340.217	18.09
340.429	57
340.641	-65.88
340.854	50.86
341.066	13.99
341.278	1.71
341.491	143.02
341.703	-37.2
341.915	-29.01
342.128	42.67
342.34	34.47
342.552	-29.01
342.764	38.57
342.977	57
343.189	93.87
343.401	57
343.613	-88.4
343.826	-51.54
344.038	7.85
344.25	-26.96
344.462	57
344.674	97.96
344.886	65.19
345.099	26.28
345.311	28.33
345.523	-29.01
345.735	-24.92
345.947	-24.92
346.159	-22.87
346.371	3.75
346.583	-18.77
346.795	93.87
347.007	28.33
347.219	52.91
347.431	5.8
347.643	50.86
347.855	20.14
348.067	128.68
348.279	-14.68
348.491	36.52
348.703	7.85
348.915	-22.87
349.127	-4.44
349.339	71.34
349.551	24.23
349.763	7.85
349.975	18.09
350.187	63.15
350.399	100.01
350.61	79.53
350.822	3.75
351.034	1.71
351.246	13.99
351.458	75.43
351.669	85.67
351.881	71.34
352.093	57
352.305	26.28
352.517	153.26
352.728	93.87
352.94	87.72
353.152	71.34
353.363	-20.82
353.575	87.72
353.787	116.39
353.999	54.95
354.21	102.06
354.422	95.91
354.633	59.05
354.845	3.75
355.057	3.75
355.268	30.38
355.48	87.72
355.692	-24.92
355.903	95.91
356.115	16.04
356.326	-84.31
356.538	100.01
356.749	65.19
356.961	93.87
357.172	24.23
357.384	-100.69
357.595	214.7
357.807	-24.92
358.018	-82.26
358.23	-39.25
358.441	140.97
358.653	13.99
358.864	75.43
359.075	-59.73
359.287	116.39
359.498	85.67
359.709	-14.68
359.921	57
360.132	38.57
360.344	18.09
360.555	-2.39
360.766	91.82
360.977	1.71
361.189	52.91
361.4	34.47
361.611	97.96
361.823	9.9
362.034	34.47
362.245	-51.54
362.456	-29.01
362.667	20.14
362.879	-18.77
363.09	71.34
363.301	97.96
363.512	-4.44
363.723	42.67
363.935	-16.73
364.146	83.63
364.357	24.23
364.568	-31.06
364.779	-12.63
364.99	61.1
365.201	-24.92
365.412	-10.58
365.623	-33.11
365.834	87.72
366.045	16.04
366.256	48.81
366.467	54.95
366.678	5.8
366.889	-22.87
367.1	-16.73
367.311	40.62
367.522	-0.34
367.733	20.14
367.944	13.99
368.155	-2.39
368.366	85.67
368.577	20.14
368.788	71.34
368.999	-35.16
369.209	-20.82
369.42	79.53
369.631	130.73
369.842	110.25
370.053	50.86
370.264	13.99
370.474	-6.49
370.685	-8.53
370.896	48.81
371.107	24.23
371.317	30.38
371.528	54.95
371.739	104.11
371.95	11.95
372.16	34.47
372.371	38.57
372.582	5.8
372.792	-33.11
373.003	71.34
373.214	34.47
373.424	126.63
373.635	5.8
373.846	71.34
374.056	59.05
374.267	143.02
374.477	65.19
374.688	44.71
374.898	28.33
375.109	54.95
375.319	79.53
375.53	69.29
375.74	102.06
375.951	13.99
376.161	20.14
376.372	81.58
376.582	-0.34
376.793	71.34
377.003	9.9
377.214	48.81
377.424	52.91
377.635	9.9
377.845	48.81
378.055	108.2
378.266	-35.16
378.476	7.85
378.686	-4.44
378.897	-39.25
379.107	54.95
379.317	42.67
379.528	-39.25
379.738	81.58
379.948	-2.39
380.158	75.43
380.369	97.96
380.579	40.62
380.789	54.95
380.999	65.19
381.21	73.39
381.42	73.39
381.63	1.71
381.84	52.91
382.05	48.81
382.261	16.04
382.471	42.67
382.681	5.8
382.891	79.53
383.101	1.71
383.311	-18.77
383.521	59.05
383.731	36.52
383.941	32.43
384.151	85.67
384.361	48.81
384.571	42.67
384.781	-16.73
384.991	134.82
385.201	30.38
385.411	28.33
385.621	7.85
385.831	48.81
386.041	-20.82
386.251	89.77
386.461	102.06
386.671	108.2
386.881	1.71
387.091	-18.77
387.301	108.2
387.511	85.67
387.72	46.76
387.93	44.71
388.14	-24.92
388.35	44.71
388.56	65.19
388.769	71.34
388.979	81.58
389.189	-8.53
389.399	38.57
389.609	16.04
389.818	77.48
390.028	124.58
390.238	50.86
390.447	57
390.657	77.48
390.867	65.19
391.076	1.71
391.286	18.09
391.496	77.48
391.705	-2.39
391.915	126.63
392.125	44.71
392.334	67.24
392.544	130.73
392.753	44.71
392.963	-24.92
393.172	75.43
393.382	38.57
393.591	130.73
393.801	95.91
394.01	179.88
394.22	116.39
394.429	48.81
394.639	65.19
394.848	36.52
395.058	52.91
395.267	71.34
395.477	83.63
395.686	52.91
395.895	104.11
396.105	69.29
396.314	83.63
396.524	71.34
396.733	3.75
396.942	83.63
397.152	97.96
397.361	42.67
397.57	145.06
397.78	24.23
397.989	91.82
398.198	126.63
398.407	-24.92
398.617	61.1
398.826	40.62
399.035	42.67
399.244	89.77
399.453	63.15
399.663	26.28
399.872	153.26
400.081	85.67
400.29	120.49
400.499	-12.63
400.708	26.28
400.917	81.58
401.127	81.58
401.336	67.24
401.545	138.92
401.754	91.82
401.963	87.72
402.172	5.8
402.381	5.8
402.59	73.39
402.799	114.34
403.008	157.35
403.217	36.52
403.426	132.78
403.635	-20.82
403.844	81.58
404.053	108.2
404.262	46.76
404.471	173.74
404.68	112.3
404.888	44.71
405.097	18.09
405.306	112.3
405.515	157.35
405.724	110.25
405.933	153.26
406.142	122.54
406.35	190.12
406.559	83.63
406.768	44.71
406.977	202.41
407.185	140.97
407.394	108.2
407.603	79.53
407.812	177.83
408.02	159.4
408.229	77.48
408.438	132.78
408.646	112.3
408.855	194.22
409.064	169.64
409.272	155.3
409.481	167.59
409.69	110.25
409.898	126.63
410.107	124.58
410.315	216.74
410.524	196.26
410.733	245.41
410.941	210.6
411.15	222.89
411.358	190.12
411.567	296.61
411.775	239.27
411.984	220.84
412.192	253.61
412.401	202.41
412.609	390.82
412.818	337.57
413.026	321.19
413.234	280.23
413.443	210.6
413.651	255.65
413.86	288.42
414.068	356.01
414.276	433.83
414.485	315.05
414.693	401.06
414.901	482.98
415.11	405.16
415.318	439.97
415.526	456.36
415.734	425.64
415.943	423.59
416.151	476.84
416.359	476.84
416.567	495.27
416.776	575.14
416.984	591.52
417.192	673.44
417.4	528.03
417.608	566.95
417.817	564.9
418.025	585.38
418.233	644.77
418.441	634.53
418.649	595.62
418.857	755.36
419.065	814.75
419.273	681.63
419.481	800.41
419.689	837.28
419.897	890.53
420.105	843.42
420.313	935.58
420.521	921.24
420.729	911
420.937	1060.51
421.145	949.92
421.353	1040.03
421.561	1203.86
421.769	1091.23
421.977	1132.19
422.185	1167
422.393	1134.23
422.601	1363.61
422.809	1291.93
423.017	1320.6
423.224	1271.45
423.432	1447.57
423.64	1396.37
423.848	1646.23
424.056	1474.2
424.263	1576.59
424.471	1685.14
424.679	1693.33
424.887	1668.75
425.094	1838.73
425.302	1711.76
425.51	1795.73
425.718	1932.94
425.925	1896.08
426.133	1996.43
426.341	2104.97
426.548	2233.99
426.756	2158.22
426.964	2260.62
427.171	2420.36
427.379	2406.02
427.586	2387.59
427.794	2444.93
428.001	2616.96
428.209	2725.51
428.417	2645.63
428.624	2848.38
428.832	2924.16
429.039	2868.86
429.247	2838.14
429.454	3079.8
429.662	3350.14
429.869	3188.35
430.076	3364.47
430.284	3247.74
430.491	3589.75
430.699	3542.64
430.906	3645.04
431.114	3548.79
431.321	3743.35
431.528	3841.65
431.736	3987.05
431.943	4238.95
432.15	4179.56
432.358	4232.81
432.565	4443.75
432.772	4290.15
432.979	4490.85
433.187	4646.5
433.394	4634.21
433.601	4990.56
433.808	5105.24
434.016	4884.06
434.223	5299.8
434.43	5451.35
434.637	5537.37
434.844	5764.69
435.052	5987.92
435.259	5897.81
435.466	5936.72
435.673	5854.8
435.88	6102.61
436.087	6565.45
436.294	6608.45
436.501	6422.09
436.708	6673.99
436.915	6778.44
437.122	7165.5
437.329	6993.47
437.537	7157.31
437.743	7327.29
437.95	7419.45
438.157	7829.04
438.364	8007.22
438.571	7829.04
438.778	8087.09
438.985	8572.46
439.192	8324.65
439.399	8789.54
439.606	8521.26
439.813	8910.37
440.02	9393.69
440.227	9297.44
440.433	9279.01
440.64	9471.51
440.847	9545.24
441.054	9700.89
441.261	10395.15
441.467	10206.73
441.674	10421.77
441.881	10585.61
442.088	10866.18
442.294	10724.87
442.501	10941.96
442.708	11212.29
442.914	11724.28
443.121	12035.57
443.328	11640.31
443.534	12355.05
443.741	12185.07
443.948	11918.84
444.154	12922.34
444.361	12828.13
444.568	12830.18
444.774	12856.81
444.981	12928.49
445.187	13272.54
445.394	13927.89
445.6	13837.78
445.807	15082.95
446.013	14480.85
446.22	14769.61
446.426	15420.86
446.633	15529.41
446.839	15992.25
447.046	15320.51
447.252	16205.24
447.459	15998.39
447.665	15740.35
447.871	16801.19
448.078	17427.87
448.284	16846.25
448.491	17120.68
448.697	17890.71
448.903	18210.2
449.11	18122.13
449.316	17855.9
449.522	18298.26
449.728	18681.23
449.935	18691.47
450.141	18824.59
450.347	19197.32
450.553	18785.68
450.76	19027.34
450.966	19604.86
451.172	19494.27
451.378	19834.24
451.584	19586.43
451.791	20022.65
451.997	19694.97
452.203	20419.96
452.409	20176.25
452.615	20417.91
452.821	19176.84
453.027	19029.38
453.233	20372.85
453.44	19418.5
453.646	19858.81
453.852	19713.41
454.058	20053.37
454.264	19416.45
454.47	19942.78
454.676	19357.06
454.882	20110.71
455.088	18156.95
455.294	18570.64
455.5	18916.75
455.705	19080.58
455.911	18394.51
456.117	18103.7
456.323	17374.63
456.529	16750
456.735	17585.57
456.941	17116.58
457.147	16905.64
457.352	16358.83
457.558	15934.9
457.764	15746.49
457.97	15695.29
458.176	15470.01
458.381	15465.92
458.587	14755.27
458.793	14892.49
458.999	14024.15
459.204	14749.13
459.41	14230.99
459.616	13577.69
459.821	13393.37
460.027	13235.68
460.233	13108.71
460.438	12475.88
460.644	12594.67
460.85	11988.47
461.055	11849.21
461.261	11824.63
461.466	10913.28
461.672	10624.52
461.878	11505.15
462.083	10579.47
462.289	10360.33
462.494	10518.03
462.7	9834
462.905	9743.89
463.111	10075.66
463.316	9911.83
463.522	9815.57
463.727	10042.9
463.932	9733.65
464.138	9776.66
464.343	9545.24
464.549	9512.47
464.754	9702.93
464.959	9805.33
465.165	9530.91
465.37	9203.23
465.575	8785.44
465.781	9184.8
465.986	9143.84
466.191	8949.28
466.397	8767.01
466.602	8390.19
466.807	8457.77
467.012	8633.89
467.218	8744.49
467.423	8529.45
467.628	8574.5
467.833	8648.23
468.038	8447.53
468.244	8425
