Data from USB4F104151__70__12-12-39-553.txt Node

Date: Fri Mar 14 12:12:39 EDT 2025
User: louis
Spectrometer: USB4F10415
Trigger mode: 4
Integration Time (sec): 5.000000E-2
Scans to average: 1
Electric dark correction enabled: true
Nonlinearity correction enabled: false
Boxcar width: 0
XAxis mode: Wavelengths
Number of Pixels in Spectrum: 3648
>>>>>Begin Spectral Data<<<<<
178.204	-286.89
178.424	-286.89
178.644	-286.89
178.864	-272.55
179.084	-252.07
179.304	59.22
179.524	14.17
179.744	-63.66
179.964	24.4
180.184	36.69
180.404	-22.7
180.624	-34.99
180.844	16.21
181.064	14.17
181.283	28.5
181.503	-69.8
181.723	-2.22
181.943	-61.61
182.163	81.75
182.383	-57.51
182.602	147.28
182.822	-14.51
183.042	71.51
183.262	-12.46
183.482	16.21
183.701	-0.17
183.921	5.97
184.141	-22.7
184.361	51.03
184.58	24.4
184.8	36.69
185.02	-8.36
185.239	77.65
185.459	-45.23
185.679	143.19
185.898	16.21
186.118	46.93
186.338	91.99
186.557	55.12
186.777	3.93
186.997	14.17
187.216	-65.71
187.436	10.07
187.655	22.36
187.875	-45.23
188.095	-34.99
188.314	61.27
188.534	20.31
188.753	-65.71
188.973	46.93
189.192	71.51
189.412	38.74
189.631	-6.31
189.851	34.64
190.07	108.37
190.29	-77.99
190.509	-18.6
190.729	-49.32
190.948	42.84
191.168	165.71
191.387	106.32
191.607	-30.89
191.826	61.27
192.045	-10.41
192.265	-61.61
192.484	3.93
192.704	-12.46
192.923	-45.23
193.142	130.9
193.362	55.12
193.581	85.84
193.8	-6.31
194.02	36.69
194.239	16.21
194.458	-37.03
194.678	-16.55
194.897	44.88
195.116	-0.17
195.335	-4.27
195.555	26.45
195.774	3.93
195.993	46.93
196.212	24.4
196.432	-14.51
196.651	-10.41
196.87	-34.99
197.089	116.56
197.308	-18.6
197.528	38.74
197.747	-57.51
197.966	-37.03
198.185	14.17
198.404	-10.41
198.623	-14.51
198.842	28.5
199.062	40.79
199.281	14.17
199.5	14.17
199.719	73.56
199.938	20.31
200.157	8.02
200.376	63.32
200.595	51.03
200.814	71.51
201.033	28.5
201.252	51.03
201.471	-18.6
201.69	-18.6
201.909	100.18
202.128	-18.6
202.347	22.36
202.566	-24.75
202.785	28.5
203.004	-22.7
203.223	57.17
203.442	-34.99
203.661	-4.27
203.879	1.88
204.098	100.18
204.317	-71.85
204.536	104.28
204.755	-14.51
204.974	55.12
205.193	-14.51
205.411	141.14
205.63	1.88
205.849	30.55
206.068	10.07
206.287	61.27
206.505	30.55
206.724	8.02
206.943	14.17
207.162	79.7
207.381	44.88
207.599	85.84
207.818	-43.18
208.037	38.74
208.255	-20.65
208.474	38.74
208.693	59.22
208.911	40.79
209.13	5.97
209.349	48.98
209.567	-20.65
209.786	71.51
210.005	-0.17
210.223	48.98
210.442	-77.99
210.661	48.98
210.879	20.31
211.098	-22.7
211.316	-32.94
211.535	71.51
211.753	59.22
211.972	18.26
212.191	-24.75
212.409	36.69
212.628	-6.31
212.846	40.79
213.065	57.17
213.283	46.93
213.502	-41.13
213.72	8.02
213.938	14.17
214.157	-22.7
214.375	48.98
214.594	40.79
214.812	73.56
215.031	5.97
215.249	16.21
215.467	46.93
215.686	42.84
215.904	1.88
216.122	53.08
216.341	28.5
216.559	14.17
216.778	114.52
216.996	46.93
217.214	65.36
217.432	-37.03
217.651	-37.03
217.869	32.6
218.087	-16.55
218.306	3.93
218.524	46.93
218.742	24.4
218.96	48.98
219.179	24.4
219.397	36.69
219.615	104.28
219.833	87.89
220.051	-18.6
220.27	5.97
220.488	65.36
220.706	-10.41
220.924	-0.17
221.142	-73.9
221.36	8.02
221.578	-39.08
221.796	14.17
222.015	-12.46
222.233	-30.89
222.451	104.28
222.669	-51.37
222.887	20.31
223.105	12.12
223.323	26.45
223.541	-53.42
223.759	79.7
223.977	-45.23
224.195	110.42
224.413	32.6
224.631	-39.08
224.849	-45.23
225.067	149.33
225.285	-2.22
225.503	-69.8
225.721	-12.46
225.939	-2.22
226.157	-47.27
226.375	98.13
226.592	-49.32
226.81	38.74
227.028	98.13
227.246	112.47
227.464	12.12
227.682	30.55
227.9	-32.94
228.117	10.07
228.335	-14.51
228.553	18.26
228.771	83.8
228.989	75.6
229.206	1.88
229.424	-28.84
229.642	-39.08
229.86	-20.65
230.077	-8.36
230.295	48.98
230.513	59.22
230.731	18.26
230.948	75.6
231.166	5.97
231.384	26.45
231.601	-39.08
231.819	34.64
232.037	-4.27
232.254	-77.99
232.472	34.64
232.689	-39.08
232.907	59.22
233.125	-0.17
233.342	-20.65
233.56	-22.7
233.777	22.36
233.995	-20.65
234.213	-55.47
234.43	-49.32
234.648	30.55
234.865	16.21
235.083	10.07
235.3	8.02
235.518	40.79
235.735	110.42
235.953	-0.17
236.17	-49.32
236.388	42.84
236.605	-32.94
236.822	79.7
237.04	46.93
237.257	55.12
237.475	-24.75
237.692	16.21
237.909	48.98
238.127	-45.23
238.344	32.6
238.562	-16.55
238.779	-26.79
238.996	-14.51
239.214	-39.08
239.431	59.22
239.648	-4.27
239.865	42.84
240.083	-2.22
240.3	28.5
240.517	-43.18
240.735	18.26
240.952	104.28
241.169	55.12
241.386	46.93
241.603	-14.51
241.821	-26.79
242.038	46.93
242.255	-41.13
242.472	-45.23
242.689	61.27
242.907	42.84
243.124	8.02
243.341	-41.13
243.558	-10.41
243.775	-73.9
243.992	-71.85
244.209	32.6
244.426	145.24
244.643	40.79
244.86	42.84
245.078	57.17
245.295	61.27
245.512	14.17
245.729	32.6
245.946	12.12
246.163	-20.65
246.38	-10.41
246.597	16.21
246.814	44.88
247.031	-67.75
247.248	-28.84
247.464	3.93
247.681	-49.32
247.898	28.5
248.115	22.36
248.332	-28.84
248.549	32.6
248.766	155.47
248.983	116.56
249.2	24.4
249.417	65.36
249.633	-10.41
249.85	112.47
250.067	1.88
250.284	-47.27
250.501	42.84
250.717	-20.65
250.934	-88.23
251.151	-14.51
251.368	3.93
251.585	-12.46
251.801	44.88
252.018	-45.23
252.235	36.69
252.451	10.07
252.668	16.21
252.885	-22.7
253.102	-6.31
253.318	-47.27
253.535	8.02
253.752	1.88
253.968	10.07
254.185	-16.55
254.401	-24.75
254.618	124.76
254.835	-20.65
255.051	32.6
255.268	106.32
255.484	34.64
255.701	-32.94
255.917	48.98
256.134	-88.23
256.351	24.4
256.567	-59.56
256.784	5.97
257	-65.71
257.217	1.88
257.433	36.69
257.65	44.88
257.866	28.5
258.082	-77.99
258.299	-65.71
258.515	-32.94
258.732	24.4
258.948	-63.66
259.165	40.79
259.381	-41.13
259.597	-16.55
259.814	-96.43
260.03	24.4
260.246	75.6
260.463	77.65
260.679	63.32
260.895	20.31
261.112	16.21
261.328	-32.94
261.544	36.69
261.761	128.85
261.977	44.88
262.193	-32.94
262.409	83.8
262.626	-6.31
262.842	1.88
263.058	12.12
263.274	67.41
263.49	24.4
263.707	42.84
263.923	67.41
264.139	-82.09
264.355	8.02
264.571	73.56
264.787	67.41
265.004	-39.08
265.22	1.88
265.436	-18.6
265.652	1.88
265.868	30.55
266.084	-39.08
266.3	42.84
266.516	-8.36
266.732	3.93
266.948	51.03
267.164	20.31
267.38	16.21
267.596	12.12
267.812	77.65
268.028	71.51
268.244	57.17
268.46	32.6
268.676	44.88
268.892	14.17
269.108	-18.6
269.324	-4.27
269.54	-98.47
269.756	85.84
269.972	-28.84
270.188	-12.46
270.403	30.55
270.619	-4.27
270.835	-6.31
271.051	-32.94
271.267	8.02
271.483	-53.42
271.698	46.93
271.914	16.21
272.13	65.36
272.346	44.88
272.562	28.5
272.777	48.98
272.993	-92.33
273.209	-104.62
273.425	12.12
273.64	30.55
273.856	42.84
274.072	65.36
274.287	-41.13
274.503	46.93
274.719	30.55
274.934	-4.27
275.15	-2.22
275.366	59.22
275.581	-32.94
275.797	69.46
276.012	-24.75
276.228	-106.67
276.444	-49.32
276.659	8.02
276.875	-73.9
277.09	26.45
277.306	-32.94
277.521	71.51
277.737	-71.85
277.952	34.64
278.168	12.12
278.383	14.17
278.599	-6.31
278.814	104.28
279.03	18.26
279.245	-41.13
279.461	1.88
279.676	81.75
279.892	-12.46
280.107	-0.17
280.322	-30.89
280.538	55.12
280.753	-55.47
280.969	24.4
281.184	94.04
281.399	87.89
281.615	40.79
281.83	18.26
282.045	-125.1
282.26	-4.27
282.476	-34.99
282.691	69.46
282.906	12.12
283.122	5.97
283.337	75.6
283.552	14.17
283.767	-6.31
283.983	102.23
284.198	3.93
284.413	83.8
284.628	-82.09
284.843	-12.46
285.058	-2.22
285.274	65.36
285.489	-51.37
285.704	10.07
285.919	44.88
286.134	44.88
286.349	38.74
286.564	-39.08
286.779	32.6
286.995	-61.61
287.21	-45.23
287.425	-61.61
287.64	32.6
287.855	30.55
288.07	-6.31
288.285	-12.46
288.5	32.6
288.715	63.32
288.93	18.26
289.145	22.36
289.36	42.84
289.575	8.02
289.79	106.32
290.004	-28.84
290.219	20.31
290.434	51.03
290.649	-90.28
290.864	-22.7
291.079	-28.84
291.294	73.56
291.509	69.46
291.724	42.84
291.938	-49.32
292.153	-10.41
292.368	26.45
292.583	-51.37
292.798	51.03
293.012	28.5
293.227	16.21
293.442	-0.17
293.657	59.22
293.871	48.98
294.086	61.27
294.301	96.08
294.516	73.56
294.73	1.88
294.945	-82.09
295.16	24.4
295.374	12.12
295.589	18.26
295.804	26.45
296.018	1.88
296.233	77.65
296.447	44.88
296.662	14.17
296.877	81.75
297.091	81.75
297.306	-14.51
297.52	-20.65
297.735	-22.7
297.949	75.6
298.164	28.5
298.378	-22.7
298.593	-32.94
298.807	-86.19
299.022	46.93
299.236	44.88
299.451	53.08
299.665	16.21
299.88	-14.51
300.094	61.27
300.309	57.17
300.523	24.4
300.737	3.93
300.952	51.03
301.166	-20.65
301.381	-0.17
301.595	-6.31
301.809	42.84
302.024	-8.36
302.238	-18.6
302.452	26.45
302.667	83.8
302.881	28.5
303.095	22.36
303.309	14.17
303.524	-14.51
303.738	-41.13
303.952	-51.37
304.166	12.12
304.381	-67.75
304.595	110.42
304.809	1.88
305.023	-39.08
305.237	-32.94
305.452	-24.75
305.666	-49.32
305.88	-28.84
306.094	51.03
306.308	77.65
306.522	81.75
306.736	-14.51
306.95	-30.89
307.164	-39.08
307.379	-65.71
307.593	59.22
307.807	14.17
308.021	67.41
308.235	20.31
308.449	-2.22
308.663	-28.84
308.877	91.99
309.091	-12.46
309.305	-20.65
309.519	-63.66
309.733	46.93
309.947	-59.56
310.161	20.31
310.374	36.69
310.588	63.32
310.802	-6.31
311.016	-73.9
311.23	3.93
311.444	-8.36
311.658	34.64
311.872	40.79
312.085	18.26
312.299	145.24
312.513	-14.51
312.727	-0.17
312.941	69.46
313.154	26.45
313.368	10.07
313.582	30.55
313.796	26.45
314.009	100.18
314.223	63.32
314.437	81.75
314.651	83.8
314.864	-92.33
315.078	-4.27
315.292	-63.66
315.505	81.75
315.719	42.84
315.933	14.17
316.146	-57.51
316.36	-37.03
316.573	40.79
316.787	16.21
317.001	-86.19
317.214	-41.13
317.428	32.6
317.641	3.93
317.855	-22.7
318.068	53.08
318.282	46.93
318.495	153.43
318.709	16.21
318.922	14.17
319.136	28.5
319.349	24.4
319.563	32.6
319.776	100.18
319.99	-26.79
320.203	12.12
320.417	8.02
320.63	-10.41
320.843	116.56
321.057	-55.47
321.27	-34.99
321.483	-4.27
321.697	141.14
321.91	63.32
322.124	14.17
322.337	-2.22
322.55	-28.84
322.763	32.6
322.977	-41.13
323.19	-43.18
323.403	-28.84
323.617	48.98
323.83	57.17
324.043	3.93
324.256	-39.08
324.469	-45.23
324.683	87.89
324.896	-16.55
325.109	-43.18
325.322	-92.33
325.535	94.04
325.748	42.84
325.962	30.55
326.175	53.08
326.388	46.93
326.601	110.42
326.814	32.6
327.027	8.02
327.24	79.7
327.453	-94.38
327.666	112.47
327.879	77.65
328.092	-2.22
328.305	38.74
328.518	32.6
328.731	-96.43
328.944	26.45
329.157	57.17
329.37	48.98
329.583	91.99
329.796	91.99
330.009	-57.51
330.222	16.21
330.435	-14.51
330.648	-8.36
330.861	14.17
331.073	32.6
331.286	3.93
331.499	-65.71
331.712	77.65
331.925	-14.51
332.138	-24.75
332.35	98.13
332.563	-61.61
332.776	24.4
332.989	-51.37
333.202	85.84
333.414	38.74
333.627	20.31
333.84	40.79
334.053	34.64
334.265	-18.6
334.478	-0.17
334.691	48.98
334.903	91.99
335.116	1.88
335.329	-39.08
335.541	40.79
335.754	102.23
335.966	-59.56
336.179	81.75
336.392	-28.84
336.604	-12.46
336.817	5.97
337.029	-41.13
337.242	-69.8
337.454	57.17
337.667	48.98
337.88	89.94
338.092	65.36
338.305	14.17
338.517	-20.65
338.729	53.08
338.942	81.75
339.154	-12.46
339.367	-34.99
339.579	16.21
339.792	-49.32
340.004	59.22
340.217	-2.22
340.429	24.4
340.641	-32.94
340.854	-45.23
341.066	-37.03
341.278	112.47
341.491	104.28
341.703	16.21
341.915	-14.51
342.128	36.69
342.34	-14.51
342.552	-37.03
342.764	-86.19
342.977	18.26
343.189	30.55
343.401	24.4
343.613	-34.99
343.826	8.02
344.038	12.12
344.25	16.21
344.462	18.26
344.674	28.5
344.886	-53.42
345.099	36.69
345.311	132.95
345.523	-0.17
345.735	12.12
345.947	5.97
346.159	89.94
346.371	100.18
346.583	1.88
346.795	118.61
347.007	26.45
347.219	44.88
347.431	18.26
347.643	79.7
347.855	-49.32
348.067	-10.41
348.279	-28.84
348.491	-10.41
348.703	71.51
348.915	48.98
349.127	-6.31
349.339	-18.6
349.551	46.93
349.763	40.79
349.975	3.93
350.187	22.36
350.399	-14.51
350.61	-20.65
350.822	-80.04
351.034	59.22
351.246	-16.55
351.458	18.26
351.669	61.27
351.881	94.04
352.093	44.88
352.305	42.84
352.517	24.4
352.728	89.94
352.94	-2.22
353.152	67.41
353.363	-14.51
353.575	24.4
353.787	16.21
353.999	22.36
354.21	16.21
354.422	-6.31
354.633	-12.46
354.845	8.02
355.057	28.5
355.268	-30.89
355.48	40.79
355.692	-18.6
355.903	12.12
356.115	-12.46
356.326	-57.51
356.538	53.08
356.749	34.64
356.961	42.84
357.172	24.4
357.384	-6.31
357.595	141.14
357.807	40.79
358.018	-22.7
358.23	-18.6
358.441	48.98
358.653	5.97
358.864	42.84
359.075	-18.6
359.287	61.27
359.498	87.89
359.709	22.36
359.921	10.07
360.132	79.7
360.344	28.5
360.555	-18.6
360.766	-22.7
360.977	46.93
361.189	102.23
361.4	46.93
361.611	61.27
361.823	61.27
362.034	30.55
362.245	-49.32
362.456	112.47
362.667	26.45
362.879	-14.51
363.09	-30.89
363.301	59.22
363.512	53.08
363.723	26.45
363.935	-20.65
364.146	-20.65
364.357	42.84
364.568	112.47
364.779	3.93
364.99	83.8
365.201	-2.22
365.412	81.75
365.623	-41.13
365.834	38.74
366.045	-47.27
366.256	-69.8
366.467	30.55
366.678	-57.51
366.889	30.55
367.1	32.6
367.311	22.36
367.522	26.45
367.733	87.89
367.944	40.79
368.155	-32.94
368.366	30.55
368.577	38.74
368.788	-2.22
368.999	-71.85
369.209	-30.89
369.42	100.18
369.631	137.04
369.842	57.17
370.053	-30.89
370.264	40.79
370.474	26.45
370.685	26.45
370.896	8.02
371.107	1.88
371.317	28.5
371.528	1.88
371.739	116.56
371.95	-14.51
372.16	69.46
372.371	26.45
372.582	22.36
372.792	130.9
373.003	98.13
373.214	40.79
373.424	85.84
373.635	-8.36
373.846	36.69
374.056	-8.36
374.267	-2.22
374.477	14.17
374.688	71.51
374.898	59.22
375.109	-6.31
375.319	36.69
375.53	-41.13
375.74	77.65
375.951	-6.31
376.161	38.74
376.372	-39.08
376.582	-55.47
376.793	-16.55
377.003	-24.75
377.214	8.02
377.424	42.84
377.635	28.5
377.845	-24.75
378.055	143.19
378.266	-41.13
378.476	36.69
378.686	38.74
378.897	8.02
379.107	-45.23
379.317	-12.46
379.528	-14.51
379.738	8.02
379.948	-18.6
380.158	48.98
380.369	8.02
380.579	12.12
380.789	-0.17
380.999	40.79
381.21	-6.31
381.42	79.7
381.63	85.84
381.84	38.74
382.05	-2.22
382.261	26.45
382.471	32.6
382.681	18.26
382.891	102.23
383.101	61.27
383.311	-26.79
383.521	-2.22
383.731	26.45
383.941	8.02
384.151	67.41
384.361	48.98
384.571	34.64
384.781	30.55
384.991	120.66
385.201	96.08
385.411	34.64
385.621	44.88
385.831	14.17
386.041	-32.94
386.251	-14.51
386.461	67.41
386.671	24.4
386.881	55.12
387.091	63.32
387.301	83.8
387.511	-55.47
387.72	38.74
387.93	26.45
388.14	-65.71
388.35	96.08
388.56	81.75
388.769	34.64
388.979	85.84
389.189	-12.46
389.399	40.79
389.609	28.5
389.818	139.09
390.028	20.31
390.238	12.12
390.447	-53.42
390.657	28.5
390.867	-24.75
391.076	5.97
391.286	24.4
391.496	-37.03
391.705	-39.08
391.915	67.41
392.125	53.08
392.334	-47.27
392.544	34.64
392.753	-0.17
392.963	-12.46
393.172	28.5
393.382	40.79
393.591	65.36
393.801	-61.61
394.01	96.08
394.22	16.21
394.429	18.26
394.639	57.17
394.848	55.12
395.058	75.6
395.267	40.79
395.477	96.08
395.686	63.32
395.895	102.23
396.105	132.95
396.314	36.69
396.524	-12.46
396.733	89.94
396.942	91.99
397.152	137.04
397.361	44.88
397.57	81.75
397.78	48.98
397.989	57.17
398.198	137.04
398.407	44.88
398.617	34.64
398.826	55.12
399.035	46.93
399.244	69.46
399.453	5.97
399.663	53.08
399.872	51.03
400.081	-16.55
400.29	77.65
400.499	69.46
400.708	116.56
400.917	8.02
401.127	89.94
401.336	53.08
401.545	202.58
401.754	157.52
401.963	87.89
402.172	-24.75
402.381	-20.65
402.59	48.98
402.799	48.98
403.008	38.74
403.217	10.07
403.426	71.51
403.635	40.79
403.844	112.47
404.053	102.23
404.262	96.08
404.471	143.19
404.68	118.61
404.888	122.71
405.097	32.6
405.306	20.31
405.515	163.67
405.724	8.02
405.933	28.5
406.142	112.47
406.35	96.08
406.559	91.99
406.768	89.94
406.977	151.38
407.185	94.04
407.394	165.71
407.603	81.75
407.812	81.75
408.02	143.19
408.229	153.43
408.438	102.23
408.646	161.62
408.855	114.52
409.064	259.92
409.272	108.37
409.481	169.81
409.69	147.28
409.898	137.04
410.107	206.67
410.315	169.81
410.524	165.71
410.733	155.47
410.941	192.34
411.15	216.91
411.358	243.54
411.567	251.73
411.775	251.73
411.984	235.35
412.192	288.59
412.401	124.76
412.609	270.16
412.818	331.6
413.026	288.59
413.234	274.26
413.443	331.6
413.651	296.78
413.86	393.04
414.068	311.12
414.276	341.84
414.485	333.65
414.693	458.57
414.901	413.52
415.11	397.14
415.318	366.42
415.526	413.52
415.734	454.48
415.943	468.81
416.151	509.77
416.359	421.71
416.567	423.76
416.776	548.68
416.984	452.43
417.192	550.73
417.4	479.05
417.608	491.34
417.817	526.16
418.025	747.34
418.233	661.32
418.441	636.75
418.649	591.69
418.857	726.86
419.065	808.78
419.273	638.8
419.481	745.29
419.689	800.59
419.897	804.68
420.105	827.21
420.313	866.12
420.521	1017.67
420.729	1025.86
420.937	837.45
421.145	1007.43
421.353	1081.16
421.561	1193.8
421.769	1064.77
421.977	1144.64
422.185	1091.4
422.393	1064.77
422.601	1220.42
422.809	1285.95
423.017	1292.1
423.224	1331.01
423.432	1386.3
423.64	1369.92
423.848	1584.96
424.056	1488.7
424.263	1689.4
424.471	1566.53
424.679	1689.4
424.887	1625.92
425.094	1765.18
425.302	1789.75
425.51	1781.56
425.718	1865.53
425.925	1791.8
426.133	1955.64
426.341	2017.08
426.548	2072.37
426.756	2221.88
426.964	2211.64
427.171	2277.17
427.379	2436.91
427.586	2432.82
427.794	2365.23
428.001	2719.53
428.209	2838.31
428.417	2778.92
428.624	2823.98
428.832	2823.98
429.039	2848.55
429.247	2783.02
429.454	3063.59
429.662	3268.39
429.869	2987.82
430.076	3333.92
430.284	3147.56
430.491	3370.79
430.699	3637.02
430.906	3618.59
431.114	3677.98
431.321	3671.84
431.528	3794.72
431.736	4040.47
431.943	4169.49
432.15	4167.45
432.358	4179.73
432.565	4370.19
432.772	4241.17
432.979	4722.45
433.187	4714.25
433.394	4618
433.601	4957.96
433.808	5058.31
434.016	4982.54
434.223	5168.9
434.43	5652.22
434.637	5316.36
434.844	5682.94
435.052	5728
435.259	5875.45
435.466	5861.12
435.673	5826.3
435.88	6237.94
436.087	6676.21
436.294	6668.02
436.501	6297.33
436.708	6532.85
436.915	6563.57
437.122	7079.66
437.329	6817.52
437.537	7141.1
437.743	7067.37
437.95	7245.54
438.157	7595.75
438.364	7919.32
438.571	7948
438.778	7868.13
438.985	8658.64
439.192	8247
439.399	8576.72
439.606	8306.39
439.813	8881.87
440.02	9264.84
440.227	9332.42
440.433	9113.29
440.64	9279.18
440.847	9117.39
441.054	9606.85
441.261	10182.33
441.467	9825.98
441.674	10284.73
441.881	10575.54
442.088	10456.76
442.294	10645.17
442.501	10706.61
442.708	11009.71
442.914	11304.62
443.121	12107.42
443.328	11548.33
443.534	12320.41
443.741	11976.35
443.948	11835.04
444.154	12795.54
444.361	12504.73
444.568	12545.69
444.774	12678.8
444.981	12791.44
445.187	13319.82
445.394	13792.9
445.6	13444.74
445.807	14890.61
446.013	14284.41
446.22	14517.88
446.426	15103.6
446.633	15226.48
446.839	15828.58
447.046	15150.7
447.252	15883.87
447.459	15953.51
447.665	16090.72
447.871	16744.02
448.078	17479.24
448.284	16260.7
448.491	16965.2
448.697	17694.28
448.903	17825.35
449.11	18071.11
449.316	17536.59
449.522	17788.49
449.728	18353.73
449.935	18892.34
450.141	18499.13
450.347	19168.82
450.553	18535.99
450.76	18660.92
450.966	19502.64
451.172	18882.1
451.378	19519.02
451.584	19349.04
451.791	19469.87
451.997	19455.53
452.203	19959.33
452.409	20162.08
452.615	19912.23
452.821	19174.96
453.027	18841.14
453.233	20082.21
453.44	18847.29
453.646	19308.08
453.852	19289.65
454.058	19736.1
454.264	19035.7
454.47	19574.31
454.676	19398.19
454.882	19541.55
455.088	17958.47
455.294	18327.1
455.5	18468.41
455.705	18820.66
455.911	18378.3
456.117	17643.08
456.323	17282.64
456.529	16336.48
456.735	17262.16
456.941	16731.73
457.147	16424.54
457.352	15949.41
457.558	15394.41
457.764	16064.1
457.97	15640.17
458.176	15249
458.381	15115.89
458.587	14614.13
458.793	14456.44
458.999	13489.8
459.204	14524.02
459.41	14182.01
459.616	13201.04
459.821	13338.25
460.027	13289.1
460.233	13078.16
460.438	12482.2
460.644	12353.18
460.85	11843.23
461.055	11667.11
461.261	11611.81
461.466	10841.78
461.672	10532.53
461.878	11306.66
462.083	10559.16
462.289	10317.5
462.494	10002.11
462.7	9731.78
462.905	9504.45
463.111	9782.98
463.316	9668.29
463.522	9559.75
463.727	9662.15
463.932	9414.34
464.138	9440.97
464.343	9494.21
464.549	9223.88
464.754	9690.82
464.959	9514.69
465.165	9500.36
465.37	8883.92
465.575	8627.92
465.781	9023.18
465.986	9090.76
466.191	8814.29
466.397	8584.91
466.602	8300.25
466.807	8439.51
467.012	8517.33
