Data from USB4F104151__77__12-12-48-690.txt Node

Date: Fri Mar 14 12:12:48 EDT 2025
User: louis
Spectrometer: USB4F10415
Trigger mode: 4
Integration Time (sec): 5.000000E-2
Scans to average: 1
Electric dark correction enabled: true
Nonlinearity correction enabled: false
Boxcar width: 0
XAxis mode: Wavelengths
Number of Pixels in Spectrum: 3648
>>>>>Begin Spectral Data<<<<<
178.204	-212.14
178.424	-212.14
178.644	-212.14
178.864	-179.37
179.084	-177.32
179.304	27.48
179.524	-52.39
179.744	-1.19
179.964	-17.58
180.184	62.29
180.404	54.1
180.624	-1.19
180.844	-38.06
181.064	-107.69
181.283	35.67
181.503	-46.25
181.723	84.82
181.943	-64.68
182.163	54.1
182.383	27.48
182.602	-1.19
182.822	115.54
183.042	-25.77
183.262	15.19
183.482	78.68
183.701	-17.58
183.921	82.77
184.141	17.24
184.361	74.58
184.58	70.48
184.8	84.82
185.02	23.38
185.239	84.82
185.459	15.19
185.679	58.2
185.898	2.9
186.118	56.15
186.338	-19.63
186.557	62.29
186.777	-19.63
186.997	-11.43
187.216	-3.24
187.436	97.11
187.655	27.48
187.875	88.92
188.095	41.81
188.314	117.59
188.534	90.96
188.753	-19.63
188.973	43.86
189.192	105.3
189.412	66.39
189.631	66.39
189.851	-9.39
190.07	66.39
190.29	-3.24
190.509	-9.39
190.729	-36.01
190.948	43.86
191.168	215.89
191.387	7
191.607	-33.96
191.826	129.88
192.045	60.24
192.265	58.2
192.484	-25.77
192.704	-33.96
192.923	15.19
193.142	136.02
193.362	27.48
193.581	43.86
193.8	62.29
194.02	41.81
194.239	27.48
194.458	111.44
194.678	-5.29
194.897	15.19
195.116	19.29
195.335	23.38
195.555	101.2
195.774	47.96
195.993	117.59
196.212	54.1
196.432	60.24
196.651	-7.34
196.87	25.43
197.089	129.88
197.308	58.2
197.528	86.87
197.747	41.81
197.966	72.53
198.185	105.3
198.404	4.95
198.623	90.96
198.842	76.63
199.062	27.48
199.281	58.2
199.5	-33.96
199.719	-1.19
199.938	39.76
200.157	43.86
200.376	-13.48
200.595	74.58
200.814	47.96
201.033	-21.67
201.252	27.48
201.471	43.86
201.69	74.58
201.909	37.72
202.128	31.57
202.347	146.26
202.566	21.33
202.785	23.38
203.004	-5.29
203.223	189.27
203.442	52.05
203.661	52.05
203.879	11.09
204.098	74.58
204.317	58.2
204.536	4.95
204.755	70.48
204.974	50
205.193	109.4
205.411	99.16
205.63	84.82
205.849	33.62
206.068	35.67
206.287	-54.44
206.505	123.73
206.724	11.09
206.943	-11.43
207.162	-25.77
207.381	35.67
207.599	-25.77
207.818	13.14
208.037	17.24
208.255	76.63
208.474	0.85
208.693	72.53
208.911	-31.91
209.13	19.29
209.349	52.05
209.567	150.36
209.786	117.59
210.005	43.86
210.223	-33.96
210.442	-40.11
210.661	47.96
210.879	62.29
211.098	74.58
211.316	-3.24
211.535	95.06
211.753	31.57
211.972	-13.48
212.191	103.25
212.409	-25.77
212.628	133.97
212.846	115.54
213.065	15.19
213.283	82.77
213.502	-11.43
213.72	80.72
213.938	105.3
214.157	74.58
214.375	133.97
214.594	15.19
214.812	76.63
215.031	74.58
215.249	15.19
215.467	31.57
215.686	15.19
215.904	13.14
216.122	-1.19
216.341	76.63
216.559	88.92
216.778	90.96
216.996	0.85
217.214	97.11
217.432	60.24
217.651	-60.59
217.869	29.52
218.087	-25.77
218.306	-3.24
218.524	33.62
218.742	-1.19
218.96	27.48
219.179	29.52
219.397	50
219.615	86.87
219.833	58.2
220.051	-25.77
220.27	88.92
220.488	35.67
220.706	50
220.924	17.24
221.142	9.05
221.36	-19.63
221.578	25.43
221.796	33.62
222.015	60.24
222.233	9.05
222.451	103.25
222.669	-58.54
222.887	27.48
223.105	-27.82
223.323	45.91
223.541	-33.96
223.759	50
223.977	39.76
224.195	64.34
224.413	21.33
224.631	-1.19
224.849	41.81
225.067	74.58
225.285	-11.43
225.503	9.05
225.721	-23.72
225.939	31.57
226.157	19.29
226.375	213.84
226.592	-21.67
226.81	17.24
227.028	70.48
227.246	99.16
227.464	-1.19
227.682	56.15
227.9	56.15
228.117	66.39
228.335	41.81
228.553	19.29
228.771	76.63
228.989	52.05
229.206	80.72
229.424	0.85
229.642	45.91
229.86	-79.02
230.077	80.72
230.295	52.05
230.513	129.88
230.731	76.63
230.948	97.11
231.166	154.45
231.384	-42.15
231.601	-3.24
231.819	23.38
232.037	37.72
232.254	-13.48
232.472	37.72
232.689	-48.3
232.907	-21.67
233.125	-1.19
233.342	2.9
233.56	-13.48
233.777	11.09
233.995	64.34
234.213	29.52
234.43	9.05
234.648	13.14
234.865	9.05
235.083	-7.34
235.3	-11.43
235.518	58.2
235.735	64.34
235.953	103.25
236.17	129.88
236.388	-21.67
236.605	45.91
236.822	82.77
237.04	15.19
237.257	45.91
237.475	-62.63
237.692	29.52
237.909	11.09
238.127	25.43
238.344	103.25
238.562	41.81
238.779	0.85
238.996	64.34
239.214	39.76
239.431	80.72
239.648	11.09
239.865	-17.58
240.083	50
240.3	2.9
240.517	45.91
240.735	11.09
240.952	70.48
241.169	99.16
241.386	19.29
241.603	27.48
241.821	-25.77
242.038	-1.19
242.255	23.38
242.472	-101.55
242.689	64.34
242.907	-25.77
243.124	17.24
243.341	31.57
243.558	-9.39
243.775	-40.11
243.992	-85.16
244.209	-5.29
244.426	136.02
244.643	50
244.86	-3.24
245.078	90.96
245.295	66.39
245.512	33.62
245.729	2.9
245.946	101.2
246.163	109.4
246.38	11.09
246.597	7
246.814	37.72
247.031	86.87
247.248	-13.48
247.464	4.95
247.681	54.1
247.898	74.58
248.115	133.97
248.332	-17.58
248.549	82.77
248.766	4.95
248.983	119.64
249.2	72.53
249.417	156.5
249.633	90.96
249.85	7
250.067	60.24
250.284	-60.59
250.501	115.54
250.717	140.12
250.934	13.14
251.151	-36.01
251.368	76.63
251.585	31.57
251.801	-13.48
252.018	-15.53
252.235	29.52
252.451	-58.54
252.668	17.24
252.885	37.72
253.102	15.19
253.318	-5.29
253.535	-52.39
253.752	-1.19
253.968	70.48
254.185	-19.63
254.401	146.26
254.618	78.68
254.835	2.9
255.051	113.49
255.268	2.9
255.484	68.44
255.701	19.29
255.917	88.92
256.134	4.95
256.351	47.96
256.567	-40.11
256.784	-9.39
257	27.48
257.217	62.29
257.433	9.05
257.65	13.14
257.866	111.44
258.082	23.38
258.299	-46.25
258.515	-7.34
258.732	84.82
258.948	-52.39
259.165	41.81
259.381	-89.26
259.597	37.72
259.814	-33.96
260.03	-19.63
260.246	52.05
260.463	47.96
260.679	82.77
260.895	-19.63
261.112	7
261.328	-40.11
261.544	-23.72
261.761	136.02
261.977	43.86
262.193	13.14
262.409	101.2
262.626	0.85
262.842	50
263.058	17.24
263.274	66.39
263.49	29.52
263.707	146.26
263.923	54.1
264.139	70.48
264.355	13.14
264.571	103.25
264.787	52.05
265.004	72.53
265.22	0.85
265.436	37.72
265.652	-38.06
265.868	103.25
266.084	19.29
266.3	47.96
266.516	29.52
266.732	60.24
266.948	11.09
267.164	-9.39
267.38	78.68
267.596	56.15
267.812	68.44
268.028	-5.29
268.244	-31.91
268.46	39.76
268.676	27.48
268.892	52.05
269.108	9.05
269.324	9.05
269.54	13.14
269.756	88.92
269.972	35.67
270.188	-5.29
270.403	-31.91
270.619	2.9
270.835	37.72
271.051	-5.29
271.267	129.88
271.483	-23.72
271.698	86.87
271.914	37.72
272.13	-95.4
272.346	50
272.562	27.48
272.777	82.77
272.993	-31.91
273.209	47.96
273.425	56.15
273.64	23.38
273.856	78.68
274.072	37.72
274.287	-25.77
274.503	88.92
274.719	78.68
274.934	-23.72
275.15	-44.2
275.366	54.1
275.581	-113.83
275.797	66.39
276.012	11.09
276.228	47.96
276.444	54.1
276.659	95.06
276.875	-9.39
277.09	29.52
277.306	-11.43
277.521	64.34
277.737	-25.77
277.952	-13.48
278.168	-27.82
278.383	25.43
278.599	7
278.814	31.57
279.03	27.48
279.245	101.2
279.461	17.24
279.676	105.3
279.892	4.95
280.107	-38.06
280.322	33.62
280.538	64.34
280.753	-31.91
280.969	4.95
281.184	-9.39
281.399	74.58
281.615	37.72
281.83	50
282.045	58.2
282.26	-9.39
282.476	11.09
282.691	-17.58
282.906	101.2
283.122	52.05
283.337	4.95
283.552	21.33
283.767	7
283.983	66.39
284.198	29.52
284.413	90.96
284.628	-85.16
284.843	39.76
285.058	2.9
285.274	-9.39
285.489	19.29
285.704	29.52
285.919	-5.29
286.134	-36.01
286.349	74.58
286.564	-27.82
286.779	31.57
286.995	25.43
287.21	0.85
287.425	11.09
287.64	-95.4
287.855	41.81
288.07	-91.31
288.285	117.59
288.5	95.06
288.715	43.86
288.93	31.57
289.145	11.09
289.36	123.73
289.575	60.24
289.79	58.2
290.004	52.05
290.219	80.72
290.434	-25.77
290.649	2.9
290.864	-72.87
291.079	144.21
291.294	58.2
291.509	54.1
291.724	47.96
291.938	33.62
292.153	-1.19
292.368	11.09
292.583	-54.44
292.798	2.9
293.012	146.26
293.227	66.39
293.442	35.67
293.657	64.34
293.871	80.72
294.086	158.55
294.301	95.06
294.516	45.91
294.73	-19.63
294.945	4.95
295.16	0.85
295.374	111.44
295.589	123.73
295.804	15.19
296.018	72.53
296.233	88.92
296.447	-17.58
296.662	21.33
296.877	90.96
297.091	-72.87
297.306	66.39
297.52	-5.29
297.735	72.53
297.949	21.33
298.164	-38.06
298.378	88.92
298.593	-33.96
298.807	17.24
299.022	113.49
299.236	158.55
299.451	-5.29
299.665	-13.48
299.88	2.9
300.094	11.09
300.309	-1.19
300.523	-23.72
300.737	23.38
300.952	39.76
301.166	7
301.381	-21.67
301.595	27.48
301.809	29.52
302.024	19.29
302.238	-36.01
302.452	150.36
302.667	41.81
302.881	64.34
303.095	33.62
303.309	31.57
303.524	56.15
303.738	-7.34
303.952	60.24
304.166	31.57
304.381	-9.39
304.595	62.29
304.809	7
305.023	-9.39
305.237	56.15
305.452	64.34
305.666	-15.53
305.88	43.86
306.094	41.81
306.308	13.14
306.522	64.34
306.736	76.63
306.95	31.57
307.164	-15.53
307.379	19.29
307.593	136.02
307.807	93.01
308.021	70.48
308.235	-27.82
308.449	-23.72
308.663	-23.72
308.877	101.2
309.091	25.43
309.305	47.96
309.519	-89.26
309.733	156.5
309.947	-52.39
310.161	-9.39
310.374	56.15
310.588	95.06
310.802	-13.48
311.016	-1.19
311.23	35.67
311.444	4.95
311.658	37.72
311.872	109.4
312.085	54.1
312.299	97.11
312.513	125.78
312.727	7
312.941	21.33
313.154	27.48
313.368	35.67
313.582	43.86
313.796	7
314.009	54.1
314.223	56.15
314.437	84.82
314.651	27.48
314.864	-1.19
315.078	62.29
315.292	0.85
315.505	-64.68
315.719	29.52
315.933	-3.24
316.146	-23.72
316.36	-23.72
316.573	107.35
316.787	72.53
317.001	25.43
317.214	4.95
317.428	31.57
317.641	68.44
317.855	31.57
318.068	17.24
318.282	39.76
318.495	37.72
318.709	90.96
318.922	7
319.136	101.2
319.349	35.67
319.563	76.63
319.776	68.44
319.99	-15.53
320.203	93.01
320.417	41.81
320.63	39.76
320.843	140.12
321.057	56.15
321.27	76.63
321.483	80.72
321.697	74.58
321.91	45.91
322.124	70.48
322.337	78.68
322.55	7
322.763	-7.34
322.977	64.34
323.19	9.05
323.403	107.35
323.617	160.59
323.83	76.63
324.043	35.67
324.256	47.96
324.469	4.95
324.683	56.15
324.896	27.48
325.109	-27.82
325.322	-38.06
325.535	133.97
325.748	62.29
325.962	19.29
326.175	-11.43
326.388	54.1
326.601	64.34
326.814	-48.3
327.027	-5.29
327.24	123.73
327.453	29.52
327.666	45.91
327.879	93.01
328.092	43.86
328.305	70.48
328.518	15.19
328.731	-46.25
328.944	-79.02
329.157	35.67
329.37	2.9
329.583	84.82
329.796	72.53
330.009	-44.2
330.222	64.34
330.435	78.68
330.648	7
330.861	39.76
331.073	43.86
331.286	-13.48
331.499	43.86
331.712	-7.34
331.925	39.76
332.138	15.19
332.35	131.92
332.563	27.48
332.776	113.49
332.989	-38.06
333.202	-17.58
333.414	-13.48
333.627	11.09
333.84	-29.87
334.053	21.33
334.265	-1.19
334.478	-40.11
334.691	60.24
334.903	50
335.116	-44.2
335.329	-23.72
335.541	56.15
335.754	154.45
335.966	-33.96
336.179	15.19
336.392	70.48
336.604	41.81
336.817	54.1
337.029	-17.58
337.242	45.91
337.454	45.91
337.667	47.96
337.88	82.77
338.092	4.95
338.305	45.91
338.517	-40.11
338.729	58.2
338.942	101.2
339.154	35.67
339.367	-21.67
339.579	93.01
339.792	-1.19
340.004	-21.67
340.217	60.24
340.429	7
340.641	35.67
340.854	2.9
341.066	11.09
341.278	-21.67
341.491	150.36
341.703	45.91
341.915	-23.72
342.128	66.39
342.34	64.34
342.552	-11.43
342.764	31.57
342.977	50
343.189	103.25
343.401	0.85
343.613	86.87
343.826	76.63
344.038	-5.29
344.25	21.33
344.462	0.85
344.674	103.25
344.886	-21.67
345.099	72.53
345.311	86.87
345.523	23.38
345.735	-48.3
345.947	-23.72
346.159	27.48
346.371	105.3
346.583	45.91
346.795	133.97
347.007	60.24
347.219	4.95
347.431	-11.43
347.643	113.49
347.855	11.09
348.067	86.87
348.279	-62.63
348.491	21.33
348.703	37.72
348.915	-40.11
349.127	19.29
349.339	0.85
349.551	15.19
349.763	76.63
349.975	88.92
350.187	19.29
350.399	15.19
350.61	95.06
350.822	-1.19
351.034	78.68
351.246	80.72
351.458	45.91
351.669	117.59
351.881	88.92
352.093	64.34
352.305	103.25
352.517	90.96
352.728	39.76
352.94	0.85
353.152	13.14
353.363	-25.77
353.575	-5.29
353.787	76.63
353.999	52.05
354.21	111.44
354.422	0.85
354.633	11.09
354.845	-25.77
355.057	68.44
355.268	54.1
355.48	99.16
355.692	-15.53
355.903	-27.82
356.115	-42.15
356.326	-68.78
356.538	68.44
356.749	93.01
356.961	72.53
357.172	11.09
357.384	-19.63
357.595	127.83
357.807	95.06
358.018	33.62
358.23	52.05
358.441	115.54
358.653	117.59
358.864	41.81
359.075	19.29
359.287	72.53
359.498	41.81
359.709	21.33
359.921	-1.19
360.132	80.72
360.344	21.33
360.555	21.33
360.766	76.63
360.977	56.15
361.189	88.92
361.4	25.43
361.611	113.49
361.823	86.87
362.034	-23.72
362.245	9.05
362.456	9.05
362.667	105.3
362.879	11.09
363.09	21.33
363.301	19.29
363.512	50
363.723	39.76
363.935	-7.34
364.146	41.81
364.357	29.52
364.568	-1.19
364.779	-33.96
364.99	93.01
365.201	2.9
365.412	43.86
365.623	-3.24
365.834	15.19
366.045	19.29
366.256	123.73
366.467	84.82
366.678	-1.19
366.889	11.09
367.1	60.24
367.311	90.96
367.522	-79.02
367.733	-5.29
367.944	52.05
368.155	93.01
368.366	90.96
368.577	45.91
368.788	111.44
368.999	9.05
369.209	2.9
369.42	90.96
369.631	187.22
369.842	156.5
370.053	29.52
370.264	78.68
370.474	25.43
370.685	50
370.896	-11.43
371.107	84.82
371.317	101.2
371.528	-15.53
371.739	52.05
371.95	115.54
372.16	7
372.371	-42.15
372.582	93.01
372.792	17.24
373.003	60.24
373.214	70.48
373.424	52.05
373.635	-9.39
373.846	7
374.056	33.62
374.267	64.34
374.477	4.95
374.688	-56.49
374.898	113.49
375.109	-46.25
375.319	45.91
375.53	56.15
375.74	-31.91
375.951	-29.87
376.161	74.58
376.372	58.2
376.582	-23.72
376.793	72.53
377.003	7
377.214	37.72
377.424	50
377.635	54.1
377.845	-54.44
378.055	113.49
378.266	-27.82
378.476	50
378.686	-33.96
378.897	90.96
379.107	64.34
379.317	-1.19
379.528	-3.24
379.738	142.16
379.948	39.76
380.158	123.73
380.369	23.38
380.579	62.29
380.789	4.95
380.999	66.39
381.21	113.49
381.42	64.34
381.63	101.2
381.84	47.96
382.05	72.53
382.261	146.26
382.471	41.81
382.681	-27.82
382.891	45.91
383.101	39.76
383.311	33.62
383.521	21.33
383.731	82.77
383.941	74.58
384.151	45.91
384.361	54.1
384.571	60.24
384.781	99.16
384.991	103.25
385.201	74.58
385.411	39.76
385.621	25.43
385.831	60.24
386.041	19.29
386.251	47.96
386.461	78.68
386.671	66.39
386.881	107.35
387.091	-29.87
387.301	113.49
387.511	78.68
387.72	9.05
387.93	62.29
388.14	-56.49
388.35	43.86
388.56	121.68
388.769	80.72
388.979	25.43
389.189	-7.34
389.399	7
389.609	-1.19
389.818	111.44
390.028	-52.39
390.238	23.38
390.447	47.96
390.657	58.2
390.867	31.57
391.076	17.24
391.286	95.06
391.496	52.05
391.705	13.14
391.915	97.11
392.125	97.11
392.334	0.85
392.544	99.16
392.753	9.05
392.963	13.14
393.172	33.62
393.382	31.57
393.591	136.02
393.801	19.29
394.01	80.72
394.22	27.48
394.429	56.15
394.639	39.76
394.848	13.14
395.058	45.91
395.267	60.24
395.477	84.82
395.686	25.43
395.895	158.55
396.105	90.96
396.314	107.35
396.524	86.87
396.733	0.85
396.942	90.96
397.152	82.77
397.361	101.2
397.57	125.78
397.78	25.43
397.989	78.68
398.198	115.54
398.407	13.14
398.617	68.44
398.826	72.53
399.035	156.5
399.244	58.2
399.453	-15.53
399.663	90.96
399.872	58.2
400.081	76.63
400.29	111.44
400.499	35.67
400.708	133.97
400.917	121.68
401.127	-25.77
401.336	68.44
401.545	131.92
401.754	117.59
401.963	146.26
402.172	86.87
402.381	50
402.59	62.29
402.799	82.77
403.008	21.33
403.217	119.64
403.426	127.83
403.635	21.33
403.844	152.4
404.053	66.39
404.262	97.11
404.471	199.51
404.68	66.39
404.888	109.4
405.097	60.24
405.306	88.92
405.515	138.07
405.724	84.82
405.933	129.88
406.142	166.74
406.35	228.18
406.559	88.92
406.768	123.73
406.977	84.82
407.185	111.44
407.394	121.68
407.603	60.24
407.812	199.51
408.02	205.65
408.229	136.02
408.438	103.25
408.646	164.69
408.855	78.68
409.064	213.84
409.272	150.36
409.481	125.78
409.69	205.65
409.898	226.13
410.107	246.61
410.315	211.79
410.524	127.83
410.733	148.31
410.941	213.84
411.15	240.47
411.358	166.74
411.567	369.49
411.775	230.23
411.984	203.6
412.192	301.9
412.401	275.28
412.609	297.81
412.818	408.4
413.026	289.62
413.234	297.81
413.443	299.86
413.651	256.85
413.86	248.66
414.068	365.39
414.276	338.77
414.485	359.25
414.693	426.83
414.901	551.76
415.11	402.26
415.318	447.31
415.526	478.03
415.734	478.03
415.943	418.64
416.151	545.61
416.359	449.36
416.567	518.99
416.776	527.18
416.984	625.48
417.192	590.67
417.4	539.47
417.608	566.09
417.817	514.89
418.025	633.68
418.233	740.17
418.441	629.58
418.649	615.24
418.857	721.74
419.065	795.47
419.273	815.94
419.481	631.63
419.689	887.62
419.897	789.32
420.105	742.22
420.313	961.35
420.521	979.78
420.729	928.58
420.937	910.15
421.145	983.88
421.353	1102.66
421.561	1069.89
421.769	1168.2
421.977	1162.05
422.185	1215.3
422.393	1270.59
422.601	1301.31
422.809	1229.63
423.017	1297.22
423.224	1381.18
423.432	1407.81
423.64	1420.1
423.848	1473.34
424.056	1456.96
424.263	1661.76
424.471	1563.45
424.679	1741.63
424.887	1661.76
425.094	1811.26
425.302	1860.41
425.51	1887.03
425.718	1925.94
425.925	1956.66
426.133	1938.23
426.341	2165.56
426.548	2270
426.756	2210.61
426.964	2224.95
427.171	2239.28
427.379	2380.59
427.586	2472.75
427.794	2509.62
428.001	2564.91
428.209	2687.79
428.417	2751.28
428.624	2855.72
428.832	2954.02
429.039	2888.49
429.247	2890.54
429.454	3111.72
429.662	3332.9
429.869	3056.42
430.076	3412.77
430.284	3300.13
430.491	3451.68
430.699	3703.58
430.906	3654.43
431.114	3734.3
431.321	3762.97
431.528	3707.68
431.736	3912.47
431.943	4176.66
432.15	4068.12
432.358	4111.13
432.565	4422.42
432.772	4363.03
432.979	4553.49
433.187	4578.06
433.394	4856.59
433.601	4875.02
433.808	5065.48
434.016	5169.93
434.223	5452.55
434.43	5485.31
434.637	5473.03
434.844	5743.36
435.052	5909.24
435.259	5722.88
435.466	5960.44
435.673	5823.23
435.88	6253.3
436.087	6507.25
436.294	6699.76
436.501	6335.22
436.708	6445.81
436.915	6660.85
437.122	7086.83
437.329	6976.23
437.537	7203.56
437.743	7359.21
437.95	7203.56
438.157	7674.59
438.364	7961.31
438.571	7949.02
438.778	8004.32
438.985	8639.19
439.192	8379.09
439.399	8714.96
439.606	8348.37
439.813	8968.91
440.02	9556.68
440.227	9417.41
440.433	9208.52
440.64	9429.7
440.847	9335.49
441.054	9687.75
441.261	10355.38
441.467	10083
441.674	10173.11
441.881	10822.32
442.088	10619.57
442.294	10566.32
442.501	10930.86
442.708	11293.35
442.914	11489.96
443.121	11977.37
443.328	11711.14
443.534	12309.15
443.741	12309.15
443.948	11995.81
444.154	12835.47
444.361	12946.06
444.568	13021.84
444.774	12901.01
444.981	13148.81
445.187	13474.44
445.394	13777.54
445.6	13777.54
445.807	15000.18
446.013	14488.18
446.22	14627.45
446.426	15121.01
446.633	15456.87
446.839	16085.6
447.046	15223.41
447.252	16032.35
447.459	15807.08
447.665	16079.46
447.871	16681.56
448.078	17259.09
448.284	16788.05
448.491	16972.37
448.697	17689.16
448.903	18160.19
449.11	18108.99
449.316	17842.76
449.522	18233.92
449.728	18659.9
449.935	19024.44
450.141	18954.8
450.347	19315.25
450.553	18707
450.76	18891.32
450.966	19317.29
451.172	19272.24
451.378	19655.21
451.584	19462.7
451.791	20029.99
451.997	20011.56
452.203	20027.94
452.409	20003.36
452.615	20156.96
452.821	19364.4
453.027	19036.72
453.233	19974.69
453.44	19378.73
453.646	19821.09
453.852	19708.46
454.058	19831.33
454.264	19298.86
454.47	19575.34
454.676	19204.66
454.882	19995.17
455.088	18369.09
455.294	18307.65
455.5	18823.73
455.705	19022.39
455.911	18106.95
456.117	17918.53
456.323	17406.54
456.529	16732.76
456.735	17574.47
456.941	17095.25
457.147	16841.3
457.352	16446.04
457.558	16030.3
457.764	16269.92
457.97	15979.11
458.176	15379.05
458.381	15225.45
458.587	14568.06
458.793	14555.77
458.999	13994.62
459.204	14735.99
459.41	14264.96
459.616	13335.18
459.821	13546.12
460.027	13269.64
460.233	13101.71
460.438	12647.06
460.644	12526.23
460.85	12055.2
461.055	12067.49
461.261	11764.39
461.466	10982.06
461.672	10504.89
461.878	11399.85
462.083	10607.28
462.289	10601.14
462.494	10283.7
462.7	9910.97
462.905	9579.2
463.111	9870.01
463.316	10017.47
463.522	9681.6
463.727	9882.3
463.932	9669.31
464.138	9679.55
464.343	9747.14
464.549	9251.53
464.754	9495.24
464.959	9624.26
465.165	9405.13
465.37	8872.65
465.575	8792.78
465.781	9224.9
465.986	9204.42
466.191	8753.87
466.397	8710.86
466.602	8145.63
466.807	8669.91
467.012	8641.23
467.218	8520.4
467.423	8375
467.628	8430.29
467.833	8575.7
468.038	8487.64
468.244	8237.78
468.449	8577.75
468.654	8258.26
