Data from USB4F104151__12__12-11-30-911.txt Node

Date: Fri Mar 14 12:11:30 EDT 2025
User: louis
Spectrometer: USB4F10415
Trigger mode: 4
Integration Time (sec): 5.000000E-2
Scans to average: 1
Electric dark correction enabled: true
Nonlinearity correction enabled: false
Boxcar width: 0
XAxis mode: Wavelengths
Number of Pixels in Spectrum: 3648
>>>>>Begin Spectral Data<<<<<
178.204	-242.85
178.424	-242.85
178.644	-242.85
178.864	-218.28
179.084	-253.09
179.304	-111.78
179.524	-33.96
179.744	31.57
179.964	58.2
180.184	39.76
180.404	-7.34
180.624	23.38
180.844	-60.59
181.064	21.33
181.283	109.4
181.503	-93.35
181.723	23.38
181.943	-25.77
182.163	97.11
182.383	60.24
182.602	-25.77
182.822	39.76
183.042	2.9
183.262	54.1
183.482	-48.3
183.701	39.76
183.921	68.44
184.141	21.33
184.361	152.4
184.58	-5.29
184.8	4.95
185.02	-23.72
185.239	45.91
185.459	78.68
185.679	35.67
185.898	-40.11
186.118	47.96
186.338	27.48
186.557	74.58
186.777	25.43
186.997	21.33
187.216	-7.34
187.436	136.02
187.655	0.85
187.875	41.81
188.095	125.78
188.314	33.62
188.534	13.14
188.753	-44.2
188.973	111.44
189.192	152.4
189.412	-17.58
189.631	45.91
189.851	-9.39
190.07	105.3
190.29	21.33
190.509	11.09
190.729	-21.67
190.948	150.36
191.168	226.13
191.387	127.83
191.607	-58.54
191.826	78.68
192.045	-7.34
192.265	-13.48
192.484	15.19
192.704	-11.43
192.923	11.09
193.142	111.44
193.362	80.72
193.581	50
193.8	4.95
194.02	62.29
194.239	-38.06
194.458	23.38
194.678	21.33
194.897	35.67
195.116	43.86
195.335	70.48
195.555	37.72
195.774	-33.96
195.993	-33.96
196.212	78.68
196.432	-15.53
196.651	-11.43
196.87	-5.29
197.089	146.26
197.308	33.62
197.528	93.01
197.747	-29.87
197.966	56.15
198.185	109.4
198.404	-58.54
198.623	74.58
198.842	50
199.062	142.16
199.281	93.01
199.5	27.48
199.719	27.48
199.938	17.24
200.157	2.9
200.376	15.19
200.595	45.91
200.814	93.01
201.033	45.91
201.252	103.25
201.471	72.53
201.69	43.86
201.909	41.81
202.128	43.86
202.347	47.96
202.566	-13.48
202.785	76.63
203.004	41.81
203.223	144.21
203.442	21.33
203.661	11.09
203.879	11.09
204.098	56.15
204.317	-11.43
204.536	27.48
204.755	66.39
204.974	27.48
205.193	56.15
205.411	103.25
205.63	115.54
205.849	52.05
206.068	43.86
206.287	-1.19
206.505	103.25
206.724	39.76
206.943	-7.34
207.162	7
207.381	-13.48
207.599	9.05
207.818	-1.19
208.037	-25.77
208.255	-11.43
208.474	-21.67
208.693	37.72
208.911	15.19
209.13	15.19
209.349	95.06
209.567	17.24
209.786	50
210.005	39.76
210.223	47.96
210.442	-23.72
210.661	70.48
210.879	35.67
211.098	-3.24
211.316	90.96
211.535	109.4
211.753	37.72
211.972	15.19
212.191	-19.63
212.409	37.72
212.628	62.29
212.846	45.91
213.065	39.76
213.283	39.76
213.502	45.91
213.72	-7.34
213.938	0.85
214.157	23.38
214.375	76.63
214.594	0.85
214.812	45.91
215.031	-7.34
215.249	29.52
215.467	19.29
215.686	-9.39
215.904	99.16
216.122	9.05
216.341	111.44
216.559	25.43
216.778	19.29
216.996	82.77
217.214	80.72
217.432	2.9
217.651	37.72
217.869	2.9
218.087	-21.67
218.306	33.62
218.524	90.96
218.742	21.33
218.96	25.43
219.179	33.62
219.397	109.4
219.615	129.88
219.833	-23.72
220.051	-48.3
220.27	105.3
220.488	54.1
220.706	31.57
220.924	9.05
221.142	-83.11
221.36	60.24
221.578	-5.29
221.796	-21.67
222.015	54.1
222.233	39.76
222.451	-3.24
222.669	86.87
222.887	60.24
223.105	-9.39
223.323	64.34
223.541	4.95
223.759	37.72
223.977	33.62
224.195	86.87
224.413	50
224.631	68.44
224.849	31.57
225.067	82.77
225.285	56.15
225.503	29.52
225.721	-31.91
225.939	93.01
226.157	-40.11
226.375	226.13
226.592	7
226.81	29.52
227.028	74.58
227.246	54.1
227.464	60.24
227.682	50
227.9	72.53
228.117	4.95
228.335	27.48
228.553	39.76
228.771	21.33
228.989	62.29
229.206	33.62
229.424	-58.54
229.642	0.85
229.86	-11.43
230.077	123.73
230.295	54.1
230.513	0.85
230.731	74.58
230.948	138.07
231.166	80.72
231.384	-5.29
231.601	29.52
231.819	86.87
232.037	-29.87
232.254	-15.53
232.472	-29.87
232.689	21.33
232.907	93.01
233.125	33.62
233.342	19.29
233.56	-3.24
233.777	-11.43
233.995	23.38
234.213	78.68
234.43	47.96
234.648	2.9
234.865	4.95
235.083	56.15
235.3	70.48
235.518	97.11
235.735	142.16
235.953	39.76
236.17	25.43
236.388	-33.96
236.605	29.52
236.822	-5.29
237.04	80.72
237.257	37.72
237.475	56.15
237.692	2.9
237.909	-13.48
238.127	-29.87
238.344	15.19
238.562	47.96
238.779	-29.87
238.996	-15.53
239.214	78.68
239.431	152.4
239.648	15.19
239.865	70.48
240.083	23.38
240.3	35.67
240.517	35.67
240.735	47.96
240.952	72.53
241.169	39.76
241.386	-33.96
241.603	84.82
241.821	-36.01
242.038	50
242.255	80.72
242.472	33.62
242.689	47.96
242.907	80.72
243.124	97.11
243.341	27.48
243.558	-44.2
243.775	-19.63
243.992	-27.82
244.209	140.12
244.426	115.54
244.643	105.3
244.86	39.76
245.078	64.34
245.295	72.53
245.512	-11.43
245.729	17.24
245.946	33.62
246.163	52.05
246.38	82.77
246.597	62.29
246.814	-1.19
247.031	52.05
247.248	72.53
247.464	99.16
247.681	45.91
247.898	127.83
248.115	47.96
248.332	15.19
248.549	7
248.766	13.14
248.983	41.81
249.2	107.35
249.417	33.62
249.633	0.85
249.85	78.68
250.067	56.15
250.284	-3.24
250.501	138.07
250.717	70.48
250.934	-44.2
251.151	78.68
251.368	82.77
251.585	2.9
251.801	0.85
252.018	-9.39
252.235	80.72
252.451	33.62
252.668	11.09
252.885	162.64
253.102	86.87
253.318	19.29
253.535	50
253.752	25.43
253.968	-46.25
254.185	95.06
254.401	11.09
254.618	41.81
254.835	-19.63
255.051	52.05
255.268	-17.58
255.484	7
255.701	-54.44
255.917	68.44
256.134	7
256.351	4.95
256.567	-13.48
256.784	60.24
257	-15.53
257.217	70.48
257.433	80.72
257.65	86.87
257.866	27.48
258.082	-68.78
258.299	41.81
258.515	80.72
258.732	21.33
258.948	93.01
259.165	-23.72
259.381	-13.48
259.597	133.97
259.814	72.53
260.03	15.19
260.246	-52.39
260.463	4.95
260.679	60.24
260.895	7
261.112	72.53
261.328	70.48
261.544	-44.2
261.761	140.12
261.977	11.09
262.193	-48.3
262.409	113.49
262.626	50
262.842	47.96
263.058	21.33
263.274	13.14
263.49	21.33
263.707	74.58
263.923	101.2
264.139	-40.11
264.355	-56.49
264.571	25.43
264.787	11.09
265.004	52.05
265.22	23.38
265.436	62.29
265.652	25.43
265.868	52.05
266.084	0.85
266.3	-9.39
266.516	-33.96
266.732	64.34
266.948	50
267.164	23.38
267.38	39.76
267.596	43.86
267.812	33.62
268.028	-31.91
268.244	19.29
268.46	13.14
268.676	43.86
268.892	29.52
269.108	-7.34
269.324	41.81
269.54	-31.91
269.756	103.25
269.972	-7.34
270.188	-62.63
270.403	15.19
270.619	31.57
270.835	95.06
271.051	58.2
271.267	9.05
271.483	-74.92
271.698	29.52
271.914	86.87
272.13	-27.82
272.346	-1.19
272.562	-40.11
272.777	86.87
272.993	-11.43
273.209	52.05
273.425	62.29
273.64	-21.67
273.856	17.24
274.072	-25.77
274.287	-74.92
274.503	78.68
274.719	27.48
274.934	86.87
275.15	-15.53
275.366	52.05
275.581	37.72
275.797	4.95
276.012	33.62
276.228	33.62
276.444	101.2
276.659	117.59
276.875	-89.26
277.09	35.67
277.306	-17.58
277.521	29.52
277.737	39.76
277.952	54.1
278.168	17.24
278.383	82.77
278.599	37.72
278.814	64.34
279.03	9.05
279.245	111.44
279.461	37.72
279.676	25.43
279.892	-64.68
280.107	-3.24
280.322	9.05
280.538	13.14
280.753	29.52
280.969	35.67
281.184	-19.63
281.399	41.81
281.615	29.52
281.83	82.77
282.045	-21.67
282.26	-50.35
282.476	-27.82
282.691	70.48
282.906	-11.43
283.122	58.2
283.337	47.96
283.552	-17.58
283.767	17.24
283.983	152.4
284.198	41.81
284.413	37.72
284.628	50
284.843	7
285.058	70.48
285.274	19.29
285.489	-21.67
285.704	62.29
285.919	4.95
286.134	27.48
286.349	72.53
286.564	54.1
286.779	45.91
286.995	33.62
287.21	29.52
287.425	64.34
287.64	21.33
287.855	-1.19
288.07	72.53
288.285	76.63
288.5	60.24
288.715	115.54
288.93	-17.58
289.145	-33.96
289.36	121.68
289.575	2.9
289.79	11.09
290.004	-21.67
290.219	111.44
290.434	4.95
290.649	-3.24
290.864	21.33
291.079	2.9
291.294	31.57
291.509	-27.82
291.724	-50.35
291.938	-17.58
292.153	72.53
292.368	9.05
292.583	52.05
292.798	-1.19
293.012	35.67
293.227	15.19
293.442	-60.59
293.657	80.72
293.871	68.44
294.086	64.34
294.301	131.92
294.516	-13.48
294.73	-21.67
294.945	-85.16
295.16	-31.91
295.374	54.1
295.589	205.65
295.804	43.86
296.018	-25.77
296.233	66.39
296.447	27.48
296.662	-52.39
296.877	64.34
297.091	56.15
297.306	27.48
297.52	11.09
297.735	41.81
297.949	23.38
298.164	54.1
298.378	99.16
298.593	-44.2
298.807	17.24
299.022	60.24
299.236	70.48
299.451	47.96
299.665	21.33
299.88	-21.67
300.094	72.53
300.309	66.39
300.523	29.52
300.737	60.24
300.952	68.44
301.166	66.39
301.381	-21.67
301.595	-33.96
301.809	125.78
302.024	35.67
302.238	-31.91
302.452	21.33
302.667	25.43
302.881	97.11
303.095	17.24
303.309	45.91
303.524	-11.43
303.738	56.15
303.952	-50.35
304.166	11.09
304.381	-101.55
304.595	33.62
304.809	-13.48
305.023	31.57
305.237	80.72
305.452	11.09
305.666	82.77
305.88	41.81
306.094	88.92
306.308	21.33
306.522	64.34
306.736	11.09
306.95	107.35
307.164	-36.01
307.379	4.95
307.593	60.24
307.807	90.96
308.021	70.48
308.235	101.2
308.449	15.19
308.663	68.44
308.877	131.92
309.091	-48.3
309.305	13.14
309.519	-23.72
309.733	64.34
309.947	-36.01
310.161	7
310.374	86.87
310.588	43.86
310.802	-15.53
311.016	109.4
311.23	50
311.444	-40.11
311.658	-46.25
311.872	27.48
312.085	86.87
312.299	47.96
312.513	35.67
312.727	76.63
312.941	13.14
313.154	4.95
313.368	62.29
313.582	56.15
313.796	86.87
314.009	2.9
314.223	90.96
314.437	93.01
314.651	127.83
314.864	-70.83
315.078	29.52
315.292	-21.67
315.505	-13.48
315.719	-27.82
315.933	64.34
316.146	13.14
316.36	-44.2
316.573	72.53
316.787	84.82
317.001	19.29
317.214	13.14
317.428	39.76
317.641	-64.68
317.855	23.38
318.068	66.39
318.282	62.29
318.495	113.49
318.709	74.58
318.922	35.67
319.136	95.06
319.349	39.76
319.563	11.09
319.776	43.86
319.99	0.85
320.203	119.64
320.417	27.48
320.63	39.76
320.843	111.44
321.057	-3.24
321.27	54.1
321.483	27.48
321.697	136.02
321.91	-48.3
322.124	70.48
322.337	60.24
322.55	39.76
322.763	2.9
322.977	90.96
323.19	13.14
323.403	64.34
323.617	-11.43
323.83	146.26
324.043	52.05
324.256	-23.72
324.469	23.38
324.683	80.72
324.896	84.82
325.109	17.24
325.322	-19.63
325.535	-11.43
325.748	119.64
325.962	-9.39
326.175	62.29
326.388	64.34
326.601	43.86
326.814	37.72
327.027	-7.34
327.24	125.78
327.453	-52.39
327.666	64.34
327.879	103.25
328.092	50
328.305	2.9
328.518	29.52
328.731	-29.87
328.944	13.14
329.157	25.43
329.37	60.24
329.583	86.87
329.796	74.58
330.009	-5.29
330.222	56.15
330.435	27.48
330.648	-5.29
330.861	-3.24
331.073	64.34
331.286	15.19
331.499	70.48
331.712	-58.54
331.925	82.77
332.138	-54.44
332.35	52.05
332.563	0.85
332.776	58.2
332.989	2.9
333.202	17.24
333.414	11.09
333.627	37.72
333.84	58.2
334.053	35.67
334.265	33.62
334.478	64.34
334.691	52.05
334.903	45.91
335.116	-76.97
335.329	41.81
335.541	101.2
335.754	43.86
335.966	54.1
336.179	13.14
336.392	-23.72
336.604	35.67
336.817	103.25
337.029	-31.91
337.242	68.44
337.454	117.59
337.667	31.57
337.88	74.58
338.092	4.95
338.305	68.44
338.517	88.92
338.729	60.24
338.942	35.67
339.154	-3.24
339.367	-25.77
339.579	90.96
339.792	66.39
340.004	78.68
340.217	-21.67
340.429	29.52
340.641	19.29
340.854	9.05
341.066	47.96
341.278	33.62
341.491	115.54
341.703	13.14
341.915	25.43
342.128	72.53
342.34	50
342.552	-3.24
342.764	13.14
342.977	21.33
343.189	7
343.401	43.86
343.613	-5.29
343.826	25.43
344.038	13.14
344.25	86.87
344.462	29.52
344.674	80.72
344.886	82.77
345.099	62.29
345.311	-21.67
345.523	-74.92
345.735	-5.29
345.947	-27.82
346.159	66.39
346.371	54.1
346.583	-27.82
346.795	199.51
347.007	111.44
347.219	27.48
347.431	-60.59
347.643	111.44
347.855	56.15
348.067	13.14
348.279	-3.24
348.491	-38.06
348.703	72.53
348.915	-23.72
349.127	43.86
349.339	101.2
349.551	4.95
349.763	88.92
349.975	31.57
350.187	62.29
350.399	97.11
350.61	84.82
350.822	19.29
351.034	58.2
351.246	-1.19
351.458	125.78
351.669	68.44
351.881	33.62
352.093	47.96
352.305	39.76
352.517	-17.58
352.728	72.53
352.94	31.57
353.152	78.68
353.363	23.38
353.575	70.48
353.787	62.29
353.999	72.53
354.21	88.92
354.422	35.67
354.633	13.14
354.845	33.62
355.057	27.48
355.268	-40.11
355.48	37.72
355.692	21.33
355.903	41.81
356.115	19.29
356.326	-44.2
356.538	37.72
356.749	35.67
356.961	113.49
357.172	-70.83
357.384	-25.77
357.595	54.1
357.807	43.86
358.018	45.91
358.23	-11.43
358.441	125.78
358.653	-1.19
358.864	29.52
359.075	84.82
359.287	4.95
359.498	-11.43
359.709	62.29
359.921	37.72
360.132	54.1
360.344	50
360.555	2.9
360.766	41.81
360.977	-19.63
361.189	146.26
361.4	33.62
361.611	93.01
361.823	78.68
362.034	35.67
362.245	-15.53
362.456	19.29
362.667	-29.87
362.879	-27.82
363.09	99.16
363.301	-3.24
363.512	80.72
363.723	-44.2
363.935	-36.01
364.146	101.2
364.357	43.86
364.568	25.43
364.779	-23.72
364.99	152.4
365.201	23.38
365.412	88.92
365.623	-38.06
365.834	41.81
366.045	-36.01
366.256	58.2
366.467	47.96
366.678	70.48
366.889	37.72
367.1	4.95
367.311	68.44
367.522	19.29
367.733	86.87
367.944	29.52
368.155	11.09
368.366	-1.19
368.577	70.48
368.788	11.09
368.999	52.05
369.209	45.91
369.42	88.92
369.631	170.83
369.842	35.67
370.053	-27.82
370.264	70.48
370.474	13.14
370.685	29.52
370.896	56.15
371.107	111.44
371.317	66.39
371.528	-3.24
371.739	72.53
371.95	50
372.16	78.68
372.371	-19.63
372.582	60.24
372.792	23.38
373.003	117.59
373.214	25.43
373.424	82.77
373.635	0.85
373.846	50
374.056	50
374.267	50
374.477	9.05
374.688	-15.53
374.898	29.52
375.109	4.95
375.319	-40.11
375.53	115.54
375.74	64.34
375.951	41.81
376.161	-25.77
376.372	27.48
376.582	-5.29
376.793	54.1
377.003	72.53
377.214	-31.91
377.424	76.63
377.635	56.15
377.845	-15.53
378.055	101.2
378.266	-48.3
378.476	60.24
378.686	13.14
378.897	70.48
379.107	76.63
379.317	-5.29
379.528	58.2
379.738	29.52
379.948	-1.19
380.158	97.11
380.369	62.29
380.579	47.96
380.789	60.24
380.999	107.35
381.21	52.05
381.42	115.54
381.63	-11.43
381.84	129.88
382.05	45.91
382.261	54.1
382.471	111.44
382.681	66.39
382.891	117.59
383.101	70.48
383.311	-46.25
383.521	-52.39
383.731	90.96
383.941	113.49
384.151	66.39
384.361	4.95
384.571	39.76
384.781	31.57
384.991	133.97
385.201	54.1
385.411	117.59
385.621	78.68
385.831	15.19
386.041	60.24
386.251	47.96
386.461	54.1
386.671	39.76
386.881	109.4
387.091	45.91
387.301	43.86
387.511	-13.48
387.72	70.48
387.93	95.06
388.14	-66.73
388.35	66.39
388.56	97.11
388.769	72.53
388.979	-31.91
389.189	70.48
389.399	-7.34
389.609	131.92
389.818	144.21
390.028	62.29
390.238	95.06
390.447	-105.64
390.657	70.48
390.867	-38.06
391.076	-42.15
391.286	78.68
391.496	95.06
391.705	33.62
391.915	82.77
392.125	123.73
392.334	7
392.544	80.72
392.753	50
392.963	9.05
393.172	2.9
393.382	7
393.591	113.49
393.801	-52.39
394.01	88.92
394.22	80.72
394.429	70.48
394.639	60.24
394.848	58.2
395.058	50
395.267	64.34
395.477	82.77
395.686	103.25
395.895	146.26
396.105	172.88
396.314	11.09
396.524	0.85
396.733	50
396.942	119.64
397.152	4.95
397.361	68.44
397.57	9.05
397.78	39.76
397.989	76.63
398.198	203.6
398.407	39.76
398.617	39.76
398.826	78.68
399.035	125.78
399.244	150.36
399.453	35.67
399.663	90.96
399.872	121.68
400.081	13.14
400.29	70.48
400.499	-1.19
400.708	123.73
400.917	11.09
401.127	88.92
401.336	25.43
401.545	133.97
401.754	136.02
401.963	181.07
402.172	78.68
402.381	72.53
402.59	54.1
402.799	52.05
403.008	101.2
403.217	133.97
403.426	133.97
403.635	29.52
403.844	95.06
404.053	150.36
404.262	115.54
404.471	168.79
404.68	144.21
404.888	127.83
405.097	-7.34
405.306	131.92
405.515	133.97
405.724	109.4
405.933	138.07
406.142	43.86
406.35	156.5
406.559	99.16
406.768	142.16
406.977	217.94
407.185	115.54
407.394	181.07
407.603	129.88
407.812	170.83
408.02	201.55
408.229	191.31
408.438	150.36
408.646	119.64
408.855	142.16
409.064	129.88
409.272	162.64
409.481	234.32
409.69	172.88
409.898	119.64
410.107	250.71
410.315	228.18
410.524	176.98
410.733	203.6
410.941	230.23
411.15	244.56
411.358	349.01
411.567	291.66
411.775	236.37
411.984	256.85
412.192	273.23
412.401	273.23
412.609	326.48
412.818	285.52
413.026	336.72
413.234	322.38
413.443	363.34
413.651	314.19
413.86	414.54
414.068	486.22
414.276	424.78
414.485	365.39
414.693	484.17
414.901	496.46
415.11	441.17
415.318	494.41
415.526	547.66
415.734	508.75
415.943	559.95
416.151	668.49
416.359	568.14
416.567	588.62
416.776	643.92
416.984	625.48
417.192	717.64
417.4	688.97
417.608	648.01
417.817	590.67
418.025	717.64
418.233	875.34
418.441	785.23
418.649	738.12
418.857	840.52
419.065	922.44
419.273	727.88
419.481	889.67
419.689	992.07
419.897	959.3
420.105	942.92
420.313	1073.99
420.521	987.97
420.729	1024.84
420.937	1102.66
421.145	1223.49
421.353	1233.73
421.561	1246.02
421.769	1356.61
421.977	1289.03
422.185	1332.03
422.393	1426.24
422.601	1465.15
422.809	1583.93
423.017	1426.24
423.224	1622.84
423.432	1655.61
423.64	1502.01
423.848	1827.64
424.056	1667.9
424.263	1923.9
424.471	1901.37
424.679	1927.99
424.887	2032.44
425.094	2186.04
425.302	2116.41
425.51	2165.56
425.718	2175.8
425.925	2186.04
426.133	2270
426.341	2562.86
426.548	2476.85
426.756	2526
426.964	2556.72
427.171	2564.91
427.379	2736.94
427.586	2708.27
427.794	3019.56
428.001	3044.13
428.209	3144.49
428.417	3083.05
428.624	3287.84
428.832	3328.8
429.039	3214.12
429.247	3302.18
429.454	3584.8
429.662	3902.23
429.869	3734.3
430.076	3797.79
430.284	3717.92
430.491	3943.19
430.699	4125.46
430.906	4041.5
431.114	4047.64
431.321	4389.65
431.528	4381.46
431.736	4725.52
431.943	5022.47
432.15	4662.03
432.358	4768.52
432.565	5036.81
432.772	5010.18
432.979	5309.19
433.187	5309.19
433.394	5407.49
433.601	5837.56
433.808	5849.85
434.016	5583.62
434.223	5913.34
434.43	6372.08
434.637	6357.75
434.844	6525.68
435.052	6681.33
435.259	6693.62
435.466	6771.44
435.673	6523.63
435.88	7076.59
436.087	7443.17
436.294	7445.22
436.501	7252.71
436.708	7455.46
436.915	7629.54
437.122	8006.36
437.329	7836.38
437.537	8096.47
437.743	8284.89
437.95	8450.77
438.157	8817.36
438.364	8790.74
438.571	8991.44
438.778	8942.28
438.985	9775.81
439.192	9435.85
439.399	9652.93
439.606	9714.37
439.813	9882.3
440.02	10646.19
440.227	10443.45
440.433	10384.05
440.64	10871.47
440.847	10631.86
441.054	10803.89
441.261	11797.15
441.467	11494.05
441.674	11866.78
441.881	11924.13
442.088	12118.68
442.294	12024.48
442.501	12141.21
442.708	12638.87
442.914	13058.7
443.121	13589.13
443.328	13187.72
443.534	14125.69
443.741	13570.69
443.948	13402.76
444.154	14541.43
444.361	14436.99
444.568	14613.11
444.774	14379.64
444.981	14688.89
445.187	15272.56
445.394	15538.79
445.6	15557.22
445.807	16945.75
446.013	16132.7
446.22	16593.5
446.426	17068.62
446.633	17304.14
446.839	17721.93
447.046	16984.66
447.252	18025.03
447.459	18047.55
447.665	18053.7
447.871	18965.04
448.078	19999.27
448.284	18698.81
448.491	19016.24
448.697	19913.25
448.903	20167.2
449.11	20236.83
449.316	19747.37
449.522	20130.34
449.728	20578.84
449.935	20898.33
450.141	20828.7
450.347	21203.47
450.553	20638.23
450.76	20996.63
450.966	21561.87
451.172	21361.17
451.378	21936.65
451.584	21420.56
451.791	21944.84
451.997	21697.03
452.203	22440.45
452.409	22503.93
452.615	22004.23
452.821	21189.14
453.027	21107.22
453.233	21838.34
453.44	20935.19
453.646	21682.7
453.852	21467.66
454.058	21750.28
454.264	21201.43
454.47	21484.05
454.676	21058.07
454.882	21717.51
455.088	19751.46
455.294	20363.81
455.5	20529.69
455.705	20660.76
455.911	19776.04
456.117	19352.11
456.323	19081.78
456.529	18258.49
456.735	18942.52
456.941	18338.37
457.147	18096.71
457.352	17357.39
457.558	17216.08
457.764	17429.07
457.97	16972.37
458.176	16687.7
458.381	16495.19
458.587	15944.29
458.793	15811.17
458.999	14803.57
459.204	16300.64
459.41	15397.48
459.616	14637.69
459.821	14477.94
460.027	14465.66
460.233	14164.61
460.438	13562.5
460.644	13396.62
460.85	12868.24
461.055	12741.27
461.261	12589.72
461.466	11872.93
461.672	11485.86
461.878	12126.88
462.083	11397.8
462.289	11045.55
462.494	11070.12
462.7	10373.82
462.905	10199.74
463.111	10689.2
463.316	10644.15
463.522	10463.93
463.727	10322.62
463.932	10267.32
464.138	10099.39
464.343	10177.21
464.549	9865.92
464.754	10384.05
464.959	10173.11
465.165	10042.04
465.37	9530.05
465.575	9431.75
465.781	9867.97
465.986	9753.28
466.191	9454.28
466.397	9401.03
466.602	8809.17
466.807	9112.27
467.012	9358.02
467.218	9263.82
467.423	8870.61
467.628	9001.68
467.833	9267.91
468.038	9061.07
