Data from USB4F104151__29__12-11-46-309.txt Node

Date: Fri Mar 14 12:11:46 EDT 2025
User: louis
Spectrometer: USB4F10415
Trigger mode: 4
Integration Time (sec): 5.000000E-2
Scans to average: 1
Electric dark correction enabled: true
Nonlinearity correction enabled: false
Boxcar width: 0
XAxis mode: Wavelengths
Number of Pixels in Spectrum: 3648
>>>>>Begin Spectral Data<<<<<
178.204	-162.98
178.424	-162.98
178.644	-162.98
178.864	-218.28
179.084	-148.65
179.304	-66.73
179.524	4.95
179.744	0.85
179.964	64.34
180.184	2.9
180.404	25.43
180.624	-9.39
180.844	31.57
181.064	-54.44
181.283	-11.43
181.503	-62.63
181.723	74.58
181.943	-76.97
182.163	136.02
182.383	-17.58
182.602	45.91
182.822	41.81
183.042	-38.06
183.262	19.29
183.482	35.67
183.701	62.29
183.921	13.14
184.141	-13.48
184.361	105.3
184.58	115.54
184.8	72.53
185.02	-27.82
185.239	-5.29
185.459	39.76
185.679	115.54
185.898	-31.91
186.118	35.67
186.338	121.68
186.557	33.62
186.777	0.85
186.997	72.53
187.216	72.53
187.436	133.97
187.655	99.16
187.875	35.67
188.095	33.62
188.314	109.4
188.534	164.69
188.753	97.11
188.973	54.1
189.192	80.72
189.412	84.82
189.631	29.52
189.851	97.11
190.07	60.24
190.29	-38.06
190.509	15.19
190.729	45.91
190.948	82.77
191.168	246.61
191.387	37.72
191.607	31.57
191.826	41.81
192.045	21.33
192.265	-25.77
192.484	45.91
192.704	84.82
192.923	97.11
193.142	86.87
193.362	109.4
193.581	58.2
193.8	64.34
194.02	74.58
194.239	-15.53
194.458	86.87
194.678	84.82
194.897	17.24
195.116	111.44
195.335	-72.87
195.555	127.83
195.774	43.86
195.993	88.92
196.212	50
196.432	-13.48
196.651	64.34
196.87	25.43
197.089	97.11
197.308	64.34
197.528	70.48
197.747	-7.34
197.966	58.2
198.185	152.4
198.404	17.24
198.623	133.97
198.842	66.39
199.062	37.72
199.281	86.87
199.5	-3.24
199.719	78.68
199.938	35.67
200.157	93.01
200.376	111.44
200.595	101.2
200.814	78.68
201.033	72.53
201.252	123.73
201.471	109.4
201.69	58.2
201.909	68.44
202.128	105.3
202.347	37.72
202.566	-15.53
202.785	41.81
203.004	7
203.223	185.17
203.442	58.2
203.661	33.62
203.879	109.4
204.098	31.57
204.317	-11.43
204.536	60.24
204.755	84.82
204.974	148.31
205.193	62.29
205.411	109.4
205.63	50
205.849	-29.87
206.068	-1.19
206.287	27.48
206.505	93.01
206.724	27.48
206.943	-54.44
207.162	86.87
207.381	41.81
207.599	-58.54
207.818	84.82
208.037	33.62
208.255	33.62
208.474	78.68
208.693	11.09
208.911	41.81
209.13	115.54
209.349	2.9
209.567	101.2
209.786	50
210.005	50
210.223	35.67
210.442	17.24
210.661	105.3
210.879	103.25
211.098	27.48
211.316	78.68
211.535	21.33
211.753	109.4
211.972	-1.19
212.191	35.67
212.409	31.57
212.628	62.29
212.846	50
213.065	66.39
213.283	82.77
213.502	90.96
213.72	39.76
213.938	47.96
214.157	68.44
214.375	76.63
214.594	-7.34
214.812	25.43
215.031	-19.63
215.249	9.05
215.467	78.68
215.686	52.05
215.904	131.92
216.122	21.33
216.341	68.44
216.559	27.48
216.778	125.78
216.996	95.06
217.214	-31.91
217.432	-1.19
217.651	15.19
217.869	25.43
218.087	-31.91
218.306	68.44
218.524	23.38
218.742	35.67
218.96	119.64
219.179	29.52
219.397	47.96
219.615	88.92
219.833	70.48
220.051	-50.35
220.27	125.78
220.488	72.53
220.706	-7.34
220.924	37.72
221.142	90.96
221.36	27.48
221.578	97.11
221.796	21.33
222.015	-62.63
222.233	82.77
222.451	25.43
222.669	52.05
222.887	140.12
223.105	2.9
223.323	-11.43
223.541	15.19
223.759	25.43
223.977	121.68
224.195	45.91
224.413	-36.01
224.631	88.92
224.849	56.15
225.067	103.25
225.285	60.24
225.503	35.67
225.721	-13.48
225.939	4.95
226.157	50
226.375	117.59
226.592	-40.11
226.81	9.05
227.028	35.67
227.246	101.2
227.464	68.44
227.682	-13.48
227.9	50
228.117	99.16
228.335	93.01
228.553	72.53
228.771	60.24
228.989	39.76
229.206	39.76
229.424	60.24
229.642	80.72
229.86	-36.01
230.077	-11.43
230.295	60.24
230.513	97.11
230.731	68.44
230.948	66.39
231.166	76.63
231.384	41.81
231.601	27.48
231.819	119.64
232.037	-27.82
232.254	23.38
232.472	7
232.689	80.72
232.907	140.12
233.125	72.53
233.342	27.48
233.56	43.86
233.777	-38.06
233.995	33.62
234.213	68.44
234.43	35.67
234.648	101.2
234.865	33.62
235.083	41.81
235.3	127.83
235.518	39.76
235.735	156.5
235.953	68.44
236.17	-9.39
236.388	0.85
236.605	60.24
236.822	152.4
237.04	72.53
237.257	144.21
237.475	-13.48
237.692	50
237.909	37.72
238.127	-29.87
238.344	105.3
238.562	27.48
238.779	-13.48
238.996	-23.72
239.214	84.82
239.431	86.87
239.648	90.96
239.865	72.53
240.083	101.2
240.3	101.2
240.517	43.86
240.735	60.24
240.952	111.44
241.169	60.24
241.386	99.16
241.603	9.05
241.821	23.38
242.038	115.54
242.255	76.63
242.472	11.09
242.689	13.14
242.907	50
243.124	23.38
243.341	84.82
243.558	43.86
243.775	-46.25
243.992	-52.39
244.209	68.44
244.426	107.35
244.643	43.86
244.86	82.77
245.078	74.58
245.295	-7.34
245.512	11.09
245.729	33.62
245.946	101.2
246.163	68.44
246.38	23.38
246.597	45.91
246.814	68.44
247.031	23.38
247.248	27.48
247.464	50
247.681	27.48
247.898	33.62
248.115	9.05
248.332	-48.3
248.549	78.68
248.766	95.06
248.983	189.27
249.2	23.38
249.417	33.62
249.633	4.95
249.85	39.76
250.067	-66.73
250.284	52.05
250.501	115.54
250.717	123.73
250.934	-38.06
251.151	47.96
251.368	23.38
251.585	33.62
251.801	76.63
252.018	-7.34
252.235	76.63
252.451	4.95
252.668	-5.29
252.885	19.29
253.102	41.81
253.318	15.19
253.535	66.39
253.752	41.81
253.968	45.91
254.185	19.29
254.401	95.06
254.618	70.48
254.835	31.57
255.051	84.82
255.268	66.39
255.484	43.86
255.701	-23.72
255.917	33.62
256.134	-58.54
256.351	45.91
256.567	9.05
256.784	43.86
257	-40.11
257.217	66.39
257.433	15.19
257.65	95.06
257.866	97.11
258.082	13.14
258.299	4.95
258.515	101.2
258.732	47.96
258.948	9.05
259.165	107.35
259.381	84.82
259.597	90.96
259.814	54.1
260.03	2.9
260.246	9.05
260.463	68.44
260.679	56.15
260.895	29.52
261.112	62.29
261.328	29.52
261.544	23.38
261.761	154.45
261.977	13.14
262.193	-62.63
262.409	56.15
262.626	15.19
262.842	52.05
263.058	19.29
263.274	70.48
263.49	95.06
263.707	76.63
263.923	54.1
264.139	-62.63
264.355	74.58
264.571	174.93
264.787	109.4
265.004	56.15
265.22	37.72
265.436	78.68
265.652	45.91
265.868	101.2
266.084	19.29
266.3	54.1
266.516	-7.34
266.732	60.24
266.948	125.78
267.164	50
267.38	-1.19
267.596	13.14
267.812	113.49
268.028	19.29
268.244	-7.34
268.46	80.72
268.676	-3.24
268.892	82.77
269.108	-3.24
269.324	107.35
269.54	-36.01
269.756	25.43
269.972	-40.11
270.188	47.96
270.403	19.29
270.619	13.14
270.835	33.62
271.051	15.19
271.267	13.14
271.483	37.72
271.698	58.2
271.914	13.14
272.13	33.62
272.346	41.81
272.562	17.24
272.777	82.77
272.993	25.43
273.209	17.24
273.425	95.06
273.64	72.53
273.856	43.86
274.072	47.96
274.287	-3.24
274.503	76.63
274.719	47.96
274.934	4.95
275.15	-62.63
275.366	45.91
275.581	9.05
275.797	52.05
276.012	84.82
276.228	68.44
276.444	113.49
276.659	54.1
276.875	0.85
277.09	54.1
277.306	-11.43
277.521	23.38
277.737	80.72
277.952	115.54
278.168	60.24
278.383	136.02
278.599	33.62
278.814	113.49
279.03	84.82
279.245	133.97
279.461	19.29
279.676	119.64
279.892	-9.39
280.107	19.29
280.322	39.76
280.538	101.2
280.753	33.62
280.969	152.4
281.184	-1.19
281.399	2.9
281.615	7
281.83	86.87
282.045	-29.87
282.26	17.24
282.476	9.05
282.691	68.44
282.906	35.67
283.122	25.43
283.337	47.96
283.552	127.83
283.767	60.24
283.983	127.83
284.198	-29.87
284.413	74.58
284.628	0.85
284.843	74.58
285.058	99.16
285.274	9.05
285.489	-9.39
285.704	131.92
285.919	2.9
286.134	-3.24
286.349	105.3
286.564	0.85
286.779	142.16
286.995	-1.19
287.21	17.24
287.425	25.43
287.64	-13.48
287.855	9.05
288.07	-36.01
288.285	80.72
288.5	99.16
288.715	97.11
288.93	74.58
289.145	23.38
289.36	56.15
289.575	-50.35
289.79	82.77
290.004	66.39
290.219	123.73
290.434	93.01
290.649	4.95
290.864	47.96
291.079	33.62
291.294	86.87
291.509	41.81
291.724	41.81
291.938	45.91
292.153	101.2
292.368	74.58
292.583	66.39
292.798	45.91
293.012	107.35
293.227	97.11
293.442	84.82
293.657	58.2
293.871	93.01
294.086	23.38
294.301	160.59
294.516	117.59
294.73	31.57
294.945	70.48
295.16	-1.19
295.374	105.3
295.589	144.21
295.804	9.05
296.018	90.96
296.233	129.88
296.447	-1.19
296.662	47.96
296.877	62.29
297.091	97.11
297.306	-60.59
297.52	17.24
297.735	107.35
297.949	50
298.164	78.68
298.378	62.29
298.593	-13.48
298.807	27.48
299.022	68.44
299.236	72.53
299.451	37.72
299.665	56.15
299.88	111.44
300.094	88.92
300.309	80.72
300.523	74.58
300.737	25.43
300.952	115.54
301.166	-3.24
301.381	23.38
301.595	2.9
301.809	54.1
302.024	39.76
302.238	-1.19
302.452	43.86
302.667	43.86
302.881	113.49
303.095	103.25
303.309	13.14
303.524	37.72
303.738	41.81
303.952	-11.43
304.166	76.63
304.381	-25.77
304.595	99.16
304.809	-52.39
305.023	76.63
305.237	80.72
305.452	-38.06
305.666	62.29
305.88	103.25
306.094	78.68
306.308	82.77
306.522	93.01
306.736	74.58
306.95	62.29
307.164	13.14
307.379	25.43
307.593	123.73
307.807	52.05
308.021	84.82
308.235	56.15
308.449	-15.53
308.663	72.53
308.877	140.12
309.091	21.33
309.305	121.68
309.519	-9.39
309.733	133.97
309.947	-95.4
310.161	148.31
310.374	117.59
310.588	68.44
310.802	68.44
311.016	58.2
311.23	125.78
311.444	-21.67
311.658	43.86
311.872	43.86
312.085	86.87
312.299	39.76
312.513	138.07
312.727	107.35
312.941	93.01
313.154	52.05
313.368	127.83
313.582	33.62
313.796	97.11
314.009	35.67
314.223	84.82
314.437	23.38
314.651	93.01
314.864	-27.82
315.078	2.9
315.292	35.67
315.505	19.29
315.719	70.48
315.933	-9.39
316.146	9.05
316.36	25.43
316.573	70.48
316.787	78.68
317.001	80.72
317.214	29.52
317.428	66.39
317.641	-9.39
317.855	2.9
318.068	27.48
318.282	88.92
318.495	152.4
318.709	84.82
318.922	21.33
319.136	93.01
319.349	56.15
319.563	70.48
319.776	-1.19
319.99	-56.49
320.203	43.86
320.417	9.05
320.63	9.05
320.843	105.3
321.057	68.44
321.27	21.33
321.483	133.97
321.697	99.16
321.91	43.86
322.124	107.35
322.337	45.91
322.55	35.67
322.763	31.57
322.977	15.19
323.19	-9.39
323.403	125.78
323.617	29.52
323.83	131.92
324.043	25.43
324.256	90.96
324.469	13.14
324.683	107.35
324.896	21.33
325.109	107.35
325.322	27.48
325.535	107.35
325.748	90.96
325.962	-38.06
326.175	131.92
326.388	66.39
326.601	78.68
326.814	62.29
327.027	84.82
327.24	170.83
327.453	-25.77
327.666	-17.58
327.879	123.73
328.092	99.16
328.305	70.48
328.518	88.92
328.731	25.43
328.944	54.1
329.157	76.63
329.37	-11.43
329.583	107.35
329.796	58.2
330.009	54.1
330.222	37.72
330.435	109.4
330.648	60.24
330.861	60.24
331.073	54.1
331.286	60.24
331.499	23.38
331.712	-36.01
331.925	70.48
332.138	29.52
332.35	93.01
332.563	9.05
332.776	164.69
332.989	27.48
333.202	43.86
333.414	101.2
333.627	-3.24
333.84	29.52
334.053	54.1
334.265	13.14
334.478	72.53
334.691	27.48
334.903	97.11
335.116	35.67
335.329	66.39
335.541	60.24
335.754	50
335.966	37.72
336.179	35.67
336.392	41.81
336.604	99.16
336.817	76.63
337.029	72.53
337.242	70.48
337.454	88.92
337.667	72.53
337.88	90.96
338.092	62.29
338.305	78.68
338.517	90.96
338.729	80.72
338.942	138.07
339.154	78.68
339.367	47.96
339.579	82.77
339.792	21.33
340.004	64.34
340.217	37.72
340.429	76.63
340.641	-29.87
340.854	-21.67
341.066	2.9
341.278	168.79
341.491	140.12
341.703	31.57
341.915	-7.34
342.128	101.2
342.34	80.72
342.552	45.91
342.764	64.34
342.977	72.53
343.189	99.16
343.401	144.21
343.613	13.14
343.826	86.87
344.038	17.24
344.25	99.16
344.462	88.92
344.674	125.78
344.886	50
345.099	97.11
345.311	58.2
345.523	97.11
345.735	25.43
345.947	15.19
346.159	90.96
346.371	50
346.583	70.48
346.795	158.55
347.007	11.09
347.219	160.59
347.431	29.52
347.643	121.68
347.855	-3.24
348.067	170.83
348.279	27.48
348.491	-31.91
348.703	82.77
348.915	47.96
349.127	13.14
349.339	-48.3
349.551	25.43
349.763	93.01
349.975	82.77
350.187	109.4
350.399	107.35
350.61	19.29
350.822	76.63
351.034	47.96
351.246	76.63
351.458	13.14
351.669	103.25
351.881	119.64
352.093	111.44
352.305	52.05
352.517	113.49
352.728	107.35
352.94	72.53
353.152	52.05
353.363	62.29
353.575	50
353.787	76.63
353.999	35.67
354.21	129.88
354.422	35.67
354.633	-44.2
354.845	17.24
355.057	37.72
355.268	121.68
355.48	66.39
355.692	-5.29
355.903	109.4
356.115	52.05
356.326	15.19
356.538	58.2
356.749	170.83
356.961	62.29
357.172	41.81
357.384	27.48
357.595	74.58
357.807	74.58
358.018	17.24
358.23	97.11
358.441	103.25
358.653	148.31
358.864	-31.91
359.075	29.52
359.287	72.53
359.498	117.59
359.709	43.86
359.921	37.72
360.132	86.87
360.344	70.48
360.555	-1.19
360.766	0.85
360.977	23.38
361.189	27.48
361.4	93.01
361.611	121.68
361.823	131.92
362.034	80.72
362.245	0.85
362.456	41.81
362.667	158.55
362.879	47.96
363.09	78.68
363.301	60.24
363.512	64.34
363.723	17.24
363.935	54.1
364.146	138.07
364.357	84.82
364.568	52.05
364.779	23.38
364.99	166.74
365.201	35.67
365.412	129.88
365.623	11.09
365.834	101.2
366.045	58.2
366.256	117.59
366.467	31.57
366.678	27.48
366.889	11.09
367.1	-3.24
367.311	111.44
367.522	19.29
367.733	109.4
367.944	82.77
368.155	88.92
368.366	88.92
368.577	80.72
368.788	37.72
368.999	35.67
369.209	76.63
369.42	176.98
369.631	115.54
369.842	47.96
370.053	62.29
370.264	60.24
370.474	52.05
370.685	9.05
370.896	90.96
371.107	150.36
371.317	154.45
371.528	103.25
371.739	101.2
371.95	19.29
372.16	101.2
372.371	37.72
372.582	54.1
372.792	164.69
373.003	84.82
373.214	97.11
373.424	119.64
373.635	37.72
373.846	95.06
374.056	99.16
374.267	58.2
374.477	78.68
374.688	23.38
374.898	19.29
375.109	84.82
375.319	7
375.53	105.3
375.74	50
375.951	17.24
376.161	113.49
376.372	109.4
376.582	56.15
376.793	52.05
377.003	78.68
377.214	68.44
377.424	62.29
377.635	82.77
377.845	15.19
378.055	99.16
378.266	41.81
378.476	47.96
378.686	58.2
378.897	101.2
379.107	131.92
379.317	54.1
379.528	66.39
379.738	82.77
379.948	70.48
380.158	160.59
380.369	105.3
380.579	64.34
380.789	9.05
380.999	54.1
381.21	109.4
381.42	136.02
381.63	95.06
381.84	45.91
382.05	13.14
382.261	62.29
382.471	123.73
382.681	56.15
382.891	142.16
383.101	74.58
383.311	-72.87
383.521	129.88
383.731	21.33
383.941	136.02
384.151	101.2
384.361	41.81
384.571	29.52
384.781	95.06
384.991	131.92
385.201	176.98
385.411	23.38
385.621	62.29
385.831	47.96
386.041	33.62
386.251	123.73
386.461	68.44
386.671	58.2
386.881	88.92
387.091	47.96
387.301	58.2
387.511	-9.39
387.72	97.11
387.93	99.16
388.14	15.19
388.35	13.14
388.56	99.16
388.769	119.64
388.979	64.34
389.189	-74.92
389.399	101.2
389.609	133.97
389.818	121.68
390.028	72.53
390.238	93.01
390.447	66.39
390.657	162.64
390.867	140.12
391.076	50
391.286	99.16
391.496	140.12
391.705	101.2
391.915	80.72
392.125	148.31
392.334	66.39
392.544	99.16
392.753	119.64
392.963	43.86
393.172	140.12
393.382	76.63
393.591	191.31
393.801	17.24
394.01	66.39
394.22	99.16
394.429	68.44
394.639	105.3
394.848	90.96
395.058	84.82
395.267	97.11
395.477	109.4
395.686	64.34
395.895	209.75
396.105	193.36
396.314	84.82
396.524	97.11
396.733	82.77
396.942	107.35
397.152	78.68
397.361	82.77
397.57	140.12
397.78	90.96
397.989	47.96
398.198	185.17
398.407	76.63
398.617	111.44
398.826	113.49
399.035	88.92
399.244	189.27
399.453	136.02
399.663	164.69
399.872	234.32
400.081	4.95
400.29	183.12
400.499	80.72
400.708	125.78
400.917	115.54
401.127	138.07
401.336	68.44
401.545	99.16
401.754	207.7
401.963	117.59
402.172	136.02
402.381	121.68
402.59	95.06
402.799	164.69
403.008	215.89
403.217	187.22
403.426	148.31
403.635	113.49
403.844	133.97
404.053	148.31
404.262	121.68
404.471	185.17
404.68	187.22
404.888	197.46
405.097	217.94
405.306	222.03
405.515	168.79
405.724	146.26
405.933	140.12
406.142	291.66
406.35	213.84
406.559	217.94
406.768	275.28
406.977	287.57
407.185	197.46
407.394	193.36
407.603	183.12
407.812	265.04
408.02	234.32
408.229	287.57
408.438	246.61
408.646	217.94
408.855	277.33
409.064	301.9
409.272	297.81
409.481	281.43
409.69	275.28
409.898	291.66
410.107	308.05
410.315	353.1
410.524	285.52
410.733	293.71
410.941	285.52
411.15	441.17
411.358	373.58
411.567	465.74
411.775	453.45
411.984	428.88
412.192	498.51
412.401	402.26
412.609	590.67
412.818	580.43
413.026	578.38
413.234	535.37
413.443	594.76
413.651	537.42
413.86	525.13
414.068	711.5
414.276	711.5
414.485	619.34
414.693	656.2
414.901	813.9
415.11	709.45
415.318	701.26
415.526	861
415.734	766.79
415.943	840.52
416.151	838.47
416.359	858.95
416.567	867.14
416.776	934.73
416.984	928.58
417.192	1092.42
417.4	1020.74
417.608	1051.46
417.817	1041.22
418.025	1184.58
418.233	1176.39
418.441	1188.68
418.649	1237.83
418.857	1389.38
419.065	1303.36
419.273	1260.35
419.481	1409.86
419.689	1364.8
419.897	1559.36
420.105	1583.93
420.313	1573.69
420.521	1639.23
420.729	1737.53
420.937	1850.17
421.145	1864.5
421.353	1891.13
421.561	2048.82
421.769	1975.1
421.977	2147.12
422.185	2161.46
422.393	2298.67
422.601	2388.78
422.809	2411.31
423.017	2267.95
423.224	2485.04
423.432	2759.47
423.64	2532.14
423.848	2722.6
424.056	2695.98
424.263	2997.03
424.471	3019.56
424.679	3089.19
424.887	3183.4
425.094	3300.13
425.302	3261.22
425.51	3343.14
425.718	3418.91
425.925	3496.74
426.133	3738.4
426.341	3805.98
426.548	3967.77
426.756	4061.98
426.964	4031.26
427.171	4229.91
427.379	4430.61
427.586	4403.99
427.794	4655.89
428.001	4834.06
428.209	5042.95
428.417	4885.26
428.624	5376.77
428.832	5339.91
429.039	5452.55
429.247	5313.28
429.454	5784.32
429.662	6243.06
429.869	5892.86
430.076	6138.62
430.284	6091.51
430.491	6267.64
430.699	6730.48
430.906	6707.95
431.114	6746.86
431.321	6957.8
431.528	7154.41
431.736	7647.97
431.943	7846.62
432.15	7531.23
432.358	7592.67
432.565	8162.01
432.772	8080.09
432.979	8547.03
433.187	8727.25
433.394	8757.97
433.601	9308.87
433.808	9482.95
434.016	9446.09
434.223	9675.46
434.43	10373.82
434.637	10216.12
434.844	10613.43
435.052	10918.57
435.259	10900.14
435.466	10977.97
435.673	10951.34
435.88	11696.8
436.087	12339.87
436.294	12276.38
436.501	11977.37
436.708	12065.44
436.915	12503.7
437.122	13146.76
437.329	13019.79
437.537	13419.14
437.743	13752.96
437.95	13595.27
438.157	14439.03
438.364	14901.87
438.571	14625.4
438.778	14783.09
438.985	16347.74
439.192	15546.98
439.399	15735.4
439.606	15704.68
439.813	16677.46
440.02	17392.2
440.227	17486.41
440.433	17211.98
440.64	17697.35
440.847	17416.78
441.054	17812.04
441.261	19280.43
441.467	18723.38
441.674	19294.77
441.881	20040.23
442.088	19937.83
442.294	19612.2
442.501	20517.4
442.708	20826.65
442.914	21387.79
443.121	22397.44
443.328	21957.13
443.534	23190
443.741	22704.63
443.948	22458.88
444.154	23968.23
444.361	24060.39
444.568	23824.87
444.774	24023.53
444.981	24166.88
445.187	24975.83
445.394	25815.5
445.6	25475.54
445.807	28043.69
446.013	26755.52
446.22	27447.73
446.426	28658.08
446.633	28785.05
446.839	29876.62
447.046	28387.75
447.252	29968.78
447.459	30232.97
447.665	29755.79
447.871	31506.8
448.078	32608.61
448.284	31017.34
448.491	31887.73
448.697	32946.53
448.903	33917.26
449.11	33556.82
449.316	32946.53
449.522	33921.36
449.728	35160.38
449.935	35000.64
450.141	35182.91
450.347	35510.58
450.553	34427.21
450.76	35033.41
450.966	36004.14
451.172	35318.07
451.378	36612.39
451.584	35860.79
451.791	36790.56
451.997	36634.92
452.203	37497.11
452.409	37320.99
452.615	36757.8
452.821	35643.7
453.027	35205.44
453.233	37239.07
453.44	36016.43
453.646	35922.23
453.852	36284.72
454.058	36813.09
454.264	35615.03
454.47	36436.27
454.676	35535.16
454.882	36559.14
455.088	33474.9
455.294	33886.54
455.5	34466.12
455.705	34552.13
455.911	33438.04
456.117	32620.9
456.323	32129.39
456.529	30587.27
456.735	32031.08
456.941	31357.3
457.147	30540.16
457.352	29434.26
457.558	29536.66
457.764	29473.17
457.97	28594.59
458.176	28232.1
458.381	28199.34
458.587	26728.89
458.793	26679.74
458.999	25354.71
459.204	27146.68
459.41	26591.68
459.616	24461.79
459.821	24685.02
460.027	24422.88
460.233	23904.74
460.438	22845.94
460.644	23042.55
460.85	21885.45
461.055	21731.85
461.261	21570.06
461.466	19995.17
461.672	19245.62
461.878	20773.4
462.083	19601.96
462.289	18909.75
462.494	18903.6
462.7	18000.45
462.905	17484.36
463.111	17988.16
463.316	18444.86
463.522	17832.52
463.727	17957.44
463.932	17549.9
464.138	17388.11
464.343	17508.94
464.549	16964.18
464.754	17848.9
464.959	17685.06
465.165	17310.29
465.37	16659.03
465.575	16241.25
465.781	16738.9
465.986	17148.5
466.191	16292.44
466.397	15897.19
466.602	15413.87
466.807	15938.15
467.012	15874.66
