Data from USB4F104151__51__12-12-18-055.txt Node

Date: Fri Mar 14 12:12:18 EDT 2025
User: louis
Spectrometer: USB4F10415
Trigger mode: 4
Integration Time (sec): 5.000000E-2
Scans to average: 1
Electric dark correction enabled: true
Nonlinearity correction enabled: false
Boxcar width: 0
XAxis mode: Wavelengths
Number of Pixels in Spectrum: 3648
>>>>>Begin Spectral Data<<<<<
178.204	-182.1
178.424	-182.1
178.644	-182.1
178.864	-241.49
179.084	-200.53
179.304	12.46
179.524	-59.22
179.744	10.41
179.964	16.55
180.184	20.65
180.404	8.36
180.624	41.13
180.844	47.27
181.064	-63.32
181.283	-18.26
181.503	-42.84
181.723	26.79
181.943	-87.89
182.163	34.99
182.383	-22.36
182.602	61.61
182.822	84.14
183.042	26.79
183.262	-67.41
183.482	28.84
183.701	18.6
183.921	-5.97
184.141	-57.17
184.361	-3.93
184.58	47.27
184.8	-40.79
185.02	-112.47
185.239	135.34
185.459	-1.88
185.679	10.41
185.898	28.84
186.118	39.08
186.338	-28.5
186.557	90.28
186.777	-51.03
186.997	2.22
187.216	-65.36
187.436	94.38
187.655	8.36
187.875	-18.26
188.095	10.41
188.314	77.99
188.534	4.27
188.753	-30.55
188.973	43.18
189.192	37.03
189.412	41.13
189.631	8.36
189.851	14.51
190.07	65.71
190.29	-79.7
190.509	22.7
190.729	-51.03
190.948	30.89
191.168	198.82
191.387	37.03
191.607	-5.97
191.826	-5.97
192.045	18.6
192.265	0.17
192.484	4.27
192.704	37.03
192.923	-14.17
193.142	151.72
193.362	37.03
193.581	10.41
193.8	18.6
194.02	67.75
194.239	4.27
194.458	47.27
194.678	28.84
194.897	-36.69
195.116	96.43
195.335	88.23
195.555	8.36
195.774	-42.84
195.993	43.18
196.212	92.33
196.432	-10.07
196.651	-24.4
196.87	49.32
197.089	110.76
197.308	14.51
197.528	61.61
197.747	-77.65
197.966	18.6
198.185	112.81
198.404	-40.79
198.623	57.51
198.842	28.84
199.062	88.23
199.281	133.29
199.5	-26.45
199.719	4.27
199.938	53.42
200.157	57.51
200.376	65.71
200.595	57.51
200.814	73.9
201.033	-59.22
201.252	39.08
201.471	-51.03
201.69	125.1
201.909	47.27
202.128	-40.79
202.347	41.13
202.566	39.08
202.785	0.17
203.004	-59.22
203.223	145.58
203.442	-3.93
203.661	-42.84
203.879	4.27
204.098	104.62
204.317	-16.21
204.536	18.6
204.755	84.14
204.974	51.37
205.193	37.03
205.411	77.99
205.63	-51.03
205.849	26.79
206.068	26.79
206.287	-53.08
206.505	-3.93
206.724	-46.93
206.943	12.46
207.162	6.31
207.381	22.7
207.599	96.43
207.818	28.84
208.037	-67.41
208.255	8.36
208.474	49.32
208.693	61.61
208.911	-18.26
209.13	94.38
209.349	73.9
209.567	69.8
209.786	86.19
210.005	28.84
210.223	-10.07
210.442	-3.93
210.661	41.13
210.879	-44.88
211.098	10.41
211.316	37.03
211.535	63.66
211.753	75.95
211.972	69.8
212.191	-20.31
212.409	10.41
212.628	32.94
212.846	-42.84
213.065	71.85
213.283	104.62
213.502	-5.97
213.72	73.9
213.938	22.7
214.157	22.7
214.375	10.41
214.594	34.99
214.812	28.84
215.031	92.33
215.249	8.36
215.467	-40.79
215.686	-5.97
215.904	108.71
216.122	10.41
216.341	65.71
216.559	127.14
216.778	69.8
216.996	59.56
217.214	-26.45
217.432	-5.97
217.651	106.67
217.869	30.89
218.087	28.84
218.306	32.94
218.524	14.51
218.742	-61.27
218.96	94.38
219.179	26.79
219.397	0.17
219.615	207.02
219.833	92.33
220.051	-34.64
220.27	53.42
220.488	59.56
220.706	26.79
220.924	10.41
221.142	39.08
221.36	65.71
221.578	-30.55
221.796	43.18
222.015	-18.26
222.233	51.37
222.451	170.15
222.669	6.31
222.887	12.46
223.105	-32.6
223.323	67.75
223.541	-1.88
223.759	18.6
223.977	-24.4
224.195	67.75
224.413	55.47
224.631	4.27
224.849	-26.45
225.067	77.99
225.285	-16.21
225.503	4.27
225.721	2.22
225.939	75.95
226.157	-48.98
226.375	127.14
226.592	-59.22
226.81	30.89
227.028	49.32
227.246	82.09
227.464	63.66
227.682	63.66
227.9	18.6
228.117	39.08
228.335	49.32
228.553	-16.21
228.771	-20.31
228.989	26.79
229.206	49.32
229.424	18.6
229.642	-89.94
229.86	-65.36
230.077	77.99
230.295	-22.36
230.513	57.51
230.731	106.67
230.948	37.03
231.166	67.75
231.384	37.03
231.601	-77.65
231.819	20.65
232.037	-24.4
232.254	-36.69
232.472	32.94
232.689	10.41
232.907	108.71
233.125	16.55
233.342	32.94
233.56	30.89
233.777	47.27
233.995	30.89
234.213	75.95
234.43	14.51
234.648	-3.93
234.865	14.51
235.083	47.27
235.3	-24.4
235.518	4.27
235.735	182.44
235.953	98.47
236.17	-36.69
236.388	-12.12
236.605	43.18
236.822	45.23
237.04	82.09
237.257	49.32
237.475	-26.45
237.692	69.8
237.909	80.04
238.127	6.31
238.344	12.46
238.562	47.27
238.779	-42.84
238.996	-18.26
239.214	-22.36
239.431	45.23
239.648	22.7
239.865	34.99
240.083	37.03
240.3	22.7
240.517	16.55
240.735	-28.5
240.952	69.8
241.169	123.05
241.386	59.56
241.603	2.22
241.821	-28.5
242.038	-5.97
242.255	18.6
242.472	14.51
242.689	28.84
242.907	34.99
243.124	-22.36
243.341	67.75
243.558	45.23
243.775	-20.31
243.992	-34.64
244.209	8.36
244.426	159.91
244.643	37.03
244.86	-8.02
245.078	37.03
245.295	41.13
245.512	-24.4
245.729	8.36
245.946	94.38
246.163	30.89
246.38	49.32
246.597	10.41
246.814	34.99
247.031	61.61
247.248	57.51
247.464	53.42
247.681	-61.27
247.898	92.33
248.115	2.22
248.332	-1.88
248.549	28.84
248.766	106.67
248.983	-14.17
249.2	63.66
249.417	-20.31
249.633	-44.88
249.85	106.67
250.067	8.36
250.284	51.37
250.501	4.27
250.717	84.14
250.934	-63.32
251.151	24.75
251.368	10.41
251.585	75.95
251.801	-24.4
252.018	-94.04
252.235	47.27
252.451	2.22
252.668	-16.21
252.885	28.84
253.102	43.18
253.318	75.95
253.535	26.79
253.752	-28.5
253.968	-16.21
254.185	-30.55
254.401	22.7
254.618	75.95
254.835	-26.45
255.051	59.56
255.268	47.27
255.484	22.7
255.701	-10.07
255.917	43.18
256.134	-14.17
256.351	32.94
256.567	-12.12
256.784	37.03
257	-69.46
257.217	84.14
257.433	65.71
257.65	51.37
257.866	59.56
258.082	-14.17
258.299	47.27
258.515	10.41
258.732	53.42
258.948	75.95
259.165	2.22
259.381	51.37
259.597	-3.93
259.814	51.37
260.03	4.27
260.246	34.99
260.463	-8.02
260.679	80.04
260.895	-10.07
261.112	16.55
261.328	67.75
261.544	-22.36
261.761	84.14
261.977	10.41
262.193	-57.17
262.409	24.75
262.626	-14.17
262.842	30.89
263.058	-118.61
263.274	-36.69
263.49	65.71
263.707	114.86
263.923	108.71
264.139	-61.27
264.355	51.37
264.571	59.56
264.787	65.71
265.004	47.27
265.22	2.22
265.436	129.19
265.652	32.94
265.868	51.37
266.084	12.46
266.3	-3.93
266.516	-55.12
266.732	73.9
266.948	-18.26
267.164	14.51
267.38	-5.97
267.596	59.56
267.812	90.28
268.028	28.84
268.244	47.27
268.46	-38.74
268.676	-38.74
268.892	61.61
269.108	-22.36
269.324	-5.97
269.54	16.55
269.756	65.71
269.972	-30.55
270.188	32.94
270.403	-34.64
270.619	-44.88
270.835	63.66
271.051	16.55
271.267	2.22
271.483	-16.21
271.698	32.94
271.914	96.43
272.13	28.84
272.346	32.94
272.562	8.36
272.777	39.08
272.993	-10.07
273.209	-18.26
273.425	82.09
273.64	6.31
273.856	32.94
274.072	-22.36
274.287	12.46
274.503	43.18
274.719	10.41
274.934	10.41
275.15	-77.65
275.366	47.27
275.581	-48.98
275.797	-67.41
276.012	30.89
276.228	-30.55
276.444	4.27
276.659	137.38
276.875	-38.74
277.09	-8.02
277.306	47.27
277.521	34.99
277.737	67.75
277.952	88.23
278.168	-8.02
278.383	16.55
278.599	47.27
278.814	47.27
279.03	51.37
279.245	102.57
279.461	-8.02
279.676	69.8
279.892	28.84
280.107	-46.93
280.322	-55.12
280.538	24.75
280.753	12.46
280.969	-1.88
281.184	26.79
281.399	112.81
281.615	-30.55
281.83	102.57
282.045	-81.75
282.26	4.27
282.476	14.51
282.691	-30.55
282.906	69.8
283.122	34.99
283.337	-10.07
283.552	61.61
283.767	-12.12
283.983	28.84
284.198	55.47
284.413	-30.55
284.628	-28.5
284.843	94.38
285.058	37.03
285.274	51.37
285.489	-61.27
285.704	123.05
285.919	55.47
286.134	-12.12
286.349	6.31
286.564	-34.64
286.779	94.38
286.995	30.89
287.21	-69.46
287.425	-59.22
287.64	12.46
287.855	86.19
288.07	-32.6
288.285	57.51
288.5	61.61
288.715	41.13
288.93	0.17
289.145	-79.7
289.36	45.23
289.575	-1.88
289.79	61.61
290.004	34.99
290.219	2.22
290.434	-1.88
290.649	0.17
290.864	0.17
291.079	-57.17
291.294	59.56
291.509	-10.07
291.724	-71.51
291.938	8.36
292.153	39.08
292.368	88.23
292.583	8.36
292.798	75.95
293.012	-20.31
293.227	-10.07
293.442	49.32
293.657	51.37
293.871	114.86
294.086	4.27
294.301	204.97
294.516	51.37
294.73	77.99
294.945	-36.69
295.16	4.27
295.374	24.75
295.589	61.61
295.804	26.79
296.018	-14.17
296.233	37.03
296.447	57.51
296.662	51.37
296.877	-12.12
297.091	26.79
297.306	63.66
297.52	-34.64
297.735	-48.98
297.949	51.37
298.164	59.56
298.378	-22.36
298.593	-30.55
298.807	8.36
299.022	16.55
299.236	98.47
299.451	20.65
299.665	-53.08
299.88	57.51
300.094	45.23
300.309	-18.26
300.523	69.8
300.737	-22.36
300.952	18.6
301.166	41.13
301.381	-75.6
301.595	47.27
301.809	24.75
302.024	-18.26
302.238	20.65
302.452	51.37
302.667	-5.97
302.881	24.75
303.095	-22.36
303.309	55.47
303.524	-10.07
303.738	0.17
303.952	12.46
304.166	49.32
304.381	-38.74
304.595	28.84
304.809	-59.22
305.023	80.04
305.237	-22.36
305.452	-22.36
305.666	6.31
305.88	59.56
306.094	-55.12
306.308	18.6
306.522	26.79
306.736	10.41
306.95	75.95
307.164	22.7
307.379	20.65
307.593	53.42
307.807	94.38
308.021	75.95
308.235	-24.4
308.449	-22.36
308.663	-20.31
308.877	30.89
309.091	39.08
309.305	65.71
309.519	22.7
309.733	88.23
309.947	16.55
310.161	53.42
310.374	-20.31
310.588	53.42
310.802	-26.45
311.016	8.36
311.23	47.27
311.444	-55.12
311.658	84.14
311.872	59.56
312.085	110.76
312.299	32.94
312.513	51.37
312.727	37.03
312.941	-34.64
313.154	84.14
313.368	-22.36
313.582	41.13
313.796	30.89
314.009	82.09
314.223	47.27
314.437	84.14
314.651	45.23
314.864	-22.36
315.078	32.94
315.292	4.27
315.505	65.71
315.719	30.89
315.933	34.99
316.146	55.47
316.36	51.37
316.573	34.99
316.787	-30.55
317.001	-14.17
317.214	-34.64
317.428	59.56
317.641	-53.08
317.855	12.46
318.068	2.22
318.282	80.04
318.495	22.7
318.709	43.18
318.922	14.51
319.136	30.89
319.349	98.47
319.563	8.36
319.776	63.66
319.99	-14.17
320.203	12.46
320.417	6.31
320.63	71.85
320.843	75.95
321.057	32.94
321.27	-5.97
321.483	30.89
321.697	61.61
321.91	94.38
322.124	69.8
322.337	12.46
322.55	18.6
322.763	-10.07
322.977	8.36
323.19	-79.7
323.403	96.43
323.617	110.76
323.83	75.95
324.043	30.89
324.256	4.27
324.469	-36.69
324.683	34.99
324.896	-32.6
325.109	26.79
325.322	-20.31
325.535	32.94
325.748	88.23
325.962	-12.12
326.175	86.19
326.388	63.66
326.601	47.27
326.814	2.22
327.027	59.56
327.24	59.56
327.453	-116.56
327.666	63.66
327.879	112.81
328.092	37.03
328.305	47.27
328.518	-5.97
328.731	-10.07
328.944	73.9
329.157	71.85
329.37	45.23
329.583	116.9
329.796	57.51
330.009	-77.65
330.222	8.36
330.435	20.65
330.648	18.6
330.861	-8.02
331.073	53.42
331.286	41.13
331.499	10.41
331.712	-67.41
331.925	4.27
332.138	-5.97
332.35	16.55
332.563	30.89
332.776	53.42
332.989	14.51
333.202	-24.4
333.414	57.51
333.627	69.8
333.84	-24.4
334.053	43.18
334.265	-42.84
334.478	-28.5
334.691	-40.79
334.903	41.13
335.116	45.23
335.329	-32.6
335.541	114.86
335.754	106.67
335.966	-24.4
336.179	-5.97
336.392	-10.07
336.604	28.84
336.817	174.25
337.029	12.46
337.242	53.42
337.454	18.6
337.667	49.32
337.88	110.76
338.092	-1.88
338.305	104.62
338.517	16.55
338.729	0.17
338.942	88.23
339.154	55.47
339.367	-63.32
339.579	-36.69
339.792	28.84
340.004	90.28
340.217	57.51
340.429	8.36
340.641	-55.12
340.854	26.79
341.066	14.51
341.278	43.18
341.491	100.52
341.703	-34.64
341.915	2.22
342.128	67.75
342.34	-3.93
342.552	57.51
342.764	18.6
342.977	-8.02
343.189	41.13
343.401	94.38
343.613	32.94
343.826	-1.88
344.038	51.37
344.25	-63.32
344.462	0.17
344.674	57.51
344.886	2.22
345.099	118.95
345.311	47.27
345.523	43.18
345.735	22.7
345.947	6.31
346.159	112.81
346.371	102.57
346.583	-44.88
346.795	88.23
347.007	-36.69
347.219	16.55
347.431	102.57
347.643	47.27
347.855	26.79
348.067	67.75
348.279	14.51
348.491	6.31
348.703	41.13
348.915	-38.74
349.127	-14.17
349.339	123.05
349.551	-40.79
349.763	24.75
349.975	69.8
350.187	100.52
350.399	16.55
350.61	26.79
350.822	47.27
351.034	59.56
351.246	-24.4
351.458	34.99
351.669	-12.12
351.881	92.33
352.093	59.56
352.305	34.99
352.517	26.79
352.728	-10.07
352.94	16.55
353.152	57.51
353.363	-59.22
353.575	75.95
353.787	94.38
353.999	30.89
354.21	139.43
354.422	102.57
354.633	0.17
354.845	24.75
355.057	2.22
355.268	84.14
355.48	59.56
355.692	18.6
355.903	51.37
356.115	41.13
356.326	8.36
356.538	121
356.749	28.84
356.961	75.95
357.172	75.95
357.384	-34.64
357.595	143.53
357.807	24.75
358.018	-5.97
358.23	-26.45
358.441	176.3
358.653	51.37
358.864	14.51
359.075	16.55
359.287	86.19
359.498	147.62
359.709	24.75
359.921	67.75
360.132	-10.07
360.344	-10.07
360.555	-14.17
360.766	32.94
360.977	12.46
361.189	96.43
361.4	49.32
361.611	92.33
361.823	106.67
362.034	-16.21
362.245	-24.4
362.456	2.22
362.667	73.9
362.879	-16.21
363.09	18.6
363.301	39.08
363.512	37.03
363.723	26.79
363.935	16.55
364.146	77.99
364.357	8.36
364.568	69.8
364.779	-40.79
364.99	118.95
365.201	8.36
365.412	-16.21
365.623	26.79
365.834	57.51
366.045	55.47
366.256	65.71
366.467	94.38
366.678	-1.88
366.889	55.47
367.1	22.7
367.311	94.38
367.522	47.27
367.733	39.08
367.944	-16.21
368.155	59.56
368.366	59.56
368.577	32.94
368.788	100.52
368.999	26.79
369.209	32.94
369.42	188.58
369.631	131.24
369.842	71.85
370.053	-55.12
370.264	71.85
370.474	-18.26
370.685	24.75
370.896	24.75
371.107	77.99
371.317	82.09
371.528	86.19
371.739	63.66
371.95	155.82
372.16	57.51
372.371	32.94
372.582	43.18
372.792	28.84
373.003	49.32
373.214	-59.22
373.424	63.66
373.635	45.23
373.846	24.75
374.056	26.79
374.267	8.36
374.477	88.23
374.688	28.84
374.898	39.08
375.109	18.6
375.319	32.94
375.53	67.75
375.74	28.84
375.951	22.7
376.161	20.65
376.372	100.52
376.582	-44.88
376.793	32.94
377.003	43.18
377.214	4.27
377.424	92.33
377.635	82.09
377.845	-5.97
378.055	108.71
378.266	-51.03
378.476	30.89
378.686	34.99
378.897	41.13
379.107	39.08
379.317	20.65
379.528	2.22
379.738	102.57
379.948	-10.07
380.158	47.27
380.369	28.84
380.579	88.23
380.789	41.13
380.999	92.33
381.21	37.03
381.42	213.16
381.63	61.61
381.84	34.99
382.05	55.47
382.261	110.76
382.471	75.95
382.681	0.17
382.891	108.71
383.101	4.27
383.311	-20.31
383.521	-14.17
383.731	47.27
383.941	155.82
384.151	-22.36
384.361	-57.17
384.571	32.94
384.781	39.08
384.991	104.62
385.201	129.19
385.411	90.28
385.621	14.51
385.831	61.61
386.041	71.85
386.251	22.7
386.461	92.33
386.671	157.86
386.881	32.94
387.091	4.27
387.301	90.28
387.511	-40.79
387.72	43.18
387.93	73.9
388.14	-12.12
388.35	100.52
388.56	-3.93
388.769	75.95
388.979	8.36
389.189	-38.74
389.399	-22.36
389.609	12.46
389.818	75.95
390.028	129.19
390.238	84.14
390.447	53.42
390.657	125.1
390.867	-8.02
391.076	-22.36
391.286	57.51
391.496	41.13
391.705	55.47
391.915	114.86
392.125	63.66
392.334	94.38
392.544	71.85
392.753	96.43
392.963	28.84
393.172	12.46
393.382	12.46
393.591	127.14
393.801	45.23
394.01	168.1
394.22	34.99
394.429	18.6
394.639	49.32
394.848	67.75
395.058	112.81
395.267	123.05
395.477	141.48
395.686	73.9
395.895	118.95
396.105	180.39
396.314	57.51
396.524	80.04
396.733	82.09
396.942	129.19
397.152	151.72
397.361	65.71
397.57	116.9
397.78	57.51
397.989	65.71
398.198	178.34
398.407	20.65
398.617	67.75
398.826	67.75
399.035	32.94
399.244	16.55
399.453	123.05
399.663	153.77
399.872	131.24
400.081	28.84
400.29	190.63
400.499	71.85
400.708	96.43
400.917	69.8
401.127	73.9
401.336	43.18
401.545	129.19
401.754	80.04
401.963	110.76
402.172	80.04
402.381	82.09
402.59	112.81
402.799	24.75
403.008	143.53
403.217	102.57
403.426	108.71
403.635	45.23
403.844	84.14
404.053	139.43
404.262	157.86
404.471	168.1
404.68	153.77
404.888	43.18
405.097	147.62
405.306	159.91
405.515	202.92
405.724	104.62
405.933	178.34
406.142	147.62
406.35	155.82
406.559	221.35
406.768	198.82
406.977	254.12
407.185	233.64
407.394	225.45
407.603	102.57
407.812	166.06
408.02	182.44
408.229	219.3
408.438	235.69
408.646	207.02
408.855	264.36
409.064	350.37
409.272	252.07
409.481	368.81
409.69	288.93
409.898	266.41
410.107	247.97
410.315	342.18
410.524	278.69
410.733	333.99
410.941	348.33
411.15	325.8
411.358	436.39
411.567	436.39
411.775	346.28
411.984	385.19
412.192	479.4
412.401	417.96
412.609	618.66
412.818	589.99
413.026	637.09
413.234	546.98
413.443	528.55
413.651	536.74
413.86	549.03
414.068	690.34
414.276	719.01
414.485	579.75
414.693	831.65
414.901	776.35
415.11	774.3
415.318	786.59
415.526	735.39
415.734	759.97
415.943	835.74
416.151	925.85
416.359	829.6
416.567	944.28
416.776	1048.73
416.984	964.76
417.192	1046.68
417.4	989.34
417.608	1001.63
417.817	1007.77
418.025	1187.99
418.233	1335.45
418.441	1120.41
418.649	1337.49
418.857	1433.75
419.065	1501.33
419.273	1327.25
419.481	1446.04
419.689	1532.05
419.897	1534.1
420.105	1644.69
420.313	1667.22
420.521	1796.24
420.729	1820.81
420.937	1826.96
421.145	1927.31
421.353	1941.65
421.561	2085
421.769	2058.38
421.977	2216.07
422.185	2171.02
422.393	2384.01
422.601	2529.41
422.809	2390.15
423.017	2400.39
423.224	2533.51
423.432	2685.06
423.64	2752.64
423.848	2979.97
424.056	2799.74
424.263	3115.13
424.471	2924.67
424.679	3293.3
424.887	3297.4
425.094	3461.24
425.302	3373.18
425.51	3549.3
425.718	3541.11
425.925	3629.17
426.133	3915.89
426.341	4042.86
426.548	4182.12
426.756	4249.71
426.964	4309.1
427.171	4677.73
427.379	4720.74
427.586	4683.88
427.794	5003.36
428.001	4989.02
428.209	5390.42
428.417	5159
428.624	5752.91
428.832	5513.3
429.039	5501.01
429.247	5453.91
429.454	6125.65
429.662	6455.37
429.869	6041.68
430.076	6420.55
430.284	6355.02
430.491	6758.47
430.699	6948.93
430.906	6987.84
431.114	7116.86
431.321	7200.83
431.528	7434.3
431.736	7882.8
431.943	8216.62
432.15	7966.77
432.358	8226.86
432.565	8630.31
432.772	8556.58
432.979	8990.75
433.187	9035.81
433.394	9183.26
433.601	9795.61
433.808	9877.52
434.016	9902.1
434.223	10033.17
434.43	10743.81
434.637	10717.19
434.844	11315.2
435.052	11427.84
435.259	11550.71
435.466	11753.46
435.673	11524.09
435.88	12179.44
436.087	12748.78
436.294	12847.08
436.501	12560.36
436.708	12820.46
436.915	13309.92
437.122	13574.11
437.329	13387.74
437.537	14268.37
437.743	14399.44
437.95	14045.14
438.157	14938.05
438.364	15538.11
438.571	15376.32
438.778	15548.35
438.985	17072.04
439.192	16322.48
439.399	17065.89
439.606	16424.88
439.813	17266.6
440.02	18300.82
440.227	17950.62
440.433	17721.24
440.64	18536.34
440.847	18272.15
441.054	18704.27
441.261	20019.07
441.467	19810.17
441.674	20141.94
441.881	20694.89
442.088	20840.3
442.294	20483.95
442.501	21043.05
442.708	21874.52
442.914	22505.3
443.121	23308.1
443.328	22914.89
443.534	24289.08
443.741	23695.17
443.948	23179.08
444.154	24989.49
444.361	24616.76
444.568	24899.37
444.774	24921.9
444.981	25454.37
445.187	26033.95
445.394	27227.92
445.6	26842.9
445.807	29484.78
446.013	27971.33
446.22	28403.45
446.426	29712.1
446.633	30039.78
446.839	30602.97
447.046	29347.56
447.252	31389.39
447.459	31319.76
447.665	30987.99
447.871	32616.12
448.078	33820.33
448.284	32132.8
448.491	33164.98
448.697	34219.68
448.903	35335.82
449.11	34991.76
449.316	34401.95
449.522	35104.4
449.728	36167.3
449.935	36437.63
450.141	36066.95
450.347	37066.36
450.553	35702.41
450.76	36206.21
450.966	37658.22
451.172	37305.97
451.378	38305.38
451.584	37013.11
451.791	38055.53
451.997	38090.34
452.203	38594.14
452.409	38573.66
452.615	38393.44
452.821	36982.39
453.027	36587.13
453.233	38678.11
453.44	36836.98
453.646	37267.06
453.852	37580.4
454.058	38266.47
454.264	36990.58
454.47	37584.49
454.676	36853.37
454.882	38344.29
455.088	34897.56
455.294	35208.85
455.5	35614.35
455.705	35880.58
455.911	34582.17
456.117	34139.81
456.323	33275.57
456.529	32022.21
456.735	33103.54
456.941	32251.58
457.147	31633.1
457.352	30559.96
457.558	30254.81
457.764	30314.2
457.97	29900.51
458.176	29312.75
458.381	29142.77
458.587	27647.75
458.793	27913.98
458.999	26019.61
459.204	28016.38
459.41	27328.27
459.616	25446.18
459.821	25245.48
460.027	25081.64
460.233	24616.76
460.438	23445.32
460.644	23889.73
460.85	22660.94
461.055	22191.96
461.261	22126.43
461.466	20678.51
461.672	19912.57
461.878	21032.81
462.083	20115.32
462.289	19324.8
462.494	19322.76
462.7	18732.94
462.905	17862.55
463.111	18542.48
463.316	18763.66
463.522	18147.22
463.727	18380.69
463.932	18218.9
464.138	17964.95
464.343	18112.41
464.549	17649.57
464.754	18147.22
464.959	17934.23
465.165	17944.47
465.37	16900.01
465.575	16629.68
465.781	17334.18
465.986	17285.03
466.191	16922.54
