Data from USB4F104151__73__12-12-40-552.txt Node

Date: Fri Mar 14 12:12:40 EDT 2025
User: louis
Spectrometer: USB4F10415
Trigger mode: 4
Integration Time (sec): 5.000000E-2
Scans to average: 1
Electric dark correction enabled: true
Nonlinearity correction enabled: false
Boxcar width: 0
XAxis mode: Wavelengths
Number of Pixels in Spectrum: 3648
>>>>>Begin Spectral Data<<<<<
178.204	-212.48
178.424	-212.48
178.644	-212.48
178.864	-183.81
179.084	-167.42
179.304	-11.78
179.524	45.57
179.744	12.8
179.964	18.94
180.184	-15.87
180.404	-22.02
180.624	14.85
180.844	-28.16
181.064	-34.3
181.283	37.38
181.503	-36.35
181.723	18.94
181.943	-108.03
182.163	115.2
182.383	-32.26
182.602	49.66
182.822	96.77
183.042	131.58
183.262	-79.36
183.482	10.75
183.701	39.42
183.921	-34.3
184.141	25.09
184.361	78.33
184.58	18.94
184.8	6.66
185.02	49.66
185.239	102.91
185.459	109.05
185.679	109.05
185.898	-40.45
186.118	88.57
186.338	51.71
186.557	43.52
186.777	-5.63
186.997	0.51
187.216	35.33
187.436	131.58
187.655	64
187.875	117.25
188.095	-15.87
188.314	45.57
188.534	113.15
188.753	27.14
188.973	49.66
189.192	113.15
189.412	47.62
189.631	90.62
189.851	31.23
190.07	115.2
190.29	-13.82
190.509	-1.54
190.729	66.05
190.948	35.33
191.168	162.3
191.387	129.53
191.607	29.18
191.826	-17.92
192.045	6.66
192.265	55.81
192.484	86.53
192.704	37.38
192.923	6.66
193.142	143.87
193.362	31.23
193.581	129.53
193.8	55.81
194.02	78.33
194.239	18.94
194.458	6.66
194.678	98.81
194.897	-24.06
195.116	31.23
195.335	35.33
195.555	49.66
195.774	33.28
195.993	84.48
196.212	14.85
196.432	-38.4
196.651	23.04
196.87	31.23
197.089	133.63
197.308	47.62
197.528	33.28
197.747	-38.4
197.966	51.71
198.185	205.31
198.404	43.52
198.623	59.9
198.842	-15.87
199.062	37.38
199.281	139.77
199.5	2.56
199.719	64
199.938	72.19
200.157	59.9
200.376	43.52
200.595	70.14
200.814	10.75
201.033	23.04
201.252	84.48
201.471	2.56
201.69	80.38
201.909	55.81
202.128	37.38
202.347	59.9
202.566	37.38
202.785	104.96
203.004	-11.78
203.223	164.35
203.442	51.71
203.661	-19.97
203.879	76.29
204.098	57.86
204.317	16.9
204.536	59.9
204.755	45.57
204.974	111.1
205.193	64
205.411	168.45
205.63	123.39
205.849	-15.87
206.068	-1.54
206.287	4.61
206.505	53.76
206.724	59.9
206.943	10.75
207.162	-15.87
207.381	49.66
207.599	47.62
207.818	64
208.037	-38.4
208.255	4.61
208.474	72.19
208.693	-11.78
208.911	53.76
209.13	35.33
209.349	78.33
209.567	125.44
209.786	16.9
210.005	51.71
210.223	-38.4
210.442	12.8
210.661	115.2
210.879	-15.87
211.098	64
211.316	61.95
211.535	29.18
211.753	16.9
211.972	12.8
212.191	55.81
212.409	20.99
212.628	20.99
212.846	-28.16
213.065	100.86
213.283	18.94
213.502	-83.45
213.72	90.62
213.938	88.57
214.157	-3.58
214.375	109.05
214.594	-17.92
214.812	47.62
215.031	25.09
215.249	47.62
215.467	59.9
215.686	8.7
215.904	68.09
216.122	10.75
216.341	111.1
216.559	66.05
216.778	68.09
216.996	14.85
217.214	41.47
217.432	53.76
217.651	-5.63
217.869	92.67
218.087	4.61
218.306	20.99
218.524	51.71
218.742	-1.54
218.96	184.83
219.179	29.18
219.397	74.24
219.615	143.87
219.833	127.49
220.051	23.04
220.27	57.86
220.488	72.19
220.706	68.09
220.924	37.38
221.142	51.71
221.36	45.57
221.578	33.28
221.796	10.75
222.015	23.04
222.233	74.24
222.451	127.49
222.669	2.56
222.887	-3.58
223.105	4.61
223.323	49.66
223.541	-52.74
223.759	119.29
223.977	41.47
224.195	51.71
224.413	29.18
224.631	55.81
224.849	66.05
225.067	104.96
225.285	66.05
225.503	-19.97
225.721	-17.92
225.939	18.94
226.157	80.38
226.375	156.16
226.592	-52.74
226.81	18.94
227.028	104.96
227.246	111.1
227.464	-65.02
227.682	113.15
227.9	59.9
228.117	59.9
228.335	135.68
228.553	35.33
228.771	70.14
228.989	59.9
229.206	-24.06
229.424	10.75
229.642	-17.92
229.86	-62.98
230.077	152.06
230.295	0.51
230.513	66.05
230.731	82.43
230.948	76.29
231.166	47.62
231.384	41.47
231.601	-44.54
231.819	125.44
232.037	4.61
232.254	31.23
232.472	16.9
232.689	-7.68
232.907	80.38
233.125	23.04
233.342	0.51
233.56	68.09
233.777	-17.92
233.995	41.47
234.213	64
234.43	6.66
234.648	16.9
234.865	51.71
235.083	18.94
235.3	37.38
235.518	82.43
235.735	111.1
235.953	23.04
236.17	16.9
236.388	-11.78
236.605	-15.87
236.822	72.19
237.04	66.05
237.257	59.9
237.475	-40.45
237.692	10.75
237.909	49.66
238.127	20.99
238.344	35.33
238.562	39.42
238.779	61.95
238.996	-9.73
239.214	8.7
239.431	100.86
239.648	41.47
239.865	100.86
240.083	88.57
240.3	61.95
240.517	39.42
240.735	37.38
240.952	49.66
241.169	57.86
241.386	43.52
241.603	43.52
241.821	-19.97
242.038	90.62
242.255	16.9
242.472	68.09
242.689	14.85
242.907	0.51
243.124	4.61
243.341	-15.87
243.558	25.09
243.775	-44.54
243.992	-73.21
244.209	55.81
244.426	59.9
244.643	123.39
244.86	10.75
245.078	100.86
245.295	59.9
245.512	82.43
245.729	-9.73
245.946	82.43
246.163	98.81
246.38	39.42
246.597	25.09
246.814	113.15
247.031	70.14
247.248	96.77
247.464	53.76
247.681	-44.54
247.898	33.28
248.115	37.38
248.332	59.9
248.549	43.52
248.766	133.63
248.983	41.47
249.2	35.33
249.417	20.99
249.633	64
249.85	80.38
250.067	-7.68
250.284	90.62
250.501	90.62
250.717	158.21
250.934	-5.63
251.151	66.05
251.368	27.14
251.585	70.14
251.801	45.57
252.018	16.9
252.235	96.77
252.451	51.71
252.668	70.14
252.885	117.25
253.102	37.38
253.318	37.38
253.535	78.33
253.752	-3.58
253.968	33.28
254.185	-11.78
254.401	125.44
254.618	31.23
254.835	-83.45
255.051	61.95
255.268	10.75
255.484	98.81
255.701	37.38
255.917	107.01
256.134	-40.45
256.351	14.85
256.567	0.51
256.784	6.66
257	-71.17
257.217	33.28
257.433	76.29
257.65	70.14
257.866	47.62
258.082	20.99
258.299	-40.45
258.515	61.95
258.732	-52.74
258.948	-91.65
259.165	45.57
259.381	18.94
259.597	78.33
259.814	100.86
260.03	-17.92
260.246	94.72
260.463	88.57
260.679	98.81
260.895	41.47
261.112	107.01
261.328	29.18
261.544	-38.4
261.761	131.58
261.977	45.57
262.193	-3.58
262.409	45.57
262.626	76.29
262.842	139.77
263.058	20.99
263.274	133.63
263.49	35.33
263.707	88.57
263.923	25.09
264.139	-5.63
264.355	-54.78
264.571	39.42
264.787	20.99
265.004	61.95
265.22	133.63
265.436	72.19
265.652	39.42
265.868	14.85
266.084	39.42
266.3	98.81
266.516	0.51
266.732	137.73
266.948	53.76
267.164	66.05
267.38	76.29
267.596	-7.68
267.812	78.33
268.028	51.71
268.244	84.48
268.46	47.62
268.676	35.33
268.892	2.56
269.108	0.51
269.324	-46.59
269.54	-7.68
269.756	86.53
269.972	33.28
270.188	16.9
270.403	23.04
270.619	47.62
270.835	45.57
271.051	-40.45
271.267	35.33
271.483	-26.11
271.698	68.09
271.914	127.49
272.13	41.47
272.346	8.7
272.562	-30.21
272.777	96.77
272.993	86.53
273.209	59.9
273.425	18.94
273.64	8.7
273.856	6.66
274.072	4.61
274.287	-60.93
274.503	12.8
274.719	68.09
274.934	-7.68
275.15	-28.16
275.366	-7.68
275.581	27.14
275.797	70.14
276.012	49.66
276.228	23.04
276.444	102.91
276.659	98.81
276.875	-17.92
277.09	-32.26
277.306	-11.78
277.521	90.62
277.737	-34.3
277.952	59.9
278.168	-32.26
278.383	14.85
278.599	37.38
278.814	121.34
279.03	-11.78
279.245	113.15
279.461	51.71
279.676	55.81
279.892	-7.68
280.107	-11.78
280.322	6.66
280.538	61.95
280.753	31.23
280.969	31.23
281.184	-13.82
281.399	90.62
281.615	43.52
281.83	-1.54
282.045	-56.83
282.26	-30.21
282.476	57.86
282.691	49.66
282.906	74.24
283.122	10.75
283.337	0.51
283.552	18.94
283.767	57.86
283.983	41.47
284.198	92.67
284.413	66.05
284.628	-17.92
284.843	64
285.058	57.86
285.274	18.94
285.489	-56.83
285.704	41.47
285.919	76.29
286.134	-1.54
286.349	-24.06
286.564	-17.92
286.779	12.8
286.995	-3.58
287.21	-11.78
287.425	35.33
287.64	18.94
287.855	70.14
288.07	27.14
288.285	55.81
288.5	27.14
288.715	68.09
288.93	61.95
289.145	10.75
289.36	-1.54
289.575	51.71
289.79	104.96
290.004	72.19
290.219	47.62
290.434	-22.02
290.649	-44.54
290.864	72.19
291.079	49.66
291.294	61.95
291.509	133.63
291.724	31.23
291.938	47.62
292.153	68.09
292.368	23.04
292.583	-9.73
292.798	98.81
293.012	6.66
293.227	47.62
293.442	-24.06
293.657	102.91
293.871	98.81
294.086	18.94
294.301	129.53
294.516	20.99
294.73	14.85
294.945	-28.16
295.16	31.23
295.374	121.34
295.589	113.15
295.804	20.99
296.018	35.33
296.233	76.29
296.447	61.95
296.662	-1.54
296.877	59.9
297.091	64
297.306	41.47
297.52	31.23
297.735	57.86
297.949	-1.54
298.164	-24.06
298.378	-30.21
298.593	20.99
298.807	-3.58
299.022	16.9
299.236	78.33
299.451	64
299.665	31.23
299.88	27.14
300.094	47.62
300.309	10.75
300.523	14.85
300.737	51.71
300.952	53.76
301.166	-26.11
301.381	-11.78
301.595	2.56
301.809	10.75
302.024	29.18
302.238	31.23
302.452	61.95
302.667	-42.5
302.881	111.1
303.095	53.76
303.309	18.94
303.524	25.09
303.738	-73.21
303.952	12.8
304.166	31.23
304.381	-36.35
304.595	92.67
304.809	107.01
305.023	133.63
305.237	-30.21
305.452	4.61
305.666	90.62
305.88	37.38
306.094	57.86
306.308	23.04
306.522	-5.63
306.736	10.75
306.95	45.57
307.164	84.48
307.379	-24.06
307.593	156.16
307.807	72.19
308.021	57.86
308.235	49.66
308.449	-46.59
308.663	12.8
308.877	137.73
309.091	55.81
309.305	66.05
309.519	23.04
309.733	37.38
309.947	-3.58
310.161	51.71
310.374	111.1
310.588	92.67
310.802	-19.97
311.016	80.38
311.23	39.42
311.444	-50.69
311.658	53.76
311.872	86.53
312.085	12.8
312.299	72.19
312.513	115.2
312.727	55.81
312.941	37.38
313.154	33.28
313.368	35.33
313.582	61.95
313.796	66.05
314.009	2.56
314.223	-11.78
314.437	107.01
314.651	37.38
314.864	51.71
315.078	74.24
315.292	-101.89
315.505	107.01
315.719	31.23
315.933	80.38
316.146	45.57
316.36	31.23
316.573	76.29
316.787	47.62
317.001	88.57
317.214	-11.78
317.428	41.47
317.641	-26.11
317.855	2.56
318.068	68.09
318.282	39.42
318.495	66.05
318.709	86.53
318.922	57.86
319.136	41.47
319.349	61.95
319.563	-24.06
319.776	68.09
319.99	-99.84
320.203	90.62
320.417	33.28
320.63	115.2
320.843	156.16
321.057	109.05
321.27	-9.73
321.483	27.14
321.697	92.67
321.91	94.72
322.124	64
322.337	33.28
322.55	-46.59
322.763	53.76
322.977	49.66
323.19	33.28
323.403	61.95
323.617	43.52
323.83	64
324.043	57.86
324.256	115.2
324.469	-44.54
324.683	66.05
324.896	2.56
325.109	86.53
325.322	23.04
325.535	33.28
325.748	2.56
325.962	0.51
326.175	37.38
326.388	18.94
326.601	72.19
326.814	-9.73
327.027	4.61
327.24	90.62
327.453	12.8
327.666	64
327.879	125.44
328.092	76.29
328.305	45.57
328.518	82.43
328.731	-7.68
328.944	66.05
329.157	29.18
329.37	25.09
329.583	66.05
329.796	31.23
330.009	-11.78
330.222	31.23
330.435	135.68
330.648	12.8
330.861	39.42
331.073	16.9
331.286	94.72
331.499	64
331.712	47.62
331.925	12.8
332.138	35.33
332.35	35.33
332.563	33.28
332.776	98.81
332.989	12.8
333.202	33.28
333.414	20.99
333.627	80.38
333.84	23.04
334.053	61.95
334.265	-24.06
334.478	-22.02
334.691	-1.54
334.903	-7.68
335.116	4.61
335.329	-17.92
335.541	109.05
335.754	121.34
335.966	23.04
336.179	33.28
336.392	49.66
336.604	113.15
336.817	35.33
337.029	-1.54
337.242	-3.58
337.454	-32.26
337.667	10.75
337.88	92.67
338.092	111.1
338.305	80.38
338.517	0.51
338.729	84.48
338.942	61.95
339.154	49.66
339.367	41.47
339.579	125.44
339.792	-1.54
340.004	43.52
340.217	68.09
340.429	49.66
340.641	4.61
340.854	27.14
341.066	-58.88
341.278	76.29
341.491	94.72
341.703	70.14
341.915	16.9
342.128	78.33
342.34	29.18
342.552	16.9
342.764	55.81
342.977	20.99
343.189	64
343.401	31.23
343.613	-60.93
343.826	53.76
344.038	-34.3
344.25	27.14
344.462	82.43
344.674	94.72
344.886	-1.54
345.099	92.67
345.311	55.81
345.523	107.01
345.735	39.42
345.947	-28.16
346.159	82.43
346.371	37.38
346.583	-22.02
346.795	82.43
347.007	59.9
347.219	12.8
347.431	82.43
347.643	88.57
347.855	72.19
348.067	111.1
348.279	6.66
348.491	-38.4
348.703	39.42
348.915	-15.87
349.127	-38.4
349.339	45.57
349.551	72.19
349.763	78.33
349.975	66.05
350.187	-1.54
350.399	66.05
350.61	23.04
350.822	-77.31
351.034	39.42
351.246	12.8
351.458	66.05
351.669	14.85
351.881	102.91
352.093	96.77
352.305	33.28
352.517	137.73
352.728	29.18
352.94	51.71
353.152	123.39
353.363	8.7
353.575	4.61
353.787	70.14
353.999	66.05
354.21	119.29
354.422	43.52
354.633	23.04
354.845	27.14
355.057	31.23
355.268	39.42
355.48	74.24
355.692	53.76
355.903	18.94
356.115	20.99
356.326	27.14
356.538	80.38
356.749	98.81
356.961	121.34
357.172	41.47
357.384	20.99
357.595	147.97
357.807	82.43
358.018	-5.63
358.23	16.9
358.441	86.53
358.653	-26.11
358.864	59.9
359.075	33.28
359.287	-3.58
359.498	109.05
359.709	37.38
359.921	59.9
360.132	-26.11
360.344	57.86
360.555	-11.78
360.766	43.52
360.977	64
361.189	66.05
361.4	-34.3
361.611	49.66
361.823	107.01
362.034	41.47
362.245	-15.87
362.456	59.9
362.667	51.71
362.879	16.9
363.09	25.09
363.301	123.39
363.512	-15.87
363.723	14.85
363.935	-24.06
364.146	98.81
364.357	39.42
364.568	68.09
364.779	-19.97
364.99	80.38
365.201	-28.16
365.412	131.58
365.623	-97.79
365.834	-32.26
366.045	41.47
366.256	104.96
366.467	25.09
366.678	41.47
366.889	61.95
367.1	61.95
367.311	57.86
367.522	72.19
367.733	72.19
367.944	80.38
368.155	100.86
368.366	23.04
368.577	51.71
368.788	96.77
368.999	59.9
369.209	31.23
369.42	186.88
369.631	76.29
369.842	18.94
370.053	-3.58
370.264	27.14
370.474	-50.69
370.685	100.86
370.896	33.28
371.107	37.38
371.317	14.85
371.528	14.85
371.739	109.05
371.95	4.61
372.16	66.05
372.371	-17.92
372.582	41.47
372.792	70.14
373.003	72.19
373.214	35.33
373.424	78.33
373.635	25.09
373.846	117.25
374.056	64
374.267	64
374.477	82.43
374.688	61.95
374.898	53.76
375.109	-15.87
375.319	109.05
375.53	59.9
375.74	172.54
375.951	-11.78
376.161	47.62
376.372	16.9
376.582	57.86
376.793	121.34
377.003	16.9
377.214	49.66
377.424	27.14
377.635	27.14
377.845	-3.58
378.055	172.54
378.266	31.23
378.476	16.9
378.686	39.42
378.897	25.09
379.107	53.76
379.317	86.53
379.528	100.86
379.738	2.56
379.948	-7.68
380.158	139.77
380.369	92.67
380.579	53.76
380.789	-7.68
380.999	55.81
381.21	45.57
381.42	88.57
381.63	51.71
381.84	-22.02
382.05	39.42
382.261	88.57
382.471	37.38
382.681	16.9
382.891	96.77
383.101	0.51
383.311	-7.68
383.521	47.62
383.731	125.44
383.941	78.33
384.151	64
384.361	43.52
384.571	70.14
384.781	31.23
384.991	211.45
385.201	104.96
385.411	137.73
385.621	88.57
385.831	117.25
386.041	2.56
386.251	-3.58
386.461	96.77
386.671	86.53
386.881	59.9
387.091	-7.68
387.301	92.67
387.511	31.23
387.72	6.66
387.93	27.14
388.14	-17.92
388.35	14.85
388.56	90.62
388.769	78.33
388.979	121.34
389.189	33.28
389.399	100.86
389.609	96.77
389.818	123.39
390.028	100.86
390.238	39.42
390.447	10.75
390.657	88.57
390.867	53.76
391.076	88.57
391.286	98.81
391.496	76.29
391.705	86.53
391.915	92.67
392.125	86.53
392.334	92.67
392.544	141.82
392.753	18.94
392.963	-48.64
393.172	61.95
393.382	-3.58
393.591	137.73
393.801	27.14
394.01	123.39
394.22	45.57
394.429	94.72
394.639	117.25
394.848	117.25
395.058	100.86
395.267	12.8
395.477	88.57
395.686	64
395.895	109.05
396.105	182.78
396.314	86.53
396.524	23.04
396.733	53.76
396.942	92.67
397.152	111.1
397.361	82.43
397.57	23.04
397.78	47.62
397.989	53.76
398.198	111.1
398.407	82.43
398.617	74.24
398.826	45.57
399.035	33.28
399.244	98.81
399.453	-17.92
399.663	-11.78
399.872	61.95
400.081	84.48
400.29	152.06
400.499	100.86
400.708	152.06
400.917	104.96
401.127	74.24
401.336	64
401.545	137.73
401.754	129.53
401.963	152.06
402.172	88.57
402.381	61.95
402.59	109.05
402.799	88.57
403.008	84.48
403.217	64
403.426	68.09
403.635	61.95
403.844	123.39
404.053	100.86
404.262	51.71
404.471	219.64
404.68	133.63
404.888	49.66
405.097	100.86
405.306	115.2
405.515	188.93
405.724	102.91
405.933	186.88
406.142	117.25
406.35	145.92
406.559	135.68
406.768	88.57
406.977	213.5
407.185	158.21
407.394	109.05
407.603	143.87
407.812	188.93
408.02	117.25
408.229	141.82
408.438	113.15
408.646	64
408.855	94.72
409.064	207.36
409.272	219.64
409.481	162.3
409.69	133.63
409.898	201.21
410.107	262.65
410.315	195.07
410.524	180.73
410.733	242.17
410.941	225.79
411.15	295.42
411.358	279.04
411.567	254.46
411.775	291.32
411.984	311.8
412.192	303.61
412.401	238.08
412.609	295.42
412.818	338.43
413.026	326.14
413.234	256.51
413.443	309.76
413.651	295.42
413.86	344.57
414.068	383.48
414.276	479.74
414.485	393.72
414.693	475.64
414.901	424.44
415.11	469.5
415.318	406.01
415.526	438.78
415.734	424.44
415.943	446.97
416.151	492.02
416.359	461.3
416.567	453.11
416.776	580.09
416.984	582.14
417.192	668.15
417.4	571.9
417.608	633.33
417.817	528.89
418.025	766.45
418.233	752.12
418.441	711.16
418.649	651.77
418.857	786.93
419.065	821.75
419.273	811.51
419.481	727.54
419.689	842.23
419.897	834.04
420.105	805.36
420.313	1014.26
420.521	1030.64
420.729	975.35
420.937	969.2
421.145	1069.55
421.353	1090.03
421.561	1202.67
421.769	1112.56
421.977	1102.32
422.185	1313.26
422.393	1329.64
422.601	1360.36
422.809	1368.56
423.017	1356.27
423.224	1376.75
423.432	1487.34
423.64	1438.19
423.848	1573.35
424.056	1546.73
424.263	1610.22
424.471	1606.12
424.679	1733.09
424.887	1640.93
425.094	1874.4
425.302	1841.64
425.51	1898.98
425.718	1911.27
425.925	1980.9
426.133	2075.1
426.341	2177.5
426.548	2308.57
426.756	2343.39
426.964	2247.13
427.171	2341.34
427.379	2517.47
427.586	2441.69
427.794	2687.45
428.001	2687.45
428.209	2738.65
428.417	2742.74
428.624	2961.87
428.832	2990.55
429.039	2955.73
429.247	2982.35
429.454	3248.59
429.662	3394
429.869	3230.16
430.076	3396.04
430.284	3500.49
430.491	3621.32
430.699	3635.66
430.906	3629.51
431.114	3817.93
431.321	3908.04
431.528	4006.34
431.736	4248
431.943	4463.04
432.15	4323.77
432.358	4147.65
432.565	4544.95
432.772	4387.26
432.979	4716.98
433.187	4903.35
433.394	4895.16
433.601	5149.11
433.808	5263.79
434.016	5239.22
434.223	5511.6
434.43	5714.34
434.637	5646.76
434.844	5841.32
435.052	5900.71
435.259	6160.8
435.466	6173.09
435.673	5906.85
435.88	6488.48
436.087	6826.39
436.294	6664.6
436.501	6468
436.708	6687.13
436.915	7066
437.122	7258.51
437.329	7305.62
437.537	7500.17
437.743	7483.79
437.95	7559.56
438.157	7840.14
438.364	8108.42
438.571	8190.34
438.778	8198.53
438.985	8919.42
439.192	8593.79
439.399	8743.29
439.606	8804.73
439.813	9212.28
440.02	9693.55
440.227	9445.74
440.433	9351.54
440.64	9820.52
440.847	9644.4
441.054	9806.19
441.261	10658.14
441.467	10629.47
441.674	10541.41
441.881	11114.84
442.088	10969.43
442.294	10864.99
442.501	11049.3
442.708	11508.05
442.914	11813.2
443.121	12478.79
443.328	11794.76
443.534	12558.66
443.741	12310.85
443.948	12200.26
444.154	13220.15
444.361	12947.77
444.568	13310.26
444.774	13379.89
444.981	13306.16
445.187	13926.7
445.394	14233.89
445.6	14078.25
445.807	15325.46
446.013	14657.82
446.22	15057.18
446.426	15591.7
446.633	15649.04
446.839	16193.8
447.046	15548.69
447.252	16601.35
447.459	16396.55
447.665	16402.69
447.871	17101.05
448.078	17987.82
448.284	16986.36
448.491	17258.74
448.697	18436.33
448.903	18565.35
449.11	18510.05
449.316	18249.96
449.522	18665.7
449.728	19196.12
449.935	19161.31
450.141	19151.07
450.347	19884.24
450.553	18837.73
450.76	19243.23
450.966	19943.63
451.172	19765.46
451.378	20410.57
451.584	19933.39
451.791	20281.55
451.997	20500.68
452.203	20777.15
452.409	20723.91
452.615	20416.71
452.821	19501.27
453.027	19349.72
453.233	20658.37
453.44	19595.48
453.646	19988.69
453.852	20179.15
454.058	20304.07
454.264	19949.78
454.47	20365.51
454.676	19839.19
454.882	20259.02
455.088	18585.83
455.294	18882.78
455.5	18964.7
455.705	19333.34
455.911	18415.85
456.117	18295.02
456.323	18069.74
456.529	17002.75
456.735	17703.15
456.941	17320.18
457.147	17103.1
457.352	16441.61
457.558	16455.94
457.764	16306.44
457.97	15995.15
458.176	15737.1
458.381	15827.21
458.587	14991.64
458.793	14899.48
458.999	14170.41
459.204	15331.61
459.41	14772.51
459.616	13887.79
459.821	13596.98
460.027	13789.49
460.233	13244.73
460.438	12693.82
460.644	12894.52
460.85	12357.96
461.055	12292.42
461.261	12081.48
461.466	11139.41
461.672	10883.42
461.878	11706.7
462.083	10871.13
462.289	10457.44
462.494	10684.76
462.7	10144.1
462.905	9818.47
463.111	10262.88
463.316	10322.27
463.522	10000.74
463.727	10027.37
463.932	9832.81
464.138	9800.04
464.343	9820.52
464.549	9656.68
464.754	9853.29
464.959	9767.27
465.165	9732.46
465.37	9431.41
465.575	8903.03
465.781	9337.2
465.986	9480.56
466.191	9060.73
466.397	8884.6
466.602	8554.88
466.807	8743.29
467.012	8771.96
467.218	8690.04
467.423	8671.61
467.628	8806.78
467.833	8935.8
468.038	8774.01
468.244	8489.34
