Data from USB4F104151__15__11-56-17-518.txt Node

Date: Wed Feb 19 11:56:17 EST 2025
User: louis
Spectrometer: USB4F10415
Trigger mode: 4
Integration Time (sec): 2.250200E-1
Scans to average: 1
Electric dark correction enabled: true
Nonlinearity correction enabled: false
Boxcar width: 0
XAxis mode: Wavelengths
Number of Pixels in Spectrum: 3648
>>>>>Begin Spectral Data<<<<<
178.204	-789.32
178.424	-789.32
178.644	-789.32
178.864	-826.18
179.084	-822.09
179.304	193.7
179.524	46.25
179.744	-68.44
179.964	-203.6
180.184	193.7
180.404	150.7
180.624	-201.55
180.844	-80.72
181.064	-54.1
181.283	210.09
181.503	-105.3
181.723	-80.72
181.943	-109.4
182.163	453.8
182.383	-215.89
182.602	-236.37
182.822	396.45
183.042	234.66
183.262	-150.36
183.482	-170.83
183.701	173.22
183.921	296.1
184.141	-129.88
184.361	-95.06
184.58	244.9
184.8	203.94
185.02	-193.36
185.239	17.58
185.459	273.57
185.679	439.46
185.898	-170.83
186.118	-271.19
186.338	218.28
186.557	328.87
186.777	-265.04
186.997	-211.79
187.216	234.66
187.436	445.6
187.655	-150.36
187.875	1.19
188.095	199.85
188.314	394.4
188.534	-68.44
188.753	-250.71
188.973	375.97
189.192	414.88
189.412	-258.9
189.631	-93.01
189.851	347.3
190.07	412.84
190.29	-113.49
190.509	-209.75
190.729	228.52
190.948	418.98
191.168	-35.67
191.387	-125.78
191.607	203.94
191.826	320.68
192.045	-23.38
192.265	-203.6
192.484	369.83
192.704	169.13
192.923	-144.21
193.142	-0.85
193.362	242.85
193.581	337.06
193.8	-115.54
194.02	-103.25
194.239	271.53
194.458	339.11
194.678	-129.88
194.897	-250.71
195.116	214.18
195.335	275.62
195.555	-109.4
195.774	-260.95
195.993	412.84
196.212	203.94
196.432	-66.39
196.651	-181.07
196.87	240.81
197.089	568.48
197.308	-123.73
197.528	-103.25
197.747	115.88
197.966	244.9
198.185	-15.19
198.404	-133.97
198.623	367.78
198.842	406.69
199.062	-88.92
199.281	-74.58
199.5	220.33
199.719	314.53
199.938	-136.02
200.157	-101.2
200.376	435.36
200.595	396.45
200.814	-23.38
201.033	-109.4
201.252	375.97
201.471	263.33
201.69	-170.83
201.909	-187.22
202.128	314.53
202.347	222.38
202.566	-127.83
202.785	-330.58
203.004	132.26
203.223	560.29
203.442	-199.51
203.661	-187.22
203.879	335.01
204.098	369.83
204.317	-203.6
204.536	-72.53
204.755	363.69
204.974	308.39
205.193	-279.38
205.411	-50
205.63	435.36
205.849	355.49
206.068	-164.69
206.287	-187.22
206.505	459.94
206.724	234.66
206.943	-236.37
207.162	-181.07
207.381	273.57
207.599	179.37
207.818	-58.2
208.037	-244.56
208.255	205.99
208.474	212.14
208.693	-158.55
208.911	-152.4
209.13	298.15
209.349	296.1
209.567	29.87
209.786	-144.21
210.005	361.64
210.223	191.66
210.442	-381.78
210.661	-260.95
210.879	304.29
211.098	158.89
211.316	-60.24
211.535	-107.35
211.753	255.14
211.972	388.26
212.191	-88.92
212.409	-103.25
212.628	267.43
212.846	126.12
213.065	-174.93
213.283	-68.44
213.502	210.09
213.72	249
213.938	-238.42
214.157	-203.6
214.375	265.38
214.594	230.57
214.812	-78.68
215.031	-95.06
215.249	230.57
215.467	234.66
215.686	-136.02
215.904	-154.45
216.122	257.19
216.341	367.78
216.559	89.26
216.778	-56.15
216.996	398.5
217.214	142.5
217.432	-111.44
217.651	-256.85
217.869	212.14
218.087	242.85
218.306	-176.98
218.524	-154.45
218.742	185.51
218.96	353.45
219.179	-168.79
219.397	-248.66
219.615	525.47
219.833	390.31
220.051	-138.07
220.27	-52.05
220.488	437.41
220.706	246.95
220.924	-285.52
221.142	-189.27
221.36	226.47
221.578	341.16
221.796	-119.64
222.015	-117.59
222.233	267.43
222.451	396.45
222.669	-105.3
222.887	-41.81
223.105	197.8
223.323	181.42
223.541	-133.97
223.759	-84.82
223.977	222.38
224.195	353.45
224.413	-150.36
224.631	-226.13
224.849	222.38
225.067	486.56
225.285	-93.01
225.503	-191.31
225.721	-64.34
225.939	216.23
226.157	-176.98
226.375	117.93
226.592	87.21
226.81	205.99
227.028	42.15
227.246	-74.58
227.464	294.05
227.682	347.3
227.9	-82.77
228.117	-52.05
228.335	273.57
228.553	199.85
228.771	-195.41
228.989	-140.12
229.206	324.77
229.424	21.67
229.642	-136.02
229.86	-156.5
230.077	414.88
230.295	193.7
230.513	-56.15
230.731	-127.83
230.948	392.36
231.166	390.31
231.384	-17.24
231.601	-185.17
231.819	490.66
232.037	83.11
232.254	-68.44
232.472	-113.49
232.689	117.93
232.907	273.57
233.125	-162.64
233.342	-191.31
233.56	126.12
233.777	113.83
233.995	-105.3
234.213	1.19
234.43	265.38
234.648	191.66
234.865	-199.51
235.083	-31.57
235.3	240.81
235.518	339.11
235.735	-103.25
235.953	-144.21
236.17	271.53
236.388	126.12
236.605	60.59
236.822	-97.11
237.04	318.63
237.257	238.76
237.475	-158.55
237.692	-105.3
237.909	353.45
238.127	105.64
238.344	38.06
238.562	-113.49
238.779	89.26
238.996	21.67
239.214	-119.64
239.431	-113.49
239.648	130.22
239.865	191.66
240.083	-99.16
240.3	-258.9
240.517	205.99
240.735	150.7
240.952	68.78
241.169	-197.46
241.386	238.76
241.603	162.98
241.821	-107.35
242.038	-95.06
242.255	392.36
242.472	68.78
242.689	-88.92
242.907	-193.36
243.124	230.57
243.341	238.76
243.558	-144.21
243.775	-146.26
243.992	5.29
244.209	298.15
244.426	62.63
244.643	-154.45
244.86	236.71
245.078	330.92
245.295	-103.25
245.512	-109.4
245.729	91.31
245.946	271.53
246.163	-172.88
246.38	-213.84
246.597	203.94
246.814	230.57
247.031	-84.82
247.248	-213.84
247.464	345.25
247.681	165.03
247.898	-162.64
248.115	25.77
248.332	132.26
248.549	427.17
248.766	-23.38
248.983	-185.17
249.2	289.96
249.417	380.07
249.633	-80.72
249.85	44.2
250.067	158.89
250.284	281.77
250.501	-111.44
250.717	-82.77
250.934	128.17
251.151	216.23
251.368	-80.72
251.585	-144.21
251.801	267.43
252.018	-39.76
252.235	31.91
252.451	-228.18
252.668	238.76
252.885	271.53
253.102	-113.49
253.318	-76.63
253.535	154.79
253.752	165.03
253.968	-39.76
254.185	-252.75
254.401	279.72
254.618	371.88
254.835	-45.91
255.051	-27.48
255.268	277.67
255.484	249
255.701	-52.05
255.917	-88.92
256.134	-13.14
256.351	228.52
256.567	-166.74
256.784	44.2
257	13.48
257.217	375.97
257.433	132.26
257.65	-138.07
257.866	312.49
258.082	27.82
258.299	-109.4
258.515	-90.96
258.732	173.22
258.948	124.07
259.165	-13.14
259.381	-222.03
259.597	298.15
259.814	183.46
260.03	-129.88
260.246	-107.35
260.463	316.58
260.679	408.74
260.895	46.25
261.112	-35.67
261.328	216.23
261.544	36.01
261.761	-66.39
261.977	-127.83
262.193	60.59
262.409	298.15
262.626	5.29
262.842	-105.3
263.058	97.45
263.274	265.38
263.49	-58.2
263.707	-148.31
263.923	326.82
264.139	19.63
264.355	-21.33
264.571	-56.15
264.787	304.29
265.004	349.35
265.22	-88.92
265.436	-68.44
265.652	160.94
265.868	246.95
266.084	-170.83
266.3	-62.29
266.516	117.93
266.732	261.29
266.948	15.53
267.164	-181.07
267.38	337.06
267.596	222.38
267.812	5.29
268.028	-37.72
268.244	261.29
268.46	249
268.676	-27.48
268.892	1.19
269.108	3.24
269.324	64.68
269.54	-158.55
269.756	-47.96
269.972	48.3
270.188	271.53
270.403	-154.45
270.619	-58.2
270.835	265.38
271.051	238.76
271.267	-80.72
271.483	-195.41
271.698	261.29
271.914	234.66
272.13	7.34
272.346	-29.52
272.562	203.94
272.777	404.64
272.993	9.39
273.209	-222.03
273.425	345.25
273.64	-4.95
273.856	-21.33
274.072	-228.18
274.287	130.22
274.503	306.34
274.719	36.01
274.934	-158.55
275.15	-107.35
275.366	99.5
275.581	-93.01
275.797	9.39
276.012	169.13
276.228	107.69
276.444	-56.15
276.659	79.02
276.875	46.25
277.09	95.4
277.306	-15.19
277.521	-11.09
277.737	224.42
277.952	232.62
278.168	-146.26
278.383	-37.72
278.599	95.4
278.814	322.73
279.03	-86.87
279.245	-17.24
279.461	162.98
279.676	222.38
279.892	-125.78
280.107	-64.34
280.322	87.21
280.538	246.95
280.753	-45.91
280.969	-113.49
281.184	173.22
281.399	339.11
281.615	-15.19
281.83	91.31
282.045	15.53
282.26	150.7
282.476	-52.05
282.691	99.5
282.906	240.81
283.122	144.55
283.337	-68.44
283.552	-45.91
283.767	191.66
283.983	230.57
284.198	-88.92
284.413	-84.82
284.628	17.58
284.843	255.14
285.058	-7
285.274	-37.72
285.489	99.5
285.704	199.85
285.919	-56.15
286.134	-45.91
286.349	232.62
286.564	58.54
286.779	115.88
286.995	36.01
287.21	-62.29
287.425	167.08
287.64	-66.39
287.855	126.12
288.07	56.49
288.285	269.48
288.5	38.06
288.715	-4.95
288.93	191.66
289.145	109.74
289.36	-9.05
289.575	-62.29
289.79	341.16
290.004	136.36
290.219	68.78
290.434	-84.82
290.649	156.84
290.864	160.94
291.079	-35.67
291.294	29.87
291.509	261.29
291.724	117.93
291.938	-2.9
292.153	-45.91
292.368	81.07
292.583	244.9
292.798	33.96
293.012	9.39
293.227	210.09
293.442	126.12
293.657	144.55
293.871	1.19
294.086	298.15
294.301	373.92
294.516	79.02
294.73	130.22
294.945	103.59
295.16	132.26
295.374	76.97
295.589	58.54
295.804	165.03
296.018	60.59
296.233	-93.01
296.447	42.15
296.662	99.5
296.877	363.69
297.091	11.43
297.306	-45.91
297.52	126.12
297.735	205.99
297.949	126.12
298.164	-131.92
298.378	165.03
298.593	38.06
298.807	-64.34
299.022	9.39
299.236	406.69
299.451	40.11
299.665	38.06
299.88	-2.9
300.094	249
300.309	150.7
300.523	54.44
300.737	-78.68
300.952	259.24
301.166	283.81
301.381	-39.76
301.595	-140.12
301.809	210.09
302.024	179.37
302.238	-56.15
302.452	119.98
302.667	214.18
302.881	251.05
303.095	7.34
303.309	36.01
303.524	179.37
303.738	93.35
303.952	42.15
304.166	44.2
304.381	-111.44
304.595	326.82
304.809	-9.05
305.023	-19.29
305.237	50.35
305.452	160.94
305.666	33.96
305.88	52.39
306.094	314.53
306.308	199.85
306.522	-31.57
306.736	66.73
306.95	326.82
307.164	52.39
307.379	5.29
307.593	93.35
307.807	271.53
308.021	255.14
308.235	132.26
308.449	-86.87
308.663	226.47
308.877	570.53
309.091	60.59
309.305	156.84
309.519	-127.83
309.733	265.38
309.947	-97.11
310.161	1.19
310.374	201.9
310.588	330.92
310.802	-78.68
311.016	-35.67
311.23	214.18
311.444	17.58
311.658	91.31
311.872	230.57
312.085	326.82
312.299	320.68
312.513	154.79
312.727	-56.15
312.941	50.35
313.154	220.33
313.368	-23.38
313.582	15.53
313.796	173.22
314.009	126.12
314.223	249
314.437	117.93
314.651	226.47
314.864	58.54
315.078	-13.14
315.292	-35.67
315.505	167.08
315.719	214.18
315.933	68.78
316.146	-97.11
316.36	3.24
316.573	220.33
316.787	165.03
317.001	122.02
317.214	-4.95
317.428	160.94
317.641	15.53
317.855	7.34
318.068	224.42
318.282	171.18
318.495	156.84
318.709	3.24
318.922	150.7
319.136	283.81
319.349	150.7
319.563	-93.01
319.776	193.7
319.99	-121.68
320.203	3.24
320.417	33.96
320.63	212.14
320.843	322.73
321.057	140.46
321.27	19.63
321.483	302.25
321.697	162.98
321.91	-70.48
322.124	-0.85
322.337	189.61
322.55	44.2
322.763	19.63
322.977	27.82
323.19	68.78
323.403	111.78
323.617	66.73
323.83	201.9
324.043	185.51
324.256	228.52
324.469	-142.16
324.683	226.47
324.896	226.47
325.109	183.46
325.322	-64.34
325.535	152.74
325.748	269.48
325.962	105.64
326.175	29.87
326.388	-27.48
326.601	224.42
326.814	36.01
327.027	64.68
327.24	56.49
327.453	-52.05
327.666	300.2
327.879	208.04
328.092	25.77
328.305	222.38
328.518	33.96
328.731	-4.95
328.944	-90.96
329.157	152.74
329.37	99.5
329.583	134.31
329.796	93.35
330.009	-21.33
330.222	189.61
330.435	119.98
330.648	1.19
330.861	240.81
331.073	101.55
331.286	115.88
331.499	124.07
331.712	156.84
331.925	195.75
332.138	9.39
332.35	5.29
332.563	171.18
332.776	320.68
332.989	-78.68
333.202	-109.4
333.414	220.33
333.627	201.9
333.84	-0.85
334.053	9.39
334.265	42.15
334.478	11.43
334.691	36.01
334.903	89.26
335.116	171.18
335.329	140.46
335.541	87.21
335.754	173.22
335.966	144.55
336.179	208.04
336.392	-4.95
336.604	40.11
336.817	205.99
337.029	277.67
337.242	9.39
337.454	68.78
337.667	214.18
337.88	312.49
338.092	27.82
338.305	91.31
338.517	42.15
338.729	220.33
338.942	21.67
339.154	-60.24
339.367	66.73
339.579	193.7
339.792	-125.78
340.004	19.63
340.217	68.78
340.429	316.58
340.641	-95.06
340.854	-43.86
341.066	275.62
341.278	287.91
341.491	136.36
341.703	19.63
341.915	50.35
342.128	251.05
342.34	109.74
342.552	-76.63
342.764	271.53
342.977	132.26
343.189	95.4
343.401	54.44
343.613	66.73
343.826	249
344.038	-21.33
344.25	136.36
344.462	167.08
344.674	144.55
344.886	54.44
345.099	87.21
345.311	244.9
345.523	-7
345.735	-103.25
345.947	117.93
346.159	224.42
346.371	251.05
346.583	64.68
346.795	150.7
347.007	74.92
347.219	140.46
347.431	44.2
347.643	173.22
347.855	72.87
348.067	330.92
348.279	19.63
348.491	-19.29
348.703	257.19
348.915	119.98
349.127	19.63
349.339	19.63
349.551	128.17
349.763	169.13
349.975	74.92
350.187	140.46
350.399	380.07
350.61	177.32
350.822	-82.77
351.034	42.15
351.246	261.29
351.458	154.79
351.669	1.19
351.881	68.78
352.093	357.54
352.305	308.39
352.517	-23.38
352.728	115.88
352.94	124.07
353.152	271.53
353.363	-93.01
353.575	7.34
353.787	406.69
353.999	224.42
354.21	189.61
354.422	-127.83
354.633	158.89
354.845	183.46
355.057	93.35
355.268	40.11
355.48	191.66
355.692	-21.33
355.903	9.39
356.115	-29.52
356.326	-31.57
356.538	361.64
356.749	3.24
356.961	134.31
357.172	208.04
357.384	44.2
357.595	257.19
357.807	-47.96
358.018	91.31
358.23	115.88
358.441	7.34
358.653	-35.67
358.864	122.02
359.075	29.87
359.287	81.07
359.498	91.31
359.709	214.18
359.921	216.23
360.132	29.87
360.344	-2.9
360.555	17.58
360.766	167.08
360.977	-107.35
361.189	44.2
361.4	134.31
361.611	249
361.823	56.49
362.034	1.19
362.245	1.19
362.456	162.98
362.667	165.03
362.879	-119.64
363.09	249
363.301	189.61
363.512	48.3
363.723	-19.29
363.935	165.03
364.146	312.49
364.357	66.73
364.568	72.87
364.779	31.91
364.99	326.82
365.201	50.35
365.412	162.98
365.623	-41.81
365.834	240.81
366.045	27.82
366.256	40.11
366.467	304.29
366.678	138.41
366.889	50.35
367.1	-62.29
367.311	369.83
367.522	99.5
367.733	128.17
367.944	95.4
368.155	152.74
368.366	226.47
368.577	148.65
368.788	169.13
368.999	134.31
369.209	154.79
369.42	74.92
369.631	382.12
369.842	195.75
370.053	130.22
370.264	36.01
370.474	-58.2
370.685	232.62
370.896	111.78
371.107	68.78
371.317	31.91
371.528	212.14
371.739	287.91
371.95	83.11
372.16	5.29
372.371	-25.43
372.582	40.11
372.792	23.72
373.003	111.78
373.214	214.18
373.424	230.57
373.635	-13.14
373.846	107.69
374.056	128.17
374.267	165.03
374.477	79.02
374.688	31.91
374.898	341.16
375.109	154.79
375.319	5.29
375.53	-25.43
375.74	294.05
375.951	74.92
376.161	64.68
376.372	42.15
376.582	203.94
376.793	169.13
377.003	50.35
377.214	11.43
377.424	328.87
377.635	181.42
377.845	111.78
378.055	66.73
378.266	68.78
378.476	126.12
378.686	87.21
378.897	36.01
379.107	246.95
379.317	150.7
379.528	-60.24
379.738	85.16
379.948	79.02
380.158	228.52
380.369	109.74
380.579	58.54
380.789	152.74
380.999	175.27
381.21	115.88
381.42	251.05
381.63	156.84
381.84	251.05
382.05	50.35
382.261	128.17
382.471	257.19
382.681	95.4
382.891	119.98
383.101	177.32
383.311	66.73
383.521	109.74
383.731	48.3
383.941	165.03
384.151	191.66
384.361	72.87
384.571	7.34
384.781	29.87
384.991	328.87
385.201	380.07
385.411	226.47
385.621	29.87
385.831	197.8
386.041	263.33
386.251	101.55
386.461	115.88
386.671	257.19
386.881	158.89
387.091	-4.95
387.301	124.07
387.511	70.83
387.72	167.08
387.93	142.5
388.14	17.58
388.35	197.8
388.56	339.11
388.769	99.5
388.979	64.68
389.189	140.46
389.399	193.7
389.609	68.78
389.818	44.2
390.028	255.14
390.238	199.85
390.447	23.72
390.657	93.35
390.867	210.09
391.076	13.48
391.286	36.01
391.496	42.15
391.705	214.18
391.915	443.56
392.125	21.67
392.334	52.39
392.544	402.6
392.753	193.7
392.963	9.39
393.172	66.73
393.382	199.85
393.591	412.84
393.801	1.19
394.01	60.59
394.22	234.66
394.429	271.53
394.639	9.39
394.848	158.89
395.058	148.65
395.267	142.5
395.477	156.84
395.686	93.35
395.895	572.58
396.105	398.5
396.314	7.34
396.524	21.67
396.733	138.41
396.942	386.21
397.152	-9.05
397.361	148.65
397.57	232.62
397.78	201.9
397.989	99.5
398.198	249
398.407	226.47
398.617	179.37
398.826	107.69
399.035	19.63
399.244	236.71
399.453	220.33
399.663	25.77
399.872	-29.52
400.081	38.06
400.29	359.59
400.499	-13.14
400.708	158.89
400.917	203.94
401.127	208.04
401.336	97.45
401.545	304.29
401.754	351.4
401.963	320.68
402.172	89.26
402.381	19.63
402.59	210.09
402.799	214.18
403.008	115.88
403.217	165.03
403.426	253.09
403.635	19.63
403.844	38.06
404.053	66.73
404.262	189.61
404.471	394.4
404.68	128.17
404.888	107.69
405.097	136.36
405.306	212.14
405.515	128.17
405.724	44.2
405.933	300.2
406.142	210.09
406.35	107.69
406.559	117.93
406.768	226.47
406.977	484.52
407.185	62.63
407.394	148.65
407.603	-21.33
407.812	210.09
408.02	154.79
408.229	97.45
408.438	251.05
408.646	-31.57
408.855	11.43
409.064	5.29
409.272	111.78
409.481	265.38
409.69	-29.52
409.898	21.67
410.107	195.75
410.315	349.35
410.524	81.07
410.733	138.41
410.941	249
411.15	386.21
411.358	93.35
411.567	246.95
411.775	216.23
411.984	269.48
412.192	167.08
412.401	81.07
412.609	502.95
412.818	390.31
413.026	126.12
413.234	115.88
413.443	289.96
413.651	126.12
413.86	-23.38
414.068	384.16
414.276	439.46
414.485	289.96
414.693	181.42
414.901	312.49
415.11	337.06
415.318	283.81
415.526	208.04
415.734	246.95
415.943	359.59
416.151	472.23
416.359	181.42
416.567	216.23
416.776	404.64
416.984	427.17
417.192	281.77
417.4	124.07
417.608	185.51
417.817	115.88
418.025	271.53
418.233	263.33
418.441	228.52
418.649	117.93
418.857	253.09
419.065	236.71
419.273	255.14
419.481	363.69
419.689	306.34
419.897	230.57
420.105	230.57
420.313	468.13
420.521	242.85
420.729	390.31
420.937	230.57
421.145	205.99
421.353	210.09
421.561	384.16
421.769	445.6
421.977	326.82
422.185	384.16
422.393	294.05
422.601	421.03
422.809	494.76
423.017	384.16
423.224	263.33
423.432	638.11
423.64	468.13
423.848	269.48
424.056	300.2
424.263	705.7
424.471	451.75
424.679	492.71
424.887	357.54
425.094	748.7
425.302	541.86
425.51	359.59
425.718	445.6
425.925	597.15
426.133	459.94
426.341	613.54
426.548	429.22
426.756	494.76
426.964	705.7
427.171	591.01
427.379	558.24
427.586	648.35
427.794	726.18
428.001	699.55
428.209	625.83
428.417	947.36
428.624	906.4
428.832	734.37
429.039	765.09
429.247	769.18
429.454	902.3
429.662	844.96
429.869	763.04
430.076	1000.6
430.284	982.17
430.491	857.25
430.699	836.77
430.906	1107.1
431.114	986.27
431.321	965.79
431.528	1008.8
431.736	1014.94
431.943	1170.58
432.15	933.02
432.358	984.22
432.565	1442.96
432.772	951.45
432.979	1334.42
433.187	1107.1
433.394	1477.78
433.601	1381.53
433.808	1305.75
434.016	1356.95
434.223	1432.72
434.43	1559.7
434.637	1379.48
434.844	1557.65
435.052	1748.11
435.259	1694.86
435.466	1567.89
435.673	1469.59
435.88	1862.8
436.087	1967.24
436.294	1991.82
436.501	1780.88
436.708	2016.4
436.915	2000.01
437.122	2086.03
437.329	1928.33
437.537	2163.85
437.743	2272.39
437.95	2327.69
438.157	2264.2
438.364	2321.54
438.571	2469
438.778	2346.12
438.985	2641.03
439.192	2589.83
439.399	2552.96
439.606	2368.65
439.813	2737.28
440.02	3140.73
440.227	3316.86
440.433	2892.93
440.64	2960.51
440.847	2851.97
441.054	3155.07
441.261	3234.94
441.467	3087.48
441.674	3370.1
441.881	3656.82
442.088	3298.42
442.294	3515.51
442.501	3712.11
442.708	3785.84
442.914	3687.54
443.121	3923.05
443.328	4113.52
443.534	4394.09
443.741	3964.01
443.948	4052.08
444.154	4433
444.361	4770.91
444.568	4303.98
444.774	4375.66
444.981	4320.36
445.187	5028.96
445.394	4715.62
445.6	4703.33
445.807	5538.9
446.013	4992.09
446.22	4910.18
446.426	5612.63
446.633	5760.08
446.839	6046.8
447.046	5411.93
447.252	5936.21
447.459	6106.19
447.665	6098
447.871	6128.72
448.078	6827.07
448.284	6577.22
448.491	6992.96
448.697	7136.32
448.903	7126.08
449.11	7414.84
449.316	7187.52
449.522	7603.25
449.728	7763
449.935	7937.07
450.141	8092.72
450.347	8211.5
450.553	8168.49
450.76	8676.39
450.966	8885.28
451.172	9063.46
451.378	9096.22
451.584	9399.32
451.791	9815.06
451.997	9735.19
452.203	9923.6
452.409	10480.65
452.615	10533.9
452.821	10058.77
453.027	10177.55
453.233	11019.27
453.44	10912.77
453.646	10904.58
453.852	11375.61
454.058	11959.28
454.264	11699.19
454.47	12151.79
454.676	12256.24
454.882	12766.18
455.088	12047.35
455.294	12248.05
455.5	12954.6
455.705	13339.62
455.911	12960.74
456.117	13018.08
456.323	12815.34
456.529	12534.76
456.735	13485.02
456.941	13173.73
457.147	13513.69
457.352	13321.18
457.558	13220.83
457.764	13532.12
457.97	13552.6
458.176	13495.26
458.381	14033.88
458.587	13536.22
458.793	13601.76
458.999	13093.86
459.204	14298.06
459.41	13929.43
459.616	13409.25
459.821	13568.99
460.027	13616.09
460.233	13540.32
460.438	13100
460.644	13564.89
460.85	13044.71
