Data from USB4F104151__9__12-00-21-874.txt Node

Date: Fri Mar 14 12:00:21 EDT 2025
User: louis
Spectrometer: USB4F10415
Trigger mode: 4
Integration Time (sec): 2.000000E-2
Scans to average: 1
Electric dark correction enabled: true
Nonlinearity correction enabled: false
Boxcar width: 0
XAxis mode: Wavelengths
Number of Pixels in Spectrum: 3648
>>>>>Begin Spectral Data<<<<<
178.204	-92.67
178.424	-92.67
178.644	-92.67
178.864	-145.92
179.084	-70.14
179.304	-49.66
179.524	1.54
179.744	-37.38
179.964	38.4
180.184	-2.56
180.404	26.11
180.624	-64
180.844	46.59
181.064	38.4
181.283	-14.85
181.503	-49.66
181.723	67.07
181.943	-29.18
182.163	-27.14
182.383	-20.99
182.602	65.02
182.822	19.97
183.042	1.54
183.262	-8.7
183.482	71.17
183.701	-31.23
183.921	1.54
184.141	24.06
184.361	73.21
184.58	19.97
184.8	5.63
185.02	-2.56
185.239	15.87
185.459	-20.99
185.679	38.4
185.898	-0.51
186.118	-8.7
186.338	22.02
186.557	34.3
186.777	-27.14
186.997	22.02
187.216	-31.23
187.436	42.5
187.655	54.78
187.875	9.73
188.095	-66.05
188.314	54.78
188.534	52.74
188.753	7.68
188.973	-10.75
189.192	-2.56
189.412	-51.71
189.631	-8.7
189.851	32.26
190.07	11.78
190.29	-0.51
190.509	-6.66
190.729	-72.19
190.948	42.5
191.168	11.78
191.387	75.26
191.607	38.4
191.826	3.58
192.045	-8.7
192.265	65.02
192.484	-45.57
192.704	-64
192.923	-57.86
193.142	-27.14
193.362	34.3
193.581	17.92
193.8	69.12
194.02	17.92
194.239	-61.95
194.458	44.54
194.678	48.64
194.897	11.78
195.116	-39.42
195.335	-8.7
195.555	5.63
195.774	-43.52
195.993	-41.47
196.212	22.02
196.432	-76.29
196.651	19.97
196.87	-43.52
197.089	-0.51
197.308	32.26
197.528	101.89
197.747	26.11
197.966	26.11
198.185	58.88
198.404	-12.8
198.623	13.82
198.842	7.68
199.062	-53.76
199.281	75.26
199.5	-6.66
199.719	-23.04
199.938	9.73
200.157	-29.18
200.376	-53.76
200.595	-12.8
200.814	9.73
201.033	-49.66
201.252	-47.62
201.471	79.36
201.69	36.35
201.909	-10.75
202.128	-14.85
202.347	103.93
202.566	89.6
202.785	40.45
203.004	-53.76
203.223	77.31
203.442	7.68
203.661	-0.51
203.879	36.35
204.098	19.97
204.317	-57.86
204.536	5.63
204.755	-27.14
204.974	30.21
205.193	-18.94
205.411	28.16
205.63	19.97
205.849	13.82
206.068	38.4
206.287	-41.47
206.505	-23.04
206.724	3.58
206.943	-37.38
207.162	-43.52
207.381	-47.62
207.599	-29.18
207.818	-33.28
208.037	15.87
208.255	60.93
208.474	83.45
208.693	-45.57
208.911	11.78
209.13	42.5
209.349	-0.51
209.567	-6.66
209.786	52.74
210.005	-27.14
210.223	-27.14
210.442	-104.96
210.661	22.02
210.879	62.98
211.098	-51.71
211.316	56.83
211.535	7.68
211.753	36.35
211.972	65.02
212.191	46.59
212.409	-35.33
212.628	-57.86
212.846	-25.09
213.065	-10.75
213.283	132.61
213.502	13.82
213.72	-0.51
213.938	13.82
214.157	30.21
214.375	54.78
214.594	34.3
214.812	5.63
215.031	38.4
215.249	-20.99
215.467	71.17
215.686	17.92
215.904	-16.9
216.122	-6.66
216.341	1.54
216.559	9.73
216.778	32.26
216.996	30.21
217.214	19.97
217.432	15.87
217.651	-29.18
217.869	-35.33
218.087	65.02
218.306	24.06
218.524	-25.09
218.742	22.02
218.96	5.63
219.179	-35.33
219.397	-4.61
219.615	50.69
219.833	67.07
220.051	-12.8
220.27	-0.51
220.488	26.11
220.706	24.06
220.924	17.92
221.142	26.11
221.36	-76.29
221.578	5.63
221.796	26.11
222.015	54.78
222.233	17.92
222.451	24.06
222.669	-18.94
222.887	-47.62
223.105	-10.75
223.323	-66.05
223.541	-23.04
223.759	69.12
223.977	-64
224.195	42.5
224.413	44.54
224.631	89.6
224.849	-12.8
225.067	-35.33
225.285	-14.85
225.503	-35.33
225.721	-64
225.939	19.97
226.157	36.35
226.375	56.83
226.592	17.92
226.81	1.54
227.028	32.26
227.246	52.74
227.464	11.78
227.682	1.54
227.9	13.82
228.117	93.69
228.335	30.21
228.553	-31.23
228.771	26.11
228.989	54.78
229.206	7.68
229.424	-8.7
229.642	-27.14
229.86	-31.23
230.077	7.68
230.295	-59.9
230.513	24.06
230.731	34.3
230.948	-14.85
231.166	1.54
231.384	15.87
231.601	22.02
231.819	-51.71
232.037	-49.66
232.254	-27.14
232.472	13.82
232.689	-6.66
232.907	-0.51
233.125	-14.85
233.342	36.35
233.56	-16.9
233.777	58.88
233.995	7.68
234.213	7.68
234.43	32.26
234.648	-31.23
234.865	-6.66
235.083	58.88
235.3	-45.57
235.518	-10.75
235.735	-4.61
235.953	11.78
236.17	-47.62
236.388	56.83
236.605	-8.7
236.822	13.82
237.04	71.17
237.257	-14.85
237.475	-59.9
237.692	-18.94
237.909	34.3
238.127	-23.04
238.344	22.02
238.562	15.87
238.779	19.97
238.996	38.4
239.214	-35.33
239.431	75.26
239.648	-12.8
239.865	22.02
240.083	-23.04
240.3	11.78
240.517	5.63
240.735	75.26
240.952	77.31
241.169	30.21
241.386	-4.61
241.603	44.54
241.821	-51.71
242.038	38.4
242.255	-10.75
242.472	24.06
242.689	46.59
242.907	-20.99
243.124	-14.85
243.341	38.4
243.558	-10.75
243.775	-35.33
243.992	-59.9
244.209	40.45
244.426	36.35
244.643	-25.09
244.86	-45.57
245.078	38.4
245.295	-6.66
245.512	-23.04
245.729	-16.9
245.946	-51.71
246.163	24.06
246.38	3.58
246.597	-0.51
246.814	9.73
247.031	-2.56
247.248	-16.9
247.464	26.11
247.681	7.68
247.898	-4.61
248.115	99.84
248.332	36.35
248.549	9.73
248.766	-25.09
248.983	-27.14
249.2	-8.7
249.417	65.02
249.633	3.58
249.85	17.92
250.067	-37.38
250.284	28.16
250.501	3.58
250.717	32.26
250.934	-39.42
251.151	26.11
251.368	-12.8
251.585	34.3
251.801	17.92
252.018	13.82
252.235	54.78
252.451	-12.8
252.668	7.68
252.885	54.78
253.102	22.02
253.318	42.5
253.535	-29.18
253.752	9.73
253.968	-2.56
254.185	-35.33
254.401	-64
254.618	50.69
254.835	-49.66
255.051	58.88
255.268	-12.8
255.484	38.4
255.701	-39.42
255.917	87.55
256.134	-4.61
256.351	38.4
256.567	38.4
256.784	34.3
257	-23.04
257.217	-23.04
257.433	-31.23
257.65	56.83
257.866	19.97
258.082	44.54
258.299	60.93
258.515	17.92
258.732	5.63
258.948	28.16
259.165	-51.71
259.381	-47.62
259.597	26.11
259.814	32.26
260.03	-47.62
260.246	71.17
260.463	34.3
260.679	30.21
260.895	19.97
261.112	54.78
261.328	-33.28
261.544	1.54
261.761	52.74
261.977	-2.56
262.193	-100.86
262.409	58.88
262.626	-16.9
262.842	17.92
263.058	-86.53
263.274	52.74
263.49	54.78
263.707	17.92
263.923	34.3
264.139	-47.62
264.355	-0.51
264.571	-2.56
264.787	-61.95
265.004	32.26
265.22	28.16
265.436	-29.18
265.652	-41.47
265.868	99.84
266.084	11.78
266.3	79.36
266.516	-33.28
266.732	40.45
266.948	-25.09
267.164	73.21
267.38	67.07
267.596	-23.04
267.812	69.12
268.028	9.73
268.244	-49.66
268.46	-39.42
268.676	3.58
268.892	-47.62
269.108	17.92
269.324	-14.85
269.54	-4.61
269.756	11.78
269.972	-8.7
270.188	73.21
270.403	-25.09
270.619	36.35
270.835	-35.33
271.051	-6.66
271.267	30.21
271.483	15.87
271.698	-53.76
271.914	87.55
272.13	-12.8
272.346	-47.62
272.562	19.97
272.777	40.45
272.993	-14.85
273.209	-8.7
273.425	77.31
273.64	3.58
273.856	40.45
274.072	32.26
274.287	11.78
274.503	-25.09
274.719	44.54
274.934	-4.61
275.15	9.73
275.366	-20.99
275.581	22.02
275.797	-4.61
276.012	38.4
276.228	-27.14
276.444	-37.38
276.659	-31.23
276.875	-6.66
277.09	19.97
277.306	5.63
277.521	15.87
277.737	42.5
277.952	69.12
278.168	-4.61
278.383	1.54
278.599	28.16
278.814	73.21
279.03	24.06
279.245	-51.71
279.461	11.78
279.676	-27.14
279.892	32.26
280.107	34.3
280.322	-18.94
280.538	-18.94
280.753	-8.7
280.969	32.26
281.184	28.16
281.399	17.92
281.615	3.58
281.83	13.82
282.045	-25.09
282.26	9.73
282.476	-16.9
282.691	75.26
282.906	17.92
283.122	38.4
283.337	-4.61
283.552	50.69
283.767	-35.33
283.983	30.21
284.198	-18.94
284.413	-41.47
284.628	-41.47
284.843	1.54
285.058	-18.94
285.274	-10.75
285.489	-68.09
285.704	24.06
285.919	26.11
286.134	-61.95
286.349	-43.52
286.564	79.36
286.779	38.4
286.995	-43.52
287.21	52.74
287.425	-39.42
287.64	26.11
287.855	5.63
288.07	-10.75
288.285	46.59
288.5	-10.75
288.715	11.78
288.93	42.5
289.145	50.69
289.36	24.06
289.575	-6.66
289.79	-14.85
290.004	-16.9
290.219	-25.09
290.434	26.11
290.649	9.73
290.864	-4.61
291.079	-23.04
291.294	-0.51
291.509	-20.99
291.724	40.45
291.938	-39.42
292.153	24.06
292.368	3.58
292.583	-41.47
292.798	-49.66
293.012	-41.47
293.227	54.78
293.442	3.58
293.657	7.68
293.871	7.68
294.086	17.92
294.301	-23.04
294.516	-10.75
294.73	89.6
294.945	-82.43
295.16	44.54
295.374	-37.38
295.589	62.98
295.804	44.54
296.018	9.73
296.233	-0.51
296.447	73.21
296.662	30.21
296.877	17.92
297.091	-51.71
297.306	-16.9
297.52	71.17
297.735	36.35
297.949	-0.51
298.164	30.21
298.378	48.64
298.593	-0.51
298.807	-6.66
299.022	40.45
299.236	-8.7
299.451	11.78
299.665	26.11
299.88	42.5
300.094	17.92
300.309	17.92
300.523	50.69
300.737	15.87
300.952	26.11
301.166	-8.7
301.381	-16.9
301.595	-0.51
301.809	-43.52
302.024	26.11
302.238	-49.66
302.452	40.45
302.667	24.06
302.881	-45.57
303.095	40.45
303.309	3.58
303.524	11.78
303.738	40.45
303.952	-8.7
304.166	24.06
304.381	-33.28
304.595	-31.23
304.809	62.98
305.023	-14.85
305.237	19.97
305.452	22.02
305.666	24.06
305.88	34.3
306.094	-33.28
306.308	1.54
306.522	54.78
306.736	-10.75
306.95	-25.09
307.164	28.16
307.379	36.35
307.593	-14.85
307.807	77.31
308.021	-31.23
308.235	-10.75
308.449	-82.43
308.663	-45.57
308.877	67.07
309.091	52.74
309.305	13.82
309.519	-27.14
309.733	112.13
309.947	-51.71
310.161	65.02
310.374	60.93
310.588	15.87
310.802	28.16
311.016	-14.85
311.23	44.54
311.444	-49.66
311.658	11.78
311.872	30.21
312.085	28.16
312.299	-0.51
312.513	15.87
312.727	-0.51
312.941	52.74
313.154	52.74
313.368	-8.7
313.582	32.26
313.796	42.5
314.009	1.54
314.223	-29.18
314.437	9.73
314.651	65.02
314.864	22.02
315.078	11.78
315.292	19.97
315.505	-6.66
315.719	44.54
315.933	-43.52
316.146	7.68
316.36	-16.9
316.573	48.64
316.787	30.21
317.001	-8.7
317.214	-55.81
317.428	28.16
317.641	34.3
317.855	-57.86
318.068	38.4
318.282	58.88
318.495	-49.66
318.709	91.65
318.922	30.21
319.136	13.82
319.349	38.4
319.563	15.87
319.776	-45.57
319.99	-25.09
320.203	-23.04
320.417	67.07
320.63	-4.61
320.843	-2.56
321.057	34.3
321.27	44.54
321.483	-35.33
321.697	46.59
321.91	-27.14
322.124	24.06
322.337	-6.66
322.55	26.11
322.763	28.16
322.977	56.83
323.19	-23.04
323.403	-37.38
323.617	-16.9
323.83	-12.8
324.043	-16.9
324.256	-16.9
324.469	69.12
324.683	28.16
324.896	24.06
325.109	-37.38
325.322	-12.8
325.535	56.83
325.748	40.45
325.962	-14.85
326.175	91.65
326.388	5.63
326.601	-20.99
326.814	9.73
327.027	-0.51
327.24	-2.56
327.453	-49.66
327.666	40.45
327.879	54.78
328.092	3.58
328.305	-41.47
328.518	-0.51
328.731	26.11
328.944	24.06
329.157	36.35
329.37	17.92
329.583	9.73
329.796	75.26
330.009	-68.09
330.222	56.83
330.435	-12.8
330.648	22.02
330.861	-12.8
331.073	3.58
331.286	58.88
331.499	71.17
331.712	48.64
331.925	-25.09
332.138	-45.57
332.35	28.16
332.563	-45.57
332.776	28.16
332.989	-14.85
333.202	28.16
333.414	17.92
333.627	22.02
333.84	-16.9
334.053	-12.8
334.265	1.54
334.478	24.06
334.691	-31.23
334.903	32.26
335.116	-29.18
335.329	11.78
335.541	-64
335.754	89.6
335.966	-4.61
336.179	62.98
336.392	28.16
336.604	-80.38
336.817	38.4
337.029	-33.28
337.242	-4.61
337.454	11.78
337.667	-6.66
337.88	36.35
338.092	-68.09
338.305	19.97
338.517	-4.61
338.729	50.69
338.942	28.16
339.154	81.41
339.367	-80.38
339.579	60.93
339.792	71.17
340.004	73.21
340.217	17.92
340.429	60.93
340.641	-25.09
340.854	-4.61
341.066	-10.75
341.278	17.92
341.491	38.4
341.703	19.97
341.915	-55.81
342.128	56.83
342.34	-10.75
342.552	13.82
342.764	-8.7
342.977	58.88
343.189	26.11
343.401	22.02
343.613	-12.8
343.826	99.84
344.038	58.88
344.25	-23.04
344.462	-12.8
344.674	26.11
344.886	-78.33
345.099	11.78
345.311	-6.66
345.523	34.3
345.735	28.16
345.947	44.54
346.159	-8.7
346.371	67.07
346.583	7.68
346.795	13.82
347.007	28.16
347.219	40.45
347.431	9.73
347.643	26.11
347.855	65.02
348.067	34.3
348.279	5.63
348.491	-29.18
348.703	32.26
348.915	19.97
349.127	-6.66
349.339	7.68
349.551	87.55
349.763	19.97
349.975	-2.56
350.187	91.65
350.399	69.12
350.61	7.68
350.822	-94.72
351.034	34.3
351.246	52.74
351.458	24.06
351.669	28.16
351.881	-33.28
352.093	13.82
352.305	-10.75
352.517	-35.33
352.728	28.16
352.94	34.3
353.152	-0.51
353.363	-35.33
353.575	116.22
353.787	15.87
353.999	-0.51
354.21	1.54
354.422	24.06
354.633	3.58
354.845	101.89
355.057	69.12
355.268	-10.75
355.48	-16.9
355.692	38.4
355.903	3.58
356.115	-51.71
356.326	36.35
356.538	-10.75
356.749	-18.94
356.961	-49.66
357.172	-43.52
357.384	42.5
357.595	52.74
357.807	7.68
358.018	91.65
358.23	-6.66
358.441	48.64
358.653	83.45
358.864	-8.7
359.075	48.64
359.287	-23.04
359.498	67.07
359.709	36.35
359.921	-43.52
360.132	58.88
360.344	11.78
360.555	-2.56
360.766	17.92
360.977	54.78
361.189	-10.75
361.4	-37.38
361.611	112.13
361.823	-39.42
362.034	-43.52
362.245	-33.28
362.456	5.63
362.667	-20.99
362.879	15.87
363.09	-0.51
363.301	34.3
363.512	77.31
363.723	11.78
363.935	-37.38
364.146	-16.9
364.357	-35.33
364.568	7.68
364.779	79.36
364.99	32.26
365.201	-51.71
365.412	-33.28
365.623	-10.75
365.834	24.06
366.045	40.45
366.256	36.35
366.467	-35.33
366.678	30.21
366.889	-25.09
367.1	38.4
367.311	79.36
367.522	-4.61
367.733	30.21
367.944	44.54
368.155	-39.42
368.366	28.16
368.577	99.84
368.788	-41.47
368.999	19.97
369.209	-6.66
369.42	103.93
369.631	142.85
369.842	1.54
370.053	83.45
370.264	36.35
370.474	40.45
370.685	-2.56
370.896	138.75
371.107	50.69
371.317	48.64
371.528	-23.04
371.739	34.3
371.95	30.21
372.16	-51.71
372.371	30.21
372.582	-37.38
372.792	-18.94
373.003	24.06
373.214	-2.56
373.424	54.78
373.635	32.26
373.846	46.59
374.056	44.54
374.267	56.83
374.477	-27.14
374.688	13.82
374.898	-80.38
375.109	62.98
375.319	7.68
375.53	69.12
375.74	-10.75
375.951	60.93
376.161	40.45
376.372	26.11
376.582	9.73
376.793	77.31
377.003	28.16
377.214	48.64
377.424	-12.8
377.635	5.63
377.845	11.78
378.055	83.45
378.266	1.54
378.476	40.45
378.686	15.87
378.897	67.07
379.107	56.83
379.317	1.54
379.528	56.83
379.738	-10.75
379.948	5.63
380.158	75.26
380.369	118.27
380.579	40.45
380.789	-23.04
380.999	75.26
381.21	50.69
381.42	93.69
381.63	-16.9
381.84	-6.66
382.05	40.45
382.261	30.21
382.471	77.31
382.681	7.68
382.891	-6.66
383.101	54.78
383.311	24.06
383.521	-39.42
383.731	13.82
383.941	17.92
384.151	30.21
384.361	60.93
384.571	-18.94
384.781	-10.75
384.991	-12.8
385.201	32.26
385.411	85.5
385.621	-2.56
385.831	67.07
386.041	11.78
386.251	-16.9
386.461	-20.99
386.671	32.26
386.881	1.54
387.091	-12.8
387.301	-10.75
387.511	13.82
387.72	60.93
387.93	-43.52
388.14	11.78
388.35	67.07
388.56	44.54
388.769	38.4
388.979	110.08
389.189	17.92
389.399	-12.8
389.609	22.02
389.818	32.26
390.028	19.97
390.238	89.6
390.447	19.97
390.657	44.54
390.867	34.3
391.076	40.45
391.286	69.12
391.496	48.64
391.705	38.4
391.915	67.07
392.125	48.64
392.334	-6.66
392.544	19.97
392.753	19.97
392.963	22.02
393.172	62.98
393.382	5.63
393.591	52.74
393.801	32.26
394.01	50.69
394.22	108.03
394.429	26.11
394.639	56.83
394.848	99.84
395.058	44.54
395.267	48.64
395.477	77.31
395.686	116.22
395.895	126.46
396.105	93.69
396.314	54.78
396.524	28.16
396.733	42.5
396.942	73.21
397.152	24.06
397.361	95.74
397.57	34.3
397.78	15.87
397.989	99.84
398.198	97.79
398.407	58.88
398.617	97.79
398.826	116.22
399.035	69.12
399.244	136.7
399.453	38.4
399.663	67.07
399.872	67.07
400.081	30.21
400.29	118.27
400.499	99.84
400.708	91.65
400.917	50.69
401.127	122.37
401.336	103.93
401.545	163.33
401.754	118.27
401.963	140.8
402.172	110.08
402.381	79.36
402.59	95.74
402.799	101.89
403.008	93.69
403.217	89.6
403.426	62.98
403.635	34.3
403.844	91.65
404.053	95.74
404.262	83.45
404.471	165.37
404.68	99.84
404.888	136.7
405.097	99.84
405.306	101.89
405.515	124.41
405.724	126.46
405.933	136.7
406.142	128.51
406.35	153.09
406.559	60.93
406.768	128.51
406.977	138.75
407.185	192
407.394	136.7
407.603	122.37
407.812	77.31
408.02	146.94
408.229	146.94
408.438	222.72
408.646	241.15
408.855	167.42
409.064	185.85
409.272	185.85
409.481	222.72
409.69	171.52
409.898	155.13
410.107	241.15
410.315	196.09
410.524	198.14
410.733	257.53
410.941	214.52
411.15	273.92
411.358	249.34
411.567	361.98
411.775	267.77
411.984	316.92
412.192	386.55
412.401	329.21
412.609	400.89
412.818	345.59
413.026	343.55
413.234	331.26
413.443	454.14
413.651	441.85
413.86	491
414.068	398.84
414.276	509.43
414.485	454.14
414.693	548.34
414.901	542.2
415.11	538.1
415.318	572.92
415.526	591.35
415.734	703.99
415.943	599.54
416.151	648.69
416.359	687.61
416.567	699.89
416.776	722.42
416.984	777.72
417.192	802.29
417.4	884.21
417.608	779.76
417.817	824.82
418.025	855.54
418.233	906.74
418.441	974.32
418.649	900.59
418.857	1033.71
419.065	1117.68
419.273	1015.28
419.481	1072.62
419.689	1218.03
419.897	1258.99
420.105	1226.22
420.313	1281.52
420.521	1297.9
420.729	1416.68
420.937	1400.3
421.145	1322.48
421.353	1480.17
421.561	1541.61
421.769	1545.7
421.977	1697.25
422.185	1691.11
422.393	1740.26
422.601	1885.67
422.809	1916.39
423.017	1971.68
423.224	1959.39
423.432	2090.46
423.64	1914.34
423.848	2168.29
424.056	2323.93
424.263	2424.28
424.471	2399.71
424.679	2450.91
424.887	2635.22
425.094	2528.73
425.302	2704.85
425.51	2764.25
425.718	2713.05
425.925	2893.27
426.133	2995.67
426.341	3145.17
426.548	3257.81
426.756	3304.91
426.964	3431.88
427.171	3456.46
427.379	3665.35
427.586	3587.53
427.794	3751.37
428.001	4013.51
428.209	3962.31
428.417	4160.96
428.624	4472.25
428.832	4378.05
429.039	4312.51
429.247	4287.93
429.454	4830.65
429.662	5060.02
429.869	4756.92
430.076	5133.75
430.284	4818.36
430.491	5230
430.699	5356.97
430.906	5549.48
431.114	5369.26
431.321	5871.01
431.528	5682.6
431.736	6165.92
431.943	6741.4
432.15	6157.73
432.358	6514.08
432.565	6940.05
432.772	6712.73
432.979	7118.23
433.187	7243.15
433.394	7187.86
433.601	7730.57
433.808	7855.5
434.016	7656.84
434.223	8144.26
434.43	8539.52
434.637	8263.04
434.844	8899.96
435.052	9145.72
435.259	9010.55
435.466	9129.33
435.673	9071.99
435.88	9655.66
436.087	10048.87
436.294	10091.88
436.501	9735.53
436.708	10052.97
436.915	10534.24
437.122	11031.9
437.329	10843.48
437.537	11230.55
437.743	11445.59
437.95	11294.04
438.157	11926.86
438.364	12338.5
438.571	12281.16
438.778	12412.23
438.985	13571.38
439.192	12975.42
439.399	13511.99
439.606	13030.71
439.813	14026.03
440.02	14871.84
440.227	14439.72
440.433	14265.64
440.64	14892.32
440.847	14535.97
441.054	14929.18
441.261	15918.35
441.467	15924.49
441.674	16104.71
441.881	16743.68
442.088	16823.55
442.294	16604.42
442.501	17026.3
442.708	17335.54
442.914	18085.1
443.121	18719.97
443.328	18511.08
443.534	19657.94
443.741	19082.46
443.948	18943.2
444.154	20296.91
444.361	20194.51
444.568	20106.45
444.774	20049.1
444.981	20397.26
445.187	21028.03
445.394	21879.99
445.6	21636.28
445.807	23542.94
446.013	22660.26
446.22	23272.6
446.426	24081.55
446.633	24261.77
446.839	25349.25
447.046	24003.73
447.252	25607.29
447.459	25476.22
447.665	25535.61
447.871	26483.82
448.078	27446.37
448.284	26467.44
448.491	27157.6
448.697	28181.59
448.903	28550.22
449.11	28673.1
449.316	28019.8
449.522	28683.34
449.728	29318.21
449.935	29803.58
450.141	29383.74
450.347	30245.94
450.553	29172.8
450.76	29662.27
450.966	30766.12
451.172	30424.11
451.378	30727.21
451.584	30360.62
451.791	31026.21
451.997	30923.82
452.203	31525.92
452.409	31513.63
452.615	31151.14
452.821	30313.52
453.027	29926.46
453.233	31237.16
453.44	29848.63
453.646	30426.16
453.852	30446.64
454.058	30977.06
454.264	30047.29
454.47	30778.41
454.676	29559.87
454.882	30739.5
455.088	28357.71
455.294	28253.26
455.5	28585.04
455.705	28947.53
455.911	28034.13
456.117	27057.25
456.323	26887.27
456.529	25885.81
456.735	26700.9
456.941	25969.78
457.147	25732.22
457.352	24624.26
457.558	24167.57
457.764	24239.25
457.97	24005.78
458.176	23334.04
458.381	23467.16
458.587	22125.74
458.793	22371.5
458.999	21173.44
459.204	22727.85
459.41	21423.29
459.616	20430.02
459.821	20384.97
460.027	20384.97
460.233	20073.68
460.438	19121.37
460.644	19254.49
460.85	18167.02
461.055	17939.69
461.261	17695.99
461.466	16393.48
461.672	16006.41
461.878	17054.97
462.083	16248.07
462.289	15815.95
462.494	15789.33
462.7	15056.15
462.905	14753.05
463.111	15158.55
463.316	14978.33
463.522	14990.62
463.727	14691.62
463.932	14972.19
464.138	14558.5
464.343	14574.88
464.549	14382.37
464.754	14855.45
464.959	14664.99
465.165	14404.9
465.37	13729.07
465.575	13372.72
465.781	13966.63
465.986	14171.43
466.191	13471.03
466.397	13417.78
466.602	12649.79
466.807	12993.85
467.012	13151.54
467.218	13081.91
