Data from USB4F104151__72__12-02-05-366.txt Node

Date: Fri Mar 14 12:02:05 EDT 2025
User: louis
Spectrometer: USB4F10415
Trigger mode: 4
Integration Time (sec): 2.000000E-2
Scans to average: 1
Electric dark correction enabled: true
Nonlinearity correction enabled: false
Boxcar width: 0
XAxis mode: Wavelengths
Number of Pixels in Spectrum: 3648
>>>>>Begin Spectral Data<<<<<
178.204	-84.14
178.424	-84.14
178.644	-84.14
178.864	-155.82
179.084	-118.95
179.304	-39.08
179.524	8.02
179.744	-20.65
179.964	32.6
180.184	-37.03
180.404	-14.51
180.624	34.64
180.844	-16.55
181.064	-65.71
181.283	18.26
181.503	38.74
181.723	61.27
181.943	46.93
182.163	5.97
182.383	73.56
182.602	-16.55
182.822	-45.23
183.042	-28.84
183.262	-14.51
183.482	-49.32
183.701	34.64
183.921	1.88
184.141	8.02
184.361	26.45
184.58	-2.22
184.8	-18.6
185.02	40.79
185.239	75.6
185.459	42.84
185.679	32.6
185.898	89.94
186.118	85.84
186.338	-18.6
186.557	10.07
186.777	46.93
186.997	20.31
187.216	67.41
187.436	30.55
187.655	-0.17
187.875	18.26
188.095	3.93
188.314	81.75
188.534	51.03
188.753	36.69
188.973	51.03
189.192	-8.36
189.412	18.26
189.631	-28.84
189.851	51.03
190.07	87.89
190.29	-14.51
190.509	89.94
190.729	-28.84
190.948	-0.17
191.168	87.89
191.387	18.26
191.607	61.27
191.826	-14.51
192.045	5.97
192.265	14.17
192.484	53.08
192.704	-14.51
192.923	-73.9
193.142	38.74
193.362	42.84
193.581	89.94
193.8	34.64
194.02	36.69
194.239	53.08
194.458	-0.17
194.678	3.93
194.897	-10.41
195.116	30.55
195.335	-37.03
195.555	42.84
195.774	5.97
195.993	51.03
196.212	-6.31
196.432	38.74
196.651	65.36
196.87	-12.46
197.089	40.79
197.308	55.12
197.528	81.75
197.747	-12.46
197.966	28.5
198.185	34.64
198.404	-0.17
198.623	-10.41
198.842	44.88
199.062	55.12
199.281	83.8
199.5	20.31
199.719	14.17
199.938	98.13
200.157	18.26
200.376	1.88
200.595	67.41
200.814	-14.51
201.033	30.55
201.252	-10.41
201.471	36.69
201.69	-6.31
201.909	48.98
202.128	38.74
202.347	30.55
202.566	30.55
202.785	-16.55
203.004	14.17
203.223	44.88
203.442	12.12
203.661	16.21
203.879	28.5
204.098	55.12
204.317	26.45
204.536	8.02
204.755	42.84
204.974	-22.7
205.193	-2.22
205.411	30.55
205.63	26.45
205.849	34.64
206.068	102.23
206.287	57.17
206.505	135
206.724	-41.13
206.943	-6.31
207.162	69.46
207.381	-14.51
207.599	81.75
207.818	-39.08
208.037	-0.17
208.255	53.08
208.474	51.03
208.693	-6.31
208.911	26.45
209.13	55.12
209.349	59.22
209.567	83.8
209.786	48.98
210.005	-10.41
210.223	48.98
210.442	28.5
210.661	40.79
210.879	46.93
211.098	81.75
211.316	-39.08
211.535	69.46
211.753	-18.6
211.972	110.42
212.191	-43.18
212.409	118.61
212.628	-8.36
212.846	8.02
213.065	26.45
213.283	20.31
213.502	46.93
213.72	77.65
213.938	-2.22
214.157	16.21
214.375	-0.17
214.594	-14.51
214.812	-10.41
215.031	3.93
215.249	20.31
215.467	-16.55
215.686	44.88
215.904	96.08
216.122	-2.22
216.341	1.88
216.559	5.97
216.778	-37.03
216.996	12.12
217.214	20.31
217.432	22.36
217.651	1.88
217.869	36.69
218.087	5.97
218.306	1.88
218.524	100.18
218.742	-8.36
218.96	71.51
219.179	44.88
219.397	135
219.615	57.17
219.833	63.32
220.051	-45.23
220.27	67.41
220.488	59.22
220.706	-8.36
220.924	34.64
221.142	22.36
221.36	44.88
221.578	24.4
221.796	18.26
222.015	3.93
222.233	-39.08
222.451	89.94
222.669	-65.71
222.887	87.89
223.105	-22.7
223.323	42.84
223.541	-16.55
223.759	48.98
223.977	32.6
224.195	48.98
224.413	24.4
224.631	5.97
224.849	3.93
225.067	71.51
225.285	55.12
225.503	14.17
225.721	12.12
225.939	38.74
226.157	42.84
226.375	26.45
226.592	91.99
226.81	71.51
227.028	12.12
227.246	100.18
227.464	18.26
227.682	-49.32
227.9	34.64
228.117	20.31
228.335	73.56
228.553	77.65
228.771	14.17
228.989	8.02
229.206	-80.04
229.424	48.98
229.642	1.88
229.86	40.79
230.077	83.8
230.295	48.98
230.513	-22.7
230.731	61.27
230.948	-2.22
231.166	-18.6
231.384	18.26
231.601	36.69
231.819	44.88
232.037	-10.41
232.254	20.31
232.472	-67.75
232.689	-22.7
232.907	14.17
233.125	20.31
233.342	-32.94
233.56	104.28
233.777	-12.46
233.995	40.79
234.213	96.08
234.43	22.36
234.648	-26.79
234.865	83.8
235.083	59.22
235.3	14.17
235.518	77.65
235.735	5.97
235.953	12.12
236.17	32.6
236.388	48.98
236.605	14.17
236.822	42.84
237.04	5.97
237.257	75.6
237.475	85.84
237.692	48.98
237.909	57.17
238.127	22.36
238.344	57.17
238.562	-8.36
238.779	-22.7
238.996	67.41
239.214	-10.41
239.431	89.94
239.648	3.93
239.865	42.84
240.083	79.7
240.3	5.97
240.517	36.69
240.735	-4.27
240.952	91.99
241.169	8.02
241.386	20.31
241.603	-32.94
241.821	1.88
242.038	26.45
242.255	100.18
242.472	26.45
242.689	44.88
242.907	73.56
243.124	-20.65
243.341	30.55
243.558	-6.31
243.775	-14.51
243.992	8.02
244.209	69.46
244.426	-0.17
244.643	10.07
244.86	32.6
245.078	73.56
245.295	24.4
245.512	-30.89
245.729	10.07
245.946	120.66
246.163	69.46
246.38	44.88
246.597	34.64
246.814	20.31
247.031	59.22
247.248	-12.46
247.464	57.17
247.681	-2.22
247.898	36.69
248.115	65.36
248.332	18.26
248.549	67.41
248.766	63.32
248.983	-45.23
249.2	46.93
249.417	48.98
249.633	10.07
249.85	-26.79
250.067	77.65
250.284	24.4
250.501	1.88
250.717	59.22
250.934	-22.7
251.151	61.27
251.368	26.45
251.585	12.12
251.801	5.97
252.018	38.74
252.235	75.6
252.451	-0.17
252.668	34.64
252.885	-53.42
253.102	46.93
253.318	22.36
253.535	3.93
253.752	20.31
253.968	42.84
254.185	-10.41
254.401	1.88
254.618	34.64
254.835	20.31
255.051	69.46
255.268	12.12
255.484	-22.7
255.701	-16.55
255.917	14.17
256.134	48.98
256.351	5.97
256.567	-14.51
256.784	57.17
257	-8.36
257.217	26.45
257.433	40.79
257.65	36.69
257.866	100.18
258.082	63.32
258.299	-26.79
258.515	87.89
258.732	24.4
258.948	61.27
259.165	67.41
259.381	5.97
259.597	40.79
259.814	10.07
260.03	-2.22
260.246	-6.31
260.463	42.84
260.679	87.89
260.895	-45.23
261.112	65.36
261.328	22.36
261.544	-20.65
261.761	83.8
261.977	-47.27
262.193	3.93
262.409	-4.27
262.626	32.6
262.842	81.75
263.058	44.88
263.274	65.36
263.49	16.21
263.707	24.4
263.923	61.27
264.139	12.12
264.355	-6.31
264.571	63.32
264.787	28.5
265.004	-30.89
265.22	20.31
265.436	-14.51
265.652	87.89
265.868	-32.94
266.084	46.93
266.3	22.36
266.516	-51.37
266.732	91.99
266.948	55.12
267.164	55.12
267.38	71.51
267.596	32.6
267.812	100.18
268.028	100.18
268.244	22.36
268.46	38.74
268.676	8.02
268.892	77.65
269.108	-4.27
269.324	34.64
269.54	-14.51
269.756	32.6
269.972	20.31
270.188	75.6
270.403	28.5
270.619	44.88
270.835	22.36
271.051	89.94
271.267	-24.75
271.483	81.75
271.698	61.27
271.914	-6.31
272.13	-12.46
272.346	69.46
272.562	53.08
272.777	69.46
272.993	14.17
273.209	22.36
273.425	26.45
273.64	106.32
273.856	32.6
274.072	16.21
274.287	-59.56
274.503	46.93
274.719	-47.27
274.934	12.12
275.15	24.4
275.366	83.8
275.581	-28.84
275.797	-8.36
276.012	-18.6
276.228	61.27
276.444	22.36
276.659	26.45
276.875	-24.75
277.09	40.79
277.306	94.04
277.521	87.89
277.737	-43.18
277.952	65.36
278.168	8.02
278.383	-8.36
278.599	-22.7
278.814	46.93
279.03	98.13
279.245	100.18
279.461	24.4
279.676	48.98
279.892	8.02
280.107	24.4
280.322	20.31
280.538	32.6
280.753	67.41
280.969	5.97
281.184	22.36
281.399	85.84
281.615	44.88
281.83	8.02
282.045	-0.17
282.26	8.02
282.476	65.36
282.691	61.27
282.906	46.93
283.122	36.69
283.337	-4.27
283.552	73.56
283.767	-49.32
283.983	87.89
284.198	87.89
284.413	46.93
284.628	59.22
284.843	73.56
285.058	96.08
285.274	-4.27
285.489	24.4
285.704	-14.51
285.919	22.36
286.134	30.55
286.349	71.51
286.564	91.99
286.779	38.74
286.995	57.17
287.21	38.74
287.425	34.64
287.64	18.26
287.855	71.51
288.07	24.4
288.285	32.6
288.5	106.32
288.715	22.36
288.93	-24.75
289.145	12.12
289.36	61.27
289.575	38.74
289.79	5.97
290.004	26.45
290.219	59.22
290.434	14.17
290.649	-4.27
290.864	75.6
291.079	26.45
291.294	46.93
291.509	42.84
291.724	81.75
291.938	61.27
292.153	22.36
292.368	-12.46
292.583	81.75
292.798	20.31
293.012	34.64
293.227	55.12
293.442	-53.42
293.657	-14.51
293.871	32.6
294.086	48.98
294.301	34.64
294.516	44.88
294.73	-2.22
294.945	12.12
295.16	65.36
295.374	16.21
295.589	63.32
295.804	5.97
296.018	-12.46
296.233	75.6
296.447	34.64
296.662	24.4
296.877	18.26
297.091	59.22
297.306	44.88
297.52	-24.75
297.735	28.5
297.949	48.98
298.164	110.42
298.378	36.69
298.593	-4.27
298.807	5.97
299.022	-32.94
299.236	77.65
299.451	-22.7
299.665	48.98
299.88	-12.46
300.094	-6.31
300.309	-34.99
300.523	28.5
300.737	-10.41
300.952	1.88
301.166	44.88
301.381	-10.41
301.595	-10.41
301.809	57.17
302.024	32.6
302.238	77.65
302.452	24.4
302.667	-4.27
302.881	18.26
303.095	106.32
303.309	36.69
303.524	-28.84
303.738	46.93
303.952	38.74
304.166	57.17
304.381	-4.27
304.595	42.84
304.809	5.97
305.023	-10.41
305.237	-22.7
305.452	100.18
305.666	44.88
305.88	24.4
306.094	10.07
306.308	102.23
306.522	42.84
306.736	16.21
306.95	73.56
307.164	51.03
307.379	48.98
307.593	1.88
307.807	96.08
308.021	-6.31
308.235	14.17
308.449	30.55
308.663	34.64
308.877	124.76
309.091	-6.31
309.305	87.89
309.519	8.02
309.733	89.94
309.947	42.84
310.161	42.84
310.374	65.36
310.588	20.31
310.802	-55.47
311.016	26.45
311.23	51.03
311.444	-4.27
311.658	18.26
311.872	83.8
312.085	-6.31
312.299	81.75
312.513	65.36
312.727	65.36
312.941	91.99
313.154	32.6
313.368	1.88
313.582	48.98
313.796	-0.17
314.009	-8.36
314.223	-26.79
314.437	-14.51
314.651	14.17
314.864	18.26
315.078	51.03
315.292	40.79
315.505	55.12
315.719	57.17
315.933	-14.51
316.146	16.21
316.36	-77.99
316.573	98.13
316.787	48.98
317.001	1.88
317.214	-18.6
317.428	22.36
317.641	38.74
317.855	26.45
318.068	75.6
318.282	-18.6
318.495	16.21
318.709	-30.89
318.922	-0.17
319.136	149.33
319.349	57.17
319.563	44.88
319.776	22.36
319.99	-43.18
320.203	-22.7
320.417	120.66
320.63	81.75
320.843	71.51
321.057	-28.84
321.27	36.69
321.483	85.84
321.697	65.36
321.91	-0.17
322.124	42.84
322.337	5.97
322.55	22.36
322.763	20.31
322.977	61.27
323.19	12.12
323.403	77.65
323.617	36.69
323.83	32.6
324.043	-14.51
324.256	42.84
324.469	26.45
324.683	65.36
324.896	-6.31
325.109	71.51
325.322	44.88
325.535	-8.36
325.748	32.6
325.962	55.12
326.175	65.36
326.388	75.6
326.601	91.99
326.814	71.51
327.027	14.17
327.24	26.45
327.453	-41.13
327.666	8.02
327.879	-0.17
328.092	-26.79
328.305	-2.22
328.518	44.88
328.731	-14.51
328.944	48.98
329.157	48.98
329.37	-37.03
329.583	71.51
329.796	124.76
330.009	12.12
330.222	63.32
330.435	42.84
330.648	73.56
330.861	-8.36
331.073	28.5
331.286	91.99
331.499	24.4
331.712	73.56
331.925	-12.46
332.138	32.6
332.35	22.36
332.563	-45.23
332.776	59.22
332.989	34.64
333.202	18.26
333.414	32.6
333.627	71.51
333.84	-12.46
334.053	5.97
334.265	53.08
334.478	53.08
334.691	28.5
334.903	18.26
335.116	114.52
335.329	96.08
335.541	-6.31
335.754	83.8
335.966	-41.13
336.179	38.74
336.392	28.5
336.604	3.93
336.817	59.22
337.029	53.08
337.242	46.93
337.454	102.23
337.667	69.46
337.88	89.94
338.092	-14.51
338.305	94.04
338.517	-10.41
338.729	42.84
338.942	85.84
339.154	28.5
339.367	26.45
339.579	1.88
339.792	57.17
340.004	26.45
340.217	57.17
340.429	55.12
340.641	75.6
340.854	24.4
341.066	65.36
341.278	71.51
341.491	104.28
341.703	85.84
341.915	-59.56
342.128	-18.6
342.34	-26.79
342.552	55.12
342.764	8.02
342.977	65.36
343.189	122.71
343.401	-2.22
343.613	1.88
343.826	81.75
344.038	71.51
344.25	73.56
344.462	14.17
344.674	57.17
344.886	51.03
345.099	96.08
345.311	8.02
345.523	12.12
345.735	-20.65
345.947	26.45
346.159	14.17
346.371	102.23
346.583	65.36
346.795	38.74
347.007	-16.55
347.219	8.02
347.431	77.65
347.643	26.45
347.855	-20.65
348.067	34.64
348.279	44.88
348.491	30.55
348.703	77.65
348.915	73.56
349.127	24.4
349.339	65.36
349.551	-26.79
349.763	73.56
349.975	-20.65
350.187	73.56
350.399	-43.18
350.61	53.08
350.822	12.12
351.034	12.12
351.246	67.41
351.458	104.28
351.669	120.66
351.881	102.23
352.093	22.36
352.305	24.4
352.517	38.74
352.728	44.88
352.94	18.26
353.152	42.84
353.363	30.55
353.575	67.41
353.787	130.9
353.999	18.26
354.21	63.32
354.422	8.02
354.633	16.21
354.845	46.93
355.057	14.17
355.268	40.79
355.48	112.47
355.692	-14.51
355.903	44.88
356.115	22.36
356.326	-2.22
356.538	57.17
356.749	8.02
356.961	108.37
357.172	57.17
357.384	22.36
357.595	67.41
357.807	-10.41
358.018	-10.41
358.23	34.64
358.441	71.51
358.653	46.93
358.864	89.94
359.075	51.03
359.287	51.03
359.498	38.74
359.709	85.84
359.921	102.23
360.132	77.65
360.344	51.03
360.555	89.94
360.766	22.36
360.977	87.89
361.189	102.23
361.4	28.5
361.611	55.12
361.823	71.51
362.034	79.7
362.245	22.36
362.456	46.93
362.667	10.07
362.879	3.93
363.09	12.12
363.301	-41.13
363.512	89.94
363.723	-2.22
363.935	87.89
364.146	32.6
364.357	81.75
364.568	20.31
364.779	-2.22
364.99	55.12
365.201	1.88
365.412	122.71
365.623	28.5
365.834	36.69
366.045	102.23
366.256	55.12
366.467	61.27
366.678	36.69
366.889	55.12
367.1	65.36
367.311	20.31
367.522	-26.79
367.733	57.17
367.944	5.97
368.155	102.23
368.366	36.69
368.577	32.6
368.788	40.79
368.999	14.17
369.209	26.45
369.42	135
369.631	46.93
369.842	87.89
370.053	55.12
370.264	46.93
370.474	12.12
370.685	89.94
370.896	-4.27
371.107	98.13
371.317	104.28
371.528	-2.22
371.739	8.02
371.95	46.93
372.16	51.03
372.371	16.21
372.582	1.88
372.792	24.4
373.003	132.95
373.214	85.84
373.424	75.6
373.635	12.12
373.846	65.36
374.056	32.6
374.267	12.12
374.477	-18.6
374.688	24.4
374.898	10.07
375.109	28.5
375.319	77.65
375.53	108.37
375.74	16.21
375.951	57.17
376.161	14.17
376.372	65.36
376.582	-14.51
376.793	118.61
377.003	-12.46
377.214	42.84
377.424	5.97
377.635	-8.36
377.845	32.6
378.055	32.6
378.266	65.36
378.476	36.69
378.686	12.12
378.897	-10.41
379.107	32.6
379.317	114.52
379.528	63.32
379.738	8.02
379.948	30.55
380.158	110.42
380.369	42.84
380.579	96.08
380.789	57.17
380.999	10.07
381.21	81.75
381.42	96.08
381.63	44.88
381.84	32.6
382.05	85.84
382.261	81.75
382.471	38.74
382.681	-12.46
382.891	-6.31
383.101	1.88
383.311	-28.84
383.521	89.94
383.731	51.03
383.941	73.56
384.151	75.6
384.361	51.03
384.571	81.75
384.781	79.7
384.991	55.12
385.201	102.23
385.411	28.5
385.621	96.08
385.831	94.04
386.041	53.08
386.251	14.17
386.461	10.07
386.671	28.5
386.881	110.42
387.091	48.98
387.301	91.99
387.511	112.47
387.72	122.71
387.93	46.93
388.14	-16.55
388.35	51.03
388.56	8.02
388.769	71.51
388.979	122.71
389.189	-2.22
389.399	69.46
389.609	61.27
389.818	85.84
390.028	83.8
390.238	100.18
390.447	83.8
390.657	46.93
390.867	-0.17
391.076	20.31
391.286	94.04
391.496	42.84
391.705	89.94
391.915	28.5
392.125	65.36
392.334	24.4
392.544	38.74
392.753	1.88
392.963	26.45
393.172	18.26
393.382	83.8
393.591	108.37
393.801	20.31
394.01	126.8
394.22	137.04
394.429	98.13
394.639	53.08
394.848	63.32
395.058	114.52
395.267	57.17
395.477	73.56
395.686	106.32
395.895	55.12
396.105	128.85
396.314	106.32
396.524	20.31
396.733	122.71
396.942	108.37
397.152	104.28
397.361	100.18
397.57	110.42
397.78	48.98
397.989	26.45
398.198	192.34
398.407	96.08
398.617	79.7
398.826	87.89
399.035	94.04
399.244	130.9
399.453	143.19
399.663	94.04
399.872	91.99
400.081	65.36
400.29	161.62
400.499	116.56
400.708	163.67
400.917	116.56
401.127	77.65
401.336	122.71
401.545	147.28
401.754	118.61
401.963	159.57
402.172	100.18
402.381	5.97
402.59	161.62
402.799	149.33
403.008	188.24
403.217	141.14
403.426	237.39
403.635	98.13
403.844	132.95
404.053	161.62
404.262	59.22
404.471	184.15
404.68	141.14
404.888	65.36
405.097	124.76
405.306	122.71
405.515	104.28
405.724	188.24
405.933	132.95
406.142	196.43
406.35	147.28
406.559	173.91
406.768	173.91
406.977	143.19
407.185	165.71
407.394	259.92
407.603	192.34
407.812	118.61
408.02	239.44
408.229	221.01
408.438	196.43
408.646	239.44
408.855	216.91
409.064	282.45
409.272	255.83
409.481	266.07
409.69	284.5
409.898	257.87
410.107	270.16
410.315	247.63
410.524	261.97
410.733	307.02
410.941	239.44
411.15	372.56
411.358	309.07
411.567	329.55
411.775	370.51
411.984	452.43
412.192	304.98
412.401	397.14
412.609	493.39
412.818	474.96
413.026	466.77
413.234	431.95
413.443	462.67
413.651	454.48
413.86	517.97
414.068	589.64
414.276	630.6
414.485	520.01
414.693	622.41
414.901	628.56
415.11	536.4
415.318	626.51
415.526	653.13
415.734	700.23
415.943	767.82
416.151	812.87
416.359	640.84
416.567	681.8
416.776	829.26
416.984	935.75
417.192	958.28
417.4	886.6
417.608	925.51
417.817	923.46
418.025	1093.44
418.233	1089.35
418.441	1048.39
418.649	1034.05
418.857	1244.99
419.065	1187.65
419.273	1161.03
419.481	1355.58
419.689	1367.87
419.897	1402.69
420.105	1410.88
420.313	1392.45
420.521	1404.74
420.729	1455.94
420.937	1517.37
421.145	1670.97
421.353	1740.6
421.561	1728.31
421.769	1769.27
421.977	2019.13
422.185	1945.4
422.393	1926.97
422.601	2199.35
422.809	2133.81
423.017	2160.44
423.224	2150.2
423.432	2236.21
423.64	2377.52
423.848	2514.73
424.056	2484.02
424.263	2572.08
424.471	2713.39
424.679	2703.15
424.887	2912.04
425.094	2860.84
425.302	2869.03
425.51	2981.67
425.718	3153.7
425.925	3161.89
426.133	3366.69
426.341	3489.57
426.548	3514.14
426.756	3585.82
426.964	3618.59
427.171	3837.72
427.379	3880.73
427.586	4067.1
427.794	4175.64
428.001	4241.17
428.209	4517.65
428.417	4460.31
428.624	4826.89
428.832	4808.46
429.039	4740.88
429.247	4787.98
429.454	5265.16
429.662	5644.03
429.869	5129.99
430.076	5515.01
430.284	5435.14
430.491	5857.02
430.699	6016.76
430.906	5961.47
431.114	6059.77
431.321	6315.76
431.528	6459.12
431.736	6936.3
431.943	7112.42
432.15	6907.63
432.358	7116.52
432.565	7368.42
432.772	7261.93
432.979	7767.77
433.187	7892.7
433.394	7980.76
433.601	8523.48
433.808	8488.66
434.016	8634.07
434.223	8744.66
434.43	9569.99
434.637	9307.85
434.844	9647.81
435.052	10002.11
435.259	9914.05
435.466	9866.94
435.673	9858.75
435.88	10600.12
436.087	11103.92
436.294	11159.21
436.501	10593.97
436.708	11024.05
436.915	11368.1
437.122	11933.34
437.329	11929.25
437.537	12338.84
437.743	12381.85
437.95	12424.86
438.157	13076.11
438.364	13397.64
438.571	13479.56
438.778	13706.88
438.985	15054.45
439.192	14161.53
439.399	14681.72
439.606	14306.94
439.813	14941.81
440.02	16266.85
440.227	15808.1
440.433	15724.13
440.64	16088.67
440.847	16154.21
441.054	16508.51
441.261	17497.67
441.467	17348.17
441.674	17727.05
441.881	18687.54
442.088	18384.44
442.294	17960.52
442.501	18542.14
442.708	18968.12
442.914	19893.8
443.121	20874.77
443.328	19664.43
443.534	21456.4
443.741	20903.45
443.948	20489.76
444.154	22117.89
444.361	22011.4
444.568	22138.37
444.774	22097.41
444.981	22349.31
445.187	22904.31
445.394	24149.48
445.6	23703.02
445.807	26394.05
446.013	24886.75
446.22	25173.46
446.426	26326.47
446.633	26510.78
446.839	27743.66
447.046	26547.65
447.252	28024.23
447.459	28046.76
447.665	28036.52
447.871	28999.07
448.078	30268.81
448.284	28532.13
448.491	29427.09
448.697	30684.55
448.903	31436.15
449.11	31694.19
449.316	30840.19
449.522	31761.78
449.728	32120.17
449.935	32701.79
450.141	32580.96
450.347	33547.61
450.553	32347.5
450.76	32750.95
450.966	34002.25
451.172	33504.6
451.378	33891.66
451.584	33828.18
451.791	34045.26
451.997	34069.84
452.203	34622.79
452.409	34479.43
452.615	34331.98
452.821	33281.37
453.027	32732.51
453.233	34497.86
453.44	33406.3
453.646	33979.73
453.852	34049.36
454.058	34366.79
454.264	33168.73
454.47	34032.97
454.676	32996.7
454.882	34354.51
455.088	31335.8
455.294	31960.43
455.5	32197.99
455.705	33037.66
455.911	31198.59
456.117	30686.59
456.323	30168.46
456.529	28401.06
456.735	29967.76
456.941	29230.49
457.147	28974.49
457.352	27973.03
457.558	27620.78
457.764	27368.88
457.97	26688.96
458.176	26604.99
458.381	26478.02
458.587	25054.68
458.793	25081.3
458.999	24133.09
459.204	25802.19
459.41	24886.75
459.616	22930.94
459.821	23410.16
460.027	22920.7
460.233	22619.64
460.438	21530.12
460.644	21800.46
460.85	20901.4
461.055	20917.78
461.261	20301.34
461.466	18959.92
461.672	18574.91
461.878	19791.4
462.083	18390.59
462.289	17837.64
462.494	17681.99
462.7	17047.12
462.905	16623.19
463.111	17061.46
463.316	17374.8
463.522	16774.74
463.727	16858.71
463.932	16690.77
464.138	16600.66
464.343	16633.43
464.549	15998.56
464.754	16844.37
464.959	16660.06
465.165	16408.15
465.37	15752.8
465.575	15343.21
465.781	16131.68
465.986	16227.93
466.191	15468.14
466.397	15177.33
466.602	14509.69
466.807	14866.03
467.012	14929.52
467.218	14763.64
467.423	14788.21
467.628	14933.62
