Data from USB4F104151__60__12-01-45-989.txt Node

Date: Fri Mar 14 12:01:45 EDT 2025
User: louis
Spectrometer: USB4F10415
Trigger mode: 4
Integration Time (sec): 2.000000E-2
Scans to average: 1
Electric dark correction enabled: true
Nonlinearity correction enabled: false
Boxcar width: 0
XAxis mode: Wavelengths
Number of Pixels in Spectrum: 3648
>>>>>Begin Spectral Data<<<<<
178.204	-99.33
178.424	-99.33
178.644	-99.33
178.864	-82.94
179.084	-136.19
179.304	-95.23
179.524	-29.7
179.744	11.26
179.964	1.02
180.184	-9.22
180.404	33.79
180.624	-11.26
180.844	17.41
181.064	29.7
181.283	-3.07
181.503	-7.17
181.723	62.46
181.943	-134.14
182.163	41.98
182.383	-31.74
182.602	21.5
182.822	-37.89
183.042	68.61
183.262	13.31
183.482	-13.31
183.701	-3.07
183.921	-27.65
184.141	-33.79
184.361	39.94
184.58	-56.32
184.8	68.61
185.02	-31.74
185.239	5.12
185.459	1.02
185.679	33.79
185.898	37.89
186.118	-1.02
186.338	5.12
186.557	95.23
186.777	-70.65
186.997	56.32
187.216	-27.65
187.436	39.94
187.655	91.13
187.875	29.7
188.095	-23.55
188.314	-31.74
188.534	13.31
188.753	39.94
188.973	3.07
189.192	9.22
189.412	-25.6
189.631	3.07
189.851	68.61
190.07	52.22
190.29	-13.31
190.509	-15.36
190.729	-33.79
190.948	27.65
191.168	27.65
191.387	-9.22
191.607	19.46
191.826	15.36
192.045	56.32
192.265	33.79
192.484	27.65
192.704	58.37
192.923	-1.02
193.142	93.18
193.362	-19.46
193.581	54.27
193.8	31.74
194.02	23.55
194.239	25.6
194.458	37.89
194.678	44.03
194.897	56.32
195.116	-13.31
195.335	66.56
195.555	58.37
195.774	37.89
195.993	15.36
196.212	50.18
196.432	-31.74
196.651	7.17
196.87	1.02
197.089	64.51
197.308	-15.36
197.528	33.79
197.747	-31.74
197.966	9.22
198.185	56.32
198.404	-58.37
198.623	-5.12
198.842	64.51
199.062	19.46
199.281	54.27
199.5	1.02
199.719	33.79
199.938	-41.98
200.157	25.6
200.376	5.12
200.595	1.02
200.814	17.41
201.033	23.55
201.252	19.46
201.471	48.13
201.69	74.75
201.909	13.31
202.128	17.41
202.347	-3.07
202.566	93.18
202.785	21.5
203.004	17.41
203.223	105.47
203.442	37.89
203.661	9.22
203.879	19.46
204.098	39.94
204.317	19.46
204.536	74.75
204.755	27.65
204.974	-7.17
205.193	66.56
205.411	128
205.63	39.94
205.849	46.08
206.068	9.22
206.287	11.26
206.505	-11.26
206.724	1.02
206.943	-62.46
207.162	19.46
207.381	33.79
207.599	3.07
207.818	25.6
208.037	21.5
208.255	29.7
208.474	-17.41
208.693	1.02
208.911	15.36
209.13	52.22
209.349	-41.98
209.567	56.32
209.786	48.13
210.005	-9.22
210.223	-52.22
210.442	-41.98
210.661	-11.26
210.879	-39.94
211.098	70.65
211.316	60.42
211.535	31.74
211.753	11.26
211.972	60.42
212.191	19.46
212.409	21.5
212.628	-1.02
212.846	27.65
213.065	5.12
213.283	27.65
213.502	39.94
213.72	-13.31
213.938	13.31
214.157	39.94
214.375	-3.07
214.594	13.31
214.812	33.79
215.031	-52.22
215.249	-39.94
215.467	37.89
215.686	27.65
215.904	41.98
216.122	115.71
216.341	33.79
216.559	-5.12
216.778	-13.31
216.996	9.22
217.214	-68.61
217.432	-25.6
217.651	1.02
217.869	-46.08
218.087	3.07
218.306	39.94
218.524	27.65
218.742	13.31
218.96	107.52
219.179	33.79
219.397	5.12
219.615	29.7
219.833	35.84
220.051	13.31
220.27	29.7
220.488	52.22
220.706	41.98
220.924	23.55
221.142	-60.42
221.36	9.22
221.578	-11.26
221.796	-62.46
222.015	-13.31
222.233	-31.74
222.451	1.02
222.669	-23.55
222.887	50.18
223.105	17.41
223.323	-11.26
223.541	7.17
223.759	13.31
223.977	1.02
224.195	3.07
224.413	17.41
224.631	7.17
224.849	-13.31
225.067	7.17
225.285	-9.22
225.503	66.56
225.721	-60.42
225.939	-3.07
226.157	37.89
226.375	-1.02
226.592	21.5
226.81	-58.37
227.028	-35.84
227.246	9.22
227.464	9.22
227.682	-41.98
227.9	-41.98
228.117	39.94
228.335	3.07
228.553	52.22
228.771	58.37
228.989	125.95
229.206	-9.22
229.424	19.46
229.642	-80.89
229.86	48.13
230.077	-27.65
230.295	37.89
230.513	66.56
230.731	-27.65
230.948	107.52
231.166	-1.02
231.384	27.65
231.601	-48.13
231.819	130.05
232.037	-31.74
232.254	54.27
232.472	44.03
232.689	-70.65
232.907	46.08
233.125	29.7
233.342	89.09
233.56	-56.32
233.777	35.84
233.995	44.03
234.213	70.65
234.43	7.17
234.648	39.94
234.865	23.55
235.083	50.18
235.3	-52.22
235.518	-27.65
235.735	23.55
235.953	52.22
236.17	21.5
236.388	-3.07
236.605	21.5
236.822	31.74
237.04	13.31
237.257	41.98
237.475	-46.08
237.692	5.12
237.909	17.41
238.127	44.03
238.344	7.17
238.562	3.07
238.779	3.07
238.996	-15.36
239.214	72.7
239.431	95.23
239.648	35.84
239.865	80.89
240.083	-23.55
240.3	3.07
240.517	-17.41
240.735	68.61
240.952	13.31
241.169	82.94
241.386	-31.74
241.603	31.74
241.821	-54.27
242.038	84.99
242.255	35.84
242.472	23.55
242.689	-3.07
242.907	54.27
243.124	15.36
243.341	29.7
243.558	17.41
243.775	-25.6
243.992	39.94
244.209	52.22
244.426	31.74
244.643	-3.07
244.86	-17.41
245.078	19.46
245.295	5.12
245.512	-3.07
245.729	33.79
245.946	21.5
246.163	-3.07
246.38	41.98
246.597	31.74
246.814	50.18
247.031	-48.13
247.248	56.32
247.464	-46.08
247.681	7.17
247.898	95.23
248.115	11.26
248.332	-25.6
248.549	50.18
248.766	23.55
248.983	29.7
249.2	-19.46
249.417	29.7
249.633	19.46
249.85	3.07
250.067	11.26
250.284	25.6
250.501	-44.03
250.717	13.31
250.934	15.36
251.151	-3.07
251.368	-13.31
251.585	33.79
251.801	-5.12
252.018	-60.42
252.235	56.32
252.451	-1.02
252.668	23.55
252.885	37.89
253.102	-19.46
253.318	-44.03
253.535	-60.42
253.752	17.41
253.968	-23.55
254.185	82.94
254.401	23.55
254.618	7.17
254.835	33.79
255.051	17.41
255.268	35.84
255.484	21.5
255.701	-39.94
255.917	-41.98
256.134	11.26
256.351	68.61
256.567	-46.08
256.784	35.84
257	-13.31
257.217	23.55
257.433	58.37
257.65	23.55
257.866	29.7
258.082	23.55
258.299	13.31
258.515	41.98
258.732	19.46
258.948	19.46
259.165	52.22
259.381	56.32
259.597	-13.31
259.814	9.22
260.03	41.98
260.246	78.85
260.463	-11.26
260.679	13.31
260.895	-13.31
261.112	27.65
261.328	25.6
261.544	72.7
261.761	-23.55
261.977	3.07
262.193	58.37
262.409	15.36
262.626	-39.94
262.842	89.09
263.058	13.31
263.274	56.32
263.49	60.42
263.707	74.75
263.923	68.61
264.139	5.12
264.355	-33.79
264.571	15.36
264.787	64.51
265.004	62.46
265.22	-72.7
265.436	5.12
265.652	-31.74
265.868	19.46
266.084	7.17
266.3	7.17
266.516	13.31
266.732	21.5
266.948	70.65
267.164	21.5
267.38	-11.26
267.596	80.89
267.812	82.94
268.028	-9.22
268.244	15.36
268.46	52.22
268.676	37.89
268.892	-56.32
269.108	-54.27
269.324	-13.31
269.54	9.22
269.756	89.09
269.972	-9.22
270.188	107.52
270.403	52.22
270.619	31.74
270.835	15.36
271.051	66.56
271.267	64.51
271.483	-19.46
271.698	-7.17
271.914	23.55
272.13	-21.5
272.346	27.65
272.562	-52.22
272.777	29.7
272.993	78.85
273.209	5.12
273.425	5.12
273.64	39.94
273.856	-15.36
274.072	44.03
274.287	17.41
274.503	39.94
274.719	13.31
274.934	-39.94
275.15	37.89
275.366	7.17
275.581	31.74
275.797	91.13
276.012	44.03
276.228	48.13
276.444	-19.46
276.659	33.79
276.875	-25.6
277.09	54.27
277.306	33.79
277.521	123.9
277.737	11.26
277.952	3.07
278.168	-9.22
278.383	-9.22
278.599	48.13
278.814	9.22
279.03	46.08
279.245	33.79
279.461	-3.07
279.676	-25.6
279.892	-1.02
280.107	3.07
280.322	-7.17
280.538	48.13
280.753	-9.22
280.969	37.89
281.184	-11.26
281.399	80.89
281.615	-7.17
281.83	66.56
282.045	46.08
282.26	-7.17
282.476	11.26
282.691	37.89
282.906	19.46
283.122	-46.08
283.337	25.6
283.552	31.74
283.767	13.31
283.983	50.18
284.198	-7.17
284.413	46.08
284.628	-15.36
284.843	74.75
285.058	31.74
285.274	37.89
285.489	-31.74
285.704	62.46
285.919	-11.26
286.134	58.37
286.349	15.36
286.564	50.18
286.779	-29.7
286.995	-13.31
287.21	-39.94
287.425	9.22
287.64	91.13
287.855	-27.65
288.07	27.65
288.285	93.18
288.5	60.42
288.715	19.46
288.93	70.65
289.145	25.6
289.36	19.46
289.575	50.18
289.79	31.74
290.004	72.7
290.219	-27.65
290.434	41.98
290.649	44.03
290.864	39.94
291.079	-7.17
291.294	15.36
291.509	95.23
291.724	50.18
291.938	-3.07
292.153	-13.31
292.368	64.51
292.583	3.07
292.798	21.5
293.012	19.46
293.227	-7.17
293.442	-3.07
293.657	37.89
293.871	72.7
294.086	-1.02
294.301	62.46
294.516	128
294.73	66.56
294.945	-5.12
295.16	37.89
295.374	39.94
295.589	37.89
295.804	56.32
296.018	19.46
296.233	31.74
296.447	58.37
296.662	-37.89
296.877	29.7
297.091	-41.98
297.306	35.84
297.52	25.6
297.735	62.46
297.949	-3.07
298.164	31.74
298.378	62.46
298.593	64.51
298.807	29.7
299.022	-39.94
299.236	64.51
299.451	9.22
299.665	19.46
299.88	3.07
300.094	66.56
300.309	46.08
300.523	13.31
300.737	23.55
300.952	41.98
301.166	11.26
301.381	-3.07
301.595	48.13
301.809	-11.26
302.024	31.74
302.238	15.36
302.452	17.41
302.667	-1.02
302.881	107.52
303.095	128
303.309	-23.55
303.524	41.98
303.738	21.5
303.952	17.41
304.166	9.22
304.381	-56.32
304.595	50.18
304.809	31.74
305.023	44.03
305.237	13.31
305.452	52.22
305.666	66.56
305.88	13.31
306.094	25.6
306.308	33.79
306.522	44.03
306.736	13.31
306.95	35.84
307.164	-5.12
307.379	-31.74
307.593	76.8
307.807	113.66
308.021	-29.7
308.235	62.46
308.449	-25.6
308.663	13.31
308.877	44.03
309.091	37.89
309.305	60.42
309.519	-7.17
309.733	91.13
309.947	5.12
310.161	78.85
310.374	121.85
310.588	-1.02
310.802	52.22
311.016	-29.7
311.23	-9.22
311.444	-9.22
311.658	1.02
311.872	72.7
312.085	-27.65
312.299	68.61
312.513	-7.17
312.727	80.89
312.941	-17.41
313.154	48.13
313.368	37.89
313.582	17.41
313.796	21.5
314.009	-9.22
314.223	7.17
314.437	29.7
314.651	-17.41
314.864	1.02
315.078	-19.46
315.292	37.89
315.505	-31.74
315.719	7.17
315.933	41.98
316.146	9.22
316.36	39.94
316.573	58.37
316.787	-31.74
317.001	17.41
317.214	-13.31
317.428	64.51
317.641	13.31
317.855	-3.07
318.068	7.17
318.282	80.89
318.495	44.03
318.709	50.18
318.922	48.13
319.136	-9.22
319.349	11.26
319.563	29.7
319.776	39.94
319.99	25.6
320.203	19.46
320.417	3.07
320.63	54.27
320.843	3.07
321.057	78.85
321.27	33.79
321.483	29.7
321.697	-11.26
321.91	54.27
322.124	58.37
322.337	60.42
322.55	58.37
322.763	1.02
322.977	9.22
323.19	-11.26
323.403	15.36
323.617	84.99
323.83	99.33
324.043	29.7
324.256	68.61
324.469	9.22
324.683	9.22
324.896	21.5
325.109	-1.02
325.322	7.17
325.535	1.02
325.748	11.26
325.962	39.94
326.175	19.46
326.388	-7.17
326.601	115.71
326.814	41.98
327.027	1.02
327.24	52.22
327.453	-3.07
327.666	5.12
327.879	9.22
328.092	25.6
328.305	-15.36
328.518	17.41
328.731	27.65
328.944	56.32
329.157	66.56
329.37	17.41
329.583	99.33
329.796	15.36
330.009	29.7
330.222	21.5
330.435	46.08
330.648	48.13
330.861	9.22
331.073	-9.22
331.286	-31.74
331.499	56.32
331.712	5.12
331.925	41.98
332.138	21.5
332.35	41.98
332.563	-11.26
332.776	46.08
332.989	58.37
333.202	52.22
333.414	66.56
333.627	-7.17
333.84	62.46
334.053	48.13
334.265	-46.08
334.478	-66.56
334.691	25.6
334.903	97.28
335.116	72.7
335.329	3.07
335.541	19.46
335.754	89.09
335.966	11.26
336.179	5.12
336.392	113.66
336.604	11.26
336.817	31.74
337.029	39.94
337.242	50.18
337.454	84.99
337.667	35.84
337.88	115.71
338.092	82.94
338.305	5.12
338.517	52.22
338.729	78.85
338.942	27.65
339.154	11.26
339.367	-13.31
339.579	33.79
339.792	31.74
340.004	72.7
340.217	-9.22
340.429	-27.65
340.641	21.5
340.854	72.7
341.066	37.89
341.278	-5.12
341.491	-1.02
341.703	101.37
341.915	-39.94
342.128	33.79
342.34	21.5
342.552	50.18
342.764	39.94
342.977	9.22
343.189	109.57
343.401	-1.02
343.613	9.22
343.826	41.98
344.038	58.37
344.25	-33.79
344.462	-17.41
344.674	-11.26
344.886	39.94
345.099	103.42
345.311	-11.26
345.523	50.18
345.735	-62.46
345.947	19.46
346.159	9.22
346.371	33.79
346.583	1.02
346.795	78.85
347.007	-11.26
347.219	-37.89
347.431	37.89
347.643	37.89
347.855	11.26
348.067	82.94
348.279	-9.22
348.491	54.27
348.703	76.8
348.915	21.5
349.127	39.94
349.339	74.75
349.551	-31.74
349.763	25.6
349.975	-33.79
350.187	87.04
350.399	52.22
350.61	1.02
350.822	23.55
351.034	11.26
351.246	97.28
351.458	9.22
351.669	56.32
351.881	50.18
352.093	44.03
352.305	62.46
352.517	66.56
352.728	95.23
352.94	21.5
353.152	-9.22
353.363	-60.42
353.575	64.51
353.787	15.36
353.999	13.31
354.21	54.27
354.422	-17.41
354.633	84.99
354.845	3.07
355.057	21.5
355.268	15.36
355.48	7.17
355.692	7.17
355.903	52.22
356.115	-15.36
356.326	-46.08
356.538	56.32
356.749	21.5
356.961	23.55
357.172	13.31
357.384	-29.7
357.595	17.41
357.807	41.98
358.018	17.41
358.23	64.51
358.441	35.84
358.653	56.32
358.864	46.08
359.075	93.18
359.287	48.13
359.498	33.79
359.709	54.27
359.921	37.89
360.132	-48.13
360.344	41.98
360.555	107.52
360.766	142.33
360.977	89.09
361.189	82.94
361.4	54.27
361.611	33.79
361.823	58.37
362.034	41.98
362.245	13.31
362.456	9.22
362.667	21.5
362.879	39.94
363.09	64.51
363.301	62.46
363.512	9.22
363.723	25.6
363.935	82.94
364.146	107.52
364.357	-11.26
364.568	82.94
364.779	-11.26
364.99	82.94
365.201	17.41
365.412	-5.12
365.623	7.17
365.834	35.84
366.045	68.61
366.256	50.18
366.467	78.85
366.678	66.56
366.889	9.22
367.1	33.79
367.311	103.42
367.522	-3.07
367.733	-25.6
367.944	52.22
368.155	50.18
368.366	31.74
368.577	7.17
368.788	23.55
368.999	15.36
369.209	56.32
369.42	70.65
369.631	48.13
369.842	84.99
370.053	66.56
370.264	-17.41
370.474	50.18
370.685	7.17
370.896	54.27
371.107	21.5
371.317	82.94
371.528	27.65
371.739	60.42
371.95	23.55
372.16	107.52
372.371	44.03
372.582	-39.94
372.792	58.37
373.003	31.74
373.214	60.42
373.424	78.85
373.635	58.37
373.846	82.94
374.056	13.31
374.267	44.03
374.477	21.5
374.688	-62.46
374.898	-44.03
375.109	52.22
375.319	101.37
375.53	66.56
375.74	-1.02
375.951	68.61
376.161	-17.41
376.372	74.75
376.582	25.6
376.793	-15.36
377.003	66.56
377.214	23.55
377.424	23.55
377.635	25.6
377.845	27.65
378.055	-1.02
378.266	11.26
378.476	15.36
378.686	15.36
378.897	23.55
379.107	50.18
379.317	15.36
379.528	39.94
379.738	62.46
379.948	37.89
380.158	72.7
380.369	41.98
380.579	97.28
380.789	-37.89
380.999	70.65
381.21	-9.22
381.42	82.94
381.63	35.84
381.84	91.13
382.05	-7.17
382.261	46.08
382.471	76.8
382.681	27.65
382.891	95.23
383.101	31.74
383.311	82.94
383.521	-1.02
383.731	58.37
383.941	58.37
384.151	13.31
384.361	111.61
384.571	31.74
384.781	68.61
384.991	66.56
385.201	50.18
385.411	9.22
385.621	58.37
385.831	21.5
386.041	128
386.251	17.41
386.461	93.18
386.671	-9.22
386.881	58.37
387.091	41.98
387.301	76.8
387.511	9.22
387.72	60.42
387.93	84.99
388.14	39.94
388.35	5.12
388.56	31.74
388.769	25.6
388.979	91.13
389.189	-29.7
389.399	41.98
389.609	109.57
389.818	78.85
390.028	37.89
390.238	27.65
390.447	54.27
390.657	46.08
390.867	-27.65
391.076	-25.6
391.286	68.61
391.496	84.99
391.705	56.32
391.915	54.27
392.125	50.18
392.334	56.32
392.544	128
392.753	54.27
392.963	21.5
393.172	76.8
393.382	97.28
393.591	48.13
393.801	95.23
394.01	91.13
394.22	105.47
394.429	76.8
394.639	29.7
394.848	41.98
395.058	25.6
395.267	33.79
395.477	84.99
395.686	89.09
395.895	107.52
396.105	105.47
396.314	72.7
396.524	48.13
396.733	97.28
396.942	111.61
397.152	35.84
397.361	142.33
397.57	58.37
397.78	44.03
397.989	136.19
398.198	111.61
398.407	125.95
398.617	91.13
398.826	62.46
399.035	74.75
399.244	119.81
399.453	152.57
399.663	105.47
399.872	119.81
400.081	91.13
400.29	146.43
400.499	93.18
400.708	78.85
400.917	76.8
401.127	60.42
401.336	76.8
401.545	216.06
401.754	160.77
401.963	140.29
402.172	91.13
402.381	62.46
402.59	164.86
402.799	101.37
403.008	168.96
403.217	41.98
403.426	105.47
403.635	117.76
403.844	39.94
404.053	128
404.262	119.81
404.471	197.63
404.68	113.66
404.888	132.09
405.097	179.2
405.306	195.58
405.515	82.94
405.724	113.66
405.933	148.48
406.142	156.67
406.35	171.01
406.559	132.09
406.768	177.15
406.977	320.51
407.185	240.64
407.394	197.63
407.603	183.29
407.812	191.49
408.02	193.53
408.229	138.24
408.438	244.73
408.646	173.05
408.855	230.4
409.064	244.73
409.272	259.07
409.481	300.03
409.69	236.54
409.898	234.49
410.107	244.73
410.315	316.41
410.524	326.65
410.733	347.13
410.941	373.75
411.15	373.75
411.358	355.32
411.567	455.67
411.775	392.19
411.984	361.47
412.192	367.61
412.401	390.14
412.609	461.82
412.818	574.46
413.026	508.92
413.234	510.97
413.443	584.7
413.651	521.21
413.86	510.97
414.068	584.7
414.276	584.7
414.485	560.12
414.693	613.37
414.901	656.37
415.11	707.57
415.318	648.18
415.526	744.44
415.734	789.49
415.943	852.98
416.151	779.25
416.359	824.31
416.567	826.36
416.776	1000.43
416.984	895.99
417.192	1045.49
417.4	932.85
417.608	943.09
417.817	992.24
418.025	988.14
418.233	1172.46
418.441	1149.93
418.649	1207.28
418.857	1205.23
419.065	1287.15
419.273	1256.43
419.481	1299.44
419.689	1385.45
419.897	1442.79
420.105	1502.19
420.313	1563.62
420.521	1606.63
420.729	1596.39
420.937	1717.22
421.145	1782.76
421.353	1749.99
421.561	1842.15
421.769	1883.11
421.977	2067.42
422.185	2016.23
422.393	2126.82
422.601	2223.07
422.809	2384.86
423.017	2202.59
423.224	2395.1
423.432	2391
423.64	2456.54
423.848	2618.33
424.056	2716.63
424.263	2798.55
424.471	2825.17
424.679	2804.69
424.887	2946
425.094	3185.62
425.302	3175.38
425.51	3275.73
425.718	3429.32
425.925	3470.28
426.133	3523.53
426.341	3673.03
426.548	3806.15
426.756	3992.52
426.964	3949.51
427.171	4127.68
427.379	4369.34
427.586	4381.63
427.794	4453.31
428.001	4664.25
428.209	4928.44
428.417	4887.48
428.624	5243.82
428.832	5118.9
429.039	5274.54
429.247	5161.91
429.454	5671.85
429.662	6087.59
429.869	5604.27
430.076	6015.91
430.284	5809.06
430.491	6314.91
430.699	6435.74
430.906	6437.79
431.114	6593.44
431.321	6771.61
431.528	7127.96
431.736	7379.86
431.943	7656.33
432.15	7560.08
432.358	7642
432.565	8004.49
432.772	7979.91
432.979	8528.77
433.187	8833.91
433.394	8567.68
433.601	9263.99
433.808	9180.02
434.016	9216.88
434.223	9534.32
434.43	10085.22
434.637	10126.18
434.844	10488.67
435.052	10830.68
435.259	10629.98
435.466	11037.53
435.673	10812.25
435.88	11457.36
436.087	11957.07
436.294	11889.48
436.501	11733.84
436.708	11944.78
436.915	12487.49
437.122	12903.23
437.329	12964.67
437.537	13411.12
437.743	13718.32
437.95	13269.81
438.157	14439.2
438.364	14844.7
438.571	14600.99
438.778	14443.3
438.985	16091.91
439.192	15315.73
439.399	16030.48
439.606	15530.77
439.813	16321.29
440.02	17619.7
440.227	17185.53
440.433	17263.35
440.64	17636.08
440.847	17511.16
441.054	17967.85
441.261	19256.03
441.467	18944.73
441.674	19139.29
441.881	19911.38
442.088	19981.01
442.294	19933.9
442.501	20488.9
442.708	20751.04
442.914	21619.38
443.121	22401.71
443.328	21639.86
443.534	23605.91
443.741	22629.03
443.948	22516.39
444.154	24126.1
444.361	24115.86
444.568	24074.9
444.774	23958.16
444.981	24435.34
445.187	25211.52
445.394	25864.82
445.6	25932.4
445.807	28023.38
446.013	26948.2
446.22	27777.62
446.426	28668.49
446.633	28719.69
446.839	29715
447.046	28711.5
447.252	30505.52
447.459	30212.66
447.665	30288.43
447.871	31543.84
448.078	33040.9
448.284	31134.24
448.491	32211.48
448.697	33499.65
448.903	34036.22
449.11	34165.24
449.316	33606.14
449.522	33913.34
449.728	34865.64
449.935	35453.41
450.141	35387.88
450.347	36125.14
450.553	34920.94
450.76	35267.05
450.966	36698.58
451.172	36342.23
451.378	36696.53
451.584	36323.8
451.791	36878.8
451.997	36923.85
452.203	37845.44
452.409	37693.89
452.615	37220.81
452.821	36182.49
453.027	35510.75
453.233	37753.28
453.44	36256.21
453.646	36231.64
453.852	36370.9
454.058	37026.25
454.264	35957.21
454.47	36833.74
454.676	36094.43
454.882	37167.56
455.088	33614.34
455.294	34296.31
455.5	34566.64
455.705	35011.05
455.911	33387.01
456.117	32776.72
456.323	32897.55
456.529	30820.91
456.735	31912.47
456.941	31662.62
457.147	30892.58
457.352	29837.88
457.558	29637.18
457.764	29387.33
457.97	29030.98
458.176	28623.44
458.381	28731.98
458.587	27021.92
458.793	27277.92
458.999	25774.71
459.204	27277.92
459.41	26688.1
459.616	24865.41
459.821	25246.33
460.027	24693.38
460.233	24091.28
460.438	23208.61
460.644	23306.91
460.85	22241.96
461.055	21787.32
461.261	21871.28
461.466	20323.02
461.672	19718.87
461.878	21226.17
462.083	19675.86
462.289	19301.08
462.494	19061.47
462.7	18371.3
462.905	17965.81
463.111	18539.24
463.316	18336.49
463.522	18074.35
463.727	18113.26
463.932	18082.54
464.138	17754.87
464.343	17980.14
464.549	17435.38
464.754	18027.24
464.959	17750.77
465.165	17545.97
465.37	17138.43
465.575	16448.26
465.781	17136.38
465.986	17468.15
466.191	16698.11
466.397	16196.36
466.602	15557.39
466.807	16130.83
467.012	16159.5
467.218	16036.62
467.423	15975.18
467.628	16055.05
467.833	16438.02
468.038	15934.22
