Data from USB4F104151__27__12-00-37-612.txt Node

Date: Fri Mar 14 12:00:37 EDT 2025
User: louis
Spectrometer: USB4F10415
Trigger mode: 4
Integration Time (sec): 2.000000E-2
Scans to average: 1
Electric dark correction enabled: true
Nonlinearity correction enabled: false
Boxcar width: 0
XAxis mode: Wavelengths
Number of Pixels in Spectrum: 3648
>>>>>Begin Spectral Data<<<<<
178.204	-54.95
178.424	-54.95
178.644	-54.95
178.864	-151.21
179.084	-106.15
179.304	-18.09
179.524	-52.91
179.744	47.44
179.964	29.01
180.184	2.39
180.404	65.88
180.624	-46.76
180.844	43.35
181.064	-61.1
181.283	47.44
181.503	-54.95
181.723	-1.71
181.943	-13.99
182.163	35.16
182.383	-13.99
182.602	-26.28
182.822	57.68
183.042	41.3
183.262	8.53
183.482	18.77
183.701	41.3
183.921	47.44
184.141	8.53
184.361	55.64
184.58	-50.86
184.8	57.68
185.02	12.63
185.239	80.21
185.459	-7.85
185.679	51.54
185.898	-1.71
186.118	31.06
186.338	41.3
186.557	63.83
186.777	67.92
186.997	2.39
187.216	-5.8
187.436	37.2
187.655	26.96
187.875	104.79
188.095	57.68
188.314	14.68
188.534	41.3
188.753	47.44
188.973	8.53
189.192	100.69
189.412	39.25
189.631	61.78
189.851	57.68
190.07	24.92
190.29	8.53
190.509	20.82
190.729	26.96
190.948	20.82
191.168	59.73
191.387	33.11
191.607	20.82
191.826	-28.33
192.045	-18.09
192.265	37.2
192.484	-7.85
192.704	55.64
192.923	-50.86
193.142	131.41
193.362	0.34
193.581	-30.38
193.8	2.39
194.02	39.25
194.239	67.92
194.458	43.35
194.678	33.11
194.897	31.06
195.116	-20.14
195.335	6.49
195.555	57.68
195.774	47.44
195.993	22.87
196.212	29.01
196.432	4.44
196.651	-1.71
196.87	-1.71
197.089	98.64
197.308	-36.52
197.528	67.92
197.747	-52.91
197.966	-5.8
198.185	94.55
198.404	96.6
198.623	49.49
198.842	22.87
199.062	31.06
199.281	24.92
199.5	-16.04
199.719	18.77
199.938	-34.47
200.157	78.16
200.376	33.11
200.595	39.25
200.814	41.3
201.033	41.3
201.252	-11.95
201.471	35.16
201.69	8.53
201.909	102.74
202.128	-1.71
202.347	10.58
202.566	4.44
202.785	4.44
203.004	69.97
203.223	88.4
203.442	16.73
203.661	43.35
203.879	74.07
204.098	16.73
204.317	-44.71
204.536	53.59
204.755	12.63
204.974	14.68
205.193	-34.47
205.411	74.07
205.63	74.07
205.849	69.97
206.068	4.44
206.287	55.64
206.505	-7.85
206.724	-20.14
206.943	-24.23
207.162	-42.67
207.381	-30.38
207.599	82.26
207.818	-36.52
208.037	37.2
208.255	55.64
208.474	26.96
208.693	59.73
208.911	33.11
209.13	57.68
209.349	106.84
209.567	72.02
209.786	51.54
210.005	65.88
210.223	33.11
210.442	-16.04
210.661	26.96
210.879	31.06
211.098	33.11
211.316	49.49
211.535	-11.95
211.753	4.44
211.972	67.92
212.191	-26.28
212.409	18.77
212.628	4.44
212.846	-24.23
213.065	18.77
213.283	82.26
213.502	24.92
213.72	12.63
213.938	65.88
214.157	-42.67
214.375	8.53
214.594	12.63
214.812	63.83
215.031	53.59
215.249	-7.85
215.467	37.2
215.686	49.49
215.904	74.07
216.122	22.87
216.341	112.98
216.559	49.49
216.778	35.16
216.996	-1.71
217.214	45.4
217.432	-18.09
217.651	6.49
217.869	12.63
218.087	-13.99
218.306	41.3
218.524	29.01
218.742	-30.38
218.96	55.64
219.179	51.54
219.397	18.77
219.615	61.78
219.833	4.44
220.051	-7.85
220.27	153.94
220.488	18.77
220.706	61.78
220.924	6.49
221.142	-24.23
221.36	31.06
221.578	-16.04
221.796	2.39
222.015	67.92
222.233	74.07
222.451	53.59
222.669	29.01
222.887	14.68
223.105	-5.8
223.323	-3.75
223.541	41.3
223.759	100.69
223.977	-30.38
224.195	51.54
224.413	74.07
224.631	61.78
224.849	8.53
225.067	43.35
225.285	14.68
225.503	69.97
225.721	16.73
225.939	0.34
226.157	18.77
226.375	92.5
226.592	24.92
226.81	49.49
227.028	53.59
227.246	49.49
227.464	-3.75
227.682	55.64
227.9	33.11
228.117	37.2
228.335	55.64
228.553	24.92
228.771	53.59
228.989	26.96
229.206	53.59
229.424	-5.8
229.642	45.4
229.86	10.58
230.077	61.78
230.295	6.49
230.513	0.34
230.731	74.07
230.948	31.06
231.166	110.93
231.384	-16.04
231.601	-18.09
231.819	84.31
232.037	14.68
232.254	110.93
232.472	-26.28
232.689	24.92
232.907	98.64
233.125	14.68
233.342	29.01
233.56	-16.04
233.777	92.5
233.995	41.3
234.213	39.25
234.43	96.6
234.648	26.96
234.865	-5.8
235.083	26.96
235.3	29.01
235.518	80.21
235.735	129.36
235.953	-34.47
236.17	51.54
236.388	49.49
236.605	-18.09
236.822	14.68
237.04	37.2
237.257	117.08
237.475	8.53
237.692	29.01
237.909	72.02
238.127	43.35
238.344	10.58
238.562	69.97
238.779	-44.71
238.996	-5.8
239.214	-18.09
239.431	4.44
239.648	4.44
239.865	55.64
240.083	22.87
240.3	51.54
240.517	51.54
240.735	94.55
240.952	72.02
241.169	94.55
241.386	43.35
241.603	31.06
241.821	-13.99
242.038	59.73
242.255	63.83
242.472	16.73
242.689	102.74
242.907	49.49
243.124	-69.29
243.341	18.77
243.558	35.16
243.775	-18.09
243.992	-46.76
244.209	51.54
244.426	74.07
244.643	80.21
244.86	45.4
245.078	117.08
245.295	57.68
245.512	22.87
245.729	16.73
245.946	45.4
246.163	22.87
246.38	-40.62
246.597	-50.86
246.814	29.01
247.031	51.54
247.248	29.01
247.464	14.68
247.681	14.68
247.898	47.44
248.115	33.11
248.332	37.2
248.549	29.01
248.766	92.5
248.983	33.11
249.2	0.34
249.417	8.53
249.633	-20.14
249.85	31.06
250.067	4.44
250.284	18.77
250.501	63.83
250.717	76.12
250.934	57.68
251.151	8.53
251.368	78.16
251.585	78.16
251.801	100.69
252.018	-24.23
252.235	43.35
252.451	-13.99
252.668	12.63
252.885	76.12
253.102	78.16
253.318	14.68
253.535	100.69
253.752	31.06
253.968	6.49
254.185	39.25
254.401	57.68
254.618	47.44
254.835	18.77
255.051	57.68
255.268	45.4
255.484	84.31
255.701	10.58
255.917	22.87
256.134	35.16
256.351	72.02
256.567	-9.9
256.784	14.68
257	14.68
257.217	43.35
257.433	78.16
257.65	61.78
257.866	82.26
258.082	26.96
258.299	6.49
258.515	49.49
258.732	59.73
258.948	-20.14
259.165	-24.23
259.381	-52.91
259.597	47.44
259.814	-1.71
260.03	-7.85
260.246	112.98
260.463	2.39
260.679	51.54
260.895	35.16
261.112	53.59
261.328	18.77
261.544	67.92
261.761	102.74
261.977	41.3
262.193	123.22
262.409	78.16
262.626	37.2
262.842	26.96
263.058	-57
263.274	26.96
263.49	-57
263.707	31.06
263.923	86.36
264.139	-59.05
264.355	-1.71
264.571	35.16
264.787	78.16
265.004	98.64
265.22	22.87
265.436	78.16
265.652	43.35
265.868	53.59
266.084	29.01
266.3	96.6
266.516	-32.43
266.732	53.59
266.948	8.53
267.164	26.96
267.38	20.82
267.596	20.82
267.812	35.16
268.028	26.96
268.244	74.07
268.46	47.44
268.676	-22.19
268.892	123.22
269.108	61.78
269.324	96.6
269.54	-3.75
269.756	-7.85
269.972	18.77
270.188	51.54
270.403	-24.23
270.619	65.88
270.835	94.55
271.051	-5.8
271.267	-1.71
271.483	-20.14
271.698	76.12
271.914	57.68
272.13	86.36
272.346	45.4
272.562	-28.33
272.777	55.64
272.993	-11.95
273.209	61.78
273.425	2.39
273.64	-24.23
273.856	31.06
274.072	43.35
274.287	10.58
274.503	12.63
274.719	33.11
274.934	78.16
275.15	49.49
275.366	86.36
275.581	59.73
275.797	14.68
276.012	-16.04
276.228	33.11
276.444	8.53
276.659	33.11
276.875	18.77
277.09	88.4
277.306	53.59
277.521	12.63
277.737	-52.91
277.952	67.92
278.168	100.69
278.383	53.59
278.599	0.34
278.814	49.49
279.03	0.34
279.245	57.68
279.461	20.82
279.676	10.58
279.892	49.49
280.107	-3.75
280.322	61.78
280.538	69.97
280.753	88.4
280.969	-18.09
281.184	18.77
281.399	57.68
281.615	69.97
281.83	24.92
282.045	0.34
282.26	24.92
282.476	100.69
282.691	80.21
282.906	37.2
283.122	121.17
283.337	-3.75
283.552	57.68
283.767	53.59
283.983	-20.14
284.198	43.35
284.413	31.06
284.628	-85.67
284.843	49.49
285.058	72.02
285.274	41.3
285.489	-16.04
285.704	102.74
285.919	84.31
286.134	65.88
286.349	117.08
286.564	-7.85
286.779	82.26
286.995	14.68
287.21	26.96
287.425	12.63
287.64	2.39
287.855	45.4
288.07	76.12
288.285	0.34
288.5	96.6
288.715	33.11
288.93	39.25
289.145	10.58
289.36	61.78
289.575	-9.9
289.79	125.27
290.004	37.2
290.219	104.79
290.434	35.16
290.649	160.08
290.864	55.64
291.079	41.3
291.294	72.02
291.509	67.92
291.724	104.79
291.938	24.92
292.153	45.4
292.368	22.87
292.583	12.63
292.798	57.68
293.012	35.16
293.227	24.92
293.442	57.68
293.657	61.78
293.871	12.63
294.086	37.2
294.301	117.08
294.516	-9.9
294.73	98.64
294.945	18.77
295.16	-40.62
295.374	10.58
295.589	20.82
295.804	-7.85
296.018	55.64
296.233	41.3
296.447	2.39
296.662	74.07
296.877	80.21
297.091	2.39
297.306	80.21
297.52	14.68
297.735	22.87
297.949	16.73
298.164	53.59
298.378	53.59
298.593	-1.71
298.807	22.87
299.022	-20.14
299.236	133.46
299.451	45.4
299.665	18.77
299.88	82.26
300.094	72.02
300.309	63.83
300.523	67.92
300.737	39.25
300.952	57.68
301.166	31.06
301.381	-48.81
301.595	18.77
301.809	4.44
302.024	26.96
302.238	-42.67
302.452	69.97
302.667	6.49
302.881	22.87
303.095	26.96
303.309	-7.85
303.524	-18.09
303.738	31.06
303.952	51.54
304.166	45.4
304.381	-73.39
304.595	76.12
304.809	4.44
305.023	-3.75
305.237	131.41
305.452	31.06
305.666	106.84
305.88	98.64
306.094	47.44
306.308	-54.95
306.522	80.21
306.736	24.92
306.95	-36.52
307.164	18.77
307.379	123.22
307.593	47.44
307.807	33.11
308.021	57.68
308.235	22.87
308.449	-7.85
308.663	59.73
308.877	127.32
309.091	24.92
309.305	55.64
309.519	47.44
309.733	49.49
309.947	47.44
310.161	39.25
310.374	88.4
310.588	94.55
310.802	8.53
311.016	55.64
311.23	65.88
311.444	-26.28
311.658	18.77
311.872	0.34
312.085	67.92
312.299	104.79
312.513	53.59
312.727	88.4
312.941	43.35
313.154	110.93
313.368	65.88
313.582	22.87
313.796	29.01
314.009	0.34
314.223	10.58
314.437	37.2
314.651	76.12
314.864	57.68
315.078	57.68
315.292	63.83
315.505	69.97
315.719	78.16
315.933	43.35
316.146	18.77
316.36	22.87
316.573	18.77
316.787	59.73
317.001	106.84
317.214	102.74
317.428	55.64
317.641	82.26
317.855	57.68
318.068	51.54
318.282	33.11
318.495	39.25
318.709	6.49
318.922	12.63
319.136	35.16
319.349	8.53
319.563	90.45
319.776	45.4
319.99	33.11
320.203	41.3
320.417	100.69
320.63	119.12
320.843	143.7
321.057	-36.52
321.27	63.83
321.483	74.07
321.697	104.79
321.91	92.5
322.124	18.77
322.337	98.64
322.55	41.3
322.763	-7.85
322.977	2.39
323.19	-42.67
323.403	41.3
323.617	-7.85
323.83	39.25
324.043	108.88
324.256	61.78
324.469	49.49
324.683	18.77
324.896	24.92
325.109	31.06
325.322	39.25
325.535	41.3
325.748	51.54
325.962	61.78
326.175	31.06
326.388	98.64
326.601	39.25
326.814	49.49
327.027	76.12
327.24	4.44
327.453	90.45
327.666	29.01
327.879	86.36
328.092	72.02
328.305	35.16
328.518	24.92
328.731	82.26
328.944	41.3
329.157	53.59
329.37	20.82
329.583	41.3
329.796	-13.99
330.009	6.49
330.222	90.45
330.435	33.11
330.648	26.96
330.861	74.07
331.073	76.12
331.286	41.3
331.499	-42.67
331.712	0.34
331.925	74.07
332.138	-5.8
332.35	147.8
332.563	2.39
332.776	121.17
332.989	24.92
333.202	-38.57
333.414	-38.57
333.627	26.96
333.84	29.01
334.053	16.73
334.265	53.59
334.478	24.92
334.691	37.2
334.903	4.44
335.116	53.59
335.329	104.79
335.541	-26.28
335.754	33.11
335.966	76.12
336.179	61.78
336.392	10.58
336.604	8.53
336.817	88.4
337.029	76.12
337.242	20.82
337.454	102.74
337.667	45.4
337.88	14.68
338.092	26.96
338.305	72.02
338.517	53.59
338.729	63.83
338.942	59.73
339.154	43.35
339.367	41.3
339.579	67.92
339.792	-36.52
340.004	82.26
340.217	39.25
340.429	39.25
340.641	-26.28
340.854	82.26
341.066	51.54
341.278	72.02
341.491	100.69
341.703	0.34
341.915	39.25
342.128	106.84
342.34	74.07
342.552	59.73
342.764	-9.9
342.977	74.07
343.189	67.92
343.401	-11.95
343.613	14.68
343.826	29.01
344.038	-11.95
344.25	-9.9
344.462	-20.14
344.674	82.26
344.886	82.26
345.099	-16.04
345.311	76.12
345.523	55.64
345.735	6.49
345.947	4.44
346.159	20.82
346.371	31.06
346.583	53.59
346.795	145.75
347.007	72.02
347.219	149.84
347.431	20.82
347.643	65.88
347.855	90.45
348.067	96.6
348.279	117.08
348.491	57.68
348.703	57.68
348.915	86.36
349.127	63.83
349.339	43.35
349.551	55.64
349.763	51.54
349.975	67.92
350.187	106.84
350.399	67.92
350.61	65.88
350.822	6.49
351.034	61.78
351.246	88.4
351.458	82.26
351.669	110.93
351.881	-28.33
352.093	80.21
352.305	47.44
352.517	80.21
352.728	53.59
352.94	98.64
353.152	6.49
353.363	49.49
353.575	131.41
353.787	55.64
353.999	98.64
354.21	51.54
354.422	31.06
354.633	31.06
354.845	108.88
355.057	98.64
355.268	86.36
355.48	37.2
355.692	24.92
355.903	106.84
356.115	-52.91
356.326	41.3
356.538	63.83
356.749	96.6
356.961	59.73
357.172	80.21
357.384	92.5
357.595	76.12
357.807	82.26
358.018	12.63
358.23	82.26
358.441	76.12
358.653	149.84
358.864	43.35
359.075	-5.8
359.287	65.88
359.498	55.64
359.709	96.6
359.921	80.21
360.132	41.3
360.344	43.35
360.555	39.25
360.766	96.6
360.977	125.27
361.189	92.5
361.4	41.3
361.611	80.21
361.823	57.68
362.034	67.92
362.245	-16.04
362.456	69.97
362.667	53.59
362.879	55.64
363.09	115.03
363.301	-5.8
363.512	18.77
363.723	69.97
363.935	43.35
364.146	100.69
364.357	47.44
364.568	33.11
364.779	57.68
364.99	117.08
365.201	123.22
365.412	90.45
365.623	55.64
365.834	4.44
366.045	102.74
366.256	78.16
366.467	16.73
366.678	74.07
366.889	18.77
367.1	98.64
367.311	82.26
367.522	88.4
367.733	4.44
367.944	35.16
368.155	100.69
368.366	115.03
368.577	102.74
368.788	2.39
368.999	18.77
369.209	82.26
369.42	96.6
369.631	135.51
369.842	47.44
370.053	49.49
370.264	127.32
370.474	63.83
370.685	88.4
370.896	106.84
371.107	-5.8
371.317	121.17
371.528	37.2
371.739	117.08
371.95	102.74
372.16	22.87
372.371	-11.95
372.582	67.92
372.792	80.21
373.003	90.45
373.214	61.78
373.424	53.59
373.635	0.34
373.846	98.64
374.056	41.3
374.267	47.44
374.477	92.5
374.688	45.4
374.898	43.35
375.109	49.49
375.319	100.69
375.53	35.16
375.74	90.45
375.951	4.44
376.161	-7.85
376.372	82.26
376.582	72.02
376.793	45.4
377.003	8.53
377.214	39.25
377.424	125.27
377.635	96.6
377.845	-1.71
378.055	59.73
378.266	65.88
378.476	88.4
378.686	55.64
378.897	29.01
379.107	69.97
379.317	57.68
379.528	67.92
379.738	63.83
379.948	94.55
380.158	84.31
380.369	45.4
380.579	33.11
380.789	53.59
380.999	67.92
381.21	31.06
381.42	117.08
381.63	12.63
381.84	110.93
382.05	90.45
382.261	137.56
382.471	141.65
382.681	82.26
382.891	164.18
383.101	39.25
383.311	12.63
383.521	82.26
383.731	57.68
383.941	98.64
384.151	74.07
384.361	10.58
384.571	158.03
384.781	69.97
384.991	86.36
385.201	63.83
385.411	53.59
385.621	39.25
385.831	61.78
386.041	26.96
386.251	80.21
386.461	129.36
386.671	4.44
386.881	98.64
387.091	74.07
387.301	98.64
387.511	112.98
387.72	106.84
387.93	117.08
388.14	94.55
388.35	86.36
388.56	49.49
388.769	18.77
388.979	106.84
389.189	37.2
389.399	86.36
389.609	110.93
389.818	18.77
390.028	18.77
390.238	96.6
390.447	43.35
390.657	51.54
390.867	135.51
391.076	76.12
391.286	16.73
391.496	31.06
391.705	49.49
391.915	115.03
392.125	119.12
392.334	74.07
392.544	90.45
392.753	78.16
392.963	18.77
393.172	98.64
393.382	160.08
393.591	90.45
393.801	106.84
394.01	145.75
394.22	151.89
394.429	59.73
394.639	92.5
394.848	90.45
395.058	110.93
395.267	121.17
395.477	145.75
395.686	151.89
395.895	166.23
396.105	164.18
396.314	98.64
396.524	135.51
396.733	84.31
396.942	90.45
397.152	129.36
397.361	137.56
397.57	192.85
397.78	117.08
397.989	92.5
398.198	188.75
398.407	59.73
398.617	170.32
398.826	106.84
399.035	43.35
399.244	125.27
399.453	112.98
399.663	65.88
399.872	98.64
400.081	143.7
400.29	178.51
400.499	129.36
400.708	151.89
400.917	92.5
401.127	45.4
401.336	155.99
401.545	129.36
401.754	190.8
401.963	176.47
402.172	131.41
402.381	143.7
402.59	106.84
402.799	104.79
403.008	147.8
403.217	207.19
403.426	125.27
403.635	174.42
403.844	125.27
404.053	213.33
404.262	242
404.471	254.29
404.68	213.33
404.888	182.61
405.097	121.17
405.306	196.95
405.515	225.62
405.724	278.87
405.933	194.9
406.142	217.43
406.35	299.34
406.559	260.43
406.768	221.52
406.977	244.05
407.185	260.43
407.394	231.76
407.603	268.63
407.812	258.39
408.02	319.82
408.229	250.19
408.438	221.52
408.646	346.45
408.855	323.92
409.064	356.69
409.272	340.3
409.481	364.88
409.69	416.08
409.898	401.74
410.107	368.98
410.315	457.04
410.524	409.94
410.733	346.45
410.941	454.99
411.15	483.66
411.358	426.32
411.567	444.75
411.775	514.38
411.984	538.96
412.192	637.26
412.401	541.01
412.609	555.34
412.818	694.6
413.026	577.87
413.234	604.49
413.443	700.75
413.651	729.42
413.86	690.51
414.068	790.86
414.276	753.99
414.485	895.3
414.693	821.58
414.901	852.3
415.11	995.65
415.318	899.4
415.526	932.17
415.734	923.98
415.943	885.06
416.151	1055.05
416.359	1034.57
416.567	1026.37
416.776	1186.12
416.984	1218.88
417.192	1284.42
417.4	1313.09
417.608	1288.51
417.817	1268.03
418.025	1380.67
418.233	1495.36
418.441	1515.84
418.649	1499.45
418.857	1681.72
419.065	1685.82
419.273	1661.24
419.481	1814.84
419.689	1876.28
419.897	2001.21
420.105	2060.6
420.313	2140.47
420.521	2087.22
420.729	2126.13
420.937	2163
421.145	2324.79
421.353	2369.84
421.561	2609.45
421.769	2507.06
421.977	2556.21
422.185	2709.8
422.393	2761
422.601	3012.9
422.809	2998.57
423.017	3004.71
423.224	3170.6
423.432	3326.24
423.64	3320.1
423.848	3561.76
424.056	3473.7
424.263	3762.46
424.471	3883.29
424.679	3834.14
424.887	4000.02
425.094	4233.49
425.302	4210.97
425.51	4389.14
425.718	4436.24
425.925	4428.05
426.133	4643.09
426.341	4901.13
426.548	5177.61
426.756	5232.9
426.964	5304.58
427.171	5523.71
427.379	5689.6
427.586	5830.91
427.794	5898.49
428.001	6295.8
428.209	6523.12
428.417	6406.39
428.624	6885.61
428.832	6867.18
429.039	6969.58
429.247	6803.69
429.454	7583.97
429.662	7997.66
429.869	7504.1
430.076	8034.52
430.284	7753.95
430.491	8009.95
430.699	8536.28
430.906	8610
431.114	8743.12
431.321	9259.21
431.528	9267.4
431.736	9726.14
431.943	10031.29
432.15	10033.34
432.358	10152.12
432.565	10893.49
432.772	10807.47
432.979	11223.21
433.187	11313.32
433.394	11315.37
433.601	12159.13
433.808	12462.23
434.016	12064.93
434.223	12716.18
434.43	13547.65
434.637	13095.05
434.844	14051.45
435.052	14303.36
435.259	14260.35
435.466	14358.65
435.673	14135.42
435.88	14938.23
436.087	15693.93
436.294	15958.11
436.501	15638.63
436.708	16025.7
436.915	16568.41
437.122	17295.44
437.329	17117.26
437.537	17856.58
437.743	18018.37
437.95	17784.9
438.157	18866.23
438.364	19509.29
438.571	19417.13
438.778	19439.66
438.985	21041.17
439.192	20246.56
439.399	21075.99
439.606	20678.68
439.813	21907.46
440.02	23306.23
440.227	22843.38
440.433	22700.03
440.64	23197.68
440.847	23023.61
441.054	23646.19
441.261	25352.15
441.467	25055.19
441.674	25499.6
441.881	26269.64
442.088	26392.51
442.294	26038.22
442.501	26933.18
442.708	27584.43
442.914	28575.65
443.121	29620.11
443.328	28866.46
443.534	31080.32
443.741	29972.36
443.948	29337.49
444.154	31944.56
444.361	31520.63
444.568	31858.54
444.774	31962.99
444.981	32182.12
445.187	32970.59
445.394	34651.97
445.6	34023.25
445.807	37590.81
446.013	35766.07
446.22	36214.57
446.426	37865.24
446.633	37916.43
446.839	39472.89
447.046	37615.38
447.252	39819
447.459	39954.16
447.665	39739.13
447.871	41367.26
448.078	42981.06
448.284	41064.16
448.491	41914.07
448.697	43767.48
448.903	44453.55
449.11	44697.26
449.316	44099.25
449.522	44834.47
449.728	45794.97
449.935	46059.16
450.141	45749.92
450.347	47015.56
450.553	45768.35
450.76	46210.71
450.966	47672.96
451.172	46972.55
451.378	48002.68
451.584	47228.55
451.791	48201.33
451.997	47834.75
452.203	48752.24
452.409	48858.73
452.615	48586.35
452.821	46720.65
453.027	46542.48
453.233	48451.19
453.44	46886.54
453.646	47175.3
453.852	47042.18
454.058	48512.63
454.264	46749.32
454.47	47519.36
454.676	46208.66
454.882	48035.45
455.088	43939.51
455.294	44492.46
455.5	44873.38
455.705	45194.92
455.911	43828.92
456.117	42829.51
456.323	42270.42
456.529	39880.44
456.735	41819.86
456.941	40701.67
457.147	40023.79
457.352	38688.52
457.558	38350.6
457.764	38295.31
457.97	37736.21
458.176	36701.99
458.381	36794.15
458.587	34934.59
458.793	34957.12
458.999	33089.37
459.204	35684.15
459.41	34293.58
459.616	32253.8
459.821	32190.31
460.027	32329.58
460.233	31401.85
460.438	29947.79
460.644	30056.33
460.85	28735.39
461.055	28256.17
461.261	28293.03
461.466	26124.23
461.672	25446.35
461.878	27365.3
462.083	25522.13
462.289	24940.5
462.494	24334.31
462.7	23599.09
462.905	23023.61
463.111	23631.85
463.316	23654.38
463.522	23250.93
463.727	23187.44
463.932	23109.62
464.138	22921.21
464.343	23336.95
464.549	22568.96
464.754	23291.89
464.959	22980.6
465.165	22740.99
465.37	22001.67
465.575	21219.35
465.781	22124.55
465.986	22003.72
466.191	21428.24
466.397	21092.37
466.602	19886.12
466.807	21022.74
467.012	20461.6
467.218	20535.32
467.423	20357.15
