Data from USB4F104151__85__12-02-16-985.txt Node

Date: Fri Mar 14 12:02:16 EDT 2025
User: louis
Spectrometer: USB4F10415
Trigger mode: 4
Integration Time (sec): 2.000000E-2
Scans to average: 1
Electric dark correction enabled: true
Nonlinearity correction enabled: false
Boxcar width: 0
XAxis mode: Wavelengths
Number of Pixels in Spectrum: 3648
>>>>>Begin Spectral Data<<<<<
178.204	-115.2
178.424	-115.2
178.644	-115.2
178.864	-88.57
179.084	-61.95
179.304	-47.62
179.524	79.36
179.744	17.92
179.964	-10.75
180.184	-29.18
180.404	-14.85
180.624	15.87
180.844	67.07
181.064	-43.52
181.283	-6.66
181.503	-37.38
181.723	9.73
181.943	-29.18
182.163	30.21
182.383	67.07
182.602	28.16
182.822	-6.66
183.042	22.02
183.262	-16.9
183.482	40.45
183.701	73.21
183.921	73.21
184.141	5.63
184.361	-6.66
184.58	19.97
184.8	-10.75
185.02	65.02
185.239	13.82
185.459	-2.56
185.679	11.78
185.898	-41.47
186.118	97.79
186.338	26.11
186.557	67.07
186.777	9.73
186.997	5.63
187.216	40.45
187.436	91.65
187.655	28.16
187.875	56.83
188.095	52.74
188.314	34.3
188.534	-4.61
188.753	50.69
188.973	34.3
189.192	85.5
189.412	15.87
189.631	19.97
189.851	48.64
190.07	79.36
190.29	75.26
190.509	24.06
190.729	-59.9
190.948	108.03
191.168	110.08
191.387	40.45
191.607	95.74
191.826	5.63
192.045	36.35
192.265	28.16
192.484	87.55
192.704	-6.66
192.923	-23.04
193.142	81.41
193.362	-64
193.581	36.35
193.8	-4.61
194.02	1.54
194.239	26.11
194.458	30.21
194.678	7.68
194.897	30.21
195.116	52.74
195.335	56.83
195.555	40.45
195.774	-0.51
195.993	75.26
196.212	34.3
196.432	17.92
196.651	48.64
196.87	69.12
197.089	91.65
197.308	17.92
197.528	3.58
197.747	38.4
197.966	-18.94
198.185	15.87
198.404	67.07
198.623	85.5
198.842	11.78
199.062	34.3
199.281	73.21
199.5	-4.61
199.719	-53.76
199.938	79.36
200.157	52.74
200.376	-53.76
200.595	36.35
200.814	71.17
201.033	-0.51
201.252	32.26
201.471	71.17
201.69	15.87
201.909	34.3
202.128	75.26
202.347	54.78
202.566	52.74
202.785	1.54
203.004	5.63
203.223	87.55
203.442	58.88
203.661	7.68
203.879	79.36
204.098	48.64
204.317	34.3
204.536	77.31
204.755	52.74
204.974	32.26
205.193	-33.28
205.411	103.93
205.63	-12.8
205.849	40.45
206.068	87.55
206.287	42.5
206.505	58.88
206.724	22.02
206.943	60.93
207.162	77.31
207.381	32.26
207.599	93.69
207.818	87.55
208.037	75.26
208.255	34.3
208.474	-29.18
208.693	54.78
208.911	40.45
209.13	-2.56
209.349	-0.51
209.567	85.5
209.786	48.64
210.005	62.98
210.223	73.21
210.442	48.64
210.661	54.78
210.879	79.36
211.098	5.63
211.316	34.3
211.535	65.02
211.753	46.59
211.972	91.65
212.191	50.69
212.409	58.88
212.628	85.5
212.846	11.78
213.065	118.27
213.283	99.84
213.502	-16.9
213.72	67.07
213.938	71.17
214.157	46.59
214.375	30.21
214.594	36.35
214.812	13.82
215.031	-2.56
215.249	30.21
215.467	40.45
215.686	44.54
215.904	81.41
216.122	-29.18
216.341	99.84
216.559	60.93
216.778	122.37
216.996	54.78
217.214	7.68
217.432	19.97
217.651	46.59
217.869	24.06
218.087	52.74
218.306	5.63
218.524	9.73
218.742	-25.09
218.96	30.21
219.179	26.11
219.397	65.02
219.615	81.41
219.833	56.83
220.051	15.87
220.27	-23.04
220.488	38.4
220.706	67.07
220.924	24.06
221.142	38.4
221.36	-47.62
221.578	36.35
221.796	-6.66
222.015	11.78
222.233	91.65
222.451	56.83
222.669	-6.66
222.887	75.26
223.105	32.26
223.323	26.11
223.541	15.87
223.759	97.79
223.977	-8.7
224.195	-4.61
224.413	19.97
224.631	26.11
224.849	69.12
225.067	142.85
225.285	7.68
225.503	1.54
225.721	-4.61
225.939	38.4
226.157	77.31
226.375	54.78
226.592	46.59
226.81	38.4
227.028	36.35
227.246	62.98
227.464	52.74
227.682	60.93
227.9	62.98
228.117	40.45
228.335	75.26
228.553	7.68
228.771	-8.7
228.989	112.13
229.206	75.26
229.424	13.82
229.642	17.92
229.86	-0.51
230.077	26.11
230.295	1.54
230.513	-12.8
230.731	67.07
230.948	79.36
231.166	132.61
231.384	58.88
231.601	40.45
231.819	19.97
232.037	62.98
232.254	11.78
232.472	-0.51
232.689	26.11
232.907	24.06
233.125	-12.8
233.342	54.78
233.56	11.78
233.777	60.93
233.995	108.03
234.213	32.26
234.43	60.93
234.648	28.16
234.865	34.3
235.083	46.59
235.3	105.98
235.518	-33.28
235.735	26.11
235.953	46.59
236.17	77.31
236.388	22.02
236.605	19.97
236.822	54.78
237.04	5.63
237.257	26.11
237.475	105.98
237.692	-2.56
237.909	97.79
238.127	62.98
238.344	79.36
238.562	50.69
238.779	22.02
238.996	38.4
239.214	-25.09
239.431	99.84
239.648	-6.66
239.865	79.36
240.083	60.93
240.3	-23.04
240.517	-23.04
240.735	99.84
240.952	85.5
241.169	48.64
241.386	62.98
241.603	48.64
241.821	36.35
242.038	5.63
242.255	24.06
242.472	69.12
242.689	-12.8
242.907	77.31
243.124	99.84
243.341	81.41
243.558	-47.62
243.775	15.87
243.992	-96.77
244.209	46.59
244.426	56.83
244.643	89.6
244.86	22.02
245.078	79.36
245.295	-10.75
245.512	44.54
245.729	-6.66
245.946	91.65
246.163	-10.75
246.38	15.87
246.597	11.78
246.814	5.63
247.031	65.02
247.248	89.6
247.464	34.3
247.681	-25.09
247.898	22.02
248.115	58.88
248.332	5.63
248.549	36.35
248.766	194.05
248.983	120.32
249.2	38.4
249.417	108.03
249.633	-57.86
249.85	24.06
250.067	32.26
250.284	32.26
250.501	32.26
250.717	120.32
250.934	46.59
251.151	60.93
251.368	79.36
251.585	13.82
251.801	7.68
252.018	73.21
252.235	26.11
252.451	7.68
252.668	-31.23
252.885	7.68
253.102	7.68
253.318	-31.23
253.535	30.21
253.752	44.54
253.968	36.35
254.185	-20.99
254.401	9.73
254.618	32.26
254.835	-0.51
255.051	24.06
255.268	36.35
255.484	40.45
255.701	40.45
255.917	69.12
256.134	67.07
256.351	118.27
256.567	-33.28
256.784	48.64
257	38.4
257.217	40.45
257.433	97.79
257.65	19.97
257.866	69.12
258.082	75.26
258.299	-43.52
258.515	17.92
258.732	-2.56
258.948	24.06
259.165	13.82
259.381	30.21
259.597	38.4
259.814	75.26
260.03	50.69
260.246	-33.28
260.463	48.64
260.679	44.54
260.895	32.26
261.112	60.93
261.328	58.88
261.544	-10.75
261.761	54.78
261.977	-43.52
262.193	13.82
262.409	7.68
262.626	50.69
262.842	32.26
263.058	-14.85
263.274	11.78
263.49	38.4
263.707	81.41
263.923	30.21
264.139	38.4
264.355	28.16
264.571	52.74
264.787	17.92
265.004	67.07
265.22	46.59
265.436	34.3
265.652	62.98
265.868	36.35
266.084	-4.61
266.3	93.69
266.516	13.82
266.732	83.45
266.948	44.54
267.164	40.45
267.38	34.3
267.596	15.87
267.812	5.63
268.028	58.88
268.244	19.97
268.46	60.93
268.676	54.78
268.892	71.17
269.108	122.37
269.324	67.07
269.54	32.26
269.756	26.11
269.972	-14.85
270.188	69.12
270.403	19.97
270.619	15.87
270.835	-12.8
271.051	-0.51
271.267	-45.57
271.483	44.54
271.698	36.35
271.914	-2.56
272.13	24.06
272.346	36.35
272.562	26.11
272.777	50.69
272.993	116.22
273.209	32.26
273.425	67.07
273.64	50.69
273.856	36.35
274.072	-25.09
274.287	-12.8
274.503	36.35
274.719	71.17
274.934	65.02
275.15	9.73
275.366	30.21
275.581	81.41
275.797	52.74
276.012	116.22
276.228	56.83
276.444	36.35
276.659	56.83
276.875	-14.85
277.09	73.21
277.306	60.93
277.521	77.31
277.737	17.92
277.952	28.16
278.168	-6.66
278.383	52.74
278.599	-2.56
278.814	134.65
279.03	5.63
279.245	134.65
279.461	-31.23
279.676	32.26
279.892	99.84
280.107	11.78
280.322	15.87
280.538	17.92
280.753	-4.61
280.969	62.98
281.184	44.54
281.399	71.17
281.615	-16.9
281.83	71.17
282.045	42.5
282.26	36.35
282.476	-37.38
282.691	36.35
282.906	85.5
283.122	73.21
283.337	48.64
283.552	58.88
283.767	-10.75
283.983	46.59
284.198	36.35
284.413	38.4
284.628	3.58
284.843	60.93
285.058	56.83
285.274	34.3
285.489	58.88
285.704	1.54
285.919	38.4
286.134	-18.94
286.349	52.74
286.564	48.64
286.779	62.98
286.995	42.5
287.21	19.97
287.425	69.12
287.64	32.26
287.855	30.21
288.07	50.69
288.285	103.93
288.5	26.11
288.715	155.13
288.93	71.17
289.145	26.11
289.36	91.65
289.575	93.69
289.79	52.74
290.004	146.94
290.219	46.59
290.434	17.92
290.649	30.21
290.864	-4.61
291.079	24.06
291.294	87.55
291.509	71.17
291.724	71.17
291.938	48.64
292.153	71.17
292.368	46.59
292.583	48.64
292.798	28.16
293.012	11.78
293.227	62.98
293.442	58.88
293.657	46.59
293.871	89.6
294.086	17.92
294.301	46.59
294.516	-14.85
294.73	11.78
294.945	-14.85
295.16	118.27
295.374	34.3
295.589	71.17
295.804	126.46
296.018	69.12
296.233	52.74
296.447	36.35
296.662	32.26
296.877	138.75
297.091	159.23
297.306	40.45
297.52	77.31
297.735	118.27
297.949	17.92
298.164	83.45
298.378	50.69
298.593	9.73
298.807	1.54
299.022	-0.51
299.236	54.78
299.451	101.89
299.665	5.63
299.88	1.54
300.094	32.26
300.309	30.21
300.523	116.22
300.737	77.31
300.952	22.02
301.166	93.69
301.381	40.45
301.595	-64
301.809	46.59
302.024	101.89
302.238	-2.56
302.452	42.5
302.667	26.11
302.881	30.21
303.095	7.68
303.309	40.45
303.524	65.02
303.738	24.06
303.952	54.78
304.166	116.22
304.381	5.63
304.595	89.6
304.809	13.82
305.023	77.31
305.237	13.82
305.452	79.36
305.666	71.17
305.88	44.54
306.094	56.83
306.308	28.16
306.522	67.07
306.736	44.54
306.95	85.5
307.164	77.31
307.379	87.55
307.593	120.32
307.807	46.59
308.021	38.4
308.235	142.85
308.449	-25.09
308.663	42.5
308.877	38.4
309.091	48.64
309.305	110.08
309.519	24.06
309.733	114.17
309.947	46.59
310.161	83.45
310.374	83.45
310.588	-0.51
310.802	28.16
311.016	60.93
311.23	-8.7
311.444	-10.75
311.658	73.21
311.872	95.74
312.085	54.78
312.299	60.93
312.513	40.45
312.727	77.31
312.941	3.58
313.154	54.78
313.368	38.4
313.582	93.69
313.796	26.11
314.009	91.65
314.223	91.65
314.437	87.55
314.651	24.06
314.864	44.54
315.078	34.3
315.292	83.45
315.505	62.98
315.719	81.41
315.933	58.88
316.146	62.98
316.36	-47.62
316.573	65.02
316.787	3.58
317.001	69.12
317.214	32.26
317.428	105.98
317.641	22.02
317.855	103.93
318.068	-14.85
318.282	24.06
318.495	128.51
318.709	87.55
318.922	67.07
319.136	118.27
319.349	46.59
319.563	40.45
319.776	42.5
319.99	7.68
320.203	48.64
320.417	79.36
320.63	5.63
320.843	91.65
321.057	22.02
321.27	-12.8
321.483	79.36
321.697	79.36
321.91	73.21
322.124	67.07
322.337	42.5
322.55	-47.62
322.763	83.45
322.977	62.98
323.19	34.3
323.403	69.12
323.617	46.59
323.83	79.36
324.043	-12.8
324.256	114.17
324.469	30.21
324.683	132.61
324.896	-0.51
325.109	9.73
325.322	42.5
325.535	3.58
325.748	60.93
325.962	54.78
326.175	42.5
326.388	99.84
326.601	54.78
326.814	62.98
327.027	46.59
327.24	69.12
327.453	11.78
327.666	62.98
327.879	89.6
328.092	81.41
328.305	15.87
328.518	24.06
328.731	11.78
328.944	48.64
329.157	75.26
329.37	81.41
329.583	91.65
329.796	142.85
330.009	32.26
330.222	30.21
330.435	99.84
330.648	11.78
330.861	99.84
331.073	85.5
331.286	30.21
331.499	46.59
331.712	-12.8
331.925	34.3
332.138	-12.8
332.35	99.84
332.563	30.21
332.776	11.78
332.989	114.17
333.202	69.12
333.414	142.85
333.627	83.45
333.84	-10.75
334.053	19.97
334.265	7.68
334.478	97.79
334.691	105.98
334.903	97.79
335.116	44.54
335.329	40.45
335.541	77.31
335.754	126.46
335.966	3.58
336.179	67.07
336.392	40.45
336.604	9.73
336.817	7.68
337.029	60.93
337.242	50.69
337.454	91.65
337.667	101.89
337.88	118.27
338.092	48.64
338.305	138.75
338.517	7.68
338.729	42.5
338.942	36.35
339.154	9.73
339.367	67.07
339.579	105.98
339.792	38.4
340.004	42.5
340.217	79.36
340.429	58.88
340.641	91.65
340.854	34.3
341.066	13.82
341.278	48.64
341.491	126.46
341.703	56.83
341.915	87.55
342.128	87.55
342.34	91.65
342.552	22.02
342.764	-8.7
342.977	105.98
343.189	136.7
343.401	50.69
343.613	116.22
343.826	120.32
344.038	-23.04
344.25	13.82
344.462	24.06
344.674	28.16
344.886	34.3
345.099	81.41
345.311	132.61
345.523	71.17
345.735	13.82
345.947	13.82
346.159	60.93
346.371	71.17
346.583	-23.04
346.795	44.54
347.007	62.98
347.219	58.88
347.431	52.74
347.643	136.7
347.855	69.12
348.067	132.61
348.279	32.26
348.491	83.45
348.703	93.69
348.915	50.69
349.127	67.07
349.339	116.22
349.551	91.65
349.763	75.26
349.975	48.64
350.187	71.17
350.399	65.02
350.61	95.74
350.822	15.87
351.034	46.59
351.246	46.59
351.458	54.78
351.669	38.4
351.881	75.26
352.093	32.26
352.305	34.3
352.517	48.64
352.728	22.02
352.94	79.36
353.152	-8.7
353.363	48.64
353.575	40.45
353.787	93.69
353.999	-43.52
354.21	101.89
354.422	-2.56
354.633	36.35
354.845	46.59
355.057	52.74
355.268	83.45
355.48	28.16
355.692	54.78
355.903	36.35
356.115	108.03
356.326	58.88
356.538	56.83
356.749	126.46
356.961	95.74
357.172	65.02
357.384	40.45
357.595	122.37
357.807	132.61
358.018	-14.85
358.23	40.45
358.441	26.11
358.653	69.12
358.864	83.45
359.075	42.5
359.287	48.64
359.498	62.98
359.709	36.35
359.921	83.45
360.132	-0.51
360.344	60.93
360.555	7.68
360.766	99.84
360.977	17.92
361.189	69.12
361.4	50.69
361.611	79.36
361.823	142.85
362.034	65.02
362.245	56.83
362.456	5.63
362.667	95.74
362.879	103.93
363.09	48.64
363.301	155.13
363.512	-23.04
363.723	50.69
363.935	9.73
364.146	93.69
364.357	34.3
364.568	85.5
364.779	42.5
364.99	101.89
365.201	60.93
365.412	52.74
365.623	36.35
365.834	146.94
366.045	40.45
366.256	81.41
366.467	83.45
366.678	97.79
366.889	112.13
367.1	101.89
367.311	60.93
367.522	75.26
367.733	79.36
367.944	91.65
368.155	46.59
368.366	93.69
368.577	112.13
368.788	103.93
368.999	11.78
369.209	79.36
369.42	99.84
369.631	99.84
369.842	24.06
370.053	34.3
370.264	79.36
370.474	140.8
370.685	17.92
370.896	50.69
371.107	9.73
371.317	167.42
371.528	89.6
371.739	105.98
371.95	83.45
372.16	42.5
372.371	48.64
372.582	58.88
372.792	122.37
373.003	103.93
373.214	58.88
373.424	46.59
373.635	32.26
373.846	93.69
374.056	99.84
374.267	65.02
374.477	32.26
374.688	97.79
374.898	58.88
375.109	56.83
375.319	85.5
375.53	26.11
375.74	42.5
375.951	46.59
376.161	93.69
376.372	36.35
376.582	79.36
376.793	60.93
377.003	134.65
377.214	87.55
377.424	34.3
377.635	79.36
377.845	44.54
378.055	142.85
378.266	54.78
378.476	171.52
378.686	58.88
378.897	52.74
379.107	77.31
379.317	44.54
379.528	83.45
379.738	79.36
379.948	73.21
380.158	38.4
380.369	157.18
380.579	101.89
380.789	40.45
380.999	148.99
381.21	165.37
381.42	85.5
381.63	36.35
381.84	83.45
382.05	60.93
382.261	161.28
382.471	140.8
382.681	116.22
382.891	105.98
383.101	93.69
383.311	17.92
383.521	103.93
383.731	44.54
383.941	148.99
384.151	28.16
384.361	48.64
384.571	42.5
384.781	120.32
384.991	112.13
385.201	58.88
385.411	79.36
385.621	-8.7
385.831	124.41
386.041	62.98
386.251	26.11
386.461	114.17
386.671	101.89
386.881	62.98
387.091	5.63
387.301	89.6
387.511	50.69
387.72	101.89
387.93	132.61
388.14	62.98
388.35	85.5
388.56	116.22
388.769	89.6
388.979	105.98
389.189	67.07
389.399	83.45
389.609	54.78
389.818	148.99
390.028	99.84
390.238	138.75
390.447	77.31
390.657	120.32
390.867	122.37
391.076	30.21
391.286	95.74
391.496	65.02
391.705	67.07
391.915	151.04
392.125	112.13
392.334	103.93
392.544	71.17
392.753	91.65
392.963	44.54
393.172	161.28
393.382	89.6
393.591	95.74
393.801	81.41
394.01	95.74
394.22	91.65
394.429	151.04
394.639	17.92
394.848	85.5
395.058	73.21
395.267	85.5
395.477	103.93
395.686	91.65
395.895	67.07
396.105	142.85
396.314	151.04
396.524	126.46
396.733	99.84
396.942	140.8
397.152	146.94
397.361	69.12
397.57	153.09
397.78	116.22
397.989	155.13
398.198	265.72
398.407	126.46
398.617	144.89
398.826	175.61
399.035	148.99
399.244	136.7
399.453	112.13
399.663	140.8
399.872	163.33
400.081	167.42
400.29	153.09
400.499	132.61
400.708	153.09
400.917	183.81
401.127	103.93
401.336	134.65
401.545	144.89
401.754	124.41
401.963	230.91
402.172	175.61
402.381	50.69
402.59	177.66
402.799	196.09
403.008	202.24
403.217	206.33
403.426	230.91
403.635	153.09
403.844	165.37
404.053	194.05
404.262	159.23
404.471	226.81
404.68	206.33
404.888	204.28
405.097	216.57
405.306	189.95
405.515	216.57
405.724	271.87
405.933	255.48
406.142	198.14
406.35	206.33
406.559	204.28
406.768	314.88
406.977	222.72
407.185	286.2
407.394	321.02
407.603	302.59
407.812	273.92
408.02	355.83
408.229	314.88
408.438	343.55
408.646	337.4
408.855	296.44
409.064	333.31
409.272	343.55
409.481	359.93
409.69	353.79
409.898	357.88
410.107	419.32
410.315	386.55
410.524	458.23
410.733	462.33
410.941	452.09
411.15	511.48
411.358	497.14
411.567	585.21
411.775	503.29
411.984	544.25
412.192	609.78
412.401	597.49
412.609	716.28
412.818	679.41
413.026	685.56
413.234	763.38
413.443	738.8
413.651	738.8
413.86	865.78
414.068	910.83
414.276	853.49
414.485	933.36
414.693	878.07
414.901	1021.42
415.11	1017.33
415.318	921.07
415.526	1019.38
415.734	1134.06
415.943	1129.97
416.151	1201.65
416.359	1140.21
416.567	1291.76
416.776	1166.83
416.984	1336.81
417.192	1367.53
417.4	1445.35
417.608	1422.83
417.817	1486.31
418.025	1541.61
418.233	1670.63
418.441	1644.01
418.649	1695.21
418.857	1809.89
419.065	1875.43
419.273	1988.07
419.481	1846.76
419.689	2121.18
419.897	2289.12
420.105	2252.25
420.313	2237.92
420.521	2381.28
420.729	2325.98
420.937	2553.31
421.145	2502.11
421.353	2659.8
421.561	2799.06
421.769	2840.02
421.977	2991.57
422.185	2866.64
422.393	3085.78
422.601	3245.52
422.809	3440.08
423.017	3231.18
423.224	3452.36
423.432	3737.03
423.64	3573.19
423.848	3902.92
424.056	3743.17
424.263	4181.44
424.471	4048.32
424.679	4117.95
424.887	4423.1
425.094	4591.03
425.302	4617.66
425.51	4783.54
425.718	4744.63
425.925	4982.2
426.133	5100.98
426.341	5346.73
426.548	5666.22
426.756	5828.01
426.964	5840.29
427.171	6055.33
427.379	6296.99
427.586	6192.55
427.794	6684.06
428.001	6921.62
428.209	7423.37
428.417	7097.75
428.624	7558.54
428.832	7546.25
429.039	7458.19
429.247	7507.34
429.454	8304
429.662	8588.67
429.869	8213.89
430.076	8932.73
430.284	8502.65
430.491	8852.86
430.699	9321.84
430.906	9495.92
431.114	9471.34
431.321	9887.08
431.528	10059.11
431.736	10786.14
431.943	11177.3
432.15	10982.74
432.358	11062.62
432.565	11545.94
432.772	11595.09
432.979	12244.29
433.187	12520.77
433.394	12481.86
433.601	13176.12
433.808	13178.17
434.016	13276.47
434.223	13874.48
434.43	14636.32
434.637	14310.69
434.844	15222.04
435.052	15770.9
435.259	15660.31
435.466	15500.56
435.673	15453.46
435.88	16502.02
436.087	17102.08
436.294	17304.82
436.501	17083.64
436.708	17136.89
436.915	17712.37
437.122	18742.5
437.329	18423.01
437.537	19244.25
437.743	19516.63
437.95	19510.49
438.157	20321.48
438.364	21132.48
438.571	20935.87
438.778	20987.07
438.985	23342.24
439.192	22158.51
439.399	22672.55
439.606	22389.93
439.813	23696.53
440.02	25162.88
440.227	24390.8
440.433	24683.66
440.64	25232.51
440.847	25300.09
441.054	25322.62
441.261	27083.87
441.467	26713.19
441.674	27919.45
441.881	28451.92
442.088	28124.24
442.294	28273.74
442.501	29084.74
442.708	29572.16
442.914	30704.68
443.121	32228.37
443.328	31204.39
443.534	33098.76
443.741	31917.08
443.948	32009.24
444.154	34016.25
444.361	33676.29
444.568	34229.24
444.774	34423.79
444.981	34448.37
445.187	35308.52
445.394	36707.28
445.6	36891.6
445.807	39578.53
446.013	38140.86
446.22	39205.8
446.426	40342.42
446.633	40569.75
446.839	42021.76
447.046	40491.93
447.252	42847.09
447.459	42814.32
447.665	42255.23
447.871	44299.1
448.078	46338.88
448.284	44176.22
448.491	45472.59
448.697	46975.8
448.903	47586.09
449.11	47625
449.316	46936.88
449.522	48180
449.728	48841.49
449.935	49181.46
450.141	49228.56
450.347	50150.15
450.553	48919.32
450.76	49404.69
450.966	51071.73
451.172	50391.81
451.378	51591.92
451.584	50506.49
451.791	51362.54
451.997	51147.51
452.203	52605.66
452.409	52644.57
452.615	52128.48
452.821	50705.15
453.027	49990.41
453.233	52370.14
453.44	50062.08
453.646	50785.02
453.852	50987.77
454.058	51608.3
454.264	49740.55
454.47	51069.68
454.676	50094.85
454.882	51641.07
455.088	47016.75
455.294	47629.1
455.5	48130.85
455.705	49027.86
455.911	47188.78
456.117	46465.85
456.323	45353.8
456.529	43094.89
456.735	45189.97
456.941	43631.46
457.147	43225.96
457.352	41952.13
457.558	41493.38
457.764	41206.67
457.97	40653.72
458.176	39646.12
458.381	40063.9
458.587	37733.31
458.793	37854.14
458.999	35974.11
459.204	38587.32
459.41	37188.55
459.616	34913.26
459.821	35042.28
460.027	34683.89
460.233	33860.6
460.438	32281.62
460.644	32961.55
460.85	31501.34
461.055	30868.52
461.261	30520.37
461.466	28609.61
461.672	27569.24
461.878	29719.61
462.083	27407.45
462.289	26821.73
462.494	26709.1
462.7	25656.44
462.905	25119.87
463.111	25947.25
463.316	25994.36
463.522	25334.91
463.727	25439.36
463.932	24970.37
464.138	25132.16
464.343	24902.79
464.549	24257.68
464.754	25160.83
464.959	25201.79
465.165	25107.58
465.37	23612.57
465.575	23030.94
465.781	24136.85
465.986	24392.84
466.191	23405.72
466.397	22383.79
466.602	21638.33
466.807	22740.13
467.012	22639.78
467.218	22617.25
