Data from USB4F104151__45__12-00-55-929.txt Node

Date: Fri Mar 14 12:00:55 EDT 2025
User: louis
Spectrometer: USB4F10415
Trigger mode: 4
Integration Time (sec): 2.000000E-2
Scans to average: 1
Electric dark correction enabled: true
Nonlinearity correction enabled: false
Boxcar width: 0
XAxis mode: Wavelengths
Number of Pixels in Spectrum: 3648
>>>>>Begin Spectral Data<<<<<
178.204	-49.66
178.424	-49.66
178.644	-49.66
178.864	-158.21
179.084	-51.71
179.304	-12.8
179.524	38.4
179.744	7.68
179.964	-10.75
180.184	62.98
180.404	-72.19
180.624	-20.99
180.844	-10.75
181.064	28.16
181.283	-66.05
181.503	22.02
181.723	34.3
181.943	-37.38
182.163	-23.04
182.383	17.92
182.602	15.87
182.822	28.16
183.042	-0.51
183.262	-0.51
183.482	-23.04
183.701	11.78
183.921	1.54
184.141	-23.04
184.361	28.16
184.58	-37.38
184.8	-6.66
185.02	48.64
185.239	36.35
185.459	-16.9
185.679	24.06
185.898	65.02
186.118	36.35
186.338	-18.94
186.557	-14.85
186.777	54.78
186.997	22.02
187.216	38.4
187.436	83.45
187.655	36.35
187.875	36.35
188.095	-16.9
188.314	56.83
188.534	50.69
188.753	-18.94
188.973	38.4
189.192	28.16
189.412	44.54
189.631	-4.61
189.851	71.17
190.07	28.16
190.29	-39.42
190.509	42.5
190.729	3.58
190.948	19.97
191.168	60.93
191.387	7.68
191.607	-47.62
191.826	-27.14
192.045	46.59
192.265	40.45
192.484	-31.23
192.704	13.82
192.923	-4.61
193.142	69.12
193.362	32.26
193.581	-49.66
193.8	42.5
194.02	-12.8
194.239	32.26
194.458	-20.99
194.678	-4.61
194.897	87.55
195.116	5.63
195.335	24.06
195.555	15.87
195.774	-0.51
195.993	-18.94
196.212	-8.7
196.432	15.87
196.651	36.35
196.87	-25.09
197.089	-16.9
197.308	32.26
197.528	32.26
197.747	-66.05
197.966	-0.51
198.185	50.69
198.404	-4.61
198.623	60.93
198.842	50.69
199.062	54.78
199.281	32.26
199.5	-35.33
199.719	7.68
199.938	26.11
200.157	44.54
200.376	-20.99
200.595	15.87
200.814	9.73
201.033	1.54
201.252	13.82
201.471	17.92
201.69	-86.53
201.909	3.58
202.128	38.4
202.347	-16.9
202.566	-51.71
202.785	81.41
203.004	67.07
203.223	67.07
203.442	-92.67
203.661	7.68
203.879	15.87
204.098	22.02
204.317	-12.8
204.536	42.5
204.755	44.54
204.974	75.26
205.193	50.69
205.411	58.88
205.63	5.63
205.849	-4.61
206.068	95.74
206.287	-2.56
206.505	77.31
206.724	60.93
206.943	-59.9
207.162	-51.71
207.381	9.73
207.599	3.58
207.818	28.16
208.037	38.4
208.255	54.78
208.474	13.82
208.693	-12.8
208.911	-12.8
209.13	-51.71
209.349	-12.8
209.567	26.11
209.786	87.55
210.005	56.83
210.223	34.3
210.442	-16.9
210.661	62.98
210.879	81.41
211.098	-37.38
211.316	-0.51
211.535	28.16
211.753	52.74
211.972	19.97
212.191	-25.09
212.409	22.02
212.628	7.68
212.846	-25.09
213.065	19.97
213.283	15.87
213.502	-6.66
213.72	9.73
213.938	-2.56
214.157	13.82
214.375	48.64
214.594	-55.81
214.812	32.26
215.031	28.16
215.249	-78.33
215.467	28.16
215.686	-47.62
215.904	48.64
216.122	-2.56
216.341	-14.85
216.559	36.35
216.778	26.11
216.996	52.74
217.214	95.74
217.432	87.55
217.651	-39.42
217.869	-31.23
218.087	44.54
218.306	48.64
218.524	9.73
218.742	-25.09
218.96	22.02
219.179	-18.94
219.397	-14.85
219.615	75.26
219.833	54.78
220.051	97.79
220.27	34.3
220.488	67.07
220.706	46.59
220.924	-8.7
221.142	32.26
221.36	7.68
221.578	56.83
221.796	-43.52
222.015	73.21
222.233	-35.33
222.451	48.64
222.669	-102.91
222.887	-4.61
223.105	-6.66
223.323	36.35
223.541	-74.24
223.759	50.69
223.977	-53.76
224.195	118.27
224.413	46.59
224.631	77.31
224.849	-39.42
225.067	87.55
225.285	38.4
225.503	5.63
225.721	-31.23
225.939	22.02
226.157	22.02
226.375	83.45
226.592	1.54
226.81	13.82
227.028	7.68
227.246	15.87
227.464	11.78
227.682	7.68
227.9	24.06
228.117	30.21
228.335	22.02
228.553	-51.71
228.771	9.73
228.989	9.73
229.206	5.63
229.424	-6.66
229.642	-10.75
229.86	-20.99
230.077	56.83
230.295	-35.33
230.513	-12.8
230.731	-18.94
230.948	56.83
231.166	79.36
231.384	-31.23
231.601	-29.18
231.819	67.07
232.037	3.58
232.254	17.92
232.472	-20.99
232.689	48.64
232.907	75.26
233.125	24.06
233.342	26.11
233.56	-39.42
233.777	26.11
233.995	36.35
234.213	30.21
234.43	52.74
234.648	42.5
234.865	-14.85
235.083	3.58
235.3	48.64
235.518	-6.66
235.735	144.89
235.953	93.69
236.17	-12.8
236.388	40.45
236.605	50.69
236.822	-25.09
237.04	9.73
237.257	67.07
237.475	40.45
237.692	118.27
237.909	22.02
238.127	54.78
238.344	-0.51
238.562	87.55
238.779	71.17
238.996	46.59
239.214	38.4
239.431	-27.14
239.648	-25.09
239.865	7.68
240.083	52.74
240.3	-20.99
240.517	60.93
240.735	17.92
240.952	3.58
241.169	48.64
241.386	-20.99
241.603	15.87
241.821	-39.42
242.038	89.6
242.255	-25.09
242.472	1.54
242.689	67.07
242.907	32.26
243.124	46.59
243.341	-57.86
243.558	-12.8
243.775	-25.09
243.992	-8.7
244.209	81.41
244.426	46.59
244.643	-18.94
244.86	26.11
245.078	93.69
245.295	-57.86
245.512	11.78
245.729	-0.51
245.946	56.83
246.163	1.54
246.38	62.98
246.597	9.73
246.814	65.02
247.031	60.93
247.248	30.21
247.464	-31.23
247.681	46.59
247.898	-0.51
248.115	40.45
248.332	3.58
248.549	124.41
248.766	-33.28
248.983	26.11
249.2	-14.85
249.417	24.06
249.633	-47.62
249.85	65.02
250.067	11.78
250.284	22.02
250.501	15.87
250.717	46.59
250.934	-2.56
251.151	13.82
251.368	30.21
251.585	19.97
251.801	13.82
252.018	11.78
252.235	58.88
252.451	48.64
252.668	36.35
252.885	34.3
253.102	17.92
253.318	17.92
253.535	-64
253.752	-66.05
253.968	85.5
254.185	-18.94
254.401	38.4
254.618	15.87
254.835	17.92
255.051	103.93
255.268	56.83
255.484	28.16
255.701	-18.94
255.917	40.45
256.134	-33.28
256.351	-29.18
256.567	36.35
256.784	48.64
257	-66.05
257.217	34.3
257.433	40.45
257.65	5.63
257.866	81.41
258.082	-47.62
258.299	-39.42
258.515	-8.7
258.732	42.5
258.948	-18.94
259.165	36.35
259.381	7.68
259.597	-12.8
259.814	17.92
260.03	-6.66
260.246	32.26
260.463	-2.56
260.679	-2.56
260.895	28.16
261.112	52.74
261.328	24.06
261.544	-49.66
261.761	126.46
261.977	-6.66
262.193	-12.8
262.409	36.35
262.626	54.78
262.842	58.88
263.058	58.88
263.274	19.97
263.49	-25.09
263.707	26.11
263.923	46.59
264.139	15.87
264.355	58.88
264.571	85.5
264.787	3.58
265.004	5.63
265.22	-6.66
265.436	-6.66
265.652	54.78
265.868	9.73
266.084	-2.56
266.3	87.55
266.516	19.97
266.732	22.02
266.948	22.02
267.164	56.83
267.38	24.06
267.596	36.35
267.812	95.74
268.028	-27.14
268.244	-6.66
268.46	11.78
268.676	5.63
268.892	7.68
269.108	-0.51
269.324	-16.9
269.54	-61.95
269.756	36.35
269.972	58.88
270.188	48.64
270.403	-47.62
270.619	9.73
270.835	3.58
271.051	-8.7
271.267	46.59
271.483	30.21
271.698	87.55
271.914	-51.71
272.13	5.63
272.346	13.82
272.562	-37.38
272.777	60.93
272.993	-12.8
273.209	-45.57
273.425	-31.23
273.64	-16.9
273.856	85.5
274.072	19.97
274.287	-12.8
274.503	46.59
274.719	67.07
274.934	9.73
275.15	-86.53
275.366	-6.66
275.581	65.02
275.797	-8.7
276.012	-18.94
276.228	-20.99
276.444	-33.28
276.659	99.84
276.875	19.97
277.09	-23.04
277.306	-31.23
277.521	75.26
277.737	-25.09
277.952	15.87
278.168	34.3
278.383	52.74
278.599	-14.85
278.814	24.06
279.03	1.54
279.245	-35.33
279.461	32.26
279.676	38.4
279.892	3.58
280.107	9.73
280.322	-33.28
280.538	116.22
280.753	-0.51
280.969	40.45
281.184	-53.76
281.399	85.5
281.615	101.89
281.83	99.84
282.045	-6.66
282.26	-18.94
282.476	38.4
282.691	83.45
282.906	58.88
283.122	52.74
283.337	-47.62
283.552	108.03
283.767	-68.09
283.983	24.06
284.198	1.54
284.413	48.64
284.628	-43.52
284.843	93.69
285.058	26.11
285.274	38.4
285.489	26.11
285.704	42.5
285.919	7.68
286.134	30.21
286.349	-51.71
286.564	11.78
286.779	67.07
286.995	54.78
287.21	28.16
287.425	75.26
287.64	-8.7
287.855	40.45
288.07	9.73
288.285	11.78
288.5	32.26
288.715	89.6
288.93	15.87
289.145	56.83
289.36	26.11
289.575	-6.66
289.79	65.02
290.004	30.21
290.219	28.16
290.434	-4.61
290.649	22.02
290.864	79.36
291.079	-33.28
291.294	38.4
291.509	26.11
291.724	26.11
291.938	13.82
292.153	77.31
292.368	32.26
292.583	79.36
292.798	-25.09
293.012	-10.75
293.227	-14.85
293.442	-4.61
293.657	60.93
293.871	54.78
294.086	-39.42
294.301	30.21
294.516	36.35
294.73	-8.7
294.945	19.97
295.16	67.07
295.374	30.21
295.589	48.64
295.804	7.68
296.018	-20.99
296.233	3.58
296.447	30.21
296.662	-51.71
296.877	65.02
297.091	15.87
297.306	-43.52
297.52	3.58
297.735	17.92
297.949	9.73
298.164	44.54
298.378	-14.85
298.593	-33.28
298.807	11.78
299.022	-18.94
299.236	56.83
299.451	50.69
299.665	-23.04
299.88	30.21
300.094	-45.57
300.309	22.02
300.523	-49.66
300.737	120.32
300.952	60.93
301.166	7.68
301.381	-23.04
301.595	46.59
301.809	-74.24
302.024	-4.61
302.238	-12.8
302.452	122.37
302.667	-0.51
302.881	67.07
303.095	48.64
303.309	81.41
303.524	40.45
303.738	19.97
303.952	24.06
304.166	48.64
304.381	-35.33
304.595	9.73
304.809	-43.52
305.023	44.54
305.237	-68.09
305.452	67.07
305.666	26.11
305.88	19.97
306.094	22.02
306.308	32.26
306.522	77.31
306.736	62.98
306.95	30.21
307.164	-6.66
307.379	24.06
307.593	87.55
307.807	44.54
308.021	30.21
308.235	83.45
308.449	28.16
308.663	28.16
308.877	79.36
309.091	40.45
309.305	67.07
309.519	-49.66
309.733	22.02
309.947	32.26
310.161	73.21
310.374	24.06
310.588	-23.04
310.802	-18.94
311.016	-33.28
311.23	48.64
311.444	-23.04
311.658	60.93
311.872	-8.7
312.085	42.5
312.299	91.65
312.513	1.54
312.727	114.17
312.941	-18.94
313.154	58.88
313.368	40.45
313.582	38.4
313.796	67.07
314.009	-8.7
314.223	46.59
314.437	81.41
314.651	58.88
314.864	114.17
315.078	40.45
315.292	-0.51
315.505	-16.9
315.719	-25.09
315.933	-41.47
316.146	30.21
316.36	5.63
316.573	-39.42
316.787	75.26
317.001	56.83
317.214	34.3
317.428	34.3
317.641	-70.14
317.855	87.55
318.068	1.54
318.282	42.5
318.495	40.45
318.709	79.36
318.922	22.02
319.136	69.12
319.349	65.02
319.563	67.07
319.776	-18.94
319.99	5.63
320.203	-0.51
320.417	-0.51
320.63	38.4
320.843	17.92
321.057	62.98
321.27	32.26
321.483	95.74
321.697	54.78
321.91	42.5
322.124	73.21
322.337	48.64
322.55	-35.33
322.763	-0.51
322.977	38.4
323.19	50.69
323.403	48.64
323.617	-23.04
323.83	13.82
324.043	52.74
324.256	-4.61
324.469	11.78
324.683	71.17
324.896	-10.75
325.109	40.45
325.322	-12.8
325.535	-0.51
325.748	36.35
325.962	30.21
326.175	38.4
326.388	65.02
326.601	22.02
326.814	-23.04
327.027	1.54
327.24	46.59
327.453	26.11
327.666	91.65
327.879	99.84
328.092	114.17
328.305	19.97
328.518	40.45
328.731	-27.14
328.944	71.17
329.157	73.21
329.37	19.97
329.583	-29.18
329.796	26.11
330.009	-16.9
330.222	13.82
330.435	52.74
330.648	71.17
330.861	11.78
331.073	65.02
331.286	85.5
331.499	73.21
331.712	-39.42
331.925	-49.66
332.138	52.74
332.35	81.41
332.563	-4.61
332.776	42.5
332.989	-0.51
333.202	46.59
333.414	60.93
333.627	3.58
333.84	-6.66
334.053	19.97
334.265	40.45
334.478	-10.75
334.691	89.6
334.903	50.69
335.116	77.31
335.329	9.73
335.541	79.36
335.754	151.04
335.966	62.98
336.179	24.06
336.392	17.92
336.604	11.78
336.817	44.54
337.029	44.54
337.242	7.68
337.454	81.41
337.667	99.84
337.88	44.54
338.092	42.5
338.305	60.93
338.517	114.17
338.729	50.69
338.942	-51.71
339.154	48.64
339.367	19.97
339.579	50.69
339.792	-51.71
340.004	93.69
340.217	50.69
340.429	71.17
340.641	34.3
340.854	7.68
341.066	9.73
341.278	26.11
341.491	-18.94
341.703	40.45
341.915	-10.75
342.128	22.02
342.34	67.07
342.552	-16.9
342.764	38.4
342.977	-6.66
343.189	15.87
343.401	-8.7
343.613	40.45
343.826	11.78
344.038	11.78
344.25	5.63
344.462	60.93
344.674	50.69
344.886	52.74
345.099	13.82
345.311	60.93
345.523	36.35
345.735	1.54
345.947	-25.09
346.159	1.54
346.371	26.11
346.583	-4.61
346.795	42.5
347.007	5.63
347.219	75.26
347.431	40.45
347.643	50.69
347.855	7.68
348.067	118.27
348.279	44.54
348.491	95.74
348.703	69.12
348.915	69.12
349.127	-16.9
349.339	103.93
349.551	24.06
349.763	7.68
349.975	-2.56
350.187	9.73
350.399	77.31
350.61	38.4
350.822	38.4
351.034	50.69
351.246	52.74
351.458	56.83
351.669	32.26
351.881	13.82
352.093	60.93
352.305	42.5
352.517	34.3
352.728	44.54
352.94	32.26
353.152	15.87
353.363	54.78
353.575	46.59
353.787	30.21
353.999	54.78
354.21	60.93
354.422	56.83
354.633	-2.56
354.845	15.87
355.057	32.26
355.268	56.83
355.48	24.06
355.692	-61.95
355.903	58.88
356.115	120.32
356.326	34.3
356.538	87.55
356.749	62.98
356.961	54.78
357.172	19.97
357.384	65.02
357.595	50.69
357.807	71.17
358.018	24.06
358.23	-0.51
358.441	-0.51
358.653	-12.8
358.864	-25.09
359.075	32.26
359.287	3.58
359.498	44.54
359.709	48.64
359.921	101.89
360.132	42.5
360.344	13.82
360.555	11.78
360.766	77.31
360.977	60.93
361.189	17.92
361.4	-41.47
361.611	42.5
361.823	-4.61
362.034	42.5
362.245	-31.23
362.456	48.64
362.667	3.58
362.879	1.54
363.09	5.63
363.301	5.63
363.512	56.83
363.723	22.02
363.935	-25.09
364.146	36.35
364.357	11.78
364.568	75.26
364.779	-111.1
364.99	30.21
365.201	38.4
365.412	3.58
365.623	-2.56
365.834	5.63
366.045	71.17
366.256	91.65
366.467	-43.52
366.678	24.06
366.889	-64
367.1	48.64
367.311	71.17
367.522	73.21
367.733	56.83
367.944	-2.56
368.155	26.11
368.366	62.98
368.577	91.65
368.788	-6.66
368.999	5.63
369.209	22.02
369.42	62.98
369.631	17.92
369.842	5.63
370.053	13.82
370.264	65.02
370.474	-18.94
370.685	15.87
370.896	44.54
371.107	-12.8
371.317	-33.28
371.528	-6.66
371.739	54.78
371.95	128.51
372.16	56.83
372.371	3.58
372.582	71.17
372.792	24.06
373.003	54.78
373.214	60.93
373.424	93.69
373.635	-2.56
373.846	50.69
374.056	-6.66
374.267	-18.94
374.477	108.03
374.688	17.92
374.898	7.68
375.109	81.41
375.319	138.75
375.53	108.03
375.74	32.26
375.951	75.26
376.161	-2.56
376.372	30.21
376.582	-20.99
376.793	-12.8
377.003	-43.52
377.214	67.07
377.424	7.68
377.635	17.92
377.845	-16.9
378.055	32.26
378.266	-29.18
378.476	-37.38
378.686	24.06
378.897	22.02
379.107	95.74
379.317	58.88
379.528	54.78
379.738	-2.56
379.948	24.06
380.158	46.59
380.369	103.93
380.579	13.82
380.789	13.82
380.999	116.22
381.21	7.68
381.42	73.21
381.63	77.31
381.84	-23.04
382.05	83.45
382.261	48.64
382.471	48.64
382.681	75.26
382.891	77.31
383.101	56.83
383.311	-14.85
383.521	-16.9
383.731	91.65
383.941	60.93
384.151	40.45
384.361	126.46
384.571	-12.8
384.781	56.83
384.991	73.21
385.201	48.64
385.411	91.65
385.621	-14.85
385.831	-23.04
386.041	56.83
386.251	44.54
386.461	40.45
386.671	-0.51
386.881	60.93
387.091	19.97
387.301	103.93
387.511	138.75
387.72	13.82
387.93	42.5
388.14	-23.04
388.35	124.41
388.56	36.35
388.769	15.87
388.979	62.98
389.189	38.4
389.399	62.98
389.609	95.74
389.818	93.69
390.028	101.89
390.238	-25.09
390.447	77.31
390.657	87.55
390.867	22.02
391.076	95.74
391.286	62.98
391.496	38.4
391.705	22.02
391.915	1.54
392.125	30.21
392.334	-16.9
392.544	112.13
392.753	120.32
392.963	48.64
393.172	54.78
393.382	75.26
393.591	69.12
393.801	42.5
394.01	124.41
394.22	-2.56
394.429	30.21
394.639	103.93
394.848	103.93
395.058	69.12
395.267	42.5
395.477	79.36
395.686	110.08
395.895	60.93
396.105	177.66
396.314	183.81
396.524	87.55
396.733	-2.56
396.942	132.61
397.152	81.41
397.361	93.69
397.57	17.92
397.78	79.36
397.989	128.51
398.198	126.46
398.407	146.94
398.617	95.74
398.826	144.89
399.035	54.78
399.244	50.69
399.453	52.74
399.663	62.98
399.872	79.36
400.081	58.88
400.29	177.66
400.499	103.93
400.708	118.27
400.917	22.02
401.127	52.74
401.336	136.7
401.545	103.93
401.754	200.19
401.963	138.75
402.172	50.69
402.381	79.36
402.59	58.88
402.799	58.88
403.008	171.52
403.217	126.46
403.426	122.37
403.635	183.81
403.844	99.84
404.053	128.51
404.262	69.12
404.471	87.55
404.68	142.85
404.888	114.17
405.097	198.14
405.306	58.88
405.515	130.56
405.724	128.51
405.933	118.27
406.142	126.46
406.35	146.94
406.559	161.28
406.768	196.09
406.977	259.58
407.185	220.67
407.394	165.37
407.603	194.05
407.812	212.48
408.02	253.44
408.229	171.52
408.438	175.61
408.646	151.04
408.855	235
409.064	230.91
409.272	286.2
409.481	251.39
409.69	275.96
409.898	206.33
410.107	263.68
410.315	335.35
410.524	306.68
410.733	304.64
410.941	265.72
411.15	347.64
411.358	390.65
411.567	318.97
411.775	325.12
411.984	450.04
412.192	413.18
412.401	355.83
412.609	431.61
412.818	519.67
413.026	435.71
413.234	501.24
413.443	454.14
413.651	534.01
413.86	554.49
414.068	585.21
414.276	574.97
414.485	611.83
414.693	624.12
414.901	628.21
415.11	605.69
415.318	589.3
415.526	652.79
415.734	675.32
415.943	753.14
416.151	792.05
416.359	718.33
416.567	824.82
416.776	896.5
416.984	951.79
417.192	900.59
417.4	912.88
417.608	935.41
417.817	988.66
418.025	1011.18
418.233	1078.77
418.441	1152.49
418.649	1195.5
418.857	1168.88
419.065	1236.46
419.273	1213.93
419.481	1328.62
419.689	1273.32
419.897	1326.57
420.105	1367.53
420.313	1424.87
420.521	1547.75
420.729	1590.76
420.937	1506.79
421.145	1574.38
421.353	1760.74
421.561	1625.58
421.769	1879.52
421.977	1877.48
422.185	1879.52
422.393	2106.85
422.601	2127.33
422.809	2090.46
423.017	2221.53
423.224	2145.76
423.432	2305.5
423.64	2434.52
423.848	2543.07
424.056	2512.35
424.263	2788.82
424.471	2620.89
424.679	2717.14
424.887	2807.25
425.094	2993.62
425.302	3079.63
425.51	3122.64
425.718	3130.83
425.925	3173.84
426.133	3302.86
426.341	3417.55
426.548	3653.06
426.756	3759.56
426.964	3710.41
427.171	4093.38
427.379	4093.38
427.586	4128.19
427.794	4246.98
428.001	4515.26
428.209	4773.3
428.417	4447.68
428.624	4873.65
428.832	4914.61
429.039	5008.82
429.247	4879.8
429.454	5285.3
429.662	5719.46
429.869	5260.72
430.076	5887.4
430.284	5340.59
430.491	5741.99
430.699	6311.33
430.906	6102.43
431.114	6196.64
431.321	6321.57
431.528	6493.6
431.736	6958.49
431.943	7368.08
432.15	6962.58
432.358	7306.64
432.565	7589.26
432.772	7450
432.979	7824.78
433.187	8134.02
433.394	8295.81
433.601	8648.06
433.808	8729.98
434.016	8682.88
434.223	9041.27
434.43	9416.05
434.637	9330.03
434.844	9868.65
435.052	10186.08
435.259	9973.1
435.466	10141.03
435.673	10042.73
435.88	10704.22
436.087	11476.3
436.294	11314.52
436.501	10999.13
436.708	11304.28
436.915	11500.88
437.122	12248.39
437.329	12182.85
437.537	12694.85
437.743	12844.35
437.95	12795.2
438.157	13337.91
438.364	13870.38
438.571	13743.41
438.778	14058.79
438.985	15168.79
439.192	14585.12
439.399	15162.65
439.606	14632.22
439.813	15562
440.02	16235.78
440.227	16135.43
440.433	15971.6
440.64	16459.01
440.847	16534.79
441.054	16688.39
441.261	18148.59
441.467	17841.39
441.674	18232.55
441.881	18549.99
442.088	18676.96
442.294	18625.76
442.501	19322.07
442.708	19473.62
442.914	20288.71
443.121	21169.34
443.328	20923.58
443.534	22133.93
443.741	21421.24
443.948	21038.27
444.154	22719.65
444.361	22486.18
444.568	22697.13
444.774	22674.6
444.981	22772.9
445.187	23737.49
445.394	24583.3
445.6	24312.97
445.807	26444.91
446.013	25441.4
446.22	25838.71
446.426	27016.29
446.633	27225.18
446.839	28398.67
447.046	27176.03
447.252	28488.78
447.459	28140.63
447.665	28107.86
447.871	29457.47
448.078	30684.2
448.284	29088.84
448.491	30506.03
448.697	31208.48
448.903	31749.15
449.11	31863.83
449.316	31628.32
449.522	31994.9
449.728	32941.07
449.935	32930.83
450.141	32941.07
450.347	33709.05
450.553	32527.38
450.76	33227.78
450.966	34116.6
451.172	33981.43
451.378	34378.74
451.584	34016.25
451.791	34747.37
451.997	34733.04
452.203	35285.99
452.409	35402.72
452.615	34935.79
452.821	33733.63
453.027	33219.59
453.233	35134.44
453.44	33653.76
453.646	33854.46
453.852	34081.78
454.058	34788.33
454.264	33780.73
454.47	34315.25
454.676	33334.28
454.882	34444.27
455.088	31519.78
455.294	32150.55
455.5	32230.42
455.705	32848.91
455.911	31577.12
456.117	30766.12
456.323	30684.2
456.529	28925
456.735	30010.42
456.941	29254.72
457.147	28998.73
457.352	27917.4
457.558	27376.73
457.764	27710.55
457.97	27057.25
458.176	26741.86
458.381	26215.54
458.587	25103.49
458.793	25027.71
458.999	23628.95
459.204	25468.03
459.41	24863.88
459.616	22973.6
459.821	23284.89
460.027	22848.68
460.233	22373.55
460.438	21386.43
460.644	21730.48
460.85	20550.85
461.055	20477.13
461.261	20550.85
461.466	18713.83
461.672	18179.31
461.878	19641.56
462.083	17915.12
462.289	17892.59
462.494	17624.31
462.7	16766.21
462.905	16413.96
463.111	17040.64
463.316	17030.4
463.522	16510.21
463.727	16743.68
463.932	16604.42
464.138	16669.95
464.343	16538.88
464.549	16117
464.754	16631.04
464.959	16639.23
465.165	16329.99
465.37	15633.68
465.575	15312.15
465.781	15965.45
465.986	16006.41
466.191	15527.19
466.397	15306.01
466.602	14517.54
466.807	14959.9
467.012	15193.37
467.218	14845.21
467.423	14445.86
467.628	14826.78
