Data from USB4F104151__64__12-01-51-808.txt Node

Date: Fri Mar 14 12:01:51 EDT 2025
User: louis
Spectrometer: USB4F10415
Trigger mode: 4
Integration Time (sec): 2.000000E-2
Scans to average: 1
Electric dark correction enabled: true
Nonlinearity correction enabled: false
Boxcar width: 0
XAxis mode: Wavelengths
Number of Pixels in Spectrum: 3648
>>>>>Begin Spectral Data<<<<<
178.204	-113.15
178.424	-113.15
178.644	-113.15
178.864	-82.43
179.084	-37.38
179.304	-2.56
179.524	30.21
179.744	56.83
179.964	-29.18
180.184	-43.52
180.404	-74.24
180.624	-0.51
180.844	38.4
181.064	-0.51
181.283	65.02
181.503	-16.9
181.723	-23.04
181.943	-64
182.163	71.17
182.383	3.58
182.602	-47.62
182.822	30.21
183.042	32.26
183.262	-86.53
183.482	42.5
183.701	-23.04
183.921	-33.28
184.141	-16.9
184.361	-4.61
184.58	32.26
184.8	1.54
185.02	7.68
185.239	34.3
185.459	1.54
185.679	36.35
185.898	-35.33
186.118	30.21
186.338	40.45
186.557	11.78
186.777	-23.04
186.997	-33.28
187.216	91.65
187.436	-49.66
187.655	75.26
187.875	19.97
188.095	26.11
188.314	7.68
188.534	28.16
188.753	9.73
188.973	91.65
189.192	19.97
189.412	-14.85
189.631	52.74
189.851	60.93
190.07	5.63
190.29	-6.66
190.509	13.82
190.729	32.26
190.948	87.55
191.168	73.21
191.387	-0.51
191.607	-39.42
191.826	38.4
192.045	30.21
192.265	67.07
192.484	-29.18
192.704	65.02
192.923	15.87
193.142	99.84
193.362	7.68
193.581	50.69
193.8	73.21
194.02	26.11
194.239	15.87
194.458	62.98
194.678	71.17
194.897	3.58
195.116	50.69
195.335	7.68
195.555	13.82
195.774	56.83
195.993	58.88
196.212	9.73
196.432	7.68
196.651	7.68
196.87	22.02
197.089	28.16
197.308	22.02
197.528	77.31
197.747	-53.76
197.966	91.65
198.185	67.07
198.404	-35.33
198.623	75.26
198.842	83.45
199.062	85.5
199.281	54.78
199.5	69.12
199.719	40.45
199.938	46.59
200.157	52.74
200.376	15.87
200.595	30.21
200.814	19.97
201.033	-2.56
201.252	26.11
201.471	-23.04
201.69	42.5
201.909	56.83
202.128	-16.9
202.347	46.59
202.566	48.64
202.785	-4.61
203.004	-57.86
203.223	52.74
203.442	-4.61
203.661	-8.7
203.879	-29.18
204.098	-0.51
204.317	28.16
204.536	30.21
204.755	-16.9
204.974	30.21
205.193	65.02
205.411	46.59
205.63	95.74
205.849	73.21
206.068	-10.75
206.287	30.21
206.505	34.3
206.724	19.97
206.943	-41.47
207.162	-33.28
207.381	28.16
207.599	44.54
207.818	87.55
208.037	46.59
208.255	60.93
208.474	56.83
208.693	11.78
208.911	77.31
209.13	-10.75
209.349	22.02
209.567	40.45
209.786	-29.18
210.005	-4.61
210.223	105.98
210.442	-14.85
210.661	77.31
210.879	34.3
211.098	-16.9
211.316	26.11
211.535	-2.56
211.753	42.5
211.972	22.02
212.191	-51.71
212.409	-12.8
212.628	-10.75
212.846	5.63
213.065	-10.75
213.283	-4.61
213.502	24.06
213.72	52.74
213.938	65.02
214.157	15.87
214.375	1.54
214.594	11.78
214.812	24.06
215.031	69.12
215.249	24.06
215.467	7.68
215.686	-18.94
215.904	83.45
216.122	-18.94
216.341	19.97
216.559	22.02
216.778	34.3
216.996	77.31
217.214	62.98
217.432	9.73
217.651	-47.62
217.869	34.3
218.087	83.45
218.306	9.73
218.524	30.21
218.742	46.59
218.96	50.69
219.179	-84.48
219.397	34.3
219.615	46.59
219.833	-25.09
220.051	30.21
220.27	-76.29
220.488	30.21
220.706	15.87
220.924	7.68
221.142	-16.9
221.36	28.16
221.578	34.3
221.796	38.4
222.015	67.07
222.233	58.88
222.451	65.02
222.669	48.64
222.887	56.83
223.105	-12.8
223.323	62.98
223.541	-37.38
223.759	73.21
223.977	26.11
224.195	75.26
224.413	42.5
224.631	3.58
224.849	38.4
225.067	9.73
225.285	-12.8
225.503	22.02
225.721	-14.85
225.939	-8.7
226.157	32.26
226.375	148.99
226.592	9.73
226.81	13.82
227.028	38.4
227.246	65.02
227.464	46.59
227.682	-0.51
227.9	40.45
228.117	24.06
228.335	42.5
228.553	38.4
228.771	28.16
228.989	60.93
229.206	-33.28
229.424	22.02
229.642	48.64
229.86	11.78
230.077	30.21
230.295	32.26
230.513	-2.56
230.731	-25.09
230.948	48.64
231.166	77.31
231.384	-31.23
231.601	11.78
231.819	77.31
232.037	-0.51
232.254	24.06
232.472	75.26
232.689	-14.85
232.907	75.26
233.125	26.11
233.342	32.26
233.56	52.74
233.777	-55.81
233.995	22.02
234.213	13.82
234.43	54.78
234.648	48.64
234.865	40.45
235.083	116.22
235.3	-8.7
235.518	93.69
235.735	11.78
235.953	40.45
236.17	3.58
236.388	-14.85
236.605	-33.28
236.822	99.84
237.04	56.83
237.257	48.64
237.475	-41.47
237.692	-2.56
237.909	-12.8
238.127	34.3
238.344	-37.38
238.562	-2.56
238.779	11.78
238.996	-8.7
239.214	54.78
239.431	30.21
239.648	65.02
239.865	116.22
240.083	-45.57
240.3	-0.51
240.517	28.16
240.735	15.87
240.952	-0.51
241.169	1.54
241.386	50.69
241.603	32.26
241.821	69.12
242.038	65.02
242.255	-29.18
242.472	52.74
242.689	52.74
242.907	1.54
243.124	1.54
243.341	50.69
243.558	22.02
243.775	50.69
243.992	-8.7
244.209	38.4
244.426	11.78
244.643	54.78
244.86	-8.7
245.078	36.35
245.295	-45.57
245.512	28.16
245.729	19.97
245.946	65.02
246.163	-76.29
246.38	77.31
246.597	13.82
246.814	26.11
247.031	50.69
247.248	-4.61
247.464	44.54
247.681	15.87
247.898	38.4
248.115	89.6
248.332	32.26
248.549	44.54
248.766	44.54
248.983	54.78
249.2	-8.7
249.417	5.63
249.633	3.58
249.85	32.26
250.067	-6.66
250.284	87.55
250.501	30.21
250.717	46.59
250.934	-39.42
251.151	1.54
251.368	24.06
251.585	46.59
251.801	81.41
252.018	99.84
252.235	101.89
252.451	-4.61
252.668	19.97
252.885	26.11
253.102	50.69
253.318	67.07
253.535	40.45
253.752	17.92
253.968	34.3
254.185	-12.8
254.401	17.92
254.618	60.93
254.835	-10.75
255.051	69.12
255.268	-2.56
255.484	77.31
255.701	-10.75
255.917	62.98
256.134	11.78
256.351	15.87
256.567	17.92
256.784	-39.42
257	22.02
257.217	105.98
257.433	75.26
257.65	40.45
257.866	38.4
258.082	-16.9
258.299	-18.94
258.515	52.74
258.732	5.63
258.948	-20.99
259.165	71.17
259.381	77.31
259.597	13.82
259.814	3.58
260.03	-53.76
260.246	15.87
260.463	54.78
260.679	136.7
260.895	-14.85
261.112	71.17
261.328	28.16
261.544	58.88
261.761	85.5
261.977	79.36
262.193	52.74
262.409	19.97
262.626	24.06
262.842	-18.94
263.058	42.5
263.274	42.5
263.49	-68.09
263.707	50.69
263.923	-12.8
264.139	71.17
264.355	-0.51
264.571	-20.99
264.787	56.83
265.004	77.31
265.22	-8.7
265.436	42.5
265.652	87.55
265.868	71.17
266.084	5.63
266.3	19.97
266.516	-31.23
266.732	40.45
266.948	75.26
267.164	54.78
267.38	5.63
267.596	48.64
267.812	-18.94
268.028	-53.76
268.244	50.69
268.46	42.5
268.676	85.5
268.892	42.5
269.108	-20.99
269.324	5.63
269.54	60.93
269.756	85.5
269.972	-43.52
270.188	-41.47
270.403	-43.52
270.619	93.69
270.835	-53.76
271.051	30.21
271.267	73.21
271.483	42.5
271.698	-6.66
271.914	13.82
272.13	-51.71
272.346	40.45
272.562	42.5
272.777	79.36
272.993	-12.8
273.209	79.36
273.425	38.4
273.64	5.63
273.856	38.4
274.072	-27.14
274.287	-8.7
274.503	114.17
274.719	13.82
274.934	17.92
275.15	1.54
275.366	7.68
275.581	48.64
275.797	54.78
276.012	5.63
276.228	3.58
276.444	-29.18
276.659	9.73
276.875	9.73
277.09	-35.33
277.306	13.82
277.521	60.93
277.737	60.93
277.952	75.26
278.168	1.54
278.383	112.13
278.599	83.45
278.814	7.68
279.03	-20.99
279.245	42.5
279.461	22.02
279.676	44.54
279.892	-27.14
280.107	-12.8
280.322	5.63
280.538	108.03
280.753	-27.14
280.969	52.74
281.184	67.07
281.399	17.92
281.615	9.73
281.83	67.07
282.045	-23.04
282.26	-0.51
282.476	44.54
282.691	-29.18
282.906	50.69
283.122	52.74
283.337	42.5
283.552	101.89
283.767	60.93
283.983	116.22
284.198	-45.57
284.413	-2.56
284.628	-43.52
284.843	38.4
285.058	50.69
285.274	91.65
285.489	-2.56
285.704	36.35
285.919	46.59
286.134	9.73
286.349	-8.7
286.564	-35.33
286.779	40.45
286.995	-2.56
287.21	1.54
287.425	67.07
287.64	36.35
287.855	67.07
288.07	-16.9
288.285	62.98
288.5	77.31
288.715	34.3
288.93	75.26
289.145	-41.47
289.36	7.68
289.575	7.68
289.79	105.98
290.004	60.93
290.219	13.82
290.434	19.97
290.649	19.97
290.864	30.21
291.079	36.35
291.294	44.54
291.509	77.31
291.724	-25.09
291.938	7.68
292.153	34.3
292.368	114.17
292.583	17.92
292.798	36.35
293.012	56.83
293.227	26.11
293.442	46.59
293.657	26.11
293.871	67.07
294.086	30.21
294.301	-8.7
294.516	34.3
294.73	28.16
294.945	81.41
295.16	69.12
295.374	22.02
295.589	13.82
295.804	-23.04
296.018	22.02
296.233	54.78
296.447	58.88
296.662	-51.71
296.877	50.69
297.091	44.54
297.306	17.92
297.52	-4.61
297.735	26.11
297.949	32.26
298.164	42.5
298.378	46.59
298.593	17.92
298.807	-43.52
299.022	67.07
299.236	108.03
299.451	-94.72
299.665	48.64
299.88	17.92
300.094	17.92
300.309	15.87
300.523	44.54
300.737	44.54
300.952	-37.38
301.166	26.11
301.381	19.97
301.595	46.59
301.809	26.11
302.024	9.73
302.238	-18.94
302.452	67.07
302.667	1.54
302.881	50.69
303.095	-2.56
303.309	58.88
303.524	60.93
303.738	44.54
303.952	40.45
304.166	65.02
304.381	13.82
304.595	28.16
304.809	1.54
305.023	40.45
305.237	13.82
305.452	65.02
305.666	22.02
305.88	75.26
306.094	67.07
306.308	9.73
306.522	103.93
306.736	54.78
306.95	62.98
307.164	87.55
307.379	-64
307.593	50.69
307.807	73.21
308.021	-8.7
308.235	46.59
308.449	1.54
308.663	50.69
308.877	101.89
309.091	83.45
309.305	28.16
309.519	9.73
309.733	52.74
309.947	-59.9
310.161	-14.85
310.374	105.98
310.588	73.21
310.802	3.58
311.016	1.54
311.23	17.92
311.444	54.78
311.658	-33.28
311.872	52.74
312.085	67.07
312.299	44.54
312.513	-14.85
312.727	26.11
312.941	5.63
313.154	54.78
313.368	30.21
313.582	89.6
313.796	22.02
314.009	60.93
314.223	83.45
314.437	24.06
314.651	52.74
314.864	26.11
315.078	50.69
315.292	-8.7
315.505	-47.62
315.719	91.65
315.933	83.45
316.146	-2.56
316.36	56.83
316.573	11.78
316.787	58.88
317.001	40.45
317.214	48.64
317.428	67.07
317.641	-14.85
317.855	77.31
318.068	-23.04
318.282	60.93
318.495	-29.18
318.709	50.69
318.922	79.36
319.136	105.98
319.349	40.45
319.563	34.3
319.776	30.21
319.99	40.45
320.203	54.78
320.417	67.07
320.63	52.74
320.843	50.69
321.057	-51.71
321.27	34.3
321.483	22.02
321.697	7.68
321.91	24.06
322.124	-0.51
322.337	46.59
322.55	38.4
322.763	79.36
322.977	5.63
323.19	-8.7
323.403	-10.75
323.617	40.45
323.83	87.55
324.043	-8.7
324.256	48.64
324.469	3.58
324.683	85.5
324.896	42.5
325.109	46.59
325.322	-18.94
325.535	65.02
325.748	24.06
325.962	42.5
326.175	26.11
326.388	38.4
326.601	17.92
326.814	44.54
327.027	-2.56
327.24	134.65
327.453	75.26
327.666	-6.66
327.879	116.22
328.092	11.78
328.305	-14.85
328.518	42.5
328.731	5.63
328.944	9.73
329.157	30.21
329.37	50.69
329.583	44.54
329.796	87.55
330.009	3.58
330.222	44.54
330.435	17.92
330.648	-14.85
330.861	69.12
331.073	48.64
331.286	-4.61
331.499	81.41
331.712	-66.05
331.925	3.58
332.138	13.82
332.35	24.06
332.563	-25.09
332.776	71.17
332.989	5.63
333.202	77.31
333.414	54.78
333.627	56.83
333.84	-4.61
334.053	-20.99
334.265	48.64
334.478	15.87
334.691	87.55
334.903	36.35
335.116	26.11
335.329	15.87
335.541	5.63
335.754	15.87
335.966	36.35
336.179	30.21
336.392	48.64
336.604	26.11
336.817	7.68
337.029	69.12
337.242	75.26
337.454	34.3
337.667	-20.99
337.88	36.35
338.092	52.74
338.305	9.73
338.517	-6.66
338.729	3.58
338.942	17.92
339.154	7.68
339.367	-45.57
339.579	46.59
339.792	-2.56
340.004	7.68
340.217	36.35
340.429	148.99
340.641	-49.66
340.854	48.64
341.066	38.4
341.278	77.31
341.491	-2.56
341.703	58.88
341.915	-23.04
342.128	89.6
342.34	-6.66
342.552	56.83
342.764	1.54
342.977	-20.99
343.189	38.4
343.401	40.45
343.613	30.21
343.826	50.69
344.038	-18.94
344.25	-27.14
344.462	91.65
344.674	58.88
344.886	58.88
345.099	60.93
345.311	50.69
345.523	77.31
345.735	50.69
345.947	40.45
346.159	19.97
346.371	7.68
346.583	19.97
346.795	46.59
347.007	67.07
347.219	40.45
347.431	124.41
347.643	95.74
347.855	46.59
348.067	97.79
348.279	36.35
348.491	105.98
348.703	56.83
348.915	19.97
349.127	34.3
349.339	105.98
349.551	26.11
349.763	105.98
349.975	-4.61
350.187	73.21
350.399	81.41
350.61	24.06
350.822	7.68
351.034	91.65
351.246	5.63
351.458	69.12
351.669	44.54
351.881	44.54
352.093	24.06
352.305	73.21
352.517	38.4
352.728	40.45
352.94	52.74
353.152	54.78
353.363	13.82
353.575	46.59
353.787	36.35
353.999	7.68
354.21	62.98
354.422	52.74
354.633	40.45
354.845	54.78
355.057	62.98
355.268	-20.99
355.48	60.93
355.692	-23.04
355.903	75.26
356.115	58.88
356.326	11.78
356.538	67.07
356.749	77.31
356.961	85.5
357.172	56.83
357.384	73.21
357.595	118.27
357.807	22.02
358.018	28.16
358.23	42.5
358.441	19.97
358.653	65.02
358.864	50.69
359.075	19.97
359.287	26.11
359.498	105.98
359.709	58.88
359.921	54.78
360.132	34.3
360.344	54.78
360.555	54.78
360.766	114.17
360.977	13.82
361.189	17.92
361.4	75.26
361.611	69.12
361.823	69.12
362.034	-20.99
362.245	28.16
362.456	93.69
362.667	19.97
362.879	91.65
363.09	56.83
363.301	-2.56
363.512	-45.57
363.723	-25.09
363.935	26.11
364.146	122.37
364.357	50.69
364.568	-4.61
364.779	30.21
364.99	38.4
365.201	22.02
365.412	85.5
365.623	44.54
365.834	97.79
366.045	56.83
366.256	85.5
366.467	85.5
366.678	-12.8
366.889	19.97
367.1	38.4
367.311	69.12
367.522	103.93
367.733	-23.04
367.944	7.68
368.155	3.58
368.366	58.88
368.577	138.75
368.788	89.6
368.999	71.17
369.209	79.36
369.42	46.59
369.631	62.98
369.842	56.83
370.053	67.07
370.264	112.13
370.474	-0.51
370.685	79.36
370.896	1.54
371.107	50.69
371.317	30.21
371.528	81.41
371.739	136.7
371.95	71.17
372.16	-31.23
372.371	1.54
372.582	85.5
372.792	108.03
373.003	122.37
373.214	36.35
373.424	48.64
373.635	-20.99
373.846	46.59
374.056	40.45
374.267	81.41
374.477	-6.66
374.688	81.41
374.898	54.78
375.109	134.65
375.319	56.83
375.53	34.3
375.74	73.21
375.951	50.69
376.161	34.3
376.372	40.45
376.582	24.06
376.793	26.11
377.003	17.92
377.214	13.82
377.424	103.93
377.635	69.12
377.845	50.69
378.055	79.36
378.266	22.02
378.476	38.4
378.686	-4.61
378.897	34.3
379.107	75.26
379.317	87.55
379.528	11.78
379.738	56.83
379.948	36.35
380.158	26.11
380.369	38.4
380.579	67.07
380.789	-6.66
380.999	26.11
381.21	120.32
381.42	73.21
381.63	-29.18
381.84	85.5
382.05	75.26
382.261	48.64
382.471	30.21
382.681	46.59
382.891	34.3
383.101	73.21
383.311	112.13
383.521	40.45
383.731	5.63
383.941	132.61
384.151	67.07
384.361	62.98
384.571	44.54
384.781	17.92
384.991	71.17
385.201	60.93
385.411	48.64
385.621	67.07
385.831	28.16
386.041	65.02
386.251	38.4
386.461	105.98
386.671	56.83
386.881	15.87
387.091	93.69
387.301	132.61
387.511	65.02
387.72	67.07
387.93	89.6
388.14	-6.66
388.35	103.93
388.56	114.17
388.769	75.26
388.979	50.69
389.189	50.69
389.399	65.02
389.609	38.4
389.818	50.69
390.028	19.97
390.238	81.41
390.447	52.74
390.657	130.56
390.867	95.74
391.076	-39.42
391.286	159.23
391.496	42.5
391.705	44.54
391.915	38.4
392.125	93.69
392.334	46.59
392.544	85.5
392.753	7.68
392.963	77.31
393.172	36.35
393.382	3.58
393.591	81.41
393.801	28.16
394.01	46.59
394.22	50.69
394.429	50.69
394.639	79.36
394.848	148.99
395.058	71.17
395.267	97.79
395.477	50.69
395.686	93.69
395.895	89.6
396.105	132.61
396.314	132.61
396.524	91.65
396.733	122.37
396.942	91.65
397.152	83.45
397.361	101.89
397.57	26.11
397.78	-2.56
397.989	146.94
398.198	136.7
398.407	108.03
398.617	95.74
398.826	114.17
399.035	95.74
399.244	138.75
399.453	62.98
399.663	87.55
399.872	134.65
400.081	77.31
400.29	146.94
400.499	192
400.708	108.03
400.917	87.55
401.127	69.12
401.336	134.65
401.545	95.74
401.754	91.65
401.963	136.7
402.172	48.64
402.381	71.17
402.59	65.02
402.799	132.61
403.008	93.69
403.217	140.8
403.426	83.45
403.635	65.02
403.844	71.17
404.053	110.08
404.262	116.22
404.471	81.41
404.68	153.09
404.888	50.69
405.097	153.09
405.306	122.37
405.515	171.52
405.724	138.75
405.933	144.89
406.142	189.95
406.35	151.04
406.559	132.61
406.768	169.47
406.977	187.9
407.185	144.89
407.394	163.33
407.603	140.8
407.812	177.66
408.02	230.91
408.229	163.33
408.438	163.33
408.646	146.94
408.855	136.7
409.064	286.2
409.272	216.57
409.481	296.44
409.69	200.19
409.898	241.15
410.107	333.31
410.315	249.34
410.524	300.54
410.733	347.64
410.941	312.83
411.15	298.49
411.358	368.12
411.567	388.6
411.775	265.72
411.984	400.89
412.192	431.61
412.401	443.9
412.609	409.08
412.818	472.57
413.026	454.14
413.234	452.09
413.443	357.88
413.651	507.38
413.86	564.73
414.068	568.82
414.276	546.3
414.485	499.19
414.693	519.67
414.901	642.55
415.11	640.5
415.318	658.93
415.526	613.88
415.734	763.38
415.943	644.6
416.151	710.13
416.359	740.85
416.567	810.48
416.776	798.2
416.984	906.74
417.192	871.92
417.4	859.63
417.608	847.35
417.817	998.9
418.025	970.23
418.233	1048.05
418.441	1113.58
418.649	1058.29
418.857	1213.93
419.065	1195.5
419.273	1203.69
419.481	1328.62
419.689	1203.69
419.897	1361.39
420.105	1385.96
420.313	1398.25
420.521	1324.52
420.729	1525.22
420.937	1486.31
421.145	1545.7
421.353	1660.39
421.561	1836.52
421.769	1813.99
421.977	1744.36
422.185	1936.87
422.393	1965.54
422.601	1965.54
422.809	2088.42
423.017	2104.8
423.224	2252.25
423.432	2219.49
423.64	2196.96
423.848	2512.35
424.056	2457.05
424.263	2590.17
424.471	2571.74
424.679	2569.69
424.887	2799.06
425.094	2950.61
425.302	2876.88
425.51	2878.93
425.718	2985.43
425.925	3186.13
426.133	3206.61
426.341	3296.72
426.548	3540.43
426.756	3521.99
426.964	3536.33
427.171	3788.23
427.379	3917.25
427.586	3960.26
427.794	3964.36
428.001	4206.02
428.209	4470.2
428.417	4173.25
428.624	4703.67
428.832	4675
429.039	4720.06
429.247	4681.14
429.454	5150.13
429.662	5561.77
429.869	5135.79
430.076	5455.28
430.284	5322.16
430.491	5543.34
430.699	5768.62
430.906	5774.76
431.114	5932.45
431.321	6198.69
431.528	6262.18
431.736	6741.4
431.943	7054.74
432.15	6780.31
432.358	6854.04
432.565	7304.59
432.772	7179.67
432.979	7710.09
433.187	7755.15
433.394	7779.72
433.601	8308.1
433.808	8279.43
434.016	8193.41
434.223	8658.3
434.43	9323.89
434.637	9014.65
434.844	9344.37
435.052	9737.58
435.259	9629.04
435.466	9741.68
435.673	9540.97
435.88	10386.79
436.087	10661.21
436.294	11062.62
436.501	10798.43
436.708	10949.98
436.915	11185.49
437.122	11566.42
437.329	11470.16
437.537	12045.64
437.743	12305.73
437.95	12283.2
438.157	12553.54
438.364	13155.64
438.571	13210.93
438.778	13253.94
438.985	14435.62
439.192	14026.03
439.399	14482.72
439.606	13899.05
439.813	14896.41
440.02	15787.28
440.227	15559.95
440.433	15205.66
440.64	15856.91
440.847	15615.25
441.054	16192.78
441.261	17280.25
441.467	16891.13
441.674	17020.16
441.881	18101.48
442.088	18197.74
442.294	17652.98
442.501	18332.9
442.708	18703.59
442.914	19250.39
443.121	20200.65
443.328	19533.01
443.534	20954.3
443.741	20301
443.948	20002
444.154	21347.51
444.361	21408.95
444.568	21533.88
444.774	21894.32
444.981	21511.35
445.187	22652.07
445.394	23467.16
445.6	23166.11
445.807	25721.98
446.013	24458.38
446.22	24489.1
446.426	25543.8
446.633	26014.84
446.839	26866.79
447.046	25656.44
447.252	27034.72
447.459	27323.49
447.665	27087.97
447.871	28378.19
448.078	29690.94
448.284	28058.71
448.491	28824.65
448.697	30151.73
448.903	30426.16
449.11	30889
449.316	29936.7
449.522	30458.93
449.728	31587.36
449.935	31900.7
450.141	31640.61
450.347	32508.94
450.553	31632.41
450.76	32078.87
450.966	32918.54
451.172	32644.11
451.378	32916.49
451.584	32424.98
451.791	33567.74
451.997	33504.26
452.203	33881.08
452.409	33854.46
452.615	33655.81
452.821	32287.76
453.027	32398.35
453.233	33924.09
453.44	32521.23
453.646	33078.28
453.852	33262.6
454.058	33408
454.264	32228.37
454.47	32914.44
454.676	32363.54
454.882	33252.36
455.088	30524.46
455.294	30688.3
455.5	30989.35
455.705	31800.35
455.911	30426.16
456.117	29971.51
456.323	29277.25
456.529	27745.37
456.735	29107.27
456.941	28058.71
457.147	27741.27
457.352	27040.87
457.558	26737.77
457.764	26594.41
457.97	25830.52
458.176	25683.06
458.381	25689.21
458.587	24419.47
458.793	24741
458.999	23225.5
459.204	24710.28
459.41	24097.94
459.616	22486.18
459.821	22342.83
460.027	22312.11
460.233	21925.04
460.438	20827.33
460.644	21017.79
460.85	20358.35
461.055	19770.58
461.261	19573.97
461.466	18541.8
461.672	17734.9
461.878	19000.54
462.083	17857.78
462.289	17286.39
462.494	17216.76
462.7	16604.42
462.905	15912.21
463.111	16450.82
463.316	16774.4
463.522	16211.21
463.727	16336.13
463.932	16178.44
464.138	16141.58
464.343	16145.67
464.549	15545.62
464.754	16051.47
464.959	16270.6
465.165	16020.75
465.37	15168.79
465.575	14959.9
465.781	15580.43
465.986	15322.39
466.191	14751.01
466.397	14634.27
466.602	14036.27
466.807	14441.76
467.012	14398.76
467.218	14443.81
467.423	14441.76
467.628	14570.79
467.833	14798.11
468.038	14322.98
468.244	14183.72
468.449	14564.64
