Data from USB4F104151__81__12-02-15-465.txt Node

Date: Fri Mar 14 12:02:15 EDT 2025
User: louis
Spectrometer: USB4F10415
Trigger mode: 4
Integration Time (sec): 2.000000E-2
Scans to average: 1
Electric dark correction enabled: true
Nonlinearity correction enabled: false
Boxcar width: 0
XAxis mode: Wavelengths
Number of Pixels in Spectrum: 3648
>>>>>Begin Spectral Data<<<<<
178.204	-77.14
178.424	-77.14
178.644	-77.14
178.864	-75.09
179.084	-148.82
179.304	6.83
179.524	12.97
179.744	-21.85
179.964	23.21
180.184	-48.47
180.404	-17.75
180.624	-36.18
180.844	49.83
181.064	-38.23
181.283	-19.8
181.503	37.55
181.723	51.88
181.943	4.78
182.163	121.51
182.383	-5.46
182.602	27.31
182.822	19.11
183.042	45.74
183.262	41.64
183.482	-38.23
183.701	-42.32
183.921	12.97
184.141	15.02
184.361	37.55
184.58	37.55
184.8	-5.46
185.02	37.55
185.239	82.6
185.459	90.79
185.679	107.18
185.898	8.87
186.118	84.65
186.338	25.26
186.557	53.93
186.777	15.02
186.997	109.22
187.216	70.31
187.436	105.13
187.655	84.65
187.875	82.6
188.095	35.5
188.314	78.51
188.534	12.97
188.753	19.11
188.973	-1.37
189.192	62.12
189.412	96.94
189.631	17.07
189.851	78.51
190.07	58.03
190.29	-21.85
190.509	82.6
190.729	68.27
190.948	115.37
191.168	105.13
191.387	39.59
191.607	37.55
191.826	29.35
192.045	39.59
192.265	0.68
192.484	-3.41
192.704	-9.56
192.923	-66.9
193.142	86.7
193.362	29.35
193.581	35.5
193.8	0.68
194.02	98.99
194.239	37.55
194.458	15.02
194.678	55.98
194.897	12.97
195.116	60.07
195.335	70.31
195.555	103.08
195.774	90.79
195.993	148.14
196.212	-21.85
196.432	33.45
196.651	-27.99
196.87	41.64
197.089	60.07
197.308	10.92
197.528	60.07
197.747	-9.56
197.966	86.7
198.185	129.7
198.404	29.35
198.623	88.75
198.842	72.36
199.062	35.5
199.281	68.27
199.5	21.16
199.719	6.83
199.938	37.55
200.157	137.9
200.376	45.74
200.595	47.79
200.814	53.93
201.033	-15.7
201.252	98.99
201.471	51.88
201.69	66.22
201.909	-23.89
202.128	6.83
202.347	4.78
202.566	-46.42
202.785	25.26
203.004	25.26
203.223	43.69
203.442	60.07
203.661	49.83
203.879	70.31
204.098	72.36
204.317	-30.04
204.536	29.35
204.755	68.27
204.974	31.4
205.193	31.4
205.411	101.03
205.63	64.17
205.849	-11.61
206.068	49.83
206.287	-48.47
206.505	33.45
206.724	8.87
206.943	-13.65
207.162	37.55
207.381	62.12
207.599	72.36
207.818	10.92
208.037	43.69
208.255	-44.37
208.474	101.03
208.693	25.26
208.911	17.07
209.13	37.55
209.349	6.83
209.567	62.12
209.786	-3.41
210.005	-21.85
210.223	35.5
210.442	76.46
210.661	-13.65
210.879	31.4
211.098	60.07
211.316	64.17
211.535	55.98
211.753	37.55
211.972	66.22
212.191	45.74
212.409	94.89
212.628	70.31
212.846	17.07
213.065	12.97
213.283	82.6
213.502	21.16
213.72	25.26
213.938	41.64
214.157	43.69
214.375	68.27
214.594	-1.37
214.812	58.03
215.031	68.27
215.249	47.79
215.467	23.21
215.686	17.07
215.904	119.46
216.122	47.79
216.341	109.22
216.559	109.22
216.778	58.03
216.996	80.55
217.214	-25.94
217.432	66.22
217.651	35.5
217.869	-25.94
218.087	-15.7
218.306	41.64
218.524	94.89
218.742	53.93
218.96	19.11
219.179	-36.18
219.397	70.31
219.615	23.21
219.833	45.74
220.051	-25.94
220.27	53.93
220.488	47.79
220.706	111.27
220.924	27.31
221.142	43.69
221.36	23.21
221.578	17.07
221.796	49.83
222.015	-23.89
222.233	-11.61
222.451	39.59
222.669	8.87
222.887	21.16
223.105	53.93
223.323	80.55
223.541	82.6
223.759	-1.37
223.977	-1.37
224.195	-9.56
224.413	107.18
224.631	90.79
224.849	29.35
225.067	27.31
225.285	58.03
225.503	-34.13
225.721	2.73
225.939	-27.99
226.157	66.22
226.375	107.18
226.592	2.73
226.81	70.31
227.028	45.74
227.246	62.12
227.464	-21.85
227.682	84.65
227.9	103.08
228.117	47.79
228.335	64.17
228.553	49.83
228.771	2.73
228.989	68.27
229.206	-11.61
229.424	-7.51
229.642	80.55
229.86	-7.51
230.077	66.22
230.295	-42.32
230.513	25.26
230.731	68.27
230.948	92.84
231.166	82.6
231.384	35.5
231.601	37.55
231.819	39.59
232.037	119.46
232.254	-7.51
232.472	49.83
232.689	-21.85
232.907	47.79
233.125	84.65
233.342	19.11
233.56	37.55
233.777	47.79
233.995	15.02
234.213	115.37
234.43	49.83
234.648	55.98
234.865	66.22
235.083	51.88
235.3	53.93
235.518	15.02
235.735	107.18
235.953	62.12
236.17	47.79
236.388	-9.56
236.605	27.31
236.822	39.59
237.04	0.68
237.257	-1.37
237.475	43.69
237.692	60.07
237.909	72.36
238.127	88.75
238.344	60.07
238.562	113.32
238.779	31.4
238.996	23.21
239.214	45.74
239.431	25.26
239.648	70.31
239.865	51.88
240.083	94.89
240.3	76.46
240.517	-40.28
240.735	76.46
240.952	64.17
241.169	62.12
241.386	68.27
241.603	12.97
241.821	6.83
242.038	39.59
242.255	8.87
242.472	29.35
242.689	-7.51
242.907	86.7
243.124	41.64
243.341	2.73
243.558	21.16
243.775	21.16
243.992	4.78
244.209	55.98
244.426	70.31
244.643	66.22
244.86	21.16
245.078	66.22
245.295	19.11
245.512	76.46
245.729	-11.61
245.946	-11.61
246.163	70.31
246.38	82.6
246.597	47.79
246.814	10.92
247.031	72.36
247.248	-13.65
247.464	76.46
247.681	23.21
247.898	21.16
248.115	-25.94
248.332	-48.47
248.549	103.08
248.766	76.46
248.983	25.26
249.2	37.55
249.417	66.22
249.633	-27.99
249.85	72.36
250.067	39.59
250.284	-48.47
250.501	31.4
250.717	96.94
250.934	80.55
251.151	94.89
251.368	-7.51
251.585	21.16
251.801	2.73
252.018	19.11
252.235	82.6
252.451	45.74
252.668	12.97
252.885	90.79
253.102	0.68
253.318	33.45
253.535	86.7
253.752	15.02
253.968	41.64
254.185	58.03
254.401	-1.37
254.618	33.45
254.835	29.35
255.051	78.51
255.268	101.03
255.484	70.31
255.701	-1.37
255.917	27.31
256.134	12.97
256.351	80.55
256.567	66.22
256.784	29.35
257	4.78
257.217	96.94
257.433	66.22
257.65	129.7
257.866	35.5
258.082	-46.42
258.299	45.74
258.515	53.93
258.732	-36.18
258.948	15.02
259.165	21.16
259.381	-15.7
259.597	-36.18
259.814	31.4
260.03	8.87
260.246	2.73
260.463	90.79
260.679	53.93
260.895	-36.18
261.112	72.36
261.328	17.07
261.544	37.55
261.761	88.75
261.977	-9.56
262.193	53.93
262.409	33.45
262.626	37.55
262.842	84.65
263.058	2.73
263.274	23.21
263.49	19.11
263.707	12.97
263.923	74.41
264.139	2.73
264.355	78.51
264.571	31.4
264.787	127.66
265.004	21.16
265.22	152.23
265.436	82.6
265.652	-103.76
265.868	-7.51
266.084	8.87
266.3	64.17
266.516	-5.46
266.732	66.22
266.948	43.69
267.164	43.69
267.38	62.12
267.596	68.27
267.812	121.51
268.028	-17.75
268.244	-30.04
268.46	101.03
268.676	19.11
268.892	6.83
269.108	35.5
269.324	70.31
269.54	37.55
269.756	103.08
269.972	-44.37
270.188	37.55
270.403	-50.52
270.619	37.55
270.835	109.22
271.051	43.69
271.267	41.64
271.483	139.94
271.698	98.99
271.914	90.79
272.13	131.75
272.346	29.35
272.562	-5.46
272.777	70.31
272.993	53.93
273.209	119.46
273.425	0.68
273.64	45.74
273.856	98.99
274.072	43.69
274.287	-48.47
274.503	131.75
274.719	47.79
274.934	33.45
275.15	31.4
275.366	68.27
275.581	68.27
275.797	-1.37
276.012	76.46
276.228	-11.61
276.444	53.93
276.659	25.26
276.875	8.87
277.09	35.5
277.306	43.69
277.521	64.17
277.737	17.07
277.952	4.78
278.168	45.74
278.383	58.03
278.599	33.45
278.814	76.46
279.03	-15.7
279.245	23.21
279.461	-46.42
279.676	74.41
279.892	-7.51
280.107	47.79
280.322	17.07
280.538	58.03
280.753	10.92
280.969	103.08
281.184	39.59
281.399	60.07
281.615	39.59
281.83	45.74
282.045	47.79
282.26	-11.61
282.476	47.79
282.691	60.07
282.906	84.65
283.122	76.46
283.337	41.64
283.552	66.22
283.767	80.55
283.983	82.6
284.198	23.21
284.413	58.03
284.628	0.68
284.843	72.36
285.058	27.31
285.274	98.99
285.489	-9.56
285.704	51.88
285.919	-7.51
286.134	31.4
286.349	23.21
286.564	25.26
286.779	84.65
286.995	-9.56
287.21	-79.19
287.425	45.74
287.64	86.7
287.855	68.27
288.07	8.87
288.285	78.51
288.5	103.08
288.715	84.65
288.93	-5.46
289.145	53.93
289.36	33.45
289.575	41.64
289.79	33.45
290.004	101.03
290.219	47.79
290.434	-3.41
290.649	-1.37
290.864	15.02
291.079	33.45
291.294	-17.75
291.509	74.41
291.724	66.22
291.938	-19.8
292.153	92.84
292.368	53.93
292.583	49.83
292.798	82.6
293.012	58.03
293.227	47.79
293.442	-1.37
293.657	60.07
293.871	45.74
294.086	43.69
294.301	2.73
294.516	33.45
294.73	33.45
294.945	4.78
295.16	37.55
295.374	135.85
295.589	82.6
295.804	4.78
296.018	27.31
296.233	51.88
296.447	76.46
296.662	4.78
296.877	49.83
297.091	49.83
297.306	-13.65
297.52	41.64
297.735	74.41
297.949	64.17
298.164	84.65
298.378	37.55
298.593	6.83
298.807	39.59
299.022	39.59
299.236	74.41
299.451	41.64
299.665	-5.46
299.88	66.22
300.094	125.61
300.309	47.79
300.523	51.88
300.737	51.88
300.952	-5.46
301.166	66.22
301.381	78.51
301.595	19.11
301.809	62.12
302.024	-9.56
302.238	23.21
302.452	152.23
302.667	51.88
302.881	17.07
303.095	94.89
303.309	74.41
303.524	29.35
303.738	96.94
303.952	4.78
304.166	94.89
304.381	-1.37
304.595	10.92
304.809	37.55
305.023	90.79
305.237	45.74
305.452	74.41
305.666	41.64
305.88	135.85
306.094	49.83
306.308	29.35
306.522	37.55
306.736	49.83
306.95	15.02
307.164	25.26
307.379	98.99
307.593	94.89
307.807	35.5
308.021	82.6
308.235	72.36
308.449	45.74
308.663	60.07
308.877	45.74
309.091	39.59
309.305	144.04
309.519	12.97
309.733	90.79
309.947	29.35
310.161	51.88
310.374	78.51
310.588	109.22
310.802	74.41
311.016	17.07
311.23	49.83
311.444	64.17
311.658	76.46
311.872	33.45
312.085	94.89
312.299	19.11
312.513	60.07
312.727	47.79
312.941	86.7
313.154	47.79
313.368	58.03
313.582	37.55
313.796	80.55
314.009	23.21
314.223	21.16
314.437	58.03
314.651	84.65
314.864	-1.37
315.078	41.64
315.292	17.07
315.505	8.87
315.719	76.46
315.933	15.02
316.146	-1.37
316.36	17.07
316.573	51.88
316.787	62.12
317.001	125.61
317.214	43.69
317.428	64.17
317.641	12.97
317.855	43.69
318.068	37.55
318.282	2.73
318.495	68.27
318.709	107.18
318.922	90.79
319.136	68.27
319.349	33.45
319.563	80.55
319.776	27.31
319.99	64.17
320.203	-5.46
320.417	68.27
320.63	-21.85
320.843	121.51
321.057	58.03
321.27	4.78
321.483	45.74
321.697	76.46
321.91	29.35
322.124	80.55
322.337	19.11
322.55	33.45
322.763	21.16
322.977	8.87
323.19	-17.75
323.403	58.03
323.617	41.64
323.83	66.22
324.043	55.98
324.256	90.79
324.469	60.07
324.683	84.65
324.896	117.42
325.109	43.69
325.322	-32.08
325.535	80.55
325.748	64.17
325.962	53.93
326.175	33.45
326.388	25.26
326.601	76.46
326.814	51.88
327.027	49.83
327.24	51.88
327.453	-1.37
327.666	101.03
327.879	86.7
328.092	66.22
328.305	141.99
328.518	6.83
328.731	31.4
328.944	6.83
329.157	-17.75
329.37	58.03
329.583	21.16
329.796	154.28
330.009	17.07
330.222	90.79
330.435	127.66
330.648	82.6
330.861	62.12
331.073	53.93
331.286	60.07
331.499	-15.7
331.712	-7.51
331.925	-32.08
332.138	60.07
332.35	68.27
332.563	39.59
332.776	103.08
332.989	64.17
333.202	17.07
333.414	-3.41
333.627	27.31
333.84	35.5
334.053	55.98
334.265	19.11
334.478	8.87
334.691	51.88
334.903	80.55
335.116	51.88
335.329	74.41
335.541	41.64
335.754	113.32
335.966	21.16
336.179	64.17
336.392	82.6
336.604	62.12
336.817	43.69
337.029	150.18
337.242	-23.89
337.454	17.07
337.667	70.31
337.88	174.76
338.092	41.64
338.305	4.78
338.517	31.4
338.729	66.22
338.942	58.03
339.154	-7.51
339.367	45.74
339.579	53.93
339.792	17.07
340.004	146.09
340.217	72.36
340.429	53.93
340.641	2.73
340.854	103.08
341.066	23.21
341.278	70.31
341.491	60.07
341.703	72.36
341.915	-5.46
342.128	121.51
342.34	29.35
342.552	111.27
342.764	88.75
342.977	64.17
343.189	47.79
343.401	41.64
343.613	47.79
343.826	51.88
344.038	-3.41
344.25	105.13
344.462	111.27
344.674	29.35
344.886	37.55
345.099	111.27
345.311	-21.85
345.523	0.68
345.735	90.79
345.947	96.94
346.159	41.64
346.371	64.17
346.583	111.27
346.795	195.24
347.007	60.07
347.219	86.7
347.431	0.68
347.643	23.21
347.855	37.55
348.067	115.37
348.279	76.46
348.491	80.55
348.703	-7.51
348.915	119.46
349.127	35.5
349.339	45.74
349.551	35.5
349.763	-15.7
349.975	6.83
350.187	123.56
350.399	90.79
350.61	72.36
350.822	74.41
351.034	62.12
351.246	119.46
351.458	35.5
351.669	8.87
351.881	70.31
352.093	88.75
352.305	101.03
352.517	113.32
352.728	135.85
352.94	-19.8
353.152	25.26
353.363	68.27
353.575	80.55
353.787	158.38
353.999	17.07
354.21	64.17
354.422	-3.41
354.633	127.66
354.845	103.08
355.057	-17.75
355.268	90.79
355.48	12.97
355.692	31.4
355.903	84.65
356.115	55.98
356.326	55.98
356.538	76.46
356.749	127.66
356.961	113.32
357.172	-21.85
357.384	47.79
357.595	115.37
357.807	105.13
358.018	23.21
358.23	66.22
358.441	92.84
358.653	51.88
358.864	70.31
359.075	33.45
359.287	70.31
359.498	-38.23
359.709	55.98
359.921	146.09
360.132	117.42
360.344	121.51
360.555	96.94
360.766	62.12
360.977	19.11
361.189	74.41
361.4	51.88
361.611	113.32
361.823	23.21
362.034	17.07
362.245	37.55
362.456	55.98
362.667	47.79
362.879	113.32
363.09	53.93
363.301	137.9
363.512	35.5
363.723	47.79
363.935	33.45
364.146	117.42
364.357	119.46
364.568	41.64
364.779	107.18
364.99	58.03
365.201	43.69
365.412	105.13
365.623	68.27
365.834	62.12
366.045	12.97
366.256	41.64
366.467	164.52
366.678	37.55
366.889	51.88
367.1	41.64
367.311	82.6
367.522	98.99
367.733	84.65
367.944	146.09
368.155	37.55
368.366	119.46
368.577	139.94
368.788	58.03
368.999	72.36
369.209	111.27
369.42	96.94
369.631	113.32
369.842	31.4
370.053	41.64
370.264	23.21
370.474	19.11
370.685	-1.37
370.896	162.47
371.107	64.17
371.317	98.99
371.528	35.5
371.739	66.22
371.95	105.13
372.16	72.36
372.371	43.69
372.582	90.79
372.792	62.12
373.003	62.12
373.214	76.46
373.424	70.31
373.635	27.31
373.846	90.79
374.056	70.31
374.267	125.61
374.477	115.37
374.688	60.07
374.898	58.03
375.109	90.79
375.319	88.75
375.53	78.51
375.74	144.04
375.951	45.74
376.161	76.46
376.372	86.7
376.582	43.69
376.793	129.7
377.003	19.11
377.214	78.51
377.424	90.79
377.635	101.03
377.845	135.85
378.055	68.27
378.266	90.79
378.476	47.79
378.686	133.8
378.897	19.11
379.107	12.97
379.317	78.51
379.528	62.12
379.738	82.6
379.948	74.41
380.158	123.56
380.369	68.27
380.579	37.55
380.789	103.08
380.999	101.03
381.21	31.4
381.42	170.66
381.63	21.16
381.84	111.27
382.05	154.28
382.261	-15.7
382.471	86.7
382.681	43.69
382.891	51.88
383.101	98.99
383.311	41.64
383.521	49.83
383.731	160.42
383.941	80.55
384.151	111.27
384.361	72.36
384.571	21.16
384.781	74.41
384.991	154.28
385.201	137.9
385.411	90.79
385.621	90.79
385.831	41.64
386.041	182.95
386.251	103.08
386.461	72.36
386.671	64.17
386.881	45.74
387.091	31.4
387.301	66.22
387.511	111.27
387.72	68.27
387.93	51.88
388.14	68.27
388.35	29.35
388.56	96.94
388.769	80.55
388.979	121.51
389.189	66.22
389.399	66.22
389.609	76.46
389.818	174.76
390.028	119.46
390.238	125.61
390.447	117.42
390.657	96.94
390.867	62.12
391.076	49.83
391.286	111.27
391.496	101.03
391.705	123.56
391.915	47.79
392.125	115.37
392.334	113.32
392.544	119.46
392.753	152.23
392.963	41.64
393.172	121.51
393.382	92.84
393.591	146.09
393.801	103.08
394.01	68.27
394.22	133.8
394.429	135.85
394.639	88.75
394.848	123.56
395.058	80.55
395.267	111.27
395.477	111.27
395.686	180.9
395.895	180.9
396.105	199.34
396.314	228.01
396.524	139.94
396.733	43.69
396.942	78.51
397.152	144.04
397.361	144.04
397.57	109.22
397.78	135.85
397.989	105.13
398.198	215.72
398.407	125.61
398.617	88.75
398.826	152.23
399.035	129.7
399.244	164.52
399.453	189.1
399.663	123.56
399.872	131.75
400.081	111.27
400.29	105.13
400.499	193.19
400.708	121.51
400.917	135.85
401.127	268.97
401.336	166.57
401.545	191.14
401.754	158.38
401.963	182.95
402.172	117.42
402.381	195.24
402.59	236.2
402.799	84.65
403.008	223.91
403.217	258.73
403.426	189.1
403.635	144.04
403.844	199.34
404.053	238.25
404.262	193.19
404.471	195.24
404.68	172.71
404.888	266.92
405.097	189.1
405.306	256.68
405.515	307.88
405.724	180.9
405.933	256.68
406.142	250.53
406.35	203.43
406.559	279.21
406.768	225.96
406.977	307.88
407.185	271.01
407.394	228.01
407.603	354.98
407.812	232.1
408.02	373.41
408.229	293.54
408.438	387.75
408.646	311.97
408.855	330.41
409.064	438.95
409.272	344.74
409.481	426.66
409.69	340.65
409.898	379.56
410.107	391.84
410.315	428.71
410.524	527.01
410.733	531.11
410.941	498.34
411.15	494.24
411.358	535.2
411.567	625.31
411.775	594.59
411.984	567.97
412.192	670.37
412.401	537.25
412.609	658.08
412.818	686.75
413.026	754.34
413.234	715.42
413.443	807.58
413.651	750.24
413.86	801.44
414.068	967.32
414.276	881.31
414.485	809.63
414.693	909.98
414.901	977.56
415.11	991.9
415.318	996
415.526	1047.19
415.734	1090.2
415.943	1069.72
416.151	1147.55
416.359	1204.89
416.567	1170.07
416.776	1399.45
416.984	1338.01
417.192	1424.02
417.4	1528.47
417.608	1409.69
417.817	1428.12
418.025	1616.53
418.233	1628.82
418.441	1550.99
418.649	1680.02
418.857	1788.56
419.065	1833.61
419.273	1874.57
419.481	1913.49
419.689	2050.7
419.897	2136.71
420.105	2138.76
420.313	2300.55
420.521	2364.04
420.729	2325.13
420.937	2515.59
421.145	2515.59
421.353	2613.89
421.561	2783.87
421.769	2742.91
421.977	3013.24
422.185	2906.75
422.393	3166.84
422.601	3355.26
422.809	3275.38
423.017	3369.59
423.224	3527.28
423.432	3541.62
423.64	3621.49
423.848	3994.22
424.056	3783.28
424.263	4100.72
424.471	4201.07
424.679	4219.5
424.887	4369
425.094	4620.9
425.302	4616.8
425.51	4823.65
425.718	5048.93
425.925	5145.18
426.133	5274.2
426.341	5474.9
426.548	5833.3
426.756	5712.47
426.964	5743.19
427.171	6134.35
427.379	6427.21
427.586	6429.26
427.794	6605.38
428.001	7012.93
428.209	7033.41
428.417	7127.61
428.624	7557.69
428.832	7723.57
429.039	7705.14
429.247	7565.88
429.454	8264.24
429.662	8794.66
429.869	8249.9
430.076	8849.96
430.284	8530.47
430.491	9110.05
430.699	9407
430.906	9263.65
431.114	9550.36
431.321	10232.33
431.528	10138.13
431.736	10899.97
431.943	11205.12
432.15	10922.5
432.358	11350.53
432.565	11627
432.772	11504.12
432.979	12192.24
433.187	12421.61
433.394	12669.42
433.601	13447.65
433.808	13285.86
434.016	13265.38
434.223	13754.84
434.43	14911.94
434.637	14496.21
434.844	15319.49
435.052	15724.99
435.259	15411.65
435.466	15460.8
435.673	15532.48
435.88	16499.12
436.087	17400.23
436.294	17338.79
436.501	17072.55
436.708	17361.31
436.915	18022.81
437.122	18715.02
437.329	18604.43
437.537	19466.63
437.743	19642.75
437.95	19489.15
438.157	20769.13
438.364	20963.69
438.571	21068.14
438.778	21094.76
438.985	23318.85
439.192	22047.07
439.399	22866.25
439.606	22444.37
439.813	23580.99
440.02	25049.39
440.227	24506.68
440.433	24426.81
440.64	25045.29
440.847	25035.05
441.054	25674.02
441.261	27353.35
441.467	26964.24
441.674	27455.75
441.881	28631.29
442.088	28367.1
442.294	28268.8
442.501	28981.49
442.708	29788.39
442.914	30734.55
443.121	32344.25
443.328	31385.8
443.534	33196.21
443.741	32465.08
443.948	31815.88
444.154	34617.5
444.361	33878.18
444.568	34238.62
444.774	34222.24
444.981	34836.63
445.187	35504.27
445.394	37255.28
445.6	36962.42
445.807	40114.25
446.013	38518.88
446.22	39549.01
446.426	40546.37
446.633	40814.65
446.839	42106.92
447.046	40779.84
447.252	42829.85
447.459	42956.83
447.665	42440.74
447.871	44275.72
448.078	46239.72
448.284	44136.46
448.491	45004.8
448.697	46759.91
448.903	47898.58
449.11	47779.79
449.316	46888.93
449.522	48332.75
449.728	49037.25
449.935	49399.74
450.141	49360.83
450.347	50284.46
450.553	48785.35
450.76	49428.41
450.966	51021.73
451.172	50616.23
451.378	51754.9
451.584	50890.66
451.791	51845.01
451.997	51838.87
452.203	52352.91
452.409	52731.78
452.615	52369.29
452.821	50524.07
453.027	49821.62
453.233	51996.56
453.44	50325.42
453.646	50976.67
453.852	51074.98
454.058	51849.11
454.264	50255.79
454.47	51435.42
454.676	49833.91
454.882	51652.5
455.088	47239.13
455.294	47757.27
455.5	48478.15
455.705	48988.1
455.911	47013.85
456.117	46262.25
456.323	45815.79
456.529	43202.58
456.735	45170.68
456.941	43765.77
457.147	43198.49
457.352	41984.04
457.558	41793.58
457.764	41740.33
457.97	40503.36
458.176	40040.52
458.381	39481.42
458.587	37812.33
458.793	38113.38
458.999	36292.74
459.204	38590.56
459.41	37519.47
459.616	35154.07
459.821	35039.38
460.027	34674.84
460.233	34275.49
460.438	32184.51
460.644	32899.25
460.85	31320.27
461.055	30882
461.261	30699.73
461.466	28440.82
461.672	27332.87
461.878	29800.68
462.083	27478.28
462.289	27048.21
462.494	26702.1
462.7	25671.97
462.905	24912.17
463.111	25729.31
463.316	26126.62
463.522	25463.08
463.727	25272.62
463.932	25350.44
464.138	25039.15
464.343	24883.5
464.549	24035.64
464.754	25295.14
464.959	25100.59
465.165	24893.74
465.37	23855.42
465.575	23064.91
465.781	23976.25
465.986	24273.21
466.191	23361.86
466.397	22976.84
