Data from USB4F104151__55__12-01-41-989.txt Node

Date: Fri Mar 14 12:01:41 EDT 2025
User: louis
Spectrometer: USB4F10415
Trigger mode: 4
Integration Time (sec): 2.000000E-2
Scans to average: 1
Electric dark correction enabled: true
Nonlinearity correction enabled: false
Boxcar width: 0
XAxis mode: Wavelengths
Number of Pixels in Spectrum: 3648
>>>>>Begin Spectral Data<<<<<
178.204	-123.22
178.424	-123.22
178.644	-123.22
178.864	-57.68
179.084	-59.73
179.304	-57.68
179.524	-41.3
179.744	-18.77
179.964	34.47
180.184	-29.01
180.404	16.04
180.624	50.86
180.844	20.14
181.064	-49.49
181.283	-10.58
181.503	13.99
181.723	71.34
181.943	-43.35
182.163	65.19
182.383	26.28
182.602	38.57
182.822	-22.87
183.042	-4.44
183.262	73.39
183.482	46.76
183.701	71.34
183.921	5.8
184.141	-72.02
184.361	59.05
184.58	-45.4
184.8	108.2
185.02	7.85
185.239	50.86
185.459	36.52
185.679	3.75
185.898	-16.73
186.118	-22.87
186.338	-35.16
186.557	79.53
186.777	7.85
186.997	-43.35
187.216	-41.3
187.436	-16.73
187.655	50.86
187.875	5.8
188.095	-2.39
188.314	106.15
188.534	7.85
188.753	42.67
188.973	20.14
189.192	100.01
189.412	140.97
189.631	24.23
189.851	-24.92
190.07	97.96
190.29	-51.54
190.509	79.53
190.729	52.91
190.948	32.43
191.168	106.15
191.387	-18.77
191.607	42.67
191.826	89.77
192.045	73.39
192.265	46.76
192.484	36.52
192.704	-31.06
192.923	24.23
193.142	91.82
193.362	24.23
193.581	50.86
193.8	44.71
194.02	22.19
194.239	61.1
194.458	40.62
194.678	100.01
194.897	100.01
195.116	-33.11
195.335	1.71
195.555	1.71
195.774	63.15
195.993	-4.44
196.212	22.19
196.432	89.77
196.651	18.09
196.87	-0.34
197.089	34.47
197.308	42.67
197.528	48.81
197.747	1.71
197.966	18.09
198.185	83.63
198.404	30.38
198.623	97.96
198.842	106.15
199.062	28.33
199.281	28.33
199.5	13.99
199.719	50.86
199.938	65.19
200.157	91.82
200.376	16.04
200.595	114.34
200.814	71.34
201.033	48.81
201.252	-20.82
201.471	-18.77
201.69	130.73
201.909	77.48
202.128	61.1
202.347	-14.68
202.566	30.38
202.785	61.1
203.004	40.62
203.223	44.71
203.442	32.43
203.661	-26.96
203.879	71.34
204.098	61.1
204.317	46.76
204.536	44.71
204.755	32.43
204.974	81.58
205.193	73.39
205.411	93.87
205.63	38.57
205.849	79.53
206.068	52.91
206.287	44.71
206.505	16.04
206.724	-8.53
206.943	20.14
207.162	7.85
207.381	46.76
207.599	-31.06
207.818	32.43
208.037	-18.77
208.255	28.33
208.474	28.33
208.693	61.1
208.911	81.58
209.13	89.77
209.349	85.67
209.567	46.76
209.786	79.53
210.005	87.72
210.223	26.28
210.442	-57.68
210.661	1.71
210.879	40.62
211.098	-2.39
211.316	5.8
211.535	65.19
211.753	5.8
211.972	22.19
212.191	24.23
212.409	73.39
212.628	-12.63
212.846	81.58
213.065	20.14
213.283	77.48
213.502	57
213.72	102.06
213.938	46.76
214.157	71.34
214.375	11.95
214.594	13.99
214.812	38.57
215.031	85.67
215.249	-33.11
215.467	87.72
215.686	11.95
215.904	42.67
216.122	-12.63
216.341	38.57
216.559	50.86
216.778	118.44
216.996	-4.44
217.214	20.14
217.432	-86.36
217.651	118.44
217.869	13.99
218.087	75.43
218.306	-2.39
218.524	106.15
218.742	59.05
218.96	120.49
219.179	26.28
219.397	57
219.615	128.68
219.833	48.81
220.051	36.52
220.27	7.85
220.488	-10.58
220.706	3.75
220.924	59.05
221.142	57
221.36	44.71
221.578	75.43
221.796	3.75
222.015	-39.25
222.233	44.71
222.451	16.04
222.669	-51.54
222.887	65.19
223.105	95.91
223.323	40.62
223.541	28.33
223.759	-2.39
223.977	13.99
224.195	52.91
224.413	32.43
224.631	91.82
224.849	-8.53
225.067	67.24
225.285	79.53
225.503	38.57
225.721	-57.68
225.939	36.52
226.157	30.38
226.375	65.19
226.592	36.52
226.81	-14.68
227.028	32.43
227.246	65.19
227.464	26.28
227.682	59.05
227.9	73.39
228.117	75.43
228.335	-31.06
228.553	-6.49
228.771	40.62
228.989	34.47
229.206	89.77
229.424	7.85
229.642	5.8
229.86	-59.73
230.077	36.52
230.295	132.78
230.513	18.09
230.731	16.04
230.948	91.82
231.166	24.23
231.384	75.43
231.601	22.19
231.819	102.06
232.037	24.23
232.254	-26.96
232.472	13.99
232.689	20.14
232.907	-4.44
233.125	-14.68
233.342	40.62
233.56	22.19
233.777	40.62
233.995	1.71
234.213	11.95
234.43	-2.39
234.648	65.19
234.865	-33.11
235.083	26.28
235.3	-14.68
235.518	61.1
235.735	63.15
235.953	89.77
236.17	16.04
236.388	5.8
236.605	104.11
236.822	100.01
237.04	-22.87
237.257	9.9
237.475	-4.44
237.692	16.04
237.909	24.23
238.127	50.86
238.344	65.19
238.562	40.62
238.779	7.85
238.996	81.58
239.214	54.95
239.431	46.76
239.648	30.38
239.865	65.19
240.083	18.09
240.3	149.16
240.517	38.57
240.735	38.57
240.952	50.86
241.169	69.29
241.386	-18.77
241.603	50.86
241.821	-69.97
242.038	46.76
242.255	13.99
242.472	-20.82
242.689	34.47
242.907	-8.53
243.124	44.71
243.341	30.38
243.558	59.05
243.775	-2.39
243.992	30.38
244.209	59.05
244.426	20.14
244.643	-10.58
244.86	95.91
245.078	89.77
245.295	-6.49
245.512	11.95
245.729	40.62
245.946	13.99
246.163	97.96
246.38	52.91
246.597	5.8
246.814	73.39
247.031	24.23
247.248	54.95
247.464	-20.82
247.681	-26.96
247.898	93.87
248.115	57
248.332	-0.34
248.549	112.3
248.766	-16.73
248.983	73.39
249.2	116.39
249.417	42.67
249.633	1.71
249.85	40.62
250.067	5.8
250.284	38.57
250.501	63.15
250.717	-0.34
250.934	-8.53
251.151	50.86
251.368	42.67
251.585	28.33
251.801	-35.16
252.018	30.38
252.235	1.71
252.451	13.99
252.668	-4.44
252.885	40.62
253.102	52.91
253.318	36.52
253.535	77.48
253.752	71.34
253.968	20.14
254.185	34.47
254.401	67.24
254.618	22.19
254.835	-6.49
255.051	63.15
255.268	13.99
255.484	57
255.701	30.38
255.917	112.3
256.134	-8.53
256.351	16.04
256.567	34.47
256.784	24.23
257	-37.2
257.217	59.05
257.433	30.38
257.65	26.28
257.866	38.57
258.082	-55.64
258.299	67.24
258.515	18.09
258.732	13.99
258.948	124.58
259.165	50.86
259.381	71.34
259.597	130.73
259.814	38.57
260.03	-18.77
260.246	26.28
260.463	32.43
260.679	42.67
260.895	44.71
261.112	46.76
261.328	73.39
261.544	-4.44
261.761	130.73
261.977	67.24
262.193	-39.25
262.409	36.52
262.626	44.71
262.842	-0.34
263.058	-16.73
263.274	36.52
263.49	77.48
263.707	18.09
263.923	59.05
264.139	57
264.355	93.87
264.571	63.15
264.787	54.95
265.004	42.67
265.22	61.1
265.436	83.63
265.652	-8.53
265.868	42.67
266.084	-35.16
266.3	5.8
266.516	16.04
266.732	-49.49
266.948	-16.73
267.164	-16.73
267.38	-10.58
267.596	87.72
267.812	48.81
268.028	57
268.244	81.58
268.46	63.15
268.676	-6.49
268.892	44.71
269.108	-35.16
269.324	63.15
269.54	1.71
269.756	30.38
269.972	30.38
270.188	67.24
270.403	7.85
270.619	61.1
270.835	36.52
271.051	-12.63
271.267	77.48
271.483	63.15
271.698	3.75
271.914	16.04
272.13	40.62
272.346	46.76
272.562	46.76
272.777	9.9
272.993	38.57
273.209	38.57
273.425	54.95
273.64	20.14
273.856	40.62
274.072	57
274.287	3.75
274.503	-33.11
274.719	11.95
274.934	7.85
275.15	-47.44
275.366	11.95
275.581	32.43
275.797	-8.53
276.012	36.52
276.228	50.86
276.444	7.85
276.659	91.82
276.875	30.38
277.09	108.2
277.306	-0.34
277.521	20.14
277.737	106.15
277.952	65.19
278.168	-2.39
278.383	11.95
278.599	54.95
278.814	57
279.03	-4.44
279.245	89.77
279.461	93.87
279.676	11.95
279.892	5.8
280.107	-6.49
280.322	28.33
280.538	57
280.753	18.09
280.969	38.57
281.184	71.34
281.399	91.82
281.615	46.76
281.83	16.04
282.045	5.8
282.26	36.52
282.476	52.91
282.691	-4.44
282.906	-4.44
283.122	26.28
283.337	5.8
283.552	91.82
283.767	77.48
283.983	42.67
284.198	24.23
284.413	87.72
284.628	79.53
284.843	65.19
285.058	40.62
285.274	-8.53
285.489	-24.92
285.704	32.43
285.919	3.75
286.134	5.8
286.349	67.24
286.564	46.76
286.779	173.74
286.995	3.75
287.21	36.52
287.425	32.43
287.64	93.87
287.855	20.14
288.07	87.72
288.285	63.15
288.5	69.29
288.715	85.67
288.93	57
289.145	-14.68
289.36	48.81
289.575	34.47
289.79	59.05
290.004	30.38
290.219	42.67
290.434	40.62
290.649	59.05
290.864	54.95
291.079	34.47
291.294	40.62
291.509	16.04
291.724	87.72
291.938	50.86
292.153	40.62
292.368	48.81
292.583	1.71
292.798	52.91
293.012	83.63
293.227	-10.58
293.442	3.75
293.657	11.95
293.871	73.39
294.086	83.63
294.301	44.71
294.516	71.34
294.73	75.43
294.945	46.76
295.16	42.67
295.374	46.76
295.589	71.34
295.804	36.52
296.018	48.81
296.233	57
296.447	63.15
296.662	28.33
296.877	40.62
297.091	104.11
297.306	9.9
297.52	18.09
297.735	38.57
297.949	69.29
298.164	26.28
298.378	42.67
298.593	54.95
298.807	42.67
299.022	48.81
299.236	63.15
299.451	24.23
299.665	38.57
299.88	54.95
300.094	52.91
300.309	93.87
300.523	85.67
300.737	22.19
300.952	44.71
301.166	132.78
301.381	28.33
301.595	-41.3
301.809	34.47
302.024	30.38
302.238	28.33
302.452	38.57
302.667	40.62
302.881	77.48
303.095	59.05
303.309	42.67
303.524	106.15
303.738	13.99
303.952	-12.63
304.166	63.15
304.381	18.09
304.595	122.54
304.809	61.1
305.023	63.15
305.237	65.19
305.452	54.95
305.666	32.43
305.88	40.62
306.094	71.34
306.308	40.62
306.522	108.2
306.736	32.43
306.95	61.1
307.164	1.71
307.379	87.72
307.593	54.95
307.807	48.81
308.021	18.09
308.235	22.19
308.449	63.15
308.663	40.62
308.877	30.38
309.091	67.24
309.305	3.75
309.519	-26.96
309.733	95.91
309.947	-29.01
310.161	83.63
310.374	46.76
310.588	175.78
310.802	38.57
311.016	13.99
311.23	38.57
311.444	-49.49
311.658	22.19
311.872	50.86
312.085	24.23
312.299	48.81
312.513	42.67
312.727	16.04
312.941	34.47
313.154	59.05
313.368	95.91
313.582	11.95
313.796	48.81
314.009	42.67
314.223	63.15
314.437	52.91
314.651	40.62
314.864	32.43
315.078	46.76
315.292	5.8
315.505	91.82
315.719	-2.39
315.933	-16.73
316.146	85.67
316.36	-0.34
316.573	34.47
316.787	57
317.001	20.14
317.214	34.47
317.428	30.38
317.641	52.91
317.855	77.48
318.068	95.91
318.282	57
318.495	73.39
318.709	67.24
318.922	91.82
319.136	50.86
319.349	52.91
319.563	38.57
319.776	7.85
319.99	69.29
320.203	67.24
320.417	59.05
320.63	54.95
320.843	118.44
321.057	130.73
321.27	81.58
321.483	7.85
321.697	63.15
321.91	69.29
322.124	38.57
322.337	91.82
322.55	-22.87
322.763	59.05
322.977	118.44
323.19	61.1
323.403	134.82
323.617	50.86
323.83	52.91
324.043	83.63
324.256	-4.44
324.469	57
324.683	52.91
324.896	48.81
325.109	95.91
325.322	32.43
325.535	36.52
325.748	61.1
325.962	95.91
326.175	81.58
326.388	26.28
326.601	36.52
326.814	11.95
327.027	36.52
327.24	71.34
327.453	26.28
327.666	85.67
327.879	48.81
328.092	22.19
328.305	67.24
328.518	73.39
328.731	3.75
328.944	32.43
329.157	67.24
329.37	79.53
329.583	7.85
329.796	83.63
330.009	11.95
330.222	13.99
330.435	61.1
330.648	24.23
330.861	61.1
331.073	95.91
331.286	67.24
331.499	42.67
331.712	57
331.925	16.04
332.138	-8.53
332.35	-14.68
332.563	18.09
332.776	67.24
332.989	28.33
333.202	9.9
333.414	52.91
333.627	7.85
333.84	30.38
334.053	42.67
334.265	-37.2
334.478	-12.63
334.691	30.38
334.903	97.96
335.116	7.85
335.329	46.76
335.541	85.67
335.754	134.82
335.966	147.11
336.179	36.52
336.392	20.14
336.604	-12.63
336.817	65.19
337.029	75.43
337.242	50.86
337.454	28.33
337.667	81.58
337.88	75.43
338.092	1.71
338.305	34.47
338.517	3.75
338.729	50.86
338.942	50.86
339.154	95.91
339.367	46.76
339.579	50.86
339.792	-33.11
340.004	91.82
340.217	163.5
340.429	69.29
340.641	30.38
340.854	69.29
341.066	7.85
341.278	71.34
341.491	-22.87
341.703	42.67
341.915	34.47
342.128	1.71
342.34	54.95
342.552	40.62
342.764	-4.44
342.977	18.09
343.189	40.62
343.401	-8.53
343.613	-24.92
343.826	106.15
344.038	26.28
344.25	34.47
344.462	59.05
344.674	-6.49
344.886	38.57
345.099	69.29
345.311	50.86
345.523	89.77
345.735	34.47
345.947	34.47
346.159	22.19
346.371	9.9
346.583	54.95
346.795	140.97
347.007	30.38
347.219	83.63
347.431	54.95
347.643	75.43
347.855	134.82
348.067	7.85
348.279	3.75
348.491	65.19
348.703	40.62
348.915	54.95
349.127	75.43
349.339	5.8
349.551	44.71
349.763	61.1
349.975	61.1
350.187	134.82
350.399	16.04
350.61	69.29
350.822	87.72
351.034	34.47
351.246	116.39
351.458	50.86
351.669	57
351.881	110.25
352.093	69.29
352.305	100.01
352.517	79.53
352.728	73.39
352.94	65.19
353.152	65.19
353.363	-41.3
353.575	-6.49
353.787	34.47
353.999	57
354.21	85.67
354.422	100.01
354.633	91.82
354.845	-16.73
355.057	85.67
355.268	104.11
355.48	75.43
355.692	40.62
355.903	42.67
356.115	46.76
356.326	24.23
356.538	122.54
356.749	57
356.961	106.15
357.172	100.01
357.384	36.52
357.595	73.39
357.807	36.52
358.018	75.43
358.23	18.09
358.441	54.95
358.653	165.54
358.864	44.71
359.075	13.99
359.287	-4.44
359.498	44.71
359.709	65.19
359.921	44.71
360.132	42.67
360.344	81.58
360.555	34.47
360.766	126.63
360.977	26.28
361.189	46.76
361.4	61.1
361.611	118.44
361.823	81.58
362.034	95.91
362.245	-20.82
362.456	28.33
362.667	95.91
362.879	130.73
363.09	-12.63
363.301	73.39
363.512	48.81
363.723	93.87
363.935	93.87
364.146	65.19
364.357	-12.63
364.568	46.76
364.779	30.38
364.99	-2.39
365.201	54.95
365.412	52.91
365.623	5.8
365.834	65.19
366.045	69.29
366.256	112.3
366.467	69.29
366.678	26.28
366.889	110.25
367.1	95.91
367.311	54.95
367.522	32.43
367.733	44.71
367.944	83.63
368.155	97.96
368.366	38.57
368.577	124.58
368.788	57
368.999	26.28
369.209	83.63
369.42	63.15
369.631	102.06
369.842	97.96
370.053	87.72
370.264	87.72
370.474	59.05
370.685	65.19
370.896	93.87
371.107	48.81
371.317	114.34
371.528	-39.25
371.739	110.25
371.95	118.44
372.16	140.97
372.371	24.23
372.582	67.24
372.792	34.47
373.003	85.67
373.214	181.93
373.424	87.72
373.635	-14.68
373.846	65.19
374.056	145.06
374.267	85.67
374.477	100.01
374.688	24.23
374.898	26.28
375.109	73.39
375.319	5.8
375.53	63.15
375.74	54.95
375.951	65.19
376.161	40.62
376.372	83.63
376.582	59.05
376.793	34.47
377.003	57
377.214	126.63
377.424	143.02
377.635	48.81
377.845	-2.39
378.055	136.87
378.266	28.33
378.476	42.67
378.686	54.95
378.897	163.5
379.107	67.24
379.317	34.47
379.528	106.15
379.738	106.15
379.948	118.44
380.158	124.58
380.369	130.73
380.579	120.49
380.789	79.53
380.999	145.06
381.21	87.72
381.42	175.78
381.63	63.15
381.84	77.48
382.05	73.39
382.261	40.62
382.471	104.11
382.681	46.76
382.891	54.95
383.101	75.43
383.311	106.15
383.521	79.53
383.731	104.11
383.941	106.15
384.151	40.62
384.361	36.52
384.571	114.34
384.781	13.99
384.991	79.53
385.201	120.49
385.411	83.63
385.621	50.86
385.831	26.28
386.041	83.63
386.251	102.06
386.461	110.25
386.671	87.72
386.881	18.09
387.091	85.67
387.301	13.99
387.511	71.34
387.72	97.96
387.93	130.73
388.14	32.43
388.35	63.15
388.56	77.48
388.769	63.15
388.979	75.43
389.189	69.29
389.399	-14.68
389.609	69.29
389.818	-2.39
390.028	91.82
390.238	153.26
390.447	67.24
390.657	73.39
390.867	59.05
391.076	46.76
391.286	112.3
391.496	83.63
391.705	69.29
391.915	79.53
392.125	89.77
392.334	124.58
392.544	54.95
392.753	138.92
392.963	24.23
393.172	149.16
393.382	71.34
393.591	81.58
393.801	50.86
394.01	126.63
394.22	85.67
394.429	81.58
394.639	71.34
394.848	147.11
395.058	151.21
395.267	91.82
395.477	112.3
395.686	48.81
395.895	145.06
396.105	175.78
396.314	63.15
396.524	102.06
396.733	106.15
396.942	116.39
397.152	59.05
397.361	126.63
397.57	59.05
397.78	81.58
397.989	118.44
398.198	128.68
398.407	102.06
398.617	124.58
398.826	79.53
399.035	100.01
399.244	128.68
399.453	54.95
399.663	108.2
399.872	216.74
400.081	171.69
400.29	110.25
400.499	212.65
400.708	167.59
400.917	89.77
401.127	65.19
401.336	65.19
401.545	216.74
401.754	177.83
401.963	147.11
402.172	112.3
402.381	87.72
402.59	159.4
402.799	100.01
403.008	196.26
403.217	196.26
403.426	214.7
403.635	212.65
403.844	165.54
404.053	212.65
404.262	179.88
404.471	224.94
404.68	179.88
404.888	247.46
405.097	159.4
405.306	267.94
405.515	245.41
405.724	216.74
405.933	206.5
406.142	282.28
406.35	298.66
406.559	243.37
406.768	276.13
406.977	286.37
407.185	138.92
407.394	276.13
407.603	186.02
407.812	278.18
408.02	294.57
408.229	294.57
408.438	263.85
408.646	247.46
408.855	331.43
409.064	366.25
409.272	296.61
409.481	407.2
409.69	290.47
409.898	247.46
410.107	448.16
410.315	364.2
410.524	466.6
410.733	366.25
410.941	353.96
411.15	509.6
411.358	468.64
411.567	448.16
411.775	562.85
411.984	442.02
412.192	513.7
412.401	501.41
412.609	607.91
412.818	601.76
413.026	620.19
413.234	687.78
413.443	605.86
413.651	665.25
413.86	695.97
414.068	720.54
414.276	704.16
414.485	781.98
414.693	736.93
414.901	796.32
415.11	863.9
415.318	900.76
415.526	894.62
415.734	951.96
415.943	954.01
416.151	1025.69
416.359	1003.16
416.567	1078.94
416.776	1126.04
416.984	1181.34
417.192	1181.34
417.4	1283.74
417.608	1222.3
417.817	1296.02
418.025	1355.41
418.233	1369.75
418.441	1398.42
418.649	1599.12
418.857	1496.72
419.065	1564.31
419.273	1539.73
419.481	1762.96
419.689	1736.34
419.897	1787.54
420.105	1851.02
420.313	1869.45
420.521	1963.66
420.729	1957.52
420.937	2090.63
421.145	2283.14
421.353	2313.86
421.561	2408.07
421.769	2406.02
421.977	2612.87
422.185	2664.07
422.393	2819.71
422.601	2795.14
422.809	2840.19
423.017	2911.87
423.224	2924.16
423.432	3118.72
423.64	3190.39
423.848	3300.98
424.056	3188.35
424.263	3505.78
424.471	3587.7
424.679	3530.36
424.887	3907.18
425.094	3901.04
425.302	3999.34
425.51	4095.6
425.718	4247.15
425.925	4314.73
426.133	4423.27
426.341	4566.63
426.548	4693.6
426.756	4873.82
426.964	5000.8
427.171	5195.36
427.379	5463.64
427.586	5422.68
427.794	5738.07
428.001	5940.82
428.209	6233.68
428.417	6096.46
428.624	6495.82
428.832	6590.02
429.039	6276.68
429.247	6438.47
429.454	7173.69
429.662	7499.32
429.869	6882.88
430.076	7618.1
430.284	7321.15
430.491	7685.69
430.699	8164.91
430.906	8154.67
431.114	8367.66
431.321	8742.44
431.528	8898.08
431.736	9221.66
431.943	9772.57
432.15	9328.16
432.358	9682.45
432.565	10063.38
432.772	9940.5
432.979	10647.05
433.187	10792.45
433.394	10933.76
433.601	11466.24
433.808	11660.79
434.016	11367.93
434.223	11822.58
434.43	12701.16
434.637	12447.21
434.844	13215.2
435.052	13735.39
435.259	13290.98
435.466	13637.08
435.673	13530.59
435.88	14351.82
436.087	15048.13
436.294	15228.35
436.501	14829
436.708	14949.83
436.915	15490.49
437.122	16090.55
437.329	15934.9
437.537	16850.35
437.743	16778.67
437.95	16946.6
438.157	17673.63
438.364	18369.94
438.571	18421.14
438.778	18613.65
438.985	20254.07
439.192	19264.9
439.399	19957.11
439.606	19676.54
439.813	20753.77
440.02	21794.14
440.227	21456.23
440.433	21065.07
440.64	22021.47
440.847	22101.34
441.054	22482.26
441.261	23557.44
441.467	23629.12
441.674	24104.25
441.881	25214.25
442.088	25081.13
442.294	24487.22
442.501	25400.62
442.708	25988.38
442.914	26811.67
443.121	27809.03
443.328	27213.07
443.534	29056.24
443.741	28366.07
443.948	27702.53
444.154	30121.18
444.361	29598.95
444.568	30364.89
444.774	29959.39
444.981	30172.38
445.187	31311.05
445.394	32953.52
445.6	32132.29
445.807	35239.06
446.013	33967.27
446.22	34389.15
446.426	35644.55
446.633	35902.6
446.839	37026.93
447.046	35681.42
447.252	37866.6
447.459	37868.65
447.665	37506.16
447.871	39537.74
448.078	40821.82
448.284	39339.09
448.491	39879.75
448.697	41165.88
448.903	41868.33
449.11	42314.79
449.316	41581.62
449.522	42648.61
449.728	43457.56
449.935	43639.82
450.141	43938.83
450.347	44837.89
450.553	43355.16
450.76	43727.89
450.966	45396.98
451.172	44721.15
451.378	45644.79
451.584	45020.16
451.791	45943.79
451.997	45865.97
452.203	46603.24
452.409	46773.22
452.615	46134.25
452.821	44618.75
453.027	44114.95
453.233	46255.08
453.44	44704.77
453.646	45235.19
453.852	45188.09
454.058	45825.01
454.264	44659.71
454.47	45880.3
454.676	44356.61
454.882	45773.81
455.088	42331.17
455.294	42632.22
455.5	43406.36
455.705	43594.77
455.911	42019.88
456.117	41196.6
456.323	40762.43
456.529	38335.59
456.735	39908.43
456.941	39097.43
457.147	38165.6
457.352	37028.98
457.558	36492.41
457.764	36848.76
457.97	36084.87
458.176	35333.26
458.381	35175.57
458.587	33789.1
458.793	33559.72
458.999	32052.42
459.204	34516.12
459.41	32697.53
459.616	30923.99
459.821	31220.94
460.027	30782.68
460.233	29793.51
460.438	28679.41
460.644	29414.63
460.85	27761.92
461.055	27227.4
461.261	27571.46
461.466	25199.91
461.672	24335.67
461.878	26535.19
462.083	24700.21
462.289	23907.65
462.494	23778.62
462.7	22785.36
462.905	22043.99
463.111	22998.35
463.316	22723.92
463.522	22631.76
463.727	22439.25
463.932	22459.73
464.138	22173.02
464.343	22379.86
464.549	21343.59
464.754	22519.12
464.959	21888.35
465.165	22054.23
465.37	21097.83
465.575	20718.96
465.781	21618.02
465.986	21638.5
466.191	20807.02
466.397	20354.42
466.602	19008.9
466.807	20272.5
467.012	20036.98
467.218	19864.96
467.423	19846.52
