Data from USB4F104151__4__12-00-18-794.txt Node

Date: Fri Mar 14 12:00:18 EDT 2025
User: louis
Spectrometer: USB4F10415
Trigger mode: 4
Integration Time (sec): 2.000000E-2
Scans to average: 1
Electric dark correction enabled: true
Nonlinearity correction enabled: false
Boxcar width: 0
XAxis mode: Wavelengths
Number of Pixels in Spectrum: 3648
>>>>>Begin Spectral Data<<<<<
178.204	-158.55
178.424	-158.55
178.644	-158.55
178.864	-97.11
179.084	-97.11
179.304	7.34
179.524	9.39
179.744	-0.85
179.964	36.01
180.184	-43.86
180.404	-15.19
180.624	-13.14
180.844	-7
181.064	-21.33
181.283	23.72
181.503	-4.95
181.723	29.87
181.943	-84.82
182.163	-47.96
182.383	-76.63
182.602	-31.57
182.822	27.82
183.042	-27.48
183.262	-11.09
183.482	-4.95
183.701	42.15
183.921	-0.85
184.141	-31.57
184.361	27.82
184.58	-62.29
184.8	-2.9
185.02	-4.95
185.239	46.25
185.459	-31.57
185.679	15.53
185.898	-64.34
186.118	44.2
186.338	11.43
186.557	-86.87
186.777	42.15
186.997	-9.05
187.216	46.25
187.436	60.59
187.655	-29.52
187.875	54.44
188.095	-54.1
188.314	81.07
188.534	21.67
188.753	21.67
188.973	36.01
189.192	-7
189.412	11.43
189.631	9.39
189.851	-4.95
190.07	29.87
190.29	-29.52
190.509	9.39
190.729	5.29
190.948	21.67
191.168	54.44
191.387	31.91
191.607	-13.14
191.826	-47.96
192.045	50.35
192.265	9.39
192.484	-43.86
192.704	13.48
192.923	-39.76
193.142	-7
193.362	-41.81
193.581	54.44
193.8	62.63
194.02	-76.63
194.239	21.67
194.458	15.53
194.678	-9.05
194.897	21.67
195.116	-43.86
195.335	-68.44
195.555	44.2
195.774	-27.48
195.993	72.87
196.212	36.01
196.432	-86.87
196.651	-23.38
196.87	15.53
197.089	46.25
197.308	23.72
197.528	7.34
197.747	-56.15
197.966	5.29
198.185	48.3
198.404	9.39
198.623	-17.24
198.842	15.53
199.062	-60.24
199.281	-21.33
199.5	3.24
199.719	9.39
199.938	-4.95
200.157	-52.05
200.376	-4.95
200.595	1.19
200.814	38.06
201.033	-41.81
201.252	60.59
201.471	-21.33
201.69	-7
201.909	-11.09
202.128	23.72
202.347	23.72
202.566	11.43
202.785	-64.34
203.004	-19.29
203.223	38.06
203.442	15.53
203.661	70.83
203.879	58.54
204.098	17.58
204.317	33.96
204.536	42.15
204.755	7.34
204.974	-7
205.193	44.2
205.411	58.54
205.63	-4.95
205.849	-31.57
206.068	5.29
206.287	-50
206.505	-11.09
206.724	17.58
206.943	-37.72
207.162	-45.91
207.381	-45.91
207.599	31.91
207.818	-9.05
208.037	1.19
208.255	7.34
208.474	56.49
208.693	-15.19
208.911	-54.1
209.13	-52.05
209.349	17.58
209.567	1.19
209.786	-43.86
210.005	48.3
210.223	-15.19
210.442	-4.95
210.661	3.24
210.879	-66.39
211.098	-9.05
211.316	-54.1
211.535	-58.2
211.753	-9.05
211.972	44.2
212.191	13.48
212.409	25.77
212.628	13.48
212.846	52.39
213.065	1.19
213.283	31.91
213.502	33.96
213.72	-0.85
213.938	-58.2
214.157	-15.19
214.375	-68.44
214.594	-13.14
214.812	-31.57
215.031	-9.05
215.249	58.54
215.467	-33.62
215.686	-17.24
215.904	-41.81
216.122	50.35
216.341	21.67
216.559	-50
216.778	-19.29
216.996	64.68
217.214	-58.2
217.432	-33.62
217.651	-31.57
217.869	-56.15
218.087	17.58
218.306	1.19
218.524	23.72
218.742	27.82
218.96	9.39
219.179	-2.9
219.397	74.92
219.615	-19.29
219.833	-2.9
220.051	-66.39
220.27	-7
220.488	7.34
220.706	9.39
220.924	44.2
221.142	23.72
221.36	-9.05
221.578	60.59
221.796	-11.09
222.015	23.72
222.233	11.43
222.451	31.91
222.669	44.2
222.887	58.54
223.105	9.39
223.323	-13.14
223.541	-19.29
223.759	44.2
223.977	83.11
224.195	5.29
224.413	48.3
224.631	-47.96
224.849	29.87
225.067	-27.48
225.285	13.48
225.503	-31.57
225.721	-52.05
225.939	9.39
226.157	13.48
226.375	52.39
226.592	-29.52
226.81	52.39
227.028	5.29
227.246	-41.81
227.464	-64.34
227.682	33.96
227.9	-33.62
228.117	-64.34
228.335	17.58
228.553	-52.05
228.771	-123.73
228.989	1.19
229.206	7.34
229.424	-4.95
229.642	-43.86
229.86	-17.24
230.077	-4.95
230.295	31.91
230.513	-60.24
230.731	17.58
230.948	89.26
231.166	-37.72
231.384	56.49
231.601	-33.62
231.819	-25.43
232.037	-39.76
232.254	-11.09
232.472	7.34
232.689	72.87
232.907	48.3
233.125	-4.95
233.342	-23.38
233.56	-58.2
233.777	-25.43
233.995	62.63
234.213	54.44
234.43	-50
234.648	5.29
234.865	15.53
235.083	5.29
235.3	83.11
235.518	-37.72
235.735	42.15
235.953	66.73
236.17	-45.91
236.388	-27.48
236.605	-4.95
236.822	11.43
237.04	72.87
237.257	7.34
237.475	72.87
237.692	-0.85
237.909	-13.14
238.127	1.19
238.344	1.19
238.562	33.96
238.779	-33.62
238.996	-43.86
239.214	42.15
239.431	9.39
239.648	-25.43
239.865	5.29
240.083	3.24
240.3	31.91
240.517	-66.39
240.735	-4.95
240.952	-64.34
241.169	7.34
241.386	-4.95
241.603	-78.68
241.821	-31.57
242.038	-43.86
242.255	23.72
242.472	7.34
242.689	3.24
242.907	-0.85
243.124	54.44
243.341	-19.29
243.558	-97.11
243.775	-15.19
243.992	19.63
244.209	-15.19
244.426	21.67
244.643	42.15
244.86	-21.33
245.078	-9.05
245.295	-58.2
245.512	-25.43
245.729	-29.52
245.946	56.49
246.163	62.63
246.38	66.73
246.597	-27.48
246.814	-56.15
247.031	25.77
247.248	-21.33
247.464	-7
247.681	-17.24
247.898	17.58
248.115	27.82
248.332	3.24
248.549	1.19
248.766	33.96
248.983	11.43
249.2	15.53
249.417	44.2
249.633	-52.05
249.85	7.34
250.067	-19.29
250.284	-25.43
250.501	29.87
250.717	19.63
250.934	-0.85
251.151	25.77
251.368	-4.95
251.585	95.4
251.801	27.82
252.018	-39.76
252.235	15.53
252.451	-9.05
252.668	36.01
252.885	50.35
253.102	9.39
253.318	-4.95
253.535	-78.68
253.752	44.2
253.968	-41.81
254.185	-39.76
254.401	-13.14
254.618	1.19
254.835	-39.76
255.051	-62.29
255.268	-23.38
255.484	-7
255.701	-31.57
255.917	-2.9
256.134	-58.2
256.351	-29.52
256.567	-7
256.784	42.15
257	9.39
257.217	-17.24
257.433	64.68
257.65	-13.14
257.866	38.06
258.082	-9.05
258.299	-15.19
258.515	-15.19
258.732	42.15
258.948	29.87
259.165	-11.09
259.381	-4.95
259.597	31.91
259.814	1.19
260.03	-80.72
260.246	13.48
260.463	11.43
260.679	13.48
260.895	-13.14
261.112	-80.72
261.328	-27.48
261.544	21.67
261.761	-4.95
261.977	56.49
262.193	-72.53
262.409	3.24
262.626	-15.19
262.842	-47.96
263.058	-23.38
263.274	21.67
263.49	-19.29
263.707	-2.9
263.923	62.63
264.139	-80.72
264.355	76.97
264.571	-2.9
264.787	-15.19
265.004	5.29
265.22	-17.24
265.436	-0.85
265.652	-21.33
265.868	1.19
266.084	15.53
266.3	25.77
266.516	23.72
266.732	-62.29
266.948	-17.24
267.164	7.34
267.38	5.29
267.596	33.96
267.812	29.87
268.028	44.2
268.244	-2.9
268.46	-29.52
268.676	27.82
268.892	19.63
269.108	-19.29
269.324	-4.95
269.54	-47.96
269.756	-21.33
269.972	-52.05
270.188	72.87
270.403	-80.72
270.619	-11.09
270.835	-0.85
271.051	-7
271.267	9.39
271.483	-21.33
271.698	-0.85
271.914	23.72
272.13	23.72
272.346	1.19
272.562	-41.81
272.777	54.44
272.993	-35.67
273.209	-27.48
273.425	-41.81
273.64	-0.85
273.856	29.87
274.072	17.58
274.287	-62.29
274.503	7.34
274.719	62.63
274.934	13.48
275.15	-23.38
275.366	48.3
275.581	-72.53
275.797	68.78
276.012	29.87
276.228	19.63
276.444	44.2
276.659	31.91
276.875	56.49
277.09	-2.9
277.306	23.72
277.521	17.58
277.737	46.25
277.952	74.92
278.168	-41.81
278.383	97.45
278.599	5.29
278.814	-15.19
279.03	31.91
279.245	-23.38
279.461	-19.29
279.676	-31.57
279.892	23.72
280.107	13.48
280.322	-15.19
280.538	58.54
280.753	62.63
280.969	-7
281.184	19.63
281.399	99.5
281.615	-27.48
281.83	-31.57
282.045	31.91
282.26	7.34
282.476	-37.72
282.691	48.3
282.906	21.67
283.122	-33.62
283.337	-64.34
283.552	-41.81
283.767	-41.81
283.983	76.97
284.198	29.87
284.413	33.96
284.628	-11.09
284.843	-0.85
285.058	21.67
285.274	5.29
285.489	-45.91
285.704	31.91
285.919	-84.82
286.134	33.96
286.349	33.96
286.564	44.2
286.779	17.58
286.995	19.63
287.21	-142.16
287.425	-15.19
287.64	-15.19
287.855	-45.91
288.07	-43.86
288.285	-45.91
288.5	66.73
288.715	54.44
288.93	7.34
289.145	-39.76
289.36	21.67
289.575	29.87
289.79	31.91
290.004	-2.9
290.219	25.77
290.434	17.58
290.649	-23.38
290.864	15.53
291.079	-15.19
291.294	76.97
291.509	-54.1
291.724	-54.1
291.938	-9.05
292.153	21.67
292.368	-41.81
292.583	5.29
292.798	-4.95
293.012	72.87
293.227	19.63
293.442	54.44
293.657	50.35
293.871	46.25
294.086	-4.95
294.301	-37.72
294.516	9.39
294.73	31.91
294.945	-2.9
295.16	-9.05
295.374	29.87
295.589	31.91
295.804	-27.48
296.018	-31.57
296.233	27.82
296.447	50.35
296.662	7.34
296.877	9.39
297.091	-0.85
297.306	-68.44
297.52	-21.33
297.735	-23.38
297.949	-25.43
298.164	19.63
298.378	-7
298.593	-21.33
298.807	-11.09
299.022	-15.19
299.236	115.88
299.451	-45.91
299.665	54.44
299.88	58.54
300.094	-21.33
300.309	-7
300.523	29.87
300.737	-31.57
300.952	-74.58
301.166	48.3
301.381	19.63
301.595	-50
301.809	19.63
302.024	23.72
302.238	13.48
302.452	15.53
302.667	11.43
302.881	48.3
303.095	85.16
303.309	17.58
303.524	29.87
303.738	-29.52
303.952	31.91
304.166	25.77
304.381	3.24
304.595	31.91
304.809	5.29
305.023	-15.19
305.237	-15.19
305.452	33.96
305.666	36.01
305.88	95.4
306.094	-47.96
306.308	3.24
306.522	-17.24
306.736	44.2
306.95	17.58
307.164	-52.05
307.379	3.24
307.593	-4.95
307.807	54.44
308.021	56.49
308.235	-25.43
308.449	-47.96
308.663	-88.92
308.877	44.2
309.091	-60.24
309.305	23.72
309.519	-82.77
309.733	9.39
309.947	-93.01
310.161	74.92
310.374	-78.68
310.588	76.97
310.802	-2.9
311.016	-31.57
311.23	-23.38
311.444	15.53
311.658	-15.19
311.872	44.2
312.085	66.73
312.299	-25.43
312.513	62.63
312.727	-23.38
312.941	15.53
313.154	-72.53
313.368	3.24
313.582	-13.14
313.796	-23.38
314.009	38.06
314.223	74.92
314.437	-43.86
314.651	38.06
314.864	21.67
315.078	-21.33
315.292	23.72
315.505	-11.09
315.719	1.19
315.933	9.39
316.146	29.87
316.36	-41.81
316.573	17.58
316.787	-11.09
317.001	70.83
317.214	-37.72
317.428	21.67
317.641	5.29
317.855	31.91
318.068	-4.95
318.282	23.72
318.495	27.82
318.709	11.43
318.922	-13.14
319.136	74.92
319.349	-9.05
319.563	9.39
319.776	-35.67
319.99	56.49
320.203	56.49
320.417	99.5
320.63	56.49
320.843	31.91
321.057	17.58
321.27	52.39
321.483	-4.95
321.697	23.72
321.91	15.53
322.124	101.55
322.337	15.53
322.55	33.96
322.763	60.59
322.977	-9.05
323.19	-15.19
323.403	-13.14
323.617	-64.34
323.83	31.91
324.043	83.11
324.256	5.29
324.469	-17.24
324.683	-0.85
324.896	5.29
325.109	-19.29
325.322	-84.82
325.535	-23.38
325.748	-72.53
325.962	-19.29
326.175	36.01
326.388	56.49
326.601	54.44
326.814	-39.76
327.027	-99.16
327.24	44.2
327.453	-39.76
327.666	83.11
327.879	23.72
328.092	3.24
328.305	-13.14
328.518	-50
328.731	-60.24
328.944	-74.58
329.157	-21.33
329.37	-17.24
329.583	68.78
329.796	93.35
330.009	-9.05
330.222	44.2
330.435	50.35
330.648	70.83
330.861	-19.29
331.073	23.72
331.286	-29.52
331.499	42.15
331.712	-25.43
331.925	-4.95
332.138	11.43
332.35	-25.43
332.563	7.34
332.776	60.59
332.989	1.19
333.202	13.48
333.414	-2.9
333.627	-9.05
333.84	-11.09
334.053	-70.48
334.265	19.63
334.478	23.72
334.691	56.49
334.903	19.63
335.116	-52.05
335.329	3.24
335.541	-11.09
335.754	105.64
335.966	-54.1
336.179	74.92
336.392	7.34
336.604	7.34
336.817	29.87
337.029	-13.14
337.242	91.31
337.454	64.68
337.667	25.77
337.88	7.34
338.092	-15.19
338.305	31.91
338.517	9.39
338.729	46.25
338.942	42.15
339.154	-17.24
339.367	13.48
339.579	29.87
339.792	9.39
340.004	68.78
340.217	25.77
340.429	50.35
340.641	-95.06
340.854	-64.34
341.066	-13.14
341.278	40.11
341.491	58.54
341.703	-11.09
341.915	-21.33
342.128	44.2
342.34	-0.85
342.552	3.24
342.764	19.63
342.977	-21.33
343.189	21.67
343.401	27.82
343.613	72.87
343.826	15.53
344.038	-35.67
344.25	62.63
344.462	-2.9
344.674	-23.38
344.886	23.72
345.099	64.68
345.311	21.67
345.523	60.59
345.735	-88.92
345.947	21.67
346.159	-7
346.371	68.78
346.583	-58.2
346.795	36.01
347.007	3.24
347.219	40.11
347.431	3.24
347.643	105.64
347.855	-58.2
348.067	91.31
348.279	-39.76
348.491	-19.29
348.703	-9.05
348.915	64.68
349.127	54.44
349.339	25.77
349.551	-64.34
349.763	-11.09
349.975	-4.95
350.187	33.96
350.399	70.83
350.61	85.16
350.822	-15.19
351.034	50.35
351.246	9.39
351.458	-66.39
351.669	-37.72
351.881	31.91
352.093	-2.9
352.305	76.97
352.517	103.59
352.728	76.97
352.94	-52.05
353.152	-9.05
353.363	9.39
353.575	-109.4
353.787	42.15
353.999	17.58
354.21	38.06
354.422	23.72
354.633	-35.67
354.845	-0.85
355.057	23.72
355.268	48.3
355.48	-33.62
355.692	-7
355.903	23.72
356.115	-50
356.326	-66.39
356.538	152.74
356.749	-31.57
356.961	-0.85
357.172	48.3
357.384	9.39
357.595	36.01
357.807	-17.24
358.018	-15.19
358.23	27.82
358.441	11.43
358.653	-15.19
358.864	-105.3
359.075	9.39
359.287	-7
359.498	23.72
359.709	-23.38
359.921	-25.43
360.132	54.44
360.344	3.24
360.555	50.35
360.766	79.02
360.977	7.34
361.189	-39.76
361.4	-13.14
361.611	50.35
361.823	66.73
362.034	29.87
362.245	-47.96
362.456	11.43
362.667	66.73
362.879	33.96
363.09	38.06
363.301	60.59
363.512	9.39
363.723	-39.76
363.935	-0.85
364.146	-0.85
364.357	58.54
364.568	-13.14
364.779	-50
364.99	15.53
365.201	-0.85
365.412	-2.9
365.623	-43.86
365.834	-13.14
366.045	70.83
366.256	5.29
366.467	44.2
366.678	52.39
366.889	-37.72
367.1	-15.19
367.311	-19.29
367.522	-39.76
367.733	83.11
367.944	-23.38
368.155	-41.81
368.366	-27.48
368.577	-11.09
368.788	58.54
368.999	-9.05
369.209	29.87
369.42	29.87
369.631	-0.85
369.842	3.24
370.053	19.63
370.264	-13.14
370.474	-45.91
370.685	52.39
370.896	9.39
371.107	97.45
371.317	-9.05
371.528	-13.14
371.739	17.58
371.95	5.29
372.16	-11.09
372.371	-52.05
372.582	-68.44
372.792	42.15
373.003	89.26
373.214	38.06
373.424	44.2
373.635	-19.29
373.846	33.96
374.056	-56.15
374.267	-9.05
374.477	3.24
374.688	13.48
374.898	-45.91
375.109	79.02
375.319	7.34
375.53	19.63
375.74	68.78
375.951	52.39
376.161	17.58
376.372	-37.72
376.582	-35.67
376.793	11.43
377.003	-31.57
377.214	11.43
377.424	83.11
377.635	44.2
377.845	48.3
378.055	-0.85
378.266	-31.57
378.476	-2.9
378.686	15.53
378.897	-23.38
379.107	-35.67
379.317	62.63
379.528	-4.95
379.738	85.16
379.948	-29.52
380.158	44.2
380.369	-31.57
380.579	-33.62
380.789	-9.05
380.999	23.72
381.21	-11.09
381.42	38.06
381.63	36.01
381.84	29.87
382.05	-2.9
382.261	85.16
382.471	54.44
382.681	68.78
382.891	7.34
383.101	15.53
383.311	-56.15
383.521	-50
383.731	-43.86
383.941	31.91
384.151	1.19
384.361	-35.67
384.571	13.48
384.781	-17.24
384.991	15.53
385.201	58.54
385.411	81.07
385.621	74.92
385.831	-35.67
386.041	60.59
386.251	44.2
386.461	9.39
386.671	-58.2
386.881	83.11
387.091	72.87
387.301	-15.19
387.511	-17.24
387.72	87.21
387.93	25.77
388.14	-25.43
388.35	-66.39
388.56	7.34
388.769	68.78
388.979	11.43
389.189	21.67
389.399	-2.9
389.609	33.96
389.818	48.3
390.028	66.73
390.238	52.39
390.447	-39.76
390.657	29.87
390.867	-31.57
391.076	76.97
391.286	-15.19
391.496	21.67
391.705	87.21
391.915	27.82
392.125	-15.19
392.334	25.77
392.544	13.48
392.753	-7
392.963	7.34
393.172	76.97
393.382	-25.43
393.591	21.67
393.801	76.97
394.01	48.3
394.22	72.87
394.429	99.5
394.639	25.77
394.848	-9.05
395.058	15.53
395.267	9.39
395.477	58.54
395.686	23.72
395.895	103.59
396.105	29.87
396.314	-19.29
396.524	38.06
396.733	42.15
396.942	62.63
397.152	17.58
397.361	72.87
397.57	85.16
397.78	52.39
397.989	91.31
398.198	15.53
398.407	60.59
398.617	44.2
398.826	-25.43
399.035	44.2
399.244	40.11
399.453	42.15
399.663	-45.91
399.872	64.68
400.081	33.96
400.29	56.49
400.499	42.15
400.708	93.35
400.917	89.26
401.127	-41.81
401.336	9.39
401.545	70.83
401.754	74.92
401.963	128.17
402.172	15.53
402.381	68.78
402.59	13.48
402.799	50.35
403.008	103.59
403.217	68.78
403.426	52.39
403.635	76.97
403.844	27.82
404.053	64.68
404.262	42.15
404.471	181.42
404.68	33.96
404.888	93.35
405.097	50.35
405.306	11.43
405.515	38.06
405.724	60.59
405.933	68.78
406.142	54.44
406.35	36.01
406.559	160.94
406.768	167.08
406.977	52.39
407.185	136.36
407.394	74.92
407.603	111.78
407.812	208.04
408.02	60.59
408.229	64.68
408.438	74.92
408.646	130.22
408.855	68.78
409.064	148.65
409.272	140.46
409.481	150.7
409.69	171.18
409.898	220.33
410.107	162.98
410.315	210.09
410.524	130.22
410.733	216.23
410.941	253.09
411.15	107.69
411.358	140.46
411.567	191.66
411.775	167.08
411.984	230.57
412.192	148.65
412.401	189.61
412.609	218.28
412.818	263.33
413.026	310.44
413.234	257.19
413.443	236.71
413.651	320.68
413.86	257.19
414.068	341.16
414.276	279.72
414.485	353.45
414.693	335.01
414.901	464.04
415.11	347.3
415.318	457.89
415.526	439.46
415.734	357.54
415.943	504.99
416.151	447.65
416.359	474.28
416.567	410.79
416.776	509.09
416.984	474.28
417.192	552.1
417.4	591.01
417.608	519.33
417.817	615.59
418.025	621.73
418.233	756.9
418.441	623.78
418.649	634.02
418.857	806.05
419.065	824.48
419.273	705.7
419.481	804
419.689	853.15
419.897	892.06
420.105	918.68
420.313	875.68
420.521	951.45
420.729	928.92
420.937	926.88
421.145	1023.13
421.353	1027.23
421.561	1209.5
421.769	1172.63
421.977	1141.91
422.185	1197.21
422.393	1330.33
422.601	1232.02
422.809	1416.34
423.017	1371.29
423.224	1375.38
423.432	1490.07
423.64	1494.16
423.848	1592.47
424.056	1553.55
424.263	1756.3
424.471	1672.34
424.679	1768.59
424.887	1846.41
425.094	1868.94
425.302	1920.14
425.51	1973.39
425.718	2014.35
425.925	2049.16
426.133	2139.27
426.341	2311.3
426.548	2378.89
426.756	2301.06
426.964	2382.98
427.171	2464.9
427.379	2612.35
427.586	2575.49
427.794	2798.72
428.001	2870.4
428.209	2956.41
428.417	2888.83
428.624	3204.22
428.832	3093.63
429.039	3026.04
429.247	3052.67
429.454	3386.49
429.662	3650.67
429.869	3482.74
430.076	3558.52
430.284	3529.84
430.491	3705.97
430.699	3871.86
430.906	3867.76
431.114	4093.04
431.321	4062.32
431.528	4207.72
431.736	4365.42
431.943	4629.6
432.15	4539.49
432.358	4605.03
432.565	4762.72
432.772	4752.48
432.979	5047.39
433.187	5074.01
433.394	5198.94
433.601	5526.61
433.808	5461.08
434.016	5397.59
434.223	5842
434.43	6100.05
434.637	6018.13
434.844	6296.65
435.052	6523.98
435.259	6364.23
435.466	6583.37
435.673	6397
435.88	6972.48
436.087	7199.8
436.294	7351.35
436.501	7021.63
436.708	7248.96
436.915	7408.7
437.122	7760.95
437.329	7719.99
437.537	8021.04
437.743	8141.87
437.95	8164.4
438.157	8508.46
438.364	8856.61
438.571	8866.85
438.778	9020.45
438.985	9772.05
439.192	9350.17
439.399	9477.15
439.606	9380.89
439.813	9976.85
440.02	10564.62
440.227	10394.64
440.433	10191.89
440.64	10804.23
440.847	10550.28
441.054	10824.71
441.261	11588.6
441.467	11531.26
441.674	11469.82
441.881	12145.65
442.088	12123.12
442.294	11633.66
442.501	12229.62
442.708	12524.52
442.914	13028.32
443.121	13620.19
443.328	13325.28
443.534	14181.33
443.741	13900.76
443.948	13661.15
444.154	14382.03
444.361	14449.61
444.568	14717.9
444.774	14687.18
444.981	14871.5
445.187	15168.45
445.394	15805.37
445.6	15705.02
445.807	17105.83
446.013	16372.66
446.22	16921.51
446.426	17503.14
446.633	17660.83
446.839	18058.14
447.046	17296.29
447.252	18396.05
447.459	18514.83
447.665	18234.26
447.871	19000.2
448.078	19770.24
448.284	18793.36
448.491	19487.62
448.697	20284.28
448.903	20458.35
449.11	20702.06
449.316	20032.38
449.522	20593.52
449.728	21402.47
449.935	21459.81
450.141	21209.96
450.347	21980
450.553	21259.11
450.76	21558.11
450.966	22035.29
451.172	21707.62
451.378	22848.33
451.584	21703.52
451.791	22401.88
451.997	22315.86
452.203	22768.46
452.409	22739.79
452.615	22469.46
452.821	21705.57
453.027	21470.05
453.233	22625.11
453.44	21709.66
453.646	22279
453.852	22190.94
454.058	22551.38
454.264	22010.71
454.47	22436.69
454.676	21439.33
454.882	22166.36
455.088	20396.92
455.294	20331.38
455.5	21019.5
455.705	21334.89
455.911	20134.78
456.117	19690.37
456.323	19417.99
456.529	18455.44
456.735	19207.05
456.941	19004.3
457.147	18486.16
457.352	17990.55
457.558	17601.44
457.764	17820.57
457.97	17320.87
458.176	16849.83
458.381	17171.36
458.587	16047.03
458.793	16098.23
458.999	15182.79
459.204	16386.99
459.41	15760.31
459.616	14646.22
459.821	14617.55
460.027	14957.51
460.233	14502.86
460.438	13706.2
460.644	13945.81
460.85	13210.59
461.055	13226.98
461.261	13169.63
461.466	11961.33
461.672	11746.3
461.878	12444.65
462.083	11738.1
462.289	11502.59
462.494	11244.54
462.7	10902.53
462.905	10761.22
463.111	10880
463.316	10943.49
463.522	10611.72
463.727	10896.39
463.932	10529.8
464.138	10611.72
464.343	10615.82
464.549	10468.36
464.754	10671.11
464.959	10613.77
465.165	10425.36
465.37	10144.78
465.575	9841.68
465.781	10406.92
465.986	10482.7
466.191	9821.2
466.397	9856.02
466.602	9163.81
466.807	9507.87
467.012	9509.91
467.218	9616.41
467.423	9587.74
467.628	9348.12
467.833	9849.88
