Data from USB4F104151__3__12-00-18-355.txt Node

Date: Fri Mar 14 12:00:18 EDT 2025
User: louis
Spectrometer: USB4F10415
Trigger mode: 4
Integration Time (sec): 2.000000E-2
Scans to average: 1
Electric dark correction enabled: true
Nonlinearity correction enabled: false
Boxcar width: 0
XAxis mode: Wavelengths
Number of Pixels in Spectrum: 3648
>>>>>Begin Spectral Data<<<<<
178.204	-158.55
178.424	-158.55
178.644	-158.55
178.864	-64.34
179.084	-47.96
179.304	-52.05
179.524	23.72
179.744	19.63
179.964	-2.9
180.184	13.48
180.404	21.67
180.624	-9.05
180.844	-60.24
181.064	-17.24
181.283	-9.05
181.503	68.78
181.723	3.24
181.943	46.25
182.163	3.24
182.383	-2.9
182.602	72.87
182.822	119.98
183.042	42.15
183.262	38.06
183.482	58.54
183.701	-15.19
183.921	-9.05
184.141	-37.72
184.361	70.83
184.58	19.63
184.8	15.53
185.02	46.25
185.239	87.21
185.459	27.82
185.679	29.87
185.898	38.06
186.118	52.39
186.338	-131.92
186.557	60.59
186.777	-21.33
186.997	-0.85
187.216	-43.86
187.436	62.63
187.655	-4.95
187.875	1.19
188.095	-4.95
188.314	87.21
188.534	56.49
188.753	-78.68
188.973	-17.24
189.192	58.54
189.412	56.49
189.631	-13.14
189.851	27.82
190.07	13.48
190.29	25.77
190.509	-39.76
190.729	-17.24
190.948	46.25
191.168	119.98
191.387	27.82
191.607	15.53
191.826	74.92
192.045	-47.96
192.265	-2.9
192.484	13.48
192.704	-60.24
192.923	-70.48
193.142	144.55
193.362	25.77
193.581	-0.85
193.8	21.67
194.02	-25.43
194.239	21.67
194.458	11.43
194.678	19.63
194.897	38.06
195.116	52.39
195.335	29.87
195.555	50.35
195.774	76.97
195.993	66.73
196.212	40.11
196.432	13.48
196.651	13.48
196.87	-17.24
197.089	83.11
197.308	23.72
197.528	70.83
197.747	-39.76
197.966	-2.9
198.185	60.59
198.404	46.25
198.623	38.06
198.842	46.25
199.062	33.96
199.281	93.35
199.5	-70.48
199.719	7.34
199.938	-29.52
200.157	25.77
200.376	13.48
200.595	56.49
200.814	7.34
201.033	7.34
201.252	95.4
201.471	52.39
201.69	64.68
201.909	11.43
202.128	-19.29
202.347	-0.85
202.566	-35.67
202.785	38.06
203.004	11.43
203.223	144.55
203.442	-11.09
203.661	40.11
203.879	19.63
204.098	48.3
204.317	17.58
204.536	81.07
204.755	-0.85
204.974	5.29
205.193	-7
205.411	66.73
205.63	9.39
205.849	-31.57
206.068	-27.48
206.287	-45.91
206.505	-4.95
206.724	-0.85
206.943	56.49
207.162	36.01
207.381	17.58
207.599	25.77
207.818	23.72
208.037	38.06
208.255	-52.05
208.474	3.24
208.693	81.07
208.911	31.91
209.13	60.59
209.349	40.11
209.567	-11.09
209.786	83.11
210.005	68.78
210.223	-21.33
210.442	-19.29
210.661	58.54
210.879	-4.95
211.098	3.24
211.316	46.25
211.535	58.54
211.753	38.06
211.972	5.29
212.191	17.58
212.409	17.58
212.628	38.06
212.846	-54.1
213.065	54.44
213.283	36.01
213.502	29.87
213.72	-25.43
213.938	-0.85
214.157	25.77
214.375	38.06
214.594	1.19
214.812	7.34
215.031	83.11
215.249	-0.85
215.467	-17.24
215.686	11.43
215.904	126.12
216.122	40.11
216.341	3.24
216.559	29.87
216.778	105.64
216.996	-7
217.214	50.35
217.432	44.2
217.651	23.72
217.869	-29.52
218.087	19.63
218.306	83.11
218.524	103.59
218.742	33.96
218.96	48.3
219.179	107.69
219.397	7.34
219.615	95.4
219.833	25.77
220.051	-19.29
220.27	7.34
220.488	-15.19
220.706	40.11
220.924	-2.9
221.142	-43.86
221.36	1.19
221.578	97.45
221.796	15.53
222.015	31.91
222.233	-11.09
222.451	-0.85
222.669	5.29
222.887	107.69
223.105	-35.67
223.323	11.43
223.541	7.34
223.759	-29.52
223.977	19.63
224.195	40.11
224.413	31.91
224.631	62.63
224.849	36.01
225.067	50.35
225.285	46.25
225.503	64.68
225.721	5.29
225.939	44.2
226.157	25.77
226.375	91.31
226.592	-47.96
226.81	-15.19
227.028	124.07
227.246	46.25
227.464	56.49
227.682	44.2
227.9	-4.95
228.117	-37.72
228.335	85.16
228.553	36.01
228.771	60.59
228.989	-2.9
229.206	-17.24
229.424	11.43
229.642	36.01
229.86	21.67
230.077	7.34
230.295	83.11
230.513	64.68
230.731	11.43
230.948	56.49
231.166	-2.9
231.384	-35.67
231.601	25.77
231.819	9.39
232.037	62.63
232.254	7.34
232.472	-11.09
232.689	56.49
232.907	44.2
233.125	-0.85
233.342	87.21
233.56	60.59
233.777	91.31
233.995	-2.9
234.213	40.11
234.43	17.58
234.648	-27.48
234.865	-4.95
235.083	46.25
235.3	7.34
235.518	27.82
235.735	79.02
235.953	-4.95
236.17	-11.09
236.388	-39.76
236.605	1.19
236.822	64.68
237.04	93.35
237.257	13.48
237.475	-23.38
237.692	23.72
237.909	27.82
238.127	54.44
238.344	95.4
238.562	83.11
238.779	11.43
238.996	27.82
239.214	31.91
239.431	105.64
239.648	23.72
239.865	19.63
240.083	27.82
240.3	29.87
240.517	1.19
240.735	72.87
240.952	36.01
241.169	52.39
241.386	27.82
241.603	54.44
241.821	9.39
242.038	-17.24
242.255	-35.67
242.472	-31.57
242.689	-11.09
242.907	-4.95
243.124	-2.9
243.341	3.24
243.558	36.01
243.775	36.01
243.992	-41.81
244.209	-60.24
244.426	52.39
244.643	23.72
244.86	50.35
245.078	81.07
245.295	62.63
245.512	36.01
245.729	-9.05
245.946	-13.14
246.163	40.11
246.38	126.12
246.597	15.53
246.814	52.39
247.031	9.39
247.248	25.77
247.464	9.39
247.681	85.16
247.898	11.43
248.115	7.34
248.332	3.24
248.549	64.68
248.766	81.07
248.983	81.07
249.2	42.15
249.417	27.82
249.633	62.63
249.85	29.87
250.067	56.49
250.284	50.35
250.501	64.68
250.717	70.83
250.934	-47.96
251.151	62.63
251.368	29.87
251.585	29.87
251.801	13.48
252.018	-33.62
252.235	38.06
252.451	3.24
252.668	-45.91
252.885	85.16
253.102	15.53
253.318	7.34
253.535	27.82
253.752	50.35
253.968	-17.24
254.185	-17.24
254.401	3.24
254.618	-33.62
254.835	-13.14
255.051	23.72
255.268	15.53
255.484	46.25
255.701	21.67
255.917	70.83
256.134	17.58
256.351	19.63
256.567	19.63
256.784	5.29
257	7.34
257.217	46.25
257.433	3.24
257.65	17.58
257.866	1.19
258.082	70.83
258.299	-31.57
258.515	-39.76
258.732	52.39
258.948	-45.91
259.165	68.78
259.381	3.24
259.597	58.54
259.814	-2.9
260.03	50.35
260.246	31.91
260.463	60.59
260.679	13.48
260.895	21.67
261.112	48.3
261.328	21.67
261.544	-15.19
261.761	156.84
261.977	-27.48
262.193	-37.72
262.409	72.87
262.626	36.01
262.842	76.97
263.058	7.34
263.274	31.91
263.49	19.63
263.707	13.48
263.923	-7
264.139	81.07
264.355	9.39
264.571	68.78
264.787	1.19
265.004	-0.85
265.22	-35.67
265.436	17.58
265.652	-17.24
265.868	54.44
266.084	-43.86
266.3	3.24
266.516	-33.62
266.732	-0.85
266.948	62.63
267.164	-23.38
267.38	60.59
267.596	-21.33
267.812	29.87
268.028	38.06
268.244	64.68
268.46	68.78
268.676	3.24
268.892	-25.43
269.108	23.72
269.324	15.53
269.54	-13.14
269.756	27.82
269.972	-7
270.188	17.58
270.403	-21.33
270.619	29.87
270.835	1.19
271.051	89.26
271.267	-15.19
271.483	46.25
271.698	68.78
271.914	33.96
272.13	-0.85
272.346	52.39
272.562	11.43
272.777	87.21
272.993	11.43
273.209	3.24
273.425	-41.81
273.64	-43.86
273.856	62.63
274.072	13.48
274.287	74.92
274.503	15.53
274.719	-0.85
274.934	13.48
275.15	7.34
275.366	25.77
275.581	44.2
275.797	87.21
276.012	-37.72
276.228	40.11
276.444	9.39
276.659	62.63
276.875	29.87
277.09	56.49
277.306	29.87
277.521	48.3
277.737	-27.48
277.952	27.82
278.168	25.77
278.383	11.43
278.599	31.91
278.814	60.59
279.03	-35.67
279.245	3.24
279.461	-17.24
279.676	60.59
279.892	-15.19
280.107	66.73
280.322	-4.95
280.538	31.91
280.753	-7
280.969	95.4
281.184	48.3
281.399	117.93
281.615	58.54
281.83	-82.77
282.045	-35.67
282.26	46.25
282.476	58.54
282.691	3.24
282.906	29.87
283.122	-0.85
283.337	5.29
283.552	97.45
283.767	-29.52
283.983	66.73
284.198	7.34
284.413	25.77
284.628	-17.24
284.843	-0.85
285.058	54.44
285.274	-11.09
285.489	13.48
285.704	126.12
285.919	13.48
286.134	-19.29
286.349	66.73
286.564	23.72
286.779	52.39
286.995	9.39
287.21	-9.05
287.425	27.82
287.64	40.11
287.855	27.82
288.07	-33.62
288.285	-4.95
288.5	27.82
288.715	29.87
288.93	46.25
289.145	-25.43
289.36	38.06
289.575	42.15
289.79	105.64
290.004	33.96
290.219	-13.14
290.434	-2.9
290.649	15.53
290.864	40.11
291.079	-43.86
291.294	-15.19
291.509	13.48
291.724	-13.14
291.938	113.83
292.153	29.87
292.368	-19.29
292.583	5.29
292.798	36.01
293.012	25.77
293.227	19.63
293.442	27.82
293.657	66.73
293.871	50.35
294.086	25.77
294.301	134.31
294.516	99.5
294.73	3.24
294.945	25.77
295.16	38.06
295.374	72.87
295.589	56.49
295.804	-17.24
296.018	62.63
296.233	95.4
296.447	36.01
296.662	29.87
296.877	36.01
297.091	9.39
297.306	31.91
297.52	29.87
297.735	46.25
297.949	62.63
298.164	101.55
298.378	-21.33
298.593	46.25
298.807	74.92
299.022	-2.9
299.236	50.35
299.451	-2.9
299.665	-11.09
299.88	5.29
300.094	25.77
300.309	-29.52
300.523	62.63
300.737	36.01
300.952	11.43
301.166	58.54
301.381	40.11
301.595	50.35
301.809	21.67
302.024	-21.33
302.238	64.68
302.452	56.49
302.667	25.77
302.881	115.88
303.095	19.63
303.309	-15.19
303.524	-52.05
303.738	33.96
303.952	7.34
304.166	58.54
304.381	-17.24
304.595	1.19
304.809	15.53
305.023	11.43
305.237	-45.91
305.452	-31.57
305.666	36.01
305.88	13.48
306.094	64.68
306.308	-7
306.522	33.96
306.736	17.58
306.95	48.3
307.164	-29.52
307.379	74.92
307.593	-7
307.807	42.15
308.021	48.3
308.235	19.63
308.449	40.11
308.663	17.58
308.877	52.39
309.091	25.77
309.305	-9.05
309.519	-47.96
309.733	105.64
309.947	-4.95
310.161	27.82
310.374	5.29
310.588	27.82
310.802	-47.96
311.016	11.43
311.23	64.68
311.444	-7
311.658	93.35
311.872	74.92
312.085	89.26
312.299	29.87
312.513	52.39
312.727	23.72
312.941	-50
313.154	97.45
313.368	19.63
313.582	72.87
313.796	62.63
314.009	-0.85
314.223	76.97
314.437	70.83
314.651	-7
314.864	93.35
315.078	-47.96
315.292	-43.86
315.505	-25.43
315.719	3.24
315.933	29.87
316.146	13.48
316.36	27.82
316.573	56.49
316.787	81.07
317.001	76.97
317.214	31.91
317.428	115.88
317.641	38.06
317.855	-2.9
318.068	48.3
318.282	-15.19
318.495	44.2
318.709	68.78
318.922	54.44
319.136	52.39
319.349	-19.29
319.563	62.63
319.776	54.44
319.99	-7
320.203	40.11
320.417	46.25
320.63	-23.38
320.843	-35.67
321.057	42.15
321.27	36.01
321.483	-45.91
321.697	-7
321.91	11.43
322.124	-4.95
322.337	-43.86
322.55	38.06
322.763	-4.95
322.977	-41.81
323.19	74.92
323.403	-9.05
323.617	50.35
323.83	79.02
324.043	38.06
324.256	13.48
324.469	56.49
324.683	-35.67
324.896	107.69
325.109	-9.05
325.322	48.3
325.535	62.63
325.748	42.15
325.962	44.2
326.175	46.25
326.388	19.63
326.601	38.06
326.814	-11.09
327.027	76.97
327.24	-25.43
327.453	11.43
327.666	83.11
327.879	58.54
328.092	25.77
328.305	56.49
328.518	62.63
328.731	95.4
328.944	-31.57
329.157	-21.33
329.37	60.59
329.583	52.39
329.796	58.54
330.009	-19.29
330.222	115.88
330.435	83.11
330.648	15.53
330.861	95.4
331.073	17.58
331.286	-4.95
331.499	52.39
331.712	-45.91
331.925	15.53
332.138	83.11
332.35	21.67
332.563	46.25
332.776	48.3
332.989	21.67
333.202	40.11
333.414	17.58
333.627	13.48
333.84	25.77
334.053	11.43
334.265	21.67
334.478	-56.15
334.691	66.73
334.903	40.11
335.116	19.63
335.329	-33.62
335.541	50.35
335.754	52.39
335.966	25.77
336.179	-2.9
336.392	36.01
336.604	-0.85
336.817	13.48
337.029	38.06
337.242	46.25
337.454	7.34
337.667	-9.05
337.88	81.07
338.092	-4.95
338.305	5.29
338.517	-39.76
338.729	89.26
338.942	60.59
339.154	109.74
339.367	-19.29
339.579	56.49
339.792	-17.24
340.004	5.29
340.217	3.24
340.429	76.97
340.641	1.19
340.854	-43.86
341.066	-11.09
341.278	50.35
341.491	79.02
341.703	-23.38
341.915	23.72
342.128	97.45
342.34	27.82
342.552	33.96
342.764	-7
342.977	15.53
343.189	15.53
343.401	40.11
343.613	52.39
343.826	48.3
344.038	17.58
344.25	68.78
344.462	-35.67
344.674	31.91
344.886	-60.24
345.099	27.82
345.311	87.21
345.523	46.25
345.735	-13.14
345.947	95.4
346.159	-21.33
346.371	79.02
346.583	-2.9
346.795	42.15
347.007	91.31
347.219	25.77
347.431	60.59
347.643	74.92
347.855	1.19
348.067	44.2
348.279	56.49
348.491	56.49
348.703	-17.24
348.915	-7
349.127	50.35
349.339	21.67
349.551	70.83
349.763	17.58
349.975	-58.2
350.187	113.83
350.399	56.49
350.61	40.11
350.822	-39.76
351.034	48.3
351.246	25.77
351.458	23.72
351.669	54.44
351.881	101.55
352.093	58.54
352.305	138.41
352.517	11.43
352.728	70.83
352.94	-17.24
353.152	54.44
353.363	76.97
353.575	-0.85
353.787	119.98
353.999	27.82
354.21	95.4
354.422	-39.76
354.633	44.2
354.845	40.11
355.057	-31.57
355.268	21.67
355.48	-7
355.692	50.35
355.903	9.39
356.115	44.2
356.326	-15.19
356.538	103.59
356.749	72.87
356.961	50.35
357.172	-15.19
357.384	-35.67
357.595	91.31
357.807	13.48
358.018	7.34
358.23	25.77
358.441	36.01
358.653	-19.29
358.864	-15.19
359.075	38.06
359.287	60.59
359.498	36.01
359.709	46.25
359.921	42.15
360.132	56.49
360.344	58.54
360.555	9.39
360.766	46.25
360.977	44.2
361.189	46.25
361.4	-2.9
361.611	3.24
361.823	-2.9
362.034	70.83
362.245	-29.52
362.456	48.3
362.667	40.11
362.879	11.43
363.09	23.72
363.301	-11.09
363.512	109.74
363.723	-9.05
363.935	3.24
364.146	56.49
364.357	27.82
364.568	-17.24
364.779	70.83
364.99	44.2
365.201	33.96
365.412	48.3
365.623	48.3
365.834	25.77
366.045	44.2
366.256	79.02
366.467	36.01
366.678	9.39
366.889	-7
367.1	-4.95
367.311	58.54
367.522	11.43
367.733	36.01
367.944	25.77
368.155	58.54
368.366	72.87
368.577	40.11
368.788	93.35
368.999	54.44
369.209	42.15
369.42	46.25
369.631	76.97
369.842	56.49
370.053	11.43
370.264	23.72
370.474	52.39
370.685	-21.33
370.896	-4.95
371.107	46.25
371.317	54.44
371.528	81.07
371.739	31.91
371.95	-0.85
372.16	54.44
372.371	56.49
372.582	9.39
372.792	-7
373.003	13.48
373.214	74.92
373.424	7.34
373.635	62.63
373.846	-13.14
374.056	42.15
374.267	38.06
374.477	11.43
374.688	60.59
374.898	89.26
375.109	17.58
375.319	70.83
375.53	72.87
375.74	89.26
375.951	21.67
376.161	97.45
376.372	-19.29
376.582	31.91
376.793	-11.09
377.003	13.48
377.214	40.11
377.424	36.01
377.635	5.29
377.845	-43.86
378.055	83.11
378.266	60.59
378.476	46.25
378.686	54.44
378.897	64.68
379.107	52.39
379.317	46.25
379.528	13.48
379.738	58.54
379.948	-21.33
380.158	52.39
380.369	36.01
380.579	19.63
380.789	64.68
380.999	148.65
381.21	19.63
381.42	101.55
381.63	72.87
381.84	83.11
382.05	72.87
382.261	38.06
382.471	79.02
382.681	7.34
382.891	76.97
383.101	87.21
383.311	15.53
383.521	50.35
383.731	48.3
383.941	46.25
384.151	48.3
384.361	7.34
384.571	25.77
384.781	3.24
384.991	72.87
385.201	54.44
385.411	46.25
385.621	40.11
385.831	54.44
386.041	52.39
386.251	60.59
386.461	66.73
386.671	-2.9
386.881	-11.09
387.091	31.91
387.301	97.45
387.511	-13.14
387.72	33.96
387.93	72.87
388.14	48.3
388.35	25.77
388.56	-4.95
388.769	-11.09
388.979	21.67
389.189	-4.95
389.399	81.07
389.609	9.39
389.818	25.77
390.028	7.34
390.238	19.63
390.447	72.87
390.657	81.07
390.867	-7
391.076	40.11
391.286	21.67
391.496	36.01
391.705	11.43
391.915	62.63
392.125	58.54
392.334	15.53
392.544	81.07
392.753	17.58
392.963	23.72
393.172	27.82
393.382	60.59
393.591	64.68
393.801	31.91
394.01	60.59
394.22	101.55
394.429	11.43
394.639	89.26
394.848	81.07
395.058	23.72
395.267	89.26
395.477	154.79
395.686	115.88
395.895	70.83
396.105	60.59
396.314	42.15
396.524	19.63
396.733	21.67
396.942	56.49
397.152	79.02
397.361	105.64
397.57	72.87
397.78	105.64
397.989	60.59
398.198	83.11
398.407	50.35
398.617	17.58
398.826	48.3
399.035	99.5
399.244	54.44
399.453	15.53
399.663	27.82
399.872	70.83
400.081	33.96
400.29	107.69
400.499	97.45
400.708	42.15
400.917	42.15
401.127	138.41
401.336	27.82
401.545	156.84
401.754	62.63
401.963	146.6
402.172	40.11
402.381	48.3
402.59	48.3
402.799	64.68
403.008	72.87
403.217	64.68
403.426	113.83
403.635	40.11
403.844	60.59
404.053	144.55
404.262	5.29
404.471	142.5
404.68	95.4
404.888	126.12
405.097	3.24
405.306	62.63
405.515	130.22
405.724	103.59
405.933	93.35
406.142	97.45
406.35	142.5
406.559	79.02
406.768	150.7
406.977	150.7
407.185	117.93
407.394	115.88
407.603	91.31
407.812	230.57
408.02	122.02
408.229	140.46
408.438	144.55
408.646	220.33
408.855	154.79
409.064	160.94
409.272	183.46
409.481	179.37
409.69	81.07
409.898	113.83
410.107	109.74
410.315	203.94
410.524	169.13
410.733	294.05
410.941	138.41
411.15	208.04
411.358	132.26
411.567	302.25
411.775	222.38
411.984	220.33
412.192	249
412.401	281.77
412.609	324.77
412.818	232.62
413.026	249
413.234	330.92
413.443	298.15
413.651	341.16
413.86	318.63
414.068	261.29
414.276	396.45
414.485	316.58
414.693	310.44
414.901	410.79
415.11	390.31
415.318	371.88
415.526	441.51
415.734	453.8
415.943	502.95
416.151	484.52
416.359	445.6
416.567	527.52
416.776	556.19
416.984	625.83
417.192	621.73
417.4	568.48
417.608	576.67
417.817	621.73
418.025	636.06
418.233	679.07
418.441	668.83
418.649	695.46
418.857	754.85
419.065	789.66
419.273	902.3
419.481	715.94
419.689	799.9
419.897	912.54
420.105	937.12
420.313	928.92
420.521	969.88
420.729	984.22
420.937	994.46
421.145	1080.47
421.353	1057.95
421.561	1080.47
421.769	1057.95
421.977	1340.57
422.185	1266.84
422.393	1287.32
422.601	1375.38
422.809	1428.63
423.017	1492.12
423.224	1463.44
423.432	1522.84
423.64	1528.98
423.848	1612.95
424.056	1498.26
424.263	1719.44
424.471	1649.81
424.679	1707.15
424.887	1838.22
425.094	1881.23
425.302	1819.79
425.51	1977.48
425.718	2079.88
425.925	2075.79
426.133	2133.13
426.341	2219.14
426.548	2337.93
426.756	2395.27
426.964	2417.8
427.171	2516.1
427.379	2569.35
427.586	2638.98
427.794	2737.28
428.001	2825.34
428.209	2968.7
428.417	2923.65
428.624	3101.82
428.832	3196.03
429.039	3032.19
429.247	3073.15
429.454	3353.72
429.662	3632.24
429.869	3374.2
430.076	3705.97
430.284	3470.45
430.491	3748.98
430.699	3834.99
430.906	3916.91
431.114	3988.59
431.321	4138.09
431.528	4004.97
431.736	4385.9
431.943	4693.09
432.15	4580.45
432.358	4609.12
432.565	4897.89
432.772	4764.77
432.979	5088.35
433.187	5092.44
433.394	5121.12
433.601	5467.22
433.808	5661.78
434.016	5405.78
434.223	5682.26
434.43	6095.95
434.637	5987.41
434.844	6300.75
435.052	6448.2
435.259	6419.53
435.466	6456.39
435.673	6536.26
435.88	6757.44
436.087	7142.46
436.294	7230.52
436.501	6982.72
436.708	7095.36
436.915	7384.12
437.122	7793.72
437.329	7693.37
437.537	8006.7
437.743	8166.45
437.95	8229.93
438.157	8516.65
438.364	8762.4
438.571	8557.61
438.778	8686.63
438.985	9606.17
439.192	9262.11
439.399	9571.35
439.606	9348.12
439.813	9937.94
440.02	10593.29
440.227	10286.09
440.433	10021.91
440.64	10347.53
440.847	10490.89
441.054	10650.63
441.261	11488.25
441.467	11242.5
441.674	11408.38
441.881	12129.27
442.088	11791.35
442.294	11809.78
442.501	12360.69
442.708	12266.48
442.914	12925.93
443.121	13519.84
443.328	13165.54
443.534	13851.61
443.741	13599.71
443.948	13265.89
444.154	14429.13
444.361	14259.15
444.568	14451.66
444.774	14349.26
444.981	14646.22
445.187	15195.07
445.394	15922.1
445.6	15573.95
445.807	17148.84
446.013	16348.08
446.22	16792.49
446.426	17245.09
446.633	17691.55
446.839	17918.87
447.046	17163.17
447.252	18174.87
447.459	18252.69
447.665	18211.73
447.871	18975.63
448.078	19760
448.284	18781.07
448.491	19504
448.697	20114.3
448.903	20894.57
449.11	20364.15
449.316	20065.14
449.522	20476.79
449.728	21080.94
449.935	21199.72
450.141	20972.39
450.347	21724
450.553	20857.71
450.76	21238.63
450.966	22018.91
451.172	21699.42
451.378	22573.91
451.584	21771.1
451.791	22145.88
451.997	22106.97
452.203	22664.02
452.409	22702.93
452.615	22604.63
452.821	21412.71
453.027	21418.85
453.233	22399.83
453.44	21769.05
453.646	21992.28
453.852	21726.05
454.058	22084.44
454.264	21506.91
454.47	21994.33
454.676	21388.13
454.882	22098.78
455.088	20276.09
455.294	20437.87
455.5	20818.8
455.705	20853.61
455.911	20061.05
456.117	19581.82
456.323	19272.58
456.529	18373.52
456.735	19114.89
456.941	18647.95
457.147	18338.71
457.352	17845.15
457.558	17550.24
457.764	17644.45
457.97	17372.07
458.176	16520.11
458.381	16995.24
458.587	16028.6
458.793	15864.76
458.999	15227.84
459.204	16257.97
459.41	15762.36
459.616	14844.87
459.821	14894.02
460.027	14693.32
460.233	14027.73
460.438	13489.12
460.644	13802.46
460.85	13011.94
461.055	13120.48
461.261	13067.24
461.466	11928.56
461.672	11631.61
461.878	12397.55
462.083	11707.38
462.289	11289.6
462.494	11115.52
462.7	11004.93
462.905	10296.33
463.111	10978.31
463.316	10783.75
463.522	10494.99
463.727	10929.16
463.932	10525.71
464.138	10591.24
464.343	10730.5
464.549	10322.96
464.754	10877.96
464.959	10654.73
465.165	10341.39
465.37	10056.72
465.575	9659.42
465.781	10275.85
465.986	10296.33
466.191	9817.11
466.397	9618.46
466.602	9344.03
466.807	9491.48
467.012	9561.11
467.218	9602.07
467.423	9454.62
467.628	9458.71
467.833	9712.66
468.038	9432.09
468.244	9280.54
468.449	9352.22
468.654	9243.68
468.859	9237.53
