Data from USB4F104151__26__12-00-37-092.txt Node

Date: Fri Mar 14 12:00:37 EDT 2025
User: louis
Spectrometer: USB4F10415
Trigger mode: 4
Integration Time (sec): 2.000000E-2
Scans to average: 1
Electric dark correction enabled: true
Nonlinearity correction enabled: false
Boxcar width: 0
XAxis mode: Wavelengths
Number of Pixels in Spectrum: 3648
>>>>>Begin Spectral Data<<<<<
178.204	-80.38
178.424	-80.38
178.644	-80.38
178.864	-61.95
179.084	-88.57
179.304	-45.57
179.524	17.92
179.744	13.82
179.964	13.82
180.184	-12.8
180.404	-29.18
180.624	7.68
180.844	13.82
181.064	-25.09
181.283	28.16
181.503	-27.14
181.723	44.54
181.943	-59.9
182.163	28.16
182.383	67.07
182.602	-16.9
182.822	40.45
183.042	-29.18
183.262	-39.42
183.482	34.3
183.701	3.58
183.921	-4.61
184.141	-37.38
184.361	38.4
184.58	-4.61
184.8	81.41
185.02	-43.52
185.239	-10.75
185.459	54.78
185.679	44.54
185.898	1.54
186.118	7.68
186.338	36.35
186.557	15.87
186.777	9.73
186.997	3.58
187.216	11.78
187.436	79.36
187.655	46.59
187.875	22.02
188.095	-0.51
188.314	58.88
188.534	110.08
188.753	3.58
188.973	-35.33
189.192	9.73
189.412	-14.85
189.631	3.58
189.851	65.02
190.07	62.98
190.29	-18.94
190.509	-10.75
190.729	24.06
190.948	-25.09
191.168	95.74
191.387	3.58
191.607	-10.75
191.826	26.11
192.045	-57.86
192.265	22.02
192.484	67.07
192.704	15.87
192.923	36.35
193.142	19.97
193.362	52.74
193.581	46.59
193.8	-8.7
194.02	42.5
194.239	44.54
194.458	-35.33
194.678	-12.8
194.897	50.69
195.116	26.11
195.335	-4.61
195.555	7.68
195.774	40.45
195.993	36.35
196.212	-39.42
196.432	15.87
196.651	118.27
196.87	-25.09
197.089	32.26
197.308	19.97
197.528	105.98
197.747	11.78
197.966	30.21
198.185	56.83
198.404	9.73
198.623	-41.47
198.842	26.11
199.062	17.92
199.281	32.26
199.5	58.88
199.719	-12.8
199.938	-53.76
200.157	81.41
200.376	-8.7
200.595	13.82
200.814	-33.28
201.033	24.06
201.252	81.41
201.471	52.74
201.69	7.68
201.909	42.5
202.128	-27.14
202.347	-8.7
202.566	1.54
202.785	-4.61
203.004	-43.52
203.223	17.92
203.442	40.45
203.661	-37.38
203.879	36.35
204.098	36.35
204.317	-39.42
204.536	73.21
204.755	-8.7
204.974	52.74
205.193	79.36
205.411	50.69
205.63	28.16
205.849	32.26
206.068	-31.23
206.287	-61.95
206.505	7.68
206.724	-0.51
206.943	1.54
207.162	65.02
207.381	-18.94
207.599	-57.86
207.818	58.88
208.037	7.68
208.255	7.68
208.474	52.74
208.693	9.73
208.911	71.17
209.13	71.17
209.349	97.79
209.567	19.97
209.786	-14.85
210.005	71.17
210.223	44.54
210.442	-115.2
210.661	73.21
210.879	13.82
211.098	17.92
211.316	-12.8
211.535	-4.61
211.753	58.88
211.972	17.92
212.191	38.4
212.409	77.31
212.628	62.98
212.846	17.92
213.065	79.36
213.283	132.61
213.502	-45.57
213.72	-10.75
213.938	-47.62
214.157	19.97
214.375	46.59
214.594	36.35
214.812	42.5
215.031	24.06
215.249	32.26
215.467	56.83
215.686	75.26
215.904	3.58
216.122	7.68
216.341	60.93
216.559	81.41
216.778	40.45
216.996	60.93
217.214	-27.14
217.432	19.97
217.651	-6.66
217.869	36.35
218.087	38.4
218.306	-41.47
218.524	-27.14
218.742	9.73
218.96	103.93
219.179	-57.86
219.397	32.26
219.615	-8.7
219.833	-45.57
220.051	52.74
220.27	89.6
220.488	48.64
220.706	-29.18
220.924	85.5
221.142	22.02
221.36	-39.42
221.578	-2.56
221.796	58.88
222.015	-29.18
222.233	-0.51
222.451	71.17
222.669	-166.4
222.887	54.78
223.105	13.82
223.323	48.64
223.541	48.64
223.759	71.17
223.977	19.97
224.195	17.92
224.413	1.54
224.631	30.21
224.849	11.78
225.067	73.21
225.285	-4.61
225.503	34.3
225.721	-25.09
225.939	48.64
226.157	26.11
226.375	48.64
226.592	36.35
226.81	-8.7
227.028	13.82
227.246	1.54
227.464	13.82
227.682	19.97
227.9	-39.42
228.117	17.92
228.335	40.45
228.553	52.74
228.771	3.58
228.989	5.63
229.206	15.87
229.424	9.73
229.642	13.82
229.86	1.54
230.077	28.16
230.295	34.3
230.513	30.21
230.731	-8.7
230.948	22.02
231.166	28.16
231.384	32.26
231.601	-45.57
231.819	22.02
232.037	-0.51
232.254	-51.71
232.472	79.36
232.689	-55.81
232.907	30.21
233.125	-16.9
233.342	-14.85
233.56	46.59
233.777	32.26
233.995	-41.47
234.213	81.41
234.43	13.82
234.648	1.54
234.865	1.54
235.083	58.88
235.3	-4.61
235.518	-31.23
235.735	46.59
235.953	32.26
236.17	-6.66
236.388	5.63
236.605	62.98
236.822	9.73
237.04	52.74
237.257	46.59
237.475	5.63
237.692	-33.28
237.909	-12.8
238.127	11.78
238.344	54.78
238.562	-20.99
238.779	38.4
238.996	-37.38
239.214	52.74
239.431	65.02
239.648	-72.19
239.865	-0.51
240.083	26.11
240.3	-35.33
240.517	56.83
240.735	13.82
240.952	91.65
241.169	32.26
241.386	58.88
241.603	52.74
241.821	26.11
242.038	81.41
242.255	-10.75
242.472	136.7
242.689	11.78
242.907	42.5
243.124	71.17
243.341	24.06
243.558	-23.04
243.775	5.63
243.992	38.4
244.209	-4.61
244.426	93.69
244.643	75.26
244.86	-33.28
245.078	13.82
245.295	17.92
245.512	42.5
245.729	-16.9
245.946	65.02
246.163	15.87
246.38	13.82
246.597	-12.8
246.814	-16.9
247.031	-8.7
247.248	26.11
247.464	56.83
247.681	24.06
247.898	28.16
248.115	15.87
248.332	58.88
248.549	112.13
248.766	30.21
248.983	103.93
249.2	105.98
249.417	22.02
249.633	24.06
249.85	56.83
250.067	11.78
250.284	36.35
250.501	9.73
250.717	46.59
250.934	-37.38
251.151	32.26
251.368	-23.04
251.585	-14.85
251.801	54.78
252.018	48.64
252.235	48.64
252.451	-12.8
252.668	46.59
252.885	81.41
253.102	-12.8
253.318	5.63
253.535	-10.75
253.752	40.45
253.968	15.87
254.185	28.16
254.401	-47.62
254.618	1.54
254.835	7.68
255.051	48.64
255.268	-14.85
255.484	-51.71
255.701	-18.94
255.917	71.17
256.134	-6.66
256.351	-4.61
256.567	50.69
256.784	-25.09
257	19.97
257.217	-35.33
257.433	3.58
257.65	30.21
257.866	114.17
258.082	9.73
258.299	-8.7
258.515	67.07
258.732	-18.94
258.948	79.36
259.165	17.92
259.381	87.55
259.597	-29.18
259.814	-4.61
260.03	15.87
260.246	44.54
260.463	54.78
260.679	75.26
260.895	60.93
261.112	46.59
261.328	52.74
261.544	-18.94
261.761	85.5
261.977	24.06
262.193	30.21
262.409	48.64
262.626	75.26
262.842	46.59
263.058	44.54
263.274	62.98
263.49	17.92
263.707	89.6
263.923	44.54
264.139	-33.28
264.355	46.59
264.571	81.41
264.787	69.12
265.004	-6.66
265.22	36.35
265.436	-33.28
265.652	40.45
265.868	-45.57
266.084	75.26
266.3	24.06
266.516	-80.38
266.732	-6.66
266.948	60.93
267.164	36.35
267.38	50.69
267.596	13.82
267.812	32.26
268.028	-39.42
268.244	11.78
268.46	73.21
268.676	54.78
268.892	-0.51
269.108	44.54
269.324	26.11
269.54	-33.28
269.756	105.98
269.972	-33.28
270.188	-4.61
270.403	3.58
270.619	48.64
270.835	-27.14
271.051	38.4
271.267	1.54
271.483	75.26
271.698	60.93
271.914	108.03
272.13	7.68
272.346	-10.75
272.562	15.87
272.777	81.41
272.993	-16.9
273.209	-20.99
273.425	54.78
273.64	-4.61
273.856	19.97
274.072	52.74
274.287	38.4
274.503	11.78
274.719	-16.9
274.934	-14.85
275.15	58.88
275.366	13.82
275.581	24.06
275.797	44.54
276.012	71.17
276.228	75.26
276.444	-45.57
276.659	7.68
276.875	-43.52
277.09	103.93
277.306	75.26
277.521	-31.23
277.737	26.11
277.952	26.11
278.168	-43.52
278.383	-16.9
278.599	11.78
278.814	58.88
279.03	24.06
279.245	-39.42
279.461	58.88
279.676	91.65
279.892	-0.51
280.107	65.02
280.322	-39.42
280.538	36.35
280.753	67.07
280.969	-8.7
281.184	19.97
281.399	73.21
281.615	-12.8
281.83	38.4
282.045	34.3
282.26	1.54
282.476	17.92
282.691	-4.61
282.906	26.11
283.122	71.17
283.337	19.97
283.552	-47.62
283.767	103.93
283.983	62.98
284.198	105.98
284.413	30.21
284.628	34.3
284.843	-12.8
285.058	1.54
285.274	44.54
285.489	26.11
285.704	17.92
285.919	87.55
286.134	-14.85
286.349	-14.85
286.564	7.68
286.779	99.84
286.995	-27.14
287.21	58.88
287.425	26.11
287.64	15.87
287.855	32.26
288.07	-0.51
288.285	1.54
288.5	85.5
288.715	13.82
288.93	60.93
289.145	81.41
289.36	54.78
289.575	24.06
289.79	30.21
290.004	-74.24
290.219	28.16
290.434	26.11
290.649	11.78
290.864	5.63
291.079	83.45
291.294	48.64
291.509	85.5
291.724	48.64
291.938	9.73
292.153	15.87
292.368	32.26
292.583	67.07
292.798	-27.14
293.012	30.21
293.227	99.84
293.442	-23.04
293.657	60.93
293.871	62.98
294.086	52.74
294.301	83.45
294.516	62.98
294.73	44.54
294.945	-2.56
295.16	-14.85
295.374	56.83
295.589	17.92
295.804	7.68
296.018	83.45
296.233	32.26
296.447	48.64
296.662	42.5
296.877	30.21
297.091	62.98
297.306	1.54
297.52	-33.28
297.735	-6.66
297.949	44.54
298.164	42.5
298.378	-35.33
298.593	48.64
298.807	7.68
299.022	30.21
299.236	95.74
299.451	17.92
299.665	-14.85
299.88	48.64
300.094	101.89
300.309	-33.28
300.523	-27.14
300.737	-8.7
300.952	52.74
301.166	19.97
301.381	-25.09
301.595	-14.85
301.809	17.92
302.024	69.12
302.238	-6.66
302.452	22.02
302.667	-51.71
302.881	87.55
303.095	32.26
303.309	62.98
303.524	-25.09
303.738	26.11
303.952	-31.23
304.166	-23.04
304.381	1.54
304.595	130.56
304.809	69.12
305.023	46.59
305.237	-8.7
305.452	30.21
305.666	30.21
305.88	67.07
306.094	32.26
306.308	-2.56
306.522	-41.47
306.736	32.26
306.95	-20.99
307.164	95.74
307.379	17.92
307.593	97.79
307.807	32.26
308.021	52.74
308.235	79.36
308.449	22.02
308.663	24.06
308.877	42.5
309.091	32.26
309.305	65.02
309.519	-4.61
309.733	62.98
309.947	7.68
310.161	157.18
310.374	36.35
310.588	56.83
310.802	-31.23
311.016	73.21
311.23	28.16
311.444	11.78
311.658	-0.51
311.872	112.13
312.085	5.63
312.299	28.16
312.513	1.54
312.727	62.98
312.941	15.87
313.154	-2.56
313.368	38.4
313.582	30.21
313.796	58.88
314.009	13.82
314.223	50.69
314.437	19.97
314.651	79.36
314.864	87.55
315.078	-10.75
315.292	28.16
315.505	83.45
315.719	67.07
315.933	62.98
316.146	-35.33
316.36	38.4
316.573	15.87
316.787	69.12
317.001	26.11
317.214	30.21
317.428	81.41
317.641	-0.51
317.855	73.21
318.068	-2.56
318.282	36.35
318.495	89.6
318.709	58.88
318.922	19.97
319.136	134.65
319.349	46.59
319.563	7.68
319.776	56.83
319.99	5.63
320.203	-16.9
320.417	34.3
320.63	52.74
320.843	89.6
321.057	85.5
321.27	-14.85
321.483	65.02
321.697	77.31
321.91	-8.7
322.124	13.82
322.337	50.69
322.55	81.41
322.763	-10.75
322.977	58.88
323.19	9.73
323.403	142.85
323.617	34.3
323.83	79.36
324.043	40.45
324.256	40.45
324.469	24.06
324.683	-10.75
324.896	-37.38
325.109	60.93
325.322	15.87
325.535	83.45
325.748	-16.9
325.962	97.79
326.175	69.12
326.388	38.4
326.601	67.07
326.814	34.3
327.027	60.93
327.24	101.89
327.453	-12.8
327.666	56.83
327.879	54.78
328.092	48.64
328.305	-0.51
328.518	28.16
328.731	7.68
328.944	54.78
329.157	-0.51
329.37	60.93
329.583	40.45
329.796	103.93
330.009	15.87
330.222	91.65
330.435	44.54
330.648	48.64
330.861	91.65
331.073	38.4
331.286	22.02
331.499	17.92
331.712	85.5
331.925	30.21
332.138	-27.14
332.35	46.59
332.563	46.59
332.776	108.03
332.989	38.4
333.202	-20.99
333.414	26.11
333.627	-8.7
333.84	-12.8
334.053	15.87
334.265	28.16
334.478	32.26
334.691	-41.47
334.903	101.89
335.116	81.41
335.329	73.21
335.541	28.16
335.754	89.6
335.966	17.92
336.179	30.21
336.392	56.83
336.604	5.63
336.817	73.21
337.029	58.88
337.242	-10.75
337.454	95.74
337.667	13.82
337.88	54.78
338.092	5.63
338.305	7.68
338.517	32.26
338.729	65.02
338.942	9.73
339.154	58.88
339.367	13.82
339.579	-16.9
339.792	15.87
340.004	91.65
340.217	-10.75
340.429	5.63
340.641	-16.9
340.854	116.22
341.066	32.26
341.278	103.93
341.491	93.69
341.703	42.5
341.915	24.06
342.128	11.78
342.34	54.78
342.552	-6.66
342.764	50.69
342.977	44.54
343.189	-14.85
343.401	48.64
343.613	17.92
343.826	60.93
344.038	9.73
344.25	-8.7
344.462	11.78
344.674	30.21
344.886	48.64
345.099	19.97
345.311	48.64
345.523	110.08
345.735	5.63
345.947	48.64
346.159	75.26
346.371	75.26
346.583	34.3
346.795	77.31
347.007	75.26
347.219	62.98
347.431	32.26
347.643	60.93
347.855	-0.51
348.067	73.21
348.279	5.63
348.491	24.06
348.703	56.83
348.915	44.54
349.127	48.64
349.339	28.16
349.551	-8.7
349.763	69.12
349.975	42.5
350.187	26.11
350.399	-8.7
350.61	-12.8
350.822	-12.8
351.034	83.45
351.246	75.26
351.458	32.26
351.669	1.54
351.881	13.82
352.093	38.4
352.305	60.93
352.517	-14.85
352.728	71.17
352.94	38.4
353.152	95.74
353.363	-43.52
353.575	120.32
353.787	126.46
353.999	46.59
354.21	36.35
354.422	-2.56
354.633	46.59
354.845	73.21
355.057	36.35
355.268	-6.66
355.48	28.16
355.692	5.63
355.903	62.98
356.115	67.07
356.326	71.17
356.538	93.69
356.749	44.54
356.961	85.5
357.172	40.45
357.384	24.06
357.595	44.54
357.807	34.3
358.018	11.78
358.23	56.83
358.441	65.02
358.653	126.46
358.864	-6.66
359.075	-6.66
359.287	36.35
359.498	79.36
359.709	60.93
359.921	40.45
360.132	46.59
360.344	56.83
360.555	75.26
360.766	65.02
360.977	36.35
361.189	22.02
361.4	110.08
361.611	91.65
361.823	28.16
362.034	36.35
362.245	13.82
362.456	103.93
362.667	50.69
362.879	71.17
363.09	36.35
363.301	67.07
363.512	69.12
363.723	32.26
363.935	58.88
364.146	101.89
364.357	-39.42
364.568	19.97
364.779	-31.23
364.99	116.22
365.201	24.06
365.412	177.66
365.623	-0.51
365.834	17.92
366.045	42.5
366.256	50.69
366.467	79.36
366.678	56.83
366.889	28.16
367.1	-20.99
367.311	30.21
367.522	24.06
367.733	62.98
367.944	62.98
368.155	-6.66
368.366	124.41
368.577	60.93
368.788	79.36
368.999	-20.99
369.209	-10.75
369.42	85.5
369.631	146.94
369.842	138.75
370.053	60.93
370.264	79.36
370.474	142.85
370.685	11.78
370.896	11.78
371.107	85.5
371.317	89.6
371.528	42.5
371.739	105.98
371.95	81.41
372.16	54.78
372.371	7.68
372.582	22.02
372.792	108.03
373.003	132.61
373.214	-27.14
373.424	34.3
373.635	32.26
373.846	93.69
374.056	67.07
374.267	79.36
374.477	22.02
374.688	7.68
374.898	67.07
375.109	71.17
375.319	110.08
375.53	19.97
375.74	26.11
375.951	95.74
376.161	15.87
376.372	99.84
376.582	67.07
376.793	65.02
377.003	-45.57
377.214	67.07
377.424	73.21
377.635	30.21
377.845	19.97
378.055	46.59
378.266	-18.94
378.476	60.93
378.686	9.73
378.897	22.02
379.107	44.54
379.317	62.98
379.528	34.3
379.738	73.21
379.948	101.89
380.158	60.93
380.369	26.11
380.579	50.69
380.789	46.59
380.999	67.07
381.21	73.21
381.42	99.84
381.63	120.32
381.84	19.97
382.05	58.88
382.261	9.73
382.471	48.64
382.681	56.83
382.891	126.46
383.101	75.26
383.311	67.07
383.521	28.16
383.731	77.31
383.941	44.54
384.151	67.07
384.361	79.36
384.571	32.26
384.781	151.04
384.991	153.09
385.201	48.64
385.411	103.93
385.621	99.84
385.831	-2.56
386.041	89.6
386.251	134.65
386.461	83.45
386.671	62.98
386.881	110.08
387.091	36.35
387.301	79.36
387.511	83.45
387.72	52.74
387.93	62.98
388.14	85.5
388.35	77.31
388.56	52.74
388.769	95.74
388.979	36.35
389.189	26.11
389.399	99.84
389.609	32.26
389.818	32.26
390.028	153.09
390.238	77.31
390.447	69.12
390.657	153.09
390.867	83.45
391.076	22.02
391.286	56.83
391.496	103.93
391.705	132.61
391.915	91.65
392.125	130.56
392.334	-31.23
392.544	93.69
392.753	85.5
392.963	148.99
393.172	83.45
393.382	11.78
393.591	153.09
393.801	118.27
394.01	105.98
394.22	9.73
394.429	58.88
394.639	101.89
394.848	65.02
395.058	54.78
395.267	77.31
395.477	124.41
395.686	69.12
395.895	108.03
396.105	142.85
396.314	83.45
396.524	89.6
396.733	67.07
396.942	103.93
397.152	134.65
397.361	95.74
397.57	163.33
397.78	73.21
397.989	116.22
398.198	148.99
398.407	81.41
398.617	124.41
398.826	73.21
399.035	89.6
399.244	165.37
399.453	99.84
399.663	140.8
399.872	118.27
400.081	153.09
400.29	194.05
400.499	124.41
400.708	138.75
400.917	134.65
401.127	157.18
401.336	126.46
401.545	161.28
401.754	189.95
401.963	95.74
402.172	99.84
402.381	144.89
402.59	146.94
402.799	202.24
403.008	175.61
403.217	155.13
403.426	148.99
403.635	144.89
403.844	183.81
404.053	237.05
404.262	120.32
404.471	218.62
404.68	165.37
404.888	200.19
405.097	146.94
405.306	163.33
405.515	216.57
405.724	189.95
405.933	210.43
406.142	235
406.35	251.39
406.559	179.71
406.768	173.57
406.977	183.81
407.185	249.34
407.394	196.09
407.603	273.92
407.812	226.81
408.02	220.67
408.229	286.2
408.438	300.54
408.646	286.2
408.855	235
409.064	312.83
409.272	296.44
409.481	269.82
409.69	429.56
409.898	398.84
410.107	378.36
410.315	341.5
410.524	376.31
410.733	423.42
410.941	427.51
411.15	527.86
411.358	450.04
411.567	456.19
411.775	460.28
411.984	431.61
412.192	620.02
412.401	574.97
412.609	577.02
412.818	617.97
413.026	607.73
413.234	613.88
413.443	568.82
413.651	640.5
413.86	732.66
414.068	751.09
414.276	777.72
414.485	787.96
414.693	847.35
414.901	859.63
415.11	869.87
415.318	865.78
415.526	996.85
415.734	1009.14
415.943	1011.18
416.151	1043.95
416.359	998.9
416.567	1089.01
416.776	1136.11
416.984	1316.33
417.192	1236.46
417.4	1215.98
417.608	1353.2
417.817	1437.16
418.025	1494.51
418.233	1478.12
418.441	1478.12
418.649	1474.03
418.857	1613.29
419.065	1635.82
419.273	1641.96
419.481	1732.07
419.689	1807.84
419.897	2026.98
420.105	2018.79
420.313	2063.84
420.521	2104.8
420.729	2149.86
420.937	2137.57
421.145	2223.58
421.353	2317.79
421.561	2444.76
421.769	2491.87
421.977	2645.46
422.185	2569.69
422.393	2805.21
422.601	2891.22
422.809	3020.24
423.017	3081.68
423.224	3106.26
423.432	3218.89
423.64	3272.14
423.848	3507.66
424.056	3382.73
424.263	3845.57
424.471	3790.28
424.679	3825.09
424.887	4179.39
425.094	4183.49
425.302	4193.73
425.51	4296.13
425.718	4429.24
425.925	4478.4
426.133	4541.88
426.341	4931
426.548	5295.54
426.756	5193.14
426.964	5072.31
427.171	5567.92
427.379	5660.07
427.586	5828.01
427.794	6026.66
428.001	6235.55
428.209	6315.42
428.417	6495.64
428.624	6712.73
428.832	6833.56
429.039	6899.09
429.247	6995.35
429.454	7562.64
429.662	7929.22
429.869	7503.25
430.076	8052.1
430.284	7806.34
430.491	8043.91
430.699	8572.29
430.906	8684.92
431.114	8795.51
431.321	9135.48
431.528	9117.04
431.736	9813.35
431.943	10083.69
432.15	9993.58
432.358	10237.28
432.565	10665.31
432.772	10634.59
432.979	11165.01
433.187	11167.06
433.394	11525.46
433.601	12436.8
433.808	12225.86
434.016	12166.47
434.223	12541.25
434.43	13385.01
434.637	13026.62
434.844	14044.46
435.052	14202.15
435.259	14138.66
435.466	14384.42
435.673	14130.47
435.88	15232.28
436.087	15985.93
436.294	15975.69
436.501	15451.41
436.708	15959.31
436.915	16364.81
437.122	17085.69
437.329	17063.16
437.537	17732.85
437.743	17816.82
437.95	17994.99
438.157	18873.57
438.364	19317.98
438.571	19256.54
438.778	19584.21
438.985	21476.54
439.192	20501.7
439.399	21095.61
439.606	20552.9
439.813	21818.55
440.02	23311.52
440.227	22977.7
440.433	22639.78
440.64	23133.34
440.847	23348.38
441.054	23798.93
441.261	25175.17
441.467	24953.99
441.674	25494.65
441.881	26414.19
442.088	26272.88
442.294	26233.97
442.501	26649.71
442.708	27495.52
442.914	28535.88
443.121	29623.36
443.328	29019.21
443.534	30821.42
443.741	30264.37
443.948	29590.59
444.154	31872.03
444.361	31519.78
444.568	31788.06
444.774	31650.85
444.981	32154.65
445.187	33012.74
445.394	34092.02
445.6	34302.96
445.807	37336.01
446.013	36209.62
446.22	36303.83
446.426	37710.78
446.633	37620.67
446.839	39246.76
447.046	37938.11
447.252	39752.61
447.459	39609.25
447.665	39353.26
447.871	41608.07
448.078	43002.74
448.284	41149.32
448.491	42470.26
448.697	43660.13
448.903	44440.41
449.11	45019.99
449.316	43875.17
449.522	44571.48
449.728	45691.72
449.935	46183.23
450.141	46261.05
450.347	46883.64
450.553	45546.31
450.76	46388.03
450.966	47479.6
451.172	46633.78
451.378	48405.28
451.584	47084.34
451.791	48208.67
451.997	48014.12
452.203	48835.35
452.409	48888.6
452.615	48452.38
452.821	46830.39
453.027	46308.16
453.233	48792.34
453.44	46504.76
453.646	47151.92
453.852	47237.94
454.058	48253.73
454.264	46469.95
454.47	47553.32
454.676	46459.71
454.882	47948.58
455.088	43760.48
455.294	44438.36
455.5	45015.89
455.705	45589.32
455.911	43592.55
456.117	42609.53
456.323	42179.45
456.529	39957.41
456.735	41857.92
456.941	40197.02
457.147	39848.86
457.352	38712.24
457.558	38245.3
457.764	37850.05
457.97	37618.63
458.176	36840.4
458.381	36656.08
458.587	34894.83
458.793	34743.28
458.999	32947.21
459.204	35355.62
459.41	34604.02
459.616	32191.51
459.821	32396.31
460.027	32115.73
460.233	31542.3
460.438	29856.82
460.644	30417.97
460.85	28673.1
461.055	28478.54
461.261	28353.62
461.466	26213.49
461.672	25085.06
461.878	27061.35
462.083	25412.73
462.289	24806.53
462.494	24423.56
462.7	23520.41
462.905	22717.61
463.111	23657.62
463.316	23712.92
463.522	23192.73
463.727	23411.87
463.932	23047.33
464.138	22992.03
464.343	23225.5
464.549	22731.94
464.754	23198.88
464.959	22920.35
465.165	22928.55
465.37	21558.46
465.575	21419.19
465.781	22185.13
465.986	22131.89
466.191	21329.08
466.397	20966.59
466.602	20108.49
466.807	21112
467.012	20786.37
