Data from USB4F104151__52__12-01-40-749.txt Node

Date: Fri Mar 14 12:01:40 EDT 2025
User: louis
Spectrometer: USB4F10415
Trigger mode: 4
Integration Time (sec): 2.000000E-2
Scans to average: 1
Electric dark correction enabled: true
Nonlinearity correction enabled: false
Boxcar width: 0
XAxis mode: Wavelengths
Number of Pixels in Spectrum: 3648
>>>>>Begin Spectral Data<<<<<
178.204	-32.43
178.424	-32.43
178.644	-32.43
178.864	-40.62
179.084	-46.76
179.304	-44.71
179.524	20.82
179.744	41.3
179.964	22.87
180.184	-13.99
180.404	26.96
180.624	-16.04
180.844	-63.15
181.064	55.64
181.283	6.49
181.503	41.3
181.723	-77.48
181.943	-83.63
182.163	110.93
182.383	-1.71
182.602	10.58
182.822	51.54
183.042	6.49
183.262	-5.8
183.482	-3.75
183.701	2.39
183.921	-3.75
184.141	4.44
184.361	96.6
184.58	-11.95
184.8	41.3
185.02	-59.05
185.239	14.68
185.459	37.2
185.679	14.68
185.898	-24.23
186.118	37.2
186.338	24.92
186.557	53.59
186.777	20.82
186.997	2.39
187.216	41.3
187.436	53.59
187.655	-7.85
187.875	22.87
188.095	29.01
188.314	10.58
188.534	-9.9
188.753	43.35
188.973	35.16
189.192	39.25
189.412	86.36
189.631	41.3
189.851	51.54
190.07	20.82
190.29	2.39
190.509	53.59
190.729	65.88
190.948	14.68
191.168	92.5
191.387	49.49
191.607	59.73
191.826	-1.71
192.045	37.2
192.265	18.77
192.484	78.16
192.704	18.77
192.923	10.58
193.142	37.2
193.362	-18.09
193.581	6.49
193.8	72.02
194.02	20.82
194.239	10.58
194.458	69.97
194.678	37.2
194.897	41.3
195.116	76.12
195.335	72.02
195.555	31.06
195.774	-44.71
195.993	22.87
196.212	-20.14
196.432	35.16
196.651	-71.34
196.87	53.59
197.089	127.32
197.308	96.6
197.528	-46.76
197.747	-22.19
197.966	-11.95
198.185	63.83
198.404	39.25
198.623	-22.19
198.842	39.25
199.062	16.73
199.281	92.5
199.5	51.54
199.719	29.01
199.938	6.49
200.157	112.98
200.376	-32.43
200.595	35.16
200.814	2.39
201.033	-61.1
201.252	33.11
201.471	82.26
201.69	53.59
201.909	80.21
202.128	65.88
202.347	78.16
202.566	29.01
202.785	59.73
203.004	4.44
203.223	65.88
203.442	65.88
203.661	-1.71
203.879	20.82
204.098	76.12
204.317	-46.76
204.536	35.16
204.755	4.44
204.974	108.88
205.193	69.97
205.411	41.3
205.63	-9.9
205.849	121.17
206.068	65.88
206.287	76.12
206.505	84.31
206.724	4.44
206.943	45.4
207.162	59.73
207.381	84.31
207.599	-93.87
207.818	29.01
208.037	80.21
208.255	-5.8
208.474	72.02
208.693	-28.33
208.911	-18.09
209.13	63.83
209.349	92.5
209.567	8.53
209.786	26.96
210.005	35.16
210.223	8.53
210.442	-26.28
210.661	-18.09
210.879	-18.09
211.098	29.01
211.316	-26.28
211.535	10.58
211.753	37.2
211.972	33.11
212.191	10.58
212.409	47.44
212.628	2.39
212.846	12.63
213.065	65.88
213.283	33.11
213.502	37.2
213.72	22.87
213.938	57.68
214.157	-7.85
214.375	59.73
214.594	37.2
214.812	-9.9
215.031	94.55
215.249	14.68
215.467	6.49
215.686	20.82
215.904	88.4
216.122	63.83
216.341	59.73
216.559	74.07
216.778	57.68
216.996	-3.75
217.214	-22.19
217.432	86.36
217.651	14.68
217.869	4.44
218.087	-30.38
218.306	69.97
218.524	110.93
218.742	16.73
218.96	49.49
219.179	4.44
219.397	88.4
219.615	121.17
219.833	47.44
220.051	37.2
220.27	96.6
220.488	84.31
220.706	24.92
220.924	63.83
221.142	57.68
221.36	12.63
221.578	53.59
221.796	14.68
222.015	29.01
222.233	12.63
222.451	20.82
222.669	-5.8
222.887	61.78
223.105	47.44
223.323	-20.14
223.541	-42.67
223.759	53.59
223.977	-24.23
224.195	59.73
224.413	35.16
224.631	45.4
224.849	57.68
225.067	108.88
225.285	12.63
225.503	26.96
225.721	16.73
225.939	-24.23
226.157	90.45
226.375	108.88
226.592	31.06
226.81	39.25
227.028	37.2
227.246	63.83
227.464	14.68
227.682	4.44
227.9	-13.99
228.117	53.59
228.335	4.44
228.553	-5.8
228.771	16.73
228.989	53.59
229.206	0.34
229.424	67.92
229.642	24.92
229.86	33.11
230.077	-32.43
230.295	26.96
230.513	53.59
230.731	51.54
230.948	26.96
231.166	80.21
231.384	51.54
231.601	-30.38
231.819	41.3
232.037	24.92
232.254	-38.57
232.472	29.01
232.689	-46.76
232.907	63.83
233.125	18.77
233.342	69.97
233.56	12.63
233.777	55.64
233.995	-13.99
234.213	61.78
234.43	51.54
234.648	20.82
234.865	-11.95
235.083	78.16
235.3	26.96
235.518	35.16
235.735	45.4
235.953	133.46
236.17	115.03
236.388	26.96
236.605	53.59
236.822	43.35
237.04	72.02
237.257	47.44
237.475	37.2
237.692	37.2
237.909	108.88
238.127	43.35
238.344	26.96
238.562	51.54
238.779	24.92
238.996	86.36
239.214	24.92
239.431	-5.8
239.648	61.78
239.865	88.4
240.083	-5.8
240.3	0.34
240.517	78.16
240.735	-5.8
240.952	110.93
241.169	18.77
241.386	-1.71
241.603	63.83
241.821	39.25
242.038	63.83
242.255	24.92
242.472	39.25
242.689	-1.71
242.907	33.11
243.124	-11.95
243.341	53.59
243.558	24.92
243.775	4.44
243.992	-63.15
244.209	35.16
244.426	100.69
244.643	98.64
244.86	-1.71
245.078	74.07
245.295	106.84
245.512	45.4
245.729	47.44
245.946	72.02
246.163	-9.9
246.38	35.16
246.597	0.34
246.814	-7.85
247.031	-20.14
247.248	43.35
247.464	35.16
247.681	-36.52
247.898	-18.09
248.115	43.35
248.332	33.11
248.549	76.12
248.766	94.55
248.983	39.25
249.2	2.39
249.417	22.87
249.633	-26.28
249.85	88.4
250.067	-24.23
250.284	35.16
250.501	41.3
250.717	94.55
250.934	90.45
251.151	14.68
251.368	-20.14
251.585	47.44
251.801	45.4
252.018	-40.62
252.235	10.58
252.451	29.01
252.668	53.59
252.885	8.53
253.102	-50.86
253.318	63.83
253.535	-16.04
253.752	53.59
253.968	47.44
254.185	-36.52
254.401	8.53
254.618	31.06
254.835	45.4
255.051	10.58
255.268	12.63
255.484	67.92
255.701	78.16
255.917	4.44
256.134	22.87
256.351	123.22
256.567	55.64
256.784	69.97
257	31.06
257.217	31.06
257.433	45.4
257.65	41.3
257.866	-1.71
258.082	78.16
258.299	4.44
258.515	8.53
258.732	51.54
258.948	67.92
259.165	26.96
259.381	22.87
259.597	16.73
259.814	76.12
260.03	14.68
260.246	29.01
260.463	65.88
260.679	-3.75
260.895	63.83
261.112	-1.71
261.328	-1.71
261.544	-30.38
261.761	-13.99
261.977	-36.52
262.193	-50.86
262.409	100.69
262.626	41.3
262.842	106.84
263.058	-18.09
263.274	-57
263.49	57.68
263.707	24.92
263.923	63.83
264.139	31.06
264.355	49.49
264.571	72.02
264.787	31.06
265.004	84.31
265.22	-18.09
265.436	65.88
265.652	80.21
265.868	102.74
266.084	31.06
266.3	18.77
266.516	4.44
266.732	55.64
266.948	-20.14
267.164	-3.75
267.38	-1.71
267.596	8.53
267.812	49.49
268.028	31.06
268.244	55.64
268.46	26.96
268.676	22.87
268.892	80.21
269.108	4.44
269.324	-26.28
269.54	20.82
269.756	78.16
269.972	8.53
270.188	2.39
270.403	35.16
270.619	100.69
270.835	6.49
271.051	-1.71
271.267	-28.33
271.483	6.49
271.698	88.4
271.914	49.49
272.13	-5.8
272.346	37.2
272.562	69.97
272.777	51.54
272.993	37.2
273.209	2.39
273.425	51.54
273.64	-65.19
273.856	22.87
274.072	55.64
274.287	49.49
274.503	63.83
274.719	98.64
274.934	86.36
275.15	51.54
275.366	20.82
275.581	29.01
275.797	6.49
276.012	-5.8
276.228	123.22
276.444	22.87
276.659	45.4
276.875	6.49
277.09	35.16
277.306	-11.95
277.521	-16.04
277.737	-40.62
277.952	100.69
278.168	35.16
278.383	47.44
278.599	125.27
278.814	41.3
279.03	39.25
279.245	41.3
279.461	35.16
279.676	22.87
279.892	43.35
280.107	51.54
280.322	51.54
280.538	26.96
280.753	-26.28
280.969	69.97
281.184	20.82
281.399	63.83
281.615	0.34
281.83	35.16
282.045	-44.71
282.26	-7.85
282.476	-11.95
282.691	90.45
282.906	96.6
283.122	4.44
283.337	4.44
283.552	55.64
283.767	-7.85
283.983	-1.71
284.198	16.73
284.413	8.53
284.628	-30.38
284.843	49.49
285.058	67.92
285.274	49.49
285.489	-34.47
285.704	63.83
285.919	-3.75
286.134	47.44
286.349	51.54
286.564	24.92
286.779	49.49
286.995	12.63
287.21	-30.38
287.425	39.25
287.64	-34.47
287.855	22.87
288.07	-7.85
288.285	18.77
288.5	78.16
288.715	-24.23
288.93	-11.95
289.145	14.68
289.36	29.01
289.575	76.12
289.79	61.78
290.004	90.45
290.219	51.54
290.434	26.96
290.649	12.63
290.864	-52.91
291.079	37.2
291.294	63.83
291.509	39.25
291.724	63.83
291.938	88.4
292.153	86.36
292.368	78.16
292.583	80.21
292.798	55.64
293.012	-30.38
293.227	53.59
293.442	-13.99
293.657	61.78
293.871	20.82
294.086	115.03
294.301	2.39
294.516	31.06
294.73	51.54
294.945	57.68
295.16	37.2
295.374	-1.71
295.589	-18.09
295.804	29.01
296.018	51.54
296.233	-16.04
296.447	20.82
296.662	47.44
296.877	4.44
297.091	61.78
297.306	78.16
297.52	6.49
297.735	18.77
297.949	53.59
298.164	33.11
298.378	-3.75
298.593	-16.04
298.807	6.49
299.022	12.63
299.236	98.64
299.451	63.83
299.665	2.39
299.88	37.2
300.094	-5.8
300.309	-13.99
300.523	96.6
300.737	76.12
300.952	61.78
301.166	90.45
301.381	69.97
301.595	-9.9
301.809	35.16
302.024	39.25
302.238	22.87
302.452	8.53
302.667	-11.95
302.881	78.16
303.095	-5.8
303.309	57.68
303.524	72.02
303.738	53.59
303.952	-77.48
304.166	67.92
304.381	31.06
304.595	119.12
304.809	51.54
305.023	80.21
305.237	35.16
305.452	-3.75
305.666	41.3
305.88	43.35
306.094	14.68
306.308	4.44
306.522	37.2
306.736	57.68
306.95	-3.75
307.164	39.25
307.379	8.53
307.593	49.49
307.807	53.59
308.021	96.6
308.235	86.36
308.449	63.83
308.663	69.97
308.877	47.44
309.091	18.77
309.305	80.21
309.519	35.16
309.733	61.78
309.947	-9.9
310.161	2.39
310.374	22.87
310.588	84.31
310.802	41.3
311.016	18.77
311.23	18.77
311.444	35.16
311.658	-71.34
311.872	96.6
312.085	35.16
312.299	86.36
312.513	57.68
312.727	37.2
312.941	35.16
313.154	39.25
313.368	-38.57
313.582	35.16
313.796	6.49
314.009	29.01
314.223	45.4
314.437	35.16
314.651	29.01
314.864	104.79
315.078	31.06
315.292	22.87
315.505	2.39
315.719	35.16
315.933	84.31
316.146	49.49
316.36	26.96
316.573	10.58
316.787	4.44
317.001	35.16
317.214	55.64
317.428	39.25
317.641	47.44
317.855	51.54
318.068	49.49
318.282	8.53
318.495	53.59
318.709	14.68
318.922	-9.9
319.136	104.79
319.349	59.73
319.563	41.3
319.776	127.32
319.99	-3.75
320.203	53.59
320.417	2.39
320.63	90.45
320.843	153.94
321.057	-7.85
321.27	41.3
321.483	0.34
321.697	43.35
321.91	67.92
322.124	37.2
322.337	110.93
322.55	18.77
322.763	53.59
322.977	-22.19
323.19	59.73
323.403	31.06
323.617	49.49
323.83	57.68
324.043	94.55
324.256	49.49
324.469	4.44
324.683	104.79
324.896	-38.57
325.109	47.44
325.322	37.2
325.535	119.12
325.748	72.02
325.962	49.49
326.175	67.92
326.388	-3.75
326.601	51.54
326.814	51.54
327.027	43.35
327.24	80.21
327.453	67.92
327.666	84.31
327.879	29.01
328.092	108.88
328.305	-18.09
328.518	18.77
328.731	8.53
328.944	49.49
329.157	45.4
329.37	84.31
329.583	112.98
329.796	63.83
330.009	82.26
330.222	139.6
330.435	10.58
330.648	6.49
330.861	-24.23
331.073	14.68
331.286	0.34
331.499	59.73
331.712	63.83
331.925	51.54
332.138	20.82
332.35	67.92
332.563	-3.75
332.776	43.35
332.989	37.2
333.202	94.55
333.414	24.92
333.627	0.34
333.84	67.92
334.053	39.25
334.265	26.96
334.478	63.83
334.691	14.68
334.903	43.35
335.116	0.34
335.329	12.63
335.541	92.5
335.754	53.59
335.966	35.16
336.179	51.54
336.392	74.07
336.604	33.11
336.817	94.55
337.029	20.82
337.242	22.87
337.454	92.5
337.667	26.96
337.88	55.64
338.092	22.87
338.305	61.78
338.517	55.64
338.729	123.22
338.942	53.59
339.154	65.88
339.367	-20.14
339.579	61.78
339.792	88.4
340.004	45.4
340.217	45.4
340.429	125.27
340.641	61.78
340.854	-5.8
341.066	67.92
341.278	33.11
341.491	133.46
341.703	6.49
341.915	24.92
342.128	43.35
342.34	-28.33
342.552	69.97
342.764	16.73
342.977	-28.33
343.189	14.68
343.401	0.34
343.613	-36.52
343.826	123.22
344.038	57.68
344.25	59.73
344.462	53.59
344.674	37.2
344.886	78.16
345.099	22.87
345.311	-13.99
345.523	63.83
345.735	33.11
345.947	121.17
346.159	-1.71
346.371	86.36
346.583	-18.09
346.795	4.44
347.007	-57
347.219	96.6
347.431	2.39
347.643	139.6
347.855	39.25
348.067	39.25
348.279	-13.99
348.491	33.11
348.703	72.02
348.915	61.78
349.127	92.5
349.339	57.68
349.551	37.2
349.763	72.02
349.975	-9.9
350.187	65.88
350.399	98.64
350.61	59.73
350.822	47.44
351.034	43.35
351.246	65.88
351.458	51.54
351.669	106.84
351.881	110.93
352.093	63.83
352.305	94.55
352.517	127.32
352.728	84.31
352.94	72.02
353.152	18.77
353.363	115.03
353.575	119.12
353.787	115.03
353.999	39.25
354.21	121.17
354.422	-5.8
354.633	18.77
354.845	24.92
355.057	-20.14
355.268	121.17
355.48	151.89
355.692	22.87
355.903	57.68
356.115	119.12
356.326	-16.04
356.538	112.98
356.749	31.06
356.961	115.03
357.172	16.73
357.384	24.92
357.595	59.73
357.807	106.84
358.018	74.07
358.23	49.49
358.441	92.5
358.653	37.2
358.864	53.59
359.075	35.16
359.287	72.02
359.498	53.59
359.709	82.26
359.921	67.92
360.132	67.92
360.344	45.4
360.555	-30.38
360.766	110.93
360.977	110.93
361.189	110.93
361.4	55.64
361.611	69.97
361.823	117.08
362.034	65.88
362.245	16.73
362.456	61.78
362.667	59.73
362.879	8.53
363.09	125.27
363.301	33.11
363.512	47.44
363.723	90.45
363.935	39.25
364.146	16.73
364.357	115.03
364.568	-5.8
364.779	18.77
364.99	129.36
365.201	53.59
365.412	43.35
365.623	8.53
365.834	53.59
366.045	106.84
366.256	57.68
366.467	67.92
366.678	-52.91
366.889	-24.23
367.1	12.63
367.311	102.74
367.522	53.59
367.733	74.07
367.944	55.64
368.155	35.16
368.366	22.87
368.577	-38.57
368.788	-16.04
368.999	57.68
369.209	22.87
369.42	155.99
369.631	119.12
369.842	69.97
370.053	20.82
370.264	-24.23
370.474	133.46
370.685	20.82
370.896	35.16
371.107	96.6
371.317	61.78
371.528	29.01
371.739	110.93
371.95	69.97
372.16	84.31
372.371	47.44
372.582	72.02
372.792	61.78
373.003	80.21
373.214	80.21
373.424	2.39
373.635	4.44
373.846	94.55
374.056	35.16
374.267	166.23
374.477	76.12
374.688	123.22
374.898	65.88
375.109	57.68
375.319	2.39
375.53	153.94
375.74	55.64
375.951	65.88
376.161	35.16
376.372	53.59
376.582	39.25
376.793	29.01
377.003	16.73
377.214	29.01
377.424	106.84
377.635	117.08
377.845	86.36
378.055	98.64
378.266	-30.38
378.476	106.84
378.686	-1.71
378.897	37.2
379.107	84.31
379.317	106.84
379.528	63.83
379.738	104.79
379.948	59.73
380.158	55.64
380.369	74.07
380.579	98.64
380.789	78.16
380.999	153.94
381.21	39.25
381.42	84.31
381.63	37.2
381.84	94.55
382.05	18.77
382.261	35.16
382.471	131.41
382.681	63.83
382.891	90.45
383.101	100.69
383.311	102.74
383.521	57.68
383.731	170.32
383.941	125.27
384.151	131.41
384.361	80.21
384.571	80.21
384.781	96.6
384.991	29.01
385.201	86.36
385.411	119.12
385.621	84.31
385.831	45.4
386.041	53.59
386.251	69.97
386.461	69.97
386.671	41.3
386.881	57.68
387.091	143.7
387.301	133.46
387.511	35.16
387.72	102.74
387.93	110.93
388.14	20.82
388.35	88.4
388.56	90.45
388.769	155.99
388.979	86.36
389.189	43.35
389.399	43.35
389.609	57.68
389.818	88.4
390.028	88.4
390.238	69.97
390.447	55.64
390.657	98.64
390.867	65.88
391.076	121.17
391.286	94.55
391.496	69.97
391.705	69.97
391.915	121.17
392.125	82.26
392.334	178.51
392.544	125.27
392.753	119.12
392.963	61.78
393.172	123.22
393.382	57.68
393.591	84.31
393.801	72.02
394.01	117.08
394.22	153.94
394.429	82.26
394.639	121.17
394.848	135.51
395.058	174.42
395.267	61.78
395.477	108.88
395.686	8.53
395.895	117.08
396.105	112.98
396.314	61.78
396.524	194.9
396.733	166.23
396.942	184.66
397.152	184.66
397.361	55.64
397.57	192.85
397.78	143.7
397.989	69.97
398.198	164.18
398.407	55.64
398.617	104.79
398.826	145.75
399.035	104.79
399.244	102.74
399.453	237.91
399.663	135.51
399.872	123.22
400.081	125.27
400.29	176.47
400.499	129.36
400.708	205.14
400.917	43.35
401.127	63.83
401.336	123.22
401.545	221.52
401.754	168.27
401.963	137.56
402.172	78.16
402.381	110.93
402.59	141.65
402.799	184.66
403.008	110.93
403.217	168.27
403.426	176.47
403.635	127.32
403.844	166.23
404.053	51.54
404.262	102.74
404.471	170.32
404.68	205.14
404.888	115.03
405.097	203.09
405.306	174.42
405.515	139.6
405.724	94.55
405.933	299.34
406.142	229.71
406.35	209.23
406.559	119.12
406.768	147.8
406.977	260.43
407.185	268.63
407.394	246.1
407.603	246.1
407.812	317.78
408.02	313.68
408.229	233.81
408.438	291.15
408.646	340.3
408.855	332.11
409.064	366.93
409.272	266.58
409.481	354.64
409.69	291.15
409.898	385.36
410.107	450.89
410.315	362.83
410.524	397.65
410.733	373.07
410.941	442.7
411.15	506.19
411.358	457.04
411.567	549.2
411.775	530.77
411.984	479.57
412.192	608.59
412.401	512.33
412.609	469.33
412.818	631.12
413.026	586.06
413.234	663.88
413.443	635.21
413.651	698.7
413.86	659.79
414.068	723.27
414.276	862.54
414.485	768.33
414.693	878.92
414.901	917.83
415.11	854.34
415.318	846.15
415.526	907.59
415.734	923.98
415.943	977.22
416.151	1024.33
416.359	1053
416.567	1122.63
416.776	1087.81
416.984	1110.34
417.192	1235.27
417.4	1188.16
417.608	1321.28
417.817	1329.47
418.025	1390.91
418.233	1487.17
418.441	1476.93
418.649	1538.37
418.857	1456.45
419.065	1601.85
419.273	1550.65
419.481	1661.24
419.689	1691.96
419.897	1886.52
420.105	1810.75
420.313	1935.67
420.521	2023.73
420.729	2056.5
420.937	2081.08
421.145	2226.48
421.353	2316.59
421.561	2275.63
421.769	2429.23
421.977	2556.21
422.185	2494.77
422.393	2621.74
422.601	2830.63
422.809	2916.65
423.017	2879.79
423.224	3049.77
423.432	3170.6
423.64	3143.97
423.848	3402.02
424.056	3379.49
424.263	3483.94
424.471	3606.81
424.679	3572
424.887	3768.6
425.094	3971.35
425.302	3909.91
425.51	4036.89
425.718	4286.74
425.925	4194.58
426.133	4421.91
426.341	4710.67
426.548	4849.93
426.756	4923.66
426.964	5212.42
427.171	5323.01
427.379	5243.14
427.586	5550.34
427.794	5640.45
428.001	5912.83
428.209	6134.01
428.417	6093.05
428.624	6621.42
428.832	6553.84
429.039	6353.14
429.247	6469.87
429.454	7035.11
429.662	7712.99
429.869	7256.29
430.076	7719.14
430.284	7487.72
430.491	7831.77
430.699	8210.65
430.906	8306.9
431.114	8304.85
431.321	8569.04
431.528	8831.18
431.736	9330.89
431.943	9554.12
432.15	9425.09
432.358	9736.38
432.565	10377.4
432.772	10264.76
432.979	10758.32
433.187	10723.51
433.394	10885.3
433.601	11679.91
433.808	11675.81
434.016	11516.07
434.223	12144.8
434.43	12886.16
434.637	12318.87
434.844	13084.81
435.052	13619.33
435.259	13660.29
435.466	13559.94
435.673	13512.84
435.88	14194.81
436.087	14966.9
436.294	15091.82
436.501	14930.03
436.708	15218.8
436.915	15509.61
437.122	16355.42
437.329	16400.48
437.537	16824.4
437.743	17006.67
437.95	16924.76
438.157	17922.12
438.364	18350.14
438.571	18180.16
438.778	18575.42
438.985	20045.86
439.192	19380.27
439.399	20140.07
439.606	19712.04
439.813	20684.83
440.02	22044.68
440.227	21534.73
440.433	21329.94
440.64	21970.95
440.847	21970.95
441.054	22341.63
441.261	23859.18
441.467	23640.04
441.674	24000.49
441.881	25204.69
442.088	24981.46
442.294	24700.89
442.501	25411.54
442.708	26220.49
442.914	26961.85
443.121	28049.32
443.328	27766.7
443.534	29411.22
443.741	28319.65
443.948	28270.5
444.154	30146.44
444.361	30017.42
444.568	30406.53
444.774	30160.78
444.981	30721.92
445.187	31342.46
445.394	33154.91
445.6	32249.71
445.807	35440.44
446.013	33800.02
446.22	34703.17
446.426	35989.3
446.633	36185.9
446.839	37242.65
447.046	35991.34
447.252	37979.92
447.459	37889.81
447.665	37834.52
447.871	39569.15
448.078	40830.69
448.284	39249.66
448.491	40226.54
448.697	41764.57
448.903	42133.2
449.11	42294.99
449.316	41832.15
449.522	42731.21
449.728	43398.85
449.935	43531.97
450.141	43732.67
450.347	44877.48
450.553	43509.44
450.76	43927.22
450.966	45663.9
451.172	45020.84
451.378	46380.69
451.584	45113
451.791	46227.09
451.997	46114.45
452.203	47038.09
452.409	46685.84
452.615	46485.14
452.821	44754.6
453.027	44271.28
453.233	46554.77
453.44	44844.71
453.646	45373.09
453.852	45420.19
454.058	46067.35
454.264	44840.62
454.47	45729.44
454.676	44482.22
454.882	46372.5
455.088	42108.63
455.294	42680.01
455.5	43177.67
455.705	43865.78
455.911	41944.79
456.117	41250.53
456.323	40523.5
456.529	38795.01
456.735	40298.22
456.941	39210.75
457.147	38328.08
457.352	37553.94
457.558	37027.62
457.764	36855.59
457.97	35991.34
458.176	35116.86
458.381	35678
458.587	33533.78
458.793	33634.13
458.999	31960.94
459.204	34074.45
459.41	33081.18
459.616	30941.05
459.821	31020.92
460.027	30822.27
460.233	30125.96
460.438	29276.05
460.644	29120.41
460.85	27766.7
461.055	27414.45
461.261	27230.13
461.466	25184.21
461.672	24526.82
461.878	26259.4
462.083	24301.54
462.289	24068.07
462.494	23621.61
462.7	22827
462.905	22095.88
463.111	22958.07
463.316	23033.85
463.522	22491.13
463.727	22749.18
463.932	22302.72
464.138	22247.43
464.343	22450.17
464.549	21676.04
464.754	22448.13
464.959	22392.83
465.165	22140.93
465.37	21096.47
465.575	20697.11
465.781	21436.43
465.986	21639.18
466.191	20848.66
466.397	20144.16
466.602	19279.92
466.807	20246.56
467.012	20199.46
467.218	20131.87
467.423	19830.82
467.628	19744.81
