Data from USB4F104151__32__12-00-41-878.txt Node

Date: Fri Mar 14 12:00:41 EDT 2025
User: louis
Spectrometer: USB4F10415
Trigger mode: 4
Integration Time (sec): 2.000000E-2
Scans to average: 1
Electric dark correction enabled: true
Nonlinearity correction enabled: false
Boxcar width: 0
XAxis mode: Wavelengths
Number of Pixels in Spectrum: 3648
>>>>>Begin Spectral Data<<<<<
178.204	-68.95
178.424	-68.95
178.644	-68.95
178.864	-73.04
179.084	-71
179.304	-38.23
179.524	45.74
179.744	-89.43
179.964	-1.37
180.184	31.4
180.404	8.87
180.624	25.26
180.844	-5.46
181.064	-11.61
181.283	37.55
181.503	-1.37
181.723	-1.37
181.943	6.83
182.163	53.93
182.383	76.46
182.602	21.16
182.822	62.12
183.042	84.65
183.262	45.74
183.482	27.31
183.701	27.31
183.921	12.97
184.141	-5.46
184.361	49.83
184.58	12.97
184.8	15.02
185.02	-46.42
185.239	51.88
185.459	49.83
185.679	8.87
185.898	-21.85
186.118	60.07
186.338	-9.56
186.557	43.69
186.777	-25.94
186.997	55.98
187.216	19.11
187.436	-36.18
187.655	82.6
187.875	94.89
188.095	41.64
188.314	98.99
188.534	146.09
188.753	-62.8
188.973	103.08
189.192	17.07
189.412	-30.04
189.631	15.02
189.851	19.11
190.07	6.83
190.29	12.97
190.509	-34.13
190.729	27.31
190.948	49.83
191.168	129.7
191.387	68.27
191.607	-81.24
191.826	-25.94
192.045	17.07
192.265	82.6
192.484	55.98
192.704	8.87
192.923	58.03
193.142	60.07
193.362	12.97
193.581	25.26
193.8	-34.13
194.02	31.4
194.239	78.51
194.458	33.45
194.678	15.02
194.897	4.78
195.116	70.31
195.335	19.11
195.555	64.17
195.774	35.5
195.993	23.21
196.212	51.88
196.432	43.69
196.651	-25.94
196.87	70.31
197.089	45.74
197.308	51.88
197.528	86.7
197.747	-42.32
197.966	19.11
198.185	49.83
198.404	64.17
198.623	25.26
198.842	45.74
199.062	37.55
199.281	92.84
199.5	-15.7
199.719	2.73
199.938	2.73
200.157	39.59
200.376	29.35
200.595	98.99
200.814	-11.61
201.033	107.18
201.252	64.17
201.471	35.5
201.69	21.16
201.909	17.07
202.128	84.65
202.347	60.07
202.566	74.41
202.785	35.5
203.004	17.07
203.223	92.84
203.442	-23.89
203.661	-36.18
203.879	-13.65
204.098	-19.8
204.317	23.21
204.536	8.87
204.755	43.69
204.974	119.46
205.193	94.89
205.411	90.79
205.63	4.78
205.849	55.98
206.068	64.17
206.287	51.88
206.505	-13.65
206.724	23.21
206.943	0.68
207.162	47.79
207.381	-5.46
207.599	17.07
207.818	27.31
208.037	2.73
208.255	29.35
208.474	15.02
208.693	25.26
208.911	-1.37
209.13	29.35
209.349	19.11
209.567	31.4
209.786	-7.51
210.005	43.69
210.223	39.59
210.442	-23.89
210.661	23.21
210.879	19.11
211.098	45.74
211.316	92.84
211.535	80.55
211.753	84.65
211.972	15.02
212.191	-44.37
212.409	58.03
212.628	23.21
212.846	49.83
213.065	-32.08
213.283	115.37
213.502	-27.99
213.72	-7.51
213.938	80.55
214.157	33.45
214.375	0.68
214.594	21.16
214.812	88.75
215.031	-27.99
215.249	82.6
215.467	21.16
215.686	29.35
215.904	-25.94
216.122	21.16
216.341	78.51
216.559	27.31
216.778	41.64
216.996	76.46
217.214	-3.41
217.432	-13.65
217.651	2.73
217.869	41.64
218.087	47.79
218.306	21.16
218.524	58.03
218.742	-1.37
218.96	39.59
219.179	43.69
219.397	66.22
219.615	60.07
219.833	39.59
220.051	-15.7
220.27	45.74
220.488	17.07
220.706	33.45
220.924	45.74
221.142	12.97
221.36	-21.85
221.578	101.03
221.796	-9.56
222.015	62.12
222.233	35.5
222.451	-7.51
222.669	39.59
222.887	49.83
223.105	33.45
223.323	39.59
223.541	74.41
223.759	-1.37
223.977	47.79
224.195	39.59
224.413	41.64
224.631	41.64
224.849	43.69
225.067	86.7
225.285	111.27
225.503	35.5
225.721	-46.42
225.939	98.99
226.157	17.07
226.375	39.59
226.592	-36.18
226.81	76.46
227.028	23.21
227.246	62.12
227.464	76.46
227.682	31.4
227.9	96.94
228.117	-11.61
228.335	92.84
228.553	8.87
228.771	66.22
228.989	12.97
229.206	39.59
229.424	35.5
229.642	25.26
229.86	82.6
230.077	-60.76
230.295	66.22
230.513	72.36
230.731	96.94
230.948	25.26
231.166	68.27
231.384	86.7
231.601	4.78
231.819	43.69
232.037	41.64
232.254	29.35
232.472	43.69
232.689	21.16
232.907	80.55
233.125	0.68
233.342	45.74
233.56	39.59
233.777	107.18
233.995	37.55
234.213	72.36
234.43	-11.61
234.648	74.41
234.865	37.55
235.083	23.21
235.3	47.79
235.518	72.36
235.735	45.74
235.953	90.79
236.17	47.79
236.388	39.59
236.605	45.74
236.822	96.94
237.04	60.07
237.257	-9.56
237.475	4.78
237.692	64.17
237.909	10.92
238.127	66.22
238.344	51.88
238.562	68.27
238.779	74.41
238.996	2.73
239.214	0.68
239.431	-5.46
239.648	-13.65
239.865	43.69
240.083	15.02
240.3	15.02
240.517	12.97
240.735	-3.41
240.952	55.98
241.169	105.13
241.386	41.64
241.603	43.69
241.821	4.78
242.038	45.74
242.255	98.99
242.472	-79.19
242.689	-34.13
242.907	-30.04
243.124	-17.75
243.341	43.69
243.558	-30.04
243.775	51.88
243.992	45.74
244.209	19.11
244.426	27.31
244.643	51.88
244.86	21.16
245.078	-5.46
245.295	2.73
245.512	74.41
245.729	12.97
245.946	64.17
246.163	53.93
246.38	35.5
246.597	-15.7
246.814	60.07
247.031	49.83
247.248	84.65
247.464	-19.8
247.681	21.16
247.898	27.31
248.115	55.98
248.332	19.11
248.549	2.73
248.766	86.7
248.983	-7.51
249.2	-9.56
249.417	64.17
249.633	19.11
249.85	15.02
250.067	78.51
250.284	10.92
250.501	80.55
250.717	29.35
250.934	-11.61
251.151	35.5
251.368	-32.08
251.585	74.41
251.801	29.35
252.018	-13.65
252.235	53.93
252.451	0.68
252.668	55.98
252.885	10.92
253.102	4.78
253.318	37.55
253.535	-7.51
253.752	12.97
253.968	49.83
254.185	29.35
254.401	45.74
254.618	88.75
254.835	2.73
255.051	90.79
255.268	41.64
255.484	25.26
255.701	33.45
255.917	51.88
256.134	23.21
256.351	94.89
256.567	64.17
256.784	37.55
257	53.93
257.217	27.31
257.433	39.59
257.65	62.12
257.866	10.92
258.082	-27.99
258.299	10.92
258.515	45.74
258.732	-13.65
258.948	6.83
259.165	45.74
259.381	-3.41
259.597	-48.47
259.814	49.83
260.03	43.69
260.246	119.46
260.463	-23.89
260.679	80.55
260.895	2.73
261.112	-15.7
261.328	8.87
261.544	74.41
261.761	53.93
261.977	4.78
262.193	-50.52
262.409	45.74
262.626	29.35
262.842	17.07
263.058	19.11
263.274	6.83
263.49	29.35
263.707	45.74
263.923	88.75
264.139	6.83
264.355	111.27
264.571	58.03
264.787	45.74
265.004	64.17
265.22	0.68
265.436	58.03
265.652	72.36
265.868	60.07
266.084	12.97
266.3	127.66
266.516	37.55
266.732	-23.89
266.948	55.98
267.164	31.4
267.38	109.22
267.596	74.41
267.812	58.03
268.028	21.16
268.244	115.37
268.46	62.12
268.676	-9.56
268.892	27.31
269.108	33.45
269.324	60.07
269.54	10.92
269.756	39.59
269.972	-5.46
270.188	21.16
270.403	-23.89
270.619	115.37
270.835	17.07
271.051	51.88
271.267	-19.8
271.483	55.98
271.698	31.4
271.914	45.74
272.13	8.87
272.346	37.55
272.562	-9.56
272.777	29.35
272.993	27.31
273.209	84.65
273.425	47.79
273.64	35.5
273.856	105.13
274.072	64.17
274.287	2.73
274.503	47.79
274.719	131.75
274.934	2.73
275.15	72.36
275.366	29.35
275.581	21.16
275.797	37.55
276.012	96.94
276.228	62.12
276.444	33.45
276.659	60.07
276.875	58.03
277.09	49.83
277.306	64.17
277.521	19.11
277.737	0.68
277.952	88.75
278.168	103.08
278.383	27.31
278.599	17.07
278.814	-7.51
279.03	70.31
279.245	107.18
279.461	-3.41
279.676	-19.8
279.892	-34.13
280.107	-27.99
280.322	-21.85
280.538	68.27
280.753	19.11
280.969	-40.28
281.184	-1.37
281.399	66.22
281.615	78.51
281.83	6.83
282.045	51.88
282.26	0.68
282.476	90.79
282.691	35.5
282.906	-25.94
283.122	-25.94
283.337	43.69
283.552	-19.8
283.767	35.5
283.983	-13.65
284.198	41.64
284.413	92.84
284.628	-23.89
284.843	68.27
285.058	86.7
285.274	66.22
285.489	43.69
285.704	72.36
285.919	47.79
286.134	86.7
286.349	-11.61
286.564	-25.94
286.779	80.55
286.995	88.75
287.21	0.68
287.425	-1.37
287.64	27.31
287.855	4.78
288.07	45.74
288.285	92.84
288.5	8.87
288.715	117.42
288.93	8.87
289.145	55.98
289.36	64.17
289.575	-27.99
289.79	92.84
290.004	70.31
290.219	58.03
290.434	51.88
290.649	10.92
290.864	-30.04
291.079	68.27
291.294	41.64
291.509	64.17
291.724	17.07
291.938	33.45
292.153	47.79
292.368	33.45
292.583	49.83
292.798	19.11
293.012	6.83
293.227	39.59
293.442	66.22
293.657	78.51
293.871	70.31
294.086	41.64
294.301	29.35
294.516	27.31
294.73	92.84
294.945	-3.41
295.16	10.92
295.374	127.66
295.589	86.7
295.804	10.92
296.018	64.17
296.233	84.65
296.447	19.11
296.662	41.64
296.877	60.07
297.091	27.31
297.306	25.26
297.52	23.21
297.735	17.07
297.949	47.79
298.164	37.55
298.378	39.59
298.593	41.64
298.807	37.55
299.022	19.11
299.236	47.79
299.451	92.84
299.665	53.93
299.88	-3.41
300.094	-15.7
300.309	29.35
300.523	-3.41
300.737	49.83
300.952	53.93
301.166	103.08
301.381	47.79
301.595	-25.94
301.809	45.74
302.024	27.31
302.238	2.73
302.452	66.22
302.667	92.84
302.881	74.41
303.095	121.51
303.309	41.64
303.524	33.45
303.738	45.74
303.952	94.89
304.166	17.07
304.381	21.16
304.595	8.87
304.809	8.87
305.023	51.88
305.237	-13.65
305.452	60.07
305.666	21.16
305.88	86.7
306.094	62.12
306.308	-11.61
306.522	74.41
306.736	78.51
306.95	68.27
307.164	49.83
307.379	84.65
307.593	103.08
307.807	12.97
308.021	72.36
308.235	31.4
308.449	10.92
308.663	74.41
308.877	113.32
309.091	23.21
309.305	62.12
309.519	0.68
309.733	37.55
309.947	105.13
310.161	68.27
310.374	58.03
310.588	64.17
310.802	29.35
311.016	10.92
311.23	39.59
311.444	43.69
311.658	41.64
311.872	62.12
312.085	103.08
312.299	8.87
312.513	31.4
312.727	60.07
312.941	64.17
313.154	27.31
313.368	-23.89
313.582	-11.61
313.796	47.79
314.009	109.22
314.223	4.78
314.437	78.51
314.651	60.07
314.864	35.5
315.078	-5.46
315.292	68.27
315.505	41.64
315.719	27.31
315.933	10.92
316.146	37.55
316.36	6.83
316.573	47.79
316.787	15.02
317.001	43.69
317.214	27.31
317.428	0.68
317.641	-23.89
317.855	53.93
318.068	-7.51
318.282	17.07
318.495	107.18
318.709	-1.37
318.922	39.59
319.136	115.37
319.349	66.22
319.563	39.59
319.776	76.46
319.99	98.99
320.203	58.03
320.417	6.83
320.63	70.31
320.843	90.79
321.057	8.87
321.27	64.17
321.483	51.88
321.697	78.51
321.91	-46.42
322.124	62.12
322.337	58.03
322.55	53.93
322.763	17.07
322.977	84.65
323.19	4.78
323.403	-32.08
323.617	15.02
323.83	90.79
324.043	39.59
324.256	86.7
324.469	25.26
324.683	21.16
324.896	4.78
325.109	35.5
325.322	-42.32
325.535	123.56
325.748	-11.61
325.962	103.08
326.175	82.6
326.388	72.36
326.601	-42.32
326.814	35.5
327.027	70.31
327.24	103.08
327.453	-11.61
327.666	84.65
327.879	107.18
328.092	49.83
328.305	45.74
328.518	53.93
328.731	31.4
328.944	45.74
329.157	74.41
329.37	51.88
329.583	31.4
329.796	15.02
330.009	25.26
330.222	45.74
330.435	58.03
330.648	55.98
330.861	-13.65
331.073	187.05
331.286	-3.41
331.499	37.55
331.712	0.68
331.925	101.03
332.138	2.73
332.35	125.61
332.563	37.55
332.776	8.87
332.989	-5.46
333.202	58.03
333.414	23.21
333.627	74.41
333.84	6.83
334.053	98.99
334.265	-17.75
334.478	25.26
334.691	133.8
334.903	98.99
335.116	17.07
335.329	10.92
335.541	109.22
335.754	33.45
335.966	33.45
336.179	49.83
336.392	70.31
336.604	62.12
336.817	0.68
337.029	23.21
337.242	55.98
337.454	58.03
337.667	88.75
337.88	90.79
338.092	31.4
338.305	68.27
338.517	17.07
338.729	121.51
338.942	21.16
339.154	15.02
339.367	19.11
339.579	47.79
339.792	78.51
340.004	121.51
340.217	0.68
340.429	43.69
340.641	19.11
340.854	55.98
341.066	82.6
341.278	58.03
341.491	123.56
341.703	43.69
341.915	8.87
342.128	64.17
342.34	-5.46
342.552	6.83
342.764	-15.7
342.977	19.11
343.189	70.31
343.401	101.03
343.613	8.87
343.826	27.31
344.038	-7.51
344.25	62.12
344.462	111.27
344.674	86.7
344.886	12.97
345.099	29.35
345.311	-17.75
345.523	53.93
345.735	12.97
345.947	64.17
346.159	39.59
346.371	58.03
346.583	84.65
346.795	113.32
347.007	76.46
347.219	53.93
347.431	31.4
347.643	84.65
347.855	47.79
348.067	84.65
348.279	58.03
348.491	70.31
348.703	90.79
348.915	39.59
349.127	53.93
349.339	62.12
349.551	62.12
349.763	101.03
349.975	76.46
350.187	86.7
350.399	21.16
350.61	47.79
350.822	76.46
351.034	39.59
351.246	-19.8
351.458	47.79
351.669	86.7
351.881	62.12
352.093	29.35
352.305	113.32
352.517	107.18
352.728	92.84
352.94	27.31
353.152	66.22
353.363	19.11
353.575	43.69
353.787	47.79
353.999	74.41
354.21	45.74
354.422	29.35
354.633	78.51
354.845	10.92
355.057	33.45
355.268	8.87
355.48	60.07
355.692	60.07
355.903	49.83
356.115	76.46
356.326	49.83
356.538	66.22
356.749	47.79
356.961	84.65
357.172	53.93
357.384	82.6
357.595	98.99
357.807	90.79
358.018	98.99
358.23	86.7
358.441	8.87
358.653	43.69
358.864	64.17
359.075	53.93
359.287	49.83
359.498	15.02
359.709	41.64
359.921	55.98
360.132	68.27
360.344	148.14
360.555	37.55
360.766	21.16
360.977	6.83
361.189	121.51
361.4	39.59
361.611	66.22
361.823	21.16
362.034	45.74
362.245	33.45
362.456	82.6
362.667	37.55
362.879	6.83
363.09	203.43
363.301	86.7
363.512	76.46
363.723	53.93
363.935	17.07
364.146	27.31
364.357	88.75
364.568	117.42
364.779	4.78
364.99	47.79
365.201	29.35
365.412	125.61
365.623	58.03
365.834	86.7
366.045	121.51
366.256	86.7
366.467	92.84
366.678	72.36
366.889	49.83
367.1	70.31
367.311	76.46
367.522	41.64
367.733	119.46
367.944	84.65
368.155	66.22
368.366	49.83
368.577	-32.08
368.788	70.31
368.999	98.99
369.209	121.51
369.42	160.42
369.631	146.09
369.842	-54.61
370.053	72.36
370.264	117.42
370.474	15.02
370.685	58.03
370.896	39.59
371.107	137.9
371.317	-11.61
371.528	92.84
371.739	53.93
371.95	15.02
372.16	105.13
372.371	78.51
372.582	60.07
372.792	51.88
373.003	70.31
373.214	8.87
373.424	152.23
373.635	51.88
373.846	86.7
374.056	-15.7
374.267	76.46
374.477	25.26
374.688	70.31
374.898	80.55
375.109	58.03
375.319	15.02
375.53	37.55
375.74	84.65
375.951	27.31
376.161	53.93
376.372	0.68
376.582	21.16
376.793	78.51
377.003	-3.41
377.214	27.31
377.424	66.22
377.635	72.36
377.845	29.35
378.055	158.38
378.266	37.55
378.476	47.79
378.686	23.21
378.897	92.84
379.107	101.03
379.317	66.22
379.528	47.79
379.738	53.93
379.948	37.55
380.158	33.45
380.369	74.41
380.579	29.35
380.789	70.31
380.999	-7.51
381.21	92.84
381.42	55.98
381.63	76.46
381.84	141.99
382.05	66.22
382.261	49.83
382.471	137.9
382.681	39.59
382.891	76.46
383.101	37.55
383.311	55.98
383.521	144.04
383.731	66.22
383.941	33.45
384.151	31.4
384.361	94.89
384.571	58.03
384.781	6.83
384.991	129.7
385.201	76.46
385.411	2.73
385.621	86.7
385.831	90.79
386.041	92.84
386.251	17.07
386.461	135.85
386.671	84.65
386.881	29.35
387.091	53.93
387.301	137.9
387.511	117.42
387.72	84.65
387.93	80.55
388.14	60.07
388.35	84.65
388.56	72.36
388.769	129.7
388.979	60.07
389.189	109.22
389.399	62.12
389.609	115.37
389.818	96.94
390.028	129.7
390.238	133.8
390.447	78.51
390.657	76.46
390.867	76.46
391.076	76.46
391.286	109.22
391.496	111.27
391.705	84.65
391.915	109.22
392.125	33.45
392.334	74.41
392.544	172.71
392.753	105.13
392.963	109.22
393.172	111.27
393.382	41.64
393.591	119.46
393.801	86.7
394.01	121.51
394.22	96.94
394.429	82.6
394.639	109.22
394.848	109.22
395.058	92.84
395.267	131.75
395.477	162.47
395.686	107.18
395.895	123.56
396.105	174.76
396.314	146.09
396.524	129.7
396.733	144.04
396.942	174.76
397.152	144.04
397.361	150.18
397.57	117.42
397.78	107.18
397.989	127.66
398.198	168.62
398.407	125.61
398.617	141.99
398.826	103.08
399.035	135.85
399.244	154.28
399.453	158.38
399.663	90.79
399.872	144.04
400.081	164.52
400.29	217.77
400.499	160.42
400.708	105.13
400.917	150.18
401.127	193.19
401.336	135.85
401.545	189.1
401.754	174.76
401.963	88.75
402.172	215.72
402.381	121.51
402.59	103.08
402.799	174.76
403.008	146.09
403.217	121.51
403.426	174.76
403.635	141.99
403.844	127.66
404.053	199.34
404.262	129.7
404.471	203.43
404.68	187.05
404.888	117.42
405.097	139.94
405.306	199.34
405.515	309.93
405.724	127.66
405.933	266.92
406.142	117.42
406.35	299.69
406.559	293.54
406.768	256.68
406.977	340.65
407.185	264.87
407.394	213.67
407.603	264.87
407.812	326.31
408.02	326.31
408.229	303.78
408.438	297.64
408.646	246.44
408.855	287.4
409.064	389.8
409.272	311.97
409.481	381.6
409.69	369.32
409.898	387.75
410.107	412.32
410.315	481.96
410.524	438.95
410.733	367.27
410.941	467.62
411.15	469.67
411.358	494.24
411.567	551.59
411.775	479.91
411.984	572.07
412.192	635.55
412.401	645.79
412.609	623.27
412.818	694.94
413.026	750.24
413.234	651.94
413.443	740
413.651	645.79
413.86	754.34
414.068	778.91
414.276	842.4
414.485	778.91
414.693	842.4
414.901	944.8
415.11	993.95
415.318	817.82
415.526	1065.63
415.734	959.13
415.943	1051.29
416.151	1012.38
416.359	1079.96
416.567	1137.31
416.776	1153.69
416.984	1272.47
417.192	1282.71
417.4	1321.62
417.608	1270.42
417.817	1374.87
418.025	1426.07
418.233	1516.18
418.441	1507.99
418.649	1557.14
418.857	1704.59
419.065	1708.69
419.273	1753.74
419.481	1763.98
419.689	1968.78
419.897	2030.22
420.105	2054.8
420.313	2110.09
420.521	2249.35
420.729	2081.42
420.937	2308.74
421.145	2417.29
421.353	2462.34
421.561	2665.09
421.769	2691.71
421.977	2751.1
422.185	2701.95
422.393	2796.16
422.601	3121.79
422.809	3074.68
423.017	3062.4
423.224	3224.19
423.432	3207.8
423.64	3334.78
423.848	3619.44
424.056	3670.64
424.263	3830.38
424.471	3981.93
424.679	3912.3
424.887	4133.48
425.094	4149.87
425.302	4356.71
425.51	4358.76
425.718	4436.58
425.925	4612.71
426.133	4956.77
426.341	5116.51
426.548	5270.11
426.756	5261.91
426.964	5337.69
427.171	5595.73
427.379	5851.73
427.586	5888.59
427.794	6289.99
428.001	6457.93
428.209	6660.68
428.417	6466.12
428.624	7105.09
428.832	7164.48
429.039	6892.1
429.247	7039.55
429.454	7623.22
429.662	8008.24
429.869	7715.38
430.076	8274.48
430.284	7936.56
430.491	8573.48
430.699	8866.34
430.906	8690.21
431.114	9071.14
431.321	9308.7
431.528	9329.18
431.736	10025.49
431.943	10590.73
432.15	10181.14
432.358	10351.12
432.565	10916.36
432.772	11155.97
432.979	11393.53
433.187	11547.13
433.394	11770.36
433.601	12591.59
433.808	12757.48
434.016	12478.96
434.223	13097.44
434.43	13834.71
434.637	13457.89
434.844	14229.97
435.052	14827.98
435.259	14635.47
435.466	14680.52
435.673	14557.64
435.88	15780.28
436.087	16517.55
436.294	16218.55
436.501	16056.76
436.708	16394.67
436.915	16910.76
437.122	17775
437.329	17795.48
437.537	18385.3
437.743	18526.61
437.95	18379.15
438.157	19091.85
438.364	19796.35
438.571	19906.94
438.778	20291.96
438.985	21784.93
439.192	20762.99
439.399	21881.18
439.606	21592.42
439.813	22423.89
440.02	23734.59
440.227	23353.67
440.433	23126.35
440.64	23783.74
440.847	23814.46
441.054	24236.34
441.261	26042.65
441.467	25827.62
441.674	26177.82
441.881	27050.25
442.088	27265.29
442.294	26972.43
442.501	27781.38
442.708	28387.58
442.914	29174
443.121	30476.51
443.328	29751.52
443.534	31733.96
443.741	30789.84
443.948	30441.69
444.154	32645.3
444.361	32420.03
444.568	32895.16
444.774	32751.8
444.981	32938.16
445.187	34080.93
445.394	35424.4
445.6	34769.05
445.807	38238.31
446.013	36872.31
446.22	37601.39
446.426	38955.1
446.633	39163.99
446.839	40423.49
447.046	38885.47
447.252	40572.99
447.459	41015.35
447.665	40710.21
447.871	42688.54
448.078	44257.29
448.284	42496.03
448.491	43341.85
448.697	45029.37
448.903	45711.35
449.11	45551.6
449.316	44820.48
449.522	45901.81
449.728	46989.28
449.935	47470.55
450.141	47321.05
450.347	48148.43
450.553	46737.38
450.76	47552.47
450.966	48865.22
451.172	47972.3
451.378	49217.47
451.584	48347.08
451.791	49270.71
451.997	49065.92
452.203	50018.22
452.409	50147.25
452.615	49987.5
452.821	48072.65
453.027	47556.56
453.233	49854.39
453.44	48283.59
453.646	47951.82
453.852	48668.61
454.058	49647.54
454.264	47853.52
454.47	48830.4
454.676	48046.03
454.882	49512.38
455.088	45096.95
455.294	45430.77
455.5	46071.79
455.705	46839.78
455.911	44843.01
456.117	43997.2
456.323	43612.18
456.529	41099.32
456.735	43065.37
456.941	42035.24
457.147	40876.09
457.352	39845.96
457.558	39282.77
457.764	39180.37
457.97	38844.51
458.176	37562.48
458.381	37634.16
458.587	35887.24
458.793	35780.74
458.999	33931.43
459.204	36530.3
459.41	35131.54
459.616	32905.4
459.821	32907.44
460.027	32854.2
460.233	32506.04
460.438	30994.64
460.644	31146.19
460.85	29692.13
461.055	29042.93
461.261	29380.84
461.466	27056.4
461.672	26206.49
461.878	27707.65
462.083	25831.71
462.289	25717.03
462.494	25239.85
462.7	24275.26
462.905	23648.58
463.111	24310.07
463.316	24312.12
463.522	23984.44
463.727	24379.7
463.932	23722.3
464.138	23636.29
464.343	23769.41
464.549	22813.01
464.754	23943.49
464.959	23585.09
465.165	23230.79
465.37	22341.97
465.575	21764.45
465.781	22927.69
465.986	23185.74
466.191	22305.11
466.397	21690.72
466.602	20322.68
466.807	21404
467.012	21141.86
467.218	21221.73
