Data from USB4F104151__3__12-10-42-991.txt Node

Date: Fri Mar 14 12:10:42 EDT 2025
User: louis
Spectrometer: USB4F10415
Trigger mode: 4
Integration Time (sec): 5.000000E-2
Scans to average: 1
Electric dark correction enabled: true
Nonlinearity correction enabled: false
Boxcar width: 0
XAxis mode: Wavelengths
Number of Pixels in Spectrum: 3648
>>>>>Begin Spectral Data<<<<<
178.204	-217.77
178.424	-217.77
178.644	-217.77
178.864	-228.01
179.084	-187.05
179.304	-21.16
179.524	-15.02
179.744	5.46
179.964	54.61
180.184	-25.26
180.404	-4.78
180.624	21.85
180.844	5.46
181.064	-35.5
181.283	-15.02
181.503	-37.55
181.723	66.9
181.943	19.8
182.163	109.91
182.383	32.08
182.602	27.99
182.822	73.04
183.042	50.52
183.262	13.65
183.482	30.04
183.701	58.71
183.921	44.37
184.141	-2.73
184.361	126.29
184.58	38.23
184.8	71
185.02	27.99
185.239	103.76
185.459	-12.97
185.679	169.3
185.898	-19.11
186.118	122.2
186.338	40.28
186.557	165.2
186.777	-19.11
186.997	77.14
187.216	23.89
187.436	75.09
187.655	95.57
187.875	36.18
188.095	83.28
188.314	175.44
188.534	77.14
188.753	46.42
188.973	52.56
189.192	114
189.412	34.13
189.631	15.7
189.851	-33.45
190.07	111.96
190.29	38.23
190.509	9.56
190.729	27.99
190.948	128.34
191.168	202.07
191.387	101.72
191.607	60.76
191.826	66.9
192.045	27.99
192.265	56.66
192.484	21.85
192.704	3.41
192.923	21.85
193.142	120.15
193.362	56.66
193.581	25.94
193.8	103.76
194.02	128.34
194.239	32.08
194.458	101.72
194.678	-35.5
194.897	87.38
195.116	3.41
195.335	68.95
195.555	124.24
195.774	42.32
195.993	40.28
196.212	27.99
196.432	-19.11
196.651	42.32
196.87	52.56
197.089	130.39
197.308	144.72
197.528	87.38
197.747	19.8
197.966	50.52
198.185	202.07
198.404	71
198.623	105.81
198.842	13.65
199.062	118.1
199.281	97.62
199.5	54.61
199.719	48.47
199.938	42.32
200.157	73.04
200.376	109.91
200.595	83.28
200.814	79.19
201.033	-17.07
201.252	73.04
201.471	44.37
201.69	62.8
201.909	27.99
202.128	21.85
202.347	62.8
202.566	7.51
202.785	-25.26
203.004	13.65
203.223	152.91
203.442	-19.11
203.661	25.94
203.879	40.28
204.098	136.53
204.317	-17.07
204.536	97.62
204.755	99.67
204.974	66.9
205.193	68.95
205.411	157.01
205.63	-8.87
205.849	32.08
206.068	107.86
206.287	-64.17
206.505	64.85
206.724	11.61
206.943	48.47
207.162	23.89
207.381	79.19
207.599	7.51
207.818	64.85
208.037	87.38
208.255	50.52
208.474	25.94
208.693	-47.79
208.911	97.62
209.13	34.13
209.349	38.23
209.567	42.32
209.786	109.91
210.005	32.08
210.223	71
210.442	46.42
210.661	66.9
210.879	-0.68
211.098	42.32
211.316	107.86
211.535	101.72
211.753	81.24
211.972	99.67
212.191	17.75
212.409	7.51
212.628	36.18
212.846	11.61
213.065	73.04
213.283	99.67
213.502	60.76
213.72	81.24
213.938	1.37
214.157	36.18
214.375	114
214.594	50.52
214.812	25.94
215.031	52.56
215.249	68.95
215.467	32.08
215.686	48.47
215.904	144.72
216.122	17.75
216.341	132.44
216.559	38.23
216.778	79.19
216.996	52.56
217.214	42.32
217.432	-33.45
217.651	25.94
217.869	87.38
218.087	118.1
218.306	77.14
218.524	54.61
218.742	134.48
218.96	58.71
219.179	75.09
219.397	105.81
219.615	97.62
219.833	83.28
220.051	46.42
220.27	130.39
220.488	11.61
220.706	89.43
220.924	75.09
221.142	46.42
221.36	54.61
221.578	83.28
221.796	30.04
222.015	19.8
222.233	103.76
222.451	68.95
222.669	-37.55
222.887	58.71
223.105	56.66
223.323	19.8
223.541	-31.4
223.759	111.96
223.977	27.99
224.195	79.19
224.413	107.86
224.631	50.52
224.849	44.37
225.067	83.28
225.285	79.19
225.503	36.18
225.721	-4.78
225.939	23.89
226.157	81.24
226.375	271.7
226.592	3.41
226.81	109.91
227.028	40.28
227.246	136.53
227.464	-8.87
227.682	95.57
227.9	48.47
228.117	89.43
228.335	56.66
228.553	95.57
228.771	103.76
228.989	89.43
229.206	50.52
229.424	66.9
229.642	50.52
229.86	56.66
230.077	79.19
230.295	50.52
230.513	81.24
230.731	17.75
230.948	87.38
231.166	99.67
231.384	27.99
231.601	-21.16
231.819	93.52
232.037	5.46
232.254	-31.4
232.472	17.75
232.689	54.61
232.907	58.71
233.125	64.85
233.342	40.28
233.56	-39.59
233.777	21.85
233.995	46.42
234.213	64.85
234.43	79.19
234.648	93.52
234.865	-15.02
235.083	81.24
235.3	21.85
235.518	21.85
235.735	30.04
235.953	107.86
236.17	36.18
236.388	25.94
236.605	34.13
236.822	75.09
237.04	27.99
237.257	32.08
237.475	-12.97
237.692	60.76
237.909	21.85
238.127	-19.11
238.344	71
238.562	-15.02
238.779	-19.11
238.996	5.46
239.214	-2.73
239.431	101.72
239.648	36.18
239.865	27.99
240.083	87.38
240.3	-2.73
240.517	38.23
240.735	9.56
240.952	128.34
241.169	132.44
241.386	54.61
241.603	13.65
241.821	-37.55
242.038	152.91
242.255	111.96
242.472	-19.11
242.689	103.76
242.907	85.33
243.124	60.76
243.341	36.18
243.558	42.32
243.775	-35.5
243.992	3.41
244.209	-10.92
244.426	56.66
244.643	62.8
244.86	9.56
245.078	109.91
245.295	87.38
245.512	95.57
245.729	-27.31
245.946	62.8
246.163	34.13
246.38	52.56
246.597	91.48
246.814	73.04
247.031	-17.07
247.248	66.9
247.464	111.96
247.681	120.15
247.898	79.19
248.115	48.47
248.332	58.71
248.549	62.8
248.766	95.57
248.983	77.14
249.2	-2.73
249.417	97.62
249.633	25.94
249.85	68.95
250.067	9.56
250.284	56.66
250.501	52.56
250.717	89.43
250.934	-25.26
251.151	56.66
251.368	38.23
251.585	23.89
251.801	71
252.018	11.61
252.235	97.62
252.451	-49.83
252.668	-6.83
252.885	81.24
253.102	75.09
253.318	23.89
253.535	17.75
253.752	-21.16
253.968	32.08
254.185	17.75
254.401	111.96
254.618	93.52
254.835	-23.21
255.051	77.14
255.268	89.43
255.484	93.52
255.701	75.09
255.917	105.81
256.134	50.52
256.351	42.32
256.567	83.28
256.784	40.28
257	-27.31
257.217	64.85
257.433	103.76
257.65	71
257.866	21.85
258.082	3.41
258.299	7.51
258.515	19.8
258.732	68.95
258.948	60.76
259.165	44.37
259.381	5.46
259.597	60.76
259.814	25.94
260.03	-0.68
260.246	-0.68
260.463	114
260.679	62.8
260.895	77.14
261.112	68.95
261.328	-2.73
261.544	50.52
261.761	93.52
261.977	-0.68
262.193	-21.16
262.409	54.61
262.626	50.52
262.842	64.85
263.058	11.61
263.274	11.61
263.49	48.47
263.707	126.29
263.923	134.48
264.139	54.61
264.355	-12.97
264.571	95.57
264.787	85.33
265.004	85.33
265.22	32.08
265.436	62.8
265.652	83.28
265.868	152.91
266.084	-47.79
266.3	-25.26
266.516	11.61
266.732	89.43
266.948	15.7
267.164	66.9
267.38	120.15
267.596	87.38
267.812	206.16
268.028	-23.21
268.244	56.66
268.46	-10.92
268.676	15.7
268.892	81.24
269.108	-6.83
269.324	-2.73
269.54	27.99
269.756	126.29
269.972	13.65
270.188	48.47
270.403	42.32
270.619	77.14
270.835	-70.31
271.051	126.29
271.267	11.61
271.483	7.51
271.698	87.38
271.914	91.48
272.13	15.7
272.346	-6.83
272.562	30.04
272.777	73.04
272.993	-12.97
273.209	21.85
273.425	25.94
273.64	19.8
273.856	48.47
274.072	32.08
274.287	60.76
274.503	-8.87
274.719	71
274.934	-2.73
275.15	-39.59
275.366	58.71
275.581	97.62
275.797	3.41
276.012	91.48
276.228	34.13
276.444	-19.11
276.659	120.15
276.875	-25.26
277.09	114
277.306	71
277.521	71
277.737	38.23
277.952	36.18
278.168	136.53
278.383	116.05
278.599	66.9
278.814	48.47
279.03	19.8
279.245	167.25
279.461	7.51
279.676	118.1
279.892	36.18
280.107	-78.51
280.322	19.8
280.538	40.28
280.753	111.96
280.969	3.41
281.184	83.28
281.399	77.14
281.615	32.08
281.83	101.72
282.045	-49.83
282.26	32.08
282.476	32.08
282.691	9.56
282.906	128.34
283.122	62.8
283.337	-15.02
283.552	68.95
283.767	5.46
283.983	85.33
284.198	66.9
284.413	27.99
284.628	-10.92
284.843	36.18
285.058	-2.73
285.274	-19.11
285.489	15.7
285.704	27.99
285.919	19.8
286.134	27.99
286.349	95.57
286.564	-45.74
286.779	116.05
286.995	68.95
287.21	-33.45
287.425	75.09
287.64	-31.4
287.855	60.76
288.07	-37.55
288.285	146.77
288.5	40.28
288.715	75.09
288.93	15.7
289.145	85.33
289.36	75.09
289.575	7.51
289.79	99.67
290.004	60.76
290.219	103.76
290.434	34.13
290.649	-8.87
290.864	71
291.079	114
291.294	40.28
291.509	-12.97
291.724	-17.07
291.938	-10.92
292.153	130.39
292.368	-2.73
292.583	95.57
292.798	107.86
293.012	175.44
293.227	40.28
293.442	-21.16
293.657	81.24
293.871	114
294.086	15.7
294.301	120.15
294.516	87.38
294.73	40.28
294.945	71
295.16	52.56
295.374	44.37
295.589	99.67
295.804	75.09
296.018	27.99
296.233	75.09
296.447	48.47
296.662	21.85
296.877	122.2
297.091	42.32
297.306	38.23
297.52	46.42
297.735	79.19
297.949	71
298.164	21.85
298.378	-12.97
298.593	1.37
298.807	19.8
299.022	32.08
299.236	150.87
299.451	-17.07
299.665	114
299.88	32.08
300.094	40.28
300.309	52.56
300.523	54.61
300.737	52.56
300.952	54.61
301.166	9.56
301.381	-19.11
301.595	40.28
301.809	-4.78
302.024	17.75
302.238	79.19
302.452	50.52
302.667	50.52
302.881	38.23
303.095	48.47
303.309	87.38
303.524	99.67
303.738	81.24
303.952	42.32
304.166	68.95
304.381	5.46
304.595	124.24
304.809	54.61
305.023	97.62
305.237	21.85
305.452	-8.87
305.666	68.95
305.88	87.38
306.094	105.81
306.308	54.61
306.522	120.15
306.736	103.76
306.95	-10.92
307.164	126.29
307.379	56.66
307.593	64.85
307.807	77.14
308.021	52.56
308.235	44.37
308.449	-39.59
308.663	44.37
308.877	193.87
309.091	91.48
309.305	77.14
309.519	-8.87
309.733	27.99
309.947	-76.46
310.161	77.14
310.374	36.18
310.588	146.77
310.802	-33.45
311.016	32.08
311.23	32.08
311.444	91.48
311.658	-29.35
311.872	93.52
312.085	5.46
312.299	105.81
312.513	148.82
312.727	136.53
312.941	81.24
313.154	95.57
313.368	66.9
313.582	107.86
313.796	64.85
314.009	48.47
314.223	71
314.437	93.52
314.651	144.72
314.864	11.61
315.078	38.23
315.292	-21.16
315.505	-0.68
315.719	68.95
315.933	114
316.146	54.61
316.36	93.52
316.573	77.14
316.787	126.29
317.001	34.13
317.214	-68.27
317.428	23.89
317.641	30.04
317.855	38.23
318.068	85.33
318.282	71
318.495	111.96
318.709	146.77
318.922	9.56
319.136	52.56
319.349	85.33
319.563	3.41
319.776	87.38
319.99	-4.78
320.203	103.76
320.417	19.8
320.63	36.18
320.843	185.68
321.057	38.23
321.27	-10.92
321.483	75.09
321.697	101.72
321.91	-10.92
322.124	64.85
322.337	60.76
322.55	-15.02
322.763	107.86
322.977	40.28
323.19	36.18
323.403	21.85
323.617	19.8
323.83	99.67
324.043	13.65
324.256	109.91
324.469	44.37
324.683	75.09
324.896	19.8
325.109	56.66
325.322	23.89
325.535	93.52
325.748	128.34
325.962	13.65
326.175	38.23
326.388	87.38
326.601	105.81
326.814	48.47
327.027	68.95
327.24	109.91
327.453	-41.64
327.666	109.91
327.879	62.8
328.092	73.04
328.305	75.09
328.518	114
328.731	50.52
328.944	1.37
329.157	15.7
329.37	91.48
329.583	62.8
329.796	134.48
330.009	-2.73
330.222	87.38
330.435	118.1
330.648	34.13
330.861	68.95
331.073	27.99
331.286	64.85
331.499	75.09
331.712	9.56
331.925	85.33
332.138	75.09
332.35	46.42
332.563	-45.74
332.776	71
332.989	42.32
333.202	54.61
333.414	13.65
333.627	101.72
333.84	23.89
334.053	68.95
334.265	62.8
334.478	23.89
334.691	36.18
334.903	95.57
335.116	-0.68
335.329	87.38
335.541	111.96
335.754	132.44
335.966	21.85
336.179	95.57
336.392	73.04
336.604	56.66
336.817	128.34
337.029	44.37
337.242	42.32
337.454	140.63
337.667	77.14
337.88	114
338.092	-6.83
338.305	85.33
338.517	19.8
338.729	124.24
338.942	42.32
339.154	27.99
339.367	-62.12
339.579	50.52
339.792	50.52
340.004	91.48
340.217	-15.02
340.429	132.44
340.641	-29.35
340.854	99.67
341.066	66.9
341.278	146.77
341.491	150.87
341.703	21.85
341.915	13.65
342.128	50.52
342.34	165.2
342.552	11.61
342.764	34.13
342.977	77.14
343.189	77.14
343.401	83.28
343.613	62.8
343.826	60.76
344.038	-41.64
344.25	89.43
344.462	58.71
344.674	109.91
344.886	-53.93
345.099	130.39
345.311	71
345.523	54.61
345.735	-47.79
345.947	109.91
346.159	34.13
346.371	73.04
346.583	13.65
346.795	212.31
347.007	44.37
347.219	68.95
347.431	19.8
347.643	73.04
347.855	32.08
348.067	52.56
348.279	3.41
348.491	60.76
348.703	75.09
348.915	19.8
349.127	-8.87
349.339	73.04
349.551	48.47
349.763	83.28
349.975	48.47
350.187	87.38
350.399	142.68
350.61	9.56
350.822	73.04
351.034	50.52
351.246	23.89
351.458	87.38
351.669	-0.68
351.881	109.91
352.093	1.37
352.305	64.85
352.517	128.34
352.728	77.14
352.94	30.04
353.152	101.72
353.363	85.33
353.575	97.62
353.787	109.91
353.999	146.77
354.21	109.91
354.422	30.04
354.633	52.56
354.845	101.72
355.057	7.51
355.268	56.66
355.48	60.76
355.692	42.32
355.903	40.28
356.115	-23.21
356.326	-53.93
356.538	140.63
356.749	56.66
356.961	97.62
357.172	66.9
357.384	17.75
357.595	122.2
357.807	75.09
358.018	30.04
358.23	60.76
358.441	177.49
358.653	73.04
358.864	95.57
359.075	9.56
359.287	50.52
359.498	126.29
359.709	23.89
359.921	21.85
360.132	71
360.344	46.42
360.555	-6.83
360.766	120.15
360.977	1.37
361.189	83.28
361.4	-0.68
361.611	128.34
361.823	9.56
362.034	50.52
362.245	-33.45
362.456	56.66
362.667	87.38
362.879	11.61
363.09	87.38
363.301	-6.83
363.512	89.43
363.723	56.66
363.935	109.91
364.146	62.8
364.357	-6.83
364.568	48.47
364.779	17.75
364.99	38.23
365.201	60.76
365.412	105.81
365.623	30.04
365.834	73.04
366.045	15.7
366.256	109.91
366.467	46.42
366.678	56.66
366.889	44.37
367.1	13.65
367.311	93.52
367.522	7.51
367.733	124.24
367.944	93.52
368.155	101.72
368.366	54.61
368.577	146.77
368.788	107.86
368.999	-17.07
369.209	27.99
369.42	169.3
369.631	226.64
369.842	64.85
370.053	85.33
370.264	114
370.474	13.65
370.685	64.85
370.896	83.28
371.107	118.1
371.317	91.48
371.528	71
371.739	103.76
371.95	101.72
372.16	46.42
372.371	7.51
372.582	30.04
372.792	87.38
373.003	97.62
373.214	99.67
373.424	38.23
373.635	-27.31
373.846	83.28
374.056	66.9
374.267	85.33
374.477	81.24
374.688	13.65
374.898	77.14
375.109	101.72
375.319	21.85
375.53	50.52
375.74	75.09
375.951	15.7
376.161	77.14
376.372	136.53
376.582	-6.83
376.793	38.23
377.003	114
377.214	107.86
377.424	91.48
377.635	122.2
377.845	-21.16
378.055	64.85
378.266	-2.73
378.476	154.96
378.686	58.71
378.897	3.41
379.107	93.52
379.317	185.68
379.528	68.95
379.738	89.43
379.948	60.76
380.158	132.44
380.369	81.24
380.579	120.15
380.789	27.99
380.999	87.38
381.21	62.8
381.42	177.49
381.63	46.42
381.84	52.56
382.05	126.29
382.261	87.38
382.471	77.14
382.681	-6.83
382.891	142.68
383.101	66.9
383.311	23.89
383.521	118.1
383.731	154.96
383.941	36.18
384.151	114
384.361	109.91
384.571	64.85
384.781	19.8
384.991	157.01
385.201	157.01
385.411	161.11
385.621	75.09
385.831	91.48
386.041	83.28
386.251	52.56
386.461	111.96
386.671	-21.16
386.881	77.14
387.091	30.04
387.301	48.47
387.511	46.42
387.72	148.82
387.93	75.09
388.14	27.99
388.35	97.62
388.56	32.08
388.769	60.76
388.979	91.48
389.189	95.57
389.399	-19.11
389.609	177.49
389.818	140.63
390.028	7.51
390.238	89.43
390.447	68.95
390.657	128.34
390.867	60.76
391.076	7.51
391.286	52.56
391.496	68.95
391.705	50.52
391.915	116.05
392.125	114
392.334	126.29
392.544	128.34
392.753	109.91
392.963	48.47
393.172	87.38
393.382	111.96
393.591	142.68
393.801	75.09
394.01	107.86
394.22	124.24
394.429	89.43
394.639	44.37
394.848	101.72
395.058	48.47
395.267	68.95
395.477	126.29
395.686	142.68
395.895	150.87
396.105	179.54
396.314	177.49
396.524	77.14
396.733	95.57
396.942	159.06
397.152	126.29
397.361	142.68
397.57	93.52
397.78	232.79
397.989	114
398.198	183.63
398.407	95.57
398.617	71
398.826	75.09
399.035	68.95
399.244	111.96
399.453	83.28
399.663	54.61
399.872	81.24
400.081	89.43
400.29	132.44
400.499	36.18
400.708	97.62
400.917	87.38
401.127	105.81
401.336	107.86
401.545	208.21
401.754	89.43
401.963	177.49
402.172	224.59
402.381	81.24
402.59	109.91
402.799	81.24
403.008	179.54
403.217	226.64
403.426	128.34
403.635	79.19
403.844	159.06
404.053	140.63
404.262	81.24
404.471	179.54
404.68	142.68
404.888	238.93
405.097	222.55
405.306	200.02
405.515	183.63
405.724	193.87
405.933	187.73
406.142	185.68
406.35	165.2
406.559	228.69
406.768	128.34
406.977	195.92
407.185	177.49
407.394	208.21
407.603	161.11
407.812	193.87
408.02	298.32
408.229	292.18
408.438	169.3
408.646	195.92
408.855	247.12
409.064	200.02
409.272	212.31
409.481	329.04
409.69	277.84
409.898	259.41
410.107	277.84
410.315	341.33
410.524	277.84
410.733	353.62
410.941	314.7
411.15	400.72
411.358	370
411.567	380.24
411.775	378.19
411.984	408.91
412.192	378.19
412.401	482.64
412.609	499.02
412.818	523.6
413.026	507.21
413.234	523.6
413.443	521.55
413.651	464.21
413.86	609.61
414.068	656.72
414.276	634.19
414.485	603.47
414.693	636.24
414.901	634.19
415.11	623.95
415.318	714.06
415.526	742.73
415.734	828.74
415.943	736.59
416.151	738.63
416.359	707.91
416.567	810.31
416.776	849.22
416.984	949.57
417.192	845.13
417.4	988.49
417.608	877.9
417.817	927.05
418.025	1097.03
418.233	1176.9
418.441	994.63
418.649	1092.93
418.857	1137.99
419.065	1258.82
419.273	1170.76
419.481	1377.6
419.689	1373.5
419.897	1426.75
420.105	1465.66
420.313	1561.92
420.521	1508.67
420.729	1496.38
420.937	1561.92
421.145	1619.26
421.353	1682.75
421.561	1838.39
421.769	1881.4
421.977	1953.08
422.185	1936.7
422.393	2086.2
422.601	2256.18
422.809	2180.4
423.017	2047.29
423.224	2192.69
423.432	2415.92
423.64	2442.54
423.848	2665.77
424.056	2561.33
424.263	2751.79
424.471	2733.36
424.679	2665.77
424.887	2870.57
425.094	2966.82
425.302	3001.64
425.51	3081.51
425.718	3136.81
425.925	3282.21
426.133	3495.2
426.341	3577.12
426.548	3665.18
426.756	3720.48
426.964	3685.66
427.171	3888.41
427.379	4091.16
427.586	4115.73
427.794	4220.18
428.001	4459.79
428.209	4537.62
428.417	4580.62
428.624	4898.06
428.832	4924.68
429.039	4812.04
429.247	4861.2
429.454	5213.45
429.662	5713.15
429.869	5252.36
430.076	5635.33
430.284	5514.5
430.491	5838.08
430.699	6049.02
430.906	6270.2
431.114	6163.7
431.321	6329.59
431.528	6401.27
431.736	6790.38
431.943	7109.86
432.15	7060.71
432.358	7056.62
432.565	7582.95
432.772	7415.01
432.979	7769.31
433.187	7826.65
433.394	8250.58
433.601	8752.34
433.808	8467.67
434.016	8565.97
434.223	8940.75
434.43	9325.77
434.637	9340.1
434.844	9622.72
435.052	9995.45
435.259	9856.19
435.466	9886.91
435.673	9868.48
435.88	10499.25
436.087	10917.04
436.294	11076.78
436.501	10661.04
436.708	11101.36
436.915	11431.08
437.122	11975.84
437.329	11734.18
437.537	12319.9
437.743	12465.3
437.95	12389.53
438.157	13034.64
438.364	13384.84
438.571	13253.77
438.778	13407.37
438.985	14716.02
439.192	14277.76
439.399	14595.19
439.606	14351.48
439.813	15250.54
440.02	15932.51
440.227	15553.64
440.433	15543.4
440.64	15985.76
440.847	16045.15
441.054	16274.52
441.261	17544.27
441.467	17275.98
441.674	17540.17
441.881	18293.82
442.088	18228.29
442.294	17843.27
442.501	18570.3
442.708	18787.38
442.914	19455.02
443.121	20192.29
443.328	19702.82
443.534	21230.61
443.741	20216.86
443.948	20479
444.154	22049.8
444.361	22057.99
444.568	21693.45
444.774	22023.17
444.981	21904.39
445.187	23065.59
445.394	23768.04
445.6	23475.18
445.807	25637.84
446.013	24679.39
446.22	25095.13
446.426	25654.22
446.633	26483.65
446.839	27032.5
447.046	25605.07
447.252	27349.94
447.459	27362.23
447.665	27403.19
447.871	28681.12
448.078	29885.33
448.284	28449.7
448.491	29143.96
448.697	30337.93
448.903	30780.29
449.11	30798.72
449.316	30190.47
449.522	30851.97
449.728	31716.21
449.935	31597.43
450.141	31890.29
450.347	32363.37
450.553	31638.39
450.76	32238.44
450.966	33031.01
451.172	32625.51
451.378	33264.47
451.584	32676.71
451.791	33977.17
451.997	33487.7
452.203	33934.16
452.409	34132.81
452.615	34282.31
452.821	32791.39
453.027	32064.36
453.233	33952.59
453.44	32584.55
453.646	32830.3
453.852	32996.19
454.058	33497.94
454.264	32385.9
454.47	33270.62
454.676	32078.7
454.882	33616.72
455.088	30509.96
455.294	31005.56
455.5	31746.93
455.705	31531.89
455.911	30577.54
456.117	29735.82
456.323	29313.94
456.529	27802.54
456.735	29150.1
456.941	28359.59
457.147	27626.42
457.352	27143.1
457.558	26510.27
457.764	26905.53
457.97	26299.33
458.176	25789.39
458.381	25584.59
458.587	24357.86
458.793	24411.1
458.999	23167.99
459.204	24685.53
459.41	23669.74
459.616	22533.12
459.821	22436.86
460.027	22406.14
460.233	21775.37
460.438	20659.23
460.644	21015.57
460.85	20151.33
461.055	19561.51
461.261	19653.67
461.466	18322.49
461.672	17568.84
461.878	18861.11
462.083	17630.28
462.289	17062.99
462.494	16958.55
462.7	16307.29
462.905	15856.74
463.111	16546.9
463.316	16546.9
463.522	16344.16
463.727	16342.11
463.932	16032.86
464.138	15905.89
464.343	16256.09
464.549	15582.31
464.754	16149.6
464.959	15684.71
465.165	15717.48
465.37	15275.12
465.575	14707.83
465.781	15225.96
465.986	15387.75
466.191	14691.45
466.397	14642.29
466.602	13757.57
466.807	14341.24
467.012	14417.02
467.218	14355.58
