Data from USB4F104151__99__12-02-41-123.txt Node

Date: Fri Mar 14 12:02:41 EDT 2025
User: louis
Spectrometer: USB4F10415
Trigger mode: 4
Integration Time (sec): 2.000000E-2
Scans to average: 1
Electric dark correction enabled: true
Nonlinearity correction enabled: false
Boxcar width: 0
XAxis mode: Wavelengths
Number of Pixels in Spectrum: 3648
>>>>>Begin Spectral Data<<<<<
178.204	-36.01
178.424	-36.01
178.644	-36.01
178.864	-165.03
179.084	-89.26
179.304	13.14
179.524	9.05
179.744	2.9
179.964	33.62
180.184	39.76
180.404	-11.43
180.624	-66.73
180.844	-11.43
181.064	-15.53
181.283	23.38
181.503	-15.53
181.723	-1.19
181.943	15.19
182.163	84.82
182.383	-21.67
182.602	31.57
182.822	15.19
183.042	21.33
183.262	-13.48
183.482	80.72
183.701	-29.87
183.921	-29.87
184.141	-23.72
184.361	56.15
184.58	76.63
184.8	7
185.02	-9.39
185.239	68.44
185.459	-13.48
185.679	90.96
185.898	-9.39
186.118	27.48
186.338	-33.96
186.557	19.29
186.777	105.3
186.997	19.29
187.216	15.19
187.436	101.2
187.655	-15.53
187.875	52.05
188.095	-64.68
188.314	-38.06
188.534	-1.19
188.753	-15.53
188.973	-19.63
189.192	74.58
189.412	86.87
189.631	43.86
189.851	15.19
190.07	-31.91
190.29	-15.53
190.509	27.48
190.729	2.9
190.948	66.39
191.168	133.97
191.387	95.06
191.607	93.01
191.826	52.05
192.045	-54.44
192.265	-23.72
192.484	-1.19
192.704	39.76
192.923	4.95
193.142	47.96
193.362	56.15
193.581	133.97
193.8	60.24
194.02	52.05
194.239	-89.26
194.458	35.67
194.678	-23.72
194.897	19.29
195.116	-7.34
195.335	52.05
195.555	-9.39
195.774	54.1
195.993	43.86
196.212	37.72
196.432	11.09
196.651	-44.2
196.87	-68.78
197.089	117.59
197.308	19.29
197.528	29.52
197.747	37.72
197.966	54.1
198.185	66.39
198.404	37.72
198.623	82.77
198.842	58.2
199.062	50
199.281	54.1
199.5	0.85
199.719	-23.72
199.938	-36.01
200.157	15.19
200.376	-11.43
200.595	41.81
200.814	41.81
201.033	27.48
201.252	29.52
201.471	43.86
201.69	86.87
201.909	-17.58
202.128	-42.15
202.347	50
202.566	41.81
202.785	33.62
203.004	43.86
203.223	82.77
203.442	58.2
203.661	-9.39
203.879	-38.06
204.098	78.68
204.317	17.24
204.536	80.72
204.755	138.07
204.974	23.38
205.193	45.91
205.411	97.11
205.63	0.85
205.849	-11.43
206.068	11.09
206.287	45.91
206.505	50
206.724	37.72
206.943	66.39
207.162	25.43
207.381	29.52
207.599	66.39
207.818	4.95
208.037	35.67
208.255	-38.06
208.474	-17.58
208.693	23.38
208.911	-15.53
209.13	-3.24
209.349	80.72
209.567	-3.24
209.786	90.96
210.005	41.81
210.223	35.67
210.442	0.85
210.661	-3.24
210.879	21.33
211.098	33.62
211.316	2.9
211.535	62.29
211.753	-38.06
211.972	86.87
212.191	-29.87
212.409	41.81
212.628	-33.96
212.846	43.86
213.065	-7.34
213.283	45.91
213.502	-19.63
213.72	33.62
213.938	43.86
214.157	58.2
214.375	31.57
214.594	25.43
214.812	11.09
215.031	80.72
215.249	-21.67
215.467	35.67
215.686	54.1
215.904	50
216.122	23.38
216.341	70.48
216.559	35.67
216.778	90.96
216.996	68.44
217.214	29.52
217.432	0.85
217.651	21.33
217.869	31.57
218.087	19.29
218.306	13.14
218.524	52.05
218.742	-33.96
218.96	105.3
219.179	-25.77
219.397	35.67
219.615	90.96
219.833	21.33
220.051	-17.58
220.27	64.34
220.488	17.24
220.706	41.81
220.924	43.86
221.142	9.05
221.36	-1.19
221.578	-27.82
221.796	21.33
222.015	66.39
222.233	4.95
222.451	88.92
222.669	-27.82
222.887	56.15
223.105	54.1
223.323	64.34
223.541	52.05
223.759	90.96
223.977	33.62
224.195	-1.19
224.413	43.86
224.631	56.15
224.849	88.92
225.067	93.01
225.285	74.58
225.503	35.67
225.721	29.52
225.939	95.06
226.157	39.76
226.375	90.96
226.592	2.9
226.81	9.05
227.028	17.24
227.246	47.96
227.464	43.86
227.682	21.33
227.9	76.63
228.117	105.3
228.335	13.14
228.553	70.48
228.771	-79.02
228.989	9.05
229.206	2.9
229.424	15.19
229.642	-5.29
229.86	86.87
230.077	70.48
230.295	17.24
230.513	15.19
230.731	129.88
230.948	31.57
231.166	76.63
231.384	-19.63
231.601	27.48
231.819	-31.91
232.037	27.48
232.254	68.44
232.472	72.53
232.689	41.81
232.907	54.1
233.125	29.52
233.342	-23.72
233.56	62.29
233.777	-23.72
233.995	-33.96
234.213	27.48
234.43	17.24
234.648	37.72
234.865	21.33
235.083	21.33
235.3	-31.91
235.518	9.05
235.735	80.72
235.953	31.57
236.17	52.05
236.388	90.96
236.605	-48.3
236.822	43.86
237.04	11.09
237.257	19.29
237.475	13.14
237.692	17.24
237.909	-19.63
238.127	17.24
238.344	76.63
238.562	86.87
238.779	47.96
238.996	2.9
239.214	7
239.431	150.36
239.648	-5.29
239.865	33.62
240.083	39.76
240.3	52.05
240.517	-36.01
240.735	-5.29
240.952	31.57
241.169	99.16
241.386	-23.72
241.603	84.82
241.821	-23.72
242.038	74.58
242.255	47.96
242.472	-19.63
242.689	99.16
242.907	-13.48
243.124	-13.48
243.341	39.76
243.558	84.82
243.775	35.67
243.992	43.86
244.209	-50.35
244.426	76.63
244.643	101.2
244.86	-11.43
245.078	23.38
245.295	136.02
245.512	-33.96
245.729	50
245.946	45.91
246.163	-58.54
246.38	15.19
246.597	25.43
246.814	23.38
247.031	4.95
247.248	17.24
247.464	66.39
247.681	66.39
247.898	45.91
248.115	70.48
248.332	47.96
248.549	-3.24
248.766	52.05
248.983	2.9
249.2	-36.01
249.417	39.76
249.633	13.14
249.85	41.81
250.067	23.38
250.284	41.81
250.501	52.05
250.717	52.05
250.934	37.72
251.151	33.62
251.368	-42.15
251.585	17.24
251.801	58.2
252.018	-31.91
252.235	76.63
252.451	54.1
252.668	-33.96
252.885	90.96
253.102	103.25
253.318	17.24
253.535	41.81
253.752	-17.58
253.968	68.44
254.185	-40.11
254.401	37.72
254.618	111.44
254.835	29.52
255.051	64.34
255.268	7
255.484	105.3
255.701	62.29
255.917	105.3
256.134	-23.72
256.351	37.72
256.567	43.86
256.784	27.48
257	-5.29
257.217	41.81
257.433	58.2
257.65	23.38
257.866	37.72
258.082	39.76
258.299	31.57
258.515	58.2
258.732	50
258.948	64.34
259.165	47.96
259.381	-19.63
259.597	47.96
259.814	29.52
260.03	107.35
260.246	31.57
260.463	-21.67
260.679	74.58
260.895	-3.24
261.112	58.2
261.328	11.09
261.544	-44.2
261.761	66.39
261.977	68.44
262.193	-27.82
262.409	76.63
262.626	45.91
262.842	25.43
263.058	-7.34
263.274	9.05
263.49	11.09
263.707	45.91
263.923	7
264.139	41.81
264.355	27.48
264.571	17.24
264.787	-38.06
265.004	72.53
265.22	64.34
265.436	56.15
265.652	-13.48
265.868	27.48
266.084	-46.25
266.3	70.48
266.516	-36.01
266.732	31.57
266.948	-38.06
267.164	58.2
267.38	37.72
267.596	56.15
267.812	33.62
268.028	-48.3
268.244	19.29
268.46	56.15
268.676	0.85
268.892	25.43
269.108	-9.39
269.324	45.91
269.54	17.24
269.756	86.87
269.972	-25.77
270.188	15.19
270.403	70.48
270.619	2.9
270.835	37.72
271.051	19.29
271.267	43.86
271.483	-25.77
271.698	-62.63
271.914	33.62
272.13	60.24
272.346	11.09
272.562	43.86
272.777	105.3
272.993	72.53
273.209	70.48
273.425	13.14
273.64	-44.2
273.856	27.48
274.072	52.05
274.287	17.24
274.503	25.43
274.719	60.24
274.934	23.38
275.15	78.68
275.366	41.81
275.581	29.52
275.797	-9.39
276.012	43.86
276.228	33.62
276.444	-9.39
276.659	41.81
276.875	31.57
277.09	47.96
277.306	45.91
277.521	41.81
277.737	-40.11
277.952	50
278.168	78.68
278.383	-11.43
278.599	39.76
278.814	80.72
279.03	74.58
279.245	-7.34
279.461	99.16
279.676	43.86
279.892	17.24
280.107	72.53
280.322	19.29
280.538	31.57
280.753	9.05
280.969	-17.58
281.184	7
281.399	17.24
281.615	43.86
281.83	66.39
282.045	84.82
282.26	41.81
282.476	23.38
282.691	56.15
282.906	56.15
283.122	93.01
283.337	56.15
283.552	17.24
283.767	-3.24
283.983	50
284.198	-29.87
284.413	21.33
284.628	-1.19
284.843	119.64
285.058	0.85
285.274	52.05
285.489	-33.96
285.704	101.2
285.919	80.72
286.134	39.76
286.349	-7.34
286.564	47.96
286.779	50
286.995	13.14
287.21	4.95
287.425	29.52
287.64	35.67
287.855	52.05
288.07	2.9
288.285	-5.29
288.5	4.95
288.715	11.09
288.93	-21.67
289.145	21.33
289.36	52.05
289.575	-23.72
289.79	37.72
290.004	29.52
290.219	2.9
290.434	41.81
290.649	25.43
290.864	19.29
291.079	15.19
291.294	117.59
291.509	39.76
291.724	39.76
291.938	7
292.153	39.76
292.368	23.38
292.583	66.39
292.798	21.33
293.012	31.57
293.227	86.87
293.442	17.24
293.657	0.85
293.871	60.24
294.086	56.15
294.301	58.2
294.516	52.05
294.73	50
294.945	-7.34
295.16	21.33
295.374	11.09
295.589	68.44
295.804	37.72
296.018	27.48
296.233	11.09
296.447	72.53
296.662	-1.19
296.877	62.29
297.091	43.86
297.306	37.72
297.52	21.33
297.735	101.2
297.949	21.33
298.164	-21.67
298.378	45.91
298.593	58.2
298.807	43.86
299.022	37.72
299.236	4.95
299.451	27.48
299.665	-58.54
299.88	13.14
300.094	7
300.309	-42.15
300.523	68.44
300.737	19.29
300.952	45.91
301.166	88.92
301.381	50
301.595	88.92
301.809	-7.34
302.024	47.96
302.238	-7.34
302.452	80.72
302.667	2.9
302.881	27.48
303.095	15.19
303.309	-48.3
303.524	9.05
303.738	25.43
303.952	27.48
304.166	25.43
304.381	-42.15
304.595	-3.24
304.809	-7.34
305.023	37.72
305.237	17.24
305.452	13.14
305.666	117.59
305.88	33.62
306.094	86.87
306.308	78.68
306.522	4.95
306.736	78.68
306.95	-3.24
307.164	13.14
307.379	-29.87
307.593	41.81
307.807	37.72
308.021	7
308.235	76.63
308.449	15.19
308.663	4.95
308.877	45.91
309.091	93.01
309.305	140.12
309.519	64.34
309.733	27.48
309.947	-52.39
310.161	11.09
310.374	68.44
310.588	78.68
310.802	11.09
311.016	86.87
311.23	19.29
311.444	25.43
311.658	39.76
311.872	4.95
312.085	60.24
312.299	58.2
312.513	144.21
312.727	7
312.941	29.52
313.154	62.29
313.368	-52.39
313.582	146.26
313.796	-33.96
314.009	58.2
314.223	27.48
314.437	29.52
314.651	15.19
314.864	60.24
315.078	-17.58
315.292	25.43
315.505	68.44
315.719	64.34
315.933	21.33
316.146	-66.73
316.36	-66.73
316.573	23.38
316.787	47.96
317.001	-23.72
317.214	109.4
317.428	117.59
317.641	-58.54
317.855	39.76
318.068	29.52
318.282	138.07
318.495	62.29
318.709	25.43
318.922	17.24
319.136	105.3
319.349	115.54
319.563	35.67
319.776	21.33
319.99	-9.39
320.203	-36.01
320.417	19.29
320.63	50
320.843	-7.34
321.057	45.91
321.27	82.77
321.483	74.58
321.697	64.34
321.91	60.24
322.124	103.25
322.337	47.96
322.55	82.77
322.763	50
322.977	95.06
323.19	27.48
323.403	50
323.617	-1.19
323.83	78.68
324.043	9.05
324.256	21.33
324.469	2.9
324.683	17.24
324.896	95.06
325.109	9.05
325.322	4.95
325.535	2.9
325.748	-29.87
325.962	-3.24
326.175	70.48
326.388	-7.34
326.601	-25.77
326.814	33.62
327.027	64.34
327.24	60.24
327.453	33.62
327.666	41.81
327.879	76.63
328.092	107.35
328.305	25.43
328.518	97.11
328.731	-60.59
328.944	-9.39
329.157	33.62
329.37	-27.82
329.583	17.24
329.796	66.39
330.009	39.76
330.222	74.58
330.435	15.19
330.648	93.01
330.861	29.52
331.073	54.1
331.286	31.57
331.499	103.25
331.712	-56.49
331.925	58.2
332.138	4.95
332.35	47.96
332.563	27.48
332.776	25.43
332.989	33.62
333.202	11.09
333.414	17.24
333.627	-29.87
333.84	60.24
334.053	88.92
334.265	84.82
334.478	-7.34
334.691	-29.87
334.903	7
335.116	-66.73
335.329	17.24
335.541	74.58
335.754	43.86
335.966	0.85
336.179	95.06
336.392	21.33
336.604	58.2
336.817	39.76
337.029	66.39
337.242	56.15
337.454	43.86
337.667	-15.53
337.88	82.77
338.092	80.72
338.305	78.68
338.517	39.76
338.729	0.85
338.942	72.53
339.154	-60.59
339.367	-50.35
339.579	31.57
339.792	68.44
340.004	39.76
340.217	4.95
340.429	47.96
340.641	-40.11
340.854	84.82
341.066	-11.43
341.278	41.81
341.491	31.57
341.703	31.57
341.915	78.68
342.128	-9.39
342.34	76.63
342.552	21.33
342.764	-21.67
342.977	25.43
343.189	4.95
343.401	52.05
343.613	-11.43
343.826	33.62
344.038	33.62
344.25	-17.58
344.462	-7.34
344.674	35.67
344.886	58.2
345.099	60.24
345.311	50
345.523	95.06
345.735	54.1
345.947	4.95
346.159	52.05
346.371	64.34
346.583	-21.67
346.795	76.63
347.007	33.62
347.219	-5.29
347.431	27.48
347.643	76.63
347.855	15.19
348.067	84.82
348.279	17.24
348.491	13.14
348.703	-9.39
348.915	37.72
349.127	21.33
349.339	15.19
349.551	29.52
349.763	78.68
349.975	33.62
350.187	82.77
350.399	103.25
350.61	105.3
350.822	50
351.034	41.81
351.246	43.86
351.458	117.59
351.669	58.2
351.881	-27.82
352.093	39.76
352.305	66.39
352.517	56.15
352.728	68.44
352.94	37.72
353.152	86.87
353.363	-3.24
353.575	88.92
353.787	-54.44
353.999	17.24
354.21	19.29
354.422	-7.34
354.633	35.67
354.845	93.01
355.057	72.53
355.268	39.76
355.48	4.95
355.692	66.39
355.903	-25.77
356.115	45.91
356.326	64.34
356.538	29.52
356.749	58.2
356.961	121.68
357.172	35.67
357.384	50
357.595	76.63
357.807	88.92
358.018	-25.77
358.23	50
358.441	127.83
358.653	25.43
358.864	-13.48
359.075	9.05
359.287	74.58
359.498	107.35
359.709	0.85
359.921	43.86
360.132	-9.39
360.344	105.3
360.555	86.87
360.766	25.43
360.977	-13.48
361.189	45.91
361.4	50
361.611	66.39
361.823	88.92
362.034	82.77
362.245	50
362.456	13.14
362.667	23.38
362.879	37.72
363.09	64.34
363.301	-29.87
363.512	31.57
363.723	35.67
363.935	4.95
364.146	35.67
364.357	37.72
364.568	76.63
364.779	23.38
364.99	131.92
365.201	88.92
365.412	90.96
365.623	41.81
365.834	45.91
366.045	41.81
366.256	97.11
366.467	62.29
366.678	-3.24
366.889	97.11
367.1	27.48
367.311	54.1
367.522	41.81
367.733	13.14
367.944	58.2
368.155	60.24
368.366	84.82
368.577	68.44
368.788	33.62
368.999	37.72
369.209	76.63
369.42	70.48
369.631	27.48
369.842	39.76
370.053	29.52
370.264	146.26
370.474	64.34
370.685	41.81
370.896	47.96
371.107	29.52
371.317	9.05
371.528	31.57
371.739	95.06
371.95	64.34
372.16	88.92
372.371	37.72
372.582	156.5
372.792	2.9
373.003	119.64
373.214	0.85
373.424	111.44
373.635	25.43
373.846	64.34
374.056	45.91
374.267	17.24
374.477	33.62
374.688	37.72
374.898	27.48
375.109	78.68
375.319	29.52
375.53	80.72
375.74	50
375.951	70.48
376.161	-5.29
376.372	74.58
376.582	93.01
376.793	52.05
377.003	45.91
377.214	37.72
377.424	13.14
377.635	29.52
377.845	27.48
378.055	123.73
378.266	9.05
378.476	58.2
378.686	23.38
378.897	76.63
379.107	50
379.317	70.48
379.528	17.24
379.738	56.15
379.948	54.1
380.158	68.44
380.369	80.72
380.579	101.2
380.789	58.2
380.999	115.54
381.21	52.05
381.42	86.87
381.63	17.24
381.84	68.44
382.05	76.63
382.261	66.39
382.471	64.34
382.681	74.58
382.891	58.2
383.101	9.05
383.311	47.96
383.521	52.05
383.731	70.48
383.941	-31.91
384.151	105.3
384.361	7
384.571	11.09
384.781	131.92
384.991	52.05
385.201	35.67
385.411	21.33
385.621	35.67
385.831	25.43
386.041	66.39
386.251	33.62
386.461	31.57
386.671	76.63
386.881	62.29
387.091	50
387.301	25.43
387.511	80.72
387.72	45.91
387.93	111.44
388.14	56.15
388.35	115.54
388.56	101.2
388.769	76.63
388.979	37.72
389.189	95.06
389.399	17.24
389.609	-17.58
389.818	127.83
390.028	-11.43
390.238	105.3
390.447	86.87
390.657	117.59
390.867	140.12
391.076	58.2
391.286	144.21
391.496	74.58
391.705	43.86
391.915	148.31
392.125	35.67
392.334	-1.19
392.544	109.4
392.753	144.21
392.963	0.85
393.172	68.44
393.382	99.16
393.591	103.25
393.801	72.53
394.01	86.87
394.22	103.25
394.429	43.86
394.639	64.34
394.848	33.62
395.058	64.34
395.267	123.73
395.477	25.43
395.686	97.11
395.895	158.55
396.105	121.68
396.314	76.63
396.524	74.58
396.733	68.44
396.942	127.83
397.152	60.24
397.361	80.72
397.57	39.76
397.78	105.3
397.989	131.92
398.198	170.83
398.407	11.09
398.617	82.77
398.826	142.16
399.035	66.39
399.244	107.35
399.453	103.25
399.663	136.02
399.872	52.05
400.081	131.92
400.29	101.2
400.499	64.34
400.708	60.24
400.917	107.35
401.127	160.59
401.336	72.53
401.545	64.34
401.754	150.36
401.963	140.12
402.172	121.68
402.381	109.4
402.59	117.59
402.799	109.4
403.008	74.58
403.217	121.68
403.426	199.51
403.635	148.31
403.844	129.88
404.053	97.11
404.262	105.3
404.471	152.4
404.68	179.03
404.888	150.36
405.097	129.88
405.306	156.5
405.515	160.59
405.724	142.16
405.933	189.27
406.142	164.69
406.35	203.6
406.559	197.46
406.768	172.88
406.977	234.32
407.185	211.79
407.394	197.46
407.603	117.59
407.812	236.37
408.02	195.41
408.229	279.38
408.438	195.41
408.646	215.89
408.855	219.99
409.064	215.89
409.272	156.5
409.481	248.66
409.69	250.71
409.898	275.28
410.107	265.04
410.315	219.99
410.524	258.9
410.733	209.75
410.941	271.19
411.15	316.24
411.358	342.86
411.567	402.26
411.775	367.44
411.984	404.3
412.192	394.06
412.401	312.14
412.609	447.31
412.818	457.55
413.026	521.04
413.234	459.6
413.443	504.65
413.651	539.47
413.86	482.13
414.068	562
414.276	617.29
414.485	484.17
414.693	609.1
414.901	697.16
415.11	537.42
415.318	637.77
415.526	693.07
415.734	756.55
415.943	713.55
416.151	709.45
416.359	652.11
416.567	774.99
416.776	873.29
416.984	924.49
417.192	975.69
417.4	965.45
417.608	901.96
417.817	904.01
418.025	1030.98
418.233	1020.74
418.441	1102.66
418.649	1135.43
418.857	1076.04
419.065	1194.82
419.273	1157.96
419.481	1276.74
419.689	1381.18
419.897	1428.29
420.105	1452.86
420.313	1506.11
420.521	1485.63
420.729	1573.69
420.937	1561.41
421.145	1610.56
421.353	1661.76
421.561	1721.15
421.769	1741.63
421.977	1753.91
422.185	1934.14
422.393	1942.33
422.601	2190.13
422.809	2093.88
423.017	2181.94
423.224	2224.95
423.432	2358.07
423.64	2259.76
423.848	2503.47
424.056	2560.81
424.263	2652.97
424.471	2661.16
424.679	2829.1
424.887	2831.15
425.094	2870.06
425.302	2923.3
425.51	3078.95
425.718	3281.7
425.925	3148.58
426.133	3279.65
426.341	3386.15
426.548	3547.94
426.756	3590.94
426.964	3638.05
427.171	3894.04
427.379	3984.15
427.586	4016.92
427.794	4154.13
428.001	4350.74
428.209	4483.86
428.417	4621.07
428.624	4842.25
428.832	4805.39
429.039	4811.53
429.247	4750.09
429.454	5280.52
429.662	5532.42
429.869	5096.2
430.076	5655.3
430.284	5636.86
430.491	5749.5
430.699	6159.1
430.906	5774.08
431.114	6038.27
431.321	6384.37
431.528	6501.11
431.736	6771.44
431.943	6931.18
432.15	7015.15
432.358	7166.7
432.565	7310.05
432.772	7353.06
432.979	7791.33
433.187	8004.32
433.394	7820
433.601	8395.48
433.808	8567.51
434.016	8590.03
434.223	8733.39
434.43	9429.7
434.637	9317.06
434.844	9847.49
435.052	9804.48
435.259	9827.01
435.466	9951.93
435.673	9812.67
435.88	10586.8
436.087	10967.73
436.294	10965.68
436.501	10613.43
436.708	10975.92
436.915	11401.9
437.122	11938.46
437.329	11850.4
437.537	12157.6
437.743	12556.95
437.95	12337.82
438.157	13001.36
438.364	13486.73
438.571	13517.45
438.778	13527.69
438.985	14912.11
439.192	13988.48
439.399	14523
439.606	14350.97
439.813	14977.65
440.02	15911.52
440.227	15635.05
440.433	15252.08
440.64	15983.2
440.847	15735.4
441.054	16171.61
441.261	17435.21
441.467	17171.02
441.674	17640.01
441.881	18453.05
442.088	18135.62
442.294	17715.78
442.501	18285.12
442.708	18631.23
442.914	19661.35
443.121	20494.88
443.328	19808.81
443.534	21258.77
443.741	20548.12
443.948	20255.26
444.154	22016.52
444.361	21856.78
444.568	22026.76
444.774	21985.8
444.981	22166.02
445.187	22942.2
445.394	23890.41
445.6	23513.58
445.807	25690.57
446.013	24482.27
446.22	25076.18
446.426	26106.31
446.633	26132.93
446.839	27101.62
447.046	25874.89
447.252	27163.06
447.459	27107.77
447.665	27404.72
447.871	28477.86
448.078	29987.21
448.284	28344.74
448.491	28826.01
448.697	30341.51
448.903	31109.5
449.11	31125.88
449.316	30210.44
449.522	31066.49
449.728	32045.42
449.935	31959.41
450.141	31719.79
450.347	32876.9
450.553	31601.01
450.76	32039.28
450.966	33440.09
451.172	32487.78
451.378	33747.28
451.584	33005.92
451.791	33311.07
451.997	33775.95
452.203	33902.93
452.409	34066.77
452.615	33767.76
452.821	32545.12
453.027	32428.39
453.233	33694.04
453.44	32465.25
453.646	33073.5
453.852	33005.92
454.058	33497.43
454.264	32227.69
454.47	33249.63
454.676	32516.45
454.882	33282.39
455.088	30757.25
455.294	30919.04
455.5	31570.29
455.705	31822.19
455.911	30630.27
456.117	30001.55
456.323	29682.06
456.529	27937.2
456.735	29180.31
456.941	28596.64
457.147	28086.7
457.352	27314.61
457.558	26708.41
457.764	26950.07
457.97	26239.43
458.176	25905.61
458.381	25983.43
458.587	24230.37
458.793	24728.03
458.999	23169.52
459.204	24517.09
459.41	24117.73
459.616	22413.82
459.821	22290.95
460.027	22430.21
460.233	21996.04
460.438	20892.18
460.644	20972.05
460.85	20300.32
461.055	19917.35
461.261	19886.63
461.466	18309.69
461.672	17762.89
461.878	18868.79
462.083	17877.57
462.289	17312.33
462.494	17474.12
462.7	16628.31
462.905	16028.26
463.111	16513.63
463.316	16757.33
463.522	16409.18
463.727	16112.22
463.932	16257.63
464.138	16188
464.343	16118.37
464.549	15538.79
464.754	16519.77
464.959	16114.27
465.165	15909.47
465.37	15342.19
465.575	14881.39
465.781	15532.65
465.986	15620.71
466.191	15102.57
466.397	14858.87
466.602	13884.03
466.807	14613.11
467.012	14535.29
467.218	14400.12
467.423	14518.9
467.628	14469.75
467.833	14887.54
468.038	14469.75
468.244	14187.13
468.449	14754.42
468.654	13933.18
