Data from USB4F104151__20__12-15-11-721.txt Node

Date: Wed Feb 19 12:15:11 EST 2025
User: louis
Spectrometer: USB4F10415
Trigger mode: 4
Integration Time (sec): 2.250200E-1
Scans to average: 1
Electric dark correction enabled: true
Nonlinearity correction enabled: false
Boxcar width: 0
XAxis mode: Wavelengths
Number of Pixels in Spectrum: 3648
>>>>>Begin Spectral Data<<<<<
178.204	-787.96
178.424	-787.96
178.644	-787.96
178.864	-800.24
179.084	-865.78
179.304	117.25
179.524	117.25
179.744	-26.11
179.964	-253.44
180.184	231.93
180.404	182.78
180.624	-173.57
180.844	-97.79
181.064	-7.68
181.283	219.64
181.503	-198.14
181.723	-112.13
181.943	-71.17
182.163	406.01
182.383	-224.76
182.602	-208.38
182.822	360.95
183.042	188.93
183.262	-185.85
183.482	-101.89
183.701	279.04
183.921	233.98
184.141	-171.52
184.361	-151.04
184.58	315.9
184.8	258.56
185.02	-271.87
185.239	-142.85
185.459	274.94
185.679	406.01
185.898	-245.24
186.118	-226.81
186.338	252.41
186.557	352.76
186.777	-204.28
186.997	-124.41
187.216	260.6
187.436	489.98
187.655	-67.07
187.875	-50.69
188.095	227.84
188.314	389.63
188.534	-30.21
188.753	-237.05
188.973	401.91
189.192	520.7
189.412	-253.44
189.631	-224.76
189.851	309.76
190.07	473.59
190.29	-228.86
190.509	-290.3
190.729	154.11
190.948	430.59
191.168	-22.02
191.387	-181.76
191.607	164.35
191.826	246.27
192.045	-48.64
192.265	-194.05
192.484	348.67
192.704	246.27
192.923	-214.52
193.142	-24.06
193.362	311.8
193.581	303.61
193.8	-52.74
194.02	-69.12
194.239	274.94
194.458	324.09
194.678	-79.36
194.897	-183.81
195.116	342.52
195.335	299.52
195.555	-183.81
195.774	-278.01
195.993	344.57
196.212	236.03
196.432	-93.69
196.651	-204.28
196.87	209.4
197.089	553.46
197.308	-189.95
197.528	-112.13
197.747	104.96
197.966	203.26
198.185	-34.3
198.404	-239.1
198.623	256.51
198.842	356.86
199.062	-161.28
199.281	-110.08
199.5	244.22
199.719	291.32
199.938	-194.05
200.157	-142.85
200.376	340.47
200.595	453.11
200.814	-134.65
201.033	-189.95
201.252	461.3
201.471	254.46
201.69	-185.85
201.909	-202.24
202.128	281.08
202.347	301.56
202.566	-132.61
202.785	-265.72
203.004	125.44
203.223	498.17
203.442	-208.38
203.661	-222.72
203.879	348.67
204.098	373.24
204.317	-275.96
204.536	6.66
204.755	373.24
204.974	272.89
205.193	-273.92
205.411	-140.8
205.63	324.09
205.849	326.14
206.068	-159.23
206.287	-318.97
206.505	395.77
206.724	178.69
206.943	-239.1
207.162	-151.04
207.381	250.36
207.599	197.12
207.818	-124.41
208.037	-271.87
208.255	145.92
208.474	252.41
208.693	-124.41
208.911	-175.61
209.13	379.39
209.349	293.37
209.567	-32.26
209.786	-44.54
210.005	291.32
210.223	98.81
210.442	-329.21
210.661	-269.82
210.879	330.23
211.098	152.06
211.316	-120.32
211.535	-77.31
211.753	272.89
211.972	283.13
212.191	-212.48
212.409	-173.57
212.628	406.01
212.846	107.01
213.065	-343.55
213.283	-128.51
213.502	225.79
213.72	305.66
213.938	-198.14
214.157	-163.33
214.375	334.33
214.594	131.58
214.812	-77.31
215.031	-239.1
215.249	205.31
215.467	252.41
215.686	-38.4
215.904	-206.33
216.122	203.26
216.341	367.1
216.559	-22.02
216.778	-36.35
216.996	465.4
217.214	80.38
217.432	-122.37
217.651	-300.54
217.869	250.36
218.087	211.45
218.306	-212.48
218.524	-187.9
218.742	223.74
218.96	377.34
219.179	-173.57
219.397	-224.76
219.615	455.16
219.833	283.13
220.051	-282.11
220.27	-108.03
220.488	360.95
220.706	233.98
220.924	-228.86
221.142	-138.75
221.36	356.86
221.578	274.94
221.796	-175.61
222.015	-108.03
222.233	225.79
222.451	385.53
222.669	-114.17
222.887	-65.02
223.105	147.97
223.323	147.97
223.541	-124.41
223.759	-114.17
223.977	145.92
224.195	426.49
224.413	-112.13
224.631	-159.23
224.849	227.84
225.067	451.07
225.285	-65.02
225.503	-189.95
225.721	-26.11
225.939	258.56
226.157	-67.07
226.375	113.15
226.592	98.81
226.81	152.06
227.028	-38.4
227.246	-144.89
227.464	213.5
227.682	315.9
227.9	-171.52
228.117	-81.41
228.335	295.42
228.553	174.59
228.771	-194.05
228.989	-151.04
229.206	266.75
229.424	111.1
229.642	-202.24
229.86	-173.57
230.077	363
230.295	262.65
230.513	-28.16
230.731	-140.8
230.948	442.87
231.166	383.48
231.384	-101.89
231.601	-165.37
231.819	451.07
232.037	84.48
232.254	-124.41
232.472	-101.89
232.689	229.88
232.907	344.57
233.125	-214.52
233.342	-183.81
233.56	147.97
233.777	170.49
233.995	-171.52
234.213	-118.27
234.43	301.56
234.648	94.72
234.865	-167.42
235.083	-103.93
235.3	225.79
235.518	250.36
235.735	-108.03
235.953	-122.37
236.17	197.12
236.388	107.01
236.605	-1.54
236.822	-136.7
237.04	311.8
237.257	213.5
237.475	-204.28
237.692	-116.22
237.909	301.56
238.127	238.08
238.344	-87.55
238.562	-89.6
238.779	82.43
238.996	-15.87
239.214	-62.98
239.431	-110.08
239.648	147.97
239.865	268.8
240.083	-142.85
240.3	-241.15
240.517	160.25
240.735	160.25
240.952	45.57
241.169	-298.49
241.386	301.56
241.603	131.58
241.821	-194.05
242.038	-122.37
242.255	311.8
242.472	45.57
242.689	-99.84
242.907	-163.33
243.124	238.08
243.341	223.74
243.558	-91.65
243.775	-171.52
243.992	104.96
244.209	322.04
244.426	-40.45
244.643	-116.22
244.86	170.49
245.078	268.8
245.295	-101.89
245.512	-167.42
245.729	117.25
245.946	244.22
246.163	-159.23
246.38	-183.81
246.597	236.03
246.814	186.88
247.031	-58.88
247.248	-159.23
247.464	274.94
247.681	197.12
247.898	-34.3
248.115	35.33
248.332	49.66
248.549	289.28
248.766	-34.3
248.983	-48.64
249.2	322.04
249.417	356.86
249.633	-44.54
249.85	-1.54
250.067	244.22
250.284	246.27
250.501	-138.75
250.717	-140.8
250.934	31.23
251.151	252.41
251.368	-46.59
251.585	-101.89
251.801	211.45
252.018	37.38
252.235	43.52
252.451	-116.22
252.668	133.63
252.885	358.91
253.102	-157.18
253.318	-142.85
253.535	111.1
253.752	147.97
253.968	-138.75
254.185	-222.72
254.401	326.14
254.618	283.13
254.835	-93.69
255.051	-89.6
255.268	311.8
255.484	233.98
255.701	-71.17
255.917	-89.6
256.134	20.99
256.351	154.11
256.567	-159.23
256.784	8.7
257	37.38
257.217	332.28
257.433	49.66
257.65	-42.5
257.866	365.05
258.082	18.94
258.299	-155.13
258.515	-54.78
258.732	166.4
258.948	127.49
259.165	-116.22
259.381	-183.81
259.597	313.85
259.814	160.25
260.03	-148.99
260.246	-50.69
260.463	299.52
260.679	264.7
260.895	-97.79
261.112	-81.41
261.328	274.94
261.544	86.53
261.761	-22.02
261.977	-91.65
262.193	6.66
262.409	324.09
262.626	20.99
262.842	-118.27
263.058	141.82
263.274	301.56
263.49	-105.98
263.707	-130.56
263.923	291.32
264.139	-93.69
264.355	-60.93
264.571	-11.78
264.787	221.69
265.004	389.63
265.22	12.8
265.436	-110.08
265.652	158.21
265.868	231.93
266.084	-222.72
266.3	-85.5
266.516	53.76
266.732	233.98
266.948	-85.5
267.164	-175.61
267.38	317.95
267.596	307.71
267.812	31.23
268.028	-67.07
268.244	76.29
268.46	233.98
268.676	-126.46
268.892	-5.63
269.108	111.1
269.324	43.52
269.54	-198.14
269.756	-99.84
269.972	84.48
270.188	172.54
270.403	-189.95
270.619	-87.55
270.835	246.27
271.051	268.8
271.267	-126.46
271.483	-187.9
271.698	281.08
271.914	193.02
272.13	-15.87
272.346	-110.08
272.562	223.74
272.777	381.43
272.993	-52.74
273.209	-44.54
273.425	266.75
273.64	-7.68
273.856	-38.4
274.072	-198.14
274.287	150.01
274.503	238.08
274.719	12.8
274.934	-159.23
275.15	-30.21
275.366	201.21
275.581	-105.98
275.797	45.57
276.012	270.84
276.228	37.38
276.444	12.8
276.659	14.85
276.875	104.96
277.09	119.29
277.306	-73.21
277.521	-40.45
277.737	233.98
277.952	201.21
278.168	-62.98
278.383	-65.02
278.599	190.97
278.814	258.56
279.03	-99.84
279.245	45.57
279.461	127.49
279.676	244.22
279.892	-1.54
280.107	-136.7
280.322	51.71
280.538	268.8
280.753	-165.37
280.969	-105.98
281.184	242.17
281.399	367.1
281.615	-15.87
281.83	102.91
282.045	-28.16
282.26	102.91
282.476	16.9
282.691	84.48
282.906	160.25
283.122	164.35
283.337	78.33
283.552	8.7
283.767	147.97
283.983	127.49
284.198	-54.78
284.413	-71.17
284.628	39.42
284.843	305.66
285.058	-15.87
285.274	-44.54
285.489	53.76
285.704	168.45
285.919	35.33
286.134	-50.69
286.349	238.08
286.564	98.81
286.779	-15.87
286.995	45.57
287.21	18.94
287.425	225.79
287.64	-67.07
287.855	143.87
288.07	-11.78
288.285	336.38
288.5	-7.68
288.715	-42.5
288.93	211.45
289.145	88.57
289.36	-32.26
289.575	-3.58
289.79	293.37
290.004	23.04
290.219	-3.58
290.434	-142.85
290.649	78.33
290.864	115.2
291.079	-1.54
291.294	-13.82
291.509	240.12
291.724	135.68
291.938	-73.21
292.153	-75.26
292.368	158.21
292.583	162.3
292.798	4.61
293.012	-13.82
293.227	217.6
293.442	168.45
293.657	74.24
293.871	45.57
294.086	295.42
294.301	270.84
294.516	41.47
294.73	29.18
294.945	137.73
295.16	164.35
295.374	76.29
295.589	61.95
295.804	109.05
296.018	109.05
296.233	-28.16
296.447	80.38
296.662	127.49
296.877	311.8
297.091	25.09
297.306	-9.73
297.52	98.81
297.735	307.71
297.949	33.28
298.164	-91.65
298.378	133.63
298.593	76.29
298.807	-9.73
299.022	39.42
299.236	295.42
299.451	20.99
299.665	27.14
299.88	100.86
300.094	281.08
300.309	70.14
300.523	-19.97
300.737	-60.93
300.952	268.8
301.166	260.6
301.381	-81.41
301.595	-175.61
301.809	170.49
302.024	168.45
302.238	-30.21
302.452	100.86
302.667	176.64
302.881	338.43
303.095	57.86
303.309	-7.68
303.524	123.39
303.738	94.72
303.952	72.19
304.166	10.75
304.381	-71.17
304.595	266.75
304.809	-7.68
305.023	-7.68
305.237	139.77
305.452	70.14
305.666	-48.64
305.88	-24.06
306.094	211.45
306.308	201.21
306.522	12.8
306.736	66.05
306.95	315.9
307.164	94.72
307.379	14.85
307.593	98.81
307.807	252.41
308.021	244.22
308.235	12.8
308.449	-134.65
308.663	109.05
308.877	575.99
309.091	98.81
309.305	25.09
309.519	18.94
309.733	229.88
309.947	-132.61
310.161	-48.64
310.374	162.3
310.588	291.32
310.802	-89.6
311.016	33.28
311.23	182.78
311.444	53.76
311.658	16.9
311.872	190.97
312.085	315.9
312.299	258.56
312.513	152.06
312.727	-85.5
312.941	12.8
313.154	102.91
313.368	-7.68
313.582	4.61
313.796	180.73
314.009	143.87
314.223	86.53
314.437	39.42
314.651	207.36
314.864	199.16
315.078	-13.82
315.292	-85.5
315.505	96.77
315.719	164.35
315.933	57.86
316.146	-83.45
316.36	82.43
316.573	250.36
316.787	182.78
317.001	43.52
317.214	4.61
317.428	160.25
317.641	-77.31
317.855	20.99
318.068	221.69
318.282	111.1
318.495	94.72
318.709	-1.54
318.922	150.01
319.136	330.23
319.349	29.18
319.563	-52.74
319.776	291.32
319.99	-28.16
320.203	43.52
320.417	-77.31
320.63	160.25
320.843	281.08
321.057	70.14
321.27	-36.35
321.483	217.6
321.697	223.74
321.91	23.04
322.124	49.66
322.337	186.88
322.55	84.48
322.763	-140.8
322.977	-50.69
323.19	66.05
323.403	154.11
323.617	86.53
323.83	248.32
324.043	172.54
324.256	92.67
324.469	-187.9
324.683	119.29
324.896	158.21
325.109	104.96
325.322	-73.21
325.535	33.28
325.748	307.71
325.962	104.96
326.175	-1.54
326.388	-89.6
326.601	225.79
326.814	111.1
327.027	-15.87
327.24	121.34
327.453	12.8
327.666	207.36
327.879	207.36
328.092	12.8
328.305	260.6
328.518	119.29
328.731	35.33
328.944	25.09
329.157	150.01
329.37	25.09
329.583	86.53
329.796	51.71
330.009	-22.02
330.222	279.04
330.435	33.28
330.648	20.99
330.861	209.4
331.073	180.73
331.286	31.23
331.499	51.71
331.712	145.92
331.925	197.12
332.138	25.09
332.35	-19.97
332.563	154.11
332.776	311.8
332.989	-128.51
333.202	-28.16
333.414	195.07
333.627	145.92
333.84	-73.21
334.053	45.57
334.265	72.19
334.478	55.81
334.691	-7.68
334.903	104.96
335.116	94.72
335.329	150.01
335.541	33.28
335.754	236.03
335.966	115.2
336.179	184.83
336.392	-44.54
336.604	37.38
336.817	254.46
337.029	186.88
337.242	-22.02
337.454	59.9
337.667	180.73
337.88	238.08
338.092	109.05
338.305	84.48
338.517	70.14
338.729	274.94
338.942	-30.21
339.154	-36.35
339.367	78.33
339.579	305.66
339.792	-108.03
340.004	86.53
340.217	94.72
340.429	115.2
340.641	-73.21
340.854	-71.17
341.066	233.98
341.278	268.8
341.491	121.34
341.703	39.42
341.915	18.94
342.128	260.6
342.34	82.43
342.552	-40.45
342.764	156.16
342.977	158.21
343.189	29.18
343.401	92.67
343.613	-69.12
343.826	156.16
344.038	-5.63
344.25	49.66
344.462	16.9
344.674	231.93
344.886	-89.6
345.099	16.9
345.311	213.5
345.523	55.81
345.735	-189.95
345.947	45.57
346.159	248.32
346.371	174.59
346.583	53.76
346.795	127.49
347.007	35.33
347.219	250.36
347.431	-11.78
347.643	94.72
347.855	115.2
348.067	283.13
348.279	-24.06
348.491	-91.65
348.703	301.56
348.915	72.19
349.127	25.09
349.339	16.9
349.551	57.86
349.763	266.75
349.975	-36.35
350.187	117.25
350.399	393.72
350.61	176.64
350.822	-1.54
351.034	68.09
351.246	227.84
351.458	154.11
351.669	0.51
351.881	55.81
352.093	268.8
352.305	260.6
352.517	-42.5
352.728	72.19
352.94	168.45
353.152	336.38
353.363	-87.55
353.575	29.18
353.787	379.39
353.999	119.29
354.21	123.39
354.422	-116.22
354.633	178.69
354.845	217.6
355.057	25.09
355.268	-22.02
355.48	227.84
355.692	-19.97
355.903	78.33
356.115	-69.12
356.326	-22.02
356.538	348.67
356.749	18.94
356.961	39.42
357.172	180.73
357.384	-3.58
357.595	262.65
357.807	23.04
358.018	172.54
358.23	190.97
358.441	-46.59
358.653	14.85
358.864	131.58
359.075	-7.68
359.287	64
359.498	68.09
359.709	258.56
359.921	217.6
360.132	12.8
360.344	45.57
360.555	209.4
360.766	176.64
360.977	20.99
361.189	86.53
361.4	203.26
361.611	258.56
361.823	41.47
362.034	-36.35
362.245	-1.54
362.456	133.63
362.667	168.45
362.879	-65.02
363.09	309.76
363.301	227.84
363.512	29.18
363.723	-5.63
363.935	186.88
364.146	246.27
364.357	14.85
364.568	-34.3
364.779	-19.97
364.99	291.32
365.201	64
365.412	174.59
365.623	-34.3
365.834	250.36
366.045	102.91
366.256	23.04
366.467	291.32
366.678	113.15
366.889	57.86
367.1	-54.78
367.311	260.6
367.522	180.73
367.733	29.18
367.944	18.94
368.155	115.2
368.366	258.56
368.577	86.53
368.788	174.59
368.999	70.14
369.209	129.53
369.42	86.53
369.631	346.62
369.842	145.92
370.053	238.08
370.264	64
370.474	-11.78
370.685	309.76
370.896	90.62
371.107	102.91
371.317	-26.11
371.528	242.17
371.739	367.1
371.95	80.38
372.16	10.75
372.371	-1.54
372.582	86.53
372.792	25.09
373.003	143.87
373.214	231.93
373.424	184.83
373.635	8.7
373.846	139.77
374.056	262.65
374.267	164.35
374.477	162.3
374.688	-30.21
374.898	322.04
375.109	170.49
375.319	20.99
375.53	49.66
375.74	227.84
375.951	135.68
376.161	158.21
376.372	100.86
376.582	113.15
376.793	297.47
377.003	-28.16
377.214	-42.5
377.424	258.56
377.635	252.41
377.845	57.86
378.055	176.64
378.266	37.38
378.476	174.59
378.686	31.23
378.897	35.33
379.107	342.52
379.317	242.17
379.528	-87.55
379.738	137.73
379.948	72.19
380.158	328.19
380.369	141.82
380.579	55.81
380.789	209.4
380.999	246.27
381.21	201.21
381.42	201.21
381.63	135.68
381.84	303.61
382.05	152.06
382.261	145.92
382.471	285.18
382.681	68.09
382.891	80.38
383.101	84.48
383.311	150.01
383.521	121.34
383.731	-44.54
383.941	233.98
384.151	215.55
384.361	102.91
384.571	49.66
384.781	12.8
384.991	326.14
385.201	422.39
385.411	203.26
385.621	16.9
385.831	229.88
386.041	244.22
386.251	92.67
386.461	145.92
386.671	201.21
386.881	233.98
387.091	-65.02
387.301	156.16
387.511	246.27
387.72	219.64
387.93	125.44
388.14	-1.54
388.35	152.06
388.56	342.52
388.769	20.99
388.979	61.95
389.189	104.96
389.399	219.64
389.609	109.05
389.818	49.66
390.028	201.21
390.238	231.93
390.447	-22.02
390.657	-36.35
390.867	264.7
391.076	39.42
391.286	49.66
391.496	-36.35
391.705	197.12
391.915	401.91
392.125	-11.78
392.334	119.29
392.544	348.67
392.753	170.49
392.963	29.18
393.172	43.52
393.382	135.68
393.591	424.44
393.801	-56.83
394.01	109.05
394.22	244.22
394.429	195.07
394.639	51.71
394.848	92.67
395.058	254.46
395.267	229.88
395.477	147.97
395.686	88.57
395.895	506.36
396.105	365.05
396.314	96.77
396.524	76.29
396.733	133.63
396.942	324.09
397.152	121.34
397.361	145.92
397.57	227.84
397.78	92.67
397.989	178.69
398.198	266.75
398.407	195.07
398.617	215.55
398.826	33.28
399.035	43.52
399.244	217.6
399.453	213.5
399.663	6.66
399.872	-75.26
400.081	137.73
400.29	410.11
400.499	33.28
400.708	193.02
400.917	102.91
401.127	244.22
401.336	49.66
401.545	330.23
401.754	383.48
401.963	281.08
402.172	113.15
402.381	70.14
402.59	279.04
402.799	197.12
403.008	268.8
403.217	154.11
403.426	367.1
403.635	-7.68
403.844	29.18
404.053	8.7
404.262	131.58
404.471	350.71
404.68	94.72
404.888	96.77
405.097	143.87
405.306	246.27
405.515	127.49
405.724	57.86
405.933	344.57
406.142	221.69
406.35	61.95
406.559	78.33
406.768	262.65
406.977	393.72
407.185	86.53
407.394	102.91
407.603	84.48
407.812	186.88
408.02	225.79
408.229	66.05
408.438	250.36
408.646	133.63
408.855	12.8
409.064	39.42
409.272	172.54
409.481	262.65
409.69	45.57
409.898	-11.78
410.107	258.56
410.315	358.91
410.524	147.97
410.733	33.28
410.941	309.76
411.15	332.28
411.358	78.33
411.567	223.74
411.775	344.57
411.984	178.69
412.192	78.33
412.401	51.71
412.609	455.16
412.818	369.15
413.026	129.53
413.234	14.85
413.443	229.88
413.651	111.1
413.86	-40.45
414.068	244.22
414.276	463.35
414.485	135.68
414.693	125.44
414.901	330.23
415.11	281.08
415.318	176.64
415.526	131.58
415.734	186.88
415.943	193.02
416.151	381.43
416.359	10.75
416.567	225.79
416.776	254.46
416.984	311.8
417.192	252.41
417.4	-11.78
417.608	113.15
417.817	90.62
418.025	170.49
418.233	190.97
418.441	107.01
418.649	39.42
418.857	129.53
419.065	109.05
419.273	182.78
419.481	283.13
419.689	184.83
419.897	-15.87
420.105	82.43
420.313	328.19
420.521	182.78
420.729	158.21
420.937	145.92
421.145	102.91
421.353	186.88
421.561	133.63
421.769	311.8
421.977	184.83
422.185	55.81
422.393	78.33
422.601	246.27
422.809	279.04
423.017	121.34
423.224	45.57
423.432	307.71
423.64	193.02
423.848	45.57
424.056	59.9
424.263	365.05
424.471	119.29
424.679	281.08
424.887	20.99
425.094	467.45
425.302	324.09
425.51	-60.93
425.718	125.44
425.925	223.74
426.133	113.15
426.341	233.98
426.548	137.73
426.756	143.87
426.964	315.9
427.171	14.85
427.379	76.29
427.586	162.3
427.794	307.71
428.001	170.49
428.209	180.73
428.417	377.34
428.624	332.28
428.832	64
429.039	96.77
429.247	295.42
429.454	225.79
429.662	258.56
429.869	168.45
430.076	299.52
430.284	291.32
430.491	135.68
430.699	197.12
430.906	381.43
431.114	336.38
431.321	139.77
431.528	102.91
431.736	299.52
431.943	256.51
432.15	178.69
432.358	123.39
432.565	469.5
432.772	25.09
432.979	287.23
433.187	184.83
433.394	395.77
433.601	190.97
433.808	197.12
434.016	225.79
434.223	231.93
434.43	217.6
434.637	162.3
434.844	291.32
435.052	377.34
435.259	383.48
435.466	201.21
435.673	246.27
435.88	399.87
436.087	418.3
436.294	373.24
436.501	307.71
436.708	367.1
436.915	360.95
437.122	340.47
437.329	92.67
437.537	307.71
437.743	363
437.95	371.19
438.157	252.41
438.364	334.33
438.571	315.9
438.778	197.12
438.985	291.32
439.192	438.78
439.399	356.86
439.606	305.66
439.813	315.9
440.02	735.73
440.227	743.92
440.433	295.42
440.64	352.76
440.847	403.96
441.054	455.16
441.261	373.24
441.467	338.43
441.674	479.74
441.881	592.37
442.088	350.71
442.294	406.01
442.501	629.24
442.708	580.09
442.914	385.53
443.121	422.39
443.328	543.22
443.534	729.59
443.741	406.01
443.948	444.92
444.154	682.49
444.361	782.84
444.568	461.3
444.774	526.84
444.981	561.66
445.187	821.75
445.394	557.56
445.6	573.94
445.807	825.84
446.013	784.88
446.22	619
446.426	762.36
446.633	987.63
446.839	1032.69
447.046	608.76
447.252	834.04
447.459	956.91
447.665	852.47
447.871	702.97
448.078	1112.56
448.284	1098.22
448.491	1145.33
448.697	1012.21
448.903	1036.78
449.11	1286.64
449.316	1126.89
449.522	1188.33
449.728	1243.63
449.935	1323.5
450.141	1161.71
450.347	1329.64
450.553	1200.62
450.76	1440.23
450.966	1462.76
451.172	1405.42
451.378	1507.82
451.584	1632.74
451.791	1888.74
451.997	1595.88
452.203	1655.27
452.409	1923.55
452.615	1892.84
452.821	1739.24
453.027	1667.56
453.233	2163.17
453.44	1880.55
453.646	1753.57
453.852	1876.45
454.058	2011.62
454.264	2150.88
454.47	2175.45
454.676	1999.33
454.882	2423.26
455.088	2253.28
455.294	2066.91
455.5	2284
455.705	2451.93
455.911	2509.27
456.117	2234.85
456.323	2339.29
456.529	2298.33
456.735	2443.74
456.941	2167.26
457.147	2281.95
457.352	2531.8
457.558	2341.34
457.764	2392.54
457.97	2306.52
458.176	2609.62
458.381	2472.41
458.587	2503.13
458.793	2402.78
458.999	2249.18
459.204	2544.09
459.41	2392.54
459.616	2421.21
459.821	2587.1
460.027	2335.2
460.233	2507.23
460.438	2365.92
460.644	2470.36
460.85	2349.53
461.055	2423.26
461.261	2367.96
461.466	2068.96
461.672	2210.27
461.878	2138.59
