Data from USB4F104151__1__09-13-51-826.txt Node

Date: Wed Feb 26 09:13:51 EST 2025
User: louis
Spectrometer: USB4F10415
Trigger mode: 4
Integration Time (sec): 4.000000E-1
Scans to average: 1
Electric dark correction enabled: true
Nonlinearity correction enabled: false
Boxcar width: 0
XAxis mode: Wavelengths
Number of Pixels in Spectrum: 3648
>>>>>Begin Spectral Data<<<<<
178.204	-878.07
178.424	-878.07
178.644	-878.07
178.864	-894.45
179.084	-886.26
179.304	211.45
179.524	98.81
179.744	-65.02
179.964	-239.1
180.184	260.6
180.404	152.06
180.624	-282.11
180.844	-155.13
181.064	96.77
181.283	299.52
181.503	-200.19
181.723	-177.66
181.943	-46.59
182.163	481.78
182.383	-298.49
182.602	-237.05
182.822	457.21
183.042	172.54
183.262	-257.53
183.482	-245.24
183.701	211.45
183.921	358.91
184.141	-202.24
184.361	-263.68
184.58	285.18
184.8	211.45
185.02	-290.3
185.239	-110.08
185.459	281.08
185.679	426.49
185.898	-335.35
186.118	-273.92
186.338	348.67
186.557	358.91
186.777	-271.87
186.997	-257.53
187.216	262.65
187.436	532.98
187.655	-206.33
187.875	-67.07
188.095	276.99
188.314	438.78
188.534	-110.08
188.753	-304.64
188.973	342.52
189.192	432.63
189.412	-298.49
189.631	-247.29
189.851	430.59
190.07	555.51
190.29	-245.24
190.509	-372.22
190.729	268.8
190.948	455.16
191.168	-120.32
191.387	-273.92
191.607	227.84
191.826	375.29
192.045	-171.52
192.265	-271.87
192.484	381.43
192.704	317.95
192.923	-251.39
193.142	-93.69
193.362	350.71
193.581	375.29
193.8	-126.46
194.02	-144.89
194.239	283.13
194.458	358.91
194.678	-226.81
194.897	-292.35
195.116	309.76
195.335	383.48
195.555	-222.72
195.774	-304.64
195.993	391.67
196.212	227.84
196.432	-189.95
196.651	-306.68
196.87	293.37
197.089	635.38
197.308	-302.59
197.528	-161.28
197.747	129.53
197.966	356.86
198.185	-118.27
198.404	-380.41
198.623	356.86
198.842	469.5
199.062	-185.85
199.281	-144.89
199.5	348.67
199.719	342.52
199.938	-304.64
200.157	-216.57
200.376	379.39
200.595	547.32
200.814	-196.09
201.033	-216.57
201.252	520.7
201.471	354.81
201.69	-278.01
201.909	-198.14
202.128	412.15
202.347	348.67
202.566	-157.18
202.785	-478.71
203.004	133.63
203.223	453.11
203.442	-247.29
203.661	-337.4
203.879	324.09
204.098	449.02
204.317	-357.88
204.536	-128.51
204.755	438.78
204.974	365.05
205.193	-400.89
205.411	-124.41
205.63	465.4
205.849	272.89
206.068	-185.85
206.287	-278.01
206.505	436.73
206.724	242.17
206.943	-298.49
207.162	-278.01
207.381	268.8
207.599	152.06
207.818	-65.02
208.037	-316.92
208.255	197.12
208.474	256.51
208.693	-255.48
208.911	-259.58
209.13	375.29
209.349	324.09
209.567	-77.31
209.786	-204.28
210.005	399.87
210.223	305.66
210.442	-476.66
210.661	-335.35
210.879	338.43
211.098	256.51
211.316	-148.99
211.535	-263.68
211.753	219.64
211.972	320
212.191	-265.72
212.409	-269.82
212.628	487.93
212.846	147.97
213.065	-247.29
213.283	-185.85
213.502	244.22
213.72	209.4
213.938	-286.2
214.157	-278.01
214.375	346.62
214.594	240.12
214.812	-220.67
215.031	-214.52
215.249	201.21
215.467	293.37
215.686	-132.61
215.904	-304.64
216.122	297.47
216.341	446.97
216.559	-73.21
216.778	-183.81
216.996	463.35
217.214	178.69
217.432	-189.95
217.651	-323.07
217.869	281.08
218.087	250.36
218.306	-275.96
218.524	-230.91
218.742	236.03
218.96	489.98
219.179	-183.81
219.397	-329.21
219.615	547.32
219.833	225.79
220.051	-230.91
220.27	-99.84
220.488	465.4
220.706	330.23
220.924	-314.88
221.142	-280.06
221.36	313.85
221.578	299.52
221.796	-300.54
222.015	-101.89
222.233	291.32
222.451	399.87
222.669	-136.7
222.887	-105.98
223.105	162.3
223.323	94.72
223.541	-105.98
223.759	-280.06
223.977	227.84
224.195	430.59
224.413	-226.81
224.631	-214.52
224.849	301.56
225.067	522.74
225.285	-144.89
225.503	-255.48
225.721	-65.02
225.939	193.02
226.157	-206.33
226.375	-58.88
226.592	129.53
226.81	223.74
227.028	-95.74
227.246	-169.47
227.464	293.37
227.682	367.1
227.9	-185.85
228.117	-216.57
228.335	334.33
228.553	158.21
228.771	-282.11
228.989	-253.44
229.206	334.33
229.424	143.87
229.642	-249.34
229.86	-198.14
230.077	420.35
230.295	231.93
230.513	-65.02
230.731	-142.85
230.948	457.21
231.166	430.59
231.384	-157.18
231.601	-204.28
231.819	496.12
232.037	55.81
232.254	-69.12
232.472	-224.76
232.689	211.45
232.907	373.24
233.125	-308.73
233.342	-321.02
233.56	193.02
233.777	141.82
233.995	-214.52
234.213	-122.37
234.43	338.43
234.648	197.12
234.865	-284.16
235.083	-157.18
235.3	350.71
235.518	309.76
235.735	-79.36
235.953	-95.74
236.17	225.79
236.388	176.64
236.605	-77.31
236.822	-56.83
237.04	344.57
237.257	268.8
237.475	-222.72
237.692	-189.95
237.909	399.87
238.127	137.73
238.344	-120.32
238.562	-214.52
238.779	86.53
238.996	66.05
239.214	-110.08
239.431	-189.95
239.648	195.07
239.865	258.56
240.083	-130.56
240.3	-202.24
240.517	186.88
240.735	276.99
240.952	-3.58
241.169	-296.44
241.386	375.29
241.603	158.21
241.821	-247.29
242.038	-146.94
242.255	469.5
242.472	113.15
242.689	-83.45
242.907	-192
243.124	250.36
243.341	252.41
243.558	-157.18
243.775	-259.58
243.992	61.95
244.209	373.24
244.426	-22.02
244.643	-210.43
244.86	166.4
245.078	276.99
245.295	-148.99
245.512	-198.14
245.729	133.63
245.946	250.36
246.163	-200.19
246.38	-153.09
246.597	160.25
246.814	203.26
247.031	-124.41
247.248	-304.64
247.464	344.57
247.681	145.92
247.898	-183.81
248.115	-138.75
248.332	176.64
248.549	434.68
248.766	-71.17
248.983	-93.69
249.2	393.72
249.417	449.02
249.633	-146.94
249.85	-144.89
250.067	219.64
250.284	215.55
250.501	-216.57
250.717	-185.85
250.934	68.09
251.151	127.49
251.368	-169.47
251.585	-249.34
251.801	272.89
252.018	113.15
252.235	-15.87
252.451	-224.76
252.668	119.29
252.885	354.81
253.102	-235
253.318	-206.33
253.535	195.07
253.752	147.97
253.968	-189.95
254.185	-296.44
254.401	324.09
254.618	293.37
254.835	-116.22
255.051	-232.96
255.268	340.47
255.484	252.41
255.701	-214.52
255.917	-194.05
256.134	168.45
256.351	217.6
256.567	-259.58
256.784	-112.13
257	35.33
257.217	412.15
257.433	8.7
257.65	-192
257.866	365.05
258.082	80.38
258.299	-226.81
258.515	-75.26
258.732	250.36
258.948	113.15
259.165	-99.84
259.381	-224.76
259.597	315.9
259.814	258.56
260.03	-226.81
260.246	-177.66
260.463	285.18
260.679	346.62
260.895	-95.74
261.112	-52.74
261.328	238.08
261.544	76.29
261.761	-192
261.977	-208.38
262.193	74.24
262.409	334.33
262.626	-42.5
262.842	-148.99
263.058	6.66
263.274	307.71
263.49	-11.78
263.707	-230.91
263.923	367.1
264.139	-3.58
264.355	-136.7
264.571	-91.65
264.787	309.76
265.004	240.12
265.22	-140.8
265.436	-153.09
265.652	186.88
265.868	320
266.084	-251.39
266.3	-183.81
266.516	51.71
266.732	274.94
266.948	-130.56
267.164	-200.19
267.38	395.77
267.596	260.6
267.812	-62.98
268.028	-210.43
268.244	98.81
268.46	301.56
268.676	-216.57
268.892	-19.97
269.108	80.38
269.324	162.3
269.54	-206.33
269.756	-97.79
269.972	86.53
270.188	272.89
270.403	-218.62
270.619	-194.05
270.835	260.6
271.051	193.02
271.267	-101.89
271.483	-273.92
271.698	342.52
271.914	250.36
272.13	-83.45
272.346	-148.99
272.562	203.26
272.777	457.21
272.993	-87.55
273.209	-241.15
273.425	332.28
273.64	74.24
273.856	-95.74
274.072	-345.59
274.287	162.3
274.503	346.62
274.719	-50.69
274.934	-255.48
275.15	51.71
275.366	178.69
275.581	-271.87
275.797	-95.74
276.012	199.16
276.228	141.82
276.444	-50.69
276.659	14.85
276.875	18.94
277.09	113.15
277.306	-126.46
277.521	-91.65
277.737	131.58
277.952	211.45
278.168	-153.09
278.383	-93.69
278.599	182.78
278.814	244.22
279.03	-237.05
279.245	-44.54
279.461	88.57
279.676	293.37
279.892	-155.13
280.107	-142.85
280.322	39.42
280.538	383.48
280.753	-194.05
280.969	-110.08
281.184	195.07
281.399	258.56
281.615	-75.26
281.83	6.66
282.045	51.71
282.26	117.25
282.476	-101.89
282.691	-1.54
282.906	199.16
283.122	102.91
283.337	-144.89
283.552	-71.17
283.767	109.05
283.983	203.26
284.198	-153.09
284.413	-93.69
284.628	49.66
284.843	182.78
285.058	-108.03
285.274	-181.76
285.489	119.29
285.704	117.25
285.919	-75.26
286.134	-120.32
286.349	129.53
286.564	113.15
286.779	-69.12
286.995	-19.97
287.21	-22.02
287.425	227.84
287.64	-200.19
287.855	68.09
288.07	-3.58
288.285	283.13
288.5	-17.92
288.715	-130.56
288.93	129.53
289.145	76.29
289.36	-77.31
289.575	-93.69
289.79	367.1
290.004	84.48
290.219	18.94
290.434	-69.12
290.649	68.09
290.864	162.3
291.079	-71.17
291.294	-99.84
291.509	272.89
291.724	195.07
291.938	-95.74
292.153	-130.56
292.368	227.84
292.583	240.12
292.798	-65.02
293.012	18.94
293.227	295.42
293.442	109.05
293.657	-1.54
293.871	-19.97
294.086	309.76
294.301	227.84
294.516	6.66
294.73	100.86
294.945	64
295.16	104.96
295.374	-34.3
295.589	-5.63
295.804	96.77
296.018	150.01
296.233	-9.73
296.447	-9.73
296.662	49.66
296.877	387.58
297.091	-99.84
297.306	-99.84
297.52	102.91
297.735	154.11
297.949	14.85
298.164	-243.2
298.378	178.69
298.593	88.57
298.807	-75.26
299.022	-11.78
299.236	322.04
299.451	74.24
299.665	4.61
299.88	-30.21
300.094	225.79
300.309	92.67
300.523	-52.74
300.737	-132.61
300.952	268.8
301.166	248.32
301.381	-83.45
301.595	-198.14
301.809	96.77
302.024	172.54
302.238	-60.93
302.452	-5.63
302.667	176.64
302.881	301.56
303.095	-50.69
303.309	-30.21
303.524	203.26
303.738	178.69
303.952	39.42
304.166	-15.87
304.381	-52.74
304.595	240.12
304.809	43.52
305.023	-58.88
305.237	55.81
305.452	33.28
305.666	-22.02
305.88	-13.82
306.094	213.5
306.308	193.02
306.522	-116.22
306.736	4.61
306.95	244.22
307.164	135.68
307.379	4.61
307.593	-5.63
307.807	203.26
308.021	219.64
308.235	96.77
308.449	-161.28
308.663	154.11
308.877	555.51
309.091	-13.82
309.305	12.8
309.519	45.57
309.733	350.71
309.947	-169.47
310.161	-151.04
310.374	225.79
310.588	309.76
310.802	-148.99
311.016	8.7
311.23	154.11
311.444	115.2
311.658	16.9
311.872	119.29
312.085	328.19
312.299	197.12
312.513	104.96
312.727	-151.04
312.941	55.81
313.154	55.81
313.368	-71.17
313.582	-136.7
313.796	201.21
314.009	109.05
314.223	55.81
314.437	20.99
314.651	186.88
314.864	150.01
315.078	-95.74
315.292	-91.65
315.505	129.53
315.719	182.78
315.933	45.57
316.146	-161.28
316.36	109.05
316.573	168.45
316.787	174.59
317.001	-42.5
317.214	72.19
317.428	193.02
317.641	-91.65
317.855	-65.02
318.068	309.76
318.282	176.64
318.495	53.76
318.709	-67.07
318.922	125.44
319.136	233.98
319.349	20.99
319.563	-108.03
319.776	272.89
319.99	-32.26
320.203	6.66
320.417	-44.54
320.63	193.02
320.843	201.21
321.057	78.33
321.27	-99.84
321.483	270.84
321.697	72.19
321.91	-67.07
322.124	-95.74
322.337	207.36
322.55	35.33
322.763	-5.63
322.977	-60.93
323.19	72.19
323.403	100.86
323.617	-40.45
323.83	166.4
324.043	219.64
324.256	109.05
324.469	-216.57
324.683	59.9
324.896	195.07
325.109	152.06
325.322	-142.85
325.535	29.18
325.748	352.76
325.962	193.02
326.175	4.61
326.388	-44.54
326.601	137.73
326.814	47.62
327.027	39.42
327.24	98.81
327.453	-71.17
327.666	293.37
327.879	166.4
328.092	39.42
328.305	305.66
328.518	154.11
328.731	-44.54
328.944	-85.5
329.157	55.81
329.37	39.42
329.583	88.57
329.796	-1.54
330.009	-5.63
330.222	225.79
330.435	39.42
330.648	-62.98
330.861	276.99
331.073	219.64
331.286	35.33
331.499	-79.36
331.712	195.07
331.925	131.58
332.138	14.85
332.35	-99.84
332.563	186.88
332.776	303.61
332.989	-44.54
333.202	-218.62
333.414	109.05
333.627	141.82
333.84	-71.17
334.053	33.28
334.265	117.25
334.478	10.75
334.691	-99.84
334.903	84.48
335.116	104.96
335.329	145.92
335.541	-19.97
335.754	283.13
335.966	211.45
336.179	233.98
336.392	-28.16
336.604	-13.82
336.817	162.3
337.029	162.3
337.242	-105.98
337.454	20.99
337.667	203.26
337.88	248.32
338.092	6.66
338.305	78.33
338.517	51.71
338.729	150.01
338.942	-50.69
339.154	-110.08
339.367	102.91
339.579	205.31
339.792	-75.26
340.004	-134.65
340.217	94.72
340.429	233.98
340.641	-116.22
340.854	-132.61
341.066	127.49
341.278	272.89
341.491	64
341.703	-69.12
341.915	2.56
342.128	281.08
342.34	-71.17
342.552	-151.04
342.764	244.22
342.977	182.78
343.189	-30.21
343.401	-11.78
343.613	6.66
343.826	92.67
344.038	-95.74
344.25	47.62
344.462	41.47
344.674	109.05
344.886	-130.56
345.099	-19.97
345.311	160.25
345.523	96.77
345.735	-218.62
345.947	29.18
346.159	195.07
346.371	207.36
346.583	16.9
346.795	64
347.007	170.49
347.219	258.56
347.431	33.28
347.643	107.01
347.855	127.49
348.067	299.52
348.279	-11.78
348.491	-112.13
348.703	293.37
348.915	164.35
349.127	-116.22
349.339	-1.54
349.551	205.31
349.763	254.46
349.975	-1.54
350.187	113.15
350.399	363
350.61	113.15
350.822	-120.32
351.034	-32.26
351.246	276.99
351.458	137.73
351.669	80.38
351.881	-101.89
352.093	408.06
352.305	246.27
352.517	-169.47
352.728	-13.82
352.94	45.57
353.152	340.47
353.363	-101.89
353.575	10.75
353.787	399.87
353.999	193.02
354.21	127.49
354.422	-165.37
354.633	145.92
354.845	162.3
355.057	64
355.268	-7.68
355.48	299.52
355.692	-46.59
355.903	6.66
356.115	-83.45
356.326	47.62
356.538	387.58
356.749	-17.92
356.961	72.19
357.172	211.45
357.384	14.85
357.595	137.73
357.807	6.66
358.018	141.82
358.23	248.32
358.441	-83.45
358.653	-54.78
358.864	195.07
359.075	37.38
359.287	-13.82
359.498	-34.3
359.709	227.84
359.921	178.69
360.132	2.56
360.344	-99.84
360.555	96.77
360.766	80.38
360.977	-116.22
361.189	-11.78
361.4	166.4
361.611	240.12
361.823	53.76
362.034	-108.03
362.245	14.85
362.456	190.97
362.667	-1.54
362.879	-144.89
363.09	266.75
363.301	150.01
363.512	-30.21
363.723	-54.78
363.935	201.21
364.146	301.56
364.357	-60.93
364.568	-48.64
364.779	23.04
364.99	299.52
365.201	-15.87
365.412	29.18
365.623	-28.16
365.834	170.49
366.045	43.52
366.256	29.18
366.467	225.79
366.678	117.25
366.889	-19.97
367.1	-36.35
367.311	244.22
367.522	117.25
367.733	-1.54
367.944	20.99
368.155	193.02
368.366	276.99
368.577	51.71
368.788	158.21
368.999	88.57
369.209	203.26
369.42	39.42
369.631	295.42
369.842	236.03
370.053	176.64
370.264	0.51
370.474	-34.3
370.685	260.6
370.896	98.81
371.107	102.91
371.317	-38.4
371.528	84.48
371.739	242.17
371.95	-79.36
372.16	-50.69
372.371	143.87
372.582	174.59
372.792	-71.17
373.003	14.85
373.214	268.8
373.424	162.3
373.635	-36.35
373.846	100.86
374.056	225.79
374.267	168.45
374.477	94.72
374.688	-3.58
374.898	182.78
375.109	131.58
375.319	39.42
375.53	31.23
375.74	340.47
375.951	59.9
376.161	59.9
376.372	-42.5
376.582	84.48
376.793	231.93
377.003	-52.74
377.214	-155.13
377.424	244.22
377.635	172.54
377.845	-13.82
378.055	64
378.266	80.38
378.476	143.87
378.686	-17.92
378.897	-30.21
379.107	283.13
379.317	217.6
379.528	-142.85
379.738	-1.54
379.948	14.85
380.158	291.32
380.369	-13.82
380.579	20.99
380.789	137.73
380.999	197.12
381.21	64
381.42	45.57
381.63	111.1
381.84	295.42
382.05	27.14
382.261	57.86
382.471	209.4
382.681	12.8
382.891	37.38
383.101	55.81
383.311	49.66
383.521	217.6
383.731	-67.07
383.941	154.11
384.151	158.21
384.361	-9.73
384.571	-99.84
384.781	-42.5
384.991	197.12
385.201	406.01
385.411	135.68
385.621	61.95
385.831	315.9
386.041	193.02
386.251	80.38
386.461	-1.54
386.671	195.07
386.881	166.4
387.091	-58.88
387.301	70.14
387.511	213.5
387.72	199.16
387.93	25.09
388.14	-116.22
388.35	201.21
388.56	242.17
388.769	78.33
388.979	-93.69
389.189	47.62
389.399	164.35
389.609	-85.5
389.818	14.85
390.028	236.03
390.238	256.51
390.447	-52.74
390.657	23.04
390.867	199.16
391.076	49.66
391.286	6.66
391.496	-69.12
391.705	154.11
391.915	336.38
392.125	-120.32
392.334	6.66
392.544	285.18
392.753	158.21
392.963	94.72
393.172	29.18
393.382	127.49
393.591	252.41
393.801	-105.98
394.01	-44.54
394.22	219.64
394.429	162.3
394.639	102.91
394.848	31.23
395.058	236.03
395.267	209.4
395.477	59.9
395.686	-32.26
395.895	535.03
396.105	299.52
396.314	43.52
396.524	-30.21
396.733	55.81
396.942	289.28
397.152	-42.5
397.361	131.58
397.57	117.25
397.78	215.55
397.989	16.9
398.198	250.36
398.407	137.73
398.617	143.87
398.826	-30.21
399.035	-56.83
399.244	219.64
399.453	170.49
399.663	-30.21
399.872	-179.71
400.081	47.62
400.29	184.83
400.499	-3.58
400.708	64
400.917	195.07
401.127	115.2
401.336	23.04
401.545	289.28
401.754	285.18
401.963	301.56
402.172	-5.63
402.381	-42.5
402.59	166.4
402.799	166.4
403.008	150.01
403.217	68.09
403.426	176.64
403.635	-26.11
403.844	-95.74
404.053	-99.84
404.262	109.05
404.471	258.56
404.68	27.14
404.888	64
405.097	20.99
405.306	162.3
405.515	61.95
405.724	-42.5
405.933	258.56
406.142	162.3
406.35	20.99
406.559	51.71
406.768	170.49
406.977	350.71
407.185	-38.4
407.394	37.38
407.603	-32.26
407.812	143.87
408.02	96.77
408.229	29.18
408.438	276.99
408.646	-26.11
408.855	-67.07
409.064	45.57
409.272	143.87
409.481	152.06
409.69	-65.02
409.898	-71.17
410.107	305.66
410.315	211.45
410.524	53.76
410.733	41.47
410.941	256.51
411.15	315.9
411.358	68.09
411.567	121.34
411.775	260.6
411.984	211.45
412.192	-19.97
412.401	-46.59
412.609	395.77
412.818	264.7
413.026	76.29
413.234	-44.54
413.443	233.98
413.651	100.86
413.86	-148.99
414.068	256.51
414.276	387.58
414.485	117.25
414.693	96.77
414.901	184.83
415.11	158.21
415.318	186.88
415.526	-28.16
415.734	88.57
415.943	236.03
416.151	373.24
416.359	-71.17
416.567	6.66
416.776	276.99
416.984	250.36
417.192	113.15
417.4	-40.45
417.608	94.72
417.817	43.52
418.025	166.4
418.233	88.57
418.441	94.72
418.649	23.04
418.857	70.14
419.065	72.19
419.273	178.69
419.481	88.57
419.689	80.38
419.897	-108.03
420.105	55.81
420.313	285.18
420.521	59.9
420.729	80.38
420.937	172.54
421.145	61.95
421.353	64
421.561	59.9
421.769	254.46
421.977	55.81
422.185	29.18
422.393	10.75
422.601	195.07
422.809	289.28
423.017	125.44
423.224	-11.78
423.432	350.71
423.64	193.02
423.848	4.61
424.056	-54.78
424.263	356.86
424.471	256.51
424.679	98.81
424.887	-89.6
425.094	428.54
425.302	250.36
425.51	-189.95
425.718	139.77
425.925	203.26
426.133	111.1
426.341	186.88
426.548	-19.97
426.756	197.12
426.964	340.47
427.171	92.67
427.379	37.38
427.586	223.74
427.794	383.48
428.001	158.21
428.209	111.1
428.417	383.48
428.624	309.76
428.832	68.09
429.039	137.73
429.247	276.99
429.454	260.6
429.662	98.81
429.869	51.71
430.076	358.91
430.284	291.32
430.491	102.91
430.699	154.11
430.906	430.59
431.114	293.37
431.321	150.01
431.528	180.73
431.736	195.07
431.943	309.76
432.15	172.54
432.358	92.67
432.565	438.78
432.772	96.77
432.979	219.64
433.187	211.45
433.394	545.27
433.601	313.85
433.808	233.98
434.016	178.69
434.223	438.78
434.43	289.28
434.637	154.11
434.844	297.47
435.052	420.35
435.259	350.71
435.466	250.36
435.673	172.54
435.88	588.28
436.087	602.61
436.294	555.51
436.501	432.63
436.708	551.42
436.915	551.42
437.122	528.89
437.329	272.89
437.537	489.98
437.743	561.66
437.95	500.22
438.157	387.58
438.364	547.32
438.571	506.36
438.778	449.02
438.985	530.94
439.192	627.19
439.399	690.68
439.606	498.17
439.813	737.78
440.02	1018.35
440.227	993.78
440.433	549.37
440.64	635.38
440.847	831.99
441.054	840.18
441.261	815.6
441.467	776.69
441.674	930.29
441.881	1051.12
442.088	827.89
442.294	903.67
442.501	1165.81
442.708	1327.6
442.914	956.91
443.121	1030.64
443.328	1247.72
443.534	1452.52
443.741	1040.88
443.948	1208.81
444.154	1534.44
444.361	1677.8
444.568	1382.89
444.774	1493.48
444.981	1407.47
445.187	1798.63
445.394	1513.96
445.6	1612.26
445.807	1886.69
446.013	1935.84
446.22	1683.94
446.426	1946.08
446.633	2193.89
446.839	2347.48
447.046	1939.94
447.252	2187.74
447.459	2374.11
447.665	2447.83
447.871	2304.48
448.078	2716.12
448.284	2712.02
448.491	2986.45
448.697	2724.31
448.903	2894.29
449.11	3271.12
449.316	3135.95
449.522	3275.21
449.728	3267.02
449.935	3594.7
450.141	3615.18
450.347	3662.28
450.553	3688.9
450.76	3924.42
450.966	4225.47
451.172	4379.07
451.378	4250.05
451.584	4495.8
451.791	4889.01
451.997	4850.1
452.203	4811.19
452.409	5192.11
452.615	5495.21
452.821	5216.69
453.027	5300.66
453.233	6150.56
453.44	5921.19
453.646	5984.68
453.852	6349.22
454.058	6789.53
454.264	7080.34
454.47	7227.79
454.676	7213.46
454.882	8106.37
455.088	7682.44
455.294	7934.34
455.5	8436.1
455.705	9197.94
455.911	9111.92
456.117	9222.52
456.323	9527.66
456.529	9501.04
456.735	10393.95
456.941	10721.63
457.147	10948.95
457.352	11426.13
457.558	11796.81
457.764	12380.48
457.97	12732.73
458.176	13648.18
458.381	14090.54
458.587	14129.45
458.793	14913.82
458.999	14940.44
459.204	17023.23
459.41	17133.82
459.616	16759.04
