Data from USB4F104151__0__09-13-49-047.txt Node

Date: Wed Feb 26 09:13:49 EST 2025
User: louis
Spectrometer: USB4F10415
Trigger mode: 4
Integration Time (sec): 4.000000E-1
Scans to average: 1
Electric dark correction enabled: true
Nonlinearity correction enabled: false
Boxcar width: 0
XAxis mode: Wavelengths
Number of Pixels in Spectrum: 3648
>>>>>Begin Spectral Data<<<<<
178.204	-906.91
178.424	-906.91
178.644	-906.91
178.864	-827.04
179.084	-863.9
179.304	184.66
179.524	143.7
179.744	-26.28
179.964	-251.56
180.184	285.01
180.404	139.6
180.624	-239.27
180.844	-122.54
181.064	22.87
181.283	198.99
181.503	-190.12
181.723	-145.06
181.943	-57
182.163	473.42
182.383	-276.13
182.602	-251.56
182.822	493.9
183.042	330.06
183.262	-204.46
183.482	-202.41
183.701	256.34
183.921	280.91
184.141	-259.75
184.361	-226.98
184.58	346.45
184.8	295.25
185.02	-269.99
185.239	-118.44
185.459	387.41
185.679	485.71
185.898	-315.05
186.118	-278.18
186.338	336.21
186.557	293.2
186.777	-261.8
186.997	-280.23
187.216	223.57
187.436	543.05
187.655	-210.6
187.875	-89.77
188.095	190.8
188.314	450.89
188.534	-100.01
188.753	-341.67
188.973	358.74
189.192	586.06
189.412	-327.33
189.631	-243.37
189.851	409.94
190.07	522.57
190.29	-210.6
190.509	-253.61
190.729	248.15
190.948	440.65
191.168	-102.06
191.387	-194.22
191.607	203.09
191.826	338.26
192.045	-140.97
192.265	-292.52
192.484	407.89
192.704	358.74
192.923	-173.74
193.142	-104.11
193.362	321.87
193.581	465.23
193.8	-167.59
194.02	-149.16
194.239	313.68
194.458	334.16
194.678	-89.77
194.897	-276.13
195.116	354.64
195.335	366.93
195.555	-210.6
195.774	-319.14
195.993	428.37
196.212	285.01
196.432	-104.11
196.651	-341.67
196.87	270.67
197.089	616.78
197.308	-243.37
197.528	-124.58
197.747	133.46
197.966	422.22
198.185	-61.1
198.404	-282.28
198.623	346.45
198.842	424.27
199.062	-218.79
199.281	-173.74
199.5	305.49
199.719	321.87
199.938	-214.7
200.157	-224.94
200.376	485.71
200.595	534.86
200.814	-136.87
201.033	-186.02
201.252	500.05
201.471	231.76
201.69	-147.11
201.909	-169.64
202.128	452.94
202.347	323.92
202.566	-186.02
202.785	-337.57
203.004	139.6
203.223	563.53
203.442	-218.79
203.661	-276.13
203.879	401.74
204.098	440.65
204.317	-229.03
204.536	-57
204.755	444.75
204.974	377.17
205.193	-267.94
205.411	-149.16
205.63	450.89
205.849	467.28
206.068	-229.03
206.287	-272.04
206.505	473.42
206.724	239.95
206.943	-243.37
207.162	-165.54
207.381	293.2
207.599	297.3
207.818	-42.67
208.037	-399.01
208.255	264.53
208.474	366.93
208.693	-202.41
208.911	-181.93
209.13	407.89
209.349	297.3
209.567	-7.85
209.786	-218.79
210.005	426.32
210.223	266.58
210.442	-435.88
210.661	-329.38
210.879	360.78
211.098	313.68
211.316	-155.3
211.535	-276.13
211.753	289.1
211.972	323.92
212.191	-204.46
212.409	-153.26
212.628	428.37
212.846	182.61
213.065	-235.18
213.283	-183.98
213.502	254.29
213.72	246.1
213.938	-186.02
214.157	-226.98
214.375	366.93
214.594	219.47
214.812	-114.34
215.031	-235.18
215.249	276.82
215.467	280.91
215.686	-147.11
215.904	-235.18
216.122	375.12
216.341	422.22
216.559	-11.95
216.778	-65.19
216.996	567.63
217.214	209.23
217.432	-173.74
217.651	-317.09
217.869	293.2
218.087	260.43
218.306	-177.83
218.524	-179.88
218.742	244.05
218.96	403.79
219.179	-212.65
219.397	-251.56
219.615	502.09
219.833	403.79
220.051	-269.99
220.27	-79.53
220.488	452.94
220.706	317.78
220.924	-269.99
221.142	-243.37
221.36	383.31
221.578	280.91
221.796	-192.17
222.015	-140.97
222.233	248.15
222.451	487.76
222.669	-85.67
222.887	-73.39
223.105	192.85
223.323	272.72
223.541	-114.34
223.759	-241.32
223.977	272.72
224.195	520.53
224.413	-147.11
224.631	-198.31
224.849	270.67
225.067	551.24
225.285	-61.1
225.503	-259.75
225.721	35.16
225.939	282.96
226.157	-124.58
226.375	43.35
226.592	223.57
226.81	211.28
227.028	10.58
227.246	-198.31
227.464	387.41
227.682	330.06
227.9	-128.68
228.117	-177.83
228.335	297.3
228.553	254.29
228.771	-310.95
228.989	-171.69
229.206	428.37
229.424	207.19
229.642	-206.5
229.86	-165.54
230.077	479.57
230.295	305.49
230.513	-40.62
230.731	-151.21
230.948	547.15
231.166	465.23
231.384	-173.74
231.601	-288.42
231.819	543.05
232.037	221.52
232.254	-91.82
232.472	-196.26
232.689	229.71
232.907	358.74
233.125	-259.75
233.342	-269.99
233.56	231.76
233.777	172.37
233.995	-249.51
234.213	-116.39
234.43	368.98
234.648	287.06
234.865	-214.7
235.083	-145.06
235.3	287.06
235.518	342.35
235.735	-157.35
235.953	-138.92
236.17	418.13
236.388	149.84
236.605	-3.75
236.822	-120.49
237.04	354.64
237.257	264.53
237.475	-87.72
237.692	-208.55
237.909	379.22
238.127	223.57
238.344	-16.04
238.562	-181.93
238.779	133.46
238.996	104.79
239.214	-69.29
239.431	-138.92
239.648	203.09
239.865	307.54
240.083	-163.5
240.3	-280.23
240.517	309.58
240.735	303.44
240.952	55.64
241.169	-136.87
241.386	416.08
241.603	178.51
241.821	-173.74
242.038	-124.58
242.255	448.85
242.472	69.97
242.689	-173.74
242.907	-149.16
243.124	262.48
243.341	334.16
243.558	-128.68
243.775	-196.26
243.992	43.35
244.209	336.21
244.426	-59.05
244.643	-177.83
244.86	282.96
245.078	418.13
245.295	-16.04
245.512	-130.73
245.729	108.88
245.946	311.63
246.163	-145.06
246.38	-188.07
246.597	289.1
246.814	198.99
247.031	-95.91
247.248	-286.37
247.464	385.36
247.681	207.19
247.898	-138.92
248.115	-120.49
248.332	198.99
248.549	446.8
248.766	-42.67
248.983	-85.67
249.2	362.83
249.417	432.46
249.633	-179.88
249.85	-22.19
250.067	346.45
250.284	215.38
250.501	-210.6
250.717	-112.3
250.934	67.92
251.151	194.9
251.368	-87.72
251.585	-79.53
251.801	297.3
252.018	53.59
252.235	-65.19
252.451	-255.65
252.668	270.67
252.885	360.78
253.102	-149.16
253.318	-204.46
253.535	174.42
253.752	158.03
253.968	-126.63
254.185	-239.27
254.401	338.26
254.618	338.26
254.835	-134.82
255.051	-210.6
255.268	377.17
255.484	227.67
255.701	-122.54
255.917	-118.44
256.134	213.33
256.351	219.47
256.567	-276.13
256.784	-28.33
257	84.31
257.217	348.5
257.433	14.68
257.65	-161.45
257.866	430.41
258.082	121.17
258.299	-149.16
258.515	-89.77
258.732	209.23
258.948	133.46
259.165	-81.58
259.381	-245.41
259.597	362.83
259.814	280.91
260.03	-284.33
260.246	-177.83
260.463	379.22
260.679	338.26
260.895	-71.34
261.112	-122.54
261.328	289.1
261.544	139.6
261.761	-188.07
261.977	-112.3
262.193	149.84
262.409	330.06
262.626	-26.28
262.842	-194.22
263.058	155.99
263.274	366.93
263.49	-83.63
263.707	-210.6
263.923	420.17
264.139	90.45
264.355	-89.77
264.571	-16.04
264.787	321.87
265.004	338.26
265.22	-79.53
265.436	-65.19
265.652	213.33
265.868	289.1
266.084	-181.93
266.3	-226.98
266.516	164.18
266.732	313.68
266.948	-108.2
267.164	-265.89
267.38	358.74
267.596	336.21
267.812	-1.71
268.028	-145.06
268.244	215.38
268.46	307.54
268.676	-145.06
268.892	-104.11
269.108	174.42
269.324	98.64
269.54	-179.88
269.756	-93.87
269.972	194.9
270.188	215.38
270.403	-110.25
270.619	-114.34
270.835	297.3
271.051	270.67
271.267	-186.02
271.483	-226.98
271.698	362.83
271.914	239.95
272.13	-83.63
272.346	-97.96
272.562	270.67
272.777	479.57
272.993	-11.95
273.209	-149.16
273.425	321.87
273.64	18.77
273.856	-93.87
274.072	-220.84
274.287	151.89
274.503	248.15
274.719	-71.34
274.934	-188.07
275.15	-28.33
275.366	244.05
275.581	-181.93
275.797	-54.95
276.012	268.63
276.228	190.8
276.444	-54.95
276.659	31.06
276.875	133.46
277.09	186.71
277.306	-57
277.521	-1.71
277.737	137.56
277.952	139.6
278.168	-95.91
278.383	-50.86
278.599	131.41
278.814	246.1
279.03	-167.59
279.245	-40.62
279.461	182.61
279.676	235.86
279.892	-120.49
280.107	-40.62
280.322	84.31
280.538	321.87
280.753	-136.87
280.969	-104.11
281.184	211.28
281.399	328.02
281.615	-22.19
281.83	92.5
282.045	10.58
282.26	168.27
282.476	-118.44
282.691	90.45
282.906	272.72
283.122	33.11
283.337	-114.34
283.552	-38.57
283.767	166.23
283.983	250.19
284.198	-30.38
284.413	-54.95
284.628	123.22
284.843	196.95
285.058	-75.43
285.274	-73.39
285.489	248.15
285.704	149.84
285.919	-79.53
286.134	-11.95
286.349	74.07
286.564	112.98
286.779	-1.71
286.995	-95.91
287.21	-38.57
287.425	231.76
287.64	-124.58
287.855	100.69
288.07	39.25
288.285	293.2
288.5	-40.62
288.715	-81.58
288.93	131.41
289.145	166.23
289.36	-69.29
289.575	-26.28
289.79	325.97
290.004	88.4
290.219	2.39
290.434	-38.57
290.649	149.84
290.864	133.46
291.079	-40.62
291.294	-34.47
291.509	321.87
291.724	117.08
291.938	-54.95
292.153	-106.15
292.368	276.82
292.583	297.3
292.798	26.96
293.012	-16.04
293.227	219.47
293.442	184.66
293.657	6.49
293.871	0.34
294.086	246.1
294.301	229.71
294.516	47.44
294.73	108.88
294.945	174.42
295.16	196.95
295.374	-40.62
295.589	-7.85
295.804	133.46
296.018	188.75
296.233	-97.96
296.447	24.92
296.662	145.75
296.877	409.94
297.091	-36.52
297.306	-38.57
297.52	125.27
297.735	264.53
297.949	-5.8
298.164	-175.78
298.378	211.28
298.593	29.01
298.807	-38.57
299.022	-32.43
299.236	297.3
299.451	84.31
299.665	2.39
299.88	31.06
300.094	287.06
300.309	182.61
300.523	-106.15
300.737	-57
300.952	285.01
301.166	325.97
301.381	-63.15
301.595	-163.5
301.809	207.19
302.024	158.03
302.238	-42.67
302.452	98.64
302.667	248.15
302.881	321.87
303.095	-30.38
303.309	55.64
303.524	141.65
303.738	198.99
303.952	31.06
304.166	-5.8
304.381	-87.72
304.595	260.43
304.809	-104.11
305.023	-79.53
305.237	115.03
305.452	76.12
305.666	-122.54
305.88	2.39
306.094	260.43
306.308	106.84
306.522	-120.49
306.736	-9.9
306.95	190.8
307.164	125.27
307.379	57.68
307.593	-1.71
307.807	233.81
308.021	252.24
308.235	82.26
308.449	-136.87
308.663	121.17
308.877	608.59
309.091	35.16
309.305	121.17
309.519	-79.53
309.733	227.67
309.947	-30.38
310.161	-50.86
310.374	133.46
310.588	260.43
310.802	-136.87
311.016	-73.39
311.23	215.38
311.444	76.12
311.658	51.54
311.872	158.03
312.085	313.68
312.299	350.54
312.513	141.65
312.727	-112.3
312.941	108.88
313.154	211.28
313.368	-16.04
313.582	-75.43
313.796	278.87
314.009	233.81
314.223	74.07
314.437	63.83
314.651	211.28
314.864	158.03
315.078	-16.04
315.292	-120.49
315.505	141.65
315.719	158.03
315.933	26.96
316.146	-136.87
316.36	59.73
316.573	235.86
316.787	242
317.001	26.96
317.214	143.7
317.428	248.15
317.641	-194.22
317.855	-13.99
318.068	246.1
318.282	227.67
318.495	125.27
318.709	-57
318.922	133.46
319.136	330.06
319.349	53.59
319.563	-140.97
319.776	272.72
319.99	-42.67
320.203	-34.47
320.417	-48.81
320.63	215.38
320.843	272.72
321.057	65.88
321.27	-7.85
321.483	315.73
321.697	258.39
321.91	-145.06
322.124	-3.75
322.337	205.14
322.55	49.49
322.763	-69.29
322.977	-120.49
323.19	90.45
323.403	123.22
323.617	-18.09
323.83	203.09
324.043	192.85
324.256	117.08
324.469	-259.75
324.683	72.02
324.896	211.28
325.109	98.64
325.322	-147.11
325.535	-9.9
325.748	356.69
325.962	194.9
326.175	10.58
326.388	-145.06
326.601	266.58
326.814	39.25
327.027	14.68
327.24	88.4
327.453	69.97
327.666	289.1
327.879	139.6
328.092	0.34
328.305	305.49
328.518	80.21
328.731	-46.76
328.944	-71.34
329.157	121.17
329.37	125.27
329.583	108.88
329.796	29.01
330.009	-42.67
330.222	346.45
330.435	72.02
330.648	0.34
330.861	264.53
331.073	131.41
331.286	121.17
331.499	-46.76
331.712	215.38
331.925	178.51
332.138	-1.71
332.35	0.34
332.563	168.27
332.776	311.63
332.989	0.34
333.202	-149.16
333.414	278.87
333.627	123.22
333.84	-161.45
334.053	72.02
334.265	74.07
334.478	100.69
334.691	-63.15
334.903	67.92
335.116	141.65
335.329	153.94
335.541	43.35
335.754	213.33
335.966	190.8
336.179	186.71
336.392	43.35
336.604	18.77
336.817	186.71
337.029	244.05
337.242	-85.67
337.454	76.12
337.667	252.24
337.88	227.67
338.092	108.88
338.305	117.08
338.517	117.08
338.729	174.42
338.942	-24.23
339.154	-100.01
339.367	106.84
339.579	248.15
339.792	-194.22
340.004	18.77
340.217	201.04
340.429	223.57
340.641	-87.72
340.854	-112.3
341.066	198.99
341.278	219.47
341.491	106.84
341.703	-48.81
341.915	100.69
342.128	354.64
342.34	-32.43
342.552	-108.2
342.764	248.15
342.977	166.23
343.189	-5.8
343.401	82.26
343.613	4.44
343.826	172.37
344.038	-36.52
344.25	53.59
344.462	92.5
344.674	190.8
344.886	-147.11
345.099	-3.75
345.311	237.91
345.523	129.36
345.735	-143.02
345.947	22.87
346.159	172.37
346.371	186.71
346.583	-22.19
346.795	55.64
347.007	67.92
347.219	221.52
347.431	22.87
347.643	147.8
347.855	133.46
348.067	340.3
348.279	-30.38
348.491	-63.15
348.703	319.82
348.915	123.22
349.127	-22.19
349.339	2.39
349.551	188.75
349.763	368.98
349.975	-5.8
350.187	10.58
350.399	411.98
350.61	223.57
350.822	-1.71
351.034	-63.15
351.246	342.35
351.458	192.85
351.669	-18.09
351.881	2.39
352.093	452.94
352.305	217.43
352.517	-65.19
352.728	41.3
352.94	100.69
353.152	338.26
353.363	-65.19
353.575	2.39
353.787	506.19
353.999	272.72
354.21	88.4
354.422	-132.78
354.633	198.99
354.845	188.75
355.057	100.69
355.268	2.39
355.48	315.73
355.692	100.69
355.903	-1.71
356.115	-100.01
356.326	-9.9
356.538	387.41
356.749	-63.15
356.961	63.83
357.172	201.04
357.384	57.68
357.595	178.51
357.807	0.34
358.018	129.36
358.23	285.01
358.441	-134.82
358.653	-67.24
358.864	201.04
359.075	59.73
359.287	-79.53
359.498	-32.43
359.709	297.3
359.921	258.39
360.132	-1.71
360.344	-165.54
360.555	139.6
360.766	301.39
360.977	-65.19
361.189	76.12
361.4	145.75
361.611	340.3
361.823	39.25
362.034	-24.23
362.245	-22.19
362.456	184.66
362.667	59.73
362.879	-128.68
363.09	272.72
363.301	278.87
363.512	-48.81
363.723	-87.72
363.935	158.03
364.146	260.43
364.357	-9.9
364.568	-50.86
364.779	-32.43
364.99	276.82
365.201	0.34
365.412	92.5
365.623	31.06
365.834	272.72
366.045	65.88
366.256	-18.09
366.467	278.87
366.678	213.33
366.889	-22.19
367.1	-42.67
367.311	366.93
367.522	57.68
367.733	55.64
367.944	0.34
368.155	172.37
368.366	223.57
368.577	-30.38
368.788	74.07
368.999	112.98
369.209	145.75
369.42	100.69
369.631	344.4
369.842	270.67
370.053	180.56
370.264	-79.53
370.474	-54.95
370.685	295.25
370.896	162.13
371.107	74.07
371.317	-18.09
371.528	227.67
371.739	328.02
371.95	-7.85
372.16	14.68
372.371	-34.47
372.582	174.42
372.792	-16.04
373.003	131.41
373.214	166.23
373.424	106.84
373.635	-24.23
373.846	141.65
374.056	229.71
374.267	215.38
374.477	33.11
374.688	39.25
374.898	264.53
375.109	94.55
375.319	67.92
375.53	55.64
375.74	354.64
375.951	176.47
376.161	8.53
376.372	24.92
376.582	182.61
376.793	244.05
377.003	-18.09
377.214	-38.57
377.424	276.82
377.635	188.75
377.845	-24.23
378.055	72.02
378.266	43.35
378.476	182.61
378.686	22.87
378.897	-11.95
379.107	395.6
379.317	311.63
379.528	-97.96
379.738	76.12
379.948	76.12
380.158	297.3
380.369	-38.57
380.579	106.84
380.789	215.38
380.999	182.61
381.21	174.42
381.42	164.18
381.63	106.84
381.84	256.34
382.05	72.02
382.261	65.88
382.471	338.26
382.681	174.42
382.891	39.25
383.101	112.98
383.311	63.83
383.521	100.69
383.731	10.58
383.941	190.8
384.151	227.67
384.361	84.31
384.571	-30.38
384.781	29.01
384.991	282.96
385.201	387.41
385.411	207.19
385.621	63.83
385.831	289.1
386.041	188.75
386.251	49.49
386.461	106.84
386.671	287.06
386.881	215.38
387.091	-5.8
387.301	158.03
387.511	182.61
387.72	160.08
387.93	76.12
388.14	-57
388.35	235.86
388.56	338.26
388.769	49.49
388.979	8.53
389.189	33.11
389.399	98.64
389.609	-30.38
389.818	31.06
390.028	235.86
390.238	256.34
390.447	-130.73
390.657	-5.8
390.867	229.71
391.076	-32.43
391.286	-13.99
391.496	-50.86
391.705	332.11
391.915	362.83
392.125	-73.39
392.334	-28.33
392.544	362.83
392.753	207.19
392.963	2.39
393.172	-48.81
393.382	201.04
393.591	305.49
393.801	-38.57
394.01	61.78
394.22	246.1
394.429	237.91
394.639	76.12
394.848	80.21
395.058	239.95
395.267	198.99
395.477	49.49
395.686	59.73
395.895	565.58
396.105	330.06
396.314	84.31
396.524	8.53
396.733	133.46
396.942	338.26
397.152	26.96
397.361	180.56
397.57	231.76
397.78	104.79
397.989	112.98
398.198	188.75
398.407	57.68
398.617	172.37
398.826	63.83
399.035	12.63
399.244	223.57
399.453	162.13
399.663	-65.19
399.872	-147.11
400.081	63.83
400.29	295.25
400.499	-52.91
400.708	94.55
400.917	178.51
401.127	207.19
401.336	-40.62
401.545	276.82
401.754	268.63
401.963	280.91
402.172	80.21
402.381	-112.3
402.59	166.23
402.799	141.65
403.008	76.12
403.217	90.45
403.426	239.95
403.635	-26.28
403.844	-63.15
404.053	-26.28
404.262	299.34
404.471	334.16
404.68	47.44
404.888	33.11
405.097	174.42
405.306	180.56
405.515	26.96
405.724	-7.85
405.933	256.34
406.142	305.49
406.35	-24.23
406.559	-5.8
406.768	190.8
406.977	469.33
407.185	10.58
407.394	80.21
407.603	80.21
407.812	215.38
408.02	76.12
408.229	-16.04
408.438	272.72
408.646	0.34
408.855	-11.95
409.064	14.68
409.272	178.51
409.481	149.84
409.69	22.87
409.898	-54.95
410.107	211.28
410.315	287.06
410.524	37.2
410.733	-42.67
410.941	285.01
411.15	354.64
411.358	166.23
411.567	184.66
411.775	256.34
411.984	192.85
412.192	135.51
412.401	-46.76
412.609	477.52
412.818	301.39
413.026	102.74
413.234	14.68
413.443	256.34
413.651	6.49
413.86	-190.12
414.068	198.99
414.276	426.32
414.485	178.51
414.693	92.5
414.901	125.27
415.11	266.58
415.318	229.71
415.526	41.3
415.734	145.75
415.943	215.38
416.151	342.35
416.359	-13.99
416.567	74.07
416.776	264.53
416.984	178.51
417.192	78.16
417.4	18.77
417.608	98.64
417.817	59.73
418.025	155.99
418.233	43.35
418.441	190.8
418.649	65.88
418.857	74.07
419.065	-1.71
419.273	141.65
419.481	231.76
419.689	55.64
419.897	10.58
420.105	190.8
420.313	350.54
420.521	94.55
420.729	94.55
420.937	172.37
421.145	76.12
421.353	102.74
421.561	186.71
421.769	309.58
421.977	164.18
422.185	125.27
422.393	129.36
422.601	209.23
422.809	303.44
423.017	98.64
423.224	-1.71
423.432	416.08
423.64	188.75
423.848	10.58
424.056	8.53
424.263	459.09
424.471	260.43
424.679	180.56
424.887	-13.99
425.094	444.75
425.302	280.91
425.51	-50.86
425.718	51.54
425.925	256.34
426.133	121.17
426.341	151.89
426.548	35.16
426.756	215.38
426.964	364.88
427.171	59.73
427.379	35.16
427.586	285.01
427.794	287.06
428.001	139.6
428.209	147.8
428.417	366.93
428.624	399.7
428.832	94.55
429.039	235.86
429.247	256.34
429.454	252.24
429.662	174.42
429.869	82.26
430.076	338.26
430.284	231.76
430.491	96.6
430.699	84.31
430.906	428.37
431.114	360.78
431.321	215.38
431.528	264.53
431.736	387.41
431.943	489.81
432.15	149.84
432.358	108.88
432.565	502.09
432.772	155.99
432.979	248.15
433.187	219.47
433.394	547.15
433.601	278.87
433.808	207.19
434.016	280.91
434.223	407.89
434.43	383.31
434.637	131.41
434.844	414.03
435.052	403.79
435.259	407.89
435.466	336.21
435.673	334.16
435.88	631.12
436.087	592.2
436.294	551.24
436.501	371.02
436.708	575.82
436.915	571.72
437.122	510.29
437.329	305.49
437.537	510.29
437.743	581.96
437.95	442.7
438.157	498
438.364	676.17
438.571	592.2
438.778	508.24
438.985	567.63
439.192	745.8
439.399	649.55
439.606	584.01
439.813	706.89
440.02	975.17
440.227	1073.48
440.433	577.87
440.64	690.51
440.847	835.91
441.054	889.16
441.261	788.81
441.467	764.23
441.674	913.74
441.881	1196.36
442.088	936.26
442.294	960.84
442.501	1233.22
442.708	1278.27
442.914	1091.91
443.121	1073.48
443.328	1354.05
443.534	1431.87
443.741	1143.11
443.948	1132.87
444.154	1507.65
444.361	1685.82
444.568	1261.89
444.774	1362.24
444.981	1360.19
445.187	1763.64
445.394	1724.73
445.6	1583.42
445.807	1954.1
446.013	1788.22
446.22	1632.57
446.426	1976.63
446.633	2242.87
446.839	2386.22
447.046	1945.91
447.252	2230.58
447.459	2365.75
447.665	2363.7
447.871	2298.16
448.078	2761
448.284	2738.48
448.491	2939.18
448.697	2754.86
448.903	2840.87
449.11	3205.41
449.316	3141.93
449.522	3279.14
449.728	3313.95
449.935	3606.81
450.141	3537.18
450.347	3754.27
450.553	3627.29
450.76	3981.59
450.966	4045.08
451.172	4315.41
451.378	4258.07
451.584	4413.71
451.791	4890.89
451.997	4825.36
452.203	4981
452.409	5345.54
452.615	5460.23
452.821	5048.58
453.027	5329.16
453.233	6310.13
453.44	5878.01
453.646	6121.72
453.852	6396.15
454.058	6668.53
454.264	6897.9
454.47	7176.42
454.676	7272.68
454.882	8075.48
455.088	7753.95
455.294	8052.95
455.5	8585.43
455.705	9121.99
455.911	9185.48
456.117	9103.56
456.323	9502.92
456.529	9789.63
456.735	10729.65
456.941	10377.4
457.147	10969.26
457.352	11505.83
457.558	11839.65
457.764	12146.84
457.97	12581.01
458.176	13346.95
458.381	14071.93
458.587	14325.88
458.793	14913.65
458.999	14850.16
459.204	16695.38
459.41	17213.52
459.616	16797.78
