Data from USB4F104151__2__09-13-53-425.txt Node

Date: Wed Feb 26 09:13:53 EST 2025
User: louis
Spectrometer: USB4F10415
Trigger mode: 4
Integration Time (sec): 4.000000E-1
Scans to average: 1
Electric dark correction enabled: true
Nonlinearity correction enabled: false
Boxcar width: 0
XAxis mode: Wavelengths
Number of Pixels in Spectrum: 3648
>>>>>Begin Spectral Data<<<<<
178.204	-897.18
178.424	-897.18
178.644	-897.18
178.864	-856.22
179.084	-860.32
179.304	223.06
179.524	159.57
179.744	-59.56
179.964	-252.07
180.184	298.83
180.404	216.91
180.624	-305.32
180.844	-161.96
181.064	46.93
181.283	233.3
181.503	-192.68
181.723	-207.02
181.943	-51.37
182.163	427.85
182.383	-305.32
182.602	-286.89
182.822	456.53
183.042	333.65
183.262	-260.26
183.482	-174.25
183.701	290.64
183.921	380.75
184.141	-243.88
184.361	-151.72
184.58	270.16
184.8	270.16
185.02	-274.6
185.239	-45.23
185.459	407.38
185.679	491.34
185.898	-321.7
186.118	-342.18
186.338	341.84
186.557	382.8
186.777	-288.93
186.997	-223.4
187.216	243.54
187.436	517.97
187.655	-202.92
187.875	-59.56
188.095	304.98
188.314	431.95
188.534	-145.58
188.753	-317.61
188.973	280.4
189.192	511.82
189.412	-256.17
189.631	-217.26
189.851	390.99
190.07	563.02
190.29	-250.02
190.509	-317.61
190.729	218.96
190.948	477.01
191.168	-108.71
191.387	-239.78
191.607	259.92
191.826	345.94
192.045	-266.41
192.265	-141.48
192.484	390.99
192.704	327.5
192.923	-133.29
193.142	-125.1
193.362	350.03
193.581	311.12
193.8	-190.63
194.02	-198.82
194.239	292.69
194.458	378.7
194.678	-186.54
194.897	-258.21
195.116	358.22
195.335	358.22
195.555	-256.17
195.774	-293.03
195.993	450.38
196.212	223.06
196.432	-127.14
196.651	-336.04
196.87	278.35
197.089	646.99
197.308	-235.69
197.528	-213.16
197.747	63.32
197.966	407.38
198.185	-90.28
198.404	-288.93
198.623	380.75
198.842	388.94
199.062	-161.96
199.281	-100.52
199.5	268.11
199.719	378.7
199.938	-225.45
200.157	-225.45
200.376	517.97
200.595	517.97
200.814	-116.9
201.033	-231.59
201.252	581.45
201.471	282.45
201.69	-135.34
201.909	-159.91
202.128	290.64
202.347	309.07
202.566	-213.16
202.785	-303.27
203.004	218.96
203.223	448.33
203.442	-231.59
203.661	-299.17
203.879	317.26
204.098	409.42
204.317	-272.55
204.536	-43.18
204.755	419.66
204.974	380.75
205.193	-331.94
205.411	-92.33
205.63	477.01
205.849	335.7
206.068	-215.21
206.287	-319.65
206.505	487.25
206.724	358.22
206.943	-317.61
207.162	-247.97
207.381	290.64
207.599	266.07
207.818	-190.63
208.037	-284.84
208.255	276.31
208.474	259.92
208.693	-184.49
208.911	-145.58
209.13	343.89
209.349	378.7
209.567	-133.29
209.786	-233.64
210.005	429.9
210.223	159.57
210.442	-420
210.661	-301.22
210.879	325.46
211.098	323.41
211.316	-198.82
211.535	-192.68
211.753	339.79
211.972	399.18
212.191	-178.34
212.409	-186.54
212.628	448.33
212.846	204.63
213.065	-348.33
213.283	-159.91
213.502	212.82
213.72	325.46
213.938	-202.92
214.157	-194.73
214.375	413.52
214.594	221.01
214.812	-180.39
215.031	-262.31
215.249	233.3
215.467	298.83
215.686	-96.43
215.904	-258.21
216.122	313.17
216.341	401.23
216.559	-67.75
216.778	-59.56
216.996	462.67
217.214	268.11
217.432	-166.06
217.651	-293.03
217.869	278.35
218.087	304.98
218.306	-260.26
218.524	-166.06
218.742	274.26
218.96	479.05
219.179	-233.64
219.397	-247.97
219.615	474.96
219.833	296.78
220.051	-256.17
220.27	-123.05
220.488	429.9
220.706	341.84
220.924	-336.04
221.142	-227.5
221.36	347.98
221.578	331.6
221.796	-180.39
222.015	-80.04
222.233	325.46
222.451	440.14
222.669	-141.48
222.887	-129.19
223.105	178
223.323	227.15
223.541	-118.95
223.759	-157.86
223.977	276.31
224.195	479.05
224.413	-176.3
224.631	-166.06
224.849	270.16
225.067	536.4
225.285	-94.38
225.503	-202.92
225.721	-41.13
225.939	290.64
226.157	-198.82
226.375	63.32
226.592	192.34
226.81	225.11
227.028	-88.23
227.246	-231.59
227.464	300.88
227.682	300.88
227.9	-141.48
228.117	-129.19
228.335	300.88
228.553	276.31
228.771	-288.93
228.989	-157.86
229.206	370.51
229.424	202.58
229.642	-178.34
229.86	-129.19
230.077	458.57
230.295	175.95
230.513	22.36
230.731	-198.82
230.948	372.56
231.166	411.47
231.384	-129.19
231.601	-233.64
231.819	493.39
232.037	167.76
232.254	-192.68
232.472	-207.02
232.689	180.05
232.907	413.52
233.125	-340.13
233.342	-270.5
233.56	229.2
233.777	112.47
233.995	-221.35
234.213	-192.68
234.43	376.66
234.648	286.54
234.865	-184.49
235.083	-168.1
235.3	223.06
235.518	300.88
235.735	-110.76
235.953	-112.81
236.17	350.03
236.388	153.43
236.605	-84.14
236.822	-174.25
237.04	374.61
237.257	253.78
237.475	-157.86
237.692	-186.54
237.909	358.22
238.127	171.86
238.344	-28.84
238.562	-188.58
238.779	192.34
238.996	120.66
239.214	-53.42
239.431	-94.38
239.648	190.29
239.865	304.98
240.083	-102.57
240.3	-272.55
240.517	259.92
240.735	235.35
240.952	91.99
241.169	-227.5
241.386	307.02
241.603	206.67
241.821	-159.91
242.038	-135.34
242.255	499.53
242.472	143.19
242.689	-157.86
242.907	-235.69
243.124	229.2
243.341	321.36
243.558	-84.14
243.775	-170.15
243.992	91.99
244.209	284.5
244.426	-39.08
244.643	-114.86
244.86	296.78
245.078	350.03
245.295	-131.24
245.512	-245.93
245.729	145.24
245.946	296.78
246.163	-157.86
246.38	-204.97
246.597	186.19
246.814	229.2
247.031	-159.91
247.248	-254.12
247.464	382.8
247.681	202.58
247.898	-159.91
248.115	-106.67
248.332	135
248.549	413.52
248.766	-28.84
248.983	-225.45
249.2	364.37
249.417	446.29
249.633	-151.72
249.85	-24.75
250.067	198.48
250.284	216.91
250.501	-239.78
250.717	-200.87
250.934	137.04
251.151	198.48
251.368	-114.86
251.585	-133.29
251.801	264.02
252.018	180.05
252.235	-82.09
252.451	-194.73
252.668	241.49
252.885	405.33
253.102	-174.25
253.318	-207.02
253.535	171.86
253.752	141.14
253.968	-188.58
254.185	-274.6
254.401	296.78
254.618	345.94
254.835	-96.43
255.051	-129.19
255.268	444.24
255.484	276.31
255.701	-100.52
255.917	-88.23
256.134	190.29
256.351	247.63
256.567	-264.36
256.784	-8.36
257	159.57
257.217	380.75
257.433	-10.41
257.65	-182.44
257.866	427.85
258.082	104.28
258.299	-176.3
258.515	-96.43
258.732	290.64
258.948	104.28
259.165	-100.52
259.381	-252.07
259.597	440.14
259.814	218.96
260.03	-202.92
260.246	-116.9
260.463	415.57
260.679	284.5
260.895	-34.99
261.112	-84.14
261.328	251.73
261.544	128.85
261.761	-110.76
261.977	-137.38
262.193	61.27
262.409	362.32
262.626	-10.41
262.842	-149.67
263.058	276.31
263.274	444.24
263.49	-75.95
263.707	-215.21
263.923	354.13
264.139	3.93
264.355	-75.95
264.571	-6.31
264.787	382.8
265.004	313.17
265.22	-88.23
265.436	-112.81
265.652	229.2
265.868	309.07
266.084	-145.58
266.3	-174.25
266.516	96.08
266.732	300.88
266.948	-43.18
267.164	-280.74
267.38	345.94
267.596	409.42
267.812	12.12
268.028	-139.43
268.244	194.39
268.46	239.44
268.676	-112.81
268.892	-69.8
269.108	102.23
269.324	175.95
269.54	-80.04
269.756	-164.01
269.972	112.47
270.188	259.92
270.403	-125.1
270.619	-196.78
270.835	196.43
271.051	235.35
271.267	-157.86
271.483	-237.74
271.698	321.36
271.914	419.66
272.13	-73.9
272.346	-141.48
272.562	214.87
272.777	411.47
272.993	-104.62
273.209	-157.86
273.425	302.93
273.64	79.7
273.856	-215.21
274.072	-266.41
274.287	165.71
274.503	296.78
274.719	5.97
274.934	-278.69
275.15	28.5
275.366	186.19
275.581	-188.58
275.797	-114.86
276.012	233.3
276.228	175.95
276.444	-94.38
276.659	38.74
276.875	87.89
277.09	79.7
277.306	-149.67
277.521	-57.51
277.737	173.91
277.952	143.19
278.168	-104.62
278.383	32.6
278.599	171.86
278.814	208.72
279.03	-217.26
279.245	-59.56
279.461	233.3
279.676	290.64
279.892	-102.57
280.107	-147.62
280.322	159.57
280.538	337.74
280.753	-135.34
280.969	-145.58
281.184	268.11
281.399	317.26
281.615	-63.66
281.83	38.74
282.045	12.12
282.26	63.32
282.476	-102.57
282.691	67.41
282.906	274.26
283.122	122.71
283.337	-80.04
283.552	32.6
283.767	116.56
283.983	229.2
284.198	-98.47
284.413	-121
284.628	91.99
284.843	169.81
285.058	-10.41
285.274	-108.71
285.489	85.84
285.704	153.43
285.919	-55.47
286.134	5.97
286.349	231.25
286.564	202.58
286.779	18.26
286.995	-47.27
287.21	-34.99
287.425	186.19
287.64	-96.43
287.855	10.07
288.07	-28.84
288.285	251.73
288.5	-4.27
288.715	-67.75
288.93	141.14
289.145	130.9
289.36	-118.95
289.575	14.17
289.79	292.69
290.004	112.47
290.219	5.97
290.434	-104.62
290.649	120.66
290.864	175.95
291.079	-116.9
291.294	-77.99
291.509	261.97
291.724	143.19
291.938	-73.9
292.153	-108.71
292.368	249.68
292.583	259.92
292.798	-37.03
293.012	-32.94
293.227	333.65
293.442	132.95
293.657	-12.46
293.871	-77.99
294.086	321.36
294.301	286.54
294.516	-20.65
294.73	104.28
294.945	143.19
295.16	178
295.374	-67.75
295.589	65.36
295.804	130.9
296.018	143.19
296.233	-151.72
296.447	-0.17
296.662	96.08
296.877	368.46
297.091	-86.19
297.306	-10.41
297.52	112.47
297.735	309.07
297.949	46.93
298.164	-229.54
298.378	163.67
298.593	8.02
298.807	-84.14
299.022	-39.08
299.236	280.4
299.451	16.21
299.665	-10.41
299.88	67.41
300.094	304.98
300.309	137.04
300.523	-26.79
300.737	-75.95
300.952	368.46
301.166	339.79
301.381	-104.62
301.595	-108.71
301.809	157.52
302.024	110.42
302.238	-96.43
302.452	20.31
302.667	184.15
302.881	274.26
303.095	5.97
303.309	5.97
303.524	96.08
303.738	227.15
303.952	-43.18
304.166	5.97
304.381	-16.55
304.595	270.16
304.809	5.97
305.023	-194.73
305.237	102.23
305.452	100.18
305.666	-86.19
305.88	18.26
306.094	231.25
306.308	247.63
306.522	-69.8
306.736	14.17
306.95	364.37
307.164	3.93
307.379	61.27
307.593	-43.18
307.807	259.92
308.021	225.11
308.235	192.34
308.449	-151.72
308.663	235.35
308.877	552.78
309.091	-73.9
309.305	98.13
309.519	1.88
309.733	331.6
309.947	-10.41
310.161	-125.1
310.374	153.43
310.588	276.31
310.802	-161.96
311.016	-139.43
311.23	218.96
311.444	73.56
311.658	-51.37
311.872	153.43
312.085	296.78
312.299	331.6
312.513	165.71
312.727	-121
312.941	163.67
313.154	110.42
313.368	-53.42
313.582	-96.43
313.796	235.35
314.009	132.95
314.223	159.57
314.437	10.07
314.651	227.15
314.864	137.04
315.078	-77.99
315.292	-80.04
315.505	153.43
315.719	132.95
315.933	81.75
316.146	-198.82
316.36	153.43
316.573	186.19
316.787	116.56
317.001	-61.61
317.214	46.93
317.428	225.11
317.641	-131.24
317.855	-71.85
318.068	237.39
318.282	169.81
318.495	55.12
318.709	-84.14
318.922	272.21
319.136	300.88
319.349	-2.22
319.563	-51.37
319.776	276.31
319.99	-75.95
320.203	-102.57
320.417	-51.37
320.63	112.47
320.843	233.3
321.057	79.7
321.27	-49.32
321.483	311.12
321.697	204.63
321.91	-80.04
322.124	38.74
322.337	151.38
322.55	87.89
322.763	-121
322.977	-53.42
323.19	61.27
323.403	63.32
323.617	-18.6
323.83	167.76
324.043	206.67
324.256	122.71
324.469	-231.59
324.683	94.04
324.896	218.96
325.109	178
325.322	-100.52
325.535	-43.18
325.748	315.22
325.962	218.96
326.175	-20.65
326.388	-77.99
326.601	255.83
326.814	116.56
327.027	44.88
327.24	20.31
327.453	34.64
327.666	241.49
327.879	178
328.092	-55.47
328.305	337.74
328.518	96.08
328.731	-30.89
328.944	-192.68
329.157	139.09
329.37	44.88
329.583	22.36
329.796	-22.7
330.009	-57.51
330.222	288.59
330.435	-18.6
330.648	26.45
330.861	233.3
331.073	210.77
331.286	38.74
331.499	16.21
331.712	141.14
331.925	128.85
332.138	-30.89
332.35	-114.86
332.563	141.14
332.776	323.41
332.989	24.4
333.202	-149.67
333.414	178
333.627	128.85
333.84	-100.52
334.053	-57.51
334.265	51.03
334.478	63.32
334.691	-39.08
334.903	69.46
335.116	151.38
335.329	155.47
335.541	30.55
335.754	196.43
335.966	218.96
336.179	196.43
336.392	1.88
336.604	-10.41
336.817	178
337.029	190.29
337.242	-88.23
337.454	98.13
337.667	196.43
337.88	251.73
338.092	-18.6
338.305	46.93
338.517	79.7
338.729	204.63
338.942	55.12
339.154	-133.29
339.367	102.23
339.579	235.35
339.792	-186.54
340.004	-47.27
340.217	188.24
340.429	325.46
340.641	-39.08
340.854	-196.78
341.066	173.91
341.278	319.31
341.491	153.43
341.703	-10.41
341.915	67.41
342.128	399.18
342.34	3.93
342.552	-151.72
342.764	231.25
342.977	161.62
343.189	-14.51
343.401	34.64
343.613	20.31
343.826	132.95
344.038	-28.84
344.25	-45.23
344.462	87.89
344.674	175.95
344.886	-125.1
345.099	-2.22
345.311	264.02
345.523	157.52
345.735	-143.53
345.947	67.41
346.159	231.25
346.371	241.49
346.583	1.88
346.795	42.84
347.007	114.52
347.219	255.83
347.431	40.79
347.643	137.04
347.855	149.33
348.067	276.31
348.279	-20.65
348.491	-67.75
348.703	388.94
348.915	173.91
349.127	-110.76
349.339	1.88
349.551	108.37
349.763	434
349.975	-63.66
350.187	-10.41
350.399	345.94
350.61	75.6
350.822	-65.71
351.034	-12.46
351.246	350.03
351.458	147.28
351.669	-2.22
351.881	-6.31
352.093	382.8
352.305	284.5
352.517	-86.19
352.728	67.41
352.94	153.43
353.152	231.25
353.363	-75.95
353.575	42.84
353.787	407.38
353.999	210.77
354.21	198.48
354.422	-100.52
354.633	198.48
354.845	167.76
355.057	20.31
355.268	14.17
355.48	333.65
355.692	-10.41
355.903	3.93
356.115	-47.27
356.326	-59.56
356.538	405.33
356.749	-34.99
356.961	180.05
357.172	194.39
357.384	14.17
357.595	202.58
357.807	-71.85
358.018	128.85
358.23	186.19
358.441	-77.99
358.653	-26.79
358.864	128.85
359.075	3.93
359.287	3.93
359.498	26.45
359.709	249.68
359.921	233.3
360.132	44.88
360.344	-178.34
360.555	59.22
360.766	227.15
360.977	-82.09
361.189	67.41
361.4	251.73
361.611	257.87
361.823	18.26
362.034	-82.09
362.245	-39.08
362.456	145.24
362.667	22.36
362.879	-96.43
363.09	280.4
363.301	251.73
363.512	-51.37
363.723	-53.42
363.935	210.77
364.146	233.3
364.357	-51.37
364.568	-43.18
364.779	-20.65
364.99	292.69
365.201	-14.51
365.412	18.26
365.623	-61.61
365.834	227.15
366.045	132.95
366.256	38.74
366.467	276.31
366.678	83.8
366.889	-12.46
367.1	-51.37
367.311	309.07
367.522	145.24
367.733	77.65
367.944	36.69
368.155	229.2
368.366	280.4
368.577	-80.04
368.788	69.46
368.999	91.99
369.209	98.13
369.42	34.64
369.631	286.54
369.842	227.15
370.053	192.34
370.264	-75.95
370.474	-137.38
370.685	350.03
370.896	124.76
371.107	38.74
371.317	-47.27
371.528	153.43
371.739	352.08
371.95	12.12
372.16	-0.17
372.371	18.26
372.582	208.72
372.792	-135.34
373.003	153.43
373.214	249.68
373.424	235.35
373.635	-86.19
373.846	98.13
374.056	194.39
374.267	141.14
374.477	63.32
374.688	53.08
374.898	241.49
375.109	155.47
375.319	12.12
375.53	-55.47
375.74	257.87
375.951	5.97
376.161	98.13
376.372	5.97
376.582	153.43
376.793	208.72
377.003	26.45
377.214	-61.61
377.424	276.31
377.635	278.35
377.845	-32.94
378.055	132.95
378.266	-14.51
378.476	218.96
378.686	30.55
378.897	-22.7
379.107	350.03
379.317	253.78
379.528	-250.02
379.738	-34.99
379.948	14.17
380.158	313.17
380.369	-45.23
380.579	5.97
380.789	120.66
380.999	223.06
381.21	75.6
381.42	180.05
381.63	132.95
381.84	284.5
382.05	14.17
382.261	87.89
382.471	327.5
382.681	87.89
382.891	55.12
383.101	120.66
383.311	110.42
383.521	227.15
383.731	-26.79
383.941	128.85
384.151	239.44
384.361	61.27
384.571	-43.18
384.781	16.21
384.991	128.85
385.201	415.57
385.411	186.19
385.621	-28.84
385.831	302.93
386.041	212.82
386.251	71.51
386.461	137.04
386.671	124.76
386.881	274.26
387.091	14.17
387.301	79.7
387.511	182.1
387.72	135
387.93	91.99
388.14	-82.09
388.35	128.85
388.56	415.57
388.769	-26.79
388.979	-98.47
389.189	145.24
389.399	190.29
389.609	-2.22
389.818	-28.84
390.028	257.87
390.238	227.15
390.447	-75.95
390.657	14.17
390.867	145.24
391.076	-24.75
391.286	-47.27
391.496	-67.75
391.705	94.04
391.915	417.61
392.125	-69.8
392.334	-51.37
392.544	284.5
392.753	210.77
392.963	51.03
393.172	5.97
393.382	200.53
393.591	378.7
393.801	-26.79
394.01	-28.84
394.22	264.02
394.429	145.24
394.639	48.98
394.848	36.69
395.058	274.26
395.267	214.87
395.477	96.08
395.686	-71.85
395.895	542.54
396.105	317.26
396.314	3.93
396.524	5.97
396.733	118.61
396.942	292.69
397.152	-37.03
397.361	110.42
397.57	192.34
397.78	194.39
397.989	55.12
398.198	216.91
398.407	159.57
398.617	149.33
398.826	-6.31
399.035	-69.8
399.244	153.43
399.453	196.43
399.663	-59.56
399.872	-92.33
400.081	108.37
400.29	261.97
400.499	-116.9
400.708	116.56
400.917	178
401.127	126.8
401.336	-10.41
401.545	274.26
401.754	325.46
401.963	259.92
402.172	-61.61
402.381	-94.38
402.59	235.35
402.799	157.52
403.008	132.95
403.217	44.88
403.426	268.11
403.635	14.17
403.844	-96.43
404.053	-73.9
404.262	221.01
404.471	198.48
404.68	36.69
404.888	36.69
405.097	128.85
405.306	249.68
405.515	5.97
405.724	-51.37
405.933	341.84
406.142	264.02
406.35	-53.42
406.559	32.6
406.768	180.05
406.977	397.14
407.185	36.69
407.394	38.74
407.603	57.17
407.812	198.48
408.02	171.86
408.229	51.03
408.438	200.53
408.646	24.4
408.855	-75.95
409.064	20.31
409.272	137.04
409.481	245.59
409.69	-75.95
409.898	-51.37
410.107	192.34
410.315	251.73
410.524	145.24
410.733	12.12
410.941	241.49
411.15	335.7
411.358	38.74
411.567	106.32
411.775	255.83
411.984	290.64
412.192	98.13
412.401	28.5
412.609	446.29
412.818	251.73
413.026	20.31
413.234	-34.99
413.443	255.83
413.651	96.08
413.86	-184.49
414.068	137.04
414.276	477.01
414.485	151.38
414.693	132.95
414.901	298.83
415.11	218.96
415.318	212.82
415.526	44.88
415.734	141.14
415.943	227.15
416.151	292.69
416.359	-61.61
416.567	28.5
416.776	313.17
416.984	223.06
417.192	130.9
417.4	24.4
417.608	42.84
417.817	130.9
418.025	143.19
418.233	-10.41
418.441	110.42
418.649	91.99
418.857	14.17
419.065	46.93
419.273	128.85
419.481	249.68
419.689	63.32
419.897	-49.32
420.105	-10.41
420.313	345.94
420.521	104.28
420.729	44.88
420.937	157.52
421.145	106.32
421.353	46.93
421.561	161.62
421.769	333.65
421.977	26.45
422.185	55.12
422.393	61.27
422.601	178
422.809	302.93
423.017	-18.6
423.224	38.74
423.432	407.38
423.64	290.64
423.848	-55.47
424.056	-20.65
424.263	380.75
424.471	233.3
424.679	200.53
424.887	-4.27
425.094	393.04
425.302	294.74
425.51	-116.9
425.718	51.03
425.925	223.06
426.133	85.84
426.341	241.49
426.548	10.07
426.756	173.91
426.964	282.45
427.171	22.36
427.379	-6.31
427.586	251.73
427.794	368.46
428.001	194.39
428.209	112.47
428.417	335.7
428.624	341.84
428.832	94.04
429.039	122.71
429.247	307.02
429.454	259.92
429.662	161.62
429.869	104.28
430.076	356.18
430.284	323.41
430.491	165.71
430.699	208.72
430.906	431.95
431.114	362.32
431.321	210.77
431.528	194.39
431.736	202.58
431.943	247.63
432.15	167.76
432.358	85.84
432.565	499.53
432.772	104.28
432.979	282.45
433.187	180.05
433.394	477.01
433.601	284.5
433.808	186.19
434.016	190.29
434.223	315.22
434.43	403.28
434.637	194.39
434.844	378.7
435.052	448.33
435.259	440.14
435.466	399.18
435.673	280.4
435.88	606.03
436.087	540.49
436.294	593.74
436.501	356.18
436.708	575.31
436.915	544.59
437.122	540.49
437.329	243.54
437.537	464.72
437.743	575.31
437.95	571.21
438.157	481.1
438.364	661.32
438.571	577.36
438.778	505.68
438.985	606.03
439.192	718.67
439.399	722.76
439.606	585.55
439.813	733
440.02	980.81
440.227	1089.35
440.433	634.7
440.64	661.32
440.847	792.39
441.054	788.3
441.261	726.86
441.467	761.67
441.674	962.37
441.881	1158.98
442.088	782.15
442.294	874.31
442.501	1218.37
442.708	1251.14
442.914	1032.01
443.121	1054.53
443.328	1343.3
443.534	1437.5
443.741	1126.21
443.948	1044.29
444.154	1558.33
444.361	1652.54
444.568	1421.12
444.774	1443.65
444.981	1453.89
445.187	1875.77
445.394	1685.31
445.6	1601.34
445.807	1996.6
446.013	1857.34
446.22	1533.76
446.426	1972.02
446.633	2070.33
446.839	2367.28
447.046	1904.44
447.252	2197.3
447.459	2422.58
447.665	2463.54
447.871	2328.37
448.078	2799.4
448.284	2760.49
448.491	2895.66
448.697	2828.07
448.903	2924.33
449.11	3215.14
449.316	3036.97
449.522	3194.66
449.728	3229.48
449.935	3618.59
450.141	3594.01
450.347	3776.28
450.553	3706.65
450.76	4091.67
450.966	4128.53
451.172	4134.68
451.378	4323.09
451.584	4501.26
451.791	4714.25
451.997	4804.36
452.203	4759.31
452.409	5289.73
452.615	5488.39
452.821	5175.05
453.027	5302.02
453.233	6231.8
453.44	6121.21
453.646	6027
453.852	6391.54
454.058	6657.78
454.264	7075.56
454.47	7083.75
454.676	7358.18
454.882	8203.99
455.088	7665.38
455.294	8001.24
455.5	8527.57
455.705	9131.72
455.911	9033.42
456.117	9133.77
456.323	9637.57
456.529	9768.64
456.735	10575.54
456.941	10266.3
457.147	11132.59
457.352	11566.76
457.558	11957.92
457.764	12361.37
457.97	12535.45
458.176	13536.9
458.381	13993.6
458.587	14110.33
458.793	14880.37
458.999	14868.08
459.204	16817.75
459.41	17221.2
459.616	16889.43
