Data from USB4F104151__29__12-35-30-821.txt Node

Date: Fri Mar 14 12:35:30 EDT 2025
User: louis
Spectrometer: USB4F10415
Trigger mode: 4
Integration Time (sec): 2.000000E-2
Scans to average: 1
Electric dark correction enabled: true
Nonlinearity correction enabled: false
Boxcar width: 0
XAxis mode: Wavelengths
Number of Pixels in Spectrum: 3648
>>>>>Begin Spectral Data<<<<<
178.204	-71.68
178.424	-71.68
178.644	-71.68
178.864	-100.35
179.084	-116.73
179.304	-36.86
179.524	2.05
179.744	-45.06
179.964	-12.29
180.184	-30.72
180.404	8.19
180.624	12.29
180.844	-43.01
181.064	-12.29
181.283	61.44
181.503	0
181.723	96.25
181.943	-10.24
182.163	0
182.383	-6.14
182.602	51.2
182.822	108.54
183.042	2.05
183.262	-32.77
183.482	-26.62
183.701	69.63
183.921	30.72
184.141	-32.77
184.361	81.92
184.58	28.67
184.8	-20.48
185.02	-26.62
185.239	18.43
185.459	67.58
185.679	-12.29
185.898	22.53
186.118	38.91
186.338	-40.96
186.557	51.2
186.777	-57.34
186.997	-22.53
187.216	-16.38
187.436	77.82
187.655	65.54
187.875	30.72
188.095	12.29
188.314	114.69
188.534	0
188.753	57.34
188.973	-10.24
189.192	34.82
189.412	-16.38
189.631	34.82
189.851	61.44
190.07	114.69
190.29	-18.43
190.509	-30.72
190.729	-14.34
190.948	131.07
191.168	71.68
191.387	43.01
191.607	24.58
191.826	38.91
192.045	10.24
192.265	65.54
192.484	4.1
192.704	43.01
192.923	-18.43
193.142	79.87
193.362	-2.05
193.581	16.38
193.8	26.62
194.02	36.86
194.239	10.24
194.458	-77.82
194.678	43.01
194.897	12.29
195.116	59.39
195.335	-8.19
195.555	49.15
195.774	112.64
195.993	34.82
196.212	-20.48
196.432	40.96
196.651	51.2
196.87	-57.34
197.089	-2.05
197.308	16.38
197.528	53.25
197.747	67.58
197.966	20.48
198.185	83.97
198.404	-28.67
198.623	51.2
198.842	94.21
199.062	59.39
199.281	83.97
199.5	30.72
199.719	98.3
199.938	-2.05
200.157	36.86
200.376	18.43
200.595	12.29
200.814	55.3
201.033	10.24
201.252	4.1
201.471	14.34
201.69	49.15
201.909	12.29
202.128	30.72
202.347	22.53
202.566	-61.44
202.785	-8.19
203.004	-32.77
203.223	63.49
203.442	14.34
203.661	88.06
203.879	133.12
204.098	16.38
204.317	2.05
204.536	45.06
204.755	12.29
204.974	-8.19
205.193	32.77
205.411	71.68
205.63	18.43
205.849	73.73
206.068	63.49
206.287	-6.14
206.505	120.83
206.724	26.62
206.943	81.92
207.162	69.63
207.381	18.43
207.599	-26.62
207.818	79.87
208.037	59.39
208.255	30.72
208.474	40.96
208.693	-8.19
208.911	61.44
209.13	57.34
209.349	-6.14
209.567	-4.1
209.786	10.24
210.005	16.38
210.223	20.48
210.442	-49.15
210.661	43.01
210.879	-79.87
211.098	16.38
211.316	81.92
211.535	51.2
211.753	61.44
211.972	24.58
212.191	16.38
212.409	16.38
212.628	94.21
212.846	75.77
213.065	65.54
213.283	47.1
213.502	55.3
213.72	57.34
213.938	22.53
214.157	16.38
214.375	20.48
214.594	10.24
214.812	36.86
215.031	-28.67
215.249	65.54
215.467	28.67
215.686	77.82
215.904	47.1
216.122	38.91
216.341	28.67
216.559	55.3
216.778	16.38
216.996	73.73
217.214	-12.29
217.432	51.2
217.651	55.3
217.869	18.43
218.087	22.53
218.306	61.44
218.524	30.72
218.742	43.01
218.96	53.25
219.179	102.4
219.397	-2.05
219.615	81.92
219.833	55.3
220.051	36.86
220.27	86.01
220.488	-38.91
220.706	40.96
220.924	8.19
221.142	96.25
221.36	-12.29
221.578	-57.34
221.796	12.29
222.015	83.97
222.233	12.29
222.451	59.39
222.669	79.87
222.887	63.49
223.105	-6.14
223.323	65.54
223.541	-57.34
223.759	-8.19
223.977	-77.82
224.195	4.1
224.413	38.91
224.631	0
224.849	16.38
225.067	10.24
225.285	-14.34
225.503	59.39
225.721	-6.14
225.939	104.45
226.157	18.43
226.375	102.4
226.592	36.86
226.81	4.1
227.028	61.44
227.246	32.77
227.464	10.24
227.682	-12.29
227.9	69.63
228.117	40.96
228.335	30.72
228.553	57.34
228.771	8.19
228.989	34.82
229.206	10.24
229.424	-16.38
229.642	51.2
229.86	43.01
230.077	-49.15
230.295	8.19
230.513	71.68
230.731	106.49
230.948	40.96
231.166	61.44
231.384	55.3
231.601	63.49
231.819	106.49
232.037	-12.29
232.254	-28.67
232.472	6.14
232.689	-6.14
232.907	-16.38
233.125	18.43
233.342	61.44
233.56	71.68
233.777	-18.43
233.995	6.14
234.213	18.43
234.43	75.77
234.648	36.86
234.865	79.87
235.083	34.82
235.3	-8.19
235.518	110.59
235.735	38.91
235.953	77.82
236.17	61.44
236.388	61.44
236.605	14.34
236.822	83.97
237.04	40.96
237.257	22.53
237.475	-49.15
237.692	12.29
237.909	53.25
238.127	61.44
238.344	16.38
238.562	-14.34
238.779	18.43
238.996	30.72
239.214	-20.48
239.431	40.96
239.648	36.86
239.865	-14.34
240.083	63.49
240.3	61.44
240.517	-18.43
240.735	30.72
240.952	26.62
241.169	69.63
241.386	102.4
241.603	65.54
241.821	-40.96
242.038	47.1
242.255	71.68
242.472	51.2
242.689	59.39
242.907	96.25
243.124	2.05
243.341	-28.67
243.558	-4.1
243.775	18.43
243.992	-32.77
244.209	-8.19
244.426	38.91
244.643	67.58
244.86	24.58
245.078	-16.38
245.295	36.86
245.512	57.34
245.729	-26.62
245.946	51.2
246.163	53.25
246.38	-6.14
246.597	-22.53
246.814	-4.1
247.031	2.05
247.248	79.87
247.464	12.29
247.681	61.44
247.898	2.05
248.115	-14.34
248.332	18.43
248.549	61.44
248.766	12.29
248.983	2.05
249.2	86.01
249.417	49.15
249.633	88.06
249.85	49.15
250.067	20.48
250.284	51.2
250.501	100.35
250.717	18.43
250.934	8.19
251.151	100.35
251.368	-2.05
251.585	55.3
251.801	14.34
252.018	-2.05
252.235	6.14
252.451	51.2
252.668	38.91
252.885	24.58
253.102	-55.3
253.318	67.58
253.535	6.14
253.752	40.96
253.968	-8.19
254.185	24.58
254.401	73.73
254.618	36.86
254.835	14.34
255.051	36.86
255.268	-2.05
255.484	45.06
255.701	63.49
255.917	92.16
256.134	16.38
256.351	-12.29
256.567	77.82
256.784	-28.67
257	6.14
257.217	22.53
257.433	65.54
257.65	8.19
257.866	18.43
258.082	-16.38
258.299	-14.34
258.515	67.58
258.732	47.1
258.948	-55.3
259.165	75.77
259.381	16.38
259.597	36.86
259.814	-47.1
260.03	-10.24
260.246	61.44
260.463	20.48
260.679	67.58
260.895	45.06
261.112	38.91
261.328	32.77
261.544	61.44
261.761	53.25
261.977	38.91
262.193	45.06
262.409	40.96
262.626	-8.19
262.842	36.86
263.058	-4.1
263.274	114.69
263.49	2.05
263.707	53.25
263.923	30.72
264.139	-47.1
264.355	28.67
264.571	96.25
264.787	-2.05
265.004	86.01
265.22	-53.25
265.436	-45.06
265.652	12.29
265.868	26.62
266.084	-30.72
266.3	47.1
266.516	-26.62
266.732	38.91
266.948	-4.1
267.164	28.67
267.38	30.72
267.596	110.59
267.812	86.01
268.028	63.49
268.244	30.72
268.46	8.19
268.676	-2.05
268.892	112.64
269.108	-22.53
269.324	-6.14
269.54	75.77
269.756	100.35
269.972	51.2
270.188	51.2
270.403	-49.15
270.619	88.06
270.835	51.2
271.051	26.62
271.267	-47.1
271.483	32.77
271.698	49.15
271.914	40.96
272.13	2.05
272.346	36.86
272.562	49.15
272.777	47.1
272.993	0
273.209	14.34
273.425	22.53
273.64	71.68
273.856	28.67
274.072	-10.24
274.287	20.48
274.503	49.15
274.719	137.21
274.934	53.25
275.15	-51.2
275.366	49.15
275.581	-18.43
275.797	32.77
276.012	59.39
276.228	16.38
276.444	30.72
276.659	57.34
276.875	0
277.09	16.38
277.306	47.1
277.521	65.54
277.737	24.58
277.952	55.3
278.168	45.06
278.383	79.87
278.599	45.06
278.814	73.73
279.03	32.77
279.245	-36.86
279.461	-18.43
279.676	38.91
279.892	2.05
280.107	4.1
280.322	45.06
280.538	38.91
280.753	-20.48
280.969	112.64
281.184	14.34
281.399	49.15
281.615	8.19
281.83	-20.48
282.045	32.77
282.26	-40.96
282.476	98.3
282.691	75.77
282.906	24.58
283.122	36.86
283.337	57.34
283.552	79.87
283.767	26.62
283.983	98.3
284.198	10.24
284.413	32.77
284.628	77.82
284.843	8.19
285.058	77.82
285.274	90.11
285.489	-6.14
285.704	22.53
285.919	0
286.134	71.68
286.349	8.19
286.564	51.2
286.779	55.3
286.995	40.96
287.21	-8.19
287.425	34.82
287.64	53.25
287.855	32.77
288.07	28.67
288.285	108.54
288.5	38.91
288.715	47.1
288.93	-49.15
289.145	2.05
289.36	77.82
289.575	26.62
289.79	-16.38
290.004	32.77
290.219	63.49
290.434	28.67
290.649	-14.34
290.864	12.29
291.079	-2.05
291.294	45.06
291.509	8.19
291.724	47.1
291.938	-38.91
292.153	57.34
292.368	14.34
292.583	83.97
292.798	96.25
293.012	20.48
293.227	28.67
293.442	-2.05
293.657	24.58
293.871	8.19
294.086	0
294.301	38.91
294.516	0
294.73	26.62
294.945	6.14
295.16	12.29
295.374	94.21
295.589	118.78
295.804	75.77
296.018	-14.34
296.233	51.2
296.447	61.44
296.662	-12.29
296.877	96.25
297.091	71.68
297.306	6.14
297.52	22.53
297.735	49.15
297.949	61.44
298.164	57.34
298.378	-12.29
298.593	75.77
298.807	34.82
299.022	59.39
299.236	6.14
299.451	59.39
299.665	40.96
299.88	-4.1
300.094	73.73
300.309	4.1
300.523	-8.19
300.737	12.29
300.952	-26.62
301.166	86.01
301.381	47.1
301.595	88.06
301.809	73.73
302.024	-14.34
302.238	2.05
302.452	12.29
302.667	63.49
302.881	67.58
303.095	92.16
303.309	14.34
303.524	0
303.738	67.58
303.952	-57.34
304.166	55.3
304.381	-32.77
304.595	116.73
304.809	24.58
305.023	88.06
305.237	57.34
305.452	40.96
305.666	8.19
305.88	28.67
306.094	34.82
306.308	61.44
306.522	43.01
306.736	59.39
306.95	10.24
307.164	36.86
307.379	-14.34
307.593	40.96
307.807	28.67
308.021	81.92
308.235	40.96
308.449	-16.38
308.663	-22.53
308.877	116.73
309.091	0
309.305	45.06
309.519	-28.67
309.733	81.92
309.947	0
310.161	61.44
310.374	61.44
310.588	92.16
310.802	26.62
311.016	86.01
311.23	10.24
311.444	26.62
311.658	6.14
311.872	67.58
312.085	49.15
312.299	30.72
312.513	12.29
312.727	-12.29
312.941	-32.77
313.154	63.49
313.368	-28.67
313.582	-8.19
313.796	-16.38
314.009	36.86
314.223	83.97
314.437	-2.05
314.651	26.62
314.864	2.05
315.078	157.69
315.292	6.14
315.505	45.06
315.719	53.25
315.933	81.92
316.146	65.54
316.36	-45.06
316.573	53.25
316.787	45.06
317.001	14.34
317.214	32.77
317.428	40.96
317.641	-28.67
317.855	10.24
318.068	38.91
318.282	96.25
318.495	57.34
318.709	69.63
318.922	-10.24
319.136	102.4
319.349	114.69
319.563	73.73
319.776	30.72
319.99	-6.14
320.203	38.91
320.417	30.72
320.63	53.25
320.843	51.2
321.057	69.63
321.27	49.15
321.483	-4.1
321.697	126.97
321.91	36.86
322.124	32.77
322.337	47.1
322.55	22.53
322.763	49.15
322.977	16.38
323.19	-6.14
323.403	53.25
323.617	61.44
323.83	43.01
324.043	55.3
324.256	75.77
324.469	32.77
324.683	-10.24
324.896	83.97
325.109	65.54
325.322	71.68
325.535	49.15
325.748	43.01
325.962	26.62
326.175	100.35
326.388	22.53
326.601	73.73
326.814	-24.58
327.027	-28.67
327.24	126.97
327.453	8.19
327.666	61.44
327.879	24.58
328.092	45.06
328.305	57.34
328.518	63.49
328.731	2.05
328.944	26.62
329.157	61.44
329.37	22.53
329.583	45.06
329.796	38.91
330.009	8.19
330.222	-16.38
330.435	12.29
330.648	-51.2
330.861	43.01
331.073	-28.67
331.286	47.1
331.499	34.82
331.712	32.77
331.925	12.29
332.138	43.01
332.35	73.73
332.563	45.06
332.776	53.25
332.989	-24.58
333.202	16.38
333.414	-12.29
333.627	75.77
333.84	47.1
334.053	32.77
334.265	51.2
334.478	20.48
334.691	24.58
334.903	59.39
335.116	75.77
335.329	32.77
335.541	67.58
335.754	28.67
335.966	59.39
336.179	-14.34
336.392	24.58
336.604	-8.19
336.817	112.64
337.029	34.82
337.242	10.24
337.454	73.73
337.667	55.3
337.88	120.83
338.092	18.43
338.305	2.05
338.517	57.34
338.729	53.25
338.942	92.16
339.154	73.73
339.367	-14.34
339.579	61.44
339.792	45.06
340.004	36.86
340.217	-2.05
340.429	32.77
340.641	92.16
340.854	32.77
341.066	8.19
341.278	45.06
341.491	36.86
341.703	79.87
341.915	53.25
342.128	43.01
342.34	69.63
342.552	-30.72
342.764	24.58
342.977	38.91
343.189	18.43
343.401	30.72
343.613	20.48
343.826	-8.19
344.038	14.34
344.25	118.78
344.462	-18.43
344.674	157.69
344.886	-4.1
345.099	47.1
345.311	34.82
345.523	51.2
345.735	45.06
345.947	30.72
346.159	63.49
346.371	22.53
346.583	24.58
346.795	67.58
347.007	63.49
347.219	34.82
347.431	86.01
347.643	141.31
347.855	14.34
348.067	45.06
348.279	10.24
348.491	112.64
348.703	73.73
348.915	28.67
349.127	28.67
349.339	43.01
349.551	-8.19
349.763	63.49
349.975	92.16
350.187	86.01
350.399	32.77
350.61	90.11
350.822	-4.1
351.034	124.93
351.246	30.72
351.458	59.39
351.669	61.44
351.881	88.06
352.093	36.86
352.305	63.49
352.517	38.91
352.728	92.16
352.94	63.49
353.152	22.53
353.363	32.77
353.575	34.82
353.787	57.34
353.999	67.58
354.21	61.44
354.422	10.24
354.633	47.1
354.845	30.72
355.057	77.82
355.268	6.14
355.48	51.2
355.692	-18.43
355.903	40.96
356.115	51.2
356.326	-43.01
356.538	122.88
356.749	-14.34
356.961	65.54
357.172	67.58
357.384	77.82
357.595	92.16
357.807	86.01
358.018	38.91
358.23	69.63
358.441	26.62
358.653	100.35
358.864	16.38
359.075	36.86
359.287	55.3
359.498	100.35
359.709	114.69
359.921	57.34
360.132	-10.24
360.344	6.14
360.555	38.91
360.766	24.58
360.977	0
361.189	61.44
361.4	79.87
361.611	12.29
361.823	40.96
362.034	86.01
362.245	61.44
362.456	59.39
362.667	69.63
362.879	-4.1
363.09	8.19
363.301	57.34
363.512	47.1
363.723	0
363.935	53.25
364.146	30.72
364.357	51.2
364.568	110.59
364.779	-32.77
364.99	94.21
365.201	81.92
365.412	45.06
365.623	-49.15
365.834	8.19
366.045	43.01
366.256	77.82
366.467	-4.1
366.678	79.87
366.889	-12.29
367.1	114.69
367.311	-28.67
367.522	88.06
367.733	20.48
367.944	36.86
368.155	86.01
368.366	90.11
368.577	43.01
368.788	79.87
368.999	43.01
369.209	83.97
369.42	102.4
369.631	110.59
369.842	32.77
370.053	67.58
370.264	65.54
370.474	57.34
370.685	47.1
370.896	22.53
371.107	67.58
371.317	59.39
371.528	32.77
371.739	53.25
371.95	59.39
372.16	77.82
372.371	-8.19
372.582	79.87
372.792	51.2
373.003	77.82
373.214	94.21
373.424	94.21
373.635	14.34
373.846	20.48
374.056	104.45
374.267	67.58
374.477	57.34
374.688	30.72
374.898	47.1
375.109	43.01
375.319	61.44
375.53	22.53
375.74	43.01
375.951	51.2
376.161	51.2
376.372	67.58
376.582	61.44
376.793	102.4
377.003	112.64
377.214	40.96
377.424	8.19
377.635	67.58
377.845	59.39
378.055	79.87
378.266	16.38
378.476	26.62
378.686	49.15
378.897	0
379.107	34.82
379.317	110.59
379.528	75.77
379.738	77.82
379.948	65.54
380.158	137.21
380.369	77.82
380.579	126.97
380.789	73.73
380.999	30.72
381.21	32.77
381.42	61.44
381.63	92.16
381.84	36.86
382.05	-12.29
382.261	129.02
382.471	47.1
382.681	32.77
382.891	51.2
383.101	38.91
383.311	100.35
383.521	94.21
383.731	79.87
383.941	79.87
384.151	90.11
384.361	71.68
384.571	81.92
384.781	79.87
384.991	88.06
385.201	86.01
385.411	77.82
385.621	118.78
385.831	77.82
386.041	53.25
386.251	30.72
386.461	69.63
386.671	71.68
386.881	75.77
387.091	77.82
387.301	57.34
387.511	98.3
387.72	145.41
387.93	71.68
388.14	45.06
388.35	51.2
388.56	75.77
388.769	81.92
388.979	45.06
389.189	63.49
389.399	43.01
389.609	32.77
389.818	18.43
390.028	67.58
390.238	67.58
390.447	45.06
390.657	75.77
390.867	-14.34
391.076	-2.05
391.286	45.06
391.496	79.87
391.705	40.96
391.915	77.82
392.125	63.49
392.334	81.92
392.544	77.82
392.753	141.31
392.963	43.01
393.172	47.1
393.382	32.77
393.591	79.87
393.801	116.73
394.01	112.64
394.22	86.01
394.429	18.43
394.639	57.34
394.848	98.3
395.058	55.3
395.267	57.34
395.477	63.49
395.686	79.87
395.895	104.45
396.105	139.26
396.314	116.73
396.524	-12.29
396.733	194.56
396.942	112.64
397.152	75.77
397.361	118.78
397.57	81.92
397.78	120.83
397.989	69.63
398.198	133.12
398.407	86.01
398.617	169.98
398.826	184.32
399.035	124.93
399.244	118.78
399.453	139.26
399.663	149.5
399.872	122.88
400.081	120.83
400.29	192.51
400.499	96.25
400.708	129.02
400.917	143.36
401.127	96.25
401.336	153.6
401.545	145.41
401.754	116.73
401.963	100.35
402.172	167.93
402.381	83.97
402.59	157.69
402.799	124.93
403.008	176.13
403.217	88.06
403.426	157.69
403.635	172.03
403.844	155.65
404.053	75.77
404.262	161.79
404.471	159.74
404.68	135.17
404.888	116.73
405.097	186.37
405.306	145.41
405.515	190.46
405.724	200.7
405.933	202.75
406.142	190.46
406.35	229.37
406.559	208.89
406.768	153.6
406.977	186.37
407.185	204.8
407.394	268.28
407.603	229.37
407.812	329.72
408.02	262.14
408.229	198.65
408.438	235.52
408.646	204.8
408.855	237.56
409.064	258.04
409.272	321.53
409.481	333.82
409.69	301.05
409.898	290.81
410.107	352.25
410.315	303.1
410.524	323.58
410.733	376.83
410.941	397.31
411.15	409.59
411.358	342.01
411.567	475.13
411.775	464.89
411.984	454.65
412.192	387.07
412.401	407.55
412.609	507.9
412.818	548.86
413.026	514.04
413.234	552.95
413.443	569.34
413.651	555
413.86	532.47
414.068	669.69
414.276	698.36
414.485	696.31
414.693	724.98
414.901	712.69
415.11	753.65
415.318	792.56
415.526	923.63
415.734	831.48
415.943	753.65
416.151	880.63
416.359	862.19
416.567	993.26
416.776	1007.6
416.984	1058.8
417.192	1038.32
417.4	1007.6
417.608	1200.11
417.817	1095.66
418.025	1163.25
418.233	1206.25
418.441	1226.73
418.649	1298.41
418.857	1411.05
419.065	1490.92
419.273	1366
419.481	1409
419.689	1568.74
419.897	1626.09
420.105	1587.18
420.313	1648.61
420.521	1753.06
420.729	1714.15
420.937	1912.8
421.145	1935.33
421.353	2119.65
421.561	1957.86
421.769	2172.89
421.977	2176.99
422.185	2154.46
422.393	2291.68
422.601	2453.47
422.809	2392.03
423.017	2420.7
423.224	2598.87
423.432	2652.12
423.64	2678.74
423.848	2947.03
424.056	2852.82
424.263	3024.85
424.471	3143.63
424.679	3125.2
424.887	3282.89
425.094	3395.53
425.302	3416.01
425.51	3432.4
425.718	3545.03
425.925	3692.49
426.133	3954.63
426.341	4007.87
426.548	4206.53
426.756	4143.04
426.964	4247.49
427.171	4513.72
427.379	4577.21
427.586	4632.51
427.794	4673.46
428.001	5058.48
428.209	5246.9
428.417	5277.62
428.624	5398.45
428.832	5461.93
429.039	5433.26
429.247	5496.75
429.454	6086.56
429.662	6385.57
429.869	6012.84
430.076	6539.16
430.284	6188.96
430.491	6586.27
430.699	6866.84
430.906	7008.15
431.114	7145.36
431.321	7219.09
431.528	7403.41
431.736	7868.3
431.943	8159.11
432.15	8013.7
432.358	8107.91
432.565	8595.32
432.772	8613.76
432.979	8966.01
433.187	8929.14
433.394	9090.93
433.601	9815.91
433.808	9830.25
434.016	9666.41
434.223	10112.87
434.43	10549.09
434.637	10585.95
434.844	11249.49
435.052	11349.84
435.259	11515.73
435.466	11462.48
435.673	11188.05
435.88	12068.68
436.087	12760.89
436.294	12621.63
436.501	12355.4
436.708	12373.83
436.915	12824.38
437.122	13711.15
437.329	13862.7
437.537	13969.19
437.743	14581.54
437.95	14325.54
438.157	15025.95
438.364	15304.47
438.571	15177.5
438.778	15492.88
438.985	16912.13
439.192	16166.67
439.399	16805.63
439.606	16330.5
439.813	17133.31
440.02	18384.62
440.227	18077.42
440.433	17846
440.64	18364.14
440.847	18151.15
441.054	18759.39
441.261	20006.61
441.467	19576.53
441.674	20219.6
441.881	20973.25
442.088	20797.12
442.294	20410.06
442.501	20940.48
442.708	21653.17
442.914	22556.33
443.121	23338.65
443.328	22562.47
443.534	24512.14
443.741	23541.4
443.948	23492.25
444.154	25075.33
444.361	24907.4
444.568	25128.58
444.774	25071.23
444.981	25327.23
445.187	26095.22
445.394	27162.21
445.6	27002.47
445.807	29507.13
446.013	28048.98
446.22	28929.61
446.426	29773.37
446.633	29933.11
446.839	30735.91
447.046	29924.92
447.252	31591.97
447.459	31677.98
447.665	31096.36
447.871	32675.34
448.078	34260.47
448.284	32689.68
448.491	33594.88
448.697	34512.37
448.903	35450.34
449.11	35364.32
449.316	34457.07
449.522	35460.58
449.728	36562.39
449.935	36967.88
450.141	36853.2
450.347	37299.65
450.553	36371.92
450.76	37361.09
450.966	37768.64
451.172	37832.13
451.378	38866.35
451.584	37907.9
451.791	38520.24
451.997	39116.2
452.203	39413.16
452.409	39173.55
452.615	38964.65
452.821	37481.92
453.027	37449.16
453.233	39097.77
453.44	37555.65
453.646	38241.72
453.852	38546.87
454.058	38968.75
454.264	37524.93
454.47	38827.44
454.676	37680.58
454.882	38798.77
455.088	35638.75
455.294	36236.76
455.5	36703.7
455.705	36896.21
455.911	35509.73
456.117	34782.7
456.323	34688.49
456.529	32626.19
456.735	34223.61
456.941	33099.27
457.147	32474.64
457.352	31634.97
457.558	31086.12
457.764	31634.97
457.97	30690.86
458.176	29984.31
458.381	30199.35
458.587	28751.43
458.793	28704.33
458.999	27018.85
459.204	29177.41
459.41	28112.47
459.616	26506.86
459.821	26056.31
460.027	26472.04
460.233	25753.21
460.438	24352.4
460.644	24784.52
460.85	23467.67
461.055	23256.73
461.261	23170.72
461.466	21644.98
461.672	20829.89
461.878	22263.47
462.083	20793.03
462.289	20475.59
462.494	20037.33
462.7	19238.62
462.905	19066.59
463.111	19369.69
463.316	19660.5
463.522	18986.72
463.727	19349.21
463.932	18910.94
464.138	18915.04
464.343	19005.15
464.549	18198.25
464.754	18960.09
464.959	18972.38
465.165	18702.05
465.37	17927.92
465.575	17288.95
465.781	17841.9
465.986	18183.91
466.191	17495.8
466.397	17245.94
466.602	16279.3
466.807	16912.13
467.012	17090.3
467.218	17018.62
467.423	16789.25
467.628	16865.02
467.833	17350.39
468.038	16973.56
