Data from USB4F104151__6__12-34-58-505.txt Node

Date: Fri Mar 14 12:34:58 EDT 2025
User: louis
Spectrometer: USB4F10415
Trigger mode: 4
Integration Time (sec): 2.000000E-2
Scans to average: 1
Electric dark correction enabled: true
Nonlinearity correction enabled: false
Boxcar width: 0
XAxis mode: Wavelengths
Number of Pixels in Spectrum: 3648
>>>>>Begin Spectral Data<<<<<
178.204	-142.5
178.424	-142.5
178.644	-142.5
178.864	-109.74
179.084	-115.88
179.304	21.33
179.524	-5.29
179.744	25.43
179.964	11.09
180.184	-44.2
180.404	-17.58
180.624	4.95
180.844	50
181.064	-44.2
181.283	-5.29
181.503	-17.58
181.723	21.33
181.943	-9.39
182.163	41.81
182.383	-42.15
182.602	35.67
182.822	35.67
183.042	21.33
183.262	-44.2
183.482	31.57
183.701	-17.58
183.921	19.29
184.141	62.29
184.361	19.29
184.58	43.86
184.8	47.96
185.02	-21.67
185.239	-3.24
185.459	11.09
185.679	-7.34
185.898	-42.15
186.118	33.62
186.338	-5.29
186.557	-5.29
186.777	-17.58
186.997	-31.91
187.216	41.81
187.436	68.44
187.655	-9.39
187.875	41.81
188.095	-13.48
188.314	0.85
188.534	27.48
188.753	-29.87
188.973	52.05
189.192	21.33
189.412	-56.49
189.631	68.44
189.851	0.85
190.07	47.96
190.29	-44.2
190.509	52.05
190.729	-29.87
190.948	68.44
191.168	115.54
191.387	43.86
191.607	-46.25
191.826	-3.24
192.045	-68.78
192.265	13.14
192.484	35.67
192.704	-11.43
192.923	-44.2
193.142	64.34
193.362	-15.53
193.581	56.15
193.8	37.72
194.02	11.09
194.239	13.14
194.458	-33.96
194.678	11.09
194.897	41.81
195.116	-5.29
195.335	27.48
195.555	37.72
195.774	-56.49
195.993	-15.53
196.212	54.1
196.432	-25.77
196.651	21.33
196.87	27.48
197.089	56.15
197.308	25.43
197.528	80.72
197.747	-13.48
197.966	-19.63
198.185	64.34
198.404	-23.72
198.623	-83.11
198.842	35.67
199.062	-27.82
199.281	82.77
199.5	-7.34
199.719	-19.63
199.938	23.38
200.157	21.33
200.376	31.57
200.595	-25.77
200.814	2.9
201.033	-66.73
201.252	41.81
201.471	2.9
201.69	-1.19
201.909	7
202.128	-9.39
202.347	62.29
202.566	17.24
202.785	-68.78
203.004	39.76
203.223	103.25
203.442	0.85
203.661	0.85
203.879	-7.34
204.098	47.96
204.317	-44.2
204.536	21.33
204.755	15.19
204.974	9.05
205.193	0.85
205.411	31.57
205.63	-25.77
205.849	-21.67
206.068	66.39
206.287	-85.16
206.505	64.34
206.724	29.52
206.943	0.85
207.162	54.1
207.381	-58.54
207.599	-7.34
207.818	-27.82
208.037	41.81
208.255	-1.19
208.474	29.52
208.693	39.76
208.911	11.09
209.13	25.43
209.349	74.58
209.567	4.95
209.786	13.14
210.005	37.72
210.223	-38.06
210.442	-60.59
210.661	-19.63
210.879	-27.82
211.098	68.44
211.316	35.67
211.535	74.58
211.753	-3.24
211.972	35.67
212.191	-60.59
212.409	-5.29
212.628	-33.96
212.846	9.05
213.065	39.76
213.283	-11.43
213.502	-23.72
213.72	45.91
213.938	56.15
214.157	-31.91
214.375	7
214.594	-54.44
214.812	-50.35
215.031	0.85
215.249	4.95
215.467	-5.29
215.686	-11.43
215.904	11.09
216.122	19.29
216.341	19.29
216.559	62.29
216.778	33.62
216.996	-21.67
217.214	-64.68
217.432	-33.96
217.651	-62.63
217.869	-25.77
218.087	4.95
218.306	-9.39
218.524	17.24
218.742	-70.83
218.96	-27.82
219.179	56.15
219.397	-7.34
219.615	41.81
219.833	-19.63
220.051	52.05
220.27	70.48
220.488	-60.59
220.706	13.14
220.924	9.05
221.142	21.33
221.36	-48.3
221.578	-44.2
221.796	-31.91
222.015	-54.44
222.233	35.67
222.451	-58.54
222.669	-44.2
222.887	17.24
223.105	-48.3
223.323	-99.5
223.541	33.62
223.759	31.57
223.977	-7.34
224.195	58.2
224.413	-13.48
224.631	35.67
224.849	4.95
225.067	117.59
225.285	2.9
225.503	-29.87
225.721	-31.91
225.939	25.43
226.157	58.2
226.375	82.77
226.592	-1.19
226.81	-60.59
227.028	29.52
227.246	35.67
227.464	13.14
227.682	54.1
227.9	86.87
228.117	19.29
228.335	33.62
228.553	-46.25
228.771	-9.39
228.989	17.24
229.206	-15.53
229.424	23.38
229.642	2.9
229.86	-31.91
230.077	27.48
230.295	15.19
230.513	78.68
230.731	-1.19
230.948	25.43
231.166	56.15
231.384	-17.58
231.601	-11.43
231.819	29.52
232.037	-7.34
232.254	-70.83
232.472	-7.34
232.689	-25.77
232.907	-15.53
233.125	-29.87
233.342	-11.43
233.56	-23.72
233.777	-11.43
233.995	-19.63
234.213	97.11
234.43	39.76
234.648	9.05
234.865	-33.96
235.083	-33.96
235.3	111.44
235.518	15.19
235.735	33.62
235.953	95.06
236.17	45.91
236.388	-36.01
236.605	2.9
236.822	64.34
237.04	-7.34
237.257	-13.48
237.475	-5.29
237.692	54.1
237.909	2.9
238.127	-31.91
238.344	-13.48
238.562	39.76
238.779	-17.58
238.996	-40.11
239.214	41.81
239.431	13.14
239.648	-50.35
239.865	-27.82
240.083	-31.91
240.3	31.57
240.517	25.43
240.735	4.95
240.952	23.38
241.169	43.86
241.386	21.33
241.603	-72.87
241.821	17.24
242.038	21.33
242.255	99.16
242.472	-101.55
242.689	86.87
242.907	25.43
243.124	-27.82
243.341	-15.53
243.558	21.33
243.775	52.05
243.992	-58.54
244.209	-62.63
244.426	-3.24
244.643	50
244.86	35.67
245.078	-50.35
245.295	-46.25
245.512	17.24
245.729	-44.2
245.946	-9.39
246.163	-23.72
246.38	41.81
246.597	17.24
246.814	-64.68
247.031	33.62
247.248	11.09
247.464	-7.34
247.681	9.05
247.898	103.25
248.115	13.14
248.332	-15.53
248.549	-29.87
248.766	105.3
248.983	90.96
249.2	15.19
249.417	78.68
249.633	-89.26
249.85	39.76
250.067	27.48
250.284	19.29
250.501	17.24
250.717	-1.19
250.934	35.67
251.151	-17.58
251.368	19.29
251.585	-17.58
251.801	-9.39
252.018	0.85
252.235	68.44
252.451	-1.19
252.668	-1.19
252.885	2.9
253.102	-21.67
253.318	37.72
253.535	31.57
253.752	19.29
253.968	66.39
254.185	60.24
254.401	9.05
254.618	-15.53
254.835	-7.34
255.051	-11.43
255.268	13.14
255.484	-13.48
255.701	29.52
255.917	70.48
256.134	-5.29
256.351	11.09
256.567	-11.43
256.784	35.67
257	45.91
257.217	9.05
257.433	58.2
257.65	-27.82
257.866	17.24
258.082	37.72
258.299	35.67
258.515	23.38
258.732	58.2
258.948	4.95
259.165	23.38
259.381	-1.19
259.597	27.48
259.814	-36.01
260.03	27.48
260.246	21.33
260.463	11.09
260.679	19.29
260.895	66.39
261.112	9.05
261.328	17.24
261.544	11.09
261.761	39.76
261.977	-48.3
262.193	-27.82
262.409	-29.87
262.626	54.1
262.842	-27.82
263.058	-1.19
263.274	93.01
263.49	23.38
263.707	35.67
263.923	-68.78
264.139	-33.96
264.355	41.81
264.571	78.68
264.787	-9.39
265.004	-9.39
265.22	-5.29
265.436	58.2
265.652	-29.87
265.868	39.76
266.084	-33.96
266.3	41.81
266.516	-54.44
266.732	-15.53
266.948	-50.35
267.164	-1.19
267.38	4.95
267.596	52.05
267.812	21.33
268.028	39.76
268.244	-15.53
268.46	43.86
268.676	-25.77
268.892	-7.34
269.108	-72.87
269.324	47.96
269.54	41.81
269.756	90.96
269.972	2.9
270.188	-19.63
270.403	-42.15
270.619	37.72
270.835	90.96
271.051	-25.77
271.267	-3.24
271.483	-50.35
271.698	19.29
271.914	72.53
272.13	-27.82
272.346	19.29
272.562	-48.3
272.777	23.38
272.993	19.29
273.209	-5.29
273.425	-19.63
273.64	76.63
273.856	78.68
274.072	15.19
274.287	70.48
274.503	68.44
274.719	2.9
274.934	70.48
275.15	-76.97
275.366	2.9
275.581	23.38
275.797	60.24
276.012	25.43
276.228	-1.19
276.444	41.81
276.659	62.29
276.875	62.29
277.09	109.4
277.306	-19.63
277.521	45.91
277.737	62.29
277.952	35.67
278.168	-33.96
278.383	19.29
278.599	-36.01
278.814	117.59
279.03	15.19
279.245	58.2
279.461	21.33
279.676	-3.24
279.892	56.15
280.107	95.06
280.322	-68.78
280.538	-5.29
280.753	23.38
280.969	-25.77
281.184	-40.11
281.399	121.68
281.615	31.57
281.83	-74.92
282.045	-52.39
282.26	35.67
282.476	-17.58
282.691	-9.39
282.906	74.58
283.122	-27.82
283.337	-19.63
283.552	-15.53
283.767	-38.06
283.983	11.09
284.198	35.67
284.413	58.2
284.628	-29.87
284.843	-19.63
285.058	-7.34
285.274	58.2
285.489	-21.67
285.704	27.48
285.919	0.85
286.134	13.14
286.349	4.95
286.564	39.76
286.779	41.81
286.995	-29.87
287.21	-68.78
287.425	25.43
287.64	-38.06
287.855	11.09
288.07	-1.19
288.285	27.48
288.5	23.38
288.715	74.58
288.93	-31.91
289.145	35.67
289.36	-38.06
289.575	-48.3
289.79	0.85
290.004	-7.34
290.219	31.57
290.434	84.82
290.649	-9.39
290.864	23.38
291.079	-70.83
291.294	52.05
291.509	23.38
291.724	-48.3
291.938	-7.34
292.153	-60.59
292.368	-21.67
292.583	25.43
292.798	13.14
293.012	-27.82
293.227	-29.87
293.442	43.86
293.657	15.19
293.871	93.01
294.086	13.14
294.301	78.68
294.516	4.95
294.73	13.14
294.945	31.57
295.16	23.38
295.374	-23.72
295.589	109.4
295.804	-21.67
296.018	0.85
296.233	133.97
296.447	29.52
296.662	-3.24
296.877	9.05
297.091	39.76
297.306	17.24
297.52	21.33
297.735	-31.91
297.949	-11.43
298.164	-27.82
298.378	-21.67
298.593	35.67
298.807	-7.34
299.022	-13.48
299.236	82.77
299.451	45.91
299.665	2.9
299.88	29.52
300.094	25.43
300.309	9.05
300.523	33.62
300.737	-54.44
300.952	15.19
301.166	17.24
301.381	13.14
301.595	17.24
301.809	-13.48
302.024	-9.39
302.238	-17.58
302.452	-5.29
302.667	0.85
302.881	39.76
303.095	13.14
303.309	-1.19
303.524	-9.39
303.738	19.29
303.952	23.38
304.166	-11.43
304.381	-76.97
304.595	25.43
304.809	-11.43
305.023	45.91
305.237	50
305.452	29.52
305.666	62.29
305.88	54.1
306.094	45.91
306.308	7
306.522	-19.63
306.736	66.39
306.95	-25.77
307.164	-13.48
307.379	21.33
307.593	-72.87
307.807	29.52
308.021	19.29
308.235	7
308.449	-33.96
308.663	29.52
308.877	93.01
309.091	0.85
309.305	17.24
309.519	-56.49
309.733	43.86
309.947	-31.91
310.161	33.62
310.374	58.2
310.588	50
310.802	-15.53
311.016	45.91
311.23	-7.34
311.444	23.38
311.658	-44.2
311.872	15.19
312.085	45.91
312.299	25.43
312.513	41.81
312.727	-23.72
312.941	-40.11
313.154	21.33
313.368	-1.19
313.582	-7.34
313.796	-40.11
314.009	-3.24
314.223	35.67
314.437	80.72
314.651	4.95
314.864	21.33
315.078	-38.06
315.292	13.14
315.505	-29.87
315.719	35.67
315.933	66.39
316.146	56.15
316.36	23.38
316.573	72.53
316.787	11.09
317.001	47.96
317.214	-27.82
317.428	-36.01
317.641	-3.24
317.855	-31.91
318.068	-33.96
318.282	50
318.495	33.62
318.709	66.39
318.922	-19.63
319.136	103.25
319.349	-3.24
319.563	-7.34
319.776	41.81
319.99	-54.44
320.203	82.77
320.417	101.2
320.63	58.2
320.843	31.57
321.057	33.62
321.27	-23.72
321.483	39.76
321.697	127.83
321.91	29.52
322.124	21.33
322.337	43.86
322.55	45.91
322.763	17.24
322.977	-27.82
323.19	-25.77
323.403	27.48
323.617	41.81
323.83	72.53
324.043	-40.11
324.256	27.48
324.469	-23.72
324.683	109.4
324.896	-1.19
325.109	-19.63
325.322	-21.67
325.535	93.01
325.748	33.62
325.962	-31.91
326.175	15.19
326.388	7
326.601	70.48
326.814	113.49
327.027	25.43
327.24	13.14
327.453	-38.06
327.666	80.72
327.879	45.91
328.092	37.72
328.305	47.96
328.518	23.38
328.731	0.85
328.944	105.3
329.157	54.1
329.37	0.85
329.583	78.68
329.796	31.57
330.009	21.33
330.222	-1.19
330.435	19.29
330.648	111.44
330.861	13.14
331.073	-23.72
331.286	13.14
331.499	0.85
331.712	-99.5
331.925	84.82
332.138	9.05
332.35	13.14
332.563	66.39
332.776	86.87
332.989	-33.96
333.202	35.67
333.414	35.67
333.627	56.15
333.84	-23.72
334.053	78.68
334.265	-9.39
334.478	11.09
334.691	39.76
334.903	25.43
335.116	68.44
335.329	113.49
335.541	-19.63
335.754	21.33
335.966	33.62
336.179	-46.25
336.392	15.19
336.604	-72.87
336.817	13.14
337.029	-21.67
337.242	88.92
337.454	2.9
337.667	33.62
337.88	-54.44
338.092	35.67
338.305	52.05
338.517	56.15
338.729	-68.78
338.942	19.29
339.154	-44.2
339.367	-5.29
339.579	31.57
339.792	50
340.004	117.59
340.217	23.38
340.429	-25.77
340.641	-46.25
340.854	9.05
341.066	19.29
341.278	13.14
341.491	119.64
341.703	-9.39
341.915	0.85
342.128	84.82
342.34	27.48
342.552	27.48
342.764	68.44
342.977	19.29
343.189	23.38
343.401	125.78
343.613	11.09
343.826	41.81
344.038	-44.2
344.25	7
344.462	25.43
344.674	33.62
344.886	80.72
345.099	27.48
345.311	-9.39
345.523	-38.06
345.735	-3.24
345.947	17.24
346.159	11.09
346.371	4.95
346.583	76.63
346.795	9.05
347.007	-11.43
347.219	47.96
347.431	-33.96
347.643	-21.67
347.855	47.96
348.067	4.95
348.279	25.43
348.491	78.68
348.703	76.63
348.915	7
349.127	50
349.339	-19.63
349.551	41.81
349.763	50
349.975	-7.34
350.187	80.72
350.399	15.19
350.61	13.14
350.822	-5.29
351.034	33.62
351.246	19.29
351.458	11.09
351.669	-3.24
351.881	41.81
352.093	-36.01
352.305	13.14
352.517	19.29
352.728	-1.19
352.94	47.96
353.152	31.57
353.363	-11.43
353.575	105.3
353.787	-70.83
353.999	25.43
354.21	0.85
354.422	-13.48
354.633	54.1
354.845	-5.29
355.057	-3.24
355.268	-13.48
355.48	31.57
355.692	21.33
355.903	-9.39
356.115	-21.67
356.326	21.33
356.538	78.68
356.749	45.91
356.961	35.67
357.172	64.34
357.384	-31.91
357.595	66.39
357.807	35.67
358.018	47.96
358.23	-31.91
358.441	15.19
358.653	-60.59
358.864	35.67
359.075	9.05
359.287	58.2
359.498	-13.48
359.709	33.62
359.921	2.9
360.132	15.19
360.344	43.86
360.555	4.95
360.766	19.29
360.977	23.38
361.189	-33.96
361.4	-13.48
361.611	50
361.823	23.38
362.034	47.96
362.245	-46.25
362.456	35.67
362.667	7
362.879	13.14
363.09	50
363.301	47.96
363.512	11.09
363.723	-3.24
363.935	23.38
364.146	2.9
364.357	9.05
364.568	4.95
364.779	15.19
364.99	103.25
365.201	-7.34
365.412	62.29
365.623	21.33
365.834	7
366.045	62.29
366.256	86.87
366.467	-7.34
366.678	-58.54
366.889	31.57
367.1	86.87
367.311	7
367.522	62.29
367.733	54.1
367.944	-1.19
368.155	47.96
368.366	-44.2
368.577	31.57
368.788	4.95
368.999	7
369.209	7
369.42	84.82
369.631	107.35
369.842	-91.31
370.053	7
370.264	37.72
370.474	21.33
370.685	27.48
370.896	43.86
371.107	-15.53
371.317	39.76
371.528	-5.29
371.739	9.05
371.95	-48.3
372.16	23.38
372.371	-33.96
372.582	15.19
372.792	-23.72
373.003	43.86
373.214	41.81
373.424	115.54
373.635	-9.39
373.846	45.91
374.056	17.24
374.267	64.34
374.477	13.14
374.688	123.73
374.898	-9.39
375.109	9.05
375.319	60.24
375.53	68.44
375.74	23.38
375.951	56.15
376.161	0.85
376.372	72.53
376.582	29.52
376.793	-1.19
377.003	19.29
377.214	-11.43
377.424	23.38
377.635	74.58
377.845	-33.96
378.055	39.76
378.266	11.09
378.476	25.43
378.686	17.24
378.897	-46.25
379.107	72.53
379.317	23.38
379.528	-50.35
379.738	-11.43
379.948	39.76
380.158	54.1
380.369	-17.58
380.579	-7.34
380.789	74.58
380.999	15.19
381.21	13.14
381.42	72.53
381.63	-31.91
381.84	-44.2
382.05	-3.24
382.261	56.15
382.471	33.62
382.681	-5.29
382.891	27.48
383.101	25.43
383.311	54.1
383.521	33.62
383.731	-48.3
383.941	31.57
384.151	-40.11
384.361	66.39
384.571	37.72
384.781	31.57
384.991	58.2
385.201	52.05
385.411	47.96
385.621	-1.19
385.831	82.77
386.041	0.85
386.251	21.33
386.461	78.68
386.671	19.29
386.881	80.72
387.091	45.91
387.301	70.48
387.511	15.19
387.72	50
387.93	35.67
388.14	9.05
388.35	2.9
388.56	2.9
388.769	68.44
388.979	-9.39
389.189	7
389.399	19.29
389.609	-5.29
389.818	23.38
390.028	39.76
390.238	97.11
390.447	29.52
390.657	9.05
390.867	31.57
391.076	-21.67
391.286	90.96
391.496	31.57
391.705	29.52
391.915	99.16
392.125	13.14
392.334	-1.19
392.544	-50.35
392.753	50
392.963	56.15
393.172	109.4
393.382	15.19
393.591	164.69
393.801	-17.58
394.01	66.39
394.22	-5.29
394.429	27.48
394.639	-5.29
394.848	45.91
395.058	27.48
395.267	52.05
395.477	35.67
395.686	121.68
395.895	43.86
396.105	60.24
396.314	84.82
396.524	19.29
396.733	56.15
396.942	29.52
397.152	129.88
397.361	80.72
397.57	78.68
397.78	70.48
397.989	15.19
398.198	107.35
398.407	88.92
398.617	60.24
398.826	50
399.035	97.11
399.244	99.16
399.453	37.72
399.663	0.85
399.872	129.88
400.081	97.11
400.29	66.39
400.499	76.63
400.708	60.24
400.917	25.43
401.127	62.29
401.336	66.39
401.545	78.68
401.754	107.35
401.963	76.63
402.172	93.01
402.381	62.29
402.59	64.34
402.799	90.96
403.008	76.63
403.217	76.63
403.426	70.48
403.635	74.58
403.844	33.62
404.053	105.3
404.262	95.06
404.471	76.63
404.68	129.88
404.888	146.26
405.097	56.15
405.306	101.2
405.515	133.97
405.724	99.16
405.933	82.77
406.142	103.25
406.35	97.11
406.559	158.55
406.768	80.72
406.977	84.82
407.185	172.88
407.394	64.34
407.603	60.24
407.812	183.12
408.02	142.16
408.229	117.59
408.438	99.16
408.646	203.6
408.855	193.36
409.064	166.74
409.272	242.51
409.481	240.47
409.69	314.19
409.898	164.69
410.107	242.51
410.315	170.83
410.524	215.89
410.733	310.1
410.941	238.42
411.15	330.58
411.358	275.28
411.567	271.19
411.775	289.62
411.984	283.47
412.192	320.34
412.401	289.62
412.609	342.86
412.818	359.25
413.026	441.17
413.234	418.64
413.443	430.93
413.651	375.63
413.86	387.92
414.068	453.45
414.276	459.6
414.485	408.4
414.693	482.13
414.901	463.69
415.11	482.13
415.318	537.42
415.526	533.33
415.734	611.15
415.943	627.53
416.151	645.96
416.359	566.09
416.567	682.83
416.776	727.88
416.984	664.4
417.192	666.44
417.4	768.84
417.608	697.16
417.817	754.51
418.025	803.66
418.233	957.25
418.441	840.52
418.649	865.1
418.857	863.05
419.065	944.97
419.273	977.73
419.481	1006.41
419.689	1045.32
419.897	1151.81
420.105	1147.72
420.313	1147.72
420.521	1139.52
420.729	1278.79
420.937	1317.7
421.145	1252.16
421.353	1340.22
421.561	1444.67
421.769	1461.06
421.977	1585.98
422.185	1551.17
422.393	1428.29
422.601	1688.38
422.809	1760.06
423.017	1784.63
423.224	1848.12
423.432	1897.27
423.64	1835.83
423.848	1985.34
424.056	1985.34
424.263	2091.83
424.471	2075.45
424.679	2298.67
424.887	2360.11
425.094	2407.22
425.302	2460.46
425.51	2564.91
425.718	2659.12
425.925	2661.16
426.133	2612.01
426.341	2925.35
426.548	2964.26
426.756	3107.62
426.964	2972.46
427.171	3269.41
427.379	3183.4
427.586	3216.16
427.794	3304.23
428.001	3455.78
428.209	3650.33
428.417	3623.71
428.624	3851.03
428.832	3871.51
429.039	3851.03
429.247	3922.71
429.454	4219.67
429.662	4606.74
429.869	4274.96
430.076	4545.3
430.284	4352.79
430.491	4412.18
430.699	4807.44
430.906	4721.42
431.114	4942.6
431.321	5131.02
431.528	5286.66
431.736	5554.94
431.943	5677.82
432.15	5712.64
432.358	5655.3
432.565	5933.82
432.772	6066.94
432.979	6210.29
433.187	6384.37
433.394	6492.91
433.601	6744.81
433.808	6669.04
434.016	6802.16
434.223	6974.19
434.43	7604.96
434.637	7342.82
434.844	7867.1
435.052	8024.79
435.259	7889.63
435.466	8028.89
435.673	7848.67
435.88	8327.89
436.087	8645.33
436.294	8708.82
436.501	8520.4
436.708	8868.56
436.915	9110.22
437.122	9695.94
437.329	9380.55
437.537	9724.61
437.743	9886.4
437.95	9822.91
438.157	10109.63
438.364	10730.16
438.571	10797.74
438.778	10762.93
438.985	11829.92
439.192	11231.91
439.399	11596.45
439.606	11545.25
439.813	12290.71
440.02	12905.1
440.227	12593.81
440.433	12268.19
440.64	12872.34
440.847	12858
441.054	13245.07
441.261	13988.48
441.467	13828.74
441.674	14021.25
441.881	14580.34
442.088	14613.11
442.294	14596.73
442.501	15030.9
442.708	14987.89
442.914	15876.71
443.121	16253.53
443.328	15878.76
443.534	17062.48
443.741	16867.92
443.948	16274.01
444.154	17637.96
444.361	17439.31
444.568	17787.46
444.774	17668.68
444.981	17783.37
445.187	18545.21
445.394	19130.93
445.6	18926.13
445.807	20570.65
446.013	19831.33
446.22	20009.51
446.426	21142.03
446.633	21107.22
446.839	21772.81
447.046	20908.57
447.252	22213.12
447.459	22317.57
447.665	21916.17
447.871	22868.47
448.078	24158.69
448.284	22821.37
448.491	23511.53
448.697	24332.77
448.903	24930.78
449.11	24697.31
449.316	24429.02
449.522	24861.15
449.728	25975.24
449.935	25979.34
450.141	25872.84
450.347	26216.9
450.553	25891.27
450.76	25954.76
450.966	27011.51
451.172	26503.62
451.378	27187.64
451.584	26628.54
451.791	27460.02
451.997	27249.08
452.203	28107.18
452.409	27666.86
452.615	27711.92
452.821	26597.82
453.027	26276.29
453.233	27572.66
453.44	26556.86
453.646	27017.66
453.852	27339.19
454.058	27263.41
454.264	26655.17
454.47	27038.14
454.676	26706.37
454.882	27746.73
455.088	25014.74
455.294	25450.96
455.5	25825.74
455.705	26247.62
455.911	25047.51
456.117	24408.54
456.323	24535.52
456.529	23175.67
456.735	24154.6
456.941	23357.94
457.147	23339.51
457.352	22602.24
457.558	21989.89
457.764	21967.37
457.97	21637.64
458.176	21127.7
458.381	21117.46
458.587	20105.76
458.793	20183.59
458.999	19124.79
459.204	20820.5
459.41	20048.42
459.616	18549.31
459.821	18715.19
460.027	18430.52
460.233	18270.78
460.438	17449.55
460.644	17461.83
460.85	16542.3
461.055	16530.01
461.261	16417.37
461.466	15415.91
461.672	14715.51
461.878	15686.25
462.083	14647.93
462.289	14666.36
462.494	14320.25
462.7	13783.68
462.905	13206.16
463.111	13650.57
463.316	13867.65
463.522	13646.47
463.727	13582.98
463.932	13488.78
464.138	13400.71
464.343	13601.41
464.549	13224.59
464.754	13466.25
464.959	13290.12
465.165	13087.37
465.37	12685.97
465.575	12403.35
465.781	12944.02
465.986	12903.06
466.191	12569.24
466.397	12432.02
466.602	11735.71
466.807	12225.18
467.012	12092.06
467.218	11874.98
467.423	11973.28
467.628	12010.14
467.833	12255.9
