Data from USB4F104151__4__12-34-51-206.txt Node

Date: Fri Mar 14 12:34:51 EDT 2025
User: louis
Spectrometer: USB4F10415
Trigger mode: 4
Integration Time (sec): 2.000000E-2
Scans to average: 1
Electric dark correction enabled: true
Nonlinearity correction enabled: false
Boxcar width: 0
XAxis mode: Wavelengths
Number of Pixels in Spectrum: 3648
>>>>>Begin Spectral Data<<<<<
178.204	-44.88
178.424	-44.88
178.644	-44.88
178.864	-85.84
179.084	-89.94
179.304	-57.17
179.524	16.55
179.744	43.18
179.964	22.7
180.184	51.37
180.404	-8.02
180.624	41.13
180.844	-8.02
181.064	-61.27
181.283	39.08
181.503	-71.51
181.723	-8.02
181.943	-26.45
182.163	2.22
182.383	45.23
182.602	82.09
182.822	12.46
183.042	32.94
183.262	-32.6
183.482	14.51
183.701	-44.88
183.921	65.71
184.141	18.6
184.361	84.14
184.58	34.99
184.8	24.75
185.02	-44.88
185.239	43.18
185.459	49.32
185.679	49.32
185.898	20.65
186.118	34.99
186.338	-32.6
186.557	51.37
186.777	22.7
186.997	26.79
187.216	-73.56
187.436	82.09
187.655	-22.36
187.875	20.65
188.095	20.65
188.314	-3.93
188.534	47.27
188.753	61.61
188.973	-12.12
189.192	77.99
189.412	-5.97
189.631	53.42
189.851	86.19
190.07	77.99
190.29	20.65
190.509	57.51
190.729	57.51
190.948	41.13
191.168	139.43
191.387	20.65
191.607	22.7
191.826	14.51
192.045	2.22
192.265	32.94
192.484	96.43
192.704	61.61
192.923	-5.97
193.142	123.05
193.362	84.14
193.581	61.61
193.8	67.75
194.02	75.95
194.239	30.89
194.458	47.27
194.678	55.47
194.897	-18.26
195.116	2.22
195.335	-10.07
195.555	-18.26
195.774	77.99
195.993	51.37
196.212	16.55
196.432	20.65
196.651	67.75
196.87	82.09
197.089	88.23
197.308	-20.31
197.528	18.6
197.747	26.79
197.966	129.19
198.185	106.67
198.404	80.04
198.623	39.08
198.842	32.94
199.062	10.41
199.281	63.66
199.5	71.85
199.719	10.41
199.938	61.61
200.157	39.08
200.376	96.43
200.595	-8.02
200.814	57.51
201.033	53.42
201.252	43.18
201.471	18.6
201.69	86.19
201.909	55.47
202.128	10.41
202.347	43.18
202.566	-26.45
202.785	-3.93
203.004	32.94
203.223	24.75
203.442	57.51
203.661	-10.07
203.879	20.65
204.098	49.32
204.317	61.61
204.536	6.31
204.755	30.89
204.974	131.24
205.193	67.75
205.411	75.95
205.63	37.03
205.849	96.43
206.068	69.8
206.287	34.99
206.505	45.23
206.724	82.09
206.943	67.75
207.162	86.19
207.381	69.8
207.599	57.51
207.818	6.31
208.037	34.99
208.255	34.99
208.474	69.8
208.693	37.03
208.911	0.17
209.13	24.75
209.349	37.03
209.567	8.36
209.786	73.9
210.005	-42.84
210.223	43.18
210.442	53.42
210.661	-26.45
210.879	-22.36
211.098	26.79
211.316	43.18
211.535	12.46
211.753	94.38
211.972	69.8
212.191	39.08
212.409	39.08
212.628	28.84
212.846	-3.93
213.065	57.51
213.283	24.75
213.502	63.66
213.72	12.46
213.938	63.66
214.157	16.55
214.375	28.84
214.594	75.95
214.812	88.23
215.031	43.18
215.249	-14.17
215.467	30.89
215.686	41.13
215.904	45.23
216.122	-12.12
216.341	45.23
216.559	-22.36
216.778	116.9
216.996	96.43
217.214	77.99
217.432	75.95
217.651	8.36
217.869	26.79
218.087	45.23
218.306	37.03
218.524	-1.88
218.742	41.13
218.96	43.18
219.179	-3.93
219.397	37.03
219.615	92.33
219.833	98.47
220.051	43.18
220.27	88.23
220.488	22.7
220.706	67.75
220.924	14.51
221.142	41.13
221.36	-32.6
221.578	65.71
221.796	-16.21
222.015	71.85
222.233	32.94
222.451	77.99
222.669	61.61
222.887	75.95
223.105	-1.88
223.323	41.13
223.541	-10.07
223.759	61.61
223.977	75.95
224.195	43.18
224.413	39.08
224.631	57.51
224.849	39.08
225.067	47.27
225.285	6.31
225.503	53.42
225.721	0.17
225.939	18.6
226.157	6.31
226.375	65.71
226.592	12.46
226.81	-16.21
227.028	49.32
227.246	8.36
227.464	43.18
227.682	86.19
227.9	-1.88
228.117	131.24
228.335	-16.21
228.553	-1.88
228.771	-16.21
228.989	80.04
229.206	-3.93
229.424	71.85
229.642	-26.45
229.86	45.23
230.077	-28.5
230.295	63.66
230.513	75.95
230.731	22.7
230.948	55.47
231.166	41.13
231.384	43.18
231.601	34.99
231.819	47.27
232.037	28.84
232.254	-26.45
232.472	8.36
232.689	8.36
232.907	34.99
233.125	-3.93
233.342	92.33
233.56	-40.79
233.777	86.19
233.995	-22.36
234.213	88.23
234.43	59.56
234.648	18.6
234.865	28.84
235.083	43.18
235.3	-5.97
235.518	34.99
235.735	41.13
235.953	118.95
236.17	2.22
236.388	18.6
236.605	14.51
236.822	30.89
237.04	102.57
237.257	-28.5
237.475	12.46
237.692	4.27
237.909	-8.02
238.127	-14.17
238.344	92.33
238.562	82.09
238.779	-85.84
238.996	-18.26
239.214	-59.22
239.431	82.09
239.648	18.6
239.865	71.85
240.083	39.08
240.3	-5.97
240.517	-16.21
240.735	84.14
240.952	32.94
241.169	53.42
241.386	94.38
241.603	24.75
241.821	65.71
242.038	-20.31
242.255	-3.93
242.472	18.6
242.689	61.61
242.907	28.84
243.124	49.32
243.341	6.31
243.558	12.46
243.775	90.28
243.992	88.23
244.209	-18.26
244.426	43.18
244.643	59.56
244.86	16.55
245.078	-16.21
245.295	16.55
245.512	-26.45
245.729	24.75
245.946	24.75
246.163	43.18
246.38	57.51
246.597	49.32
246.814	2.22
247.031	2.22
247.248	121
247.464	45.23
247.681	63.66
247.898	39.08
248.115	14.51
248.332	6.31
248.549	55.47
248.766	49.32
248.983	28.84
249.2	98.47
249.417	6.31
249.633	61.61
249.85	82.09
250.067	22.7
250.284	18.6
250.501	22.7
250.717	28.84
250.934	26.79
251.151	-8.02
251.368	32.94
251.585	28.84
251.801	108.71
252.018	32.94
252.235	-14.17
252.451	10.41
252.668	77.99
252.885	26.79
253.102	82.09
253.318	41.13
253.535	63.66
253.752	47.27
253.968	26.79
254.185	57.51
254.401	14.51
254.618	0.17
254.835	-8.02
255.051	94.38
255.268	-18.26
255.484	121
255.701	45.23
255.917	55.47
256.134	24.75
256.351	-10.07
256.567	-61.27
256.784	63.66
257	-98.13
257.217	71.85
257.433	20.65
257.65	24.75
257.866	53.42
258.082	34.99
258.299	82.09
258.515	32.94
258.732	2.22
258.948	8.36
259.165	28.84
259.381	34.99
259.597	53.42
259.814	88.23
260.03	67.75
260.246	69.8
260.463	77.99
260.679	45.23
260.895	51.37
261.112	82.09
261.328	37.03
261.544	63.66
261.761	61.61
261.977	-26.45
262.193	-38.74
262.409	59.56
262.626	26.79
262.842	63.66
263.058	18.6
263.274	84.14
263.49	43.18
263.707	45.23
263.923	26.79
264.139	47.27
264.355	49.32
264.571	51.37
264.787	57.51
265.004	37.03
265.22	2.22
265.436	18.6
265.652	127.14
265.868	59.56
266.084	-40.79
266.3	53.42
266.516	10.41
266.732	-3.93
266.948	39.08
267.164	75.95
267.38	61.61
267.596	57.51
267.812	121
268.028	14.51
268.244	-3.93
268.46	8.36
268.676	4.27
268.892	75.95
269.108	-73.56
269.324	-20.31
269.54	47.27
269.756	51.37
269.972	-36.69
270.188	32.94
270.403	-24.4
270.619	-10.07
270.835	43.18
271.051	32.94
271.267	24.75
271.483	73.9
271.698	-18.26
271.914	51.37
272.13	26.79
272.346	18.6
272.562	37.03
272.777	45.23
272.993	49.32
273.209	90.28
273.425	22.7
273.64	45.23
273.856	10.41
274.072	63.66
274.287	-1.88
274.503	22.7
274.719	92.33
274.934	53.42
275.15	71.85
275.366	2.22
275.581	53.42
275.797	-18.26
276.012	28.84
276.228	108.71
276.444	30.89
276.659	80.04
276.875	41.13
277.09	43.18
277.306	-10.07
277.521	49.32
277.737	41.13
277.952	100.52
278.168	71.85
278.383	73.9
278.599	26.79
278.814	73.9
279.03	-48.98
279.245	67.75
279.461	0.17
279.676	-14.17
279.892	-5.97
280.107	47.27
280.322	-12.12
280.538	37.03
280.753	-12.12
280.969	47.27
281.184	-22.36
281.399	57.51
281.615	67.75
281.83	22.7
282.045	114.86
282.26	30.89
282.476	-3.93
282.691	63.66
282.906	22.7
283.122	-53.08
283.337	-46.93
283.552	69.8
283.767	-24.4
283.983	37.03
284.198	32.94
284.413	26.79
284.628	-28.5
284.843	-32.6
285.058	65.71
285.274	39.08
285.489	71.85
285.704	12.46
285.919	75.95
286.134	-3.93
286.349	96.43
286.564	14.51
286.779	18.6
286.995	24.75
287.21	24.75
287.425	-57.17
287.64	-10.07
287.855	-1.88
288.07	82.09
288.285	69.8
288.5	39.08
288.715	121
288.93	47.27
289.145	61.61
289.36	20.65
289.575	57.51
289.79	116.9
290.004	4.27
290.219	24.75
290.434	8.36
290.649	10.41
290.864	14.51
291.079	67.75
291.294	32.94
291.509	67.75
291.724	-3.93
291.938	84.14
292.153	18.6
292.368	106.67
292.583	90.28
292.798	49.32
293.012	39.08
293.227	-8.02
293.442	80.04
293.657	84.14
293.871	59.56
294.086	96.43
294.301	-24.4
294.516	8.36
294.73	20.65
294.945	59.56
295.16	-3.93
295.374	61.61
295.589	2.22
295.804	94.38
296.018	65.71
296.233	129.19
296.447	18.6
296.662	-32.6
296.877	96.43
297.091	30.89
297.306	26.79
297.52	32.94
297.735	24.75
297.949	39.08
298.164	63.66
298.378	47.27
298.593	51.37
298.807	2.22
299.022	37.03
299.236	30.89
299.451	-14.17
299.665	61.61
299.88	71.85
300.094	55.47
300.309	88.23
300.523	16.55
300.737	51.37
300.952	-5.97
301.166	106.67
301.381	49.32
301.595	39.08
301.809	-5.97
302.024	-18.26
302.238	-3.93
302.452	108.71
302.667	8.36
302.881	106.67
303.095	114.86
303.309	24.75
303.524	-20.31
303.738	-12.12
303.952	12.46
304.166	41.13
304.381	-12.12
304.595	96.43
304.809	88.23
305.023	12.46
305.237	41.13
305.452	-1.88
305.666	80.04
305.88	51.37
306.094	-51.03
306.308	34.99
306.522	49.32
306.736	-3.93
306.95	102.57
307.164	4.27
307.379	77.99
307.593	104.62
307.807	10.41
308.021	73.9
308.235	63.66
308.449	34.99
308.663	28.84
308.877	43.18
309.091	14.51
309.305	26.79
309.519	-16.21
309.733	6.31
309.947	-12.12
310.161	61.61
310.374	73.9
310.588	73.9
310.802	20.65
311.016	-16.21
311.23	65.71
311.444	-18.26
311.658	65.71
311.872	59.56
312.085	96.43
312.299	59.56
312.513	12.46
312.727	-3.93
312.941	8.36
313.154	37.03
313.368	63.66
313.582	-32.6
313.796	-16.21
314.009	-18.26
314.223	73.9
314.437	55.47
314.651	-8.02
314.864	20.65
315.078	12.46
315.292	80.04
315.505	39.08
315.719	55.47
315.933	30.89
316.146	84.14
316.36	59.56
316.573	14.51
316.787	20.65
317.001	80.04
317.214	12.46
317.428	75.95
317.641	73.9
317.855	24.75
318.068	41.13
318.282	75.95
318.495	118.95
318.709	108.71
318.922	59.56
319.136	86.19
319.349	12.46
319.563	57.51
319.776	75.95
319.99	92.33
320.203	108.71
320.417	-12.12
320.63	88.23
320.843	18.6
321.057	-12.12
321.27	34.99
321.483	8.36
321.697	149.67
321.91	-14.17
322.124	49.32
322.337	0.17
322.55	45.23
322.763	88.23
322.977	39.08
323.19	26.79
323.403	57.51
323.617	20.65
323.83	98.47
324.043	-20.31
324.256	8.36
324.469	0.17
324.683	28.84
324.896	55.47
325.109	20.65
325.322	-14.17
325.535	49.32
325.748	34.99
325.962	4.27
326.175	121
326.388	110.76
326.601	65.71
326.814	30.89
327.027	55.47
327.24	49.32
327.453	-5.97
327.666	57.51
327.879	55.47
328.092	59.56
328.305	59.56
328.518	57.51
328.731	30.89
328.944	57.51
329.157	-48.98
329.37	86.19
329.583	12.46
329.796	80.04
330.009	-18.26
330.222	47.27
330.435	41.13
330.648	92.33
330.861	71.85
331.073	10.41
331.286	16.55
331.499	32.94
331.712	30.89
331.925	59.56
332.138	32.94
332.35	90.28
332.563	24.75
332.776	155.82
332.989	28.84
333.202	-28.5
333.414	-16.21
333.627	45.23
333.84	69.8
334.053	59.56
334.265	77.99
334.478	20.65
334.691	22.7
334.903	-42.84
335.116	80.04
335.329	-8.02
335.541	26.79
335.754	-44.88
335.966	0.17
336.179	65.71
336.392	-8.02
336.604	4.27
336.817	71.85
337.029	-10.07
337.242	63.66
337.454	94.38
337.667	12.46
337.88	53.42
338.092	2.22
338.305	112.81
338.517	-1.88
338.729	45.23
338.942	39.08
339.154	2.22
339.367	55.47
339.579	59.56
339.792	-3.93
340.004	98.47
340.217	61.61
340.429	98.47
340.641	16.55
340.854	2.22
341.066	114.86
341.278	63.66
341.491	57.51
341.703	34.99
341.915	43.18
342.128	49.32
342.34	28.84
342.552	-30.55
342.764	34.99
342.977	55.47
343.189	104.62
343.401	45.23
343.613	28.84
343.826	20.65
344.038	-20.31
344.25	69.8
344.462	94.38
344.674	63.66
344.886	71.85
345.099	108.71
345.311	57.51
345.523	110.76
345.735	75.95
345.947	41.13
346.159	24.75
346.371	63.66
346.583	59.56
346.795	90.28
347.007	18.6
347.219	53.42
347.431	-18.26
347.643	123.05
347.855	-30.55
348.067	71.85
348.279	61.61
348.491	34.99
348.703	88.23
348.915	0.17
349.127	39.08
349.339	32.94
349.551	63.66
349.763	61.61
349.975	108.71
350.187	86.19
350.399	77.99
350.61	168.1
350.822	47.27
351.034	90.28
351.246	75.95
351.458	51.37
351.669	82.09
351.881	77.99
352.093	47.27
352.305	57.51
352.517	104.62
352.728	116.9
352.94	41.13
353.152	69.8
353.363	43.18
353.575	86.19
353.787	86.19
353.999	106.67
354.21	100.52
354.422	104.62
354.633	41.13
354.845	26.79
355.057	20.65
355.268	98.47
355.48	61.61
355.692	12.46
355.903	88.23
356.115	37.03
356.326	32.94
356.538	92.33
356.749	94.38
356.961	100.52
357.172	4.27
357.384	88.23
357.595	86.19
357.807	30.89
358.018	69.8
358.23	43.18
358.441	53.42
358.653	53.42
358.864	10.41
359.075	51.37
359.287	98.47
359.498	92.33
359.709	41.13
359.921	100.52
360.132	114.86
360.344	-5.97
360.555	57.51
360.766	116.9
360.977	20.65
361.189	114.86
361.4	59.56
361.611	82.09
361.823	102.57
362.034	53.42
362.245	-26.45
362.456	12.46
362.667	80.04
362.879	20.65
363.09	145.58
363.301	51.37
363.512	-38.74
363.723	4.27
363.935	102.57
364.146	41.13
364.357	61.61
364.568	69.8
364.779	-16.21
364.99	65.71
365.201	22.7
365.412	47.27
365.623	-16.21
365.834	82.09
366.045	80.04
366.256	53.42
366.467	32.94
366.678	73.9
366.889	88.23
367.1	39.08
367.311	30.89
367.522	102.57
367.733	86.19
367.944	20.65
368.155	41.13
368.366	41.13
368.577	59.56
368.788	57.51
368.999	51.37
369.209	121
369.42	59.56
369.631	80.04
369.842	2.22
370.053	16.55
370.264	88.23
370.474	10.41
370.685	39.08
370.896	47.27
371.107	80.04
371.317	6.31
371.528	39.08
371.739	45.23
371.95	67.75
372.16	-5.97
372.371	63.66
372.582	-14.17
372.792	75.95
373.003	28.84
373.214	28.84
373.424	39.08
373.635	47.27
373.846	75.95
374.056	61.61
374.267	14.51
374.477	65.71
374.688	8.36
374.898	30.89
375.109	92.33
375.319	51.37
375.53	137.38
375.74	59.56
375.951	32.94
376.161	71.85
376.372	59.56
376.582	0.17
376.793	73.9
377.003	39.08
377.214	82.09
377.424	49.32
377.635	8.36
377.845	71.85
378.055	63.66
378.266	47.27
378.476	75.95
378.686	108.71
378.897	6.31
379.107	112.81
379.317	47.27
379.528	12.46
379.738	53.42
379.948	-1.88
380.158	32.94
380.369	80.04
380.579	80.04
380.789	143.53
380.999	51.37
381.21	110.76
381.42	96.43
381.63	61.61
381.84	20.65
382.05	37.03
382.261	108.71
382.471	88.23
382.681	92.33
382.891	90.28
383.101	61.61
383.311	47.27
383.521	26.79
383.731	110.76
383.941	104.62
384.151	80.04
384.361	77.99
384.571	4.27
384.781	53.42
384.991	18.6
385.201	114.86
385.411	86.19
385.621	77.99
385.831	20.65
386.041	59.56
386.251	34.99
386.461	90.28
386.671	59.56
386.881	88.23
387.091	86.19
387.301	80.04
387.511	90.28
387.72	110.76
387.93	104.62
388.14	22.7
388.35	53.42
388.56	98.47
388.769	43.18
388.979	98.47
389.189	84.14
389.399	-8.02
389.609	37.03
389.818	94.38
390.028	57.51
390.238	98.47
390.447	112.81
390.657	80.04
390.867	100.52
391.076	-34.64
391.286	86.19
391.496	20.65
391.705	65.71
391.915	80.04
392.125	121
392.334	118.95
392.544	26.79
392.753	61.61
392.963	16.55
393.172	112.81
393.382	94.38
393.591	121
393.801	49.32
394.01	88.23
394.22	92.33
394.429	24.75
394.639	96.43
394.848	96.43
395.058	18.6
395.267	94.38
395.477	73.9
395.686	65.71
395.895	102.57
396.105	155.82
396.314	118.95
396.524	100.52
396.733	59.56
396.942	102.57
397.152	100.52
397.361	112.81
397.57	104.62
397.78	77.99
397.989	112.81
398.198	145.58
398.407	77.99
398.617	129.19
398.826	32.94
399.035	104.62
399.244	90.28
399.453	129.19
399.663	129.19
399.872	116.9
400.081	41.13
400.29	110.76
400.499	157.86
400.708	192.68
400.917	204.97
401.127	112.81
401.336	90.28
401.545	84.14
401.754	75.95
401.963	121
402.172	49.32
402.381	151.72
402.59	178.34
402.799	215.21
403.008	184.49
403.217	110.76
403.426	114.86
403.635	75.95
403.844	151.72
404.053	161.96
404.262	159.91
404.471	207.02
404.68	170.15
404.888	149.67
405.097	137.38
405.306	168.1
405.515	151.72
405.724	135.34
405.933	186.54
406.142	143.53
406.35	250.02
406.559	233.64
406.768	153.77
406.977	182.44
407.185	174.25
407.394	229.54
407.603	161.96
407.812	204.97
408.02	200.87
408.229	198.82
408.438	235.69
408.646	268.45
408.855	194.73
409.064	243.88
409.272	254.12
409.481	342.18
409.69	258.21
409.898	293.03
410.107	268.45
410.315	284.84
410.524	295.08
410.733	333.99
410.941	286.89
411.15	299.17
411.358	370.85
411.567	370.85
411.775	350.37
411.984	323.75
412.192	401.57
412.401	407.72
412.609	549.03
412.818	526.5
413.026	407.72
413.234	446.63
413.443	557.22
413.651	436.39
413.86	499.88
414.068	579.75
414.276	551.07
414.485	608.42
414.693	632.99
414.901	612.51
415.11	673.95
415.318	649.38
415.526	686.24
415.734	686.24
415.943	688.29
416.151	792.73
416.359	786.59
416.567	817.31
416.776	792.73
416.984	972.96
417.192	901.28
417.4	841.89
417.608	874.65
417.817	993.44
418.025	944.28
418.233	1075.35
418.441	1081.5
418.649	1073.31
418.857	1204.38
419.065	1212.57
419.273	1171.61
419.481	1255.58
419.689	1380.5
419.897	1403.03
420.105	1454.23
420.313	1388.69
420.521	1603.73
420.729	1527.96
420.937	1556.63
421.145	1605.78
421.353	1562.77
421.561	1767.57
421.769	1693.84
421.977	1835.15
422.185	1912.97
422.393	2027.66
422.601	2074.76
422.809	2115.72
423.017	2121.87
423.224	2224.26
423.432	2252.94
423.64	2205.83
423.848	2496.64
424.056	2398.34
424.263	2658.43
424.471	2640
424.679	2674.82
424.887	2846.85
425.094	2875.52
425.302	2957.44
425.51	2881.66
425.718	3068.03
425.925	3203.19
426.133	3223.67
426.341	3561.59
426.548	3465.33
426.756	3641.46
426.964	3633.27
427.171	3928.17
427.379	3852.4
427.586	4198.51
427.794	4184.17
428.001	4305
428.209	4595.81
428.417	4477.03
428.624	4759.65
428.832	4765.79
429.039	4708.45
429.247	4724.83
429.454	5318.75
429.662	5691.48
429.869	5113.95
430.076	5558.36
430.284	5513.3
430.491	5740.63
430.699	5988.43
430.906	5855.31
431.114	6017.1
431.321	6289.48
431.528	6453.32
431.736	6891.59
431.943	7147.58
432.15	6987.84
432.358	6955.07
432.565	7438.39
432.772	7399.48
432.979	7712.82
433.187	7774.26
433.394	7944.24
433.601	8472.62
433.808	8370.22
434.016	8554.54
434.223	8851.49
434.43	9220.13
434.637	9234.46
434.844	9607.19
435.052	10000.4
435.259	9938.96
435.466	9811.99
435.673	9635.86
435.88	10502.15
436.087	11075.59
436.294	10911.75
436.501	10665.99
436.708	10956.8
436.915	11433.98
437.122	11886.58
437.329	11806.71
437.537	12277.74
437.743	12509.16
437.95	12343.28
438.157	12879.85
438.364	13500.38
438.571	13500.38
438.778	13387.74
438.985	14618.57
439.192	14061.52
439.399	14788.55
439.606	14299.09
439.813	15298.5
440.02	16017.33
440.227	15665.08
440.433	15603.64
440.64	15865.78
440.847	15947.7
441.054	16400.3
441.261	17381.28
441.467	17280.93
441.674	17412
441.881	18257.81
442.088	18116.5
442.294	17995.67
442.501	18579.34
442.708	18788.24
442.914	19513.22
443.121	20270.97
443.328	19955.58
443.534	21055.34
443.741	20604.78
443.948	20359.03
444.154	22019.93
444.361	21639.01
444.568	22056.79
444.774	21706.59
444.981	22175.58
445.187	23025.48
445.394	23793.47
445.6	23793.47
445.807	25665.32
446.013	24758.06
446.22	24936.24
446.426	25966.37
446.633	26539.8
446.839	27234.06
447.046	26224.41
447.252	27647.75
447.459	27582.21
447.665	27260.68
447.871	28964.59
448.078	30082.78
448.284	28446.46
448.491	29284.08
448.697	30535.38
448.903	31252.17
449.11	31291.09
449.316	30598.87
449.522	31135.44
449.728	32409.28
449.935	32386.75
450.141	31989.44
450.347	33124.02
450.553	32005.83
450.76	32102.08
450.966	33427.12
451.172	33253.04
451.378	33930.92
451.584	33294
451.791	33865.38
451.997	33851.05
452.203	34477.72
452.409	34475.68
452.615	34354.85
452.821	33310.38
453.027	32614.07
453.233	34662.04
453.44	33171.12
453.646	33439.4
453.852	34123.43
454.058	34201.25
454.264	32908.98
454.47	33900.2
454.676	33384.11
454.882	34219.68
455.088	31282.89
455.294	31686.34
455.5	32401.08
455.705	32700.09
455.911	31180.49
456.117	30779.09
456.323	30371.55
456.529	29019.89
456.735	29839.08
456.941	29308.65
457.147	28704.5
457.352	27780.87
457.558	27715.33
457.764	27758.34
457.97	27080.46
458.176	26330.9
458.381	26572.57
458.587	24954.67
458.793	25005.87
458.999	24194.87
459.204	25423.65
459.41	24993.58
459.616	23340.87
459.821	23283.53
460.027	23170.89
460.233	22503.25
460.438	21552.99
460.644	21825.37
460.85	20516.72
461.055	20590.45
461.261	20420.47
461.466	18997.13
461.672	18395.03
461.878	19908.47
462.083	18374.55
462.289	17921.95
462.494	17794.97
462.7	16914.34
462.905	16519.09
463.111	17334.18
463.316	17307.55
463.522	16623.53
463.727	17031.08
463.932	16621.49
464.138	16631.72
464.343	16793.51
464.549	16129.97
464.754	16867.24
464.959	16525.23
465.165	16355.25
465.37	15812.54
465.575	15335.36
465.781	15863.74
465.986	16037.81
466.191	15376.32
466.397	15200.19
466.602	14333.9
466.807	14909.38
467.012	15038.41
467.218	15103.94
467.423	14737.35
467.628	14882.76
