Data from USB4F104151__98__12-37-13-190.txt Node

Date: Fri Mar 14 12:37:13 EDT 2025
User: louis
Spectrometer: USB4F10415
Trigger mode: 4
Integration Time (sec): 2.000000E-2
Scans to average: 1
Electric dark correction enabled: true
Nonlinearity correction enabled: false
Boxcar width: 0
XAxis mode: Wavelengths
Number of Pixels in Spectrum: 3648
>>>>>Begin Spectral Data<<<<<
178.204	-107.69
178.424	-107.69
178.644	-107.69
178.864	-56.49
179.084	-107.69
179.304	68.44
179.524	-21.67
179.744	9.05
179.964	-19.63
180.184	60.24
180.404	-21.67
180.624	2.9
180.844	-54.44
181.064	-54.44
181.283	29.52
181.503	-19.63
181.723	21.33
181.943	7
182.163	54.1
182.383	62.29
182.602	66.39
182.822	54.1
183.042	43.86
183.262	31.57
183.482	41.81
183.701	19.29
183.921	41.81
184.141	9.05
184.361	86.87
184.58	76.63
184.8	31.57
185.02	-3.24
185.239	82.77
185.459	54.1
185.679	88.92
185.898	66.39
186.118	47.96
186.338	43.86
186.557	86.87
186.777	-9.39
186.997	27.48
187.216	-36.01
187.436	88.92
187.655	50
187.875	72.53
188.095	-13.48
188.314	93.01
188.534	66.39
188.753	35.67
188.973	29.52
189.192	70.48
189.412	117.59
189.631	56.15
189.851	-40.11
190.07	80.72
190.29	64.34
190.509	148.31
190.729	74.58
190.948	33.62
191.168	181.07
191.387	66.39
191.607	56.15
191.826	99.16
192.045	13.14
192.265	84.82
192.484	62.29
192.704	17.24
192.923	74.58
193.142	29.52
193.362	78.68
193.581	47.96
193.8	41.81
194.02	82.77
194.239	64.34
194.458	17.24
194.678	15.19
194.897	31.57
195.116	66.39
195.335	109.4
195.555	7
195.774	33.62
195.993	78.68
196.212	9.05
196.432	23.38
196.651	33.62
196.87	84.82
197.089	113.49
197.308	23.38
197.528	39.76
197.747	19.29
197.966	129.88
198.185	-5.29
198.404	7
198.623	43.86
198.842	125.78
199.062	17.24
199.281	99.16
199.5	13.14
199.719	76.63
199.938	47.96
200.157	-1.19
200.376	25.43
200.595	111.44
200.814	39.76
201.033	9.05
201.252	13.14
201.471	88.92
201.69	88.92
201.909	21.33
202.128	86.87
202.347	41.81
202.566	17.24
202.785	50
203.004	-5.29
203.223	90.96
203.442	27.48
203.661	58.2
203.879	29.52
204.098	86.87
204.317	23.38
204.536	80.72
204.755	35.67
204.974	47.96
205.193	43.86
205.411	68.44
205.63	4.95
205.849	47.96
206.068	86.87
206.287	19.29
206.505	97.11
206.724	-60.59
206.943	0.85
207.162	43.86
207.381	15.19
207.599	15.19
207.818	52.05
208.037	64.34
208.255	68.44
208.474	80.72
208.693	54.1
208.911	19.29
209.13	35.67
209.349	41.81
209.567	19.29
209.786	33.62
210.005	62.29
210.223	25.43
210.442	11.09
210.661	64.34
210.879	62.29
211.098	23.38
211.316	-17.58
211.535	95.06
211.753	21.33
211.972	136.02
212.191	13.14
212.409	64.34
212.628	17.24
212.846	50
213.065	90.96
213.283	160.59
213.502	21.33
213.72	19.29
213.938	125.78
214.157	39.76
214.375	29.52
214.594	58.2
214.812	11.09
215.031	-11.43
215.249	45.91
215.467	66.39
215.686	19.29
215.904	-9.39
216.122	54.1
216.341	11.09
216.559	23.38
216.778	76.63
216.996	11.09
217.214	31.57
217.432	-31.91
217.651	54.1
217.869	93.01
218.087	33.62
218.306	17.24
218.524	109.4
218.742	-11.43
218.96	74.58
219.179	99.16
219.397	23.38
219.615	80.72
219.833	90.96
220.051	-9.39
220.27	50
220.488	-46.25
220.706	-13.48
220.924	62.29
221.142	31.57
221.36	9.05
221.578	41.81
221.796	45.91
222.015	90.96
222.233	103.25
222.451	113.49
222.669	-40.11
222.887	33.62
223.105	52.05
223.323	95.06
223.541	4.95
223.759	27.48
223.977	50
224.195	-13.48
224.413	109.4
224.631	64.34
224.849	99.16
225.067	93.01
225.285	-33.96
225.503	39.76
225.721	-9.39
225.939	111.44
226.157	33.62
226.375	101.2
226.592	88.92
226.81	50
227.028	72.53
227.246	121.68
227.464	23.38
227.682	33.62
227.9	56.15
228.117	-21.67
228.335	31.57
228.553	-5.29
228.771	29.52
228.989	88.92
229.206	50
229.424	43.86
229.642	19.29
229.86	47.96
230.077	84.82
230.295	95.06
230.513	58.2
230.731	88.92
230.948	58.2
231.166	136.02
231.384	35.67
231.601	90.96
231.819	78.68
232.037	11.09
232.254	-44.2
232.472	43.86
232.689	86.87
232.907	64.34
233.125	68.44
233.342	60.24
233.56	-17.58
233.777	84.82
233.995	56.15
234.213	97.11
234.43	95.06
234.648	25.43
234.865	74.58
235.083	45.91
235.3	60.24
235.518	62.29
235.735	131.92
235.953	115.54
236.17	80.72
236.388	78.68
236.605	95.06
236.822	54.1
237.04	33.62
237.257	9.05
237.475	-5.29
237.692	70.48
237.909	76.63
238.127	7
238.344	66.39
238.562	-15.53
238.779	13.14
238.996	56.15
239.214	58.2
239.431	84.82
239.648	64.34
239.865	-11.43
240.083	29.52
240.3	33.62
240.517	29.52
240.735	76.63
240.952	95.06
241.169	113.49
241.386	125.78
241.603	43.86
241.821	37.72
242.038	76.63
242.255	95.06
242.472	29.52
242.689	33.62
242.907	117.59
243.124	15.19
243.341	76.63
243.558	35.67
243.775	-1.19
243.992	-40.11
244.209	39.76
244.426	72.53
244.643	123.73
244.86	70.48
245.078	74.58
245.295	35.67
245.512	68.44
245.729	76.63
245.946	4.95
246.163	78.68
246.38	35.67
246.597	41.81
246.814	93.01
247.031	27.48
247.248	88.92
247.464	23.38
247.681	62.29
247.898	72.53
248.115	84.82
248.332	15.19
248.549	123.73
248.766	27.48
248.983	97.11
249.2	56.15
249.417	45.91
249.633	41.81
249.85	31.57
250.067	86.87
250.284	107.35
250.501	27.48
250.717	66.39
250.934	35.67
251.151	68.44
251.368	62.29
251.585	60.24
251.801	84.82
252.018	15.19
252.235	129.88
252.451	33.62
252.668	-19.63
252.885	62.29
253.102	131.92
253.318	35.67
253.535	60.24
253.752	66.39
253.968	7
254.185	103.25
254.401	19.29
254.618	41.81
254.835	0.85
255.051	129.88
255.268	39.76
255.484	70.48
255.701	45.91
255.917	80.72
256.134	-3.24
256.351	9.05
256.567	41.81
256.784	76.63
257	-15.53
257.217	41.81
257.433	74.58
257.65	148.31
257.866	37.72
258.082	11.09
258.299	88.92
258.515	78.68
258.732	-21.67
258.948	45.91
259.165	84.82
259.381	74.58
259.597	125.78
259.814	15.19
260.03	64.34
260.246	45.91
260.463	68.44
260.679	23.38
260.895	52.05
261.112	21.33
261.328	140.12
261.544	82.77
261.761	72.53
261.977	64.34
262.193	7
262.409	56.15
262.626	93.01
262.842	39.76
263.058	31.57
263.274	17.24
263.49	68.44
263.707	136.02
263.923	105.3
264.139	-7.34
264.355	47.96
264.571	74.58
264.787	-5.29
265.004	121.68
265.22	-7.34
265.436	68.44
265.652	4.95
265.868	56.15
266.084	78.68
266.3	-5.29
266.516	103.25
266.732	27.48
266.948	41.81
267.164	47.96
267.38	84.82
267.596	19.29
267.812	66.39
268.028	58.2
268.244	7
268.46	13.14
268.676	29.52
268.892	82.77
269.108	52.05
269.324	86.87
269.54	-9.39
269.756	148.31
269.972	88.92
270.188	113.49
270.403	7
270.619	70.48
270.835	47.96
271.051	80.72
271.267	2.9
271.483	13.14
271.698	35.67
271.914	88.92
272.13	39.76
272.346	31.57
272.562	76.63
272.777	74.58
272.993	-15.53
273.209	60.24
273.425	97.11
273.64	68.44
273.856	47.96
274.072	68.44
274.287	43.86
274.503	136.02
274.719	54.1
274.934	86.87
275.15	0.85
275.366	78.68
275.581	15.19
275.797	68.44
276.012	82.77
276.228	-9.39
276.444	82.77
276.659	31.57
276.875	29.52
277.09	33.62
277.306	37.72
277.521	101.2
277.737	52.05
277.952	76.63
278.168	31.57
278.383	2.9
278.599	33.62
278.814	86.87
279.03	29.52
279.245	54.1
279.461	0.85
279.676	80.72
279.892	37.72
280.107	41.81
280.322	15.19
280.538	27.48
280.753	-1.19
280.969	111.44
281.184	-13.48
281.399	97.11
281.615	125.78
281.83	-1.19
282.045	27.48
282.26	60.24
282.476	72.53
282.691	31.57
282.906	50
283.122	27.48
283.337	95.06
283.552	41.81
283.767	107.35
283.983	78.68
284.198	50
284.413	133.97
284.628	13.14
284.843	-13.48
285.058	78.68
285.274	121.68
285.489	37.72
285.704	97.11
285.919	39.76
286.134	70.48
286.349	93.01
286.564	41.81
286.779	95.06
286.995	54.1
287.21	21.33
287.425	62.29
287.64	56.15
287.855	160.59
288.07	52.05
288.285	101.2
288.5	127.83
288.715	86.87
288.93	82.77
289.145	78.68
289.36	70.48
289.575	95.06
289.79	111.44
290.004	47.96
290.219	66.39
290.434	33.62
290.649	13.14
290.864	27.48
291.079	0.85
291.294	76.63
291.509	76.63
291.724	11.09
291.938	13.14
292.153	170.83
292.368	11.09
292.583	58.2
292.798	72.53
293.012	66.39
293.227	129.88
293.442	107.35
293.657	97.11
293.871	50
294.086	95.06
294.301	66.39
294.516	117.59
294.73	82.77
294.945	54.1
295.16	43.86
295.374	52.05
295.589	47.96
295.804	-42.15
296.018	56.15
296.233	82.77
296.447	50
296.662	105.3
296.877	119.64
297.091	27.48
297.306	2.9
297.52	27.48
297.735	125.78
297.949	72.53
298.164	88.92
298.378	43.86
298.593	4.95
298.807	121.68
299.022	43.86
299.236	93.01
299.451	80.72
299.665	31.57
299.88	70.48
300.094	-7.34
300.309	64.34
300.523	54.1
300.737	66.39
300.952	23.38
301.166	52.05
301.381	111.44
301.595	-17.58
301.809	54.1
302.024	86.87
302.238	56.15
302.452	93.01
302.667	54.1
302.881	95.06
303.095	82.77
303.309	78.68
303.524	52.05
303.738	117.59
303.952	27.48
304.166	-33.96
304.381	109.4
304.595	39.76
304.809	35.67
305.023	54.1
305.237	82.77
305.452	-25.77
305.666	82.77
305.88	54.1
306.094	113.49
306.308	27.48
306.522	66.39
306.736	99.16
306.95	72.53
307.164	45.91
307.379	-9.39
307.593	138.07
307.807	23.38
308.021	64.34
308.235	25.43
308.449	17.24
308.663	41.81
308.877	66.39
309.091	84.82
309.305	37.72
309.519	31.57
309.733	84.82
309.947	78.68
310.161	99.16
310.374	64.34
310.588	56.15
310.802	23.38
311.016	50
311.23	56.15
311.444	68.44
311.658	-13.48
311.872	88.92
312.085	117.59
312.299	140.12
312.513	80.72
312.727	88.92
312.941	-5.29
313.154	131.92
313.368	90.96
313.582	72.53
313.796	90.96
314.009	56.15
314.223	115.54
314.437	56.15
314.651	105.3
314.864	50
315.078	52.05
315.292	25.43
315.505	107.35
315.719	82.77
315.933	127.83
316.146	-9.39
316.36	54.1
316.573	78.68
316.787	37.72
317.001	33.62
317.214	19.29
317.428	11.09
317.641	-15.53
317.855	33.62
318.068	25.43
318.282	54.1
318.495	84.82
318.709	82.77
318.922	47.96
319.136	64.34
319.349	76.63
319.563	103.25
319.776	4.95
319.99	9.05
320.203	33.62
320.417	133.97
320.63	109.4
320.843	97.11
321.057	62.29
321.27	62.29
321.483	78.68
321.697	113.49
321.91	52.05
322.124	66.39
322.337	58.2
322.55	41.81
322.763	101.2
322.977	60.24
323.19	-15.53
323.403	68.44
323.617	84.82
323.83	23.38
324.043	109.4
324.256	60.24
324.469	76.63
324.683	127.83
324.896	68.44
325.109	95.06
325.322	70.48
325.535	66.39
325.748	41.81
325.962	41.81
326.175	50
326.388	150.36
326.601	74.58
326.814	17.24
327.027	66.39
327.24	80.72
327.453	50
327.666	119.64
327.879	66.39
328.092	129.88
328.305	136.02
328.518	88.92
328.731	-11.43
328.944	101.2
329.157	56.15
329.37	68.44
329.583	66.39
329.796	121.68
330.009	9.05
330.222	105.3
330.435	27.48
330.648	41.81
330.861	17.24
331.073	82.77
331.286	66.39
331.499	107.35
331.712	60.24
331.925	127.83
332.138	109.4
332.35	144.21
332.563	56.15
332.776	152.4
332.989	72.53
333.202	111.44
333.414	80.72
333.627	64.34
333.84	68.44
334.053	11.09
334.265	25.43
334.478	86.87
334.691	33.62
334.903	74.58
335.116	68.44
335.329	80.72
335.541	103.25
335.754	117.59
335.966	64.34
336.179	99.16
336.392	23.38
336.604	25.43
336.817	35.67
337.029	119.64
337.242	50
337.454	64.34
337.667	78.68
337.88	109.4
338.092	33.62
338.305	64.34
338.517	93.01
338.729	54.1
338.942	58.2
339.154	19.29
339.367	54.1
339.579	88.92
339.792	45.91
340.004	93.01
340.217	88.92
340.429	88.92
340.641	78.68
340.854	84.82
341.066	82.77
341.278	78.68
341.491	64.34
341.703	80.72
341.915	52.05
342.128	99.16
342.34	47.96
342.552	97.11
342.764	66.39
342.977	86.87
343.189	111.44
343.401	39.76
343.613	84.82
343.826	140.12
344.038	78.68
344.25	68.44
344.462	64.34
344.674	109.4
344.886	41.81
345.099	109.4
345.311	47.96
345.523	123.73
345.735	47.96
345.947	90.96
346.159	33.62
346.371	60.24
346.583	27.48
346.795	52.05
347.007	95.06
347.219	56.15
347.431	103.25
347.643	103.25
347.855	80.72
348.067	111.44
348.279	23.38
348.491	39.76
348.703	68.44
348.915	45.91
349.127	45.91
349.339	82.77
349.551	45.91
349.763	113.49
349.975	52.05
350.187	70.48
350.399	74.58
350.61	136.02
350.822	13.14
351.034	21.33
351.246	47.96
351.458	62.29
351.669	13.14
351.881	41.81
352.093	111.44
352.305	115.54
352.517	27.48
352.728	138.07
352.94	86.87
353.152	86.87
353.363	109.4
353.575	105.3
353.787	66.39
353.999	101.2
354.21	133.97
354.422	60.24
354.633	47.96
354.845	52.05
355.057	2.9
355.268	80.72
355.48	115.54
355.692	103.25
355.903	121.68
356.115	78.68
356.326	74.58
356.538	86.87
356.749	50
356.961	90.96
357.172	142.16
357.384	74.58
357.595	105.3
357.807	45.91
358.018	60.24
358.23	121.68
358.441	70.48
358.653	43.86
358.864	84.82
359.075	64.34
359.287	158.55
359.498	207.7
359.709	84.82
359.921	64.34
360.132	97.11
360.344	95.06
360.555	58.2
360.766	95.06
360.977	68.44
361.189	35.67
361.4	101.2
361.611	123.73
361.823	109.4
362.034	136.02
362.245	93.01
362.456	72.53
362.667	129.88
362.879	84.82
363.09	90.96
363.301	74.58
363.512	54.1
363.723	70.48
363.935	-52.39
364.146	88.92
364.357	80.72
364.568	80.72
364.779	117.59
364.99	97.11
365.201	45.91
365.412	62.29
365.623	27.48
365.834	121.68
366.045	109.4
366.256	113.49
366.467	39.76
366.678	95.06
366.889	72.53
367.1	158.55
367.311	70.48
367.522	43.86
367.733	150.36
367.944	105.3
368.155	97.11
368.366	76.63
368.577	142.16
368.788	78.68
368.999	58.2
369.209	146.26
369.42	111.44
369.631	93.01
369.842	72.53
370.053	39.76
370.264	121.68
370.474	115.54
370.685	117.59
370.896	37.72
371.107	52.05
371.317	105.3
371.528	74.58
371.739	103.25
371.95	37.72
372.16	88.92
372.371	66.39
372.582	64.34
372.792	70.48
373.003	174.93
373.214	54.1
373.424	64.34
373.635	56.15
373.846	125.78
374.056	54.1
374.267	125.78
374.477	105.3
374.688	115.54
374.898	23.38
375.109	133.97
375.319	152.4
375.53	119.64
375.74	86.87
375.951	164.69
376.161	43.86
376.372	170.83
376.582	84.82
376.793	93.01
377.003	123.73
377.214	119.64
377.424	148.31
377.635	52.05
377.845	93.01
378.055	41.81
378.266	54.1
378.476	82.77
378.686	72.53
378.897	39.76
379.107	88.92
379.317	35.67
379.528	127.83
379.738	111.44
379.948	90.96
380.158	84.82
380.369	121.68
380.579	95.06
380.789	19.29
380.999	123.73
381.21	56.15
381.42	144.21
381.63	140.12
381.84	152.4
382.05	84.82
382.261	179.03
382.471	82.77
382.681	119.64
382.891	107.35
383.101	160.59
383.311	138.07
383.521	78.68
383.731	107.35
383.941	189.27
384.151	95.06
384.361	80.72
384.571	125.78
384.781	62.29
384.991	90.96
385.201	93.01
385.411	82.77
385.621	21.33
385.831	129.88
386.041	50
386.251	90.96
386.461	93.01
386.671	158.55
386.881	109.4
387.091	129.88
387.301	99.16
387.511	189.27
387.72	60.24
387.93	101.2
388.14	58.2
388.35	136.02
388.56	99.16
388.769	109.4
388.979	41.81
389.189	66.39
389.399	99.16
389.609	109.4
389.818	166.74
390.028	162.64
390.238	158.55
390.447	127.83
390.657	54.1
390.867	66.39
391.076	70.48
391.286	88.92
391.496	97.11
391.705	60.24
391.915	183.12
392.125	138.07
392.334	166.74
392.544	105.3
392.753	123.73
392.963	138.07
393.172	146.26
393.382	115.54
393.591	97.11
393.801	99.16
394.01	152.4
394.22	99.16
394.429	111.44
394.639	64.34
394.848	172.88
395.058	78.68
395.267	138.07
395.477	150.36
395.686	191.31
395.895	119.64
396.105	168.79
396.314	68.44
396.524	174.93
396.733	181.07
396.942	174.93
397.152	207.7
397.361	152.4
397.57	131.92
397.78	162.64
397.989	172.88
398.198	117.59
398.407	172.88
398.617	213.84
398.826	90.96
399.035	176.98
399.244	185.17
399.453	160.59
399.663	195.41
399.872	168.79
400.081	187.22
400.29	195.41
400.499	84.82
400.708	197.46
400.917	176.98
401.127	150.36
401.336	262.99
401.545	224.08
401.754	136.02
401.963	205.65
402.172	176.98
402.381	185.17
402.59	240.47
402.799	158.55
403.008	142.16
403.217	246.61
403.426	232.27
403.635	127.83
403.844	183.12
404.053	189.27
404.262	222.03
404.471	258.9
404.68	156.5
404.888	199.51
405.097	176.98
405.306	189.27
405.515	244.56
405.724	219.99
405.933	262.99
406.142	170.83
406.35	275.28
406.559	320.34
406.768	269.14
406.977	295.76
407.185	336.72
407.394	244.56
407.603	318.29
407.812	349.01
408.02	385.87
408.229	318.29
408.438	312.14
408.646	306
408.855	381.78
409.064	365.39
409.272	336.72
409.481	355.15
409.69	365.39
409.898	435.02
410.107	521.04
410.315	500.56
410.524	385.87
410.733	500.56
410.941	363.34
411.15	559.95
411.358	596.81
411.567	615.24
411.775	537.42
411.984	621.39
412.192	670.54
412.401	631.63
412.609	643.92
412.818	656.2
413.026	672.59
413.234	746.31
413.443	713.55
413.651	789.32
413.86	807.75
414.068	828.23
414.276	883.53
414.485	940.87
414.693	942.92
414.901	1026.89
415.11	981.83
415.318	977.73
415.526	1084.23
415.734	1080.13
415.943	1100.61
416.151	1110.85
416.359	1143.62
416.567	1155.91
416.776	1243.97
416.984	1385.28
417.192	1461.06
417.4	1456.96
417.608	1327.94
417.817	1508.16
418.025	1555.26
418.233	1641.28
418.441	1624.89
418.649	1702.72
418.857	1741.63
419.065	1878.84
419.273	1782.59
419.481	1909.56
419.689	2073.4
419.897	2022.2
420.105	2095.93
420.313	2288.43
420.521	2265.91
420.729	2190.13
420.937	2298.67
421.145	2390.83
421.353	2444.08
421.561	2693.93
421.769	2796.33
421.977	2825
422.185	2894.63
422.393	2972.46
422.601	3136.29
422.809	3212.07
423.017	3078.95
423.224	3441.44
423.432	3390.24
423.64	3611.42
423.848	3805.98
424.056	3662.62
424.263	3941.15
424.471	3990.3
424.679	4057.88
424.887	4217.62
425.094	4340.5
425.302	4324.12
425.51	4453.14
425.718	4737.81
425.925	4944.65
426.133	4825.87
426.341	5169.93
426.548	5397.25
426.756	5333.76
426.964	5440.26
427.171	5802.75
427.379	5982.97
427.586	6021.88
427.794	6415.09
428.001	6576.88
428.209	6703.86
428.417	6834.93
428.624	7260.9
428.832	7142.12
429.039	7166.7
429.247	7342.82
429.454	7701.22
429.662	8319.7
429.869	7750.37
430.076	8516.31
430.284	7957.21
430.491	8458.96
430.699	8991.44
430.906	9179.85
431.114	8979.15
431.321	9630.4
431.528	9804.48
431.736	10259.13
431.943	10531.51
432.15	10318.52
432.358	10549.94
432.565	11223.72
432.772	10949.29
432.979	11719.33
433.187	11905.7
433.394	12024.48
433.601	12636.82
433.808	12741.27
434.016	12544.66
434.223	13306.51
434.43	13900.42
434.637	13697.67
434.844	14609.01
435.052	14592.63
435.259	14602.87
435.466	14918.26
435.673	14879.35
435.88	15770.21
436.087	16255.58
436.294	16814.68
436.501	16308.83
436.708	16503.39
436.915	17007.19
437.122	17906.24
437.329	17582.67
437.537	18584.12
437.743	18819.64
437.95	18455.1
438.157	19636.78
438.364	20224.54
438.571	20058.66
438.778	20458.01
438.985	21797.38
439.192	21234.19
439.399	21993.99
439.606	21436.94
439.813	22567.42
440.02	24109.54
440.227	23587.31
440.433	23036.41
440.64	24150.5
440.847	23904.74
441.054	24443.36
441.261	26040.78
441.467	25805.26
441.674	26622.4
441.881	27673.01
442.088	27017.66
442.294	26929.59
442.501	28217.77
442.708	28479.91
442.914	29467.03
443.121	30962.04
443.328	29960.59
443.534	32000.37
443.741	31359.35
443.948	30718.34
444.154	32889.18
444.361	32711.01
444.568	32770.4
444.774	32774.5
444.981	33499.48
445.187	34271.56
445.394	35838.26
445.6	35344.7
445.807	38607.11
446.013	37325.08
446.22	37947.67
446.426	39127.3
446.633	39473.4
446.839	40818.92
447.046	39627
447.252	41486.56
447.459	41656.54
447.665	41525.47
447.871	42862.79
448.078	45168.8
448.284	42584.27
448.491	43788.47
448.697	45619.36
448.903	46596.24
449.11	46426.26
449.316	45912.22
449.522	46815.37
449.728	47988.86
449.935	48281.72
450.141	48226.42
450.347	49338.47
450.553	47810.68
450.76	48449.65
450.966	50202.71
451.172	49320.04
451.378	50505.81
451.584	49967.19
451.791	50909.26
451.997	50927.69
452.203	51769.41
452.409	51705.92
452.615	51793.98
452.821	49754.21
453.027	48908.4
453.233	51607.62
453.44	49709.15
453.646	50225.24
453.852	50327.64
454.058	51595.33
454.264	49537.12
454.47	51069
454.676	49657.95
454.882	51578.95
455.088	47153.29
455.294	47751.29
455.5	48097.4
455.705	48509.04
455.911	46979.21
456.117	46657.68
456.323	45209.76
456.529	43288.77
456.735	44910.76
456.941	44118.2
457.147	43368.64
457.352	42107.09
457.558	41523.42
457.764	41492.7
457.97	41113.83
458.176	40052.98
458.381	39776.5
458.587	37992.72
458.793	38295.82
458.999	36288.81
459.204	38723.85
459.41	37409.05
459.616	34822.47
459.821	35066.17
460.027	35168.57
460.233	34337.1
460.438	32713.06
460.644	32725.35
460.85	31328.63
461.055	30751.1
461.261	30671.23
461.466	28838.3
461.672	27886
461.878	29677.97
462.083	27462.07
462.289	27320.76
462.494	27027.9
462.7	25647.57
462.905	25000.41
463.111	25864.65
463.316	26075.59
463.522	25711.05
463.727	25670.09
463.932	25283.03
464.138	25102.81
464.343	25514.45
464.549	24611.29
464.754	25457.1
464.959	25014.74
465.165	25043.42
465.37	23839.21
465.575	23216.63
465.781	24373.73
465.986	24275.43
466.191	23732.72
466.397	23151.09
466.602	22063.62
466.807	22608.38
467.012	22886.9
