Data from USB4F104151__73__12-36-45-474.txt Node

Date: Fri Mar 14 12:36:45 EDT 2025
User: louis
Spectrometer: USB4F10415
Trigger mode: 4
Integration Time (sec): 2.000000E-2
Scans to average: 1
Electric dark correction enabled: true
Nonlinearity correction enabled: false
Boxcar width: 0
XAxis mode: Wavelengths
Number of Pixels in Spectrum: 3648
>>>>>Begin Spectral Data<<<<<
178.204	-84.82
178.424	-84.82
178.644	-84.82
178.864	-127.83
179.084	-37.72
179.304	-43.86
179.524	42.15
179.744	-45.91
179.964	91.31
180.184	-17.24
180.404	-13.14
180.624	-27.48
180.844	19.63
181.064	-27.48
181.283	64.68
181.503	-68.44
181.723	25.77
181.943	19.63
182.163	33.96
182.383	-39.76
182.602	111.78
182.822	58.54
183.042	60.59
183.262	-78.68
183.482	1.19
183.701	-29.52
183.921	36.01
184.141	56.49
184.361	93.35
184.58	-13.14
184.8	64.68
185.02	-103.25
185.239	19.63
185.459	40.11
185.679	17.58
185.898	-39.76
186.118	62.63
186.338	36.01
186.557	31.91
186.777	-50
186.997	-4.95
187.216	1.19
187.436	40.11
187.655	33.96
187.875	74.92
188.095	19.63
188.314	93.35
188.534	19.63
188.753	68.78
188.973	33.96
189.192	52.39
189.412	-29.52
189.631	101.55
189.851	-7
190.07	91.31
190.29	105.64
190.509	52.39
190.729	3.24
190.948	52.39
191.168	136.36
191.387	38.06
191.607	36.01
191.826	-9.05
192.045	76.97
192.265	25.77
192.484	40.11
192.704	-27.48
192.923	-64.34
193.142	36.01
193.362	95.4
193.581	27.82
193.8	60.59
194.02	70.83
194.239	-11.09
194.458	-9.05
194.678	-21.33
194.897	-9.05
195.116	19.63
195.335	-74.58
195.555	21.67
195.774	42.15
195.993	99.5
196.212	52.39
196.432	-9.05
196.651	9.39
196.87	7.34
197.089	50.35
197.308	-4.95
197.528	38.06
197.747	15.53
197.966	-25.43
198.185	85.16
198.404	52.39
198.623	17.58
198.842	87.21
199.062	50.35
199.281	-2.9
199.5	-7
199.719	7.34
199.938	-9.05
200.157	70.83
200.376	23.72
200.595	85.16
200.814	-15.19
201.033	44.2
201.252	99.5
201.471	17.58
201.69	38.06
201.909	1.19
202.128	48.3
202.347	50.35
202.566	-2.9
202.785	1.19
203.004	13.48
203.223	81.07
203.442	44.2
203.661	-13.14
203.879	25.77
204.098	-17.24
204.317	1.19
204.536	48.3
204.755	62.63
204.974	25.77
205.193	52.39
205.411	21.67
205.63	38.06
205.849	136.36
206.068	31.91
206.287	72.87
206.505	21.67
206.724	-4.95
206.943	-7
207.162	7.34
207.381	23.72
207.599	15.53
207.818	31.91
208.037	36.01
208.255	-56.15
208.474	-56.15
208.693	50.35
208.911	1.19
209.13	48.3
209.349	89.26
209.567	33.96
209.786	29.87
210.005	89.26
210.223	128.17
210.442	21.67
210.661	60.59
210.879	-33.62
211.098	-23.38
211.316	48.3
211.535	54.44
211.753	54.44
211.972	-11.09
212.191	79.02
212.409	-29.52
212.628	36.01
212.846	13.48
213.065	-4.95
213.283	107.69
213.502	-39.76
213.72	38.06
213.938	56.49
214.157	83.11
214.375	-72.53
214.594	-9.05
214.812	70.83
215.031	7.34
215.249	48.3
215.467	17.58
215.686	79.02
215.904	-39.76
216.122	27.82
216.341	-2.9
216.559	70.83
216.778	11.43
216.996	99.5
217.214	42.15
217.432	-7
217.651	62.63
217.869	27.82
218.087	11.43
218.306	54.44
218.524	29.87
218.742	15.53
218.96	122.02
219.179	19.63
219.397	46.25
219.615	38.06
219.833	50.35
220.051	23.72
220.27	31.91
220.488	-2.9
220.706	19.63
220.924	-13.14
221.142	68.78
221.36	13.48
221.578	79.02
221.796	36.01
222.015	46.25
222.233	40.11
222.451	122.02
222.669	50.35
222.887	1.19
223.105	-0.85
223.323	52.39
223.541	13.48
223.759	-21.33
223.977	42.15
224.195	81.07
224.413	-23.38
224.631	50.35
224.849	-15.19
225.067	62.63
225.285	-86.87
225.503	68.78
225.721	13.48
225.939	62.63
226.157	-13.14
226.375	-13.14
226.592	-60.24
226.81	109.74
227.028	-0.85
227.246	11.43
227.464	101.55
227.682	29.87
227.9	-19.29
228.117	11.43
228.335	-7
228.553	83.11
228.771	23.72
228.989	42.15
229.206	13.48
229.424	-43.86
229.642	15.53
229.86	36.01
230.077	50.35
230.295	27.82
230.513	72.87
230.731	68.78
230.948	83.11
231.166	-4.95
231.384	9.39
231.601	58.54
231.819	31.91
232.037	-31.57
232.254	42.15
232.472	40.11
232.689	-27.48
232.907	21.67
233.125	33.96
233.342	15.53
233.56	33.96
233.777	19.63
233.995	5.29
234.213	-23.38
234.43	-39.76
234.648	44.2
234.865	-15.19
235.083	64.68
235.3	-66.39
235.518	44.2
235.735	76.97
235.953	27.82
236.17	-43.86
236.388	1.19
236.605	42.15
236.822	40.11
237.04	-2.9
237.257	-2.9
237.475	17.58
237.692	122.02
237.909	54.44
238.127	27.82
238.344	11.43
238.562	79.02
238.779	15.53
238.996	21.67
239.214	-4.95
239.431	40.11
239.648	15.53
239.865	11.43
240.083	7.34
240.3	54.44
240.517	33.96
240.735	13.48
240.952	-2.9
241.169	89.26
241.386	21.67
241.603	-2.9
241.821	-33.62
242.038	70.83
242.255	83.11
242.472	56.49
242.689	68.78
242.907	1.19
243.124	44.2
243.341	3.24
243.558	-33.62
243.775	54.44
243.992	40.11
244.209	46.25
244.426	113.83
244.643	21.67
244.86	-13.14
245.078	36.01
245.295	-0.85
245.512	40.11
245.729	29.87
245.946	38.06
246.163	54.44
246.38	52.39
246.597	11.43
246.814	62.63
247.031	7.34
247.248	13.48
247.464	-2.9
247.681	31.91
247.898	33.96
248.115	117.93
248.332	85.16
248.549	40.11
248.766	66.73
248.983	46.25
249.2	31.91
249.417	19.63
249.633	-21.33
249.85	50.35
250.067	29.87
250.284	-2.9
250.501	85.16
250.717	97.45
250.934	7.34
251.151	70.83
251.368	21.67
251.585	-0.85
251.801	-25.43
252.018	38.06
252.235	46.25
252.451	-13.14
252.668	-25.43
252.885	5.29
253.102	29.87
253.318	38.06
253.535	44.2
253.752	50.35
253.968	38.06
254.185	5.29
254.401	33.96
254.618	11.43
254.835	25.77
255.051	52.39
255.268	105.64
255.484	44.2
255.701	44.2
255.917	136.36
256.134	-23.38
256.351	3.24
256.567	1.19
256.784	42.15
257	-13.14
257.217	56.49
257.433	58.54
257.65	21.67
257.866	-0.85
258.082	68.78
258.299	-11.09
258.515	23.72
258.732	50.35
258.948	1.19
259.165	11.43
259.381	56.49
259.597	-0.85
259.814	-93.01
260.03	-47.96
260.246	54.44
260.463	48.3
260.679	-9.05
260.895	68.78
261.112	74.92
261.328	-41.81
261.544	13.48
261.761	115.88
261.977	23.72
262.193	-17.24
262.409	17.58
262.626	54.44
262.842	146.6
263.058	-27.48
263.274	50.35
263.49	-60.24
263.707	72.87
263.923	29.87
264.139	-27.48
264.355	-45.91
264.571	40.11
264.787	76.97
265.004	62.63
265.22	1.19
265.436	-58.2
265.652	-4.95
265.868	1.19
266.084	-4.95
266.3	40.11
266.516	17.58
266.732	21.67
266.948	44.2
267.164	38.06
267.38	33.96
267.596	36.01
267.812	-4.95
268.028	101.55
268.244	3.24
268.46	85.16
268.676	-25.43
268.892	58.54
269.108	1.19
269.324	64.68
269.54	-7
269.756	23.72
269.972	25.77
270.188	17.58
270.403	17.58
270.619	-47.96
270.835	19.63
271.051	64.68
271.267	3.24
271.483	66.73
271.698	5.29
271.914	52.39
272.13	17.58
272.346	-11.09
272.562	99.5
272.777	101.55
272.993	70.83
273.209	44.2
273.425	15.53
273.64	-4.95
273.856	15.53
274.072	58.54
274.287	36.01
274.503	85.16
274.719	-23.38
274.934	31.91
275.15	36.01
275.366	36.01
275.581	-17.24
275.797	11.43
276.012	15.53
276.228	-23.38
276.444	68.78
276.659	54.44
276.875	60.59
277.09	93.35
277.306	33.96
277.521	-15.19
277.737	17.58
277.952	-27.48
278.168	56.49
278.383	-56.15
278.599	13.48
278.814	105.64
279.03	-0.85
279.245	91.31
279.461	42.15
279.676	36.01
279.892	-35.67
280.107	15.53
280.322	-15.19
280.538	40.11
280.753	76.97
280.969	60.59
281.184	3.24
281.399	21.67
281.615	72.87
281.83	50.35
282.045	23.72
282.26	-58.2
282.476	48.3
282.691	-9.05
282.906	-17.24
283.122	40.11
283.337	-33.62
283.552	70.83
283.767	19.63
283.983	40.11
284.198	52.39
284.413	31.91
284.628	40.11
284.843	109.74
285.058	-2.9
285.274	-21.33
285.489	23.72
285.704	81.07
285.919	-64.34
286.134	17.58
286.349	93.35
286.564	-13.14
286.779	42.15
286.995	46.25
287.21	-21.33
287.425	68.78
287.64	33.96
287.855	27.82
288.07	68.78
288.285	-19.29
288.5	38.06
288.715	-7
288.93	17.58
289.145	46.25
289.36	-9.05
289.575	60.59
289.79	103.59
290.004	72.87
290.219	-11.09
290.434	60.59
290.649	46.25
290.864	38.06
291.079	44.2
291.294	79.02
291.509	17.58
291.724	21.67
291.938	60.59
292.153	23.72
292.368	31.91
292.583	48.3
292.798	79.02
293.012	-9.05
293.227	15.53
293.442	25.77
293.657	-9.05
293.871	36.01
294.086	-4.95
294.301	109.74
294.516	95.4
294.73	-11.09
294.945	62.63
295.16	31.91
295.374	68.78
295.589	-4.95
295.804	48.3
296.018	29.87
296.233	29.87
296.447	5.29
296.662	27.82
296.877	13.48
297.091	36.01
297.306	64.68
297.52	70.83
297.735	-11.09
297.949	-2.9
298.164	99.5
298.378	17.58
298.593	85.16
298.807	-15.19
299.022	17.58
299.236	19.63
299.451	5.29
299.665	36.01
299.88	68.78
300.094	-21.33
300.309	54.44
300.523	27.82
300.737	11.43
300.952	44.2
301.166	72.87
301.381	19.63
301.595	103.59
301.809	46.25
302.024	68.78
302.238	9.39
302.452	31.91
302.667	-15.19
302.881	126.12
303.095	13.48
303.309	87.21
303.524	42.15
303.738	56.49
303.952	83.11
304.166	46.25
304.381	7.34
304.595	91.31
304.809	19.63
305.023	11.43
305.237	-47.96
305.452	70.83
305.666	36.01
305.88	38.06
306.094	-11.09
306.308	5.29
306.522	-17.24
306.736	60.59
306.95	93.35
307.164	70.83
307.379	72.87
307.593	113.83
307.807	13.48
308.021	5.29
308.235	56.49
308.449	44.2
308.663	1.19
308.877	60.59
309.091	-19.29
309.305	21.67
309.519	-9.05
309.733	-52.05
309.947	19.63
310.161	109.74
310.374	-7
310.588	79.02
310.802	15.53
311.016	70.83
311.23	1.19
311.444	44.2
311.658	21.67
311.872	105.64
312.085	117.93
312.299	17.58
312.513	-13.14
312.727	70.83
312.941	-54.1
313.154	5.29
313.368	25.77
313.582	-7
313.796	31.91
314.009	25.77
314.223	-2.9
314.437	-21.33
314.651	31.91
314.864	25.77
315.078	17.58
315.292	44.2
315.505	83.11
315.719	70.83
315.933	62.63
316.146	68.78
316.36	-0.85
316.573	46.25
316.787	3.24
317.001	36.01
317.214	23.72
317.428	79.02
317.641	-50
317.855	76.97
318.068	17.58
318.282	25.77
318.495	70.83
318.709	99.5
318.922	40.11
319.136	31.91
319.349	9.39
319.563	-29.52
319.776	89.26
319.99	101.55
320.203	62.63
320.417	38.06
320.63	5.29
320.843	60.59
321.057	68.78
321.27	23.72
321.483	-13.14
321.697	46.25
321.91	54.44
322.124	83.11
322.337	62.63
322.55	-60.24
322.763	44.2
322.977	64.68
323.19	-23.38
323.403	68.78
323.617	70.83
323.83	19.63
324.043	54.44
324.256	81.07
324.469	-29.52
324.683	74.92
324.896	68.78
325.109	33.96
325.322	-56.15
325.535	42.15
325.748	95.4
325.962	44.2
326.175	29.87
326.388	58.54
326.601	107.69
326.814	21.67
327.027	23.72
327.24	54.44
327.453	46.25
327.666	113.83
327.879	11.43
328.092	76.97
328.305	72.87
328.518	36.01
328.731	-35.67
328.944	7.34
329.157	46.25
329.37	76.97
329.583	103.59
329.796	103.59
330.009	46.25
330.222	66.73
330.435	29.87
330.648	62.63
330.861	23.72
331.073	97.45
331.286	40.11
331.499	68.78
331.712	56.49
331.925	3.24
332.138	89.26
332.35	91.31
332.563	-23.38
332.776	52.39
332.989	25.77
333.202	83.11
333.414	19.63
333.627	109.74
333.84	-19.29
334.053	85.16
334.265	52.39
334.478	9.39
334.691	50.35
334.903	56.49
335.116	58.54
335.329	23.72
335.541	36.01
335.754	31.91
335.966	25.77
336.179	50.35
336.392	-0.85
336.604	64.68
336.817	58.54
337.029	64.68
337.242	-4.95
337.454	46.25
337.667	23.72
337.88	19.63
338.092	83.11
338.305	81.07
338.517	-7
338.729	-25.43
338.942	-0.85
339.154	40.11
339.367	-41.81
339.579	21.67
339.792	105.64
340.004	83.11
340.217	11.43
340.429	107.69
340.641	95.4
340.854	74.92
341.066	11.43
341.278	29.87
341.491	76.97
341.703	-0.85
341.915	66.73
342.128	42.15
342.34	70.83
342.552	-0.85
342.764	31.91
342.977	31.91
343.189	17.58
343.401	91.31
343.613	5.29
343.826	99.5
344.038	70.83
344.25	52.39
344.462	52.39
344.674	70.83
344.886	52.39
345.099	36.01
345.311	142.5
345.523	-33.62
345.735	3.24
345.947	56.49
346.159	-0.85
346.371	21.67
346.583	-19.29
346.795	62.63
347.007	62.63
347.219	33.96
347.431	50.35
347.643	23.72
347.855	56.49
348.067	52.39
348.279	-0.85
348.491	21.67
348.703	76.97
348.915	93.35
349.127	21.67
349.339	46.25
349.551	119.98
349.763	54.44
349.975	-50
350.187	3.24
350.399	56.49
350.61	148.65
350.822	-21.33
351.034	48.3
351.246	11.43
351.458	83.11
351.669	70.83
351.881	36.01
352.093	-17.24
352.305	119.98
352.517	11.43
352.728	50.35
352.94	40.11
353.152	70.83
353.363	-39.76
353.575	124.07
353.787	54.44
353.999	52.39
354.21	101.55
354.422	36.01
354.633	-11.09
354.845	19.63
355.057	58.54
355.268	66.73
355.48	62.63
355.692	19.63
355.903	25.77
356.115	74.92
356.326	38.06
356.538	52.39
356.749	46.25
356.961	27.82
357.172	54.44
357.384	21.67
357.595	134.31
357.807	31.91
358.018	74.92
358.23	27.82
358.441	124.07
358.653	29.87
358.864	44.2
359.075	-19.29
359.287	33.96
359.498	111.78
359.709	44.2
359.921	-11.09
360.132	50.35
360.344	-2.9
360.555	36.01
360.766	119.98
360.977	-2.9
361.189	60.59
361.4	50.35
361.611	27.82
361.823	40.11
362.034	72.87
362.245	50.35
362.456	97.45
362.667	38.06
362.879	21.67
363.09	50.35
363.301	15.53
363.512	70.83
363.723	42.15
363.935	48.3
364.146	38.06
364.357	48.3
364.568	79.02
364.779	33.96
364.99	109.74
365.201	29.87
365.412	93.35
365.623	-17.24
365.834	101.55
366.045	5.29
366.256	64.68
366.467	-17.24
366.678	60.59
366.889	70.83
367.1	93.35
367.311	101.55
367.522	79.02
367.733	58.54
367.944	103.59
368.155	85.16
368.366	48.3
368.577	87.21
368.788	85.16
368.999	17.58
369.209	79.02
369.42	-2.9
369.631	64.68
369.842	91.31
370.053	46.25
370.264	44.2
370.474	7.34
370.685	-13.14
370.896	38.06
371.107	76.97
371.317	-2.9
371.528	52.39
371.739	138.41
371.95	107.69
372.16	70.83
372.371	-52.05
372.582	95.4
372.792	46.25
373.003	48.3
373.214	107.69
373.424	76.97
373.635	56.49
373.846	85.16
374.056	3.24
374.267	76.97
374.477	99.5
374.688	74.92
374.898	-11.09
375.109	-4.95
375.319	50.35
375.53	60.59
375.74	117.93
375.951	130.22
376.161	111.78
376.372	19.63
376.582	124.07
376.793	36.01
377.003	54.44
377.214	66.73
377.424	-21.33
377.635	3.24
377.845	46.25
378.055	122.02
378.266	48.3
378.476	79.02
378.686	60.59
378.897	152.74
379.107	79.02
379.317	50.35
379.528	107.69
379.738	27.82
379.948	-33.62
380.158	42.15
380.369	146.6
380.579	91.31
380.789	74.92
380.999	31.91
381.21	70.83
381.42	54.44
381.63	-7
381.84	38.06
382.05	54.44
382.261	44.2
382.471	144.55
382.681	62.63
382.891	60.59
383.101	115.88
383.311	11.43
383.521	76.97
383.731	21.67
383.941	85.16
384.151	54.44
384.361	72.87
384.571	52.39
384.781	56.49
384.991	91.31
385.201	36.01
385.411	48.3
385.621	109.74
385.831	68.78
386.041	113.83
386.251	93.35
386.461	89.26
386.671	25.77
386.881	113.83
387.091	52.39
387.301	93.35
387.511	60.59
387.72	87.21
387.93	85.16
388.14	124.07
388.35	132.26
388.56	105.64
388.769	89.26
388.979	54.44
389.189	-35.67
389.399	44.2
389.609	52.39
389.818	122.02
390.028	29.87
390.238	111.78
390.447	54.44
390.657	93.35
390.867	52.39
391.076	40.11
391.286	42.15
391.496	111.78
391.705	62.63
391.915	171.18
392.125	152.74
392.334	27.82
392.544	124.07
392.753	128.17
392.963	58.54
393.172	64.68
393.382	44.2
393.591	193.7
393.801	130.22
394.01	124.07
394.22	111.78
394.429	181.42
394.639	40.11
394.848	95.4
395.058	93.35
395.267	64.68
395.477	87.21
395.686	95.4
395.895	122.02
396.105	158.89
396.314	79.02
396.524	115.88
396.733	93.35
396.942	138.41
397.152	128.17
397.361	46.25
397.57	144.55
397.78	160.94
397.989	201.9
398.198	115.88
398.407	105.64
398.617	134.31
398.826	103.59
399.035	134.31
399.244	113.83
399.453	81.07
399.663	144.55
399.872	130.22
400.081	91.31
400.29	146.6
400.499	72.87
400.708	175.27
400.917	101.55
401.127	119.98
401.336	218.28
401.545	87.21
401.754	44.2
401.963	218.28
402.172	208.04
402.381	60.59
402.59	132.26
402.799	167.08
403.008	140.46
403.217	201.9
403.426	251.05
403.635	158.89
403.844	183.46
404.053	203.94
404.262	144.55
404.471	238.76
404.68	173.22
404.888	273.57
405.097	197.8
405.306	214.18
405.515	265.38
405.724	275.62
405.933	218.28
406.142	214.18
406.35	171.18
406.559	255.14
406.768	277.67
406.977	259.24
407.185	199.85
407.394	326.82
407.603	236.71
407.812	306.34
408.02	271.53
408.229	373.92
408.438	337.06
408.646	259.24
408.855	285.86
409.064	281.77
409.272	332.97
409.481	382.12
409.69	441.51
409.898	347.3
410.107	459.94
410.315	398.5
410.524	451.75
410.733	373.92
410.941	461.99
411.15	541.86
411.358	515.23
411.567	611.49
411.775	595.11
411.984	513.19
412.192	490.66
412.401	615.59
412.609	687.26
412.818	666.78
413.026	674.98
413.234	693.41
413.443	740.51
413.651	711.84
413.86	738.46
414.068	847.01
414.276	834.72
414.485	816.29
414.693	844.96
414.901	965.79
415.11	965.79
415.318	965.79
415.526	910.49
415.734	1100.95
415.943	1088.67
416.151	1127.58
416.359	1111.19
416.567	1193.11
416.776	1275.03
416.984	1275.03
417.192	1334.42
417.4	1303.7
417.608	1318.04
417.817	1416.34
418.025	1508.5
418.233	1561.75
418.441	1576.08
418.649	1684.62
418.857	1780.88
419.065	1674.39
419.273	1782.93
419.481	1729.68
419.689	2045.07
419.897	2075.79
420.105	2090.12
420.313	2100.36
420.521	2266.25
420.729	2239.62
420.937	2385.03
421.145	2356.36
421.353	2503.81
421.561	2550.92
421.769	2694.27
421.977	2821.25
422.185	2679.94
422.393	2995.32
422.601	3191.93
422.809	3114.11
423.017	3282.04
423.224	3232.89
423.432	3503.22
423.64	3490.93
423.848	3822.7
424.056	3511.41
424.263	3839.09
424.471	3845.23
424.679	3953.77
424.887	4289.64
425.094	4297.83
425.302	4394.09
425.51	4523.11
425.718	4615.27
425.925	4707.43
426.133	4944.99
426.341	5135.45
426.548	5364.82
426.756	5469.27
426.964	5524.57
427.171	5729.36
427.379	5940.3
427.586	5868.63
427.794	6081.61
428.001	6372.43
428.209	6880.32
428.417	6755.4
428.624	7162.94
428.832	7341.11
429.039	7089.21
429.247	7087.17
429.454	7879.73
429.662	8494.12
429.869	7670.84
430.076	8365.1
430.284	8016.94
430.491	8363.05
430.699	8969.25
430.906	9012.26
431.114	9067.55
431.321	9399.32
431.528	9710.61
431.736	10183.7
431.943	10783.75
432.15	10331.15
432.358	10421.26
432.565	11068.42
432.772	10998.79
432.979	11541.5
433.187	11764.73
433.394	11734.01
433.601	12801
433.808	12592.11
434.016	12663.79
434.223	13122.53
434.43	13779.93
434.637	13517.79
434.844	14564.3
435.052	14699.47
435.259	14744.52
435.466	14834.63
435.673	14734.28
435.88	15471.55
436.087	16329.65
436.294	16706.48
436.501	16221.11
436.708	16565.17
436.915	17093.54
437.122	17691.55
437.329	17505.18
437.537	18559.89
437.743	18725.77
437.95	18422.67
438.157	19192.71
438.364	20253.56
438.571	20104.06
438.778	20331.38
438.985	22133.59
439.192	21326.69
439.399	22137.69
439.606	21457.76
439.813	22610.77
440.02	24111.93
440.227	23769.92
440.433	23350.09
440.64	23991.1
440.847	24011.58
441.054	24564.53
441.261	26028.83
441.467	26016.54
441.674	26329.88
441.881	27394.82
442.088	27249.42
442.294	26970.9
442.501	27917.06
442.708	28533.5
442.914	29432.55
443.121	30722.77
443.328	29815.52
443.534	31980.23
443.741	30960.34
443.948	30614.23
444.154	33114.8
444.361	32707.26
444.568	32832.18
444.774	32791.22
444.981	33514.16
445.187	34212.51
445.394	35691.15
445.6	35367.57
445.807	38632.03
446.013	37001.85
446.22	37751.4
446.426	39015
446.633	39295.57
446.839	40563.26
447.046	39170.64
447.252	41462.32
447.459	41513.52
447.665	41337.4
447.871	43307.54
448.078	44706.3
448.284	42891.8
448.491	43801.1
448.697	45572.6
448.903	46494.18
449.11	46551.52
449.316	45896.17
449.522	46696.93
449.728	47880.66
449.935	48064.97
450.141	48081.36
450.347	48601.54
450.553	47737.3
450.76	48036.3
450.966	49922.48
451.172	49408.44
451.378	50631.08
451.584	49576.37
451.791	51071.39
451.997	50579.88
452.203	51980.69
452.409	51583.38
452.615	51362.2
452.821	49277.37
453.027	48957.89
453.233	51276.19
453.44	49744.31
453.646	50145.71
453.852	50389.42
454.058	51413.4
454.264	49236.41
454.47	50178.48
454.676	49590.71
454.882	51411.35
455.088	46811.62
455.294	47352.28
455.5	48112.08
455.705	48550.34
455.911	46461.41
456.117	45930.99
456.323	45255.16
456.529	43188.76
456.735	44839.42
456.941	43411.99
457.147	43086.36
457.352	41570.86
457.558	41136.69
457.764	41452.08
457.97	40364.61
458.176	39490.13
458.381	39682.64
458.587	37317.23
458.793	38261.35
458.999	35711.63
459.204	38482.53
459.41	37309.04
459.616	34740.89
459.821	34804.38
460.027	34546.33
460.233	34085.54
460.438	32438.97
460.644	32584.38
460.85	31193.81
461.055	30866.13
461.261	30704.34
461.466	28322.55
461.672	27624.2
461.878	29395.69
462.083	27536.13
462.289	27030.29
462.494	26618.64
462.7	25660.2
462.905	25174.83
463.111	25951.01
463.316	25996.06
463.522	25201.45
463.727	25258.79
463.932	25350.95
464.138	25111.34
464.343	25303.85
464.549	24165.18
464.754	25103.15
464.959	25230.12
465.165	25002.8
465.37	23722.82
465.575	23147.34
465.781	24099.64
465.986	24298.3
466.191	23393.09
466.397	22926.16
466.602	21699.42
466.807	22606.67
467.012	22786.89
