Data from USB4F104151__69__12-36-36-954.txt Node

Date: Fri Mar 14 12:36:36 EDT 2025
User: louis
Spectrometer: USB4F10415
Trigger mode: 4
Integration Time (sec): 2.000000E-2
Scans to average: 1
Electric dark correction enabled: true
Nonlinearity correction enabled: false
Boxcar width: 0
XAxis mode: Wavelengths
Number of Pixels in Spectrum: 3648
>>>>>Begin Spectral Data<<<<<
178.204	-76.8
178.424	-76.8
178.644	-76.8
178.864	-70.65
179.084	-23.55
179.304	9.22
179.524	72.7
179.744	29.7
179.964	44.03
180.184	27.65
180.404	-31.74
180.624	-3.07
180.844	-31.74
181.064	25.6
181.283	-37.89
181.503	-66.56
181.723	-37.89
181.943	-27.65
182.163	27.65
182.383	25.6
182.602	-25.6
182.822	80.89
183.042	48.13
183.262	41.98
183.482	50.18
183.701	-9.22
183.921	-21.5
184.141	58.37
184.361	103.42
184.58	44.03
184.8	52.22
185.02	3.07
185.239	78.85
185.459	46.08
185.679	52.22
185.898	11.26
186.118	41.98
186.338	52.22
186.557	17.41
186.777	-66.56
186.997	41.98
187.216	5.12
187.436	-11.26
187.655	103.42
187.875	70.65
188.095	5.12
188.314	117.76
188.534	9.22
188.753	54.27
188.973	5.12
189.192	13.31
189.412	123.9
189.631	7.17
189.851	35.84
190.07	117.76
190.29	-7.17
190.509	41.98
190.729	-31.74
190.948	37.89
191.168	91.13
191.387	1.02
191.607	15.36
191.826	27.65
192.045	7.17
192.265	-27.65
192.484	66.56
192.704	9.22
192.923	58.37
193.142	62.46
193.362	68.61
193.581	-33.79
193.8	82.94
194.02	15.36
194.239	52.22
194.458	19.46
194.678	-41.98
194.897	123.9
195.116	-31.74
195.335	-21.5
195.555	52.22
195.774	9.22
195.993	1.02
196.212	39.94
196.432	23.55
196.651	72.7
196.87	-52.22
197.089	17.41
197.308	11.26
197.528	56.32
197.747	41.98
197.966	54.27
198.185	99.33
198.404	33.79
198.623	3.07
198.842	-27.65
199.062	70.65
199.281	41.98
199.5	11.26
199.719	46.08
199.938	31.74
200.157	9.22
200.376	35.84
200.595	87.04
200.814	44.03
201.033	74.75
201.252	70.65
201.471	99.33
201.69	68.61
201.909	58.37
202.128	48.13
202.347	62.46
202.566	52.22
202.785	3.07
203.004	7.17
203.223	46.08
203.442	91.13
203.661	62.46
203.879	9.22
204.098	56.32
204.317	46.08
204.536	52.22
204.755	54.27
204.974	-39.94
205.193	52.22
205.411	99.33
205.63	17.41
205.849	-37.89
206.068	35.84
206.287	-33.79
206.505	21.5
206.724	66.56
206.943	78.85
207.162	62.46
207.381	15.36
207.599	46.08
207.818	50.18
208.037	13.31
208.255	13.31
208.474	-21.5
208.693	91.13
208.911	11.26
209.13	25.6
209.349	111.61
209.567	62.46
209.786	99.33
210.005	-9.22
210.223	105.47
210.442	17.41
210.661	21.5
210.879	35.84
211.098	29.7
211.316	-33.79
211.535	78.85
211.753	-76.8
211.972	13.31
212.191	-3.07
212.409	105.47
212.628	68.61
212.846	62.46
213.065	76.8
213.283	117.76
213.502	78.85
213.72	33.79
213.938	25.6
214.157	72.7
214.375	-3.07
214.594	-15.36
214.812	48.13
215.031	27.65
215.249	60.42
215.467	25.6
215.686	-21.5
215.904	103.42
216.122	-13.31
216.341	74.75
216.559	58.37
216.778	60.42
216.996	3.07
217.214	70.65
217.432	-23.55
217.651	37.89
217.869	17.41
218.087	37.89
218.306	-19.46
218.524	-33.79
218.742	-50.18
218.96	48.13
219.179	93.18
219.397	33.79
219.615	62.46
219.833	25.6
220.051	25.6
220.27	-37.89
220.488	68.61
220.706	56.32
220.924	-21.5
221.142	-7.17
221.36	58.37
221.578	48.13
221.796	78.85
222.015	19.46
222.233	-7.17
222.451	41.98
222.669	23.55
222.887	25.6
223.105	68.61
223.323	-1.02
223.541	1.02
223.759	64.51
223.977	25.6
224.195	66.56
224.413	109.57
224.631	62.46
224.849	-15.36
225.067	123.9
225.285	-41.98
225.503	66.56
225.721	13.31
225.939	52.22
226.157	-3.07
226.375	9.22
226.592	50.18
226.81	48.13
227.028	11.26
227.246	80.89
227.464	78.85
227.682	17.41
227.9	3.07
228.117	50.18
228.335	21.5
228.553	-13.31
228.771	31.74
228.989	29.7
229.206	31.74
229.424	-44.03
229.642	54.27
229.86	37.89
230.077	60.42
230.295	74.75
230.513	56.32
230.731	60.42
230.948	15.36
231.166	58.37
231.384	-23.55
231.601	41.98
231.819	58.37
232.037	31.74
232.254	11.26
232.472	19.46
232.689	123.9
232.907	29.7
233.125	-44.03
233.342	27.65
233.56	58.37
233.777	7.17
233.995	-27.65
234.213	41.98
234.43	3.07
234.648	99.33
234.865	-5.12
235.083	68.61
235.3	29.7
235.518	-23.55
235.735	48.13
235.953	-37.89
236.17	80.89
236.388	62.46
236.605	35.84
236.822	60.42
237.04	37.89
237.257	25.6
237.475	35.84
237.692	72.7
237.909	48.13
238.127	54.27
238.344	-1.02
238.562	9.22
238.779	-64.51
238.996	-46.08
239.214	89.09
239.431	39.94
239.648	-1.02
239.865	62.46
240.083	17.41
240.3	21.5
240.517	17.41
240.735	93.18
240.952	62.46
241.169	44.03
241.386	37.89
241.603	-27.65
241.821	11.26
242.038	9.22
242.255	15.36
242.472	-5.12
242.689	46.08
242.907	33.79
243.124	39.94
243.341	48.13
243.558	87.04
243.775	13.31
243.992	56.32
244.209	-9.22
244.426	50.18
244.643	41.98
244.86	13.31
245.078	62.46
245.295	3.07
245.512	72.7
245.729	-31.74
245.946	11.26
246.163	-27.65
246.38	-3.07
246.597	-44.03
246.814	17.41
247.031	56.32
247.248	70.65
247.464	29.7
247.681	-13.31
247.898	-3.07
248.115	132.09
248.332	11.26
248.549	-5.12
248.766	48.13
248.983	60.42
249.2	9.22
249.417	27.65
249.633	19.46
249.85	21.5
250.067	-3.07
250.284	54.27
250.501	80.89
250.717	68.61
250.934	-74.75
251.151	44.03
251.368	66.56
251.585	27.65
251.801	17.41
252.018	11.26
252.235	7.17
252.451	5.12
252.668	11.26
252.885	44.03
253.102	-19.46
253.318	44.03
253.535	39.94
253.752	72.7
253.968	105.47
254.185	27.65
254.401	41.98
254.618	9.22
254.835	48.13
255.051	33.79
255.268	15.36
255.484	17.41
255.701	97.28
255.917	31.74
256.134	-1.02
256.351	95.23
256.567	46.08
256.784	72.7
257	-39.94
257.217	148.48
257.433	23.55
257.65	23.55
257.866	25.6
258.082	19.46
258.299	13.31
258.515	21.5
258.732	76.8
258.948	117.76
259.165	21.5
259.381	27.65
259.597	39.94
259.814	31.74
260.03	27.65
260.246	11.26
260.463	21.5
260.679	-1.02
260.895	11.26
261.112	80.89
261.328	23.55
261.544	56.32
261.761	60.42
261.977	-19.46
262.193	19.46
262.409	17.41
262.626	-5.12
262.842	66.56
263.058	82.94
263.274	-29.7
263.49	44.03
263.707	37.89
263.923	72.7
264.139	44.03
264.355	35.84
264.571	13.31
264.787	60.42
265.004	171.01
265.22	25.6
265.436	64.51
265.652	60.42
265.868	80.89
266.084	35.84
266.3	70.65
266.516	17.41
266.732	101.37
266.948	5.12
267.164	21.5
267.38	101.37
267.596	35.84
267.812	123.9
268.028	-5.12
268.244	23.55
268.46	68.61
268.676	89.09
268.892	62.46
269.108	50.18
269.324	46.08
269.54	7.17
269.756	44.03
269.972	123.9
270.188	17.41
270.403	25.6
270.619	25.6
270.835	117.76
271.051	-33.79
271.267	3.07
271.483	33.79
271.698	27.65
271.914	19.46
272.13	54.27
272.346	-15.36
272.562	23.55
272.777	27.65
272.993	11.26
273.209	31.74
273.425	35.84
273.64	33.79
273.856	21.5
274.072	-5.12
274.287	29.7
274.503	84.99
274.719	27.65
274.934	19.46
275.15	48.13
275.366	33.79
275.581	-15.36
275.797	-7.17
276.012	19.46
276.228	64.51
276.444	66.56
276.659	31.74
276.875	11.26
277.09	23.55
277.306	29.7
277.521	-11.26
277.737	82.94
277.952	41.98
278.168	54.27
278.383	-31.74
278.599	9.22
278.814	1.02
279.03	84.99
279.245	27.65
279.461	-15.36
279.676	41.98
279.892	5.12
280.107	78.85
280.322	-52.22
280.538	35.84
280.753	1.02
280.969	-23.55
281.184	-1.02
281.399	29.7
281.615	-11.26
281.83	13.31
282.045	-17.41
282.26	11.26
282.476	62.46
282.691	95.23
282.906	39.94
283.122	62.46
283.337	17.41
283.552	50.18
283.767	27.65
283.983	19.46
284.198	31.74
284.413	82.94
284.628	-13.31
284.843	37.89
285.058	56.32
285.274	89.09
285.489	37.89
285.704	54.27
285.919	39.94
286.134	21.5
286.349	25.6
286.564	-19.46
286.779	115.71
286.995	87.04
287.21	-37.89
287.425	95.23
287.64	7.17
287.855	21.5
288.07	-48.13
288.285	82.94
288.5	82.94
288.715	56.32
288.93	13.31
289.145	41.98
289.36	-7.17
289.575	19.46
289.79	93.18
290.004	41.98
290.219	15.36
290.434	-7.17
290.649	-21.5
290.864	27.65
291.079	25.6
291.294	33.79
291.509	72.7
291.724	35.84
291.938	-15.36
292.153	93.18
292.368	66.56
292.583	52.22
292.798	52.22
293.012	19.46
293.227	50.18
293.442	9.22
293.657	7.17
293.871	115.71
294.086	115.71
294.301	115.71
294.516	48.13
294.73	41.98
294.945	60.42
295.16	35.84
295.374	76.8
295.589	1.02
295.804	23.55
296.018	72.7
296.233	66.56
296.447	74.75
296.662	-1.02
296.877	35.84
297.091	74.75
297.306	-9.22
297.52	31.74
297.735	35.84
297.949	44.03
298.164	37.89
298.378	-19.46
298.593	70.65
298.807	21.5
299.022	52.22
299.236	68.61
299.451	35.84
299.665	-9.22
299.88	29.7
300.094	23.55
300.309	136.19
300.523	76.8
300.737	62.46
300.952	87.04
301.166	74.75
301.381	68.61
301.595	23.55
301.809	46.08
302.024	33.79
302.238	52.22
302.452	62.46
302.667	13.31
302.881	-5.12
303.095	27.65
303.309	48.13
303.524	37.89
303.738	13.31
303.952	31.74
304.166	58.37
304.381	-27.65
304.595	23.55
304.809	62.46
305.023	68.61
305.237	52.22
305.452	97.28
305.666	-1.02
305.88	99.33
306.094	39.94
306.308	19.46
306.522	48.13
306.736	101.37
306.95	1.02
307.164	68.61
307.379	80.89
307.593	91.13
307.807	68.61
308.021	33.79
308.235	80.89
308.449	-66.56
308.663	35.84
308.877	21.5
309.091	-27.65
309.305	25.6
309.519	-41.98
309.733	84.99
309.947	78.85
310.161	44.03
310.374	15.36
310.588	150.53
310.802	41.98
311.016	113.66
311.23	62.46
311.444	82.94
311.658	25.6
311.872	54.27
312.085	105.47
312.299	31.74
312.513	3.07
312.727	-3.07
312.941	33.79
313.154	54.27
313.368	41.98
313.582	140.29
313.796	23.55
314.009	-72.7
314.223	105.47
314.437	15.36
314.651	54.27
314.864	80.89
315.078	-1.02
315.292	111.61
315.505	15.36
315.719	50.18
315.933	58.37
316.146	132.09
316.36	56.32
316.573	50.18
316.787	68.61
317.001	52.22
317.214	25.6
317.428	70.65
317.641	52.22
317.855	50.18
318.068	37.89
318.282	62.46
318.495	154.62
318.709	134.14
318.922	-48.13
319.136	105.47
319.349	25.6
319.563	25.6
319.776	99.33
319.99	25.6
320.203	95.23
320.417	76.8
320.63	60.42
320.843	113.66
321.057	33.79
321.27	37.89
321.483	-7.17
321.697	95.23
321.91	70.65
322.124	58.37
322.337	78.85
322.55	44.03
322.763	70.65
322.977	66.56
323.19	13.31
323.403	44.03
323.617	117.76
323.83	82.94
324.043	54.27
324.256	54.27
324.469	62.46
324.683	15.36
324.896	35.84
325.109	89.09
325.322	-15.36
325.535	78.85
325.748	84.99
325.962	97.28
326.175	80.89
326.388	5.12
326.601	78.85
326.814	-1.02
327.027	56.32
327.24	74.75
327.453	39.94
327.666	25.6
327.879	54.27
328.092	87.04
328.305	37.89
328.518	11.26
328.731	1.02
328.944	54.27
329.157	39.94
329.37	99.33
329.583	121.85
329.796	62.46
330.009	31.74
330.222	44.03
330.435	74.75
330.648	64.51
330.861	60.42
331.073	52.22
331.286	115.71
331.499	78.85
331.712	-5.12
331.925	50.18
332.138	23.55
332.35	74.75
332.563	91.13
332.776	74.75
332.989	46.08
333.202	58.37
333.414	1.02
333.627	-31.74
333.84	23.55
334.053	62.46
334.265	87.04
334.478	62.46
334.691	39.94
334.903	74.75
335.116	33.79
335.329	72.7
335.541	29.7
335.754	52.22
335.966	35.84
336.179	68.61
336.392	-13.31
336.604	-5.12
336.817	95.23
337.029	80.89
337.242	87.04
337.454	91.13
337.667	48.13
337.88	9.22
338.092	37.89
338.305	23.55
338.517	-9.22
338.729	37.89
338.942	68.61
339.154	-3.07
339.367	-17.41
339.579	52.22
339.792	44.03
340.004	74.75
340.217	82.94
340.429	52.22
340.641	-15.36
340.854	15.36
341.066	101.37
341.278	46.08
341.491	74.75
341.703	46.08
341.915	58.37
342.128	93.18
342.34	54.27
342.552	31.74
342.764	68.61
342.977	60.42
343.189	52.22
343.401	15.36
343.613	58.37
343.826	5.12
344.038	60.42
344.25	72.7
344.462	-17.41
344.674	60.42
344.886	48.13
345.099	50.18
345.311	140.29
345.523	74.75
345.735	87.04
345.947	60.42
346.159	9.22
346.371	76.8
346.583	119.81
346.795	111.61
347.007	27.65
347.219	66.56
347.431	15.36
347.643	11.26
347.855	60.42
348.067	156.67
348.279	46.08
348.491	62.46
348.703	39.94
348.915	17.41
349.127	39.94
349.339	15.36
349.551	87.04
349.763	66.56
349.975	76.8
350.187	72.7
350.399	74.75
350.61	46.08
350.822	123.9
351.034	15.36
351.246	74.75
351.458	52.22
351.669	74.75
351.881	82.94
352.093	160.77
352.305	105.47
352.517	101.37
352.728	78.85
352.94	78.85
353.152	33.79
353.363	41.98
353.575	76.8
353.787	115.71
353.999	-7.17
354.21	74.75
354.422	48.13
354.633	58.37
354.845	113.66
355.057	3.07
355.268	68.61
355.48	50.18
355.692	54.27
355.903	76.8
356.115	101.37
356.326	-29.7
356.538	72.7
356.749	58.37
356.961	93.18
357.172	23.55
357.384	70.65
357.595	44.03
357.807	60.42
358.018	56.32
358.23	33.79
358.441	11.26
358.653	25.6
358.864	21.5
359.075	9.22
359.287	41.98
359.498	60.42
359.709	35.84
359.921	60.42
360.132	54.27
360.344	48.13
360.555	91.13
360.766	80.89
360.977	117.76
361.189	50.18
361.4	41.98
361.611	76.8
361.823	105.47
362.034	-5.12
362.245	33.79
362.456	37.89
362.667	37.89
362.879	11.26
363.09	54.27
363.301	13.31
363.512	130.05
363.723	50.18
363.935	62.46
364.146	64.51
364.357	58.37
364.568	82.94
364.779	60.42
364.99	107.52
365.201	56.32
365.412	109.57
365.623	60.42
365.834	70.65
366.045	80.89
366.256	66.56
366.467	89.09
366.678	62.46
366.889	21.5
367.1	31.74
367.311	128
367.522	21.5
367.733	33.79
367.944	39.94
368.155	109.57
368.366	76.8
368.577	48.13
368.788	93.18
368.999	52.22
369.209	19.46
369.42	123.9
369.631	103.42
369.842	-3.07
370.053	97.28
370.264	64.51
370.474	97.28
370.685	95.23
370.896	33.79
371.107	93.18
371.317	58.37
371.528	48.13
371.739	123.9
371.95	113.66
372.16	115.71
372.371	-33.79
372.582	37.89
372.792	107.52
373.003	121.85
373.214	-7.17
373.424	107.52
373.635	54.27
373.846	117.76
374.056	128
374.267	105.47
374.477	58.37
374.688	66.56
374.898	54.27
375.109	101.37
375.319	66.56
375.53	97.28
375.74	56.32
375.951	60.42
376.161	5.12
376.372	25.6
376.582	64.51
376.793	91.13
377.003	48.13
377.214	37.89
377.424	136.19
377.635	74.75
377.845	62.46
378.055	-27.65
378.266	60.42
378.476	68.61
378.686	39.94
378.897	46.08
379.107	66.56
379.317	37.89
379.528	54.27
379.738	11.26
379.948	87.04
380.158	80.89
380.369	37.89
380.579	37.89
380.789	82.94
380.999	115.71
381.21	89.09
381.42	142.33
381.63	54.27
381.84	125.95
382.05	62.46
382.261	111.61
382.471	37.89
382.681	5.12
382.891	107.52
383.101	37.89
383.311	95.23
383.521	48.13
383.731	74.75
383.941	84.99
384.151	23.55
384.361	101.37
384.571	107.52
384.781	181.25
384.991	72.7
385.201	50.18
385.411	123.9
385.621	78.85
385.831	99.33
386.041	109.57
386.251	19.46
386.461	66.56
386.671	84.99
386.881	66.56
387.091	111.61
387.301	74.75
387.511	130.05
387.72	95.23
387.93	99.33
388.14	101.37
388.35	111.61
388.56	99.33
388.769	50.18
388.979	111.61
389.189	101.37
389.399	152.57
389.609	138.24
389.818	109.57
390.028	162.81
390.238	109.57
390.447	33.79
390.657	84.99
390.867	70.65
391.076	56.32
391.286	46.08
391.496	82.94
391.705	132.09
391.915	162.81
392.125	121.85
392.334	109.57
392.544	150.53
392.753	54.27
392.963	91.13
393.172	74.75
393.382	168.96
393.591	99.33
393.801	107.52
394.01	146.43
394.22	101.37
394.429	109.57
394.639	150.53
394.848	146.43
395.058	82.94
395.267	138.24
395.477	-1.02
395.686	93.18
395.895	144.38
396.105	211.96
396.314	166.91
396.524	105.47
396.733	144.38
396.942	140.29
397.152	146.43
397.361	162.81
397.57	150.53
397.78	214.01
397.989	117.76
398.198	166.91
398.407	130.05
398.617	271.36
398.826	89.09
399.035	150.53
399.244	107.52
399.453	144.38
399.663	97.28
399.872	146.43
400.081	103.42
400.29	173.05
400.499	214.01
400.708	205.82
400.917	101.37
401.127	154.62
401.336	130.05
401.545	189.44
401.754	158.72
401.963	203.77
402.172	175.1
402.381	191.49
402.59	203.77
402.799	148.48
403.008	214.01
403.217	191.49
403.426	234.49
403.635	199.68
403.844	207.87
404.053	240.64
404.262	234.49
404.471	216.06
404.68	236.54
404.888	183.29
405.097	173.05
405.306	207.87
405.515	291.84
405.724	205.82
405.933	236.54
406.142	232.44
406.35	289.79
406.559	222.2
406.768	369.66
406.977	285.69
407.185	330.75
407.394	230.4
407.603	252.92
407.812	355.32
408.02	381.95
408.229	433.15
408.438	338.94
408.646	349.18
408.855	392.19
409.064	359.42
409.272	422.91
409.481	408.57
409.69	343.03
409.898	435.19
410.107	373.75
410.315	498.68
410.524	472.06
410.733	525.3
410.941	470.01
411.15	549.88
411.358	586.74
411.567	506.87
411.775	666.61
411.984	566.26
412.192	627.7
412.401	666.61
412.609	756.72
412.818	654.33
413.026	683
413.234	758.77
413.443	771.06
413.651	762.87
413.86	783.35
414.068	850.93
414.276	963.57
414.485	867.31
414.693	975.86
414.901	1033.2
415.11	1043.44
415.318	1018.86
415.526	1006.58
415.734	1078.26
415.943	1174.51
416.151	1176.56
416.359	1240.05
416.567	1367.02
416.776	1334.25
416.984	1340.4
417.192	1543.14
417.4	1485.8
417.608	1563.62
417.817	1489.9
418.025	1567.72
418.233	1692.65
418.441	1758.18
418.649	1809.38
418.857	1903.59
419.065	1905.63
419.273	1915.87
419.481	2092
419.689	2126.82
419.897	2184.16
420.105	2249.69
420.313	2319.32
420.521	2382.81
420.729	2378.72
420.937	2565.08
421.145	2603.99
421.353	2763.73
421.561	2792.41
421.769	2925.52
421.977	3115.98
422.185	2991.06
422.393	3095.5
422.601	3261.39
422.809	3345.36
423.017	3517.39
423.224	3650.5
423.432	3638.22
423.64	3724.23
423.848	4088.77
424.056	3955.65
424.263	4266.94
424.471	4150.21
424.679	4309.95
424.887	4471.74
425.094	4680.63
425.302	4633.53
425.51	4916.15
425.718	5047.22
425.925	5120.95
426.133	5389.23
426.341	5452.72
426.548	5919.65
426.756	5796.78
426.964	5704.62
427.171	6325.15
427.379	6527.9
427.586	6491.04
427.794	6736.79
428.001	6925.21
428.209	7379.86
428.417	7377.81
428.624	7711.63
428.832	7900.04
429.039	7768.97
429.247	7596.94
429.454	8446.85
429.662	8964.98
429.869	8223.62
430.076	9071.48
430.284	8952.7
430.491	9061.24
430.699	9716.59
430.906	9687.92
431.114	9966.44
431.321	10142.57
431.528	10367.84
431.736	10906.46
431.943	11387.73
432.15	11025.24
432.358	11434.83
432.565	12069.7
432.772	12018.5
432.979	12495.68
433.187	12753.73
433.394	12630.85
433.601	13689.65
433.808	13794.09
434.016	13583.15
434.223	14240.55
434.43	15196.95
434.637	14897.95
434.844	15698.7
435.052	16081.67
435.259	15676.18
435.466	16141.07
435.673	16085.77
435.88	17060.6
436.087	18090.73
436.294	18203.37
436.501	17855.22
436.708	17705.71
436.915	18445.03
437.122	19495.64
437.329	19229.4
437.537	19802.83
437.743	20218.57
437.95	19880.66
438.157	21240.51
438.364	21736.12
438.571	21742.26
438.778	22020.78
438.985	23972.5
439.192	23247.52
439.399	23904.92
439.606	23292.57
439.813	24550.03
440.02	25784.95
440.227	25385.6
440.433	25291.39
440.64	26231.41
440.847	25780.85
441.054	26983.01
441.261	28244.56
441.467	27910.74
441.674	28846.66
441.881	29600.32
442.088	29733.43
442.294	29256.26
442.501	29979.19
442.708	30917.16
442.914	31900.19
443.121	33350.15
443.328	32498.19
443.534	34787.82
443.741	33317.38
443.948	32915.98
444.154	35600.86
444.361	35113.45
444.568	35910.11
444.774	35604.96
444.981	36237.78
445.187	37046.73
445.394	38822.32
445.6	37958.08
445.807	41644.42
446.013	40069.53
446.22	40665.49
446.426	42189.18
446.633	42844.53
446.839	43979.1
447.046	42367.35
447.252	44628.31
447.459	44947.79
447.665	44364.12
447.871	46246.21
448.078	48412.96
448.284	46100.8
448.491	47024.43
448.697	48996.63
448.903	49916.17
449.11	49686.79
449.316	49293.58
449.522	50073.86
449.728	51568.88
449.935	51630.32
450.141	51661.04
450.347	53285.07
450.553	50917.62
450.76	52162.79
450.966	53821.64
451.172	53162.2
451.378	54157.51
451.584	53530.83
451.791	54622.4
451.997	54386.88
452.203	55138.49
452.409	55619.76
452.615	54495.42
452.821	53080.28
453.027	52787.42
453.233	55304.37
453.44	52797.66
453.646	53620.94
453.852	53827.79
454.058	55038.14
454.264	53039.32
454.47	53803.21
454.676	52941.02
454.882	54823.1
455.088	50360.58
455.294	51261.68
455.5	51499.25
455.705	52144.36
455.911	50544.89
456.117	49426.7
456.323	48378.14
456.529	46127.42
456.735	48144.67
456.941	47040.82
457.147	46534.97
457.352	44556.63
457.558	44155.23
457.764	44210.53
457.97	43653.48
458.176	42965.36
458.381	42492.28
458.587	40767.89
458.793	41052.56
458.999	39078.32
459.204	41312.65
459.41	39731.62
459.616	37636.55
459.821	37788.1
460.027	37609.92
460.233	36651.47
460.438	34931.18
460.644	35138.02
460.85	33589.76
461.055	33098.25
461.261	33257.99
461.466	30462.51
461.672	29631.04
461.878	32002.58
462.083	29786.68
462.289	29145.67
462.494	28750.41
462.7	27210.34
462.905	26888.81
463.111	27994.71
463.316	28140.11
463.522	26813.03
463.727	27220.58
463.932	27425.37
464.138	26745.45
464.343	27138.66
464.549	26262.13
464.754	27038.31
464.959	26776.17
465.165	26622.57
465.37	25631.35
465.575	25170.56
465.781	25832.05
465.986	26038.9
466.191	25107.07
466.397	24588.94
466.602	23298.72
466.807	24300.17
467.012	24560.27
