Data from USB4F104151__74__12-36-45-894.txt Node

Date: Fri Mar 14 12:36:45 EDT 2025
User: louis
Spectrometer: USB4F10415
Trigger mode: 4
Integration Time (sec): 2.000000E-2
Scans to average: 1
Electric dark correction enabled: true
Nonlinearity correction enabled: false
Boxcar width: 0
XAxis mode: Wavelengths
Number of Pixels in Spectrum: 3648
>>>>>Begin Spectral Data<<<<<
178.204	-43.52
178.424	-43.52
178.644	-43.52
178.864	-88.57
179.084	-41.47
179.304	-41.47
179.524	52.74
179.744	-31.23
179.964	-23.04
180.184	-10.75
180.404	-31.23
180.624	-41.47
180.844	95.74
181.064	-37.38
181.283	17.92
181.503	32.26
181.723	17.92
181.943	-16.9
182.163	36.35
182.383	1.54
182.602	56.83
182.822	-6.66
183.042	19.97
183.262	50.69
183.482	13.82
183.701	9.73
183.921	22.02
184.141	-4.61
184.361	77.31
184.58	-20.99
184.8	52.74
185.02	3.58
185.239	-33.28
185.459	-31.23
185.679	62.98
185.898	22.02
186.118	5.63
186.338	85.5
186.557	50.69
186.777	77.31
186.997	-8.7
187.216	40.45
187.436	58.88
187.655	73.21
187.875	32.26
188.095	56.83
188.314	116.22
188.534	32.26
188.753	1.54
188.973	50.69
189.192	17.92
189.412	-2.56
189.631	75.26
189.851	17.92
190.07	28.16
190.29	-16.9
190.509	83.45
190.729	1.54
190.948	91.65
191.168	144.89
191.387	7.68
191.607	-43.52
191.826	40.45
192.045	-39.42
192.265	15.87
192.484	75.26
192.704	26.11
192.923	17.92
193.142	116.22
193.362	-20.99
193.581	56.83
193.8	56.83
194.02	95.74
194.239	26.11
194.458	11.78
194.678	13.82
194.897	54.78
195.116	7.68
195.335	50.69
195.555	32.26
195.774	73.21
195.993	65.02
196.212	60.93
196.432	-4.61
196.651	22.02
196.87	7.68
197.089	93.69
197.308	83.45
197.528	-23.04
197.747	5.63
197.966	30.21
198.185	-31.23
198.404	-6.66
198.623	58.88
198.842	36.35
199.062	28.16
199.281	28.16
199.5	34.3
199.719	60.93
199.938	19.97
200.157	99.84
200.376	40.45
200.595	73.21
200.814	-10.75
201.033	99.84
201.252	24.06
201.471	32.26
201.69	69.12
201.909	40.45
202.128	69.12
202.347	56.83
202.566	-20.99
202.785	38.4
203.004	71.17
203.223	30.21
203.442	38.4
203.661	75.26
203.879	40.45
204.098	50.69
204.317	40.45
204.536	81.41
204.755	56.83
204.974	87.55
205.193	3.58
205.411	32.26
205.63	42.5
205.849	26.11
206.068	-2.56
206.287	79.36
206.505	67.07
206.724	110.08
206.943	46.59
207.162	52.74
207.381	26.11
207.599	3.58
207.818	50.69
208.037	34.3
208.255	19.97
208.474	36.35
208.693	1.54
208.911	-8.7
209.13	60.93
209.349	-8.7
209.567	120.32
209.786	-35.33
210.005	52.74
210.223	-0.51
210.442	-14.85
210.661	40.45
210.879	38.4
211.098	65.02
211.316	-25.09
211.535	67.07
211.753	50.69
211.972	50.69
212.191	40.45
212.409	67.07
212.628	-0.51
212.846	69.12
213.065	15.87
213.283	-8.7
213.502	95.74
213.72	-8.7
213.938	17.92
214.157	32.26
214.375	5.63
214.594	60.93
214.812	34.3
215.031	-20.99
215.249	19.97
215.467	81.41
215.686	26.11
215.904	89.6
216.122	110.08
216.341	26.11
216.559	87.55
216.778	67.07
216.996	52.74
217.214	13.82
217.432	26.11
217.651	75.26
217.869	58.88
218.087	30.21
218.306	-4.61
218.524	34.3
218.742	-2.56
218.96	22.02
219.179	28.16
219.397	42.5
219.615	-2.56
219.833	65.02
220.051	46.59
220.27	67.07
220.488	79.36
220.706	44.54
220.924	46.59
221.142	50.69
221.36	-2.56
221.578	83.45
221.796	11.78
222.015	-29.18
222.233	71.17
222.451	28.16
222.669	-41.47
222.887	73.21
223.105	-33.28
223.323	52.74
223.541	44.54
223.759	32.26
223.977	7.68
224.195	73.21
224.413	-12.8
224.631	62.98
224.849	38.4
225.067	79.36
225.285	24.06
225.503	1.54
225.721	-45.57
225.939	26.11
226.157	-8.7
226.375	32.26
226.592	50.69
226.81	38.4
227.028	22.02
227.246	73.21
227.464	36.35
227.682	32.26
227.9	-2.56
228.117	-29.18
228.335	60.93
228.553	3.58
228.771	-20.99
228.989	89.6
229.206	22.02
229.424	26.11
229.642	28.16
229.86	3.58
230.077	-16.9
230.295	5.63
230.513	69.12
230.731	114.17
230.948	75.26
231.166	56.83
231.384	28.16
231.601	60.93
231.819	69.12
232.037	9.73
232.254	-2.56
232.472	15.87
232.689	26.11
232.907	110.08
233.125	56.83
233.342	62.98
233.56	50.69
233.777	1.54
233.995	65.02
234.213	58.88
234.43	22.02
234.648	40.45
234.865	22.02
235.083	58.88
235.3	50.69
235.518	132.61
235.735	110.08
235.953	97.79
236.17	-14.85
236.388	-8.7
236.605	79.36
236.822	85.5
237.04	17.92
237.257	-4.61
237.475	-37.38
237.692	81.41
237.909	101.89
238.127	83.45
238.344	77.31
238.562	34.3
238.779	-18.94
238.996	-12.8
239.214	60.93
239.431	15.87
239.648	22.02
239.865	26.11
240.083	32.26
240.3	89.6
240.517	19.97
240.735	65.02
240.952	9.73
241.169	110.08
241.386	40.45
241.603	85.5
241.821	38.4
242.038	79.36
242.255	108.03
242.472	62.98
242.689	46.59
242.907	65.02
243.124	91.65
243.341	-8.7
243.558	-39.42
243.775	-8.7
243.992	79.36
244.209	11.78
244.426	11.78
244.643	54.78
244.86	22.02
245.078	46.59
245.295	44.54
245.512	26.11
245.729	62.98
245.946	-12.8
246.163	75.26
246.38	48.64
246.597	58.88
246.814	40.45
247.031	5.63
247.248	60.93
247.464	95.74
247.681	40.45
247.898	17.92
248.115	65.02
248.332	1.54
248.549	7.68
248.766	75.26
248.983	28.16
249.2	32.26
249.417	77.31
249.633	108.03
249.85	19.97
250.067	50.69
250.284	15.87
250.501	24.06
250.717	13.82
250.934	50.69
251.151	26.11
251.368	110.08
251.585	48.64
251.801	24.06
252.018	5.63
252.235	85.5
252.451	7.68
252.668	38.4
252.885	34.3
253.102	40.45
253.318	17.92
253.535	5.63
253.752	101.89
253.968	-16.9
254.185	48.64
254.401	60.93
254.618	71.17
254.835	-14.85
255.051	67.07
255.268	46.59
255.484	65.02
255.701	-57.86
255.917	24.06
256.134	-0.51
256.351	30.21
256.567	-0.51
256.784	22.02
257	-45.57
257.217	44.54
257.433	19.97
257.65	85.5
257.866	110.08
258.082	11.78
258.299	60.93
258.515	50.69
258.732	11.78
258.948	19.97
259.165	-16.9
259.381	87.55
259.597	5.63
259.814	79.36
260.03	89.6
260.246	-8.7
260.463	34.3
260.679	101.89
260.895	58.88
261.112	13.82
261.328	34.3
261.544	67.07
261.761	73.21
261.977	-2.56
262.193	26.11
262.409	3.58
262.626	81.41
262.842	85.5
263.058	-80.38
263.274	62.98
263.49	40.45
263.707	60.93
263.923	-2.56
264.139	46.59
264.355	17.92
264.571	175.61
264.787	-29.18
265.004	81.41
265.22	48.64
265.436	75.26
265.652	101.89
265.868	101.89
266.084	34.3
266.3	40.45
266.516	-70.14
266.732	56.83
266.948	38.4
267.164	83.45
267.38	85.5
267.596	126.46
267.812	62.98
268.028	48.64
268.244	1.54
268.46	22.02
268.676	40.45
268.892	42.5
269.108	-29.18
269.324	93.69
269.54	-4.61
269.756	71.17
269.972	48.64
270.188	52.74
270.403	17.92
270.619	95.74
270.835	-29.18
271.051	89.6
271.267	93.69
271.483	-0.51
271.698	62.98
271.914	91.65
272.13	48.64
272.346	54.78
272.562	34.3
272.777	-8.7
272.993	42.5
273.209	77.31
273.425	36.35
273.64	7.68
273.856	-18.94
274.072	58.88
274.287	87.55
274.503	7.68
274.719	26.11
274.934	3.58
275.15	30.21
275.366	44.54
275.581	26.11
275.797	15.87
276.012	69.12
276.228	87.55
276.444	48.64
276.659	83.45
276.875	17.92
277.09	-33.28
277.306	32.26
277.521	26.11
277.737	26.11
277.952	81.41
278.168	17.92
278.383	-33.28
278.599	56.83
278.814	54.78
279.03	93.69
279.245	24.06
279.461	17.92
279.676	60.93
279.892	65.02
280.107	69.12
280.322	13.82
280.538	-2.56
280.753	44.54
280.969	34.3
281.184	75.26
281.399	83.45
281.615	73.21
281.83	87.55
282.045	-4.61
282.26	62.98
282.476	69.12
282.691	112.13
282.906	77.31
283.122	36.35
283.337	65.02
283.552	99.84
283.767	-18.94
283.983	52.74
284.198	15.87
284.413	-10.75
284.628	1.54
284.843	34.3
285.058	71.17
285.274	30.21
285.489	105.98
285.704	56.83
285.919	-23.04
286.134	58.88
286.349	42.5
286.564	38.4
286.779	118.27
286.995	-45.57
287.21	3.58
287.425	138.75
287.64	-18.94
287.855	65.02
288.07	-2.56
288.285	34.3
288.5	46.59
288.715	95.74
288.93	22.02
289.145	26.11
289.36	24.06
289.575	19.97
289.79	15.87
290.004	60.93
290.219	67.07
290.434	22.02
290.649	17.92
290.864	17.92
291.079	28.16
291.294	-0.51
291.509	50.69
291.724	44.54
291.938	36.35
292.153	36.35
292.368	56.83
292.583	62.98
292.798	13.82
293.012	67.07
293.227	93.69
293.442	34.3
293.657	85.5
293.871	91.65
294.086	42.5
294.301	97.79
294.516	7.68
294.73	50.69
294.945	40.45
295.16	34.3
295.374	48.64
295.589	110.08
295.804	48.64
296.018	65.02
296.233	30.21
296.447	9.73
296.662	-41.47
296.877	30.21
297.091	65.02
297.306	36.35
297.52	81.41
297.735	93.69
297.949	67.07
298.164	15.87
298.378	50.69
298.593	36.35
298.807	-14.85
299.022	81.41
299.236	62.98
299.451	50.69
299.665	89.6
299.88	11.78
300.094	58.88
300.309	77.31
300.523	71.17
300.737	62.98
300.952	60.93
301.166	22.02
301.381	-18.94
301.595	36.35
301.809	44.54
302.024	-0.51
302.238	77.31
302.452	38.4
302.667	-10.75
302.881	151.04
303.095	69.12
303.309	46.59
303.524	30.21
303.738	52.74
303.952	-8.7
304.166	85.5
304.381	48.64
304.595	58.88
304.809	50.69
305.023	52.74
305.237	7.68
305.452	48.64
305.666	46.59
305.88	56.83
306.094	7.68
306.308	32.26
306.522	50.69
306.736	32.26
306.95	1.54
307.164	40.45
307.379	42.5
307.593	32.26
307.807	32.26
308.021	81.41
308.235	-0.51
308.449	60.93
308.663	-10.75
308.877	71.17
309.091	85.5
309.305	116.22
309.519	28.16
309.733	85.5
309.947	19.97
310.161	122.37
310.374	38.4
310.588	50.69
310.802	52.74
311.016	-10.75
311.23	69.12
311.444	97.79
311.658	54.78
311.872	85.5
312.085	42.5
312.299	83.45
312.513	54.78
312.727	71.17
312.941	32.26
313.154	71.17
313.368	36.35
313.582	89.6
313.796	48.64
314.009	54.78
314.223	34.3
314.437	122.37
314.651	79.36
314.864	128.51
315.078	5.63
315.292	7.68
315.505	-4.61
315.719	42.5
315.933	110.08
316.146	42.5
316.36	22.02
316.573	34.3
316.787	-37.38
317.001	13.82
317.214	1.54
317.428	105.98
317.641	97.79
317.855	50.69
318.068	79.36
318.282	-0.51
318.495	159.23
318.709	-0.51
318.922	114.17
319.136	54.78
319.349	110.08
319.563	-8.7
319.776	110.08
319.99	60.93
320.203	67.07
320.417	5.63
320.63	114.17
320.843	89.6
321.057	-14.85
321.27	30.21
321.483	13.82
321.697	71.17
321.91	36.35
322.124	58.88
322.337	38.4
322.55	22.02
322.763	17.92
322.977	19.97
323.19	67.07
323.403	89.6
323.617	69.12
323.83	81.41
324.043	11.78
324.256	34.3
324.469	-8.7
324.683	1.54
324.896	9.73
325.109	67.07
325.322	5.63
325.535	13.82
325.748	67.07
325.962	24.06
326.175	130.56
326.388	77.31
326.601	28.16
326.814	62.98
327.027	67.07
327.24	71.17
327.453	67.07
327.666	42.5
327.879	24.06
328.092	99.84
328.305	132.61
328.518	38.4
328.731	50.69
328.944	40.45
329.157	48.64
329.37	44.54
329.583	79.36
329.796	87.55
330.009	22.02
330.222	58.88
330.435	71.17
330.648	-10.75
330.861	99.84
331.073	19.97
331.286	-0.51
331.499	34.3
331.712	60.93
331.925	77.31
332.138	103.93
332.35	114.17
332.563	-23.04
332.776	87.55
332.989	-18.94
333.202	24.06
333.414	28.16
333.627	-20.99
333.84	110.08
334.053	-12.8
334.265	46.59
334.478	40.45
334.691	118.27
334.903	46.59
335.116	1.54
335.329	79.36
335.541	71.17
335.754	101.89
335.966	71.17
336.179	48.64
336.392	38.4
336.604	83.45
336.817	73.21
337.029	138.75
337.242	54.78
337.454	124.41
337.667	7.68
337.88	60.93
338.092	85.5
338.305	65.02
338.517	30.21
338.729	69.12
338.942	165.37
339.154	17.92
339.367	1.54
339.579	103.93
339.792	114.17
340.004	83.45
340.217	15.87
340.429	34.3
340.641	1.54
340.854	17.92
341.066	-10.75
341.278	44.54
341.491	54.78
341.703	22.02
341.915	77.31
342.128	65.02
342.34	79.36
342.552	54.78
342.764	44.54
342.977	60.93
343.189	52.74
343.401	124.41
343.613	50.69
343.826	44.54
344.038	103.93
344.25	28.16
344.462	22.02
344.674	17.92
344.886	89.6
345.099	34.3
345.311	85.5
345.523	71.17
345.735	-4.61
345.947	-37.38
346.159	-29.18
346.371	79.36
346.583	62.98
346.795	153.09
347.007	65.02
347.219	112.13
347.431	118.27
347.643	-2.56
347.855	38.4
348.067	118.27
348.279	22.02
348.491	103.93
348.703	99.84
348.915	38.4
349.127	48.64
349.339	24.06
349.551	87.55
349.763	83.45
349.975	-8.7
350.187	1.54
350.399	42.5
350.61	79.36
350.822	-16.9
351.034	101.89
351.246	83.45
351.458	132.61
351.669	85.5
351.881	19.97
352.093	89.6
352.305	52.74
352.517	73.21
352.728	128.51
352.94	1.54
353.152	103.93
353.363	50.69
353.575	142.85
353.787	67.07
353.999	58.88
354.21	202.24
354.422	116.22
354.633	69.12
354.845	56.83
355.057	24.06
355.268	77.31
355.48	144.89
355.692	75.26
355.903	60.93
356.115	99.84
356.326	67.07
356.538	128.51
356.749	48.64
356.961	40.45
357.172	79.36
357.384	79.36
357.595	79.36
357.807	44.54
358.018	48.64
358.23	22.02
358.441	132.61
358.653	110.08
358.864	13.82
359.075	46.59
359.287	15.87
359.498	36.35
359.709	34.3
359.921	-27.14
360.132	42.5
360.344	79.36
360.555	40.45
360.766	38.4
360.977	62.98
361.189	50.69
361.4	67.07
361.611	3.58
361.823	56.83
362.034	89.6
362.245	67.07
362.456	93.69
362.667	105.98
362.879	79.36
363.09	44.54
363.301	9.73
363.512	22.02
363.723	89.6
363.935	36.35
364.146	108.03
364.357	65.02
364.568	89.6
364.779	69.12
364.99	48.64
365.201	-16.9
365.412	75.26
365.623	93.69
365.834	105.98
366.045	7.68
366.256	87.55
366.467	58.88
366.678	91.65
366.889	110.08
367.1	50.69
367.311	85.5
367.522	85.5
367.733	13.82
367.944	60.93
368.155	40.45
368.366	114.17
368.577	65.02
368.788	73.21
368.999	-10.75
369.209	54.78
369.42	122.37
369.631	159.23
369.842	28.16
370.053	122.37
370.264	30.21
370.474	46.59
370.685	60.93
370.896	52.74
371.107	81.41
371.317	67.07
371.528	58.88
371.739	24.06
371.95	28.16
372.16	71.17
372.371	60.93
372.582	60.93
372.792	124.41
373.003	-8.7
373.214	22.02
373.424	87.55
373.635	95.74
373.846	81.41
374.056	11.78
374.267	81.41
374.477	65.02
374.688	69.12
374.898	65.02
375.109	46.59
375.319	83.45
375.53	114.17
375.74	105.98
375.951	62.98
376.161	77.31
376.372	34.3
376.582	19.97
376.793	69.12
377.003	85.5
377.214	136.7
377.424	85.5
377.635	40.45
377.845	48.64
378.055	60.93
378.266	65.02
378.476	81.41
378.686	91.65
378.897	122.37
379.107	15.87
379.317	32.26
379.528	52.74
379.738	65.02
379.948	-37.38
380.158	54.78
380.369	159.23
380.579	99.84
380.789	15.87
380.999	40.45
381.21	122.37
381.42	89.6
381.63	110.08
381.84	116.22
382.05	40.45
382.261	155.13
382.471	91.65
382.681	157.18
382.891	99.84
383.101	1.54
383.311	110.08
383.521	122.37
383.731	103.93
383.941	110.08
384.151	118.27
384.361	110.08
384.571	73.21
384.781	73.21
384.991	148.99
385.201	157.18
385.411	-14.85
385.621	101.89
385.831	81.41
386.041	48.64
386.251	114.17
386.461	93.69
386.671	42.5
386.881	77.31
387.091	50.69
387.301	157.18
387.511	103.93
387.72	148.99
387.93	110.08
388.14	136.7
388.35	42.5
388.56	93.69
388.769	126.46
388.979	69.12
389.189	153.09
389.399	26.11
389.609	89.6
389.818	108.03
390.028	95.74
390.238	148.99
390.447	52.74
390.657	40.45
390.867	97.79
391.076	50.69
391.286	130.56
391.496	83.45
391.705	40.45
391.915	159.23
392.125	79.36
392.334	120.32
392.544	99.84
392.753	116.22
392.963	93.69
393.172	75.26
393.382	67.07
393.591	140.8
393.801	22.02
394.01	159.23
394.22	85.5
394.429	130.56
394.639	75.26
394.848	97.79
395.058	89.6
395.267	91.65
395.477	103.93
395.686	97.79
395.895	159.23
396.105	165.37
396.314	134.65
396.524	138.75
396.733	148.99
396.942	161.28
397.152	140.8
397.361	91.65
397.57	122.37
397.78	142.85
397.989	167.42
398.198	192
398.407	116.22
398.617	128.51
398.826	105.98
399.035	161.28
399.244	85.5
399.453	144.89
399.663	222.72
399.872	239.1
400.081	83.45
400.29	208.38
400.499	167.42
400.708	108.03
400.917	179.71
401.127	208.38
401.336	171.52
401.545	241.15
401.754	151.04
401.963	189.95
402.172	173.57
402.381	116.22
402.59	99.84
402.799	99.84
403.008	202.24
403.217	179.71
403.426	128.51
403.635	142.85
403.844	189.95
404.053	212.48
404.262	144.89
404.471	249.34
404.68	181.76
404.888	192
405.097	138.75
405.306	206.33
405.515	208.38
405.724	314.88
405.933	273.92
406.142	253.44
406.35	237.05
406.559	263.68
406.768	212.48
406.977	341.5
407.185	308.73
407.394	294.4
407.603	224.76
407.812	284.16
408.02	265.72
408.229	355.83
408.438	388.6
408.646	341.5
408.855	304.64
409.064	402.94
409.272	333.31
409.481	417.27
409.69	390.65
409.898	396.79
410.107	421.37
410.315	413.18
410.524	427.51
410.733	407.03
410.941	513.53
411.15	523.77
411.358	521.72
411.567	525.82
411.775	562.68
411.984	509.43
412.192	617.97
412.401	611.83
412.609	640.5
412.818	630.26
413.026	736.76
413.234	669.17
413.443	722.42
413.651	714.23
413.86	806.39
414.068	847.35
414.276	884.21
414.485	808.44
414.693	878.07
414.901	910.83
415.11	957.94
415.318	923.12
415.526	1029.62
415.734	1041.9
415.943	984.56
416.151	1091.06
416.359	1099.25
416.567	1203.69
416.776	1248.75
416.984	1271.28
417.192	1379.82
417.4	1347.05
417.608	1469.93
417.817	1426.92
418.025	1543.66
418.233	1525.22
418.441	1603.05
418.649	1689.06
418.857	1693.16
419.065	1736.17
419.273	1732.07
419.481	1799.65
419.689	2014.69
419.897	2061.79
420.105	2104.8
420.313	2162.14
420.521	2252.25
420.729	2272.73
420.937	2360.8
421.145	2432.47
421.353	2536.92
421.561	2639.32
421.769	2647.51
421.977	2819.54
422.185	2723.29
422.393	3003.86
422.601	3087.82
422.809	3196.37
423.017	3120.59
423.224	3261.9
423.432	3401.16
423.64	3325.39
423.848	3749.32
424.056	3644.87
424.263	3952.07
424.471	3861.96
424.679	3890.63
424.887	4117.95
425.094	4330.94
425.302	4412.86
425.51	4482.49
425.718	4652.47
425.925	4726.2
426.133	4965.81
426.341	5238.19
426.548	5334.45
426.756	5537.2
426.964	5410.22
427.171	5746.09
427.379	5901.73
427.586	5950.89
427.794	6153.63
428.001	6512.03
428.209	6868.38
428.417	6704.54
428.624	7032.21
428.832	7177.62
429.039	7060.88
429.247	7034.26
429.454	7904.65
429.662	8351.1
429.869	7808.39
430.076	8478.08
430.284	8107.4
430.491	8586.62
430.699	9098.61
430.906	8799.61
431.114	9115
431.321	9502.06
431.528	9823.59
431.736	10032.49
431.943	10866.01
432.15	10126.69
432.358	10394.98
432.565	11099.48
432.772	11062.62
432.979	11849.04
433.187	11941.19
433.394	11937.1
433.601	12770.62
433.808	12727.61
434.016	12717.37
434.223	13280.57
434.43	14255.4
434.637	13851.95
434.844	14839.07
435.052	14746.91
435.259	14863.65
435.466	15193.37
435.673	14728.48
435.88	15664.4
436.087	16540.93
436.294	16571.65
436.501	16278.79
436.708	16710.91
436.915	17270.01
437.122	18046.19
437.329	17816.82
437.537	18494.69
437.743	18742.5
437.95	18590.95
438.157	19520.73
438.364	20372.68
438.571	20143.31
438.778	20331.72
438.985	22293.68
439.192	21273.79
439.399	22267.05
439.606	21562.55
439.813	22719.65
440.02	23925.91
440.227	23798.93
440.433	23352.48
440.64	24392.84
440.847	23895.19
441.054	24595.59
441.261	26242.16
441.467	25949.3
441.674	26612.84
441.881	27393.12
442.088	27382.88
442.294	27272.29
442.501	27704.41
442.708	28585.04
442.914	29498.43
443.121	30751.79
443.328	30051.38
443.534	32007.19
443.741	31251.49
443.948	30686.25
444.154	33227.78
444.361	33070.09
444.568	33309.7
444.774	33074.18
444.981	33782.78
445.187	34397.17
445.394	36164.57
445.6	35478.5
445.807	38693.81
446.013	37221.32
446.22	37739.46
446.426	39257
446.633	39498.66
446.839	41055.12
447.046	39093.16
447.252	41466.76
447.459	41509.77
447.665	41270.15
447.871	43080.56
448.078	44931.92
448.284	42838.9
448.491	44057.44
448.697	45527.88
448.903	46723.9
449.11	46637.88
449.316	46062.4
449.522	46967.6
449.728	47881
449.935	48022.31
450.141	48098.08
450.347	48927.51
450.553	47837.99
450.76	48114.47
450.966	49885.96
451.172	49564.43
451.378	50617.08
451.584	49820.42
451.791	50285.31
451.997	50615.04
452.203	51604.2
452.409	51677.93
452.615	51182.32
452.821	49734.41
453.027	48874.26
453.233	51247.86
453.44	49484.56
453.646	49935.11
453.852	50479.87
454.058	51299.06
454.264	49623.82
454.47	50879.22
454.676	49253.14
454.882	51319.54
455.088	46633.78
455.294	47356.72
455.5	47887.14
455.705	48655.13
455.911	46727.99
456.117	45706.05
456.323	45529.93
456.529	43207.53
456.735	44782.42
456.941	43811.68
457.147	43080.56
457.352	41679.75
457.558	41188.24
457.764	41044.88
457.97	40659.86
458.176	39596.96
458.381	40018.85
458.587	37573.57
458.793	38220.73
458.999	36232.15
459.204	37934.01
459.41	37125.07
459.616	35029.99
459.821	34800.62
460.027	34714.61
460.233	33928.19
460.438	32320.53
460.644	32834.57
460.85	31253.54
461.055	31077.41
461.261	30784.55
461.466	28601.42
461.672	27513.95
461.878	29672.51
462.083	27579.48
462.289	27069.54
462.494	26825.83
462.7	25812.09
462.905	24992.9
463.111	25721.98
463.316	25814.13
463.522	25017.47
463.727	25293.95
463.932	25451.64
464.138	25228.42
464.343	25226.37
464.549	24466.57
464.754	25267.33
464.959	24986.75
465.165	25123.97
465.37	23551.13
465.575	23409.82
465.781	24106.13
465.986	24149.14
466.191	23413.91
466.397	22699.17
466.602	21982.38
466.807	22748.32
467.012	22609.06
467.218	22568.1
467.423	22279.34
