Data from USB4F104151__13__12-35-09-344.txt Node

Date: Fri Mar 14 12:35:09 EDT 2025
User: louis
Spectrometer: USB4F10415
Trigger mode: 4
Integration Time (sec): 2.000000E-2
Scans to average: 1
Electric dark correction enabled: true
Nonlinearity correction enabled: false
Boxcar width: 0
XAxis mode: Wavelengths
Number of Pixels in Spectrum: 3648
>>>>>Begin Spectral Data<<<<<
178.204	-12.97
178.424	-12.97
178.644	-12.97
178.864	-76.46
179.084	-72.36
179.304	-2.73
179.524	-37.55
179.744	-41.64
179.964	68.95
180.184	34.13
180.404	34.13
180.624	9.56
180.844	-23.21
181.064	-12.97
181.283	-2.73
181.503	-37.55
181.723	11.61
181.943	-35.5
182.163	66.9
182.383	109.91
182.602	34.13
182.822	81.24
183.042	56.66
183.262	-45.74
183.482	-4.78
183.701	-27.31
183.921	-2.73
184.141	-2.73
184.361	77.14
184.58	-25.26
184.8	34.13
185.02	1.37
185.239	52.56
185.459	62.8
185.679	13.65
185.898	52.56
186.118	120.15
186.338	-17.07
186.557	34.13
186.777	48.47
186.997	44.37
187.216	103.76
187.436	17.75
187.655	9.56
187.875	56.66
188.095	40.28
188.314	19.8
188.534	64.85
188.753	-41.64
188.973	34.13
189.192	34.13
189.412	54.61
189.631	-47.79
189.851	19.8
190.07	103.76
190.29	27.99
190.509	97.62
190.729	21.85
190.948	42.32
191.168	150.87
191.387	81.24
191.607	23.89
191.826	79.19
192.045	-51.88
192.265	30.04
192.484	64.85
192.704	9.56
192.923	-2.73
193.142	60.76
193.362	46.42
193.581	87.38
193.8	50.52
194.02	-4.78
194.239	34.13
194.458	9.56
194.678	-6.83
194.897	40.28
195.116	50.52
195.335	120.15
195.555	66.9
195.774	46.42
195.993	64.85
196.212	60.76
196.432	-2.73
196.651	97.62
196.87	23.89
197.089	68.95
197.308	58.71
197.528	-10.92
197.747	-31.4
197.966	91.48
198.185	68.95
198.404	-29.35
198.623	54.61
198.842	93.52
199.062	81.24
199.281	60.76
199.5	23.89
199.719	17.75
199.938	95.57
200.157	13.65
200.376	91.48
200.595	48.47
200.814	42.32
201.033	60.76
201.252	118.1
201.471	7.51
201.69	75.09
201.909	87.38
202.128	17.75
202.347	36.18
202.566	64.85
202.785	52.56
203.004	21.85
203.223	30.04
203.442	32.08
203.661	11.61
203.879	-58.03
204.098	34.13
204.317	48.47
204.536	-6.83
204.755	93.52
204.974	36.18
205.193	42.32
205.411	50.52
205.63	50.52
205.849	87.38
206.068	30.04
206.287	46.42
206.505	-33.45
206.724	19.8
206.943	85.33
207.162	77.14
207.381	130.39
207.599	-47.79
207.818	1.37
208.037	77.14
208.255	36.18
208.474	34.13
208.693	79.19
208.911	44.37
209.13	73.04
209.349	79.19
209.567	79.19
209.786	56.66
210.005	17.75
210.223	-17.07
210.442	56.66
210.661	30.04
210.879	-0.68
211.098	64.85
211.316	-25.26
211.535	62.8
211.753	27.99
211.972	21.85
212.191	-2.73
212.409	21.85
212.628	-2.73
212.846	-0.68
213.065	44.37
213.283	68.95
213.502	34.13
213.72	34.13
213.938	62.8
214.157	42.32
214.375	27.99
214.594	77.14
214.812	48.47
215.031	9.56
215.249	-27.31
215.467	71
215.686	71
215.904	89.43
216.122	11.61
216.341	93.52
216.559	68.95
216.778	46.42
216.996	77.14
217.214	27.99
217.432	64.85
217.651	40.28
217.869	71
218.087	38.23
218.306	64.85
218.524	68.95
218.742	89.43
218.96	58.71
219.179	136.53
219.397	23.89
219.615	36.18
219.833	-12.97
220.051	40.28
220.27	134.48
220.488	99.67
220.706	34.13
220.924	46.42
221.142	-21.16
221.36	36.18
221.578	85.33
221.796	42.32
222.015	95.57
222.233	54.61
222.451	142.68
222.669	40.28
222.887	42.32
223.105	27.99
223.323	40.28
223.541	38.23
223.759	48.47
223.977	27.99
224.195	64.85
224.413	32.08
224.631	23.89
224.849	9.56
225.067	116.05
225.285	46.42
225.503	27.99
225.721	-39.59
225.939	44.37
226.157	42.32
226.375	175.44
226.592	48.47
226.81	13.65
227.028	52.56
227.246	77.14
227.464	-45.74
227.682	11.61
227.9	68.95
228.117	-0.68
228.335	-6.83
228.553	30.04
228.771	68.95
228.989	71
229.206	23.89
229.424	32.08
229.642	68.95
229.86	-0.68
230.077	91.48
230.295	105.81
230.513	38.23
230.731	85.33
230.948	15.7
231.166	101.72
231.384	25.94
231.601	34.13
231.819	81.24
232.037	1.37
232.254	77.14
232.472	-23.21
232.689	32.08
232.907	50.52
233.125	7.51
233.342	1.37
233.56	52.56
233.777	9.56
233.995	87.38
234.213	109.91
234.43	34.13
234.648	9.56
234.865	-0.68
235.083	124.24
235.3	5.46
235.518	34.13
235.735	83.28
235.953	15.7
236.17	-19.11
236.388	21.85
236.605	101.72
236.822	48.47
237.04	52.56
237.257	34.13
237.475	19.8
237.692	-8.87
237.909	77.14
238.127	44.37
238.344	97.62
238.562	58.71
238.779	19.8
238.996	7.51
239.214	38.23
239.431	17.75
239.648	5.46
239.865	77.14
240.083	27.99
240.3	34.13
240.517	60.76
240.735	23.89
240.952	101.72
241.169	99.67
241.386	25.94
241.603	17.75
241.821	58.71
242.038	68.95
242.255	130.39
242.472	17.75
242.689	118.1
242.907	87.38
243.124	64.85
243.341	87.38
243.558	27.99
243.775	-21.16
243.992	1.37
244.209	118.1
244.426	95.57
244.643	111.96
244.86	44.37
245.078	1.37
245.295	36.18
245.512	62.8
245.729	32.08
245.946	68.95
246.163	97.62
246.38	109.91
246.597	30.04
246.814	64.85
247.031	-2.73
247.248	62.8
247.464	89.43
247.681	124.24
247.898	93.52
248.115	116.05
248.332	27.99
248.549	9.56
248.766	71
248.983	128.34
249.2	116.05
249.417	62.8
249.633	-17.07
249.85	38.23
250.067	34.13
250.284	93.52
250.501	111.96
250.717	81.24
250.934	85.33
251.151	44.37
251.368	71
251.585	-43.69
251.801	60.76
252.018	-2.73
252.235	15.7
252.451	34.13
252.668	7.51
252.885	73.04
253.102	71
253.318	17.75
253.535	7.51
253.752	-17.07
253.968	50.52
254.185	27.99
254.401	23.89
254.618	30.04
254.835	66.9
255.051	105.81
255.268	64.85
255.484	56.66
255.701	-27.31
255.917	23.89
256.134	-17.07
256.351	103.76
256.567	13.65
256.784	79.19
257	19.8
257.217	54.61
257.433	17.75
257.65	46.42
257.866	64.85
258.082	11.61
258.299	64.85
258.515	48.47
258.732	15.7
258.948	9.56
259.165	36.18
259.381	13.65
259.597	95.57
259.814	38.23
260.03	105.81
260.246	23.89
260.463	48.47
260.679	48.47
260.895	73.04
261.112	87.38
261.328	142.68
261.544	-8.87
261.761	136.53
261.977	54.61
262.193	105.81
262.409	68.95
262.626	89.43
262.842	138.58
263.058	30.04
263.274	64.85
263.49	105.81
263.707	56.66
263.923	13.65
264.139	46.42
264.355	46.42
264.571	48.47
264.787	101.72
265.004	27.99
265.22	99.67
265.436	56.66
265.652	32.08
265.868	46.42
266.084	68.95
266.3	42.32
266.516	87.38
266.732	89.43
266.948	-6.83
267.164	27.99
267.38	30.04
267.596	56.66
267.812	48.47
268.028	7.51
268.244	52.56
268.46	136.53
268.676	44.37
268.892	13.65
269.108	32.08
269.324	48.47
269.54	48.47
269.756	42.32
269.972	-23.21
270.188	42.32
270.403	-10.92
270.619	60.76
270.835	17.75
271.051	42.32
271.267	-17.07
271.483	38.23
271.698	25.94
271.914	30.04
272.13	54.61
272.346	79.19
272.562	52.56
272.777	44.37
272.993	40.28
273.209	21.85
273.425	79.19
273.64	52.56
273.856	93.52
274.072	66.9
274.287	-12.97
274.503	93.52
274.719	118.1
274.934	25.94
275.15	17.75
275.366	83.28
275.581	46.42
275.797	44.37
276.012	36.18
276.228	-29.35
276.444	101.72
276.659	126.29
276.875	91.48
277.09	91.48
277.306	-8.87
277.521	42.32
277.737	3.41
277.952	105.81
278.168	73.04
278.383	60.76
278.599	38.23
278.814	81.24
279.03	27.99
279.245	124.24
279.461	62.8
279.676	58.71
279.892	9.56
280.107	40.28
280.322	52.56
280.538	103.76
280.753	44.37
280.969	50.52
281.184	25.94
281.399	101.72
281.615	15.7
281.83	40.28
282.045	23.89
282.26	60.76
282.476	44.37
282.691	11.61
282.906	64.85
283.122	109.91
283.337	77.14
283.552	46.42
283.767	46.42
283.983	99.67
284.198	-12.97
284.413	11.61
284.628	68.95
284.843	50.52
285.058	66.9
285.274	73.04
285.489	19.8
285.704	-2.73
285.919	-2.73
286.134	66.9
286.349	64.85
286.564	91.48
286.779	95.57
286.995	103.76
287.21	38.23
287.425	-15.02
287.64	21.85
287.855	77.14
288.07	19.8
288.285	23.89
288.5	114
288.715	77.14
288.93	44.37
289.145	7.51
289.36	66.9
289.575	128.34
289.79	44.37
290.004	25.94
290.219	-8.87
290.434	44.37
290.649	58.71
290.864	89.43
291.079	-27.31
291.294	-6.83
291.509	5.46
291.724	-23.21
291.938	21.85
292.153	75.09
292.368	97.62
292.583	77.14
292.798	79.19
293.012	85.33
293.227	27.99
293.442	-41.64
293.657	124.24
293.871	83.28
294.086	91.48
294.301	44.37
294.516	93.52
294.73	77.14
294.945	15.7
295.16	38.23
295.374	140.63
295.589	124.24
295.804	38.23
296.018	118.1
296.233	68.95
296.447	73.04
296.662	40.28
296.877	23.89
297.091	60.76
297.306	46.42
297.52	103.76
297.735	105.81
297.949	97.62
298.164	132.44
298.378	-0.68
298.593	30.04
298.807	71
299.022	30.04
299.236	77.14
299.451	17.75
299.665	19.8
299.88	140.63
300.094	62.8
300.309	11.61
300.523	71
300.737	81.24
300.952	36.18
301.166	44.37
301.381	21.85
301.595	42.32
301.809	42.32
302.024	87.38
302.238	-0.68
302.452	56.66
302.667	48.47
302.881	93.52
303.095	44.37
303.309	21.85
303.524	3.41
303.738	27.99
303.952	-37.55
304.166	7.51
304.381	64.85
304.595	3.41
304.809	19.8
305.023	91.48
305.237	75.09
305.452	103.76
305.666	13.65
305.88	62.8
306.094	38.23
306.308	114
306.522	126.29
306.736	107.86
306.95	56.66
307.164	1.37
307.379	77.14
307.593	77.14
307.807	62.8
308.021	7.51
308.235	46.42
308.449	75.09
308.663	32.08
308.877	91.48
309.091	40.28
309.305	13.65
309.519	7.51
309.733	99.67
309.947	105.81
310.161	128.34
310.374	-25.26
310.588	56.66
310.802	11.61
311.016	11.61
311.23	30.04
311.444	75.09
311.658	56.66
311.872	64.85
312.085	36.18
312.299	68.95
312.513	66.9
312.727	130.39
312.941	21.85
313.154	52.56
313.368	46.42
313.582	27.99
313.796	15.7
314.009	109.91
314.223	48.47
314.437	101.72
314.651	23.89
314.864	48.47
315.078	77.14
315.292	9.56
315.505	58.71
315.719	71
315.933	60.76
316.146	60.76
316.36	56.66
316.573	34.13
316.787	81.24
317.001	118.1
317.214	3.41
317.428	60.76
317.641	23.89
317.855	85.33
318.068	25.94
318.282	91.48
318.495	81.24
318.709	126.29
318.922	77.14
319.136	95.57
319.349	1.37
319.563	54.61
319.776	111.96
319.99	34.13
320.203	46.42
320.417	54.61
320.63	107.86
320.843	99.67
321.057	73.04
321.27	132.44
321.483	23.89
321.697	124.24
321.91	46.42
322.124	93.52
322.337	81.24
322.55	36.18
322.763	30.04
322.977	136.53
323.19	48.47
323.403	103.76
323.617	87.38
323.83	89.43
324.043	71
324.256	50.52
324.469	91.48
324.683	118.1
324.896	83.28
325.109	95.57
325.322	40.28
325.535	152.92
325.748	75.09
325.962	38.23
326.175	93.52
326.388	128.34
326.601	81.24
326.814	64.85
327.027	68.95
327.24	77.14
327.453	17.75
327.666	79.19
327.879	79.19
328.092	114
328.305	50.52
328.518	85.33
328.731	71
328.944	116.05
329.157	71
329.37	42.32
329.583	79.19
329.796	118.1
330.009	3.41
330.222	83.28
330.435	85.33
330.648	64.85
330.861	114
331.073	85.33
331.286	50.52
331.499	21.85
331.712	60.76
331.925	68.95
332.138	1.37
332.35	42.32
332.563	66.9
332.776	83.28
332.989	15.7
333.202	7.51
333.414	146.77
333.627	68.95
333.84	111.96
334.053	79.19
334.265	111.96
334.478	-27.31
334.691	87.38
334.903	103.76
335.116	-10.92
335.329	89.43
335.541	7.51
335.754	85.33
335.966	11.61
336.179	9.56
336.392	91.48
336.604	81.24
336.817	81.24
337.029	126.29
337.242	130.39
337.454	107.86
337.667	111.96
337.88	83.28
338.092	87.38
338.305	66.9
338.517	38.23
338.729	40.28
338.942	144.72
339.154	30.04
339.367	81.24
339.579	60.76
339.792	19.8
340.004	56.66
340.217	15.7
340.429	66.9
340.641	124.24
340.854	91.48
341.066	15.7
341.278	87.38
341.491	163.15
341.703	68.95
341.915	58.71
342.128	114
342.34	44.37
342.552	93.52
342.764	62.8
342.977	36.18
343.189	46.42
343.401	56.66
343.613	54.61
343.826	42.32
344.038	5.46
344.25	109.91
344.462	15.7
344.674	68.95
344.886	124.24
345.099	109.91
345.311	79.19
345.523	52.56
345.735	109.91
345.947	62.8
346.159	34.13
346.371	120.15
346.583	52.56
346.795	60.76
347.007	79.19
347.219	103.76
347.431	64.85
347.643	107.86
347.855	9.56
348.067	132.44
348.279	-15.02
348.491	52.56
348.703	136.53
348.915	56.66
349.127	-17.07
349.339	66.9
349.551	52.56
349.763	52.56
349.975	-35.5
350.187	64.85
350.399	99.67
350.61	71
350.822	25.94
351.034	118.1
351.246	64.85
351.458	62.8
351.669	75.09
351.881	83.28
352.093	83.28
352.305	48.47
352.517	114
352.728	122.2
352.94	32.08
353.152	60.76
353.363	75.09
353.575	42.32
353.787	38.23
353.999	99.67
354.21	50.52
354.422	66.9
354.633	95.57
354.845	1.37
355.057	11.61
355.268	99.67
355.48	77.14
355.692	64.85
355.903	93.52
356.115	36.18
356.326	15.7
356.538	130.39
356.749	-0.68
356.961	87.38
357.172	54.61
357.384	50.52
357.595	85.33
357.807	44.37
358.018	66.9
358.23	97.62
358.441	130.39
358.653	118.1
358.864	81.24
359.075	36.18
359.287	50.52
359.498	75.09
359.709	25.94
359.921	58.71
360.132	40.28
360.344	15.7
360.555	38.23
360.766	87.38
360.977	32.08
361.189	64.85
361.4	25.94
361.611	68.95
361.823	3.41
362.034	3.41
362.245	62.8
362.456	42.32
362.667	93.52
362.879	54.61
363.09	68.95
363.301	132.44
363.512	23.89
363.723	17.75
363.935	91.48
364.146	64.85
364.357	83.28
364.568	56.66
364.779	64.85
364.99	27.99
365.201	83.28
365.412	50.52
365.623	81.24
365.834	73.04
366.045	66.9
366.256	77.14
366.467	27.99
366.678	66.9
366.889	93.52
367.1	71
367.311	40.28
367.522	111.96
367.733	64.85
367.944	58.71
368.155	34.13
368.366	66.9
368.577	120.15
368.788	27.99
368.999	52.56
369.209	71
369.42	91.48
369.631	146.77
369.842	3.41
370.053	83.28
370.264	64.85
370.474	105.81
370.685	77.14
370.896	36.18
371.107	50.52
371.317	40.28
371.528	19.8
371.739	71
371.95	116.05
372.16	116.05
372.371	91.48
372.582	85.33
372.792	66.9
373.003	128.34
373.214	36.18
373.424	68.95
373.635	27.99
373.846	132.44
374.056	87.38
374.267	118.1
374.477	68.95
374.688	79.19
374.898	85.33
375.109	83.28
375.319	38.23
375.53	1.37
375.74	105.81
375.951	21.85
376.161	83.28
376.372	1.37
376.582	83.28
376.793	40.28
377.003	42.32
377.214	60.76
377.424	81.24
377.635	15.7
377.845	56.66
378.055	132.44
378.266	77.14
378.476	85.33
378.686	93.52
378.897	38.23
379.107	93.52
379.317	34.13
379.528	42.32
379.738	58.71
379.948	42.32
380.158	103.76
380.369	30.04
380.579	79.19
380.789	71
380.999	105.81
381.21	120.15
381.42	150.87
381.63	89.43
381.84	95.57
382.05	77.14
382.261	120.15
382.471	116.05
382.681	54.61
382.891	83.28
383.101	146.77
383.311	91.48
383.521	89.43
383.731	93.52
383.941	68.95
384.151	126.29
384.361	66.9
384.571	114
384.781	60.76
384.991	77.14
385.201	99.67
385.411	126.29
385.621	50.52
385.831	68.95
386.041	87.38
386.251	128.34
386.461	97.62
386.671	42.32
386.881	163.15
387.091	107.86
387.301	136.53
387.511	81.24
387.72	163.15
387.93	109.91
388.14	42.32
388.35	50.52
388.56	128.34
388.769	93.52
388.979	60.76
389.189	95.57
389.399	40.28
389.609	134.48
389.818	93.52
390.028	107.86
390.238	71
390.447	159.06
390.657	148.82
390.867	126.29
391.076	111.96
391.286	71
391.496	93.52
391.705	50.52
391.915	101.72
392.125	73.04
392.334	134.48
392.544	118.1
392.753	144.72
392.963	107.86
393.172	81.24
393.382	138.58
393.591	134.48
393.801	118.1
394.01	193.87
394.22	79.19
394.429	30.04
394.639	97.62
394.848	103.76
395.058	146.77
395.267	13.65
395.477	130.39
395.686	93.52
395.895	122.2
396.105	216.4
396.314	103.76
396.524	159.06
396.733	30.04
396.942	163.15
397.152	85.33
397.361	150.87
397.57	128.34
397.78	116.05
397.989	122.2
398.198	187.73
398.407	120.15
398.617	114
398.826	114
399.035	152.92
399.244	120.15
399.453	116.05
399.663	124.24
399.872	224.59
400.081	101.72
400.29	130.39
400.499	87.38
400.708	175.44
400.917	167.25
401.127	116.05
401.336	148.82
401.545	179.54
401.754	161.11
401.963	167.25
402.172	175.44
402.381	210.26
402.59	261.46
402.799	179.54
403.008	202.07
403.217	224.59
403.426	191.83
403.635	142.68
403.844	183.63
404.053	214.35
404.262	197.97
404.471	185.68
404.68	228.69
404.888	234.83
405.097	136.53
405.306	181.59
405.515	183.63
405.724	216.4
405.933	263.51
406.142	275.79
406.35	216.4
406.559	202.07
406.768	279.89
406.977	283.99
407.185	349.52
407.394	253.27
407.603	261.46
407.812	300.37
408.02	294.22
408.229	261.46
408.438	312.66
408.646	306.51
408.855	302.42
409.064	302.42
409.272	345.42
409.481	408.91
409.69	355.66
409.898	357.71
410.107	374.1
410.315	449.87
410.524	398.67
410.733	476.49
410.941	492.88
411.15	509.26
411.358	431.44
411.567	546.12
411.775	503.12
411.984	617.8
412.192	701.77
412.401	527.69
412.609	605.52
412.818	712.01
413.026	673.1
413.234	695.63
413.443	650.57
413.651	748.87
413.86	789.83
414.068	795.98
414.276	816.46
414.485	832.84
414.693	937.29
414.901	886.09
415.11	1027.4
415.318	916.81
415.526	922.95
415.734	984.39
415.943	1039.69
416.151	1199.43
416.359	1123.65
416.567	1131.84
416.776	1176.9
416.984	1258.82
417.192	1240.39
417.4	1287.49
417.608	1299.78
417.817	1404.22
418.025	1436.99
418.233	1461.57
418.441	1463.62
418.649	1482.05
418.857	1572.16
419.065	1686.84
419.273	1699.13
419.481	1768.76
419.689	1914.17
419.897	1889.59
420.105	2143.54
420.313	2024.76
420.521	2047.29
420.729	2071.86
420.937	2366.77
421.145	2243.89
421.353	2422.06
421.561	2549.04
421.769	2585.9
421.977	2559.28
422.185	2774.32
422.393	2825.51
422.601	3026.22
422.809	2968.87
423.017	3087.65
423.224	3118.37
423.432	3304.74
423.64	3314.98
423.848	3616.03
424.056	3487.01
424.263	3822.88
424.471	3743
424.679	3886.36
424.887	4042.01
425.094	3980.57
425.302	4330.77
425.51	4238.61
425.718	4332.82
425.925	4408.59
426.133	4637.97
426.341	4914.44
426.548	5209.35
426.756	5022.98
426.964	5057.8
427.171	5383.43
427.379	5678.33
427.586	5823.74
427.794	5860.6
428.001	6106.36
428.209	6333.68
428.417	6202.61
428.624	6792.43
428.832	6880.49
429.039	6841.58
429.247	6755.57
429.454	7335.14
429.662	7724.26
429.869	7156.97
430.076	7851.23
430.284	7761.12
430.491	8017.12
430.699	8457.43
430.906	8494.29
431.114	8541.39
431.321	8983.76
431.528	9100.49
431.736	9653.44
431.943	9929.92
432.15	9641.15
432.358	9919.68
432.565	10353.85
432.772	10308.79
432.979	10855.6
433.187	11197.61
433.394	11003.05
433.601	12135.58
433.808	11738.27
434.016	11789.47
434.223	12354.71
434.43	12979.34
434.637	12940.43
434.844	13728.9
435.052	13950.08
435.259	13792.39
435.466	13769.86
435.673	13763.72
435.88	14740.6
436.087	15535.21
436.294	15424.62
436.501	14933.11
436.708	15365.23
436.915	16163.93
437.122	16870.48
437.329	16362.59
437.537	16903.25
437.743	17630.28
437.95	17296.46
438.157	18332.73
438.364	19072.05
438.571	18895.92
438.778	19053.62
438.985	20696.09
439.192	19842.09
439.399	20497.44
439.606	19981.35
439.813	21349.39
440.02	22363.14
440.227	21820.42
440.433	21900.3
440.64	22672.38
440.847	22461.44
441.054	22877.18
441.261	24323.04
441.467	24288.23
441.674	24560.61
441.881	25672.65
442.088	25158.61
442.294	25301.97
442.501	25695.18
442.708	26739.65
442.914	27720.62
443.121	28548
443.328	28091.3
443.534	30028.68
443.741	29211.54
443.948	28724.13
444.154	30813.06
444.361	30688.13
444.568	30714.75
444.774	30614.4
444.981	31267.7
445.187	32017.26
445.394	33545.05
445.6	33117.02
445.807	36000.56
446.013	34386.76
446.22	35515.19
446.426	36733.73
446.633	36836.13
446.839	38052.62
447.046	36598.57
447.252	38847.24
447.459	38904.58
447.665	38449.93
447.871	40334.06
448.078	41761.5
448.284	39461.63
448.491	41095.91
448.697	42349.26
448.903	43422.4
449.11	43426.49
449.316	42365.65
449.522	43805.37
449.728	44763.82
449.935	45257.38
450.141	45077.16
450.347	45931.16
450.553	44530.35
450.76	45122.21
450.966	46842.51
451.172	45773.47
451.378	47276.68
451.584	46592.65
451.791	47559.3
451.997	47231.62
452.203	48228.98
452.409	48001.66
452.615	47753.85
452.821	46527.12
453.027	45791.9
453.233	48548.46
453.44	45916.82
453.646	46838.41
453.852	47272.58
454.058	47657.6
454.264	46228.12
454.47	46992.01
454.676	46117.53
454.882	47528.58
455.088	43745.98
455.294	44589.74
455.5	45337.25
455.705	45316.77
455.911	43690.68
456.117	42832.58
456.323	42521.29
456.529	40381.17
456.735	41958.1
456.941	40786.66
457.147	40098.55
457.352	39236.35
457.558	38847.24
457.764	38660.87
457.97	37999.38
458.176	37108.51
458.381	37325.6
458.587	35201.85
458.793	35263.29
458.999	33594.2
459.204	35849.01
459.41	35031.87
459.616	32832.35
459.821	32656.23
460.027	32320.36
460.233	31961.97
460.438	30317.45
460.644	30724.99
460.85	29326.23
461.055	28951.45
461.261	28867.48
461.466	26512.32
461.672	25938.89
461.878	27648.94
462.083	26024.9
462.289	25351.12
462.494	25027.54
462.7	23925.74
462.905	23487.47
463.111	24173.54
463.316	23940.07
463.522	23665.64
463.727	23727.08
463.932	23878.63
464.138	23280.63
464.343	23624.68
464.549	22651.9
464.754	23360.5
464.959	23450.61
465.165	23616.49
465.37	22174.72
465.575	21797.9
465.781	22406.14
465.986	22469.63
466.191	22127.62
466.397	21515.28
466.602	20155.43
466.807	21191.7
467.012	21238.8
467.218	21240.85
467.423	20784.15
467.628	21007.38
