Data from USB4F104151__38__12-35-46-460.txt Node

Date: Fri Mar 14 12:35:46 EDT 2025
User: louis
Spectrometer: USB4F10415
Trigger mode: 4
Integration Time (sec): 2.000000E-2
Scans to average: 1
Electric dark correction enabled: true
Nonlinearity correction enabled: false
Boxcar width: 0
XAxis mode: Wavelengths
Number of Pixels in Spectrum: 3648
>>>>>Begin Spectral Data<<<<<
178.204	-86.01
178.424	-86.01
178.644	-86.01
178.864	-38.91
179.084	-28.67
179.304	-47.1
179.524	-57.34
179.744	-12.29
179.964	10.24
180.184	51.2
180.404	32.77
180.624	-8.19
180.844	57.34
181.064	-40.96
181.283	8.19
181.503	-22.53
181.723	28.67
181.943	-59.39
182.163	-24.58
182.383	-10.24
182.602	53.25
182.822	55.3
183.042	102.4
183.262	-30.72
183.482	26.62
183.701	34.82
183.921	-8.19
184.141	47.1
184.361	24.58
184.58	-8.19
184.8	-40.96
185.02	6.14
185.239	26.62
185.459	55.3
185.679	18.43
185.898	-45.06
186.118	51.2
186.338	-12.29
186.557	34.82
186.777	6.14
186.997	51.2
187.216	20.48
187.436	63.49
187.655	16.38
187.875	-18.43
188.095	59.39
188.314	-16.38
188.534	65.54
188.753	-57.34
188.973	51.2
189.192	22.53
189.412	2.05
189.631	-36.86
189.851	-6.14
190.07	67.58
190.29	-73.73
190.509	94.21
190.729	-63.49
190.948	77.82
191.168	67.58
191.387	86.01
191.607	-12.29
191.826	-28.67
192.045	-22.53
192.265	14.34
192.484	20.48
192.704	-8.19
192.923	18.43
193.142	20.48
193.362	34.82
193.581	-8.19
193.8	0
194.02	18.43
194.239	24.58
194.458	6.14
194.678	-8.19
194.897	102.4
195.116	20.48
195.335	2.05
195.555	12.29
195.774	-34.82
195.993	14.34
196.212	-2.05
196.432	6.14
196.651	30.72
196.87	12.29
197.089	59.39
197.308	51.2
197.528	20.48
197.747	-45.06
197.966	90.11
198.185	-20.48
198.404	-6.14
198.623	53.25
198.842	47.1
199.062	61.44
199.281	73.73
199.5	24.58
199.719	45.06
199.938	32.77
200.157	30.72
200.376	6.14
200.595	47.1
200.814	65.54
201.033	-4.1
201.252	24.58
201.471	24.58
201.69	0
201.909	0
202.128	67.58
202.347	-49.15
202.566	6.14
202.785	-4.1
203.004	-22.53
203.223	-18.43
203.442	-4.1
203.661	2.05
203.879	14.34
204.098	16.38
204.317	24.58
204.536	51.2
204.755	-14.34
204.974	16.38
205.193	55.3
205.411	79.87
205.63	-2.05
205.849	34.82
206.068	-28.67
206.287	16.38
206.505	51.2
206.724	-24.58
206.943	-4.1
207.162	-36.86
207.381	16.38
207.599	51.2
207.818	20.48
208.037	10.24
208.255	79.87
208.474	43.01
208.693	20.48
208.911	-6.14
209.13	73.73
209.349	57.34
209.567	43.01
209.786	143.36
210.005	43.01
210.223	0
210.442	24.58
210.661	-16.38
210.879	12.29
211.098	2.05
211.316	-100.35
211.535	-6.14
211.753	55.3
211.972	-75.77
212.191	-28.67
212.409	10.24
212.628	57.34
212.846	26.62
213.065	6.14
213.283	6.14
213.502	40.96
213.72	-20.48
213.938	-71.68
214.157	57.34
214.375	24.58
214.594	-8.19
214.812	22.53
215.031	63.49
215.249	18.43
215.467	53.25
215.686	-22.53
215.904	63.49
216.122	12.29
216.341	16.38
216.559	59.39
216.778	4.1
216.996	28.67
217.214	38.91
217.432	36.86
217.651	61.44
217.869	40.96
218.087	2.05
218.306	0
218.524	-45.06
218.742	-12.29
218.96	-38.91
219.179	-38.91
219.397	55.3
219.615	45.06
219.833	77.82
220.051	-30.72
220.27	26.62
220.488	40.96
220.706	-6.14
220.924	12.29
221.142	6.14
221.36	-4.1
221.578	92.16
221.796	14.34
222.015	32.77
222.233	-24.58
222.451	114.69
222.669	36.86
222.887	38.91
223.105	12.29
223.323	36.86
223.541	-71.68
223.759	38.91
223.977	22.53
224.195	114.69
224.413	-16.38
224.631	-8.19
224.849	18.43
225.067	73.73
225.285	-34.82
225.503	-12.29
225.721	20.48
225.939	28.67
226.157	30.72
226.375	30.72
226.592	16.38
226.81	45.06
227.028	-2.05
227.246	38.91
227.464	0
227.682	81.92
227.9	124.93
228.117	-4.1
228.335	67.58
228.553	-36.86
228.771	-6.14
228.989	22.53
229.206	-61.44
229.424	71.68
229.642	-83.97
229.86	-10.24
230.077	28.67
230.295	-24.58
230.513	67.58
230.731	10.24
230.948	71.68
231.166	55.3
231.384	8.19
231.601	-2.05
231.819	12.29
232.037	-24.58
232.254	-8.19
232.472	49.15
232.689	-16.38
232.907	14.34
233.125	6.14
233.342	18.43
233.56	-10.24
233.777	-6.14
233.995	43.01
234.213	22.53
234.43	55.3
234.648	-2.05
234.865	34.82
235.083	45.06
235.3	-28.67
235.518	118.78
235.735	-38.91
235.953	34.82
236.17	-43.01
236.388	22.53
236.605	-12.29
236.822	65.54
237.04	-26.62
237.257	0
237.475	-18.43
237.692	92.16
237.909	-40.96
238.127	30.72
238.344	4.1
238.562	-49.15
238.779	-104.45
238.996	8.19
239.214	14.34
239.431	40.96
239.648	0
239.865	16.38
240.083	26.62
240.3	2.05
240.517	12.29
240.735	10.24
240.952	-16.38
241.169	55.3
241.386	-8.19
241.603	-83.97
241.821	43.01
242.038	126.97
242.255	43.01
242.472	-8.19
242.689	-6.14
242.907	43.01
243.124	6.14
243.341	-4.1
243.558	12.29
243.775	-108.54
243.992	-8.19
244.209	-18.43
244.426	81.92
244.643	2.05
244.86	8.19
245.078	79.87
245.295	20.48
245.512	71.68
245.729	55.3
245.946	61.44
246.163	12.29
246.38	12.29
246.597	2.05
246.814	-6.14
247.031	8.19
247.248	30.72
247.464	-26.62
247.681	32.77
247.898	18.43
248.115	45.06
248.332	-20.48
248.549	-12.29
248.766	49.15
248.983	61.44
249.2	-4.1
249.417	-32.77
249.633	8.19
249.85	38.91
250.067	-71.68
250.284	34.82
250.501	24.58
250.717	61.44
250.934	73.73
251.151	2.05
251.368	-12.29
251.585	28.67
251.801	53.25
252.018	-40.96
252.235	49.15
252.451	57.34
252.668	2.05
252.885	30.72
253.102	32.77
253.318	6.14
253.535	0
253.752	36.86
253.968	-4.1
254.185	30.72
254.401	34.82
254.618	14.34
254.835	20.48
255.051	43.01
255.268	45.06
255.484	-16.38
255.701	26.62
255.917	20.48
256.134	-4.1
256.351	20.48
256.567	2.05
256.784	-36.86
257	-12.29
257.217	30.72
257.433	-34.82
257.65	51.2
257.866	86.01
258.082	67.58
258.299	-32.77
258.515	-6.14
258.732	-8.19
258.948	69.63
259.165	47.1
259.381	-20.48
259.597	98.3
259.814	77.82
260.03	-2.05
260.246	8.19
260.463	6.14
260.679	34.82
260.895	-6.14
261.112	-18.43
261.328	18.43
261.544	-10.24
261.761	73.73
261.977	16.38
262.193	20.48
262.409	124.93
262.626	59.39
262.842	2.05
263.058	8.19
263.274	43.01
263.49	-12.29
263.707	53.25
263.923	34.82
264.139	-16.38
264.355	83.97
264.571	71.68
264.787	-53.25
265.004	18.43
265.22	16.38
265.436	51.2
265.652	2.05
265.868	67.58
266.084	-45.06
266.3	-49.15
266.516	18.43
266.732	79.87
266.948	-24.58
267.164	-4.1
267.38	32.77
267.596	81.92
267.812	12.29
268.028	34.82
268.244	-53.25
268.46	53.25
268.676	2.05
268.892	-49.15
269.108	43.01
269.324	18.43
269.54	-26.62
269.756	120.83
269.972	-4.1
270.188	86.01
270.403	34.82
270.619	34.82
270.835	4.1
271.051	57.34
271.267	-2.05
271.483	16.38
271.698	55.3
271.914	30.72
272.13	-34.82
272.346	22.53
272.562	61.44
272.777	59.39
272.993	20.48
273.209	-32.77
273.425	10.24
273.64	0
273.856	65.54
274.072	6.14
274.287	57.34
274.503	-18.43
274.719	-6.14
274.934	6.14
275.15	88.06
275.366	22.53
275.581	-14.34
275.797	24.58
276.012	28.67
276.228	14.34
276.444	104.45
276.659	-18.43
276.875	-38.91
277.09	12.29
277.306	65.54
277.521	28.67
277.737	14.34
277.952	53.25
278.168	-14.34
278.383	-20.48
278.599	0
278.814	34.82
279.03	38.91
279.245	45.06
279.461	47.1
279.676	79.87
279.892	-34.82
280.107	40.96
280.322	34.82
280.538	12.29
280.753	-6.14
280.969	16.38
281.184	30.72
281.399	22.53
281.615	43.01
281.83	-14.34
282.045	-8.19
282.26	63.49
282.476	6.14
282.691	36.86
282.906	24.58
283.122	49.15
283.337	30.72
283.552	-6.14
283.767	30.72
283.983	69.63
284.198	-14.34
284.413	61.44
284.628	32.77
284.843	67.58
285.058	-2.05
285.274	126.97
285.489	-34.82
285.704	75.77
285.919	-12.29
286.134	12.29
286.349	22.53
286.564	34.82
286.779	65.54
286.995	-16.38
287.21	-22.53
287.425	81.92
287.64	-30.72
287.855	86.01
288.07	-65.53
288.285	-2.05
288.5	-8.19
288.715	-38.91
288.93	55.3
289.145	67.58
289.36	59.39
289.575	34.82
289.79	71.68
290.004	55.3
290.219	14.34
290.434	-12.29
290.649	34.82
290.864	-12.29
291.079	-20.48
291.294	18.43
291.509	6.14
291.724	51.2
291.938	67.58
292.153	110.59
292.368	57.34
292.583	-69.63
292.798	69.63
293.012	10.24
293.227	22.53
293.442	16.38
293.657	36.86
293.871	75.77
294.086	36.86
294.301	-16.38
294.516	55.3
294.73	12.29
294.945	-22.53
295.16	-30.72
295.374	12.29
295.589	49.15
295.804	-71.68
296.018	-38.91
296.233	16.38
296.447	20.48
296.662	-8.19
296.877	55.3
297.091	51.2
297.306	40.96
297.52	28.67
297.735	4.1
297.949	67.58
298.164	65.54
298.378	-65.53
298.593	-4.1
298.807	79.87
299.022	-12.29
299.236	-28.67
299.451	32.77
299.665	-45.06
299.88	-12.29
300.094	20.48
300.309	-18.43
300.523	71.68
300.737	65.54
300.952	4.1
301.166	16.38
301.381	-32.77
301.595	40.96
301.809	2.05
302.024	10.24
302.238	-28.67
302.452	57.34
302.667	14.34
302.881	51.2
303.095	-16.38
303.309	16.38
303.524	24.58
303.738	12.29
303.952	-30.72
304.166	45.06
304.381	36.86
304.595	36.86
304.809	-18.43
305.023	8.19
305.237	-20.48
305.452	-2.05
305.666	51.2
305.88	16.38
306.094	0
306.308	-16.38
306.522	71.68
306.736	112.64
306.95	-30.72
307.164	47.1
307.379	40.96
307.593	16.38
307.807	26.62
308.021	-40.96
308.235	0
308.449	43.01
308.663	-30.72
308.877	137.21
309.091	92.16
309.305	28.67
309.519	-6.14
309.733	65.54
309.947	-53.25
310.161	59.39
310.374	-2.05
310.588	131.07
310.802	6.14
311.016	51.2
311.23	53.25
311.444	16.38
311.658	-2.05
311.872	75.77
312.085	30.72
312.299	30.72
312.513	26.62
312.727	45.06
312.941	10.24
313.154	36.86
313.368	67.58
313.582	104.45
313.796	53.25
314.009	-2.05
314.223	40.96
314.437	12.29
314.651	45.06
314.864	-57.34
315.078	57.34
315.292	10.24
315.505	-16.38
315.719	16.38
315.933	-8.19
316.146	-55.3
316.36	4.1
316.573	20.48
316.787	16.38
317.001	8.19
317.214	26.62
317.428	77.82
317.641	61.44
317.855	10.24
318.068	-26.62
318.282	32.77
318.495	34.82
318.709	26.62
318.922	81.92
319.136	30.72
319.349	22.53
319.563	24.58
319.776	28.67
319.99	40.96
320.203	-6.14
320.417	12.29
320.63	51.2
320.843	18.43
321.057	20.48
321.27	57.34
321.483	-38.91
321.697	43.01
321.91	61.44
322.124	55.3
322.337	47.1
322.55	24.58
322.763	67.58
322.977	24.58
323.19	2.05
323.403	57.34
323.617	49.15
323.83	81.92
324.043	-26.62
324.256	36.86
324.469	-24.58
324.683	38.91
324.896	26.62
325.109	-8.19
325.322	24.58
325.535	92.16
325.748	30.72
325.962	0
326.175	51.2
326.388	6.14
326.601	51.2
326.814	-30.72
327.027	-8.19
327.24	-18.43
327.453	-43.01
327.666	34.82
327.879	100.35
328.092	-16.38
328.305	-20.48
328.518	36.86
328.731	32.77
328.944	28.67
329.157	-30.72
329.37	12.29
329.583	51.2
329.796	38.91
330.009	14.34
330.222	79.87
330.435	40.96
330.648	49.15
330.861	18.43
331.073	47.1
331.286	-24.58
331.499	120.83
331.712	28.67
331.925	47.1
332.138	6.14
332.35	153.6
332.563	8.19
332.776	-10.24
332.989	-20.48
333.202	-34.82
333.414	-40.96
333.627	24.58
333.84	-40.96
334.053	-24.58
334.265	16.38
334.478	16.38
334.691	18.43
334.903	22.53
335.116	-10.24
335.329	61.44
335.541	30.72
335.754	38.91
335.966	22.53
336.179	47.1
336.392	18.43
336.604	-16.38
336.817	67.58
337.029	102.4
337.242	73.73
337.454	12.29
337.667	12.29
337.88	16.38
338.092	6.14
338.305	24.58
338.517	51.2
338.729	-40.96
338.942	90.11
339.154	-43.01
339.367	14.34
339.579	43.01
339.792	-6.14
340.004	51.2
340.217	38.91
340.429	100.35
340.641	63.49
340.854	24.58
341.066	-8.19
341.278	114.69
341.491	77.82
341.703	53.25
341.915	-43.01
342.128	40.96
342.34	26.62
342.552	38.91
342.764	26.62
342.977	30.72
343.189	32.77
343.401	59.39
343.613	-69.63
343.826	-22.53
344.038	28.67
344.25	59.39
344.462	77.82
344.674	36.86
344.886	36.86
345.099	45.06
345.311	14.34
345.523	30.72
345.735	-18.43
345.947	47.1
346.159	-22.53
346.371	47.1
346.583	0
346.795	57.34
347.007	6.14
347.219	36.86
347.431	10.24
347.643	14.34
347.855	-20.48
348.067	32.77
348.279	30.72
348.491	30.72
348.703	40.96
348.915	30.72
349.127	-32.77
349.339	36.86
349.551	34.82
349.763	6.14
349.975	65.54
350.187	49.15
350.399	-30.72
350.61	75.77
350.822	59.39
351.034	2.05
351.246	22.53
351.458	14.34
351.669	71.68
351.881	61.44
352.093	8.19
352.305	38.91
352.517	55.3
352.728	75.77
352.94	59.39
353.152	96.25
353.363	81.92
353.575	30.72
353.787	40.96
353.999	36.86
354.21	81.92
354.422	22.53
354.633	10.24
354.845	30.72
355.057	45.06
355.268	40.96
355.48	2.05
355.692	38.91
355.903	-30.72
356.115	57.34
356.326	2.05
356.538	40.96
356.749	40.96
356.961	2.05
357.172	-4.1
357.384	6.14
357.595	28.67
357.807	-4.1
358.018	-12.29
358.23	32.77
358.441	28.67
358.653	18.43
358.864	24.58
359.075	-12.29
359.287	67.58
359.498	-8.19
359.709	79.87
359.921	12.29
360.132	57.34
360.344	57.34
360.555	30.72
360.766	36.86
360.977	20.48
361.189	55.3
361.4	24.58
361.611	102.4
361.823	96.25
362.034	73.73
362.245	30.72
362.456	53.25
362.667	34.82
362.879	77.82
363.09	36.86
363.301	-18.43
363.512	120.83
363.723	59.39
363.935	47.1
364.146	59.39
364.357	86.01
364.568	81.92
364.779	65.54
364.99	61.44
365.201	79.87
365.412	43.01
365.623	-51.2
365.834	83.97
366.045	14.34
366.256	67.58
366.467	69.63
366.678	34.82
366.889	8.19
367.1	-24.58
367.311	34.82
367.522	16.38
367.733	16.38
367.944	34.82
368.155	12.29
368.366	4.1
368.577	67.58
368.788	61.44
368.999	0
369.209	16.38
369.42	120.83
369.631	116.73
369.842	92.16
370.053	28.67
370.264	65.54
370.474	47.1
370.685	65.54
370.896	2.05
371.107	53.25
371.317	106.49
371.528	4.1
371.739	4.1
371.95	73.73
372.16	79.87
372.371	57.34
372.582	98.3
372.792	34.82
373.003	73.73
373.214	59.39
373.424	2.05
373.635	65.54
373.846	16.38
374.056	0
374.267	12.29
374.477	102.4
374.688	59.39
374.898	18.43
375.109	30.72
375.319	-10.24
375.53	75.77
375.74	43.01
375.951	34.82
376.161	40.96
376.372	106.49
376.582	83.97
376.793	14.34
377.003	-47.1
377.214	-4.1
377.424	77.82
377.635	26.62
377.845	-38.91
378.055	38.91
378.266	49.15
378.476	83.97
378.686	61.44
378.897	32.77
379.107	79.87
379.317	24.58
379.528	12.29
379.738	86.01
379.948	65.54
380.158	67.58
380.369	57.34
380.579	18.43
380.789	26.62
380.999	65.54
381.21	69.63
381.42	159.74
381.63	67.58
381.84	24.58
382.05	47.1
382.261	69.63
382.471	24.58
382.681	40.96
382.891	77.82
383.101	0
383.311	51.2
383.521	45.06
383.731	-10.24
383.941	47.1
384.151	-6.14
384.361	53.25
384.571	22.53
384.781	116.73
384.991	92.16
385.201	92.16
385.411	57.34
385.621	55.3
385.831	102.4
386.041	20.48
386.251	-8.19
386.461	69.63
386.671	40.96
386.881	47.1
387.091	-12.29
387.301	73.73
387.511	69.63
387.72	36.86
387.93	100.35
388.14	14.34
388.35	-36.86
388.56	100.35
388.769	40.96
388.979	30.72
389.189	98.3
389.399	53.25
389.609	83.97
389.818	40.96
390.028	65.54
390.238	4.1
390.447	65.54
390.657	53.25
390.867	-43.01
391.076	94.21
391.286	45.06
391.496	10.24
391.705	57.34
391.915	43.01
392.125	83.97
392.334	16.38
392.544	100.35
392.753	81.92
392.963	26.62
393.172	92.16
393.382	2.05
393.591	75.77
393.801	71.68
394.01	81.92
394.22	102.4
394.429	106.49
394.639	100.35
394.848	79.87
395.058	40.96
395.267	94.21
395.477	57.34
395.686	147.45
395.895	96.25
396.105	96.25
396.314	53.25
396.524	75.77
396.733	20.48
396.942	147.45
397.152	61.44
397.361	77.82
397.57	88.06
397.78	92.16
397.989	108.54
398.198	106.49
398.407	108.54
398.617	96.25
398.826	63.49
399.035	61.44
399.244	110.59
399.453	65.54
399.663	57.34
399.872	100.35
400.081	122.88
400.29	106.49
400.499	104.45
400.708	73.73
400.917	28.67
401.127	163.84
401.336	73.73
401.545	81.92
401.754	151.55
401.963	139.26
402.172	151.55
402.381	139.26
402.59	79.87
402.799	122.88
403.008	77.82
403.217	40.96
403.426	90.11
403.635	88.06
403.844	96.25
404.053	65.54
404.262	116.73
404.471	149.5
404.68	131.07
404.888	139.26
405.097	124.93
405.306	151.55
405.515	104.45
405.724	100.35
405.933	161.79
406.142	210.94
406.35	225.28
406.559	147.45
406.768	186.37
406.977	212.99
407.185	116.73
407.394	192.51
407.603	118.78
407.812	231.42
408.02	114.69
408.229	180.22
408.438	126.97
408.646	245.76
408.855	337.91
409.064	145.41
409.272	198.65
409.481	219.13
409.69	229.37
409.898	208.89
410.107	311.29
410.315	329.72
410.524	249.85
410.733	245.76
410.941	260.09
411.15	264.19
411.358	329.72
411.567	311.29
411.775	325.63
411.984	415.74
412.192	473.08
412.401	374.78
412.609	495.61
412.818	440.31
413.026	468.98
413.234	471.03
413.443	442.36
413.651	428.03
413.86	501.75
414.068	563.19
414.276	628.73
414.485	516.09
414.693	520.18
414.901	643.06
415.11	673.78
415.318	542.71
415.526	602.1
415.734	634.87
415.943	735.22
416.151	724.98
416.359	669.69
416.567	835.57
416.776	827.38
416.984	798.71
417.192	917.49
417.4	880.63
417.608	837.62
417.817	929.78
418.025	1019.89
418.233	1060.85
418.441	962.55
418.649	1148.91
418.857	1048.56
419.065	1241.07
419.273	1193.97
419.481	1112.05
419.689	1372.14
419.897	1355.76
420.105	1392.62
420.313	1433.58
420.521	1458.15
420.729	1460.2
420.937	1376.24
421.145	1538.02
421.353	1665
421.561	1726.44
421.769	1697.77
421.977	1826.79
422.185	1918.95
422.393	1914.85
422.601	2017.25
422.809	2076.64
423.017	2019.3
423.224	2131.94
423.432	2316.25
423.64	2260.96
423.848	2404.32
424.056	2389.98
424.263	2711.51
424.471	2504.67
424.679	2654.17
424.887	2760.66
425.094	2750.42
425.302	2842.58
425.51	2895.83
425.718	3080.15
425.925	3188.69
426.133	3168.21
426.341	3452.88
426.548	3465.16
426.756	3516.36
426.964	3692.49
427.171	3743.69
427.379	3866.56
427.586	4007.87
427.794	4151.23
428.001	4300.73
428.209	4468.67
428.417	4294.59
428.624	4616.12
428.832	4724.66
429.039	4612.03
429.247	4644.79
429.454	5044.15
429.662	5513.13
429.869	5009.33
430.076	5449.64
430.284	5314.48
430.491	5334.96
430.699	5959.59
430.906	5795.75
431.114	5879.72
431.321	6184.87
431.528	6238.11
431.736	6684.57
431.943	7075.73
432.15	6692.76
432.358	6842.26
432.565	7233.43
432.772	7014.29
432.979	7591.82
433.187	7608.2
433.394	7593.87
433.601	8357.76
433.808	8089.48
434.016	8286.08
434.223	8476.54
434.43	9158.52
434.637	8912.76
434.844	9408.37
435.052	9453.42
435.259	9449.33
435.466	9533.29
435.673	9518.96
435.88	10119.01
436.087	10477.41
436.294	10768.22
436.501	10501.98
436.708	10436.45
436.915	10891.1
437.122	11358.03
437.329	11525.97
437.537	11925.32
437.743	11937.61
437.95	11777.87
438.157	12457.79
438.364	12836.67
438.571	13184.82
438.778	12877.63
438.985	14104.36
439.192	13489.97
439.399	14047.02
439.606	13739.82
439.813	14276.39
440.02	15300.37
440.227	15087.39
440.433	14849.82
440.64	15486.74
440.847	15386.39
441.054	15552.27
441.261	16539.4
441.467	16455.43
441.674	16570.12
441.881	17350.39
442.088	17458.93
442.294	17204.99
442.501	17987.31
442.708	17870.58
442.914	18835.17
443.121	19185.37
443.328	18841.31
443.534	20139.72
443.741	19662.55
443.948	19441.37
444.154	20876.99
444.361	20672.2
444.568	20874.95
444.774	20926.14
444.981	21053.12
445.187	21698.23
445.394	22748.84
445.6	22511.27
445.807	24333.96
446.013	23795.35
446.22	24016.53
446.426	24755.85
446.633	24655.5
446.839	25722.49
447.046	24551.05
447.252	25958
447.459	26021.49
447.665	26357.36
447.871	27141.73
448.078	28327.5
448.284	27047.52
448.491	27625.05
448.697	29017.67
448.903	29331.01
449.11	29554.24
449.316	29001.29
449.522	29443.65
449.728	29990.45
449.935	30307.89
450.141	30201.4
450.347	31460.9
450.553	30393.9
450.76	30244.4
450.966	31297.06
451.172	30742.06
451.378	31694.36
451.584	31565.34
451.791	32202.26
451.997	31893.02
452.203	32783.88
452.409	32372.24
452.615	32374.29
452.821	30953
453.027	30524.97
453.233	32120.34
453.44	31120.93
453.646	31807
453.852	31512.1
454.058	32181.78
454.264	31149.6
454.47	31757.85
454.676	31157.8
454.882	32015.9
455.088	29363.78
455.294	29666.88
455.5	30215.73
455.705	30570.03
455.911	29140.55
456.117	28694.09
456.323	28229.2
456.529	27004.52
456.735	28128.85
456.941	27043.43
457.147	26664.55
457.352	26029.68
457.558	25720.44
457.764	25804.41
457.97	24995.46
458.176	24557.19
458.381	24733.32
458.587	23223.97
458.793	23342.75
458.999	22202.03
459.204	23541.4
459.41	23117.47
459.616	21507.77
459.821	21538.49
460.027	21698.23
460.233	21092.03
460.438	20008.65
460.644	20324.04
460.85	19470.04
461.055	19273.43
461.261	18953.95
461.466	17696.5
461.672	16975.61
461.878	18290.41
462.083	16793.34
462.289	16621.31
462.494	16736
462.7	15843.09
462.905	15353.62
463.111	15841.04
463.316	15929.1
463.522	15355.67
463.727	15683.34
463.932	15675.15
464.138	15566.61
464.343	15529.75
464.549	14919.45
464.754	15419.16
464.959	15615.76
465.165	15288.09
465.37	14466.85
465.575	14159.66
465.781	14640.93
465.986	14972.7
466.191	14376.74
466.397	14239.53
466.602	13360.95
466.807	13907.76
467.012	13887.28
467.218	13819.69
467.423	13510.45
467.628	13565.74
467.833	14321.45
468.038	13741.87
468.244	13119.29
