Data from USB4F104151__89__12-37-06-512.txt Node

Date: Fri Mar 14 12:37:06 EDT 2025
User: louis
Spectrometer: USB4F10415
Trigger mode: 4
Integration Time (sec): 2.000000E-2
Scans to average: 1
Electric dark correction enabled: true
Nonlinearity correction enabled: false
Boxcar width: 0
XAxis mode: Wavelengths
Number of Pixels in Spectrum: 3648
>>>>>Begin Spectral Data<<<<<
178.204	-94.72
178.424	-94.72
178.644	-94.72
178.864	-76.29
179.084	-100.86
179.304	-14.85
179.524	-53.76
179.744	9.73
179.964	30.21
180.184	7.68
180.404	1.54
180.624	24.06
180.844	-14.85
181.064	15.87
181.283	19.97
181.503	-47.62
181.723	22.02
181.943	-12.8
182.163	75.26
182.383	40.45
182.602	26.11
182.822	75.26
183.042	75.26
183.262	17.92
183.482	3.58
183.701	-16.9
183.921	36.35
184.141	-49.66
184.361	19.97
184.58	83.45
184.8	50.69
185.02	26.11
185.239	17.92
185.459	38.4
185.679	99.84
185.898	42.5
186.118	81.41
186.338	19.97
186.557	73.21
186.777	38.4
186.997	71.17
187.216	15.87
187.436	69.12
187.655	75.26
187.875	17.92
188.095	56.83
188.314	95.74
188.534	67.07
188.753	52.74
188.973	22.02
189.192	71.17
189.412	50.69
189.631	85.5
189.851	28.16
190.07	36.35
190.29	13.82
190.509	-31.23
190.729	24.06
190.948	65.02
191.168	7.68
191.387	52.74
191.607	73.21
191.826	5.63
192.045	32.26
192.265	73.21
192.484	-8.7
192.704	71.17
192.923	-59.9
193.142	52.74
193.362	81.41
193.581	-18.94
193.8	65.02
194.02	34.3
194.239	11.78
194.458	36.35
194.678	5.63
194.897	1.54
195.116	5.63
195.335	69.12
195.555	-4.61
195.774	44.54
195.993	52.74
196.212	73.21
196.432	-2.56
196.651	3.58
196.87	1.54
197.089	42.5
197.308	83.45
197.528	30.21
197.747	-8.7
197.966	71.17
198.185	44.54
198.404	-33.28
198.623	1.54
198.842	19.97
199.062	52.74
199.281	75.26
199.5	34.3
199.719	79.36
199.938	65.02
200.157	38.4
200.376	34.3
200.595	116.22
200.814	28.16
201.033	-31.23
201.252	30.21
201.471	36.35
201.69	32.26
201.909	95.74
202.128	24.06
202.347	17.92
202.566	19.97
202.785	15.87
203.004	-8.7
203.223	67.07
203.442	-2.56
203.661	-20.99
203.879	50.69
204.098	58.88
204.317	1.54
204.536	56.83
204.755	122.37
204.974	28.16
205.193	28.16
205.411	108.03
205.63	-10.75
205.849	32.26
206.068	28.16
206.287	15.87
206.505	50.69
206.724	105.98
206.943	44.54
207.162	38.4
207.381	13.82
207.599	40.45
207.818	-0.51
208.037	60.93
208.255	40.45
208.474	56.83
208.693	24.06
208.911	-14.85
209.13	36.35
209.349	103.93
209.567	13.82
209.786	44.54
210.005	73.21
210.223	22.02
210.442	15.87
210.661	58.88
210.879	-0.51
211.098	56.83
211.316	50.69
211.535	48.64
211.753	9.73
211.972	44.54
212.191	-14.85
212.409	-27.14
212.628	-45.57
212.846	38.4
213.065	50.69
213.283	46.59
213.502	50.69
213.72	50.69
213.938	36.35
214.157	46.59
214.375	15.87
214.594	40.45
214.812	69.12
215.031	38.4
215.249	85.5
215.467	42.5
215.686	3.58
215.904	101.89
216.122	-6.66
216.341	108.03
216.559	24.06
216.778	73.21
216.996	122.37
217.214	30.21
217.432	44.54
217.651	11.78
217.869	56.83
218.087	44.54
218.306	67.07
218.524	-0.51
218.742	13.82
218.96	34.3
219.179	-25.09
219.397	42.5
219.615	73.21
219.833	71.17
220.051	-14.85
220.27	46.59
220.488	28.16
220.706	38.4
220.924	62.98
221.142	69.12
221.36	26.11
221.578	-10.75
221.796	34.3
222.015	105.98
222.233	93.69
222.451	99.84
222.669	17.92
222.887	26.11
223.105	62.98
223.323	52.74
223.541	46.59
223.759	3.58
223.977	73.21
224.195	62.98
224.413	17.92
224.631	17.92
224.849	87.55
225.067	-12.8
225.285	7.68
225.503	26.11
225.721	-25.09
225.939	112.13
226.157	116.22
226.375	132.61
226.592	24.06
226.81	-16.9
227.028	42.5
227.246	101.89
227.464	67.07
227.682	60.93
227.9	54.78
228.117	67.07
228.335	19.97
228.553	50.69
228.771	52.74
228.989	34.3
229.206	42.5
229.424	48.64
229.642	9.73
229.86	-31.23
230.077	50.69
230.295	26.11
230.513	38.4
230.731	36.35
230.948	34.3
231.166	50.69
231.384	40.45
231.601	-12.8
231.819	46.59
232.037	50.69
232.254	54.78
232.472	24.06
232.689	-27.14
232.907	56.83
233.125	40.45
233.342	-20.99
233.56	-0.51
233.777	32.26
233.995	5.63
234.213	56.83
234.43	50.69
234.648	65.02
234.865	32.26
235.083	15.87
235.3	15.87
235.518	69.12
235.735	42.5
235.953	83.45
236.17	-10.75
236.388	13.82
236.605	40.45
236.822	15.87
237.04	34.3
237.257	36.35
237.475	-0.51
237.692	73.21
237.909	34.3
238.127	11.78
238.344	69.12
238.562	93.69
238.779	28.16
238.996	73.21
239.214	5.63
239.431	71.17
239.648	-25.09
239.865	60.93
240.083	75.26
240.3	58.88
240.517	-35.33
240.735	73.21
240.952	60.93
241.169	58.88
241.386	-41.47
241.603	44.54
241.821	-25.09
242.038	89.6
242.255	34.3
242.472	58.88
242.689	93.69
242.907	24.06
243.124	-14.85
243.341	112.13
243.558	83.45
243.775	97.79
243.992	-49.66
244.209	67.07
244.426	17.92
244.643	65.02
244.86	-33.28
245.078	77.31
245.295	46.59
245.512	-23.04
245.729	24.06
245.946	89.6
246.163	-2.56
246.38	17.92
246.597	1.54
246.814	46.59
247.031	62.98
247.248	-39.42
247.464	34.3
247.681	-35.33
247.898	11.78
248.115	52.74
248.332	5.63
248.549	95.74
248.766	50.69
248.983	48.64
249.2	62.98
249.417	89.6
249.633	24.06
249.85	56.83
250.067	-27.14
250.284	114.17
250.501	71.17
250.717	50.69
250.934	-14.85
251.151	58.88
251.368	24.06
251.585	81.41
251.801	17.92
252.018	-29.18
252.235	65.02
252.451	77.31
252.668	-49.66
252.885	114.17
253.102	17.92
253.318	91.65
253.535	30.21
253.752	65.02
253.968	24.06
254.185	22.02
254.401	50.69
254.618	73.21
254.835	9.73
255.051	95.74
255.268	69.12
255.484	42.5
255.701	83.45
255.917	60.93
256.134	32.26
256.351	108.03
256.567	7.68
256.784	50.69
257	77.31
257.217	110.08
257.433	60.93
257.65	-10.75
257.866	99.84
258.082	-35.33
258.299	48.64
258.515	60.93
258.732	-20.99
258.948	15.87
259.165	30.21
259.381	-14.85
259.597	44.54
259.814	1.54
260.03	-55.81
260.246	-2.56
260.463	-41.47
260.679	62.98
260.895	19.97
261.112	128.51
261.328	56.83
261.544	56.83
261.761	75.26
261.977	-29.18
262.193	1.54
262.409	26.11
262.626	28.16
262.842	24.06
263.058	22.02
263.274	146.94
263.49	44.54
263.707	144.89
263.923	62.98
264.139	97.79
264.355	42.5
264.571	110.08
264.787	62.98
265.004	48.64
265.22	9.73
265.436	36.35
265.652	-45.57
265.868	89.6
266.084	11.78
266.3	62.98
266.516	44.54
266.732	44.54
266.948	26.11
267.164	38.4
267.38	28.16
267.596	85.5
267.812	85.5
268.028	26.11
268.244	75.26
268.46	32.26
268.676	19.97
268.892	52.74
269.108	1.54
269.324	-27.14
269.54	56.83
269.756	46.59
269.972	32.26
270.188	22.02
270.403	46.59
270.619	22.02
270.835	5.63
271.051	22.02
271.267	60.93
271.483	62.98
271.698	99.84
271.914	7.68
272.13	40.45
272.346	50.69
272.562	-23.04
272.777	56.83
272.993	-53.76
273.209	22.02
273.425	28.16
273.64	44.54
273.856	79.36
274.072	52.74
274.287	58.88
274.503	50.69
274.719	30.21
274.934	46.59
275.15	28.16
275.366	44.54
275.581	38.4
275.797	38.4
276.012	11.78
276.228	40.45
276.444	38.4
276.659	77.31
276.875	-55.81
277.09	75.26
277.306	-31.23
277.521	15.87
277.737	-16.9
277.952	140.8
278.168	71.17
278.383	7.68
278.599	15.87
278.814	116.22
279.03	26.11
279.245	30.21
279.461	89.6
279.676	79.36
279.892	-8.7
280.107	60.93
280.322	9.73
280.538	13.82
280.753	-0.51
280.969	73.21
281.184	15.87
281.399	85.5
281.615	36.35
281.83	50.69
282.045	-0.51
282.26	15.87
282.476	56.83
282.691	99.84
282.906	52.74
283.122	24.06
283.337	-53.76
283.552	36.35
283.767	24.06
283.983	50.69
284.198	87.55
284.413	36.35
284.628	-0.51
284.843	71.17
285.058	58.88
285.274	11.78
285.489	-2.56
285.704	79.36
285.919	30.21
286.134	77.31
286.349	81.41
286.564	7.68
286.779	54.78
286.995	34.3
287.21	9.73
287.425	142.85
287.64	-47.62
287.855	77.31
288.07	-23.04
288.285	97.79
288.5	99.84
288.715	60.93
288.93	-2.56
289.145	60.93
289.36	-68.09
289.575	99.84
289.79	112.13
290.004	40.45
290.219	3.58
290.434	81.41
290.649	40.45
290.864	60.93
291.079	83.45
291.294	60.93
291.509	28.16
291.724	30.21
291.938	-14.85
292.153	52.74
292.368	56.83
292.583	22.02
292.798	89.6
293.012	26.11
293.227	34.3
293.442	28.16
293.657	79.36
293.871	-0.51
294.086	77.31
294.301	83.45
294.516	46.59
294.73	56.83
294.945	-27.14
295.16	32.26
295.374	69.12
295.589	34.3
295.804	-37.38
296.018	79.36
296.233	-29.18
296.447	97.79
296.662	40.45
296.877	30.21
297.091	85.5
297.306	83.45
297.52	-10.75
297.735	38.4
297.949	13.82
298.164	28.16
298.378	62.98
298.593	42.5
298.807	1.54
299.022	17.92
299.236	30.21
299.451	26.11
299.665	-18.94
299.88	65.02
300.094	52.74
300.309	62.98
300.523	38.4
300.737	101.89
300.952	67.07
301.166	11.78
301.381	-16.9
301.595	40.45
301.809	93.69
302.024	1.54
302.238	48.64
302.452	62.98
302.667	17.92
302.881	19.97
303.095	81.41
303.309	32.26
303.524	-16.9
303.738	48.64
303.952	30.21
304.166	69.12
304.381	-16.9
304.595	83.45
304.809	54.78
305.023	67.07
305.237	134.65
305.452	24.06
305.666	40.45
305.88	105.98
306.094	75.26
306.308	40.45
306.522	-8.7
306.736	114.17
306.95	93.69
307.164	7.68
307.379	-23.04
307.593	85.5
307.807	67.07
308.021	56.83
308.235	75.26
308.449	28.16
308.663	97.79
308.877	-35.33
309.091	-4.61
309.305	30.21
309.519	60.93
309.733	40.45
309.947	5.63
310.161	-12.8
310.374	60.93
310.588	17.92
310.802	-33.28
311.016	22.02
311.23	67.07
311.444	17.92
311.658	-2.56
311.872	56.83
312.085	99.84
312.299	62.98
312.513	77.31
312.727	34.3
312.941	9.73
313.154	101.89
313.368	42.5
313.582	28.16
313.796	161.28
314.009	36.35
314.223	62.98
314.437	48.64
314.651	101.89
314.864	71.17
315.078	7.68
315.292	93.69
315.505	-8.7
315.719	83.45
315.933	52.74
316.146	83.45
316.36	81.41
316.573	75.26
316.787	83.45
317.001	91.65
317.214	65.02
317.428	60.93
317.641	110.08
317.855	62.98
318.068	60.93
318.282	103.93
318.495	67.07
318.709	13.82
318.922	22.02
319.136	40.45
319.349	48.64
319.563	28.16
319.776	95.74
319.99	30.21
320.203	28.16
320.417	56.83
320.63	95.74
320.843	60.93
321.057	-31.23
321.27	44.54
321.483	67.07
321.697	95.74
321.91	116.22
322.124	40.45
322.337	50.69
322.55	17.92
322.763	36.35
322.977	48.64
323.19	-2.56
323.403	22.02
323.617	30.21
323.83	46.59
324.043	97.79
324.256	89.6
324.469	11.78
324.683	65.02
324.896	28.16
325.109	50.69
325.322	73.21
325.535	73.21
325.748	7.68
325.962	22.02
326.175	-35.33
326.388	56.83
326.601	19.97
326.814	50.69
327.027	1.54
327.24	17.92
327.453	13.82
327.666	56.83
327.879	50.69
328.092	17.92
328.305	62.98
328.518	83.45
328.731	30.21
328.944	-27.14
329.157	75.26
329.37	-94.72
329.583	36.35
329.796	93.69
330.009	30.21
330.222	81.41
330.435	34.3
330.648	24.06
330.861	75.26
331.073	101.89
331.286	19.97
331.499	103.93
331.712	26.11
331.925	-4.61
332.138	73.21
332.35	50.69
332.563	-2.56
332.776	32.26
332.989	60.93
333.202	-14.85
333.414	73.21
333.627	58.88
333.84	13.82
334.053	50.69
334.265	87.55
334.478	75.26
334.691	56.83
334.903	79.36
335.116	17.92
335.329	42.5
335.541	15.87
335.754	118.27
335.966	122.37
336.179	42.5
336.392	1.54
336.604	42.5
336.817	-33.28
337.029	97.79
337.242	32.26
337.454	40.45
337.667	-8.7
337.88	75.26
338.092	54.78
338.305	11.78
338.517	5.63
338.729	54.78
338.942	34.3
339.154	15.87
339.367	1.54
339.579	73.21
339.792	91.65
340.004	75.26
340.217	85.5
340.429	91.65
340.641	13.82
340.854	46.59
341.066	108.03
341.278	75.26
341.491	73.21
341.703	56.83
341.915	-37.38
342.128	30.21
342.34	34.3
342.552	32.26
342.764	67.07
342.977	26.11
343.189	36.35
343.401	116.22
343.613	40.45
343.826	40.45
344.038	73.21
344.25	1.54
344.462	116.22
344.674	67.07
344.886	140.8
345.099	42.5
345.311	34.3
345.523	103.93
345.735	-2.56
345.947	-6.66
346.159	42.5
346.371	54.78
346.583	44.54
346.795	132.61
347.007	44.54
347.219	24.06
347.431	79.36
347.643	17.92
347.855	-4.61
348.067	108.03
348.279	24.06
348.491	75.26
348.703	7.68
348.915	30.21
349.127	34.3
349.339	44.54
349.551	42.5
349.763	34.3
349.975	36.35
350.187	60.93
350.399	73.21
350.61	60.93
350.822	22.02
351.034	132.61
351.246	89.6
351.458	67.07
351.669	11.78
351.881	138.75
352.093	110.08
352.305	52.74
352.517	142.85
352.728	65.02
352.94	-20.99
353.152	30.21
353.363	32.26
353.575	75.26
353.787	73.21
353.999	71.17
354.21	60.93
354.422	30.21
354.633	79.36
354.845	130.56
355.057	75.26
355.268	101.89
355.48	56.83
355.692	40.45
355.903	52.74
356.115	24.06
356.326	9.73
356.538	44.54
356.749	38.4
356.961	99.84
357.172	28.16
357.384	54.78
357.595	40.45
357.807	110.08
358.018	19.97
358.23	58.88
358.441	81.41
358.653	87.55
358.864	75.26
359.075	28.16
359.287	58.88
359.498	130.56
359.709	52.74
359.921	7.68
360.132	79.36
360.344	93.69
360.555	132.61
360.766	67.07
360.977	87.55
361.189	71.17
361.4	108.03
361.611	46.59
361.823	62.98
362.034	34.3
362.245	28.16
362.456	73.21
362.667	34.3
362.879	11.78
363.09	60.93
363.301	42.5
363.512	73.21
363.723	-10.75
363.935	34.3
364.146	67.07
364.357	28.16
364.568	65.02
364.779	81.41
364.99	118.27
365.201	48.64
365.412	50.69
365.623	-18.94
365.834	50.69
366.045	73.21
366.256	116.22
366.467	89.6
366.678	56.83
366.889	22.02
367.1	46.59
367.311	93.69
367.522	52.74
367.733	81.41
367.944	48.64
368.155	60.93
368.366	87.55
368.577	130.56
368.788	99.84
368.999	19.97
369.209	58.88
369.42	101.89
369.631	148.99
369.842	138.75
370.053	13.82
370.264	83.45
370.474	50.69
370.685	52.74
370.896	30.21
371.107	73.21
371.317	108.03
371.528	69.12
371.739	87.55
371.95	30.21
372.16	-0.51
372.371	99.84
372.582	75.26
372.792	1.54
373.003	85.5
373.214	83.45
373.424	103.93
373.635	32.26
373.846	77.31
374.056	71.17
374.267	46.59
374.477	38.4
374.688	114.17
374.898	65.02
375.109	118.27
375.319	126.46
375.53	67.07
375.74	99.84
375.951	38.4
376.161	95.74
376.372	93.69
376.582	-0.51
376.793	103.93
377.003	40.45
377.214	30.21
377.424	130.56
377.635	3.58
377.845	32.26
378.055	95.74
378.266	77.31
378.476	81.41
378.686	52.74
378.897	17.92
379.107	46.59
379.317	65.02
379.528	50.69
379.738	38.4
379.948	42.5
380.158	97.79
380.369	28.16
380.579	208.38
380.789	79.36
380.999	124.41
381.21	112.13
381.42	93.69
381.63	22.02
381.84	52.74
382.05	44.54
382.261	97.79
382.471	153.09
382.681	91.65
382.891	40.45
383.101	114.17
383.311	97.79
383.521	9.73
383.731	52.74
383.941	58.88
384.151	79.36
384.361	105.98
384.571	120.32
384.781	67.07
384.991	91.65
385.201	89.6
385.411	124.41
385.621	87.55
385.831	65.02
386.041	85.5
386.251	73.21
386.461	140.8
386.671	79.36
386.881	91.65
387.091	81.41
387.301	62.98
387.511	54.78
387.72	44.54
387.93	44.54
388.14	91.65
388.35	116.22
388.56	105.98
388.769	69.12
388.979	108.03
389.189	71.17
389.399	93.69
389.609	71.17
389.818	122.37
390.028	77.31
390.238	67.07
390.447	81.41
390.657	95.74
390.867	144.89
391.076	73.21
391.286	34.3
391.496	91.65
391.705	69.12
391.915	56.83
392.125	87.55
392.334	114.17
392.544	81.41
392.753	-2.56
392.963	91.65
393.172	97.79
393.382	36.35
393.591	132.61
393.801	58.88
394.01	118.27
394.22	50.69
394.429	124.41
394.639	40.45
394.848	114.17
395.058	134.65
395.267	60.93
395.477	173.57
395.686	116.22
395.895	73.21
396.105	165.37
396.314	77.31
396.524	89.6
396.733	132.61
396.942	132.61
397.152	128.51
397.361	93.69
397.57	99.84
397.78	177.66
397.989	60.93
398.198	230.91
398.407	30.21
398.617	177.66
398.826	87.55
399.035	146.94
399.244	105.98
399.453	73.21
399.663	183.81
399.872	144.89
400.081	132.61
400.29	175.61
400.499	122.37
400.708	267.77
400.917	132.61
401.127	105.98
401.336	142.85
401.545	165.37
401.754	142.85
401.963	140.8
402.172	144.89
402.381	114.17
402.59	124.41
402.799	144.89
403.008	177.66
403.217	204.28
403.426	105.98
403.635	132.61
403.844	202.24
404.053	228.86
404.262	214.52
404.471	173.57
404.68	192
404.888	183.81
405.097	93.69
405.306	192
405.515	189.95
405.724	187.9
405.933	265.72
406.142	192
406.35	189.95
406.559	126.46
406.768	271.87
406.977	214.52
407.185	296.44
407.394	263.68
407.603	230.91
407.812	316.92
408.02	351.74
408.229	247.29
408.438	306.68
408.646	343.55
408.855	282.11
409.064	400.89
409.272	306.68
409.481	370.17
409.69	355.83
409.898	378.36
410.107	374.27
410.315	484.86
410.524	400.89
410.733	388.6
410.941	419.32
411.15	474.62
411.358	495.1
411.567	466.42
411.775	493.05
411.984	566.78
412.192	517.62
412.401	525.82
412.609	617.97
412.818	572.92
413.026	585.21
413.234	585.21
413.443	681.46
413.651	726.52
413.86	722.42
414.068	712.18
414.276	787.96
414.485	812.53
414.693	849.4
414.901	900.59
415.11	808.44
415.318	900.59
415.526	941.55
415.734	921.07
415.943	968.18
416.151	1025.52
416.359	1035.76
416.567	1142.25
416.776	1123.82
416.984	1263.08
417.192	1207.79
417.4	1222.13
417.608	1314.28
417.817	1287.66
418.025	1396.2
418.233	1455.59
418.441	1525.22
418.649	1449.45
418.857	1660.39
419.065	1658.34
419.273	1555.94
419.481	1658.34
419.689	1709.54
419.897	1854.95
420.105	1955.3
420.313	1910.24
420.521	1957.35
420.729	2098.66
420.937	2174.43
421.145	2172.38
421.353	2256.35
421.561	2489.82
421.769	2385.37
421.977	2641.37
422.185	2553.31
422.393	2596.31
422.601	2985.43
422.809	2813.4
423.017	2872.79
423.224	2852.31
423.432	3061.2
423.64	3206.61
423.848	3481.03
424.056	3317.2
424.263	3544.52
424.471	3511.75
424.679	3673.54
424.887	3857.86
425.094	3802.57
425.302	4060.61
425.51	4179.39
425.718	4320.7
425.925	4292.03
426.133	4500.92
426.341	4672.95
426.548	4982.2
426.756	5068.21
426.964	4988.34
427.171	5135.79
427.379	5512.62
427.586	5580.2
427.794	5701.03
428.001	5903.78
428.209	6194.59
428.417	6174.11
428.624	6509.98
428.832	6571.42
429.039	6446.49
429.247	6581.66
429.454	7210.39
429.662	7450
429.869	7150.99
430.076	7636.36
430.284	7357.84
430.491	7802.25
430.699	8162.69
430.906	8033.67
431.114	8328.58
431.321	8625.53
431.528	8873.34
431.736	9405.81
431.943	9645.42
432.15	9422.19
432.358	9700.72
432.565	10163.56
432.772	9936.23
432.979	10581.34
433.187	10810.72
433.394	11019.61
433.601	11652.43
433.808	11584.85
434.016	11449.68
434.223	12080.46
434.43	12723.52
434.637	12324.16
434.844	13296.95
435.052	13536.56
435.259	13401.4
435.466	13614.38
435.673	13581.62
435.88	14249.25
436.087	14859.55
436.294	15023.39
436.501	14808.35
436.708	15199.51
436.915	15590.67
437.122	16174.35
437.329	16436.49
437.537	16780.54
437.743	17081.6
437.95	16809.22
438.157	17888.5
438.364	18472.17
438.571	18066.67
438.778	18466.02
438.985	20301
439.192	19293.4
439.399	19870.93
439.606	19715.28
439.813	20516.04
440.02	21882.03
440.227	21384.38
440.433	21210.3
440.64	21830.83
440.847	21726.39
441.054	22381.74
441.261	24020.11
441.467	23309.47
441.674	24120.46
441.881	25007.23
442.088	24710.28
442.294	24845.44
442.501	25339.01
442.708	25681.02
442.914	26772.58
443.121	28071
443.328	27317.34
443.534	29275.2
443.741	28286.03
443.948	27860.05
444.154	30061.62
444.361	30088.24
444.568	29897.78
444.774	30143.54
444.981	30268.47
445.187	31341.6
445.394	32975.88
445.6	32039.96
445.807	35097.58
446.013	33924.09
446.22	34339.83
446.426	35691.49
446.633	35851.23
446.839	37053.39
447.046	36002.78
447.252	37602.24
447.459	37829.57
447.665	37903.29
447.871	39093.16
448.078	40778.64
448.284	38785.97
448.491	39846.82
448.697	41687.94
448.903	42496.89
449.11	42326.91
449.316	41470.86
449.522	42521.46
449.728	43789.16
449.935	44122.97
450.141	43930.47
450.347	44276.57
450.553	43531.11
450.76	44145.5
450.966	45738.82
451.172	45050.7
451.378	45980.48
451.584	45146.96
451.791	46357.31
451.997	46496.57
452.203	47012.66
452.409	47037.23
452.615	46758.71
452.821	45302.6
453.027	44682.07
453.233	46900.02
453.44	45237.07
453.646	45421.39
453.852	45828.93
454.058	46764.85
454.264	45075.28
454.47	46304.06
454.676	44796.76
454.882	46736.18
455.088	42425.21
455.294	43174.77
455.5	43570.02
455.705	44047.2
455.911	42392.44
456.117	41450.38
456.323	41493.38
456.529	39109.55
456.735	40692.63
456.941	39740.32
457.147	39115.69
457.352	37927.87
457.558	37409.73
457.764	38138.81
457.97	36926.41
458.176	36160.47
458.381	36070.36
458.587	34270.2
458.793	34128.89
458.999	32406.55
459.204	35214.31
459.41	33969.15
459.616	31276.07
459.821	31896.6
460.027	31931.42
460.233	30829.61
460.438	29686.84
460.644	29817.91
460.85	28578.89
461.055	27882.58
461.261	28177.49
461.466	26049.65
461.672	24992.9
461.878	26883.17
462.083	24978.56
462.289	24372.36
462.494	24669.32
462.7	23536.79
462.905	22715.56
463.111	23522.46
463.316	23553.18
463.522	22938.79
463.727	23366.81
463.932	23162.01
464.138	22643.88
464.343	22799.52
464.549	22152.37
464.754	22666.41
464.959	22889.63
465.165	22602.92
465.37	21585.08
465.575	21425.34
465.781	21773.49
465.986	22019.25
466.191	21290.17
466.397	20856
466.602	19627.22
466.807	20665.54
467.012	20679.88
467.218	20589.77
467.423	20102.35
