Data from USB4F104151__72__12-36-45-014.txt Node

Date: Fri Mar 14 12:36:45 EDT 2025
User: louis
Spectrometer: USB4F10415
Trigger mode: 4
Integration Time (sec): 2.000000E-2
Scans to average: 1
Electric dark correction enabled: true
Nonlinearity correction enabled: false
Boxcar width: 0
XAxis mode: Wavelengths
Number of Pixels in Spectrum: 3648
>>>>>Begin Spectral Data<<<<<
178.204	-62.8
178.424	-62.8
178.644	-62.8
178.864	-79.19
179.084	-109.91
179.304	43.69
179.524	10.92
179.744	-1.37
179.964	27.31
180.184	-13.65
180.404	43.69
180.624	-66.9
180.844	15.02
181.064	58.03
181.283	25.26
181.503	-62.8
181.723	-79.19
181.943	0.68
182.163	76.46
182.383	17.07
182.602	43.69
182.822	80.55
183.042	62.12
183.262	82.6
183.482	27.31
183.701	58.03
183.921	39.59
184.141	39.59
184.361	53.93
184.58	49.83
184.8	-34.13
185.02	39.59
185.239	12.97
185.459	45.74
185.679	117.42
185.898	33.45
186.118	17.07
186.338	-9.56
186.557	53.93
186.777	31.4
186.997	76.46
187.216	17.07
187.436	88.75
187.655	25.26
187.875	88.75
188.095	21.16
188.314	55.98
188.534	25.26
188.753	23.21
188.973	45.74
189.192	27.31
189.412	68.27
189.631	45.74
189.851	-27.99
190.07	98.99
190.29	-7.51
190.509	55.98
190.729	-32.08
190.948	92.84
191.168	53.93
191.387	74.41
191.607	-30.04
191.826	15.02
192.045	10.92
192.265	-15.7
192.484	-17.75
192.704	6.83
192.923	-32.08
193.142	113.32
193.362	39.59
193.581	74.41
193.8	-9.56
194.02	8.87
194.239	-23.89
194.458	47.79
194.678	12.97
194.897	70.31
195.116	-7.51
195.335	37.55
195.555	58.03
195.774	-7.51
195.993	-1.37
196.212	6.83
196.432	31.4
196.651	37.55
196.87	-19.8
197.089	39.59
197.308	35.5
197.528	6.83
197.747	47.79
197.966	43.69
198.185	0.68
198.404	45.74
198.623	10.92
198.842	21.16
199.062	47.79
199.281	105.13
199.5	27.31
199.719	-44.37
199.938	23.21
200.157	39.59
200.376	47.79
200.595	12.97
200.814	47.79
201.033	19.11
201.252	62.12
201.471	25.26
201.69	-5.46
201.909	35.5
202.128	66.22
202.347	37.55
202.566	-71
202.785	35.5
203.004	123.56
203.223	127.66
203.442	53.93
203.661	43.69
203.879	21.16
204.098	70.31
204.317	21.16
204.536	76.46
204.755	119.46
204.974	31.4
205.193	23.21
205.411	129.7
205.63	80.55
205.849	-17.75
206.068	-46.42
206.287	62.12
206.505	86.7
206.724	12.97
206.943	31.4
207.162	68.27
207.381	29.35
207.599	-15.7
207.818	29.35
208.037	45.74
208.255	-21.85
208.474	96.94
208.693	-1.37
208.911	17.07
209.13	80.55
209.349	47.79
209.567	15.02
209.786	82.6
210.005	25.26
210.223	2.73
210.442	-23.89
210.661	25.26
210.879	15.02
211.098	58.03
211.316	47.79
211.535	0.68
211.753	23.21
211.972	37.55
212.191	15.02
212.409	78.51
212.628	-85.33
212.846	21.16
213.065	-25.94
213.283	72.36
213.502	-60.76
213.72	-21.85
213.938	21.16
214.157	78.51
214.375	39.59
214.594	-21.85
214.812	2.73
215.031	-13.65
215.249	39.59
215.467	33.45
215.686	29.35
215.904	53.93
216.122	92.84
216.341	66.22
216.559	70.31
216.778	47.79
216.996	-30.04
217.214	68.27
217.432	37.55
217.651	-3.41
217.869	60.07
218.087	-42.32
218.306	-32.08
218.524	15.02
218.742	35.5
218.96	66.22
219.179	6.83
219.397	47.79
219.615	113.32
219.833	35.5
220.051	12.97
220.27	55.98
220.488	31.4
220.706	31.4
220.924	-7.51
221.142	31.4
221.36	86.7
221.578	49.83
221.796	41.64
222.015	12.97
222.233	39.59
222.451	51.88
222.669	-5.46
222.887	98.99
223.105	-15.7
223.323	-42.32
223.541	76.46
223.759	47.79
223.977	78.51
224.195	70.31
224.413	10.92
224.631	53.93
224.849	15.02
225.067	39.59
225.285	-17.75
225.503	6.83
225.721	-36.18
225.939	74.41
226.157	45.74
226.375	80.55
226.592	23.21
226.81	74.41
227.028	76.46
227.246	51.88
227.464	25.26
227.682	45.74
227.9	37.55
228.117	8.87
228.335	84.65
228.553	47.79
228.771	6.83
228.989	94.89
229.206	68.27
229.424	0.68
229.642	10.92
229.86	45.74
230.077	4.78
230.295	51.88
230.513	47.79
230.731	70.31
230.948	47.79
231.166	58.03
231.384	21.16
231.601	41.64
231.819	76.46
232.037	37.55
232.254	19.11
232.472	4.78
232.689	58.03
232.907	17.07
233.125	-50.52
233.342	23.21
233.56	29.35
233.777	62.12
233.995	60.07
234.213	29.35
234.43	123.56
234.648	70.31
234.865	23.21
235.083	64.17
235.3	-1.37
235.518	39.59
235.735	109.22
235.953	27.31
236.17	31.4
236.388	-13.65
236.605	58.03
236.822	133.8
237.04	66.22
237.257	8.87
237.475	109.22
237.692	64.17
237.909	-17.75
238.127	62.12
238.344	6.83
238.562	-1.37
238.779	6.83
238.996	8.87
239.214	49.83
239.431	88.75
239.648	-38.23
239.865	47.79
240.083	86.7
240.3	68.27
240.517	39.59
240.735	37.55
240.952	86.7
241.169	45.74
241.386	27.31
241.603	133.8
241.821	121.51
242.038	84.65
242.255	0.68
242.472	6.83
242.689	64.17
242.907	72.36
243.124	129.7
243.341	41.64
243.558	-36.18
243.775	62.12
243.992	60.07
244.209	10.92
244.426	47.79
244.643	41.64
244.86	113.32
245.078	35.5
245.295	41.64
245.512	27.31
245.729	64.17
245.946	21.16
246.163	121.51
246.38	82.6
246.597	-7.51
246.814	35.5
247.031	37.55
247.248	-1.37
247.464	27.31
247.681	0.68
247.898	111.27
248.115	51.88
248.332	23.21
248.549	113.32
248.766	-11.61
248.983	47.79
249.2	27.31
249.417	74.41
249.633	25.26
249.85	29.35
250.067	88.75
250.284	45.74
250.501	27.31
250.717	62.12
250.934	62.12
251.151	27.31
251.368	-5.46
251.585	21.16
251.801	27.31
252.018	53.93
252.235	49.83
252.451	31.4
252.668	-1.37
252.885	96.94
253.102	33.45
253.318	68.27
253.535	4.78
253.752	21.16
253.968	80.55
254.185	-21.85
254.401	107.18
254.618	78.51
254.835	39.59
255.051	33.45
255.268	78.51
255.484	39.59
255.701	58.03
255.917	-9.56
256.134	33.45
256.351	82.6
256.567	41.64
256.784	51.88
257	-25.94
257.217	4.78
257.433	29.35
257.65	84.65
257.866	51.88
258.082	45.74
258.299	31.4
258.515	76.46
258.732	-15.7
258.948	45.74
259.165	8.87
259.381	58.03
259.597	47.79
259.814	49.83
260.03	4.78
260.246	39.59
260.463	68.27
260.679	39.59
260.895	-25.94
261.112	10.92
261.328	51.88
261.544	45.74
261.761	88.75
261.977	-36.18
262.193	10.92
262.409	23.21
262.626	0.68
262.842	-23.89
263.058	92.84
263.274	45.74
263.49	37.55
263.707	113.32
263.923	17.07
264.139	35.5
264.355	86.7
264.571	84.65
264.787	2.73
265.004	41.64
265.22	4.78
265.436	33.45
265.652	31.4
265.868	23.21
266.084	23.21
266.3	58.03
266.516	62.12
266.732	78.51
266.948	60.07
267.164	94.89
267.38	51.88
267.596	-27.99
267.812	51.88
268.028	43.69
268.244	4.78
268.46	-9.56
268.676	51.88
268.892	43.69
269.108	66.22
269.324	62.12
269.54	21.16
269.756	66.22
269.972	-44.37
270.188	64.17
270.403	15.02
270.619	60.07
270.835	62.12
271.051	29.35
271.267	47.79
271.483	74.41
271.698	51.88
271.914	0.68
272.13	66.22
272.346	23.21
272.562	15.02
272.777	17.07
272.993	6.83
273.209	72.36
273.425	-3.41
273.64	-38.23
273.856	43.69
274.072	4.78
274.287	39.59
274.503	74.41
274.719	72.36
274.934	109.22
275.15	66.22
275.366	-19.8
275.581	35.5
275.797	-44.37
276.012	41.64
276.228	-7.51
276.444	-5.46
276.659	10.92
276.875	35.5
277.09	41.64
277.306	58.03
277.521	31.4
277.737	35.5
277.952	2.73
278.168	31.4
278.383	76.46
278.599	64.17
278.814	29.35
279.03	84.65
279.245	45.74
279.461	12.97
279.676	-15.7
279.892	-13.65
280.107	-19.8
280.322	-21.85
280.538	92.84
280.753	-5.46
280.969	72.36
281.184	86.7
281.399	70.31
281.615	45.74
281.83	72.36
282.045	23.21
282.26	15.02
282.476	0.68
282.691	55.98
282.906	29.35
283.122	-5.46
283.337	82.6
283.552	64.17
283.767	72.36
283.983	92.84
284.198	41.64
284.413	29.35
284.628	58.03
284.843	10.92
285.058	70.31
285.274	17.07
285.489	70.31
285.704	-3.41
285.919	55.98
286.134	105.13
286.349	33.45
286.564	-9.56
286.779	25.26
286.995	39.59
287.21	39.59
287.425	105.13
287.64	35.5
287.855	-13.65
288.07	90.79
288.285	19.11
288.5	39.59
288.715	41.64
288.93	49.83
289.145	27.31
289.36	80.55
289.575	101.03
289.79	70.31
290.004	-21.85
290.219	74.41
290.434	86.7
290.649	74.41
290.864	15.02
291.079	39.59
291.294	-17.75
291.509	17.07
291.724	0.68
291.938	58.03
292.153	98.99
292.368	74.41
292.583	0.68
292.798	23.21
293.012	51.88
293.227	60.07
293.442	8.87
293.657	19.11
293.871	64.17
294.086	10.92
294.301	35.5
294.516	109.22
294.73	25.26
294.945	37.55
295.16	4.78
295.374	43.69
295.589	27.31
295.804	-25.94
296.018	29.35
296.233	43.69
296.447	64.17
296.662	10.92
296.877	129.7
297.091	66.22
297.306	29.35
297.52	68.27
297.735	2.73
297.949	31.4
298.164	146.09
298.378	60.07
298.593	21.16
298.807	68.27
299.022	33.45
299.236	27.31
299.451	27.31
299.665	55.98
299.88	-19.8
300.094	109.22
300.309	31.4
300.523	39.59
300.737	45.74
300.952	23.21
301.166	86.7
301.381	-13.65
301.595	12.97
301.809	23.21
302.024	76.46
302.238	10.92
302.452	98.99
302.667	27.31
302.881	0.68
303.095	78.51
303.309	105.13
303.524	58.03
303.738	72.36
303.952	45.74
304.166	53.93
304.381	37.55
304.595	96.94
304.809	35.5
305.023	92.84
305.237	33.45
305.452	12.97
305.666	43.69
305.88	113.32
306.094	35.5
306.308	113.32
306.522	43.69
306.736	25.26
306.95	31.4
307.164	39.59
307.379	47.79
307.593	96.94
307.807	66.22
308.021	74.41
308.235	37.55
308.449	35.5
308.663	10.92
308.877	66.22
309.091	39.59
309.305	-1.37
309.519	-27.99
309.733	-21.85
309.947	-1.37
310.161	53.93
310.374	60.07
310.588	88.75
310.802	29.35
311.016	39.59
311.23	-30.04
311.444	23.21
311.658	47.79
311.872	80.55
312.085	70.31
312.299	39.59
312.513	53.93
312.727	47.79
312.941	8.87
313.154	17.07
313.368	60.07
313.582	55.98
313.796	64.17
314.009	88.75
314.223	58.03
314.437	60.07
314.651	49.83
314.864	19.11
315.078	47.79
315.292	27.31
315.505	12.97
315.719	90.79
315.933	6.83
316.146	27.31
316.36	58.03
316.573	62.12
316.787	92.84
317.001	-13.65
317.214	-38.23
317.428	39.59
317.641	-40.28
317.855	80.55
318.068	158.38
318.282	117.42
318.495	17.07
318.709	43.69
318.922	101.03
319.136	146.09
319.349	68.27
319.563	12.97
319.776	19.11
319.99	15.02
320.203	21.16
320.417	70.31
320.63	27.31
320.843	82.6
321.057	53.93
321.27	150.18
321.483	98.99
321.697	41.64
321.91	12.97
322.124	45.74
322.337	39.59
322.55	27.31
322.763	23.21
322.977	49.83
323.19	8.87
323.403	29.35
323.617	53.93
323.83	4.78
324.043	25.26
324.256	43.69
324.469	-17.75
324.683	84.65
324.896	103.08
325.109	60.07
325.322	37.55
325.535	72.36
325.748	92.84
325.962	-30.04
326.175	10.92
326.388	82.6
326.601	72.36
326.814	-13.65
327.027	27.31
327.24	60.07
327.453	27.31
327.666	51.88
327.879	53.93
328.092	88.75
328.305	33.45
328.518	125.61
328.731	39.59
328.944	82.6
329.157	49.83
329.37	33.45
329.583	72.36
329.796	101.03
330.009	6.83
330.222	90.79
330.435	43.69
330.648	41.64
330.861	62.12
331.073	86.7
331.286	-38.23
331.499	78.51
331.712	58.03
331.925	74.41
332.138	37.55
332.35	74.41
332.563	68.27
332.776	17.07
332.989	23.21
333.202	12.97
333.414	21.16
333.627	-3.41
333.84	45.74
334.053	72.36
334.265	115.37
334.478	-17.75
334.691	27.31
334.903	107.18
335.116	21.16
335.329	66.22
335.541	115.37
335.754	58.03
335.966	-3.41
336.179	25.26
336.392	8.87
336.604	47.79
336.817	27.31
337.029	84.65
337.242	25.26
337.454	45.74
337.667	45.74
337.88	80.55
338.092	49.83
338.305	88.75
338.517	90.79
338.729	17.07
338.942	70.31
339.154	64.17
339.367	8.87
339.579	43.69
339.792	-27.99
340.004	41.64
340.217	88.75
340.429	70.31
340.641	17.07
340.854	70.31
341.066	41.64
341.278	107.18
341.491	84.65
341.703	58.03
341.915	43.69
342.128	78.51
342.34	107.18
342.552	29.35
342.764	82.6
342.977	55.98
343.189	62.12
343.401	55.98
343.613	12.97
343.826	72.36
344.038	64.17
344.25	105.13
344.462	33.45
344.674	41.64
344.886	6.83
345.099	41.64
345.311	49.83
345.523	86.7
345.735	41.64
345.947	45.74
346.159	74.41
346.371	37.55
346.583	88.75
346.795	133.8
347.007	-7.51
347.219	84.65
347.431	111.27
347.643	53.93
347.855	6.83
348.067	84.65
348.279	-23.89
348.491	55.98
348.703	10.92
348.915	19.11
349.127	-5.46
349.339	21.16
349.551	115.37
349.763	47.79
349.975	39.59
350.187	58.03
350.399	90.79
350.61	29.35
350.822	82.6
351.034	60.07
351.246	98.99
351.458	121.51
351.669	72.36
351.881	70.31
352.093	55.98
352.305	131.75
352.517	29.35
352.728	35.5
352.94	10.92
353.152	58.03
353.363	139.94
353.575	76.46
353.787	82.6
353.999	47.79
354.21	141.99
354.422	43.69
354.633	80.55
354.845	6.83
355.057	6.83
355.268	39.59
355.48	35.5
355.692	29.35
355.903	19.11
356.115	31.4
356.326	39.59
356.538	129.7
356.749	62.12
356.961	70.31
357.172	27.31
357.384	105.13
357.595	150.18
357.807	101.03
358.018	86.7
358.23	92.84
358.441	101.03
358.653	88.75
358.864	31.4
359.075	72.36
359.287	74.41
359.498	58.03
359.709	37.55
359.921	60.07
360.132	90.79
360.344	82.6
360.555	70.31
360.766	23.21
360.977	12.97
361.189	51.88
361.4	96.94
361.611	94.89
361.823	107.18
362.034	88.75
362.245	21.16
362.456	84.65
362.667	123.56
362.879	53.93
363.09	90.79
363.301	141.99
363.512	35.5
363.723	78.51
363.935	68.27
364.146	90.79
364.357	94.89
364.568	109.22
364.779	-5.46
364.99	58.03
365.201	84.65
365.412	70.31
365.623	47.79
365.834	72.36
366.045	70.31
366.256	2.73
366.467	68.27
366.678	74.41
366.889	72.36
367.1	76.46
367.311	131.75
367.522	55.98
367.733	98.99
367.944	101.03
368.155	31.4
368.366	72.36
368.577	111.27
368.788	64.17
368.999	21.16
369.209	62.12
369.42	113.32
369.631	90.79
369.842	45.74
370.053	76.46
370.264	51.88
370.474	58.03
370.685	113.32
370.896	127.66
371.107	98.99
371.317	72.36
371.528	74.41
371.739	60.07
371.95	117.42
372.16	111.27
372.371	-25.94
372.582	131.75
372.792	51.88
373.003	72.36
373.214	88.75
373.424	101.03
373.635	41.64
373.846	76.46
374.056	58.03
374.267	27.31
374.477	45.74
374.688	27.31
374.898	60.07
375.109	90.79
375.319	-21.85
375.53	107.18
375.74	84.65
375.951	60.07
376.161	105.13
376.372	121.51
376.582	68.27
376.793	66.22
377.003	51.88
377.214	58.03
377.424	66.22
377.635	101.03
377.845	60.07
378.055	60.07
378.266	88.75
378.476	117.42
378.686	45.74
378.897	31.4
379.107	82.6
379.317	62.12
379.528	-30.04
379.738	90.79
379.948	78.51
380.158	103.08
380.369	19.11
380.579	119.46
380.789	29.35
380.999	103.08
381.21	94.89
381.42	156.33
381.63	-21.85
381.84	72.36
382.05	-1.37
382.261	92.84
382.471	84.65
382.681	70.31
382.891	72.36
383.101	72.36
383.311	21.16
383.521	58.03
383.731	55.98
383.941	168.62
384.151	78.51
384.361	84.65
384.571	78.51
384.781	115.37
384.991	113.32
385.201	76.46
385.411	49.83
385.621	68.27
385.831	105.13
386.041	17.07
386.251	12.97
386.461	172.71
386.671	55.98
386.881	123.56
387.091	74.41
387.301	131.75
387.511	31.4
387.72	47.79
387.93	98.99
388.14	66.22
388.35	96.94
388.56	94.89
388.769	62.12
388.979	68.27
389.189	127.66
389.399	98.99
389.609	135.85
389.818	115.37
390.028	80.55
390.238	96.94
390.447	47.79
390.657	154.28
390.867	123.56
391.076	68.27
391.286	60.07
391.496	43.69
391.705	68.27
391.915	98.99
392.125	115.37
392.334	109.22
392.544	96.94
392.753	101.03
392.963	160.42
393.172	88.75
393.382	111.27
393.591	88.75
393.801	80.55
394.01	168.62
394.22	70.31
394.429	82.6
394.639	25.26
394.848	156.33
395.058	148.14
395.267	92.84
395.477	94.89
395.686	60.07
395.895	117.42
396.105	94.89
396.314	111.27
396.524	115.37
396.733	125.61
396.942	107.18
397.152	166.57
397.361	135.85
397.57	117.42
397.78	178.86
397.989	96.94
398.198	107.18
398.407	74.41
398.617	137.9
398.826	166.57
399.035	62.12
399.244	182.95
399.453	119.46
399.663	176.81
399.872	150.18
400.081	127.66
400.29	178.86
400.499	123.56
400.708	158.38
400.917	131.75
401.127	219.82
401.336	146.09
401.545	174.76
401.754	150.18
401.963	127.66
402.172	144.04
402.381	178.86
402.59	150.18
402.799	156.33
403.008	170.66
403.217	158.38
403.426	191.14
403.635	199.34
403.844	180.9
404.053	185
404.262	199.34
404.471	193.19
404.68	238.25
404.888	166.57
405.097	238.25
405.306	254.63
405.515	309.93
405.724	131.75
405.933	232.1
406.142	225.96
406.35	236.2
406.559	307.88
406.768	168.62
406.977	228.01
407.185	254.63
407.394	232.1
407.603	334.5
407.812	277.16
408.02	338.6
408.229	365.22
408.438	295.59
408.646	342.69
408.855	297.64
409.064	375.46
409.272	340.65
409.481	371.36
409.69	361.13
409.898	422.56
410.107	420.52
410.315	408.23
410.524	385.7
410.733	428.71
410.941	494.24
411.15	520.87
411.358	512.67
411.567	621.22
411.775	514.72
411.984	551.59
412.192	561.83
412.401	602.79
412.609	633.5
412.818	649.89
413.026	690.85
413.234	709.28
413.443	688.8
413.651	740
413.86	737.95
414.068	840.35
414.276	883.36
414.485	780.96
414.693	901.79
414.901	918.17
415.11	907.93
415.318	930.46
415.526	1129.11
415.734	1006.24
415.943	1041.05
416.151	1165.98
416.359	1112.73
416.567	1155.74
416.776	1192.6
416.984	1292.95
417.192	1405.59
417.4	1381.01
417.608	1368.73
417.817	1395.35
418.025	1518.23
418.233	1567.38
418.441	1600.15
418.649	1602.19
418.857	1735.31
419.065	1743.5
419.273	1727.12
419.481	1823.37
419.689	1989.26
419.897	2011.79
420.105	2210.44
420.313	2081.42
420.521	2163.34
420.729	2214.54
420.937	2302.6
421.145	2437.77
421.353	2521.73
421.561	2615.94
421.769	2894.46
421.977	2986.62
422.185	2718.34
422.393	3000.96
422.601	3150.46
422.809	3078.78
423.017	3172.99
423.224	3306.1
423.432	3420.79
423.64	3363.45
423.848	3635.83
424.056	3644.02
424.263	3826.29
424.471	3897.97
424.679	3998.32
424.887	4186.73
425.094	4434.53
425.302	4256.36
425.51	4504.17
425.718	4659.81
425.925	4608.61
426.133	4934.24
426.341	5194.33
426.548	5476.95
426.756	5288.54
426.964	5450.33
427.171	5689.94
427.379	5835.35
427.586	5925.46
427.794	6257.23
428.001	6400.58
428.209	6761.03
428.417	6625.86
428.624	7156.29
428.832	7193.15
429.039	7148.09
429.247	7225.92
429.454	7733.81
429.662	8239.66
429.869	7719.48
430.076	8235.56
430.284	8135.21
430.491	8561.19
430.699	8987.17
430.906	8872.48
431.114	9120.29
431.321	9538.07
431.528	9538.07
431.736	10136.08
431.943	10756.61
432.15	10453.52
432.358	10545.67
432.565	11221.5
432.772	11012.61
432.979	11477.5
433.187	11727.35
433.394	11741.69
433.601	12700.14
433.808	12790.25
434.016	12722.66
434.223	13228.51
434.43	13926.87
434.637	13683.16
434.844	14797.26
435.052	14813.64
435.259	14567.88
435.466	14852.55
435.673	14660.04
435.88	15798.71
436.087	16495.02
436.294	16540.08
436.501	16114.1
436.708	16550.32
436.915	16921
437.122	17588.64
437.329	17904.03
437.537	18352.53
437.743	18692.49
437.95	18657.68
438.157	19220.87
438.364	19773.82
438.571	19851.64
438.778	20310.39
438.985	21932.38
439.192	21252.45
439.399	22008.15
439.606	21401.96
439.813	22821.2
440.02	23677.25
440.227	23474.5
440.433	23140.68
440.64	24090.94
440.847	24111.42
441.054	24623.41
441.261	25938.21
441.467	25944.35
441.674	26470.68
441.881	27216.14
442.088	27390.22
442.294	27042.06
442.501	27879.68
442.708	28553.46
442.914	29511.91
443.121	30777.56
443.328	29870.31
443.534	31854.79
443.741	30927.06
443.948	30433.5
444.154	33063.09
444.361	32739.51
444.568	32766.13
444.774	32708.79
444.981	33087.67
445.187	34168.99
445.394	35604.62
445.6	35082.39
445.807	38254.69
446.013	36790.39
446.22	37769.32
446.426	38981.72
446.633	39469.14
446.839	40775.74
447.046	39168.08
447.252	41228.34
447.459	41205.81
447.665	41119.8
447.871	42887.2
448.078	44998.65
448.284	42623.01
448.491	43808.78
448.697	45248.5
448.903	46231.53
449.11	46467.05
449.316	45891.57
449.522	46872.54
449.728	48009.17
449.935	48291.79
450.141	47943.63
450.347	49180.6
450.553	47595.48
450.76	48095.18
450.966	49770.42
451.172	49323.96
451.378	50599.85
451.584	49201.08
451.791	50775.97
451.997	50651.05
452.203	51197.85
452.409	51240.86
452.615	51183.52
452.821	49590.2
453.027	49102.78
453.233	51165.09
453.44	49162.17
453.646	50089.9
453.852	50046.89
454.058	51359.64
454.264	49319.87
454.47	50425.77
454.676	49467.32
454.882	50593.7
455.088	46518.24
455.294	47052.76
455.5	48099.28
455.705	48435.14
455.911	46249.96
456.117	45610.99
456.323	45150.2
456.529	42428.45
456.735	44660.74
456.941	43560.98
457.147	42997.79
457.352	41750.57
457.558	41443.38
457.764	41041.98
457.97	40317
458.176	39825.48
458.381	39311.44
458.587	37619.82
458.793	37376.11
458.999	35924.1
459.204	38381.67
459.41	37286
459.616	35014.8
459.821	34910.36
460.027	35125.39
460.233	33890.47
460.438	32274.62
460.644	32751.8
460.85	31185.1
461.055	30482.65
461.261	30789.84
461.466	28410.11
461.672	27560.2
461.878	29305.07
462.083	27576.58
462.289	26902.8
462.494	26628.37
462.7	25528.61
462.905	24858.93
463.111	25846.05
463.316	25872.67
463.522	25358.63
463.727	25293.1
463.932	24883.5
464.138	25022.76
464.343	24912.17
464.549	24213.82
464.754	25338.15
464.959	25067.82
465.165	24842.54
465.37	23671.11
465.575	22880.59
465.781	23937.34
465.986	23994.68
466.191	23411.01
466.397	22806.86
466.602	21404
466.807	22473.04
467.012	22485.33
467.218	22421.84
