Data from USB4F104151__95__12-37-11-950.txt Node

Date: Fri Mar 14 12:37:11 EDT 2025
User: louis
Spectrometer: USB4F10415
Trigger mode: 4
Integration Time (sec): 2.000000E-2
Scans to average: 1
Electric dark correction enabled: true
Nonlinearity correction enabled: false
Boxcar width: 0
XAxis mode: Wavelengths
Number of Pixels in Spectrum: 3648
>>>>>Begin Spectral Data<<<<<
178.204	-99.84
178.424	-99.84
178.644	-99.84
178.864	-65.02
179.084	-71.17
179.304	20.99
179.524	-9.73
179.744	-3.58
179.964	-28.16
180.184	-54.78
180.404	25.09
180.624	41.47
180.844	14.85
181.064	-1.54
181.283	33.28
181.503	-54.78
181.723	16.9
181.943	-36.35
182.163	49.66
182.383	51.71
182.602	74.24
182.822	27.14
183.042	16.9
183.262	61.95
183.482	98.81
183.701	64
183.921	90.62
184.141	20.99
184.361	33.28
184.58	20.99
184.8	23.04
185.02	-26.11
185.239	131.58
185.459	14.85
185.679	43.52
185.898	39.42
186.118	37.38
186.338	-36.35
186.557	27.14
186.777	39.42
186.997	41.47
187.216	82.43
187.436	102.91
187.655	72.19
187.875	39.42
188.095	-32.26
188.314	47.62
188.534	-11.78
188.753	96.77
188.973	2.56
189.192	74.24
189.412	6.66
189.631	-5.63
189.851	53.76
190.07	72.19
190.29	29.18
190.509	-19.97
190.729	39.42
190.948	51.71
191.168	178.69
191.387	113.15
191.607	45.57
191.826	72.19
192.045	-1.54
192.265	25.09
192.484	82.43
192.704	45.57
192.923	6.66
193.142	84.48
193.362	18.94
193.581	51.71
193.8	49.66
194.02	25.09
194.239	49.66
194.458	12.8
194.678	14.85
194.897	10.75
195.116	29.18
195.335	8.7
195.555	78.33
195.774	-17.92
195.993	-19.97
196.212	-15.87
196.432	10.75
196.651	23.04
196.87	10.75
197.089	51.71
197.308	64
197.528	53.76
197.747	68.09
197.966	39.42
198.185	35.33
198.404	-26.11
198.623	2.56
198.842	10.75
199.062	49.66
199.281	64
199.5	18.94
199.719	12.8
199.938	31.23
200.157	59.9
200.376	70.14
200.595	18.94
200.814	-19.97
201.033	41.47
201.252	88.57
201.471	16.9
201.69	70.14
201.909	47.62
202.128	102.91
202.347	53.76
202.566	14.85
202.785	53.76
203.004	29.18
203.223	59.9
203.442	-38.4
203.661	6.66
203.879	70.14
204.098	100.86
204.317	-7.68
204.536	31.23
204.755	-28.16
204.974	0.51
205.193	18.94
205.411	72.19
205.63	27.14
205.849	-11.78
206.068	49.66
206.287	49.66
206.505	51.71
206.724	74.24
206.943	88.57
207.162	59.9
207.381	33.28
207.599	111.1
207.818	43.52
208.037	109.05
208.255	39.42
208.474	6.66
208.693	53.76
208.911	47.62
209.13	18.94
209.349	55.81
209.567	-11.78
209.786	64
210.005	43.52
210.223	-30.21
210.442	-42.5
210.661	31.23
210.879	-110.08
211.098	61.95
211.316	41.47
211.535	59.9
211.753	49.66
211.972	80.38
212.191	47.62
212.409	92.67
212.628	4.61
212.846	18.94
213.065	76.29
213.283	53.76
213.502	8.7
213.72	61.95
213.938	35.33
214.157	88.57
214.375	45.57
214.594	39.42
214.812	29.18
215.031	4.61
215.249	64
215.467	68.09
215.686	45.57
215.904	57.86
216.122	119.29
216.341	102.91
216.559	43.52
216.778	41.47
216.996	12.8
217.214	49.66
217.432	14.85
217.651	-22.02
217.869	64
218.087	47.62
218.306	-22.02
218.524	23.04
218.742	37.38
218.96	25.09
219.179	43.52
219.397	39.42
219.615	115.2
219.833	31.23
220.051	-26.11
220.27	74.24
220.488	23.04
220.706	68.09
220.924	-7.68
221.142	-17.92
221.36	96.77
221.578	64
221.796	39.42
222.015	68.09
222.233	8.7
222.451	55.81
222.669	72.19
222.887	27.14
223.105	8.7
223.323	4.61
223.541	-36.35
223.759	68.09
223.977	64
224.195	111.1
224.413	92.67
224.631	49.66
224.849	-3.58
225.067	84.48
225.285	-15.87
225.503	80.38
225.721	8.7
225.939	12.8
226.157	61.95
226.375	90.62
226.592	-19.97
226.81	14.85
227.028	68.09
227.246	39.42
227.464	33.28
227.682	27.14
227.9	45.57
228.117	45.57
228.335	43.52
228.553	20.99
228.771	59.9
228.989	86.53
229.206	-44.54
229.424	16.9
229.642	39.42
229.86	-17.92
230.077	45.57
230.295	-7.68
230.513	102.91
230.731	125.44
230.948	35.33
231.166	68.09
231.384	-7.68
231.601	18.94
231.819	-9.73
232.037	100.86
232.254	90.62
232.472	53.76
232.689	90.62
232.907	80.38
233.125	49.66
233.342	-22.02
233.56	96.77
233.777	18.94
233.995	27.14
234.213	35.33
234.43	2.56
234.648	31.23
234.865	78.33
235.083	55.81
235.3	-40.45
235.518	33.28
235.735	86.53
235.953	39.42
236.17	8.7
236.388	66.05
236.605	-36.35
236.822	70.14
237.04	20.99
237.257	25.09
237.475	-5.63
237.692	43.52
237.909	92.67
238.127	-5.63
238.344	33.28
238.562	6.66
238.779	47.62
238.996	37.38
239.214	90.62
239.431	-9.73
239.648	0.51
239.865	82.43
240.083	14.85
240.3	135.68
240.517	33.28
240.735	68.09
240.952	76.29
241.169	82.43
241.386	18.94
241.603	31.23
241.821	39.42
242.038	102.91
242.255	16.9
242.472	39.42
242.689	33.28
242.907	70.14
243.124	41.47
243.341	72.19
243.558	18.94
243.775	0.51
243.992	-19.97
244.209	47.62
244.426	57.86
244.643	104.96
244.86	29.18
245.078	55.81
245.295	53.76
245.512	31.23
245.729	100.86
245.946	64
246.163	55.81
246.38	143.87
246.597	45.57
246.814	59.9
247.031	49.66
247.248	72.19
247.464	51.71
247.681	27.14
247.898	74.24
248.115	74.24
248.332	12.8
248.549	57.86
248.766	80.38
248.983	102.91
249.2	123.39
249.417	14.85
249.633	-5.63
249.85	41.47
250.067	70.14
250.284	23.04
250.501	29.18
250.717	51.71
250.934	-42.5
251.151	37.38
251.368	20.99
251.585	0.51
251.801	55.81
252.018	43.52
252.235	64
252.451	18.94
252.668	25.09
252.885	39.42
253.102	117.25
253.318	109.05
253.535	74.24
253.752	68.09
253.968	49.66
254.185	55.81
254.401	-5.63
254.618	8.7
254.835	29.18
255.051	-42.5
255.268	104.96
255.484	45.57
255.701	-13.82
255.917	41.47
256.134	14.85
256.351	64
256.567	-7.68
256.784	111.1
257	57.86
257.217	74.24
257.433	68.09
257.65	18.94
257.866	45.57
258.082	37.38
258.299	16.9
258.515	64
258.732	-11.78
258.948	20.99
259.165	59.9
259.381	-7.68
259.597	57.86
259.814	27.14
260.03	29.18
260.246	64
260.463	82.43
260.679	18.94
260.895	29.18
261.112	68.09
261.328	76.29
261.544	-3.58
261.761	104.96
261.977	51.71
262.193	33.28
262.409	80.38
262.626	29.18
262.842	86.53
263.058	51.71
263.274	0.51
263.49	-13.82
263.707	25.09
263.923	74.24
264.139	55.81
264.355	64
264.571	131.58
264.787	107.01
265.004	61.95
265.22	51.71
265.436	-22.02
265.652	-7.68
265.868	-9.73
266.084	61.95
266.3	-9.73
266.516	14.85
266.732	57.86
266.948	33.28
267.164	45.57
267.38	37.38
267.596	96.77
267.812	139.77
268.028	29.18
268.244	18.94
268.46	31.23
268.676	-22.02
268.892	51.71
269.108	-52.74
269.324	33.28
269.54	-7.68
269.756	70.14
269.972	14.85
270.188	100.86
270.403	-1.54
270.619	82.43
270.835	98.81
271.051	74.24
271.267	92.67
271.483	-22.02
271.698	10.75
271.914	18.94
272.13	2.56
272.346	86.53
272.562	45.57
272.777	51.71
272.993	10.75
273.209	39.42
273.425	37.38
273.64	76.29
273.856	-1.54
274.072	14.85
274.287	51.71
274.503	-1.54
274.719	61.95
274.934	129.53
275.15	0.51
275.366	70.14
275.581	27.14
275.797	49.66
276.012	35.33
276.228	70.14
276.444	2.56
276.659	43.52
276.875	64
277.09	20.99
277.306	-5.63
277.521	104.96
277.737	14.85
277.952	76.29
278.168	12.8
278.383	57.86
278.599	59.9
278.814	47.62
279.03	20.99
279.245	137.73
279.461	-7.68
279.676	45.57
279.892	20.99
280.107	16.9
280.322	-34.3
280.538	41.47
280.753	-5.63
280.969	98.81
281.184	49.66
281.399	16.9
281.615	25.09
281.83	-36.35
282.045	18.94
282.26	-3.58
282.476	66.05
282.691	53.76
282.906	113.15
283.122	10.75
283.337	80.38
283.552	82.43
283.767	27.14
283.983	66.05
284.198	49.66
284.413	23.04
284.628	0.51
284.843	72.19
285.058	27.14
285.274	47.62
285.489	35.33
285.704	84.48
285.919	37.38
286.134	39.42
286.349	72.19
286.564	31.23
286.779	80.38
286.995	20.99
287.21	41.47
287.425	90.62
287.64	53.76
287.855	66.05
288.07	18.94
288.285	86.53
288.5	82.43
288.715	51.71
288.93	84.48
289.145	10.75
289.36	10.75
289.575	53.76
289.79	39.42
290.004	66.05
290.219	59.9
290.434	-7.68
290.649	61.95
290.864	31.23
291.079	-34.3
291.294	37.38
291.509	139.77
291.724	10.75
291.938	47.62
292.153	49.66
292.368	33.28
292.583	33.28
292.798	98.81
293.012	25.09
293.227	64
293.442	43.52
293.657	119.29
293.871	150.01
294.086	14.85
294.301	133.63
294.516	98.81
294.73	117.25
294.945	55.81
295.16	39.42
295.374	33.28
295.589	18.94
295.804	53.76
296.018	12.8
296.233	98.81
296.447	109.05
296.662	72.19
296.877	125.44
297.091	0.51
297.306	80.38
297.52	29.18
297.735	82.43
297.949	-17.92
298.164	8.7
298.378	25.09
298.593	-9.73
298.807	51.71
299.022	82.43
299.236	37.38
299.451	92.67
299.665	23.04
299.88	20.99
300.094	25.09
300.309	47.62
300.523	18.94
300.737	33.28
300.952	57.86
301.166	41.47
301.381	0.51
301.595	68.09
301.809	-17.92
302.024	57.86
302.238	14.85
302.452	102.91
302.667	68.09
302.881	76.29
303.095	35.33
303.309	80.38
303.524	-36.35
303.738	27.14
303.952	57.86
304.166	57.86
304.381	55.81
304.595	43.52
304.809	10.75
305.023	90.62
305.237	12.8
305.452	43.52
305.666	86.53
305.88	-19.97
306.094	-1.54
306.308	98.81
306.522	-11.78
306.736	102.91
306.95	41.47
307.164	45.57
307.379	55.81
307.593	94.72
307.807	107.01
308.021	72.19
308.235	70.14
308.449	111.1
308.663	14.85
308.877	121.34
309.091	80.38
309.305	102.91
309.519	39.42
309.733	59.9
309.947	49.66
310.161	41.47
310.374	-5.63
310.588	88.57
310.802	59.9
311.016	20.99
311.23	-9.73
311.444	4.61
311.658	-19.97
311.872	45.57
312.085	29.18
312.299	90.62
312.513	39.42
312.727	82.43
312.941	-5.63
313.154	33.28
313.368	96.77
313.582	72.19
313.796	23.04
314.009	102.91
314.223	16.9
314.437	72.19
314.651	29.18
314.864	100.86
315.078	49.66
315.292	37.38
315.505	20.99
315.719	10.75
315.933	92.67
316.146	43.52
316.36	100.86
316.573	131.58
316.787	-34.3
317.001	70.14
317.214	14.85
317.428	45.57
317.641	51.71
317.855	16.9
318.068	92.67
318.282	49.66
318.495	70.14
318.709	143.87
318.922	78.33
319.136	102.91
319.349	82.43
319.563	102.91
319.776	55.81
319.99	57.86
320.203	111.1
320.417	55.81
320.63	66.05
320.843	61.95
321.057	66.05
321.27	119.29
321.483	104.96
321.697	49.66
321.91	37.38
322.124	80.38
322.337	109.05
322.55	23.04
322.763	76.29
322.977	145.92
323.19	25.09
323.403	59.9
323.617	53.76
323.83	96.77
324.043	92.67
324.256	12.8
324.469	33.28
324.683	76.29
324.896	27.14
325.109	29.18
325.322	47.62
325.535	41.47
325.748	98.81
325.962	55.81
326.175	107.01
326.388	100.86
326.601	18.94
326.814	39.42
327.027	68.09
327.24	64
327.453	0.51
327.666	57.86
327.879	154.11
328.092	123.39
328.305	47.62
328.518	43.52
328.731	25.09
328.944	-52.74
329.157	61.95
329.37	68.09
329.583	100.86
329.796	8.7
330.009	10.75
330.222	14.85
330.435	20.99
330.648	80.38
330.861	10.75
331.073	57.86
331.286	55.81
331.499	55.81
331.712	20.99
331.925	-19.97
332.138	74.24
332.35	53.76
332.563	53.76
332.776	84.48
332.989	8.7
333.202	82.43
333.414	2.56
333.627	64
333.84	76.29
334.053	49.66
334.265	74.24
334.478	33.28
334.691	55.81
334.903	119.29
335.116	47.62
335.329	16.9
335.541	-22.02
335.754	107.01
335.966	10.75
336.179	55.81
336.392	33.28
336.604	94.72
336.817	49.66
337.029	41.47
337.242	53.76
337.454	41.47
337.667	68.09
337.88	115.2
338.092	27.14
338.305	33.28
338.517	-26.11
338.729	53.76
338.942	25.09
339.154	2.56
339.367	18.94
339.579	80.38
339.792	57.86
340.004	82.43
340.217	39.42
340.429	66.05
340.641	39.42
340.854	20.99
341.066	55.81
341.278	49.66
341.491	49.66
341.703	57.86
341.915	70.14
342.128	96.77
342.34	-7.68
342.552	57.86
342.764	88.57
342.977	20.99
343.189	78.33
343.401	0.51
343.613	82.43
343.826	25.09
344.038	29.18
344.25	-75.26
344.462	72.19
344.674	43.52
344.886	20.99
345.099	49.66
345.311	98.81
345.523	10.75
345.735	-56.83
345.947	76.29
346.159	39.42
346.371	92.67
346.583	29.18
346.795	135.68
347.007	109.05
347.219	82.43
347.431	74.24
347.643	80.38
347.855	70.14
348.067	64
348.279	39.42
348.491	55.81
348.703	72.19
348.915	70.14
349.127	41.47
349.339	49.66
349.551	57.86
349.763	109.05
349.975	53.76
350.187	111.1
350.399	59.9
350.61	68.09
350.822	80.38
351.034	94.72
351.246	-9.73
351.458	51.71
351.669	43.52
351.881	43.52
352.093	49.66
352.305	119.29
352.517	100.86
352.728	141.82
352.94	18.94
353.152	107.01
353.363	39.42
353.575	70.14
353.787	14.85
353.999	121.34
354.21	61.95
354.422	94.72
354.633	59.9
354.845	70.14
355.057	59.9
355.268	37.38
355.48	41.47
355.692	43.52
355.903	27.14
356.115	55.81
356.326	53.76
356.538	117.25
356.749	82.43
356.961	35.33
357.172	66.05
357.384	41.47
357.595	68.09
357.807	45.57
358.018	59.9
358.23	121.34
358.441	113.15
358.653	55.81
358.864	33.28
359.075	125.44
359.287	70.14
359.498	94.72
359.709	39.42
359.921	59.9
360.132	6.66
360.344	100.86
360.555	29.18
360.766	125.44
360.977	8.7
361.189	133.63
361.4	43.52
361.611	35.33
361.823	84.48
362.034	39.42
362.245	55.81
362.456	84.48
362.667	39.42
362.879	72.19
363.09	76.29
363.301	96.77
363.512	20.99
363.723	64
363.935	96.77
364.146	53.76
364.357	90.62
364.568	59.9
364.779	12.8
364.99	98.81
365.201	31.23
365.412	127.49
365.623	8.7
365.834	107.01
366.045	115.2
366.256	78.33
366.467	39.42
366.678	37.38
366.889	-1.54
367.1	23.04
367.311	37.38
367.522	4.61
367.733	47.62
367.944	43.52
368.155	39.42
368.366	53.76
368.577	76.29
368.788	80.38
368.999	84.48
369.209	100.86
369.42	14.85
369.631	170.49
369.842	68.09
370.053	61.95
370.264	14.85
370.474	94.72
370.685	49.66
370.896	35.33
371.107	61.95
371.317	119.29
371.528	4.61
371.739	53.76
371.95	29.18
372.16	100.86
372.371	49.66
372.582	68.09
372.792	25.09
373.003	57.86
373.214	35.33
373.424	102.91
373.635	117.25
373.846	123.39
374.056	82.43
374.267	117.25
374.477	23.04
374.688	94.72
374.898	117.25
375.109	45.57
375.319	55.81
375.53	96.77
375.74	86.53
375.951	78.33
376.161	59.9
376.372	61.95
376.582	143.87
376.793	41.47
377.003	33.28
377.214	82.43
377.424	92.67
377.635	133.63
377.845	8.7
378.055	102.91
378.266	80.38
378.476	143.87
378.686	33.28
378.897	78.33
379.107	113.15
379.317	70.14
379.528	76.29
379.738	59.9
379.948	64
380.158	64
380.369	45.57
380.579	82.43
380.789	104.96
380.999	64
381.21	78.33
381.42	184.83
381.63	113.15
381.84	160.25
382.05	45.57
382.261	51.71
382.471	102.91
382.681	41.47
382.891	133.63
383.101	74.24
383.311	23.04
383.521	25.09
383.731	64
383.941	117.25
384.151	90.62
384.361	111.1
384.571	117.25
384.781	113.15
384.991	154.11
385.201	88.57
385.411	123.39
385.621	109.05
385.831	68.09
386.041	168.45
386.251	80.38
386.461	98.81
386.671	90.62
386.881	98.81
387.091	115.2
387.301	145.92
387.511	127.49
387.72	84.48
387.93	164.35
388.14	119.29
388.35	57.86
388.56	150.01
388.769	100.86
388.979	96.77
389.189	78.33
389.399	145.92
389.609	41.47
389.818	123.39
390.028	94.72
390.238	90.62
390.447	43.52
390.657	160.25
390.867	113.15
391.076	123.39
391.286	98.81
391.496	82.43
391.705	121.34
391.915	76.29
392.125	119.29
392.334	57.86
392.544	100.86
392.753	82.43
392.963	37.38
393.172	35.33
393.382	115.2
393.591	121.34
393.801	141.82
394.01	195.07
394.22	152.06
394.429	111.1
394.639	98.81
394.848	111.1
395.058	166.4
395.267	82.43
395.477	127.49
395.686	117.25
395.895	84.48
396.105	176.64
396.314	64
396.524	186.88
396.733	174.59
396.942	135.68
397.152	131.58
397.361	166.4
397.57	127.49
397.78	115.2
397.989	156.16
398.198	197.12
398.407	86.53
398.617	86.53
398.826	133.63
399.035	98.81
399.244	131.58
399.453	168.45
399.663	129.53
399.872	199.16
400.081	184.83
400.29	195.07
400.499	78.33
400.708	145.92
400.917	115.2
401.127	205.31
401.336	90.62
401.545	139.77
401.754	123.39
401.963	221.69
402.172	100.86
402.381	203.26
402.59	158.21
402.799	193.02
403.008	197.12
403.217	215.55
403.426	113.15
403.635	127.49
403.844	184.83
404.053	184.83
404.262	176.64
404.471	197.12
404.68	184.83
404.888	133.63
405.097	197.12
405.306	170.49
405.515	143.87
405.724	201.21
405.933	250.36
406.142	199.16
406.35	147.97
406.559	297.47
406.768	211.45
406.977	309.76
407.185	285.18
407.394	256.51
407.603	223.74
407.812	307.71
408.02	363
408.229	195.07
408.438	330.23
408.646	356.86
408.855	293.37
409.064	383.48
409.272	383.48
409.481	344.57
409.69	475.64
409.898	371.19
410.107	436.73
410.315	465.4
410.524	416.25
410.733	473.59
410.941	377.34
411.15	506.36
411.358	528.89
411.567	530.94
411.775	573.94
411.984	522.74
412.192	596.47
412.401	623.09
412.609	655.86
412.818	674.29
413.026	700.92
413.234	666.1
413.443	737.78
413.651	672.25
413.86	756.21
414.068	858.61
414.276	829.94
414.485	809.46
414.693	836.08
414.901	1022.45
415.11	965.11
415.318	932.34
415.526	1057.26
415.734	932.34
415.943	1049.07
416.151	1159.66
416.359	1061.36
416.567	1155.57
416.776	1229.29
416.984	1274.35
417.192	1343.98
417.4	1376.75
417.608	1341.93
417.817	1319.4
418.025	1421.8
418.233	1624.55
418.441	1589.74
418.649	1622.5
418.857	1714.66
419.065	1776.1
419.273	1843.68
419.481	1827.3
419.689	1946.08
419.897	2050.53
420.105	2083.3
420.313	2093.54
420.521	2228.7
420.729	2109.92
420.937	2427.35
421.145	2396.64
421.353	2570.71
421.561	2656.73
421.769	2726.36
421.977	2738.65
422.185	2804.18
422.393	2871.76
422.601	3013.07
422.809	3107.28
423.017	3205.58
423.224	3228.11
423.432	3486.15
423.64	3402.19
423.848	3699.14
424.056	3539.4
424.263	3865.03
424.471	3944.9
424.679	4059.59
424.887	4233.66
425.094	4508.09
425.302	4407.74
425.51	4499.9
425.718	4719.03
425.925	4682.17
426.133	4831.67
426.341	5116.34
426.548	5464.49
426.756	5401.01
426.964	5542.32
427.171	5890.47
427.379	5837.22
427.586	6011.3
427.794	6261.15
428.001	6506.91
428.209	6787.48
428.417	6607.26
428.624	7149.97
428.832	7186.83
429.039	6982.04
429.247	7197.07
429.454	7803.27
429.662	8348.03
429.869	7723.4
430.076	8399.23
430.284	7958.92
430.491	8423.81
430.699	8767.87
430.906	8886.65
431.114	9038.2
431.321	9345.39
431.528	9525.61
431.736	10389.86
431.943	10652
432.15	10314.08
432.358	10402.15
432.565	11094.36
432.772	10961.24
432.979	11530.58
433.187	11600.21
433.394	11665.74
433.601	12749.12
433.808	12755.26
434.016	12431.68
434.223	13148.47
434.43	14027.05
434.637	13580.59
434.844	14346.53
435.052	14733.6
435.259	14752.03
435.466	14895.39
435.673	14756.13
435.88	15507.73
436.087	16513.28
436.294	16290.06
436.501	15982.86
436.708	16462.08
436.915	16992.51
437.122	17977.58
437.329	17813.74
437.537	18219.24
437.743	18733.28
437.95	18706.66
438.157	19402.97
438.364	20199.63
438.571	20213.96
438.778	20203.72
438.985	22331.56
439.192	20947.14
439.399	22132.91
439.606	21205.18
439.813	22632.61
440.02	23933.07
440.227	23240.86
440.433	23160.99
440.64	24156.3
440.847	23988.37
441.054	24516.75
441.261	26169.46
441.467	25731.19
441.674	26519.66
441.881	27279.46
442.088	27281.5
442.294	27007.08
442.501	27353.18
442.708	28305.49
442.914	29472.83
443.121	30697.52
443.328	29972.53
443.534	31664.16
443.741	31234.08
443.948	30896.17
444.154	32981
444.361	32628.75
444.568	32905.23
444.774	33210.37
444.981	33599.49
445.187	34306.04
445.394	35411.94
445.6	35229.67
445.807	38674.35
446.013	36872.14
446.22	37441.48
446.426	39446.44
446.633	39311.27
446.839	40910.74
447.046	38946.73
447.252	41129.87
447.459	40896.4
447.665	41449.35
447.871	42876.79
448.078	44898.13
448.284	42712.95
448.491	44060.51
448.697	45774.66
448.903	46602.04
449.11	46311.23
449.316	45533
449.522	46626.62
449.728	47939.36
449.935	47834.92
450.141	48195.36
450.347	49194.77
450.553	47761.19
450.76	48664.35
450.966	49854.22
451.172	49362.7
451.378	50718.46
451.584	49432.33
451.791	50751.23
451.997	50794.23
452.203	51394.29
452.409	51304.18
452.615	51074.8
452.821	49372.94
453.027	48787.22
453.233	51394.29
453.44	49876.74
453.646	49878.79
453.852	50407.17
454.058	50835.19
454.264	49190.67
454.47	50583.29
454.676	48973.59
454.882	51066.61
455.088	46741.3
455.294	47216.43
455.5	47861.54
455.705	48656.15
455.911	46444.35
456.117	45664.07
456.323	45078.35
456.529	43061.1
456.735	45014.87
456.941	43603.81
457.147	43022.19
457.352	41660.29
457.558	41273.23
457.764	41633.67
457.97	40630.16
458.176	39806.88
458.381	39708.58
458.587	38006.72
458.793	37752.77
458.999	35764.19
459.204	38666.16
459.41	37277.64
459.616	34605.04
459.821	35342.31
460.027	34981.87
460.233	33787.9
460.438	32725
460.644	32999.43
460.85	31131.68
461.055	30797.87
461.261	30777.39
461.466	28364.88
461.672	27406.43
461.878	29755.45
462.083	27492.44
462.289	27342.94
462.494	27070.56
462.7	25360.51
462.905	25092.23
463.111	25833.59
463.316	26126.45
463.522	25325.69
463.727	25438.33
463.932	25716.86
464.138	25051.27
464.343	25084.03
464.549	24451.21
464.754	25421.95
464.959	25129.09
465.165	24852.61
465.37	24002.71
465.575	23412.89
465.781	24049.81
465.986	24375.44
466.191	23617.69
466.397	23009.44
466.602	21571.77
466.807	22601.9
467.012	22790.31
467.218	22882.47
467.423	22270.12
