Data from USB4F104151__68__12-36-36-534.txt Node

Date: Fri Mar 14 12:36:36 EDT 2025
User: louis
Spectrometer: USB4F10415
Trigger mode: 4
Integration Time (sec): 2.000000E-2
Scans to average: 1
Electric dark correction enabled: true
Nonlinearity correction enabled: false
Boxcar width: 0
XAxis mode: Wavelengths
Number of Pixels in Spectrum: 3648
>>>>>Begin Spectral Data<<<<<
178.204	-68.95
178.424	-68.95
178.644	-68.95
178.864	-34.13
179.084	-95.57
179.304	-7.51
179.524	-81.24
179.744	33.45
179.964	68.27
180.184	-27.99
180.404	-3.41
180.624	-23.89
180.844	55.98
181.064	-36.18
181.283	0.68
181.503	27.31
181.723	-5.46
181.943	-3.41
182.163	47.79
182.383	27.31
182.602	27.31
182.822	35.5
183.042	-7.51
183.262	19.11
183.482	74.41
183.701	29.35
183.921	-19.8
184.141	-38.23
184.361	53.93
184.58	64.17
184.8	53.93
185.02	58.03
185.239	76.46
185.459	19.11
185.679	82.6
185.898	33.45
186.118	66.22
186.338	68.27
186.557	58.03
186.777	43.69
186.997	47.79
187.216	-15.7
187.436	51.88
187.655	88.75
187.875	17.07
188.095	27.31
188.314	78.51
188.534	60.07
188.753	47.79
188.973	39.59
189.192	-13.65
189.412	0.68
189.631	72.36
189.851	-15.7
190.07	8.87
190.29	29.35
190.509	4.78
190.729	45.74
190.948	19.11
191.168	109.22
191.387	17.07
191.607	62.12
191.826	12.97
192.045	117.42
192.265	103.08
192.484	-32.08
192.704	55.98
192.923	31.4
193.142	70.31
193.362	64.17
193.581	76.46
193.8	37.55
194.02	80.55
194.239	45.74
194.458	-1.37
194.678	68.27
194.897	-1.37
195.116	78.51
195.335	23.21
195.555	133.8
195.774	31.4
195.993	68.27
196.212	17.07
196.432	88.75
196.651	31.4
196.87	55.98
197.089	17.07
197.308	60.07
197.528	21.16
197.747	23.21
197.966	82.6
198.185	31.4
198.404	21.16
198.623	-21.85
198.842	47.79
199.062	53.93
199.281	43.69
199.5	47.79
199.719	-23.89
199.938	37.55
200.157	66.22
200.376	47.79
200.595	66.22
200.814	31.4
201.033	86.7
201.252	74.41
201.471	60.07
201.69	19.11
201.909	39.59
202.128	21.16
202.347	62.12
202.566	12.97
202.785	17.07
203.004	33.45
203.223	86.7
203.442	49.83
203.661	-21.85
203.879	82.6
204.098	103.08
204.317	51.88
204.536	21.16
204.755	15.02
204.974	47.79
205.193	51.88
205.411	107.18
205.63	53.93
205.849	78.51
206.068	35.5
206.287	49.83
206.505	-3.41
206.724	72.36
206.943	12.97
207.162	88.75
207.381	21.16
207.599	49.83
207.818	15.02
208.037	90.79
208.255	-30.04
208.474	74.41
208.693	-17.75
208.911	4.78
209.13	37.55
209.349	70.31
209.567	80.55
209.786	84.65
210.005	58.03
210.223	8.87
210.442	35.5
210.661	10.92
210.879	10.92
211.098	-5.46
211.316	15.02
211.535	49.83
211.753	23.21
211.972	80.55
212.191	21.16
212.409	-48.47
212.628	10.92
212.846	64.17
213.065	-30.04
213.283	127.66
213.502	119.46
213.72	10.92
213.938	-21.85
214.157	19.11
214.375	49.83
214.594	43.69
214.812	23.21
215.031	-3.41
215.249	58.03
215.467	72.36
215.686	-36.18
215.904	60.07
216.122	55.98
216.341	43.69
216.559	119.46
216.778	74.41
216.996	55.98
217.214	21.16
217.432	64.17
217.651	-30.04
217.869	-13.65
218.087	121.51
218.306	-27.99
218.524	10.92
218.742	2.73
218.96	47.79
219.179	47.79
219.397	66.22
219.615	55.98
219.833	72.36
220.051	-17.75
220.27	78.51
220.488	25.26
220.706	19.11
220.924	45.74
221.142	-5.46
221.36	103.08
221.578	103.08
221.796	84.65
222.015	27.31
222.233	23.21
222.451	131.75
222.669	-5.46
222.887	39.59
223.105	-34.13
223.323	78.51
223.541	-64.85
223.759	41.64
223.977	72.36
224.195	27.31
224.413	74.41
224.631	66.22
224.849	86.7
225.067	70.31
225.285	51.88
225.503	62.12
225.721	45.74
225.939	4.78
226.157	78.51
226.375	146.09
226.592	39.59
226.81	78.51
227.028	62.12
227.246	60.07
227.464	31.4
227.682	78.51
227.9	129.7
228.117	47.79
228.335	31.4
228.553	-27.99
228.771	96.94
228.989	86.7
229.206	58.03
229.424	58.03
229.642	-13.65
229.86	0.68
230.077	103.08
230.295	66.22
230.513	53.93
230.731	19.11
230.948	27.31
231.166	33.45
231.384	47.79
231.601	-7.51
231.819	55.98
232.037	-1.37
232.254	-9.56
232.472	94.89
232.689	-9.56
232.907	101.03
233.125	8.87
233.342	19.11
233.56	-5.46
233.777	74.41
233.995	80.55
234.213	74.41
234.43	27.31
234.648	135.85
234.865	35.5
235.083	74.41
235.3	74.41
235.518	66.22
235.735	88.75
235.953	105.13
236.17	72.36
236.388	86.7
236.605	-58.71
236.822	88.75
237.04	25.26
237.257	88.75
237.475	-7.51
237.692	-27.99
237.909	-5.46
238.127	21.16
238.344	78.51
238.562	62.12
238.779	-1.37
238.996	76.46
239.214	39.59
239.431	27.31
239.648	88.75
239.865	60.07
240.083	109.22
240.3	19.11
240.517	2.73
240.735	-32.08
240.952	68.27
241.169	-34.13
241.386	103.08
241.603	45.74
241.821	-52.56
242.038	111.27
242.255	58.03
242.472	-5.46
242.689	4.78
242.907	43.69
243.124	6.83
243.341	72.36
243.558	70.31
243.775	96.94
243.992	-1.37
244.209	80.55
244.426	21.16
244.643	47.79
244.86	51.88
245.078	98.99
245.295	23.21
245.512	70.31
245.729	-40.28
245.946	43.69
246.163	21.16
246.38	98.99
246.597	51.88
246.814	27.31
247.031	72.36
247.248	55.98
247.464	0.68
247.681	37.55
247.898	23.21
248.115	12.97
248.332	-11.61
248.549	72.36
248.766	55.98
248.983	53.93
249.2	-11.61
249.417	8.87
249.633	12.97
249.85	70.31
250.067	55.98
250.284	92.84
250.501	45.74
250.717	105.13
250.934	29.35
251.151	-7.51
251.368	21.16
251.585	-27.99
251.801	-15.7
252.018	80.55
252.235	62.12
252.451	-68.95
252.668	-11.61
252.885	0.68
253.102	27.31
253.318	49.83
253.535	-3.41
253.752	37.55
253.968	-19.8
254.185	37.55
254.401	70.31
254.618	92.84
254.835	-13.65
255.051	43.69
255.268	105.13
255.484	43.69
255.701	31.4
255.917	154.28
256.134	-19.8
256.351	109.22
256.567	2.73
256.784	35.5
257	-54.61
257.217	70.31
257.433	88.75
257.65	55.98
257.866	105.13
258.082	55.98
258.299	-15.7
258.515	96.94
258.732	37.55
258.948	51.88
259.165	-1.37
259.381	68.27
259.597	6.83
259.814	107.18
260.03	27.31
260.246	109.22
260.463	64.17
260.679	-7.51
260.895	33.45
261.112	-3.41
261.328	8.87
261.544	4.78
261.761	107.18
261.977	62.12
262.193	58.03
262.409	158.38
262.626	37.55
262.842	-11.61
263.058	39.59
263.274	37.55
263.49	47.79
263.707	90.79
263.923	90.79
264.139	41.64
264.355	119.46
264.571	78.51
264.787	21.16
265.004	82.6
265.22	80.55
265.436	29.35
265.652	43.69
265.868	109.22
266.084	33.45
266.3	125.61
266.516	35.5
266.732	33.45
266.948	49.83
267.164	29.35
267.38	25.26
267.596	35.5
267.812	-58.71
268.028	15.02
268.244	47.79
268.46	152.23
268.676	37.55
268.892	12.97
269.108	47.79
269.324	23.21
269.54	-15.7
269.756	45.74
269.972	21.16
270.188	62.12
270.403	15.02
270.619	70.31
270.835	74.41
271.051	94.89
271.267	10.92
271.483	17.07
271.698	148.14
271.914	12.97
272.13	-46.42
272.346	-56.66
272.562	47.79
272.777	82.6
272.993	103.08
273.209	55.98
273.425	82.6
273.64	49.83
273.856	109.22
274.072	41.64
274.287	29.35
274.503	94.89
274.719	47.79
274.934	23.21
275.15	15.02
275.366	23.21
275.581	17.07
275.797	12.97
276.012	70.31
276.228	92.84
276.444	-1.37
276.659	101.03
276.875	-40.28
277.09	84.65
277.306	33.45
277.521	47.79
277.737	0.68
277.952	-5.46
278.168	107.18
278.383	82.6
278.599	43.69
278.814	78.51
279.03	66.22
279.245	35.5
279.461	72.36
279.676	4.78
279.892	6.83
280.107	15.02
280.322	55.98
280.538	76.46
280.753	15.02
280.969	41.64
281.184	115.37
281.399	113.32
281.615	19.11
281.83	90.79
282.045	-3.41
282.26	76.46
282.476	37.55
282.691	51.88
282.906	53.93
283.122	2.73
283.337	51.88
283.552	39.59
283.767	55.98
283.983	82.6
284.198	-9.56
284.413	113.32
284.628	55.98
284.843	70.31
285.058	33.45
285.274	53.93
285.489	41.64
285.704	43.69
285.919	129.7
286.134	60.07
286.349	70.31
286.564	-13.65
286.779	64.17
286.995	70.31
287.21	6.83
287.425	51.88
287.64	60.07
287.855	27.31
288.07	62.12
288.285	68.27
288.5	29.35
288.715	103.08
288.93	80.55
289.145	53.93
289.36	66.22
289.575	12.97
289.79	58.03
290.004	33.45
290.219	131.75
290.434	51.88
290.649	51.88
290.864	10.92
291.079	23.21
291.294	74.41
291.509	88.75
291.724	80.55
291.938	15.02
292.153	27.31
292.368	49.83
292.583	25.26
292.798	-9.56
293.012	166.57
293.227	98.99
293.442	76.46
293.657	90.79
293.871	68.27
294.086	6.83
294.301	37.55
294.516	133.8
294.73	12.97
294.945	8.87
295.16	10.92
295.374	78.51
295.589	72.36
295.804	21.16
296.018	78.51
296.233	51.88
296.447	31.4
296.662	-15.7
296.877	64.17
297.091	139.94
297.306	21.16
297.52	8.87
297.735	60.07
297.949	94.89
298.164	17.07
298.378	43.69
298.593	66.22
298.807	2.73
299.022	6.83
299.236	25.26
299.451	70.31
299.665	-13.65
299.88	101.03
300.094	60.07
300.309	111.27
300.523	68.27
300.737	41.64
300.952	60.07
301.166	19.11
301.381	53.93
301.595	47.79
301.809	37.55
302.024	78.51
302.238	-44.37
302.452	49.83
302.667	98.99
302.881	19.11
303.095	101.03
303.309	4.78
303.524	43.69
303.738	25.26
303.952	31.4
304.166	76.46
304.381	62.12
304.595	43.69
304.809	33.45
305.023	84.65
305.237	39.59
305.452	72.36
305.666	64.17
305.88	88.75
306.094	25.26
306.308	68.27
306.522	68.27
306.736	78.51
306.95	58.03
307.164	92.84
307.379	41.64
307.593	119.46
307.807	-17.75
308.021	68.27
308.235	35.5
308.449	21.16
308.663	70.31
308.877	43.69
309.091	72.36
309.305	8.87
309.519	6.83
309.733	4.78
309.947	-9.56
310.161	78.51
310.374	43.69
310.588	80.55
310.802	72.36
311.016	64.17
311.23	37.55
311.444	80.55
311.658	76.46
311.872	68.27
312.085	88.75
312.299	66.22
312.513	39.59
312.727	33.45
312.941	27.31
313.154	43.69
313.368	-1.37
313.582	117.42
313.796	58.03
314.009	101.03
314.223	31.4
314.437	58.03
314.651	27.31
314.864	35.5
315.078	33.45
315.292	21.16
315.505	98.99
315.719	109.22
315.933	39.59
316.146	33.45
316.36	72.36
316.573	64.17
316.787	94.89
317.001	25.26
317.214	76.46
317.428	98.99
317.641	10.92
317.855	90.79
318.068	88.75
318.282	64.17
318.495	35.5
318.709	4.78
318.922	72.36
319.136	74.41
319.349	47.79
319.563	96.94
319.776	27.31
319.99	53.93
320.203	60.07
320.417	4.78
320.63	41.64
320.843	109.22
321.057	27.31
321.27	88.75
321.483	60.07
321.697	10.92
321.91	31.4
322.124	27.31
322.337	51.88
322.55	19.11
322.763	29.35
322.977	68.27
323.19	88.75
323.403	86.7
323.617	29.35
323.83	31.4
324.043	10.92
324.256	-15.7
324.469	80.55
324.683	78.51
324.896	60.07
325.109	29.35
325.322	37.55
325.535	70.31
325.748	33.45
325.962	76.46
326.175	12.97
326.388	37.55
326.601	-11.61
326.814	74.41
327.027	88.75
327.24	92.84
327.453	131.75
327.666	72.36
327.879	84.65
328.092	96.94
328.305	90.79
328.518	21.16
328.731	60.07
328.944	58.03
329.157	-40.28
329.37	74.41
329.583	80.55
329.796	80.55
330.009	49.83
330.222	111.27
330.435	115.37
330.648	53.93
330.861	66.22
331.073	94.89
331.286	98.99
331.499	86.7
331.712	39.59
331.925	92.84
332.138	74.41
332.35	37.55
332.563	33.45
332.776	125.61
332.989	53.93
333.202	78.51
333.414	12.97
333.627	62.12
333.84	90.79
334.053	82.6
334.265	27.31
334.478	41.64
334.691	-40.28
334.903	23.21
335.116	74.41
335.329	19.11
335.541	78.51
335.754	86.7
335.966	15.02
336.179	139.94
336.392	33.45
336.604	19.11
336.817	146.09
337.029	27.31
337.242	2.73
337.454	33.45
337.667	15.02
337.88	109.22
338.092	84.65
338.305	58.03
338.517	70.31
338.729	101.03
338.942	139.94
339.154	98.99
339.367	53.93
339.579	185
339.792	82.6
340.004	101.03
340.217	41.64
340.429	31.4
340.641	25.26
340.854	72.36
341.066	-1.37
341.278	45.74
341.491	127.66
341.703	107.18
341.915	29.35
342.128	80.55
342.34	43.69
342.552	27.31
342.764	84.65
342.977	39.59
343.189	25.26
343.401	101.03
343.613	107.18
343.826	78.51
344.038	8.87
344.25	135.85
344.462	92.84
344.674	6.83
344.886	37.55
345.099	129.7
345.311	62.12
345.523	10.92
345.735	-5.46
345.947	152.23
346.159	86.7
346.371	127.66
346.583	39.59
346.795	55.98
347.007	41.64
347.219	25.26
347.431	107.18
347.643	41.64
347.855	12.97
348.067	94.89
348.279	15.02
348.491	76.46
348.703	33.45
348.915	17.07
349.127	43.69
349.339	115.37
349.551	-1.37
349.763	62.12
349.975	84.65
350.187	90.79
350.399	92.84
350.61	96.94
350.822	96.94
351.034	88.75
351.246	98.99
351.458	86.7
351.669	105.13
351.881	80.55
352.093	41.64
352.305	150.18
352.517	51.88
352.728	113.32
352.94	23.21
353.152	113.32
353.363	6.83
353.575	60.07
353.787	66.22
353.999	47.79
354.21	172.71
354.422	49.83
354.633	31.4
354.845	107.18
355.057	19.11
355.268	72.36
355.48	45.74
355.692	49.83
355.903	55.98
356.115	78.51
356.326	103.08
356.538	62.12
356.749	66.22
356.961	125.61
357.172	-1.37
357.384	-1.37
357.595	76.46
357.807	94.89
358.018	37.55
358.23	111.27
358.441	109.22
358.653	55.98
358.864	51.88
359.075	144.04
359.287	82.6
359.498	125.61
359.709	109.22
359.921	39.59
360.132	72.36
360.344	51.88
360.555	-13.65
360.766	55.98
360.977	23.21
361.189	51.88
361.4	105.13
361.611	55.98
361.823	-7.51
362.034	96.94
362.245	21.16
362.456	45.74
362.667	72.36
362.879	-1.37
363.09	78.51
363.301	66.22
363.512	98.99
363.723	64.17
363.935	51.88
364.146	58.03
364.357	37.55
364.568	76.46
364.779	64.17
364.99	84.65
365.201	92.84
365.412	68.27
365.623	86.7
365.834	115.37
366.045	78.51
366.256	84.65
366.467	156.33
366.678	76.46
366.889	41.64
367.1	107.18
367.311	84.65
367.522	-13.65
367.733	55.98
367.944	92.84
368.155	55.98
368.366	115.37
368.577	117.42
368.788	47.79
368.999	76.46
369.209	121.51
369.42	86.7
369.631	127.66
369.842	35.5
370.053	88.75
370.264	135.85
370.474	72.36
370.685	109.22
370.896	80.55
371.107	86.7
371.317	72.36
371.528	123.56
371.739	84.65
371.95	133.8
372.16	68.27
372.371	55.98
372.582	60.07
372.792	98.99
373.003	144.04
373.214	47.79
373.424	90.79
373.635	170.66
373.846	76.46
374.056	53.93
374.267	94.89
374.477	82.6
374.688	84.65
374.898	45.74
375.109	21.16
375.319	107.18
375.53	125.61
375.74	109.22
375.951	98.99
376.161	98.99
376.372	31.4
376.582	82.6
376.793	123.56
377.003	96.94
377.214	88.75
377.424	107.18
377.635	94.89
377.845	94.89
378.055	94.89
378.266	49.83
378.476	94.89
378.686	41.64
378.897	129.7
379.107	78.51
379.317	82.6
379.528	139.94
379.738	111.27
379.948	109.22
380.158	76.46
380.369	76.46
380.579	72.36
380.789	101.03
380.999	-27.99
381.21	94.89
381.42	72.36
381.63	27.31
381.84	103.08
382.05	66.22
382.261	115.37
382.471	105.13
382.681	137.9
382.891	98.99
383.101	150.18
383.311	47.79
383.521	25.26
383.731	129.7
383.941	133.8
384.151	72.36
384.361	113.32
384.571	31.4
384.781	150.18
384.991	82.6
385.201	76.46
385.411	27.31
385.621	55.98
385.831	8.87
386.041	23.21
386.251	125.61
386.461	78.51
386.671	76.46
386.881	60.07
387.091	131.75
387.301	131.75
387.511	94.89
387.72	76.46
387.93	49.83
388.14	92.84
388.35	125.61
388.56	113.32
388.769	141.99
388.979	6.83
389.189	86.7
389.399	78.51
389.609	123.56
389.818	84.65
390.028	96.94
390.238	78.51
390.447	51.88
390.657	129.7
390.867	86.7
391.076	6.83
391.286	166.57
391.496	121.51
391.705	137.9
391.915	103.08
392.125	64.17
392.334	96.94
392.544	105.13
392.753	121.51
392.963	162.47
393.172	131.75
393.382	62.12
393.591	201.38
393.801	92.84
394.01	178.86
394.22	162.47
394.429	43.69
394.639	66.22
394.848	148.14
395.058	139.94
395.267	98.99
395.477	170.66
395.686	125.61
395.895	174.76
396.105	201.38
396.314	70.31
396.524	123.56
396.733	107.18
396.942	217.77
397.152	162.47
397.361	86.7
397.57	148.14
397.78	174.76
397.989	189.1
398.198	248.49
398.407	123.56
398.617	176.81
398.826	137.9
399.035	162.47
399.244	121.51
399.453	213.67
399.663	88.75
399.872	182.95
400.081	123.56
400.29	158.38
400.499	221.86
400.708	205.48
400.917	164.52
401.127	170.66
401.336	137.9
401.545	168.62
401.754	236.2
401.963	271.01
402.172	150.18
402.381	162.47
402.59	230.06
402.799	195.24
403.008	205.48
403.217	146.09
403.426	180.9
403.635	228.01
403.844	195.24
404.053	158.38
404.262	170.66
404.471	244.39
404.68	240.29
404.888	205.48
405.097	225.96
405.306	297.64
405.515	266.92
405.724	273.06
405.933	299.69
406.142	260.77
406.35	309.93
406.559	307.88
406.768	340.65
406.977	301.73
407.185	287.4
407.394	244.39
407.603	236.2
407.812	309.93
408.02	426.66
408.229	381.6
408.438	279.21
408.646	330.41
408.855	309.93
409.064	385.7
409.272	391.84
409.481	395.94
409.69	453.28
409.898	451.24
410.107	565.92
410.315	475.81
410.524	496.29
410.733	520.87
410.941	580.26
411.15	563.87
411.358	504.48
411.567	617.12
411.775	619.17
411.984	682.66
412.192	658.08
412.401	717.47
412.609	617.12
412.818	690.85
413.026	793.25
413.234	746.14
413.443	672.42
413.651	707.23
413.86	803.49
414.068	848.54
414.276	952.99
414.485	899.74
414.693	952.99
414.901	1018.52
415.11	1022.62
415.318	934.56
415.526	1133.21
415.734	1141.4
415.943	1198.74
416.151	1145.5
416.359	1198.74
416.567	1276.57
416.776	1469.08
416.984	1370.77
417.192	1430.16
417.4	1430.16
417.608	1479.32
417.817	1538.71
418.025	1563.28
418.233	1639.06
418.441	1843.85
418.649	1729.17
418.857	1929.87
419.065	1833.61
419.273	1790.61
419.481	1931.92
419.689	2187.91
419.897	2134.67
420.105	2192.01
420.313	2386.57
420.521	2368.13
420.729	2405
420.937	2542.21
421.145	2718.34
421.353	2716.29
421.561	2863.74
421.769	2873.98
421.977	3013.24
422.185	3078.78
422.393	3193.47
422.601	3431.03
422.809	3445.37
423.017	3498.61
423.224	3480.18
423.432	3785.33
423.64	3775.09
423.848	3983.98
424.056	3943.02
424.263	4211.31
424.471	4246.12
424.679	4246.12
424.887	4590.18
425.094	4692.58
425.302	4676.2
425.51	4969.05
425.718	5065.31
425.925	5032.54
426.133	5253.72
426.341	5456.47
426.548	5767.76
426.756	5605.97
426.964	5818.96
427.171	6206.03
427.379	6470.22
427.586	6470.22
427.794	6742.6
428.001	7068.22
428.209	7383.61
428.417	7187.01
428.624	7756.34
428.832	7674.42
429.039	7735.86
429.247	7678.52
429.454	8542.76
429.662	8997.41
429.869	8454.7
430.076	9130.53
430.284	8751.65
430.491	9067.04
430.699	9542.17
430.906	9718.29
431.114	9816.6
431.321	10258.96
431.528	10430.99
431.736	10832.39
431.943	11547.13
432.15	11129.34
432.358	11360.77
432.565	11850.23
432.772	11993.59
432.979	12483.05
433.187	12538.35
433.394	12620.27
433.601	13621.72
433.808	13486.56
434.016	13597.15
434.223	14139.86
434.43	15135.17
434.637	14809.54
434.844	15630.78
435.052	15974.84
435.259	15651.26
435.466	16011.7
435.673	15841.72
435.88	16685.48
436.087	17818.01
436.294	17674.65
436.501	17478.05
436.708	17764.76
436.915	18422.16
437.122	19231.11
437.329	19267.97
437.537	19714.43
437.743	20302.2
437.95	19732.86
438.157	20584.82
438.364	21750.11
438.571	21453.16
438.778	21719.39
438.985	23961.92
439.192	22901.07
439.399	23509.32
439.606	22993.23
439.813	24254.78
440.02	25827.62
440.227	25565.48
440.433	25067.82
440.64	25983.26
440.847	25667.87
441.054	26448.15
441.261	27977.98
441.467	27617.54
441.674	28160.25
441.881	29751.52
442.088	29176.05
442.294	29075.69
442.501	29755.62
442.708	30580.95
442.914	31838.4
443.121	32800.95
443.328	32389.31
443.534	34261.15
443.741	33573.03
443.948	32923.83
444.154	35197.07
444.361	35047.57
444.568	35350.67
444.774	35238.03
444.981	35532.94
445.187	36659.32
445.394	38348.9
445.6	37845.1
445.807	41539.63
446.013	39450.7
446.22	40403.01
446.426	41842.73
446.633	42119.21
446.839	43534.35
447.046	41936.94
447.252	44214.28
447.459	44296.2
447.665	44259.34
447.871	46000.11
448.078	48109.52
448.284	45434.87
448.491	47085.53
448.697	48510.92
448.903	49754.04
449.11	49620.92
449.316	48799.68
449.522	50177.96
449.728	50870.18
449.935	51312.54
450.141	51371.93
450.347	52514.7
450.553	50720.68
450.76	51369.88
450.966	53016.45
451.172	52582.28
451.378	54011.76
451.584	52955.01
451.791	54028.15
451.997	53718.9
452.203	55144.29
452.409	55021.41
452.615	54507.37
452.821	52881.28
453.027	52330.38
453.233	54660.97
453.44	52739.97
453.646	53428.09
453.852	53933.94
454.058	54153.07
454.264	52723.59
454.47	53585.78
454.676	52545.42
454.882	54585.19
455.088	49639.35
455.294	50503.59
455.5	51003.3
455.705	51459.99
455.911	49838
456.117	48721.86
456.323	48580.55
456.529	45893.61
456.735	47683.54
456.941	46694.37
457.147	45897.71
457.352	44558.34
457.558	43925.52
457.764	43745.3
457.97	43128.86
458.176	42395.68
458.381	42301.48
458.587	40007.75
458.793	40476.74
458.999	38578.27
459.204	41650.22
459.41	40073.29
459.616	37003.38
459.821	37441.65
460.027	36896.89
460.233	36214.91
460.438	34717.85
460.644	35051.67
460.85	33372.33
461.055	33020.08
461.261	32860.34
461.466	30265.56
461.672	29448.43
461.878	31643.85
462.083	29495.53
462.289	28727.54
462.494	28721.4
462.7	27562.25
462.905	26661.14
463.111	27584.77
463.316	27934.98
463.522	26814.74
463.727	27216.14
463.932	26833.17
464.138	26870.03
464.343	27072.78
464.549	26136.86
464.754	27076.88
464.959	26362.14
465.165	26499.35
465.37	25334.06
465.575	24817.97
465.781	25874.72
465.986	25790.75
466.191	24647.99
466.397	24617.27
