Data from USB4F104151__48__12-36-06-859.txt Node

Date: Fri Mar 14 12:36:06 EDT 2025
User: louis
Spectrometer: USB4F10415
Trigger mode: 4
Integration Time (sec): 2.000000E-2
Scans to average: 1
Electric dark correction enabled: true
Nonlinearity correction enabled: false
Boxcar width: 0
XAxis mode: Wavelengths
Number of Pixels in Spectrum: 3648
>>>>>Begin Spectral Data<<<<<
178.204	-164.01
178.424	-164.01
178.644	-164.01
178.864	-118.95
179.084	-96.43
179.304	42.84
179.524	-30.89
179.744	-49.32
179.964	28.5
180.184	26.45
180.404	-34.99
180.624	44.88
180.844	28.5
181.064	-2.22
181.283	-16.55
181.503	-26.79
181.723	-10.41
181.943	1.88
182.163	98.13
182.383	-0.17
182.602	51.03
182.822	44.88
183.042	5.97
183.262	10.07
183.482	44.88
183.701	34.64
183.921	3.93
184.141	5.97
184.361	10.07
184.58	42.84
184.8	83.8
185.02	22.36
185.239	24.4
185.459	-24.75
185.679	20.31
185.898	-32.94
186.118	59.22
186.338	55.12
186.557	42.84
186.777	26.45
186.997	57.17
187.216	34.64
187.436	87.89
187.655	18.26
187.875	3.93
188.095	26.45
188.314	59.22
188.534	40.79
188.753	34.64
188.973	75.6
189.192	108.37
189.412	30.55
189.631	-41.13
189.851	100.18
190.07	44.88
190.29	38.74
190.509	32.6
190.729	44.88
190.948	81.75
191.168	147.28
191.387	5.97
191.607	32.6
191.826	34.64
192.045	79.7
192.265	-4.27
192.484	71.51
192.704	-12.46
192.923	-16.55
193.142	65.36
193.362	-28.84
193.581	69.46
193.8	30.55
194.02	-6.31
194.239	-6.31
194.458	67.41
194.678	-24.75
194.897	-18.6
195.116	89.94
195.335	-51.37
195.555	-10.41
195.774	30.55
195.993	24.4
196.212	16.21
196.432	46.93
196.651	3.93
196.87	65.36
197.089	40.79
197.308	100.18
197.528	73.56
197.747	16.21
197.966	38.74
198.185	55.12
198.404	59.22
198.623	16.21
198.842	81.75
199.062	14.17
199.281	65.36
199.5	5.97
199.719	32.6
199.938	14.17
200.157	18.26
200.376	89.94
200.595	14.17
200.814	38.74
201.033	22.36
201.252	77.65
201.471	63.32
201.69	61.27
201.909	18.26
202.128	-14.51
202.347	104.28
202.566	83.8
202.785	-30.89
203.004	-2.22
203.223	118.61
203.442	18.26
203.661	-45.23
203.879	73.56
204.098	30.55
204.317	24.4
204.536	8.02
204.755	16.21
204.974	16.21
205.193	3.93
205.411	57.17
205.63	48.98
205.849	46.93
206.068	57.17
206.287	48.98
206.505	26.45
206.724	53.08
206.943	96.08
207.162	-12.46
207.381	28.5
207.599	18.26
207.818	63.32
208.037	3.93
208.255	-24.75
208.474	65.36
208.693	71.51
208.911	-30.89
209.13	73.56
209.349	71.51
209.567	26.45
209.786	42.84
210.005	34.64
210.223	87.89
210.442	34.64
210.661	8.02
210.879	112.47
211.098	73.56
211.316	-0.17
211.535	71.51
211.753	130.9
211.972	57.17
212.191	34.64
212.409	30.55
212.628	26.45
212.846	-20.65
213.065	-24.75
213.283	26.45
213.502	-45.23
213.72	51.03
213.938	-22.7
214.157	-51.37
214.375	16.21
214.594	-43.18
214.812	-12.46
215.031	65.36
215.249	12.12
215.467	75.6
215.686	-20.65
215.904	116.56
216.122	36.69
216.341	40.79
216.559	36.69
216.778	38.74
216.996	22.36
217.214	-34.99
217.432	16.21
217.651	-32.94
217.869	40.79
218.087	32.6
218.306	40.79
218.524	44.88
218.742	53.08
218.96	-34.99
219.179	73.56
219.397	28.5
219.615	94.04
219.833	61.27
220.051	-0.17
220.27	53.08
220.488	20.31
220.706	79.7
220.924	89.94
221.142	89.94
221.36	-4.27
221.578	16.21
221.796	8.02
222.015	65.36
222.233	51.03
222.451	28.5
222.669	16.21
222.887	46.93
223.105	42.84
223.323	-57.51
223.541	-0.17
223.759	48.98
223.977	-8.36
224.195	28.5
224.413	3.93
224.631	24.4
224.849	18.26
225.067	48.98
225.285	26.45
225.503	-8.36
225.721	16.21
225.939	87.89
226.157	-20.65
226.375	124.76
226.592	-14.51
226.81	59.22
227.028	-16.55
227.246	51.03
227.464	36.69
227.682	55.12
227.9	75.6
228.117	38.74
228.335	79.7
228.553	139.09
228.771	59.22
228.989	85.84
229.206	36.69
229.424	-12.46
229.642	79.7
229.86	-32.94
230.077	30.55
230.295	69.46
230.513	108.37
230.731	32.6
230.948	-2.22
231.166	63.32
231.384	71.51
231.601	55.12
231.819	30.55
232.037	14.17
232.254	-34.99
232.472	53.08
232.689	30.55
232.907	40.79
233.125	57.17
233.342	38.74
233.56	-22.7
233.777	-2.22
233.995	48.98
234.213	85.84
234.43	3.93
234.648	75.6
234.865	51.03
235.083	24.4
235.3	36.69
235.518	59.22
235.735	69.46
235.953	63.32
236.17	-49.32
236.388	5.97
236.605	89.94
236.822	110.42
237.04	30.55
237.257	32.6
237.475	5.97
237.692	26.45
237.909	59.22
238.127	-10.41
238.344	46.93
238.562	55.12
238.779	-18.6
238.996	16.21
239.214	59.22
239.431	26.45
239.648	20.31
239.865	44.88
240.083	18.26
240.3	26.45
240.517	-0.17
240.735	-4.27
240.952	30.55
241.169	40.79
241.386	-30.89
241.603	20.31
241.821	-55.47
242.038	-16.55
242.255	1.88
242.472	18.26
242.689	34.64
242.907	75.6
243.124	87.89
243.341	38.74
243.558	26.45
243.775	-14.51
243.992	20.31
244.209	67.41
244.426	102.23
244.643	18.26
244.86	-18.6
245.078	24.4
245.295	-12.46
245.512	34.64
245.729	36.69
245.946	96.08
246.163	87.89
246.38	-20.65
246.597	-12.46
246.814	10.07
247.031	69.46
247.248	122.71
247.464	28.5
247.681	44.88
247.898	40.79
248.115	22.36
248.332	46.93
248.549	28.5
248.766	57.17
248.983	75.6
249.2	18.26
249.417	32.6
249.633	79.7
249.85	59.22
250.067	55.12
250.284	42.84
250.501	32.6
250.717	-0.17
250.934	-28.84
251.151	-39.08
251.368	46.93
251.585	-75.95
251.801	18.26
252.018	24.4
252.235	42.84
252.451	114.52
252.668	87.89
252.885	22.36
253.102	32.6
253.318	55.12
253.535	20.31
253.752	46.93
253.968	24.4
254.185	20.31
254.401	-2.22
254.618	108.37
254.835	63.32
255.051	46.93
255.268	44.88
255.484	38.74
255.701	-0.17
255.917	79.7
256.134	-4.27
256.351	46.93
256.567	5.97
256.784	102.23
257	-12.46
257.217	55.12
257.433	38.74
257.65	38.74
257.866	51.03
258.082	48.98
258.299	63.32
258.515	-34.99
258.732	-2.22
258.948	-26.79
259.165	-39.08
259.381	46.93
259.597	40.79
259.814	22.36
260.03	28.5
260.246	59.22
260.463	40.79
260.679	63.32
260.895	1.88
261.112	108.37
261.328	-49.32
261.544	10.07
261.761	65.36
261.977	42.84
262.193	-43.18
262.409	22.36
262.626	69.46
262.842	55.12
263.058	-59.56
263.274	28.5
263.49	38.74
263.707	55.12
263.923	83.8
264.139	-80.04
264.355	48.98
264.571	157.52
264.787	1.88
265.004	132.95
265.22	32.6
265.436	28.5
265.652	26.45
265.868	30.55
266.084	-18.6
266.3	-10.41
266.516	38.74
266.732	114.52
266.948	32.6
267.164	-0.17
267.38	1.88
267.596	67.41
267.812	-8.36
268.028	34.64
268.244	20.31
268.46	71.51
268.676	100.18
268.892	24.4
269.108	8.02
269.324	5.97
269.54	81.75
269.756	14.17
269.972	5.97
270.188	104.28
270.403	30.55
270.619	-6.31
270.835	32.6
271.051	28.5
271.267	18.26
271.483	20.31
271.698	18.26
271.914	-2.22
272.13	34.64
272.346	3.93
272.562	77.65
272.777	67.41
272.993	53.08
273.209	44.88
273.425	-6.31
273.64	10.07
273.856	51.03
274.072	8.02
274.287	34.64
274.503	38.74
274.719	91.99
274.934	1.88
275.15	14.17
275.366	28.5
275.581	30.55
275.797	-51.37
276.012	98.13
276.228	59.22
276.444	44.88
276.659	3.93
276.875	20.31
277.09	34.64
277.306	48.98
277.521	34.64
277.737	63.32
277.952	73.56
278.168	132.95
278.383	5.97
278.599	-6.31
278.814	77.65
279.03	38.74
279.245	130.9
279.461	51.03
279.676	55.12
279.892	-14.51
280.107	-6.31
280.322	20.31
280.538	48.98
280.753	10.07
280.969	67.41
281.184	34.64
281.399	32.6
281.615	-43.18
281.83	20.31
282.045	44.88
282.26	12.12
282.476	28.5
282.691	65.36
282.906	116.56
283.122	48.98
283.337	-47.27
283.552	116.56
283.767	59.22
283.983	69.46
284.198	51.03
284.413	12.12
284.628	18.26
284.843	48.98
285.058	42.84
285.274	73.56
285.489	-24.75
285.704	122.71
285.919	-28.84
286.134	36.69
286.349	85.84
286.564	104.28
286.779	96.08
286.995	16.21
287.21	53.08
287.425	42.84
287.64	20.31
287.855	24.4
288.07	18.26
288.285	108.37
288.5	32.6
288.715	89.94
288.93	53.08
289.145	-32.94
289.36	40.79
289.575	34.64
289.79	14.17
290.004	-12.46
290.219	65.36
290.434	38.74
290.649	12.12
290.864	12.12
291.079	-4.27
291.294	112.47
291.509	46.93
291.724	32.6
291.938	32.6
292.153	12.12
292.368	-14.51
292.583	57.17
292.798	59.22
293.012	65.36
293.227	1.88
293.442	83.8
293.657	81.75
293.871	59.22
294.086	104.28
294.301	79.7
294.516	75.6
294.73	69.46
294.945	-14.51
295.16	12.12
295.374	57.17
295.589	16.21
295.804	-12.46
296.018	16.21
296.233	81.75
296.447	-0.17
296.662	-45.23
296.877	55.12
297.091	-32.94
297.306	77.65
297.52	40.79
297.735	28.5
297.949	63.32
298.164	16.21
298.378	42.84
298.593	28.5
298.807	59.22
299.022	61.27
299.236	30.55
299.451	83.8
299.665	65.36
299.88	34.64
300.094	67.41
300.309	40.79
300.523	-24.75
300.737	100.18
300.952	26.45
301.166	87.89
301.381	-20.65
301.595	69.46
301.809	38.74
302.024	61.27
302.238	46.93
302.452	48.98
302.667	34.64
302.881	65.36
303.095	110.42
303.309	-16.55
303.524	65.36
303.738	28.5
303.952	-6.31
304.166	96.08
304.381	12.12
304.595	16.21
304.809	26.45
305.023	-65.71
305.237	-6.31
305.452	28.5
305.666	75.6
305.88	24.4
306.094	87.89
306.308	67.41
306.522	44.88
306.736	10.07
306.95	14.17
307.164	71.51
307.379	102.23
307.593	30.55
307.807	61.27
308.021	94.04
308.235	75.6
308.449	46.93
308.663	30.55
308.877	98.13
309.091	51.03
309.305	137.04
309.519	-37.03
309.733	67.41
309.947	-34.99
310.161	38.74
310.374	53.08
310.588	73.56
310.802	-2.22
311.016	63.32
311.23	22.36
311.444	77.65
311.658	26.45
311.872	36.69
312.085	73.56
312.299	65.36
312.513	30.55
312.727	20.31
312.941	8.02
313.154	18.26
313.368	44.88
313.582	32.6
313.796	89.94
314.009	-14.51
314.223	20.31
314.437	44.88
314.651	63.32
314.864	28.5
315.078	36.69
315.292	55.12
315.505	32.6
315.719	79.7
315.933	-24.75
316.146	63.32
316.36	22.36
316.573	22.36
316.787	71.51
317.001	110.42
317.214	-43.18
317.428	81.75
317.641	3.93
317.855	71.51
318.068	59.22
318.282	18.26
318.495	-8.36
318.709	75.6
318.922	14.17
319.136	71.51
319.349	124.76
319.563	61.27
319.776	59.22
319.99	24.4
320.203	51.03
320.417	28.5
320.63	16.21
320.843	81.75
321.057	40.79
321.27	98.13
321.483	1.88
321.697	40.79
321.91	16.21
322.124	10.07
322.337	20.31
322.55	69.46
322.763	-22.7
322.977	59.22
323.19	67.41
323.403	-4.27
323.617	24.4
323.83	22.36
324.043	-16.55
324.256	3.93
324.469	-53.42
324.683	75.6
324.896	98.13
325.109	32.6
325.322	59.22
325.535	100.18
325.748	55.12
325.962	89.94
326.175	14.17
326.388	42.84
326.601	24.4
326.814	28.5
327.027	85.84
327.24	71.51
327.453	69.46
327.666	102.23
327.879	71.51
328.092	69.46
328.305	110.42
328.518	24.4
328.731	77.65
328.944	48.98
329.157	59.22
329.37	1.88
329.583	24.4
329.796	-18.6
330.009	36.69
330.222	34.64
330.435	38.74
330.648	22.36
330.861	83.8
331.073	38.74
331.286	73.56
331.499	77.65
331.712	-55.47
331.925	28.5
332.138	40.79
332.35	79.7
332.563	-41.13
332.776	75.6
332.989	40.79
333.202	55.12
333.414	40.79
333.627	32.6
333.84	116.56
334.053	71.51
334.265	36.69
334.478	51.03
334.691	65.36
334.903	118.61
335.116	73.56
335.329	44.88
335.541	48.98
335.754	61.27
335.966	67.41
336.179	28.5
336.392	67.41
336.604	48.98
336.817	5.97
337.029	57.17
337.242	16.21
337.454	79.7
337.667	98.13
337.88	69.46
338.092	69.46
338.305	55.12
338.517	-10.41
338.729	94.04
338.942	91.99
339.154	42.84
339.367	87.89
339.579	36.69
339.792	94.04
340.004	46.93
340.217	40.79
340.429	63.32
340.641	20.31
340.854	-59.56
341.066	-24.75
341.278	83.8
341.491	91.99
341.703	98.13
341.915	-30.89
342.128	57.17
342.34	59.22
342.552	126.8
342.764	102.23
342.977	-6.31
343.189	48.98
343.401	53.08
343.613	46.93
343.826	40.79
344.038	51.03
344.25	36.69
344.462	-6.31
344.674	55.12
344.886	-4.27
345.099	46.93
345.311	-4.27
345.523	16.21
345.735	22.36
345.947	-18.6
346.159	18.26
346.371	-53.42
346.583	79.7
346.795	106.32
347.007	8.02
347.219	73.56
347.431	87.89
347.643	89.94
347.855	30.55
348.067	36.69
348.279	75.6
348.491	59.22
348.703	42.84
348.915	32.6
349.127	3.93
349.339	81.75
349.551	-10.41
349.763	104.28
349.975	96.08
350.187	63.32
350.399	89.94
350.61	40.79
350.822	3.93
351.034	26.45
351.246	79.7
351.458	81.75
351.669	77.65
351.881	10.07
352.093	44.88
352.305	57.17
352.517	59.22
352.728	59.22
352.94	59.22
353.152	173.91
353.363	-43.18
353.575	118.61
353.787	63.32
353.999	5.97
354.21	96.08
354.422	63.32
354.633	71.51
354.845	51.03
355.057	-4.27
355.268	89.94
355.48	48.98
355.692	36.69
355.903	-20.65
356.115	42.84
356.326	-67.75
356.538	34.64
356.749	48.98
356.961	85.84
357.172	34.64
357.384	61.27
357.595	104.28
357.807	55.12
358.018	3.93
358.23	46.93
358.441	83.8
358.653	61.27
358.864	67.41
359.075	24.4
359.287	-12.46
359.498	77.65
359.709	-28.84
359.921	40.79
360.132	22.36
360.344	28.5
360.555	32.6
360.766	98.13
360.977	79.7
361.189	79.7
361.4	106.32
361.611	108.37
361.823	26.45
362.034	10.07
362.245	102.23
362.456	46.93
362.667	61.27
362.879	1.88
363.09	69.46
363.301	34.64
363.512	114.52
363.723	-16.55
363.935	79.7
364.146	63.32
364.357	18.26
364.568	87.89
364.779	57.17
364.99	61.27
365.201	69.46
365.412	10.07
365.623	-45.23
365.834	-30.89
366.045	91.99
366.256	63.32
366.467	3.93
366.678	63.32
366.889	20.31
367.1	106.32
367.311	40.79
367.522	116.56
367.733	40.79
367.944	34.64
368.155	26.45
368.366	87.89
368.577	91.99
368.788	120.66
368.999	32.6
369.209	55.12
369.42	104.28
369.631	130.9
369.842	63.32
370.053	67.41
370.264	51.03
370.474	73.56
370.685	83.8
370.896	73.56
371.107	120.66
371.317	42.84
371.528	116.56
371.739	85.84
371.95	20.31
372.16	61.27
372.371	44.88
372.582	57.17
372.792	77.65
373.003	91.99
373.214	55.12
373.424	63.32
373.635	5.97
373.846	51.03
374.056	57.17
374.267	67.41
374.477	98.13
374.688	104.28
374.898	75.6
375.109	81.75
375.319	79.7
375.53	110.42
375.74	-22.7
375.951	89.94
376.161	30.55
376.372	38.74
376.582	65.36
376.793	71.51
377.003	48.98
377.214	75.6
377.424	51.03
377.635	63.32
377.845	120.66
378.055	22.36
378.266	12.12
378.476	55.12
378.686	87.89
378.897	79.7
379.107	122.71
379.317	-2.22
379.528	69.46
379.738	81.75
379.948	14.17
380.158	40.79
380.369	14.17
380.579	-69.8
380.789	3.93
380.999	28.5
381.21	48.98
381.42	48.98
381.63	42.84
381.84	75.6
382.05	28.5
382.261	87.89
382.471	98.13
382.681	40.79
382.891	59.22
383.101	108.37
383.311	3.93
383.521	-4.27
383.731	14.17
383.941	30.55
384.151	100.18
384.361	36.69
384.571	32.6
384.781	3.93
384.991	55.12
385.201	116.56
385.411	-26.79
385.621	65.36
385.831	20.31
386.041	61.27
386.251	94.04
386.461	139.09
386.671	42.84
386.881	63.32
387.091	14.17
387.301	59.22
387.511	14.17
387.72	104.28
387.93	38.74
388.14	16.21
388.35	61.27
388.56	59.22
388.769	106.32
388.979	118.61
389.189	5.97
389.399	96.08
389.609	28.5
389.818	65.36
390.028	91.99
390.238	75.6
390.447	18.26
390.657	184.15
390.867	20.31
391.076	57.17
391.286	44.88
391.496	59.22
391.705	69.46
391.915	122.71
392.125	161.62
392.334	61.27
392.544	151.38
392.753	83.8
392.963	28.5
393.172	32.6
393.382	73.56
393.591	118.61
393.801	61.27
394.01	163.67
394.22	122.71
394.429	32.6
394.639	87.89
394.848	81.75
395.058	122.71
395.267	79.7
395.477	171.86
395.686	71.51
395.895	139.09
396.105	200.53
396.314	153.43
396.524	128.85
396.733	83.8
396.942	98.13
397.152	110.42
397.361	184.15
397.57	102.23
397.78	87.89
397.989	94.04
398.198	126.8
398.407	69.46
398.617	108.37
398.826	126.8
399.035	135
399.244	94.04
399.453	104.28
399.663	153.43
399.872	67.41
400.081	85.84
400.29	132.95
400.499	61.27
400.708	20.31
400.917	132.95
401.127	120.66
401.336	116.56
401.545	120.66
401.754	204.63
401.963	141.14
402.172	184.15
402.381	184.15
402.59	85.84
402.799	91.99
403.008	147.28
403.217	104.28
403.426	210.77
403.635	198.48
403.844	167.76
404.053	139.09
404.262	14.17
404.471	173.91
404.68	157.52
404.888	169.81
405.097	182.1
405.306	132.95
405.515	188.24
405.724	161.62
405.933	171.86
406.142	182.1
406.35	186.19
406.559	173.91
406.768	161.62
406.977	237.39
407.185	270.16
407.394	245.59
407.603	243.54
407.812	159.57
408.02	266.07
408.229	237.39
408.438	153.43
408.646	237.39
408.855	280.4
409.064	231.25
409.272	221.01
409.481	286.54
409.69	231.25
409.898	251.73
410.107	319.31
410.315	331.6
410.524	354.13
410.733	335.7
410.941	350.03
411.15	446.29
411.358	360.27
411.567	491.34
411.775	415.57
411.984	405.33
412.192	538.45
412.401	454.48
412.609	452.43
412.818	522.06
413.026	499.53
413.234	511.82
413.443	550.73
413.651	536.4
413.86	583.5
414.068	624.46
414.276	634.7
414.485	659.28
414.693	636.75
414.901	716.62
415.11	759.63
415.318	712.52
415.526	751.43
415.734	841.54
415.943	853.83
416.151	847.69
416.359	886.6
416.567	810.82
416.776	968.52
416.984	1060.68
417.192	1091.4
417.4	1021.77
417.608	1029.96
417.817	1185.6
418.025	1124.16
418.233	1261.38
418.441	1224.51
418.649	1341.25
418.857	1386.3
419.065	1431.36
419.273	1361.73
419.481	1365.82
419.689	1433.41
419.897	1695.55
420.105	1584.96
420.313	1566.53
420.521	1650.49
420.729	1599.29
420.937	1740.6
421.145	1865.53
421.353	1902.39
421.561	2031.41
421.769	2019.13
421.977	2121.52
422.185	2045.75
422.393	2217.78
422.601	2410.29
422.809	2457.39
423.017	2299.7
423.224	2467.63
423.432	2688.81
423.64	2623.28
423.848	2742.06
424.056	2873.13
424.263	2899.75
424.471	3012.39
424.679	3014.44
424.887	3204.9
425.094	3178.28
425.302	3426.08
425.51	3372.83
425.718	3538.72
425.925	3583.77
426.133	3655.45
426.341	3915.55
426.548	4136.73
426.756	3960.6
426.964	4245.27
427.171	4286.23
427.379	4556.56
427.586	4671.25
427.794	4765.45
428.001	4892.43
428.209	5285.64
428.417	5152.52
428.624	5506.82
428.832	5504.77
429.039	5392.13
429.247	5402.37
429.454	5949.18
429.662	6344.44
429.869	5859.07
430.076	6276.85
430.284	6010.62
430.491	6534.9
430.699	6788.85
430.906	6604.53
431.114	6866.67
431.321	7149.29
431.528	7251.69
431.736	7663.33
431.943	8042.2
432.15	7956.19
432.358	7972.57
432.565	8318.68
432.772	8337.11
432.979	8664.79
433.187	8861.39
433.394	8916.69
433.601	9559.75
433.808	9549.51
434.016	9465.54
434.223	9903.81
434.43	10481.33
434.637	10247.86
434.844	11013.81
435.052	11024.05
435.259	11013.81
435.466	11302.57
435.673	11110.06
435.88	11767.46
436.087	12336.79
436.294	12447.38
436.501	12218.01
436.708	12453.53
436.915	12883.6
437.122	13313.67
437.329	13319.82
437.537	13811.33
437.743	14003.84
437.95	13889.15
438.157	14458.49
438.364	14915.19
438.571	15199.85
438.778	15298.16
438.985	16563.8
439.192	15881.83
439.399	16399.96
439.606	16025.18
439.813	17071.7
440.02	17847.88
440.227	17671.75
440.433	17755.72
440.64	18204.22
440.847	18292.29
441.054	18402.88
441.261	19672.62
441.467	19414.57
441.674	19805.74
441.881	20604.44
442.088	20452.89
442.294	20395.55
442.501	20899.35
442.708	21452.3
442.914	22091.27
443.121	22937.08
443.328	22109.7
443.534	23928.3
443.741	23449.07
443.948	22982.13
444.154	24921.56
444.361	24487.39
444.568	24706.52
444.774	24620.51
444.981	25023.96
445.187	25845.19
445.394	26932.67
445.6	26443.2
445.807	29074.84
446.013	27645.36
446.22	28560.8
446.426	29382.04
446.633	29877.65
446.839	30856.57
447.046	29527.44
447.252	31253.88
447.459	31370.61
447.665	30983.55
447.871	32519.53
448.078	34149.71
448.284	32357.74
448.491	33019.23
448.697	34473.29
448.903	35116.35
449.11	35577.14
449.316	34225.48
449.522	35249.47
449.728	36164.91
449.935	36420.91
450.141	36836.64
450.347	37500.19
450.553	36089.13
450.76	36513.06
450.966	38036.75
451.172	37766.42
451.378	38702.34
451.584	38006.03
451.791	38681.86
451.997	38728.97
452.203	39081.22
452.409	39122.18
452.615	39120.13
452.821	37770.52
453.027	37459.23
453.233	39466.24
453.44	37469.47
453.646	38239.5
453.852	38520.07
454.058	39382.27
454.264	37614.87
454.47	38931.72
454.676	37885.2
454.882	39030.02
455.088	35556.66
455.294	36029.74
455.5	37086.5
455.705	37203.23
455.911	35886.39
456.117	35171.64
456.323	34413.9
456.529	32882.02
456.735	34264.39
456.941	33264.99
457.147	32869.73
457.352	31853.94
457.558	31540.6
457.764	31542.64
457.97	30868.86
458.176	30420.36
458.381	30565.76
458.587	28919.2
458.793	28816.8
458.999	27583.92
459.204	29328.79
459.41	28612
459.616	26658.24
459.821	26729.92
460.027	26715.58
460.233	25867.72
460.438	24849.88
460.644	25132.5
460.85	24088.04
461.055	23807.47
461.261	23457.26
461.466	21786.12
461.672	20921.88
461.878	22703.61
462.083	21282.32
462.289	20768.28
462.494	20588.06
462.7	19785.26
462.905	19041.84
463.111	19424.81
463.316	19846.69
463.522	19570.22
463.727	19377.71
463.932	19414.57
464.138	19013.17
464.343	19140.15
464.549	18673.21
464.754	19531.31
464.959	19099.19
465.165	19144.24
465.37	17862.21
465.575	17649.22
465.781	18175.55
465.986	18527.8
466.191	17956.42
466.397	17544.78
466.602	16594.52
466.807	17329.74
467.012	17372.75
467.218	17253.97
467.423	16842.32
467.628	17153.62
