Data from USB4F104151__60__12-36-29-875.txt Node

Date: Fri Mar 14 12:36:29 EDT 2025
User: louis
Spectrometer: USB4F10415
Trigger mode: 4
Integration Time (sec): 2.000000E-2
Scans to average: 1
Electric dark correction enabled: true
Nonlinearity correction enabled: false
Boxcar width: 0
XAxis mode: Wavelengths
Number of Pixels in Spectrum: 3648
>>>>>Begin Spectral Data<<<<<
178.204	-78.33
178.424	-78.33
178.644	-78.33
178.864	-160.25
179.084	1.54
179.304	26.11
179.524	-8.7
179.744	15.87
179.964	44.54
180.184	-4.61
180.404	-45.57
180.624	-6.66
180.844	28.16
181.064	-18.94
181.283	11.78
181.503	-61.95
181.723	19.97
181.943	-43.52
182.163	48.64
182.383	71.17
182.602	81.41
182.822	155.13
183.042	58.88
183.262	34.3
183.482	26.11
183.701	46.59
183.921	58.88
184.141	48.64
184.361	-27.14
184.58	-2.56
184.8	9.73
185.02	-18.94
185.239	17.92
185.459	3.58
185.679	58.88
185.898	-86.53
186.118	91.65
186.338	17.92
186.557	28.16
186.777	34.3
186.997	93.69
187.216	56.83
187.436	9.73
187.655	120.32
187.875	-4.61
188.095	36.35
188.314	15.87
188.534	65.02
188.753	48.64
188.973	11.78
189.192	97.79
189.412	7.68
189.631	-2.56
189.851	87.55
190.07	24.06
190.29	19.97
190.509	17.92
190.729	24.06
190.948	34.3
191.168	58.88
191.387	5.63
191.607	24.06
191.826	17.92
192.045	-8.7
192.265	24.06
192.484	11.78
192.704	93.69
192.923	22.02
193.142	83.45
193.362	75.26
193.581	46.59
193.8	42.5
194.02	40.45
194.239	3.58
194.458	81.41
194.678	38.4
194.897	13.82
195.116	-37.38
195.335	46.59
195.555	5.63
195.774	-6.66
195.993	65.02
196.212	7.68
196.432	28.16
196.651	-2.56
196.87	22.02
197.089	26.11
197.308	71.17
197.528	34.3
197.747	11.78
197.966	116.22
198.185	42.5
198.404	40.45
198.623	30.21
198.842	54.78
199.062	56.83
199.281	5.63
199.5	28.16
199.719	34.3
199.938	-4.61
200.157	13.82
200.376	17.92
200.595	7.68
200.814	28.16
201.033	-29.18
201.252	48.64
201.471	77.31
201.69	67.07
201.909	-29.18
202.128	50.69
202.347	34.3
202.566	-51.71
202.785	62.98
203.004	-8.7
203.223	62.98
203.442	17.92
203.661	3.58
203.879	40.45
204.098	-0.51
204.317	19.97
204.536	26.11
204.755	130.56
204.974	32.26
205.193	-6.66
205.411	91.65
205.63	77.31
205.849	65.02
206.068	19.97
206.287	-12.8
206.505	40.45
206.724	11.78
206.943	13.82
207.162	22.02
207.381	28.16
207.599	30.21
207.818	-41.47
208.037	69.12
208.255	67.07
208.474	36.35
208.693	-23.04
208.911	-6.66
209.13	77.31
209.349	-0.51
209.567	15.87
209.786	40.45
210.005	46.59
210.223	93.69
210.442	65.02
210.661	22.02
210.879	-31.23
211.098	-117.25
211.316	50.69
211.535	17.92
211.753	28.16
211.972	81.41
212.191	77.31
212.409	89.6
212.628	91.65
212.846	-12.8
213.065	67.07
213.283	24.06
213.502	15.87
213.72	-16.9
213.938	26.11
214.157	24.06
214.375	24.06
214.594	54.78
214.812	42.5
215.031	-23.04
215.249	32.26
215.467	1.54
215.686	3.58
215.904	24.06
216.122	40.45
216.341	83.45
216.559	-57.86
216.778	130.56
216.996	30.21
217.214	1.54
217.432	11.78
217.651	-25.09
217.869	-57.86
218.087	-25.09
218.306	-23.04
218.524	22.02
218.742	-37.38
218.96	-12.8
219.179	17.92
219.397	19.97
219.615	9.73
219.833	60.93
220.051	1.54
220.27	-27.14
220.488	30.21
220.706	36.35
220.924	-14.85
221.142	1.54
221.36	22.02
221.578	17.92
221.796	44.54
222.015	5.63
222.233	52.74
222.451	138.75
222.669	13.82
222.887	44.54
223.105	-4.61
223.323	73.21
223.541	-37.38
223.759	-31.23
223.977	22.02
224.195	62.98
224.413	52.74
224.631	19.97
224.849	11.78
225.067	114.17
225.285	-20.99
225.503	-61.95
225.721	26.11
225.939	58.88
226.157	28.16
226.375	36.35
226.592	26.11
226.81	40.45
227.028	24.06
227.246	40.45
227.464	17.92
227.682	-37.38
227.9	60.93
228.117	101.89
228.335	-16.9
228.553	-55.81
228.771	22.02
228.989	112.13
229.206	46.59
229.424	22.02
229.642	103.93
229.86	50.69
230.077	75.26
230.295	-10.75
230.513	34.3
230.731	34.3
230.948	-39.42
231.166	75.26
231.384	-31.23
231.601	-12.8
231.819	-23.04
232.037	67.07
232.254	-0.51
232.472	56.83
232.689	-80.38
232.907	38.4
233.125	58.88
233.342	-18.94
233.56	26.11
233.777	-23.04
233.995	-2.56
234.213	1.54
234.43	9.73
234.648	-4.61
234.865	58.88
235.083	-16.9
235.3	-41.47
235.518	30.21
235.735	50.69
235.953	-4.61
236.17	22.02
236.388	30.21
236.605	-72.19
236.822	40.45
237.04	24.06
237.257	22.02
237.475	9.73
237.692	50.69
237.909	42.5
238.127	54.78
238.344	-6.66
238.562	42.5
238.779	-16.9
238.996	-18.94
239.214	24.06
239.431	50.69
239.648	-33.28
239.865	83.45
240.083	22.02
240.3	83.45
240.517	30.21
240.735	46.59
240.952	-8.7
241.169	-2.56
241.386	9.73
241.603	17.92
241.821	56.83
242.038	83.45
242.255	19.97
242.472	-25.09
242.689	-14.85
242.907	95.74
243.124	22.02
243.341	69.12
243.558	3.58
243.775	-16.9
243.992	44.54
244.209	11.78
244.426	62.98
244.643	38.4
244.86	-2.56
245.078	28.16
245.295	69.12
245.512	-29.18
245.729	-37.38
245.946	58.88
246.163	-29.18
246.38	19.97
246.597	-16.9
246.814	-18.94
247.031	60.93
247.248	22.02
247.464	30.21
247.681	26.11
247.898	81.41
248.115	-29.18
248.332	87.55
248.549	67.07
248.766	15.87
248.983	32.26
249.2	83.45
249.417	-6.66
249.633	-4.61
249.85	128.51
250.067	5.63
250.284	22.02
250.501	67.07
250.717	28.16
250.934	-6.66
251.151	93.69
251.368	36.35
251.585	9.73
251.801	-4.61
252.018	7.68
252.235	42.5
252.451	-41.47
252.668	52.74
252.885	-29.18
253.102	19.97
253.318	44.54
253.535	50.69
253.752	24.06
253.968	48.64
254.185	-6.66
254.401	54.78
254.618	48.64
254.835	-18.94
255.051	11.78
255.268	42.5
255.484	77.31
255.701	42.5
255.917	5.63
256.134	75.26
256.351	60.93
256.567	11.78
256.784	30.21
257	-10.75
257.217	69.12
257.433	5.63
257.65	1.54
257.866	34.3
258.082	-31.23
258.299	46.59
258.515	19.97
258.732	-2.56
258.948	101.89
259.165	-51.71
259.381	-12.8
259.597	69.12
259.814	22.02
260.03	101.89
260.246	9.73
260.463	79.36
260.679	83.45
260.895	-8.7
261.112	42.5
261.328	17.92
261.544	62.98
261.761	22.02
261.977	24.06
262.193	-37.38
262.409	-14.85
262.626	89.6
262.842	48.64
263.058	75.26
263.274	-45.57
263.49	67.07
263.707	97.79
263.923	69.12
264.139	22.02
264.355	87.55
264.571	42.5
264.787	7.68
265.004	17.92
265.22	32.26
265.436	19.97
265.652	89.6
265.868	19.97
266.084	-43.52
266.3	28.16
266.516	-76.29
266.732	-6.66
266.948	44.54
267.164	71.17
267.38	-0.51
267.596	116.22
267.812	3.58
268.028	73.21
268.244	-53.76
268.46	58.88
268.676	34.3
268.892	-2.56
269.108	9.73
269.324	126.46
269.54	-18.94
269.756	103.93
269.972	52.74
270.188	-20.99
270.403	60.93
270.619	91.65
270.835	75.26
271.051	48.64
271.267	54.78
271.483	-18.94
271.698	85.5
271.914	97.79
272.13	-10.75
272.346	79.36
272.562	73.21
272.777	73.21
272.993	73.21
273.209	60.93
273.425	24.06
273.64	132.61
273.856	17.92
274.072	-10.75
274.287	-0.51
274.503	56.83
274.719	62.98
274.934	30.21
275.15	11.78
275.366	19.97
275.581	36.35
275.797	30.21
276.012	5.63
276.228	17.92
276.444	40.45
276.659	73.21
276.875	103.93
277.09	7.68
277.306	5.63
277.521	87.55
277.737	-6.66
277.952	22.02
278.168	19.97
278.383	52.74
278.599	26.11
278.814	56.83
279.03	-41.47
279.245	24.06
279.461	34.3
279.676	17.92
279.892	28.16
280.107	126.46
280.322	17.92
280.538	97.79
280.753	-6.66
280.969	52.74
281.184	50.69
281.399	79.36
281.615	65.02
281.83	13.82
282.045	-45.57
282.26	5.63
282.476	32.26
282.691	71.17
282.906	-6.66
283.122	83.45
283.337	54.78
283.552	-96.77
283.767	-2.56
283.983	108.03
284.198	38.4
284.413	-10.75
284.628	-41.47
284.843	97.79
285.058	58.88
285.274	128.51
285.489	-18.94
285.704	1.54
285.919	71.17
286.134	48.64
286.349	30.21
286.564	40.45
286.779	108.03
286.995	3.58
287.21	26.11
287.425	44.54
287.64	75.26
287.855	81.41
288.07	44.54
288.285	122.37
288.5	60.93
288.715	36.35
288.93	30.21
289.145	7.68
289.36	67.07
289.575	62.98
289.79	116.22
290.004	32.26
290.219	42.5
290.434	-4.61
290.649	1.54
290.864	22.02
291.079	15.87
291.294	-20.99
291.509	85.5
291.724	69.12
291.938	19.97
292.153	69.12
292.368	62.98
292.583	56.83
292.798	54.78
293.012	-0.51
293.227	38.4
293.442	-23.04
293.657	38.4
293.871	89.6
294.086	62.98
294.301	48.64
294.516	26.11
294.73	75.26
294.945	-27.14
295.16	24.06
295.374	38.4
295.589	122.37
295.804	22.02
296.018	-14.85
296.233	65.02
296.447	36.35
296.662	-10.75
296.877	60.93
297.091	71.17
297.306	56.83
297.52	11.78
297.735	50.69
297.949	13.82
298.164	17.92
298.378	42.5
298.593	103.93
298.807	-12.8
299.022	44.54
299.236	77.31
299.451	67.07
299.665	46.59
299.88	32.26
300.094	71.17
300.309	40.45
300.523	-0.51
300.737	89.6
300.952	-10.75
301.166	52.74
301.381	67.07
301.595	3.58
301.809	89.6
302.024	101.89
302.238	56.83
302.452	-29.18
302.667	48.64
302.881	36.35
303.095	103.93
303.309	56.83
303.524	-43.52
303.738	3.58
303.952	-23.04
304.166	28.16
304.381	44.54
304.595	48.64
304.809	-4.61
305.023	7.68
305.237	-0.51
305.452	22.02
305.666	105.98
305.88	7.68
306.094	62.98
306.308	32.26
306.522	38.4
306.736	52.74
306.95	56.83
307.164	67.07
307.379	-8.7
307.593	124.41
307.807	28.16
308.021	73.21
308.235	85.5
308.449	58.88
308.663	-43.52
308.877	93.69
309.091	93.69
309.305	24.06
309.519	48.64
309.733	69.12
309.947	-68.09
310.161	34.3
310.374	91.65
310.588	79.36
310.802	46.59
311.016	97.79
311.23	9.73
311.444	24.06
311.658	11.78
311.872	-0.51
312.085	58.88
312.299	79.36
312.513	67.07
312.727	87.55
312.941	73.21
313.154	81.41
313.368	124.41
313.582	52.74
313.796	9.73
314.009	32.26
314.223	52.74
314.437	67.07
314.651	108.03
314.864	75.26
315.078	-16.9
315.292	52.74
315.505	40.45
315.719	81.41
315.933	-20.99
316.146	50.69
316.36	-27.14
316.573	87.55
316.787	67.07
317.001	85.5
317.214	58.88
317.428	85.5
317.641	46.59
317.855	36.35
318.068	58.88
318.282	38.4
318.495	85.5
318.709	75.26
318.922	95.74
319.136	24.06
319.349	50.69
319.563	19.97
319.776	-49.66
319.99	44.54
320.203	-16.9
320.417	28.16
320.63	19.97
320.843	134.65
321.057	87.55
321.27	-35.33
321.483	38.4
321.697	50.69
321.91	32.26
322.124	73.21
322.337	19.97
322.55	42.5
322.763	-49.66
322.977	42.5
323.19	-41.47
323.403	-0.51
323.617	89.6
323.83	22.02
324.043	62.98
324.256	46.59
324.469	50.69
324.683	52.74
324.896	46.59
325.109	99.84
325.322	-61.95
325.535	52.74
325.748	32.26
325.962	58.88
326.175	32.26
326.388	-0.51
326.601	56.83
326.814	30.21
327.027	40.45
327.24	65.02
327.453	5.63
327.666	69.12
327.879	44.54
328.092	24.06
328.305	65.02
328.518	48.64
328.731	85.5
328.944	67.07
329.157	122.37
329.37	50.69
329.583	56.83
329.796	36.35
330.009	-43.52
330.222	50.69
330.435	46.59
330.648	17.92
330.861	50.69
331.073	50.69
331.286	36.35
331.499	40.45
331.712	65.02
331.925	50.69
332.138	67.07
332.35	101.89
332.563	-27.14
332.776	87.55
332.989	26.11
333.202	46.59
333.414	34.3
333.627	34.3
333.84	65.02
334.053	-8.7
334.265	28.16
334.478	54.78
334.691	22.02
334.903	62.98
335.116	-35.33
335.329	77.31
335.541	60.93
335.754	69.12
335.966	32.26
336.179	46.59
336.392	108.03
336.604	-8.7
336.817	34.3
337.029	40.45
337.242	-8.7
337.454	89.6
337.667	50.69
337.88	48.64
338.092	28.16
338.305	48.64
338.517	28.16
338.729	48.64
338.942	58.88
339.154	73.21
339.367	1.54
339.579	36.35
339.792	-6.66
340.004	-2.56
340.217	-4.61
340.429	89.6
340.641	42.5
340.854	81.41
341.066	83.45
341.278	69.12
341.491	48.64
341.703	-27.14
341.915	-4.61
342.128	34.3
342.34	15.87
342.552	130.56
342.764	52.74
342.977	13.82
343.189	17.92
343.401	83.45
343.613	38.4
343.826	-27.14
344.038	3.58
344.25	65.02
344.462	83.45
344.674	77.31
344.886	40.45
345.099	19.97
345.311	17.92
345.523	81.41
345.735	99.84
345.947	11.78
346.159	-25.09
346.371	114.17
346.583	-35.33
346.795	103.93
347.007	73.21
347.219	65.02
347.431	36.35
347.643	124.41
347.855	19.97
348.067	7.68
348.279	60.93
348.491	13.82
348.703	-4.61
348.915	-20.99
349.127	-2.56
349.339	54.78
349.551	48.64
349.763	54.78
349.975	17.92
350.187	97.79
350.399	91.65
350.61	-8.7
350.822	-4.61
351.034	60.93
351.246	38.4
351.458	52.74
351.669	69.12
351.881	58.88
352.093	81.41
352.305	93.69
352.517	58.88
352.728	13.82
352.94	75.26
353.152	146.94
353.363	-16.9
353.575	38.4
353.787	89.6
353.999	32.26
354.21	54.78
354.422	36.35
354.633	93.69
354.845	42.5
355.057	120.32
355.268	52.74
355.48	46.59
355.692	46.59
355.903	42.5
356.115	144.89
356.326	28.16
356.538	91.65
356.749	40.45
356.961	40.45
357.172	79.36
357.384	13.82
357.595	52.74
357.807	67.07
358.018	36.35
358.23	32.26
358.441	13.82
358.653	58.88
358.864	42.5
359.075	105.98
359.287	17.92
359.498	42.5
359.709	7.68
359.921	85.5
360.132	114.17
360.344	40.45
360.555	54.78
360.766	42.5
360.977	93.69
361.189	73.21
361.4	71.17
361.611	60.93
361.823	56.83
362.034	83.45
362.245	60.93
362.456	7.68
362.667	85.5
362.879	124.41
363.09	103.93
363.301	22.02
363.512	7.68
363.723	48.64
363.935	34.3
364.146	95.74
364.357	30.21
364.568	67.07
364.779	32.26
364.99	36.35
365.201	56.83
365.412	19.97
365.623	19.97
365.834	108.03
366.045	124.41
366.256	91.65
366.467	77.31
366.678	93.69
366.889	97.79
367.1	73.21
367.311	99.84
367.522	67.07
367.733	91.65
367.944	36.35
368.155	46.59
368.366	97.79
368.577	-33.28
368.788	85.5
368.999	91.65
369.209	15.87
369.42	120.32
369.631	52.74
369.842	50.69
370.053	69.12
370.264	-2.56
370.474	-14.85
370.685	54.78
370.896	91.65
371.107	112.13
371.317	75.26
371.528	19.97
371.739	87.55
371.95	13.82
372.16	85.5
372.371	11.78
372.582	112.13
372.792	26.11
373.003	48.64
373.214	19.97
373.424	75.26
373.635	79.36
373.846	108.03
374.056	118.27
374.267	32.26
374.477	79.36
374.688	42.5
374.898	105.98
375.109	124.41
375.319	95.74
375.53	42.5
375.74	77.31
375.951	48.64
376.161	48.64
376.372	19.97
376.582	54.78
376.793	-8.7
377.003	95.74
377.214	26.11
377.424	30.21
377.635	36.35
377.845	1.54
378.055	81.41
378.266	22.02
378.476	32.26
378.686	58.88
378.897	95.74
379.107	-29.18
379.317	44.54
379.528	62.98
379.738	62.98
379.948	65.02
380.158	67.07
380.369	34.3
380.579	81.41
380.789	62.98
380.999	142.85
381.21	87.55
381.42	40.45
381.63	60.93
381.84	83.45
382.05	112.13
382.261	83.45
382.471	-2.56
382.681	81.41
382.891	126.46
383.101	77.31
383.311	24.06
383.521	83.45
383.731	22.02
383.941	22.02
384.151	67.07
384.361	81.41
384.571	73.21
384.781	73.21
384.991	120.32
385.201	101.89
385.411	105.98
385.621	75.26
385.831	58.88
386.041	56.83
386.251	58.88
386.461	91.65
386.671	17.92
386.881	130.56
387.091	65.02
387.301	71.17
387.511	54.78
387.72	75.26
387.93	52.74
388.14	114.17
388.35	93.69
388.56	93.69
388.769	132.61
388.979	-4.61
389.189	9.73
389.399	71.17
389.609	40.45
389.818	108.03
390.028	62.98
390.238	140.8
390.447	42.5
390.657	46.59
390.867	58.88
391.076	-23.04
391.286	122.37
391.496	75.26
391.705	1.54
391.915	62.98
392.125	65.02
392.334	189.95
392.544	99.84
392.753	124.41
392.963	155.13
393.172	93.69
393.382	95.74
393.591	116.22
393.801	58.88
394.01	173.57
394.22	69.12
394.429	118.27
394.639	95.74
394.848	151.04
395.058	163.33
395.267	95.74
395.477	163.33
395.686	89.6
395.895	179.71
396.105	126.46
396.314	101.89
396.524	71.17
396.733	103.93
396.942	151.04
397.152	157.18
397.361	161.28
397.57	181.76
397.78	198.14
397.989	200.19
398.198	161.28
398.407	83.45
398.617	171.52
398.826	153.09
399.035	114.17
399.244	81.41
399.453	126.46
399.663	85.5
399.872	112.13
400.081	114.17
400.29	189.95
400.499	136.7
400.708	91.65
400.917	134.65
401.127	192
401.336	140.8
401.545	99.84
401.754	165.37
401.963	128.51
402.172	126.46
402.381	187.9
402.59	173.57
402.799	153.09
403.008	134.65
403.217	155.13
403.426	181.76
403.635	138.75
403.844	226.81
404.053	101.89
404.262	140.8
404.471	212.48
404.68	171.52
404.888	136.7
405.097	126.46
405.306	183.81
405.515	169.47
405.724	177.66
405.933	251.39
406.142	251.39
406.35	257.53
406.559	312.83
406.768	210.43
406.977	224.76
407.185	288.25
407.394	386.55
407.603	269.82
407.812	273.92
408.02	347.64
408.229	339.45
408.438	318.97
408.646	329.21
408.855	353.79
409.064	349.69
409.272	392.7
409.481	419.32
409.69	374.27
409.898	402.94
410.107	443.9
410.315	472.57
410.524	429.56
410.733	511.48
410.941	519.67
411.15	517.62
411.358	538.1
411.567	513.53
411.775	470.52
411.984	511.48
412.192	622.07
412.401	632.31
412.609	634.36
412.818	720.37
413.026	712.18
413.234	708.09
413.443	787.96
413.651	804.34
413.86	761.33
414.068	777.72
414.276	871.92
414.485	957.94
414.693	861.68
414.901	892.4
415.11	955.89
415.318	998.9
415.526	923.12
415.734	1134.06
415.943	1089.01
416.151	1158.64
416.359	1097.2
416.567	1060.34
416.776	1261.04
416.984	1320.43
417.192	1394.15
417.4	1302
417.608	1367.53
417.817	1461.74
418.025	1492.46
418.233	1703.4
418.441	1658.34
418.649	1668.58
418.857	1773.03
419.065	1805.8
419.273	1721.83
419.481	1922.53
419.689	1957.35
419.897	2166.24
420.105	2125.28
420.313	2139.62
420.521	2199.01
420.729	2328.03
420.937	2364.89
421.145	2395.61
421.353	2661.85
421.561	2661.85
421.769	2727.38
421.977	2962.9
422.185	2743.77
422.393	3143.12
422.601	3231.18
422.809	3151.31
423.017	3284.43
423.224	3382.73
423.432	3665.35
423.64	3558.86
423.848	3800.52
424.056	3737.03
424.263	4023.75
424.471	4109.76
424.679	4107.71
424.887	4179.39
425.094	4373.95
425.302	4505.02
425.51	4535.74
425.718	4752.82
425.925	4838.84
426.133	5074.35
426.341	5434.8
426.548	5545.39
426.756	5506.48
426.964	5760.42
427.171	5836.2
427.379	6104.48
427.586	6227.36
427.794	6301.09
428.001	6788.5
428.209	6792.6
428.417	6942.1
428.624	7429.52
428.832	7392.66
429.039	7341.46
429.247	7357.84
429.454	7990.66
429.662	8553.85
429.869	8078.72
430.076	8676.73
430.284	8281.47
430.491	8639.87
430.699	9145.72
430.906	9227.64
431.114	9442.67
431.321	9766.25
431.528	9887.08
431.736	10378.59
431.943	11001.18
432.15	10642.78
432.358	10851.67
432.565	11554.13
432.772	11279.7
432.979	11883.85
433.187	12264.77
433.394	12086.6
433.601	13022.52
433.808	13057.34
434.016	12748.09
434.223	13489.46
434.43	14449.96
434.637	14130.47
434.844	15201.56
435.052	15240.47
435.259	15080.73
435.466	15432.98
435.673	14996.76
435.88	16131.34
436.087	17014.01
436.294	17005.82
436.501	16723.2
436.708	16762.11
436.915	17169.66
437.122	18371.82
437.329	18199.79
437.537	18967.77
437.743	19066.08
437.95	18955.49
438.157	20118.73
438.364	20743.36
438.571	20444.36
438.778	20772.04
438.985	22529.19
439.192	21580.98
439.399	22807.72
439.606	22000.82
439.813	23135.39
440.02	24556.68
440.227	23829.65
440.433	24083.6
440.64	24925.32
440.847	24446.09
441.054	25441.4
441.261	26819.69
441.467	26422.38
441.674	27245.66
441.881	27993.17
442.088	27737.18
442.294	27663.45
442.501	28669
442.708	29078.6
442.914	30467.12
443.121	31441.95
443.328	30565.42
443.534	32769.04
443.741	31638.56
443.948	31437.86
444.154	33618.94
444.361	33418.24
444.568	33704.96
444.774	33840.12
444.981	34006.01
445.187	35093.48
445.394	36660.18
445.6	36074.46
445.807	39664.55
446.013	37825.47
446.22	38458.29
446.426	40090.52
446.633	40094.62
446.839	41653.12
447.046	39682.98
447.252	41685.89
447.459	42648.44
447.665	42228.6
447.871	44102.5
448.078	46156.61
448.284	43385.71
448.491	44610.39
448.697	46781.24
448.903	47172.4
449.11	47395.63
449.316	46684.98
449.522	47973.16
449.728	48700.18
449.935	49117.97
450.141	49328.91
450.347	49965.83
450.553	48847.64
450.76	49345.3
450.966	51149.56
451.172	50459.39
451.378	51639.02
451.584	50955
451.791	51876.58
451.997	51821.29
452.203	52675.29
452.409	52148.96
452.615	51649.26
452.821	50158.34
453.027	49945.35
453.233	52380.38
453.44	50266.88
453.646	51335.92
453.852	51163.89
454.058	52181.73
454.264	50258.69
454.47	51426.03
454.676	50617.08
454.882	51800.81
455.088	47397.68
455.294	48374.56
455.5	48761.62
455.705	49836.81
455.911	47686.44
456.117	46971.7
456.323	46000.96
456.529	43866.98
456.735	45402.96
456.941	44374.87
457.147	43385.71
457.352	42257.28
457.558	41880.45
457.764	42158.97
457.97	41081.74
458.176	40565.65
458.381	40577.94
458.587	38167.48
458.793	38640.56
458.999	36512.72
459.204	38966.19
459.41	37993.4
459.616	35945.44
459.821	35304.42
460.027	35591.14
460.233	34657.26
460.438	33088.52
460.644	33582.08
460.85	31562.78
461.055	31294.5
461.261	31321.12
461.466	29097.03
461.672	27737.18
461.878	29948.98
462.083	28134.48
462.289	27817.05
462.494	27370.59
462.7	25855.09
462.905	25369.72
463.111	26135.67
463.316	26350.7
463.522	26004.6
463.727	25977.97
463.932	26205.3
464.138	25361.53
464.343	25418.88
464.549	25080.96
464.754	25517.18
464.959	25529.47
465.165	25283.71
465.37	24319.12
465.575	23551.13
465.781	24675.46
465.986	24511.63
466.191	23964.82
466.397	23280.8
466.602	21931.19
466.807	23014.56
467.012	23305.37
467.218	22764.71
