Data from USB4F104151__49__12-36-07-166.txt Node

Date: Fri Mar 14 12:36:07 EDT 2025
User: louis
Spectrometer: USB4F10415
Trigger mode: 4
Integration Time (sec): 2.000000E-2
Scans to average: 1
Electric dark correction enabled: true
Nonlinearity correction enabled: false
Boxcar width: 0
XAxis mode: Wavelengths
Number of Pixels in Spectrum: 3648
>>>>>Begin Spectral Data<<<<<
178.204	-42.84
178.424	-42.84
178.644	-42.84
178.864	-65.36
179.084	-79.7
179.304	24.75
179.524	30.89
179.744	-34.64
179.964	34.99
180.184	-24.4
180.404	-8.02
180.624	2.22
180.844	0.17
181.064	-61.27
181.283	32.94
181.503	-51.03
181.723	53.42
181.943	-20.31
182.163	18.6
182.383	30.89
182.602	34.99
182.822	41.13
183.042	102.57
183.262	-51.03
183.482	69.8
183.701	-12.12
183.921	22.7
184.141	12.46
184.361	41.13
184.58	-30.55
184.8	37.03
185.02	-8.02
185.239	49.32
185.459	114.86
185.679	41.13
185.898	-8.02
186.118	4.27
186.338	20.65
186.557	20.65
186.777	88.23
186.997	57.51
187.216	-8.02
187.436	84.14
187.655	43.18
187.875	69.8
188.095	57.51
188.314	26.79
188.534	49.32
188.753	67.75
188.973	53.42
189.192	59.56
189.412	0.17
189.631	43.18
189.851	-57.17
190.07	57.51
190.29	20.65
190.509	61.61
190.729	-16.21
190.948	127.14
191.168	178.34
191.387	75.95
191.607	61.61
191.826	14.51
192.045	55.47
192.265	18.6
192.484	57.51
192.704	43.18
192.923	59.56
193.142	28.84
193.362	37.03
193.581	30.89
193.8	114.86
194.02	10.41
194.239	34.99
194.458	34.99
194.678	90.28
194.897	-30.55
195.116	41.13
195.335	129.19
195.555	22.7
195.774	80.04
195.993	112.81
196.212	-1.88
196.432	-79.7
196.651	22.7
196.87	69.8
197.089	84.14
197.308	37.03
197.528	59.56
197.747	26.79
197.966	59.56
198.185	80.04
198.404	26.79
198.623	39.08
198.842	28.84
199.062	102.57
199.281	51.37
199.5	-1.88
199.719	24.75
199.938	12.46
200.157	18.6
200.376	16.55
200.595	28.84
200.814	59.56
201.033	41.13
201.252	92.33
201.471	49.32
201.69	100.52
201.909	26.79
202.128	-20.31
202.347	-30.55
202.566	-22.36
202.785	-10.07
203.004	4.27
203.223	-3.93
203.442	-55.12
203.661	26.79
203.879	-14.17
204.098	69.8
204.317	22.7
204.536	45.23
204.755	22.7
204.974	18.6
205.193	-40.79
205.411	49.32
205.63	32.94
205.849	14.51
206.068	55.47
206.287	-18.26
206.505	47.27
206.724	39.08
206.943	69.8
207.162	-32.6
207.381	30.89
207.599	34.99
207.818	22.7
208.037	53.42
208.255	18.6
208.474	-10.07
208.693	32.94
208.911	2.22
209.13	65.71
209.349	39.08
209.567	65.71
209.786	43.18
210.005	90.28
210.223	92.33
210.442	14.51
210.661	129.19
210.879	30.89
211.098	14.51
211.316	14.51
211.535	63.66
211.753	-10.07
211.972	61.61
212.191	28.84
212.409	37.03
212.628	26.79
212.846	-12.12
213.065	98.47
213.283	84.14
213.502	45.23
213.72	55.47
213.938	-48.98
214.157	-12.12
214.375	67.75
214.594	-51.03
214.812	22.7
215.031	-14.17
215.249	59.56
215.467	-34.64
215.686	73.9
215.904	12.46
216.122	114.86
216.341	67.75
216.559	-26.45
216.778	51.37
216.996	16.55
217.214	55.47
217.432	14.51
217.651	24.75
217.869	80.04
218.087	24.75
218.306	26.79
218.524	51.37
218.742	-38.74
218.96	28.84
219.179	-18.26
219.397	57.51
219.615	55.47
219.833	12.46
220.051	49.32
220.27	-5.97
220.488	26.79
220.706	127.14
220.924	-51.03
221.142	71.85
221.36	28.84
221.578	65.71
221.796	-30.55
222.015	28.84
222.233	-26.45
222.451	-5.97
222.669	65.71
222.887	20.65
223.105	39.08
223.323	-30.55
223.541	-38.74
223.759	73.9
223.977	-14.17
224.195	118.95
224.413	67.75
224.631	37.03
224.849	16.55
225.067	-10.07
225.285	-26.45
225.503	12.46
225.721	26.79
225.939	4.27
226.157	49.32
226.375	102.57
226.592	2.22
226.81	0.17
227.028	20.65
227.246	71.85
227.464	45.23
227.682	24.75
227.9	28.84
228.117	65.71
228.335	53.42
228.553	24.75
228.771	-30.55
228.989	53.42
229.206	6.31
229.424	37.03
229.642	16.55
229.86	104.62
230.077	32.94
230.295	37.03
230.513	-5.97
230.731	-1.88
230.948	106.67
231.166	-24.4
231.384	63.66
231.601	-20.31
231.819	57.51
232.037	32.94
232.254	-28.5
232.472	-3.93
232.689	16.55
232.907	30.89
233.125	53.42
233.342	14.51
233.56	-1.88
233.777	26.79
233.995	22.7
234.213	104.62
234.43	20.65
234.648	39.08
234.865	12.46
235.083	86.19
235.3	51.37
235.518	75.95
235.735	-20.31
235.953	32.94
236.17	20.65
236.388	10.41
236.605	88.23
236.822	32.94
237.04	28.84
237.257	28.84
237.475	53.42
237.692	-63.32
237.909	47.27
238.127	-30.55
238.344	96.43
238.562	-3.93
238.779	-24.4
238.996	69.8
239.214	92.33
239.431	108.71
239.648	-8.02
239.865	47.27
240.083	88.23
240.3	37.03
240.517	39.08
240.735	57.51
240.952	32.94
241.169	55.47
241.386	4.27
241.603	73.9
241.821	77.99
242.038	-46.93
242.255	123.05
242.472	-42.84
242.689	-1.88
242.907	45.23
243.124	-10.07
243.341	2.22
243.558	-5.97
243.775	53.42
243.992	8.36
244.209	71.85
244.426	-24.4
244.643	75.95
244.86	22.7
245.078	41.13
245.295	12.46
245.512	16.55
245.729	39.08
245.946	80.04
246.163	63.66
246.38	45.23
246.597	12.46
246.814	16.55
247.031	16.55
247.248	18.6
247.464	75.95
247.681	-38.74
247.898	39.08
248.115	71.85
248.332	-5.97
248.549	0.17
248.766	102.57
248.983	65.71
249.2	43.18
249.417	4.27
249.633	10.41
249.85	18.6
250.067	-20.31
250.284	16.55
250.501	18.6
250.717	94.38
250.934	73.9
251.151	80.04
251.368	49.32
251.585	59.56
251.801	6.31
252.018	-73.56
252.235	57.51
252.451	10.41
252.668	28.84
252.885	69.8
253.102	12.46
253.318	24.75
253.535	67.75
253.752	26.79
253.968	-5.97
254.185	18.6
254.401	82.09
254.618	2.22
254.835	6.31
255.051	6.31
255.268	8.36
255.484	34.99
255.701	4.27
255.917	69.8
256.134	-30.55
256.351	84.14
256.567	26.79
256.784	16.55
257	16.55
257.217	43.18
257.433	41.13
257.65	34.99
257.866	94.38
258.082	16.55
258.299	-16.21
258.515	47.27
258.732	47.27
258.948	-12.12
259.165	-30.55
259.381	32.94
259.597	67.75
259.814	43.18
260.03	37.03
260.246	-1.88
260.463	24.75
260.679	28.84
260.895	57.51
261.112	77.99
261.328	34.99
261.544	59.56
261.761	110.76
261.977	41.13
262.193	55.47
262.409	92.33
262.626	30.89
262.842	69.8
263.058	92.33
263.274	12.46
263.49	-32.6
263.707	51.37
263.923	34.99
264.139	90.28
264.355	-5.97
264.571	14.51
264.787	73.9
265.004	102.57
265.22	-22.36
265.436	84.14
265.652	32.94
265.868	24.75
266.084	0.17
266.3	-18.26
266.516	43.18
266.732	43.18
266.948	-22.36
267.164	102.57
267.38	65.71
267.596	102.57
267.812	37.03
268.028	55.47
268.244	8.36
268.46	-3.93
268.676	-3.93
268.892	34.99
269.108	39.08
269.324	-34.64
269.54	-8.02
269.756	53.42
269.972	43.18
270.188	14.51
270.403	-34.64
270.619	43.18
270.835	28.84
271.051	-12.12
271.267	24.75
271.483	75.95
271.698	57.51
271.914	90.28
272.13	28.84
272.346	-53.08
272.562	12.46
272.777	86.19
272.993	69.8
273.209	6.31
273.425	57.51
273.64	37.03
273.856	67.75
274.072	92.33
274.287	90.28
274.503	2.22
274.719	28.84
274.934	4.27
275.15	20.65
275.366	-1.88
275.581	10.41
275.797	-1.88
276.012	67.75
276.228	-3.93
276.444	41.13
276.659	65.71
276.875	-24.4
277.09	51.37
277.306	-55.12
277.521	75.95
277.737	14.51
277.952	75.95
278.168	-16.21
278.383	16.55
278.599	-24.4
278.814	75.95
279.03	-16.21
279.245	73.9
279.461	24.75
279.676	55.47
279.892	4.27
280.107	49.32
280.322	-12.12
280.538	59.56
280.753	73.9
280.969	34.99
281.184	12.46
281.399	84.14
281.615	-10.07
281.83	37.03
282.045	73.9
282.26	34.99
282.476	55.47
282.691	90.28
282.906	-16.21
283.122	75.95
283.337	14.51
283.552	59.56
283.767	47.27
283.983	71.85
284.198	32.94
284.413	43.18
284.628	-18.26
284.843	71.85
285.058	30.89
285.274	-8.02
285.489	16.55
285.704	86.19
285.919	55.47
286.134	51.37
286.349	34.99
286.564	43.18
286.779	65.71
286.995	-28.5
287.21	104.62
287.425	145.58
287.64	-8.02
287.855	69.8
288.07	6.31
288.285	90.28
288.5	-51.03
288.715	59.56
288.93	-34.64
289.145	20.65
289.36	-1.88
289.575	47.27
289.79	125.1
290.004	65.71
290.219	69.8
290.434	114.86
290.649	39.08
290.864	32.94
291.079	77.99
291.294	-5.97
291.509	32.94
291.724	69.8
291.938	16.55
292.153	57.51
292.368	-10.07
292.583	24.75
292.798	59.56
293.012	30.89
293.227	59.56
293.442	-98.13
293.657	20.65
293.871	43.18
294.086	55.47
294.301	53.42
294.516	65.71
294.73	53.42
294.945	53.42
295.16	4.27
295.374	37.03
295.589	59.56
295.804	43.18
296.018	45.23
296.233	108.71
296.447	108.71
296.662	59.56
296.877	41.13
297.091	84.14
297.306	-53.08
297.52	55.47
297.735	-16.21
297.949	24.75
298.164	-22.36
298.378	-1.88
298.593	73.9
298.807	51.37
299.022	49.32
299.236	98.47
299.451	57.51
299.665	-38.74
299.88	47.27
300.094	37.03
300.309	45.23
300.523	71.85
300.737	18.6
300.952	16.55
301.166	18.6
301.381	0.17
301.595	-5.97
301.809	73.9
302.024	80.04
302.238	108.71
302.452	22.7
302.667	41.13
302.881	75.95
303.095	45.23
303.309	110.76
303.524	86.19
303.738	63.66
303.952	45.23
304.166	65.71
304.381	32.94
304.595	90.28
304.809	32.94
305.023	14.51
305.237	8.36
305.452	26.79
305.666	10.41
305.88	104.62
306.094	53.42
306.308	20.65
306.522	49.32
306.736	43.18
306.95	16.55
307.164	-8.02
307.379	47.27
307.593	61.61
307.807	24.75
308.021	-26.45
308.235	30.89
308.449	-1.88
308.663	84.14
308.877	94.38
309.091	102.57
309.305	6.31
309.519	-73.56
309.733	112.81
309.947	61.61
310.161	-10.07
310.374	43.18
310.588	71.85
310.802	45.23
311.016	75.95
311.23	-16.21
311.444	18.6
311.658	0.17
311.872	63.66
312.085	84.14
312.299	63.66
312.513	69.8
312.727	43.18
312.941	12.46
313.154	-24.4
313.368	51.37
313.582	61.61
313.796	24.75
314.009	47.27
314.223	12.46
314.437	118.95
314.651	69.8
314.864	10.41
315.078	32.94
315.292	18.6
315.505	51.37
315.719	69.8
315.933	51.37
316.146	-5.97
316.36	106.67
316.573	49.32
316.787	28.84
317.001	-20.31
317.214	80.04
317.428	28.84
317.641	30.89
317.855	55.47
318.068	2.22
318.282	86.19
318.495	61.61
318.709	71.85
318.922	51.37
319.136	102.57
319.349	-8.02
319.563	34.99
319.776	20.65
319.99	-3.93
320.203	71.85
320.417	28.84
320.63	-8.02
320.843	121
321.057	34.99
321.27	77.99
321.483	61.61
321.697	96.43
321.91	102.57
322.124	80.04
322.337	77.99
322.55	-14.17
322.763	100.52
322.977	59.56
323.19	45.23
323.403	73.9
323.617	49.32
323.83	59.56
324.043	-18.26
324.256	26.79
324.469	49.32
324.683	32.94
324.896	22.7
325.109	69.8
325.322	20.65
325.535	92.33
325.748	108.71
325.962	57.51
326.175	90.28
326.388	55.47
326.601	129.19
326.814	47.27
327.027	45.23
327.24	110.76
327.453	65.71
327.666	71.85
327.879	71.85
328.092	63.66
328.305	55.47
328.518	43.18
328.731	84.14
328.944	32.94
329.157	-36.69
329.37	-46.93
329.583	75.95
329.796	90.28
330.009	30.89
330.222	24.75
330.435	41.13
330.648	57.51
330.861	84.14
331.073	16.55
331.286	6.31
331.499	41.13
331.712	20.65
331.925	26.79
332.138	37.03
332.35	57.51
332.563	88.23
332.776	104.62
332.989	18.6
333.202	86.19
333.414	55.47
333.627	30.89
333.84	41.13
334.053	67.75
334.265	51.37
334.478	12.46
334.691	12.46
334.903	63.66
335.116	59.56
335.329	-18.26
335.541	59.56
335.754	96.43
335.966	-16.21
336.179	-1.88
336.392	75.95
336.604	12.46
336.817	43.18
337.029	0.17
337.242	-1.88
337.454	-5.97
337.667	51.37
337.88	84.14
338.092	45.23
338.305	22.7
338.517	39.08
338.729	69.8
338.942	118.95
339.154	57.51
339.367	-26.45
339.579	-28.5
339.792	-20.31
340.004	114.86
340.217	69.8
340.429	82.09
340.641	-46.93
340.854	16.55
341.066	102.57
341.278	22.7
341.491	84.14
341.703	26.79
341.915	-5.97
342.128	53.42
342.34	82.09
342.552	69.8
342.764	14.51
342.977	57.51
343.189	73.9
343.401	96.43
343.613	10.41
343.826	41.13
344.038	8.36
344.25	63.66
344.462	37.03
344.674	63.66
344.886	4.27
345.099	65.71
345.311	61.61
345.523	28.84
345.735	34.99
345.947	49.32
346.159	12.46
346.371	26.79
346.583	12.46
346.795	108.71
347.007	30.89
347.219	2.22
347.431	26.79
347.643	102.57
347.855	63.66
348.067	86.19
348.279	100.52
348.491	77.99
348.703	92.33
348.915	94.38
349.127	51.37
349.339	84.14
349.551	-63.32
349.763	32.94
349.975	22.7
350.187	-20.31
350.399	53.42
350.61	43.18
350.822	69.8
351.034	34.99
351.246	26.79
351.458	108.71
351.669	55.47
351.881	67.75
352.093	104.62
352.305	-1.88
352.517	30.89
352.728	104.62
352.94	-8.02
353.152	116.9
353.363	32.94
353.575	47.27
353.787	133.29
353.999	67.75
354.21	90.28
354.422	84.14
354.633	73.9
354.845	77.99
355.057	61.61
355.268	131.24
355.48	73.9
355.692	-32.6
355.903	71.85
356.115	45.23
356.326	18.6
356.538	170.15
356.749	43.18
356.961	71.85
357.172	-20.31
357.384	-1.88
357.595	51.37
357.807	110.76
358.018	77.99
358.23	12.46
358.441	71.85
358.653	63.66
358.864	41.13
359.075	22.7
359.287	49.32
359.498	86.19
359.709	110.76
359.921	65.71
360.132	34.99
360.344	57.51
360.555	67.75
360.766	143.53
360.977	82.09
361.189	55.47
361.4	26.79
361.611	82.09
361.823	20.65
362.034	73.9
362.245	43.18
362.456	41.13
362.667	-5.97
362.879	30.89
363.09	24.75
363.301	32.94
363.512	16.55
363.723	37.03
363.935	-12.12
364.146	75.95
364.357	28.84
364.568	-28.5
364.779	32.94
364.99	26.79
365.201	63.66
365.412	131.24
365.623	14.51
365.834	26.79
366.045	80.04
366.256	90.28
366.467	57.51
366.678	43.18
366.889	51.37
367.1	94.38
367.311	71.85
367.522	14.51
367.733	41.13
367.944	12.46
368.155	96.43
368.366	43.18
368.577	73.9
368.788	10.41
368.999	37.03
369.209	63.66
369.42	20.65
369.631	129.19
369.842	34.99
370.053	45.23
370.264	51.37
370.474	53.42
370.685	108.71
370.896	39.08
371.107	88.23
371.317	133.29
371.528	22.7
371.739	43.18
371.95	71.85
372.16	30.89
372.371	-14.17
372.582	47.27
372.792	63.66
373.003	20.65
373.214	59.56
373.424	104.62
373.635	59.56
373.846	102.57
374.056	92.33
374.267	71.85
374.477	112.81
374.688	37.03
374.898	30.89
375.109	75.95
375.319	82.09
375.53	45.23
375.74	110.76
375.951	47.27
376.161	102.57
376.372	80.04
376.582	37.03
376.793	57.51
377.003	123.05
377.214	45.23
377.424	155.82
377.635	108.71
377.845	47.27
378.055	26.79
378.266	61.61
378.476	71.85
378.686	28.84
378.897	135.34
379.107	153.77
379.317	-10.07
379.528	-36.69
379.738	75.95
379.948	8.36
380.158	75.95
380.369	32.94
380.579	63.66
380.789	116.9
380.999	6.31
381.21	125.1
381.42	77.99
381.63	37.03
381.84	16.55
382.05	61.61
382.261	168.1
382.471	106.67
382.681	16.55
382.891	73.9
383.101	55.47
383.311	30.89
383.521	-12.12
383.731	63.66
383.941	73.9
384.151	37.03
384.361	98.47
384.571	34.99
384.781	82.09
384.991	28.84
385.201	116.9
385.411	84.14
385.621	61.61
385.831	2.22
386.041	84.14
386.251	28.84
386.461	116.9
386.671	45.23
386.881	106.67
387.091	55.47
387.301	24.75
387.511	147.62
387.72	118.95
387.93	100.52
388.14	94.38
388.35	49.32
388.56	157.86
388.769	69.8
388.979	45.23
389.189	141.48
389.399	121
389.609	100.52
389.818	92.33
390.028	153.77
390.238	0.17
390.447	63.66
390.657	49.32
390.867	67.75
391.076	34.99
391.286	43.18
391.496	92.33
391.705	0.17
391.915	63.66
392.125	77.99
392.334	127.14
392.544	65.71
392.753	86.19
392.963	59.56
393.172	98.47
393.382	80.04
393.591	110.76
393.801	96.43
394.01	63.66
394.22	118.95
394.429	41.13
394.639	157.86
394.848	112.81
395.058	43.18
395.267	102.57
395.477	116.9
395.686	39.08
395.895	200.87
396.105	135.34
396.314	98.47
396.524	108.71
396.733	127.14
396.942	69.8
397.152	47.27
397.361	49.32
397.57	82.09
397.78	133.29
397.989	92.33
398.198	170.15
398.407	157.86
398.617	149.67
398.826	55.47
399.035	184.49
399.244	137.38
399.453	80.04
399.663	96.43
399.872	121
400.081	172.2
400.29	147.62
400.499	147.62
400.708	184.49
400.917	114.86
401.127	172.2
401.336	98.47
401.545	178.34
401.754	161.96
401.963	192.68
402.172	135.34
402.381	149.67
402.59	168.1
402.799	55.47
403.008	166.06
403.217	143.53
403.426	39.08
403.635	141.48
403.844	200.87
404.053	161.96
404.262	176.3
404.471	168.1
404.68	137.38
404.888	112.81
405.097	151.72
405.306	157.86
405.515	131.24
405.724	125.1
405.933	207.02
406.142	204.97
406.35	174.25
406.559	170.15
406.768	192.68
406.977	303.27
407.185	188.58
407.394	209.06
407.603	196.78
407.812	243.88
408.02	227.5
408.229	223.4
408.438	256.17
408.646	227.5
408.855	254.12
409.064	346.28
409.272	305.32
409.481	329.89
409.69	303.27
409.898	362.66
410.107	348.33
410.315	323.75
410.524	266.41
410.733	333.99
410.941	333.99
411.15	460.96
411.358	413.86
411.567	407.72
411.775	438.44
411.984	436.39
412.192	530.59
412.401	463.01
412.609	536.74
412.818	573.6
413.026	565.41
413.234	569.51
413.443	522.4
413.651	589.99
413.86	624.8
414.068	649.38
414.276	682.14
414.485	712.86
414.693	845.98
414.901	745.63
415.11	706.72
415.318	731.3
415.526	823.45
415.734	794.78
415.943	864.41
416.151	936.09
416.359	878.75
416.567	927.9
416.776	940.19
416.984	1044.63
417.192	1071.26
417.4	1138.84
417.608	1087.64
417.817	1085.59
418.025	1134.75
418.233	1190.04
418.441	1159.32
418.649	1308.82
418.857	1370.26
419.065	1351.83
419.273	1392.79
419.481	1489.04
419.689	1538.2
419.897	1575.06
420.105	1585.3
420.313	1669.27
420.521	1722.51
420.729	1702.03
420.937	1843.34
421.145	1904.78
421.353	1962.12
421.561	2027.66
421.769	2029.71
421.977	2166.92
422.185	2009.23
422.393	2390.15
422.601	2402.44
422.809	2328.71
423.017	2427.01
423.224	2543.75
423.432	2640
423.64	2822.27
423.848	2943.1
424.056	2826.37
424.263	3012.73
424.471	3051.64
424.679	2967.68
424.887	3246.2
425.094	3342.46
425.302	3272.82
425.51	3469.43
425.718	3604.6
425.925	3620.98
426.133	3743.86
426.341	3948.65
426.548	4169.84
426.756	4157.55
426.964	4087.92
427.171	4530.28
427.379	4677.73
427.586	4509.8
427.794	4759.65
428.001	4962.4
428.209	5058.65
428.417	4874.34
428.624	5455.96
428.832	5312.6
429.039	5318.75
429.247	5451.86
429.454	6076.49
429.662	6455.37
429.869	6051.92
430.076	6297.67
430.284	6207.56
430.491	6350.92
430.699	6869.06
430.906	6858.82
431.114	6922.31
431.321	7145.53
431.528	7440.44
431.736	7591.99
431.943	7942.19
432.15	7854.13
432.358	7929.91
432.565	8392.75
432.772	8296.49
432.979	8681.51
433.187	8796.2
433.394	9060.38
433.601	9488.41
433.808	9619.48
434.016	9490.46
434.223	9904.15
434.43	10573.83
434.637	10168.34
434.844	11053.06
435.052	11280.38
435.259	11077.63
435.466	11202.56
435.673	11130.88
435.88	11837.43
436.087	12441.58
436.294	12369.9
436.501	12113.91
436.708	12675.05
436.915	12857.32
437.122	13320.16
437.329	13291.49
437.537	13787.1
437.743	14112.72
437.95	13739.99
438.157	14602.19
438.364	15230.91
438.571	15355.84
438.778	15165.38
438.985	16803.75
439.192	15947.7
439.399	16306.1
439.606	16142.26
439.813	17024.93
440.02	17870.75
440.227	17713.05
440.433	17381.28
440.64	18122.65
440.847	18108.31
441.054	18429.84
441.261	19814.27
441.467	19552.13
441.674	19705.73
441.881	20737.9
442.088	20399.99
442.294	20168.57
442.501	21057.39
442.708	21528.42
442.914	22181.72
443.121	22886.22
443.328	22277.97
443.534	24067.9
443.741	23246.66
443.948	23244.62
444.154	24688.43
444.361	24575.8
444.568	24860.46
444.774	24770.35
444.981	25018.16
445.187	26124.06
445.394	27150.09
445.6	26453.78
445.807	29239.02
446.013	27942.66
446.22	28208.89
446.426	29535.98
446.633	29843.17
446.839	30695.13
447.046	29429.48
447.252	31303.37
447.459	31352.52
447.665	31182.54
447.871	32644.79
448.078	33939.11
448.284	31903.43
448.491	33294
448.697	34614.94
448.903	35362.45
449.11	35219.09
449.316	34924.18
449.522	35464.85
449.728	36439.68
449.935	36767.35
450.141	36390.53
450.347	37521.01
450.553	36400.77
450.76	36710.01
450.966	37842.54
451.172	37400.18
451.378	38841.95
451.584	37623.4
451.791	38422.11
451.997	38733.4
452.203	39689.81
452.409	39552.59
452.615	39360.08
452.821	37713.52
453.027	37217.91
453.233	39499.34
453.44	38073.96
453.646	38342.24
453.852	38921.82
454.058	39542.35
454.264	37713.52
454.47	38778.46
454.676	37922.41
454.882	39257.68
455.088	35929.73
455.294	36351.62
455.5	36681.34
455.705	37316.21
455.911	35956.36
456.117	35151.51
456.323	34664.09
456.529	32997.04
456.735	34260.64
456.941	33517.23
457.147	33083.06
457.352	32229.05
457.558	31454.92
457.764	31624.9
457.97	30957.27
458.176	30635.74
458.381	30334.68
458.587	28909.3
458.793	29089.52
458.999	27352.84
459.204	29464.3
459.41	28802.8
459.616	26599.19
459.821	26566.42
460.027	27096.85
460.233	26009.37
460.438	24813.36
460.644	25265.96
460.85	23832.38
461.055	23629.63
461.261	23525.19
461.466	21876.57
461.672	20768.62
461.878	22464.34
462.083	21063.53
462.289	20737.9
462.494	20436.85
462.7	19607.42
462.905	18995.08
463.111	19799.93
463.316	19810.17
463.522	19343.24
463.727	19621.76
463.932	19361.67
464.138	18999.18
464.343	19306.37
464.549	18495.38
464.754	19255.17
464.959	19117.96
465.165	18864.01
465.37	18096.02
465.575	17786.78
465.781	18450.32
465.986	18476.94
466.191	18147.22
466.397	17489.82
466.602	16596.91
466.807	17338.27
467.012	17377.19
467.218	17426.34
