Data from USB4F104151__30__12-35-31-222.txt Node

Date: Fri Mar 14 12:35:31 EDT 2025
User: louis
Spectrometer: USB4F10415
Trigger mode: 4
Integration Time (sec): 2.000000E-2
Scans to average: 1
Electric dark correction enabled: true
Nonlinearity correction enabled: false
Boxcar width: 0
XAxis mode: Wavelengths
Number of Pixels in Spectrum: 3648
>>>>>Begin Spectral Data<<<<<
178.204	-102.06
178.424	-102.06
178.644	-102.06
178.864	-132.78
179.084	-126.63
179.304	39.25
179.524	-40.62
179.744	-59.05
179.964	14.68
180.184	-26.28
180.404	-57
180.624	49.49
180.844	-7.85
181.064	24.92
181.283	24.92
181.503	0.34
181.723	37.2
181.943	-38.57
182.163	82.26
182.383	-5.8
182.602	0.34
182.822	-7.85
183.042	6.49
183.262	-9.9
183.482	-61.1
183.701	45.4
183.921	-34.47
184.141	-40.62
184.361	22.87
184.58	6.49
184.8	-20.14
185.02	-18.09
185.239	100.69
185.459	-30.38
185.679	24.92
185.898	-26.28
186.118	8.53
186.338	24.92
186.557	49.49
186.777	-38.57
186.997	41.3
187.216	33.11
187.436	10.58
187.655	20.82
187.875	4.44
188.095	-61.1
188.314	80.21
188.534	76.12
188.753	80.21
188.973	12.63
189.192	6.49
189.412	-18.09
189.631	45.4
189.851	16.73
190.07	43.35
190.29	-44.71
190.509	8.53
190.729	78.16
190.948	31.06
191.168	69.97
191.387	-11.95
191.607	59.73
191.826	18.77
192.045	59.73
192.265	6.49
192.484	-1.71
192.704	-3.75
192.923	-13.99
193.142	31.06
193.362	39.25
193.581	26.96
193.8	47.44
194.02	102.74
194.239	-30.38
194.458	-9.9
194.678	20.82
194.897	39.25
195.116	33.11
195.335	-46.76
195.555	31.06
195.774	59.73
195.993	26.96
196.212	-16.04
196.432	-26.28
196.651	-32.43
196.87	-61.1
197.089	96.6
197.308	24.92
197.528	-7.85
197.747	-44.71
197.966	-65.19
198.185	45.4
198.404	86.36
198.623	26.96
198.842	33.11
199.062	-5.8
199.281	57.68
199.5	6.49
199.719	-1.71
199.938	84.31
200.157	16.73
200.376	-28.33
200.595	69.97
200.814	-7.85
201.033	0.34
201.252	59.73
201.471	-42.67
201.69	78.16
201.909	24.92
202.128	29.01
202.347	-1.71
202.566	14.68
202.785	-22.19
203.004	63.83
203.223	102.74
203.442	33.11
203.661	33.11
203.879	-34.47
204.098	-52.91
204.317	-13.99
204.536	51.54
204.755	20.82
204.974	6.49
205.193	55.64
205.411	69.97
205.63	-11.95
205.849	-9.9
206.068	-32.43
206.287	39.25
206.505	39.25
206.724	86.36
206.943	-11.95
207.162	4.44
207.381	0.34
207.599	67.92
207.818	2.39
208.037	14.68
208.255	-28.33
208.474	-18.09
208.693	6.49
208.911	37.2
209.13	33.11
209.349	18.77
209.567	12.63
209.786	-30.38
210.005	29.01
210.223	24.92
210.442	-1.71
210.661	74.07
210.879	24.92
211.098	43.35
211.316	104.79
211.535	65.88
211.753	8.53
211.972	43.35
212.191	-5.8
212.409	-7.85
212.628	55.64
212.846	14.68
213.065	29.01
213.283	65.88
213.502	22.87
213.72	8.53
213.938	104.79
214.157	33.11
214.375	-7.85
214.594	0.34
214.812	51.54
215.031	-13.99
215.249	-48.81
215.467	14.68
215.686	-7.85
215.904	76.12
216.122	31.06
216.341	47.44
216.559	94.55
216.778	51.54
216.996	55.64
217.214	37.2
217.432	24.92
217.651	49.49
217.869	22.87
218.087	47.44
218.306	10.58
218.524	31.06
218.742	45.4
218.96	24.92
219.179	37.2
219.397	41.3
219.615	-1.71
219.833	-42.67
220.051	12.63
220.27	49.49
220.488	57.68
220.706	39.25
220.924	69.97
221.142	0.34
221.36	57.68
221.578	63.83
221.796	51.54
222.015	33.11
222.233	43.35
222.451	-38.57
222.669	35.16
222.887	29.01
223.105	8.53
223.323	4.44
223.541	43.35
223.759	-16.04
223.977	61.78
224.195	24.92
224.413	-65.19
224.631	16.73
224.849	53.59
225.067	53.59
225.285	-1.71
225.503	41.3
225.721	20.82
225.939	-30.38
226.157	-13.99
226.375	84.31
226.592	69.97
226.81	18.77
227.028	18.77
227.246	-38.57
227.464	59.73
227.682	12.63
227.9	106.84
228.117	78.16
228.335	24.92
228.553	12.63
228.771	47.44
228.989	35.16
229.206	33.11
229.424	31.06
229.642	10.58
229.86	0.34
230.077	-22.19
230.295	47.44
230.513	12.63
230.731	72.02
230.948	-16.04
231.166	39.25
231.384	10.58
231.601	35.16
231.819	12.63
232.037	-46.76
232.254	-46.76
232.472	57.68
232.689	31.06
232.907	69.97
233.125	16.73
233.342	-22.19
233.56	4.44
233.777	-18.09
233.995	33.11
234.213	0.34
234.43	-13.99
234.648	-3.75
234.865	14.68
235.083	102.74
235.3	-11.95
235.518	20.82
235.735	39.25
235.953	-32.43
236.17	-16.04
236.388	6.49
236.605	18.77
236.822	26.96
237.04	-34.47
237.257	47.44
237.475	18.77
237.692	-57
237.909	26.96
238.127	-26.28
238.344	47.44
238.562	26.96
238.779	-44.71
238.996	-52.91
239.214	-73.39
239.431	20.82
239.648	-48.81
239.865	-34.47
240.083	72.02
240.3	72.02
240.517	31.06
240.735	-22.19
240.952	90.45
241.169	-38.57
241.386	59.73
241.603	26.96
241.821	12.63
242.038	14.68
242.255	33.11
242.472	12.63
242.689	8.53
242.907	14.68
243.124	8.53
243.341	0.34
243.558	88.4
243.775	12.63
243.992	37.2
244.209	-18.09
244.426	96.6
244.643	18.77
244.86	16.73
245.078	12.63
245.295	-102.06
245.512	69.97
245.729	-46.76
245.946	45.4
246.163	39.25
246.38	-3.75
246.597	39.25
246.814	10.58
247.031	-26.28
247.248	-18.09
247.464	63.83
247.681	-18.09
247.898	76.12
248.115	10.58
248.332	2.39
248.549	137.56
248.766	94.55
248.983	84.31
249.2	57.68
249.417	22.87
249.633	20.82
249.85	59.73
250.067	84.31
250.284	53.59
250.501	2.39
250.717	82.26
250.934	55.64
251.151	45.4
251.368	31.06
251.585	53.59
251.801	14.68
252.018	20.82
252.235	20.82
252.451	49.49
252.668	14.68
252.885	6.49
253.102	96.6
253.318	-50.86
253.535	45.4
253.752	43.35
253.968	29.01
254.185	-9.9
254.401	53.59
254.618	-40.62
254.835	6.49
255.051	108.88
255.268	37.2
255.484	31.06
255.701	37.2
255.917	-1.71
256.134	16.73
256.351	10.58
256.567	29.01
256.784	29.01
257	76.12
257.217	59.73
257.433	-7.85
257.65	22.87
257.866	10.58
258.082	20.82
258.299	35.16
258.515	47.44
258.732	8.53
258.948	55.64
259.165	31.06
259.381	-22.19
259.597	39.25
259.814	0.34
260.03	-5.8
260.246	26.96
260.463	74.07
260.679	49.49
260.895	-28.33
261.112	65.88
261.328	39.25
261.544	0.34
261.761	31.06
261.977	-13.99
262.193	-7.85
262.409	4.44
262.626	90.45
262.842	108.88
263.058	53.59
263.274	6.49
263.49	65.88
263.707	33.11
263.923	-42.67
264.139	-9.9
264.355	37.2
264.571	24.92
264.787	82.26
265.004	61.78
265.22	22.87
265.436	-38.57
265.652	-24.23
265.868	24.92
266.084	-3.75
266.3	0.34
266.516	-20.14
266.732	31.06
266.948	72.02
267.164	35.16
267.38	39.25
267.596	31.06
267.812	37.2
268.028	2.39
268.244	29.01
268.46	51.54
268.676	26.96
268.892	43.35
269.108	-9.9
269.324	37.2
269.54	-24.23
269.756	39.25
269.972	18.77
270.188	-28.33
270.403	4.44
270.619	53.59
270.835	-18.09
271.051	80.21
271.267	-24.23
271.483	-5.8
271.698	96.6
271.914	-46.76
272.13	53.59
272.346	-1.71
272.562	-18.09
272.777	31.06
272.993	31.06
273.209	-28.33
273.425	117.08
273.64	6.49
273.856	22.87
274.072	10.58
274.287	12.63
274.503	4.44
274.719	10.58
274.934	31.06
275.15	-3.75
275.366	72.02
275.581	18.77
275.797	67.92
276.012	16.73
276.228	55.64
276.444	67.92
276.659	35.16
276.875	-3.75
277.09	51.54
277.306	24.92
277.521	20.82
277.737	14.68
277.952	72.02
278.168	-1.71
278.383	20.82
278.599	2.39
278.814	4.44
279.03	59.73
279.245	74.07
279.461	-11.95
279.676	110.93
279.892	76.12
280.107	14.68
280.322	20.82
280.538	45.4
280.753	20.82
280.969	-32.43
281.184	6.49
281.399	45.4
281.615	49.49
281.83	86.36
282.045	-20.14
282.26	72.02
282.476	-1.71
282.691	-3.75
282.906	-34.47
283.122	0.34
283.337	18.77
283.552	-18.09
283.767	-9.9
283.983	117.08
284.198	-7.85
284.413	59.73
284.628	18.77
284.843	100.69
285.058	29.01
285.274	51.54
285.489	-9.9
285.704	112.98
285.919	33.11
286.134	57.68
286.349	10.58
286.564	69.97
286.779	26.96
286.995	49.49
287.21	80.21
287.425	86.36
287.64	45.4
287.855	74.07
288.07	-5.8
288.285	59.73
288.5	20.82
288.715	22.87
288.93	65.88
289.145	-16.04
289.36	4.44
289.575	49.49
289.79	86.36
290.004	41.3
290.219	12.63
290.434	117.08
290.649	24.92
290.864	-20.14
291.079	47.44
291.294	41.3
291.509	22.87
291.724	22.87
291.938	43.35
292.153	26.96
292.368	53.59
292.583	45.4
292.798	22.87
293.012	78.16
293.227	57.68
293.442	57.68
293.657	92.5
293.871	-24.23
294.086	35.16
294.301	59.73
294.516	16.73
294.73	24.92
294.945	26.96
295.16	57.68
295.374	69.97
295.589	76.12
295.804	57.68
296.018	51.54
296.233	78.16
296.447	69.97
296.662	-79.53
296.877	51.54
297.091	69.97
297.306	72.02
297.52	10.58
297.735	63.83
297.949	72.02
298.164	51.54
298.378	24.92
298.593	18.77
298.807	-38.57
299.022	-7.85
299.236	45.4
299.451	-7.85
299.665	-46.76
299.88	129.36
300.094	14.68
300.309	-1.71
300.523	57.68
300.737	24.92
300.952	-3.75
301.166	8.53
301.381	-5.8
301.595	2.39
301.809	0.34
302.024	63.83
302.238	2.39
302.452	22.87
302.667	31.06
302.881	90.45
303.095	110.93
303.309	14.68
303.524	2.39
303.738	51.54
303.952	55.64
304.166	39.25
304.381	10.58
304.595	86.36
304.809	72.02
305.023	4.44
305.237	61.78
305.452	-24.23
305.666	12.63
305.88	102.74
306.094	-13.99
306.308	22.87
306.522	16.73
306.736	10.58
306.95	98.64
307.164	78.16
307.379	49.49
307.593	-7.85
307.807	12.63
308.021	39.25
308.235	72.02
308.449	2.39
308.663	18.77
308.877	69.97
309.091	18.77
309.305	43.35
309.519	2.39
309.733	100.69
309.947	-32.43
310.161	51.54
310.374	0.34
310.588	65.88
310.802	63.83
311.016	31.06
311.23	41.3
311.444	20.82
311.658	51.54
311.872	82.26
312.085	76.12
312.299	82.26
312.513	43.35
312.727	22.87
312.941	53.59
313.154	33.11
313.368	57.68
313.582	6.49
313.796	59.73
314.009	-9.9
314.223	63.83
314.437	67.92
314.651	112.98
314.864	-54.95
315.078	59.73
315.292	14.68
315.505	57.68
315.719	24.92
315.933	14.68
316.146	53.59
316.36	-44.71
316.573	69.97
316.787	84.31
317.001	-26.28
317.214	-34.47
317.428	53.59
317.641	41.3
317.855	41.3
318.068	35.16
318.282	115.03
318.495	88.4
318.709	63.83
318.922	39.25
319.136	41.3
319.349	57.68
319.563	10.58
319.776	41.3
319.99	18.77
320.203	16.73
320.417	20.82
320.63	-9.9
320.843	67.92
321.057	24.92
321.27	10.58
321.483	10.58
321.697	43.35
321.91	59.73
322.124	-3.75
322.337	90.45
322.55	-3.75
322.763	115.03
322.977	-5.8
323.19	4.44
323.403	61.78
323.617	35.16
323.83	10.58
324.043	72.02
324.256	57.68
324.469	96.6
324.683	49.49
324.896	65.88
325.109	0.34
325.322	26.96
325.535	41.3
325.748	59.73
325.962	20.82
326.175	14.68
326.388	-13.99
326.601	-38.57
326.814	-7.85
327.027	47.44
327.24	72.02
327.453	20.82
327.666	51.54
327.879	22.87
328.092	74.07
328.305	-11.95
328.518	18.77
328.731	-5.8
328.944	53.59
329.157	47.44
329.37	-20.14
329.583	12.63
329.796	33.11
330.009	29.01
330.222	-11.95
330.435	110.93
330.648	59.73
330.861	59.73
331.073	8.53
331.286	78.16
331.499	98.64
331.712	29.01
331.925	29.01
332.138	26.96
332.35	80.21
332.563	43.35
332.776	-16.04
332.989	51.54
333.202	16.73
333.414	4.44
333.627	22.87
333.84	26.96
334.053	59.73
334.265	67.92
334.478	47.44
334.691	33.11
334.903	22.87
335.116	39.25
335.329	31.06
335.541	51.54
335.754	106.84
335.966	-40.62
336.179	94.55
336.392	22.87
336.604	37.2
336.817	49.49
337.029	43.35
337.242	53.59
337.454	35.16
337.667	26.96
337.88	31.06
338.092	82.26
338.305	84.31
338.517	16.73
338.729	57.68
338.942	26.96
339.154	24.92
339.367	-30.38
339.579	43.35
339.792	22.87
340.004	-11.95
340.217	29.01
340.429	-11.95
340.641	-59.05
340.854	61.78
341.066	37.2
341.278	84.31
341.491	76.12
341.703	63.83
341.915	-28.33
342.128	43.35
342.34	-59.05
342.552	-32.43
342.764	47.44
342.977	59.73
343.189	65.88
343.401	-34.47
343.613	43.35
343.826	24.92
344.038	-32.43
344.25	47.44
344.462	41.3
344.674	98.64
344.886	65.88
345.099	-52.91
345.311	78.16
345.523	14.68
345.735	-7.85
345.947	100.69
346.159	43.35
346.371	35.16
346.583	20.82
346.795	88.4
347.007	61.78
347.219	51.54
347.431	-28.33
347.643	112.98
347.855	22.87
348.067	41.3
348.279	-38.57
348.491	20.82
348.703	24.92
348.915	49.49
349.127	20.82
349.339	84.31
349.551	41.3
349.763	61.78
349.975	10.58
350.187	51.54
350.399	74.07
350.61	8.53
350.822	-50.86
351.034	29.01
351.246	26.96
351.458	96.6
351.669	31.06
351.881	20.82
352.093	51.54
352.305	74.07
352.517	22.87
352.728	133.46
352.94	61.78
353.152	67.92
353.363	-9.9
353.575	88.4
353.787	18.77
353.999	82.26
354.21	61.78
354.422	22.87
354.633	-30.38
354.845	90.45
355.057	-9.9
355.268	-36.52
355.48	88.4
355.692	-1.71
355.903	92.5
356.115	10.58
356.326	-61.1
356.538	86.36
356.749	98.64
356.961	74.07
357.172	20.82
357.384	16.73
357.595	57.68
357.807	72.02
358.018	37.2
358.23	24.92
358.441	51.54
358.653	6.49
358.864	22.87
359.075	-26.28
359.287	67.92
359.498	65.88
359.709	63.83
359.921	94.55
360.132	78.16
360.344	96.6
360.555	100.69
360.766	26.96
360.977	51.54
361.189	94.55
361.4	82.26
361.611	119.12
361.823	90.45
362.034	-44.71
362.245	20.82
362.456	67.92
362.667	6.49
362.879	39.25
363.09	61.78
363.301	35.16
363.512	39.25
363.723	22.87
363.935	108.88
364.146	51.54
364.357	35.16
364.568	72.02
364.779	-9.9
364.99	0.34
365.201	-1.71
365.412	35.16
365.623	45.4
365.834	41.3
366.045	14.68
366.256	20.82
366.467	0.34
366.678	35.16
366.889	-9.9
367.1	-40.62
367.311	63.83
367.522	33.11
367.733	18.77
367.944	22.87
368.155	-22.19
368.366	96.6
368.577	76.12
368.788	76.12
368.999	78.16
369.209	14.68
369.42	106.84
369.631	94.55
369.842	106.84
370.053	84.31
370.264	16.73
370.474	24.92
370.685	57.68
370.896	69.97
371.107	92.5
371.317	24.92
371.528	33.11
371.739	74.07
371.95	35.16
372.16	49.49
372.371	-16.04
372.582	26.96
372.792	53.59
373.003	72.02
373.214	0.34
373.424	78.16
373.635	18.77
373.846	16.73
374.056	14.68
374.267	-83.63
374.477	43.35
374.688	76.12
374.898	63.83
375.109	22.87
375.319	131.41
375.53	55.64
375.74	33.11
375.951	47.44
376.161	4.44
376.372	90.45
376.582	14.68
376.793	14.68
377.003	80.21
377.214	14.68
377.424	16.73
377.635	76.12
377.845	47.44
378.055	22.87
378.266	74.07
378.476	29.01
378.686	123.22
378.897	47.44
379.107	22.87
379.317	41.3
379.528	-16.04
379.738	78.16
379.948	0.34
380.158	29.01
380.369	53.59
380.579	49.49
380.789	53.59
380.999	51.54
381.21	82.26
381.42	4.44
381.63	49.49
381.84	88.4
382.05	51.54
382.261	104.79
382.471	104.79
382.681	24.92
382.891	69.97
383.101	29.01
383.311	31.06
383.521	92.5
383.731	31.06
383.941	39.25
384.151	8.53
384.361	88.4
384.571	-36.52
384.781	61.78
384.991	43.35
385.201	78.16
385.411	-9.9
385.621	78.16
385.831	137.56
386.041	90.45
386.251	69.97
386.461	106.84
386.671	47.44
386.881	31.06
387.091	51.54
387.301	115.03
387.511	74.07
387.72	72.02
387.93	6.49
388.14	55.64
388.35	24.92
388.56	33.11
388.769	65.88
388.979	4.44
389.189	31.06
389.399	59.73
389.609	88.4
389.818	69.97
390.028	104.79
390.238	72.02
390.447	-13.99
390.657	117.08
390.867	78.16
391.076	55.64
391.286	53.59
391.496	74.07
391.705	106.84
391.915	24.92
392.125	53.59
392.334	88.4
392.544	102.74
392.753	102.74
392.963	53.59
393.172	90.45
393.382	29.01
393.591	92.5
393.801	55.64
394.01	33.11
394.22	84.31
394.429	67.92
394.639	45.4
394.848	170.32
395.058	94.55
395.267	22.87
395.477	133.46
395.686	18.77
395.895	133.46
396.105	172.37
396.314	90.45
396.524	47.44
396.733	67.92
396.942	147.8
397.152	125.27
397.361	131.41
397.57	170.32
397.78	143.7
397.989	49.49
398.198	90.45
398.407	86.36
398.617	108.88
398.826	121.17
399.035	145.75
399.244	143.7
399.453	65.88
399.663	119.12
399.872	162.13
400.081	92.5
400.29	141.65
400.499	90.45
400.708	194.9
400.917	51.54
401.127	141.65
401.336	121.17
401.545	117.08
401.754	129.36
401.963	55.64
402.172	121.17
402.381	59.73
402.59	92.5
402.799	147.8
403.008	158.03
403.217	76.12
403.426	180.56
403.635	201.04
403.844	90.45
404.053	67.92
404.262	106.84
404.471	203.09
404.68	194.9
404.888	203.09
405.097	221.52
405.306	178.51
405.515	205.14
405.724	115.03
405.933	129.36
406.142	178.51
406.35	135.51
406.559	219.47
406.768	237.91
406.977	203.09
407.185	192.85
407.394	260.43
407.603	207.19
407.812	262.48
408.02	221.52
408.229	155.99
408.438	211.28
408.646	254.29
408.855	252.24
409.064	287.06
409.272	280.91
409.481	379.22
409.69	244.05
409.898	352.59
410.107	368.98
410.315	293.2
410.524	342.35
410.733	328.02
410.941	321.87
411.15	375.12
411.358	442.7
411.567	440.65
411.775	454.99
411.984	477.52
412.192	485.71
412.401	444.75
412.609	606.54
412.818	586.06
413.026	450.89
413.234	553.29
413.443	516.43
413.651	555.34
413.86	575.82
414.068	672.08
414.276	670.03
414.485	649.55
414.693	649.55
414.901	733.51
415.11	735.56
415.318	694.6
415.526	768.33
415.734	790.86
415.943	872.78
416.151	794.95
416.359	821.58
416.567	885.06
416.776	923.98
416.984	1030.47
417.192	1042.76
417.4	1073.48
417.608	1106.24
417.817	1179.97
418.025	1216.83
418.233	1321.28
418.441	1198.4
418.649	1347.9
418.857	1343.81
419.065	1401.15
419.273	1347.9
419.481	1515.84
419.689	1481.02
419.897	1562.94
420.105	1612.09
420.313	1653.05
420.521	1769.79
420.729	1833.27
420.937	1786.17
421.145	1833.27
421.353	1915.19
421.561	1958.2
421.769	2079.03
421.977	2261.3
422.185	2124.08
422.393	2302.26
422.601	2464.05
422.809	2509.1
423.017	2457.9
423.224	2541.87
423.432	2697.52
423.64	2732.33
423.848	2844.97
424.056	2875.69
424.263	3082.53
424.471	3117.35
424.679	3150.12
424.887	3219.75
425.094	3408.16
425.302	3414.31
425.51	3453.22
425.718	3569.95
425.925	3623.2
426.133	3928.35
426.341	4155.67
426.548	4362.51
426.756	4223.25
426.964	4151.57
427.171	4460.82
427.379	4610.32
427.586	4673.81
427.794	4835.6
428.001	5079.3
428.209	5189.89
428.417	5034.25
428.624	5435.65
428.832	5581.06
429.039	5640.45
429.247	5816.57
429.454	6023.42
429.662	6353.14
429.869	6146.3
430.076	6531.31
430.284	6336.76
430.491	6732.01
430.699	6895.85
430.906	6836.46
431.114	7237.86
431.321	7352.55
431.528	7661.79
431.736	7981.28
431.943	8184.02
432.15	8194.26
432.358	8009.95
432.565	8675.54
432.772	8499.41
432.979	8890.57
433.187	9007.31
433.394	9199.82
433.601	9676.99
433.808	9932.99
434.016	9828.54
434.223	10272.95
434.43	10741.94
434.637	10569.91
434.844	11237.55
435.052	11321.51
435.259	11475.11
435.466	11663.52
435.673	11399.34
435.88	12056.73
436.087	12742.8
436.294	12785.81
436.501	12429.46
436.708	12601.49
436.915	12980.37
437.122	13918.34
437.329	13699.2
437.537	13987.97
437.743	14313.59
437.95	14114.94
438.157	14917.75
438.364	15423.59
438.571	15235.18
438.778	15716.45
438.985	16869.46
439.192	16197.73
439.399	16988.24
439.606	16568.41
439.813	17219.66
440.02	18174.02
440.227	17938.5
440.433	18032.71
440.64	18497.6
440.847	18257.98
441.054	19062.83
441.261	20189.22
441.467	19982.37
441.674	20361.25
441.881	21129.23
442.088	20594.72
442.294	20963.35
442.501	21430.29
442.708	21643.28
442.914	22484.99
443.121	23414.77
443.328	22874.1
443.534	24289.25
443.741	23730.16
443.948	23349.23
444.154	25104.34
444.361	25090.01
444.568	25335.76
444.774	24969.18
444.981	25382.87
445.187	26013.64
445.394	26998.71
445.6	27191.22
445.807	29433.75
446.013	28237.73
446.22	28995.48
446.426	29831.05
446.633	30068.62
446.839	31186.81
447.046	29925.26
447.252	31598.45
447.459	31807.34
447.665	31635.31
447.871	33056.6
448.078	34441.03
448.284	32401.25
448.491	33369.94
448.697	34846.53
448.903	35325.75
449.11	35714.87
449.316	34867.01
449.522	35340.09
449.728	36740.9
449.935	36835.11
450.141	36888.35
450.347	37949.2
450.553	36140.85
450.76	36970.27
450.966	38213.39
451.172	37515.03
451.378	38622.98
451.584	38133.52
451.791	38743.81
451.997	38954.75
452.203	39194.37
452.409	39403.26
452.615	39640.82
452.821	37961.49
453.027	37609.24
453.233	39407.36
453.44	37742.36
453.646	38092.56
453.852	38625.03
454.058	39085.82
454.264	38074.13
454.47	38868.74
454.676	37650.2
454.882	38952.71
455.088	35665.72
455.294	35903.28
455.5	36648.74
455.705	37095.2
455.911	35362.62
456.117	34914.11
456.323	34438.98
456.529	32712.55
456.735	34254.67
456.941	32999.26
457.147	32728.93
457.352	31586.16
457.558	31328.12
457.764	31281.02
457.97	30721.92
458.176	30218.12
458.381	30283.66
458.587	28653.47
458.793	28450.72
458.999	26951.61
459.204	29153.18
459.41	28303.27
459.616	26488.77
459.821	26625.98
460.027	26519.49
460.233	25923.53
460.438	24381.41
460.644	24780.76
460.85	23603.18
461.055	23693.29
461.261	23207.92
461.466	21473.29
461.672	20795.42
461.878	22249.47
462.083	20901.91
462.289	20330.53
462.494	20174.88
462.7	19433.52
462.905	18788.41
463.111	19800.1
463.316	19398.7
463.522	19177.52
463.727	19220.53
463.932	19015.73
464.138	18901.04
464.343	19159.09
464.549	18321.47
464.754	19028.02
464.959	18763.83
465.165	18915.38
465.37	17877.06
465.575	17330.25
465.781	18100.29
465.986	18161.73
466.191	17369.16
466.397	17301.58
466.602	16146.53
466.807	16894.04
467.012	17000.53
467.218	16928.85
467.423	16910.42
467.628	16934.99
