Data from USB4F104151__63__12-36-31-116.txt Node

Date: Fri Mar 14 12:36:31 EDT 2025
User: louis
Spectrometer: USB4F10415
Trigger mode: 4
Integration Time (sec): 2.000000E-2
Scans to average: 1
Electric dark correction enabled: true
Nonlinearity correction enabled: false
Boxcar width: 0
XAxis mode: Wavelengths
Number of Pixels in Spectrum: 3648
>>>>>Begin Spectral Data<<<<<
178.204	-71.17
178.424	-71.17
178.644	-71.17
178.864	-67.07
179.084	-122.37
179.304	-28.16
179.524	-36.35
179.744	-40.45
179.964	-13.82
180.184	-11.78
180.404	10.75
180.624	61.95
180.844	10.75
181.064	-3.58
181.283	31.23
181.503	-36.35
181.723	55.81
181.943	-24.06
182.163	53.76
182.383	-5.63
182.602	66.05
182.822	-19.97
183.042	29.18
183.262	0.51
183.482	-54.78
183.701	57.86
183.921	14.85
184.141	-1.54
184.361	104.96
184.58	-38.4
184.8	2.56
185.02	29.18
185.239	10.75
185.459	33.28
185.679	37.38
185.898	12.8
186.118	41.47
186.338	55.81
186.557	43.52
186.777	-11.78
186.997	55.81
187.216	92.67
187.436	51.71
187.655	20.99
187.875	12.8
188.095	76.29
188.314	59.9
188.534	64
188.753	4.61
188.973	25.09
189.192	20.99
189.412	33.28
189.631	10.75
189.851	61.95
190.07	-17.92
190.29	-24.06
190.509	10.75
190.729	23.04
190.948	86.53
191.168	84.48
191.387	-11.78
191.607	61.95
191.826	20.99
192.045	27.14
192.265	-13.82
192.484	31.23
192.704	84.48
192.923	-62.98
193.142	8.7
193.362	37.38
193.581	102.91
193.8	-19.97
194.02	20.99
194.239	80.38
194.458	27.14
194.678	-19.97
194.897	12.8
195.116	31.23
195.335	-50.69
195.555	39.42
195.774	-24.06
195.993	14.85
196.212	-7.68
196.432	-1.54
196.651	78.33
196.87	23.04
197.089	25.09
197.308	57.86
197.528	23.04
197.747	4.61
197.966	49.66
198.185	117.25
198.404	-13.82
198.623	-1.54
198.842	23.04
199.062	33.28
199.281	64
199.5	35.33
199.719	113.15
199.938	31.23
200.157	25.09
200.376	51.71
200.595	31.23
200.814	-9.73
201.033	-7.68
201.252	53.76
201.471	90.62
201.69	20.99
201.909	4.61
202.128	72.19
202.347	121.34
202.566	-11.78
202.785	8.7
203.004	4.61
203.223	111.1
203.442	8.7
203.661	20.99
203.879	-22.02
204.098	23.04
204.317	74.24
204.536	104.96
204.755	109.05
204.974	100.86
205.193	88.57
205.411	115.2
205.63	33.28
205.849	29.18
206.068	82.43
206.287	-28.16
206.505	49.66
206.724	14.85
206.943	-28.16
207.162	29.18
207.381	25.09
207.599	-7.68
207.818	-15.87
208.037	31.23
208.255	-7.68
208.474	49.66
208.693	35.33
208.911	-19.97
209.13	45.57
209.349	82.43
209.567	-3.58
209.786	25.09
210.005	23.04
210.223	23.04
210.442	-5.63
210.661	51.71
210.879	10.75
211.098	16.9
211.316	35.33
211.535	70.14
211.753	25.09
211.972	94.72
212.191	61.95
212.409	-1.54
212.628	43.52
212.846	23.04
213.065	39.42
213.283	80.38
213.502	8.7
213.72	20.99
213.938	86.53
214.157	-9.73
214.375	78.33
214.594	72.19
214.812	12.8
215.031	90.62
215.249	12.8
215.467	18.94
215.686	27.14
215.904	70.14
216.122	25.09
216.341	74.24
216.559	49.66
216.778	20.99
216.996	-9.73
217.214	-22.02
217.432	-3.58
217.651	35.33
217.869	29.18
218.087	25.09
218.306	25.09
218.524	37.38
218.742	33.28
218.96	76.29
219.179	-77.31
219.397	23.04
219.615	94.72
219.833	51.71
220.051	-15.87
220.27	23.04
220.488	39.42
220.706	4.61
220.924	-32.26
221.142	8.7
221.36	4.61
221.578	49.66
221.796	53.76
222.015	66.05
222.233	74.24
222.451	37.38
222.669	82.43
222.887	-44.54
223.105	-28.16
223.323	18.94
223.541	86.53
223.759	39.42
223.977	64
224.195	-1.54
224.413	25.09
224.631	84.48
224.849	29.18
225.067	88.57
225.285	23.04
225.503	-32.26
225.721	-13.82
225.939	96.77
226.157	33.28
226.375	100.86
226.592	43.52
226.81	100.86
227.028	-32.26
227.246	84.48
227.464	41.47
227.682	6.66
227.9	-26.11
228.117	33.28
228.335	-42.5
228.553	61.95
228.771	96.77
228.989	6.66
229.206	53.76
229.424	6.66
229.642	-79.36
229.86	35.33
230.077	-9.73
230.295	45.57
230.513	76.29
230.731	104.96
230.948	55.81
231.166	74.24
231.384	31.23
231.601	51.71
231.819	45.57
232.037	39.42
232.254	-15.87
232.472	35.33
232.689	66.05
232.907	-44.54
233.125	-34.3
233.342	27.14
233.56	55.81
233.777	27.14
233.995	2.56
234.213	74.24
234.43	76.29
234.648	57.86
234.865	2.56
235.083	47.62
235.3	88.57
235.518	61.95
235.735	68.09
235.953	49.66
236.17	33.28
236.388	111.1
236.605	31.23
236.822	70.14
237.04	55.81
237.257	27.14
237.475	66.05
237.692	18.94
237.909	86.53
238.127	4.61
238.344	49.66
238.562	2.56
238.779	-1.54
238.996	-1.54
239.214	-26.11
239.431	29.18
239.648	39.42
239.865	66.05
240.083	72.19
240.3	84.48
240.517	23.04
240.735	-9.73
240.952	47.62
241.169	72.19
241.386	74.24
241.603	39.42
241.821	-17.92
242.038	-15.87
242.255	29.18
242.472	49.66
242.689	49.66
242.907	59.9
243.124	25.09
243.341	-15.87
243.558	-42.5
243.775	49.66
243.992	10.75
244.209	12.8
244.426	111.1
244.643	4.61
244.86	20.99
245.078	107.01
245.295	12.8
245.512	12.8
245.729	43.52
245.946	66.05
246.163	59.9
246.38	35.33
246.597	29.18
246.814	27.14
247.031	90.62
247.248	98.81
247.464	31.23
247.681	25.09
247.898	16.9
248.115	57.86
248.332	18.94
248.549	49.66
248.766	-15.87
248.983	29.18
249.2	-30.21
249.417	123.39
249.633	-34.3
249.85	76.29
250.067	-5.63
250.284	25.09
250.501	45.57
250.717	23.04
250.934	-116.22
251.151	43.52
251.368	25.09
251.585	113.15
251.801	-11.78
252.018	12.8
252.235	43.52
252.451	43.52
252.668	59.9
252.885	43.52
253.102	33.28
253.318	37.38
253.535	-11.78
253.752	57.86
253.968	-5.63
254.185	39.42
254.401	20.99
254.618	37.38
254.835	23.04
255.051	55.81
255.268	-15.87
255.484	68.09
255.701	49.66
255.917	100.86
256.134	0.51
256.351	66.05
256.567	-34.3
256.784	4.61
257	-19.97
257.217	115.2
257.433	61.95
257.65	53.76
257.866	6.66
258.082	-7.68
258.299	29.18
258.515	10.75
258.732	-30.21
258.948	70.14
259.165	10.75
259.381	12.8
259.597	2.56
259.814	6.66
260.03	39.42
260.246	18.94
260.463	55.81
260.679	6.66
260.895	4.61
261.112	-13.82
261.328	64
261.544	57.86
261.761	-9.73
261.977	23.04
262.193	-30.21
262.409	14.85
262.626	53.76
262.842	16.9
263.058	31.23
263.274	25.09
263.49	115.2
263.707	117.25
263.923	45.57
264.139	29.18
264.355	55.81
264.571	51.71
264.787	14.85
265.004	29.18
265.22	66.05
265.436	78.33
265.652	23.04
265.868	45.57
266.084	57.86
266.3	-3.58
266.516	16.9
266.732	90.62
266.948	20.99
267.164	66.05
267.38	51.71
267.596	76.29
267.812	80.38
268.028	-11.78
268.244	70.14
268.46	59.9
268.676	10.75
268.892	45.57
269.108	125.44
269.324	2.56
269.54	-7.68
269.756	43.52
269.972	33.28
270.188	27.14
270.403	-13.82
270.619	10.75
270.835	68.09
271.051	16.9
271.267	41.47
271.483	18.94
271.698	25.09
271.914	-30.21
272.13	41.47
272.346	74.24
272.562	29.18
272.777	20.99
272.993	61.95
273.209	25.09
273.425	0.51
273.64	94.72
273.856	0.51
274.072	57.86
274.287	0.51
274.503	29.18
274.719	57.86
274.934	49.66
275.15	-50.69
275.366	-22.02
275.581	70.14
275.797	41.47
276.012	88.57
276.228	41.47
276.444	70.14
276.659	72.19
276.875	47.62
277.09	76.29
277.306	-11.78
277.521	86.53
277.737	29.18
277.952	27.14
278.168	53.76
278.383	-40.45
278.599	74.24
278.814	41.47
279.03	31.23
279.245	41.47
279.461	43.52
279.676	25.09
279.892	20.99
280.107	55.81
280.322	43.52
280.538	43.52
280.753	-19.97
280.969	66.05
281.184	25.09
281.399	20.99
281.615	0.51
281.83	55.81
282.045	-11.78
282.26	27.14
282.476	72.19
282.691	117.25
282.906	-7.68
283.122	-26.11
283.337	-48.64
283.552	61.95
283.767	74.24
283.983	8.7
284.198	78.33
284.413	115.2
284.628	49.66
284.843	51.71
285.058	68.09
285.274	25.09
285.489	-30.21
285.704	76.29
285.919	66.05
286.134	102.91
286.349	66.05
286.564	94.72
286.779	59.9
286.995	59.9
287.21	-36.35
287.425	16.9
287.64	59.9
287.855	61.95
288.07	72.19
288.285	47.62
288.5	80.38
288.715	18.94
288.93	76.29
289.145	18.94
289.36	111.1
289.575	8.7
289.79	92.67
290.004	64
290.219	16.9
290.434	80.38
290.649	16.9
290.864	51.71
291.079	61.95
291.294	100.86
291.509	57.86
291.724	47.62
291.938	12.8
292.153	25.09
292.368	25.09
292.583	111.1
292.798	100.86
293.012	27.14
293.227	18.94
293.442	16.9
293.657	51.71
293.871	49.66
294.086	45.57
294.301	51.71
294.516	53.76
294.73	61.95
294.945	53.76
295.16	10.75
295.374	14.85
295.589	72.19
295.804	35.33
296.018	0.51
296.233	68.09
296.447	86.53
296.662	74.24
296.877	29.18
297.091	98.81
297.306	27.14
297.52	109.05
297.735	39.42
297.949	23.04
298.164	90.62
298.378	-13.82
298.593	88.57
298.807	41.47
299.022	139.77
299.236	-5.63
299.451	12.8
299.665	29.18
299.88	14.85
300.094	78.33
300.309	88.57
300.523	23.04
300.737	12.8
300.952	70.14
301.166	8.7
301.381	96.77
301.595	100.86
301.809	29.18
302.024	-26.11
302.238	25.09
302.452	31.23
302.667	78.33
302.881	70.14
303.095	51.71
303.309	41.47
303.524	31.23
303.738	14.85
303.952	-22.02
304.166	41.47
304.381	8.7
304.595	82.43
304.809	-32.26
305.023	61.95
305.237	47.62
305.452	23.04
305.666	74.24
305.88	88.57
306.094	31.23
306.308	107.01
306.522	-7.68
306.736	-28.16
306.95	68.09
307.164	43.52
307.379	25.09
307.593	102.91
307.807	12.8
308.021	37.38
308.235	-65.02
308.449	12.8
308.663	-44.54
308.877	53.76
309.091	-5.63
309.305	119.29
309.519	0.51
309.733	70.14
309.947	-7.68
310.161	49.66
310.374	59.9
310.588	43.52
310.802	111.1
311.016	25.09
311.23	68.09
311.444	109.05
311.658	0.51
311.872	107.01
312.085	80.38
312.299	51.71
312.513	47.62
312.727	117.25
312.941	47.62
313.154	70.14
313.368	43.52
313.582	84.48
313.796	25.09
314.009	88.57
314.223	39.42
314.437	14.85
314.651	41.47
314.864	47.62
315.078	-24.06
315.292	12.8
315.505	45.57
315.719	49.66
315.933	41.47
316.146	76.29
316.36	137.73
316.573	61.95
316.787	35.33
317.001	92.67
317.214	45.57
317.428	74.24
317.641	14.85
317.855	47.62
318.068	-40.45
318.282	72.19
318.495	0.51
318.709	121.34
318.922	88.57
319.136	61.95
319.349	8.7
319.563	-19.97
319.776	70.14
319.99	49.66
320.203	82.43
320.417	49.66
320.63	51.71
320.843	143.87
321.057	20.99
321.27	59.9
321.483	86.53
321.697	100.86
321.91	-24.06
322.124	80.38
322.337	-7.68
322.55	23.04
322.763	70.14
322.977	61.95
323.19	-48.64
323.403	70.14
323.617	35.33
323.83	39.42
324.043	68.09
324.256	49.66
324.469	39.42
324.683	66.05
324.896	-13.82
325.109	88.57
325.322	27.14
325.535	27.14
325.748	47.62
325.962	86.53
326.175	94.72
326.388	100.86
326.601	98.81
326.814	31.23
327.027	6.66
327.24	82.43
327.453	-26.11
327.666	96.77
327.879	49.66
328.092	76.29
328.305	29.18
328.518	39.42
328.731	-44.54
328.944	84.48
329.157	57.86
329.37	6.66
329.583	43.52
329.796	55.81
330.009	-30.21
330.222	29.18
330.435	8.7
330.648	86.53
330.861	-9.73
331.073	31.23
331.286	37.38
331.499	102.91
331.712	43.52
331.925	84.48
332.138	29.18
332.35	115.2
332.563	8.7
332.776	98.81
332.989	27.14
333.202	16.9
333.414	51.71
333.627	27.14
333.84	-19.97
334.053	31.23
334.265	18.94
334.478	74.24
334.691	104.96
334.903	76.29
335.116	41.47
335.329	-30.21
335.541	12.8
335.754	8.7
335.966	37.38
336.179	35.33
336.392	35.33
336.604	-3.58
336.817	117.25
337.029	33.28
337.242	-36.35
337.454	39.42
337.667	27.14
337.88	104.96
338.092	72.19
338.305	25.09
338.517	49.66
338.729	135.68
338.942	125.44
339.154	45.57
339.367	25.09
339.579	-54.78
339.792	10.75
340.004	98.81
340.217	59.9
340.429	68.09
340.641	72.19
340.854	-36.35
341.066	37.38
341.278	35.33
341.491	59.9
341.703	66.05
341.915	-3.58
342.128	86.53
342.34	45.57
342.552	-24.06
342.764	57.86
342.977	-7.68
343.189	31.23
343.401	57.86
343.613	57.86
343.826	45.57
344.038	78.33
344.25	45.57
344.462	35.33
344.674	135.68
344.886	12.8
345.099	53.76
345.311	51.71
345.523	86.53
345.735	23.04
345.947	59.9
346.159	31.23
346.371	74.24
346.583	82.43
346.795	76.29
347.007	41.47
347.219	123.39
347.431	8.7
347.643	143.87
347.855	74.24
348.067	160.25
348.279	23.04
348.491	35.33
348.703	66.05
348.915	8.7
349.127	14.85
349.339	25.09
349.551	53.76
349.763	94.72
349.975	102.91
350.187	82.43
350.399	86.53
350.61	88.57
350.822	23.04
351.034	43.52
351.246	100.86
351.458	70.14
351.669	33.28
351.881	78.33
352.093	18.94
352.305	78.33
352.517	64
352.728	61.95
352.94	45.57
353.152	76.29
353.363	29.18
353.575	10.75
353.787	66.05
353.999	18.94
354.21	123.39
354.422	47.62
354.633	47.62
354.845	41.47
355.057	51.71
355.268	53.76
355.48	78.33
355.692	51.71
355.903	61.95
356.115	78.33
356.326	6.66
356.538	39.42
356.749	78.33
356.961	104.96
357.172	33.28
357.384	27.14
357.595	29.18
357.807	158.21
358.018	33.28
358.23	72.19
358.441	107.01
358.653	51.71
358.864	64
359.075	98.81
359.287	61.95
359.498	88.57
359.709	37.38
359.921	74.24
360.132	96.77
360.344	-44.54
360.555	45.57
360.766	45.57
360.977	29.18
361.189	51.71
361.4	37.38
361.611	125.44
361.823	57.86
362.034	31.23
362.245	59.9
362.456	33.28
362.667	84.48
362.879	70.14
363.09	25.09
363.301	-32.26
363.512	39.42
363.723	20.99
363.935	10.75
364.146	57.86
364.357	92.67
364.568	53.76
364.779	90.62
364.99	78.33
365.201	96.77
365.412	43.52
365.623	90.62
365.834	10.75
366.045	23.04
366.256	117.25
366.467	59.9
366.678	145.92
366.889	37.38
367.1	111.1
367.311	78.33
367.522	31.23
367.733	80.38
367.944	86.53
368.155	123.39
368.366	92.67
368.577	98.81
368.788	92.67
368.999	57.86
369.209	68.09
369.42	78.33
369.631	102.91
369.842	53.76
370.053	68.09
370.264	104.96
370.474	74.24
370.685	131.58
370.896	29.18
371.107	104.96
371.317	20.99
371.528	80.38
371.739	78.33
371.95	33.28
372.16	125.44
372.371	98.81
372.582	33.28
372.792	39.42
373.003	131.58
373.214	72.19
373.424	76.29
373.635	39.42
373.846	84.48
374.056	82.43
374.267	25.09
374.477	57.86
374.688	37.38
374.898	104.96
375.109	45.57
375.319	152.06
375.53	162.3
375.74	41.47
375.951	90.62
376.161	96.77
376.372	45.57
376.582	107.01
376.793	43.52
377.003	57.86
377.214	102.91
377.424	10.75
377.635	127.49
377.845	109.05
378.055	74.24
378.266	47.62
378.476	94.72
378.686	107.01
378.897	27.14
379.107	96.77
379.317	113.15
379.528	25.09
379.738	47.62
379.948	57.86
380.158	98.81
380.369	70.14
380.579	35.33
380.789	53.76
380.999	49.66
381.21	84.48
381.42	51.71
381.63	14.85
381.84	72.19
382.05	78.33
382.261	49.66
382.471	84.48
382.681	49.66
382.891	129.53
383.101	76.29
383.311	4.61
383.521	133.63
383.731	66.05
383.941	113.15
384.151	41.47
384.361	74.24
384.571	129.53
384.781	25.09
384.991	147.97
385.201	37.38
385.411	139.77
385.621	55.81
385.831	72.19
386.041	94.72
386.251	137.73
386.461	121.34
386.671	43.52
386.881	12.8
387.091	94.72
387.301	57.86
387.511	47.62
387.72	94.72
387.93	84.48
388.14	37.38
388.35	4.61
388.56	156.16
388.769	53.76
388.979	59.9
389.189	35.33
389.399	76.29
389.609	86.53
389.818	119.29
390.028	20.99
390.238	86.53
390.447	49.66
390.657	113.15
390.867	59.9
391.076	45.57
391.286	86.53
391.496	88.57
391.705	86.53
391.915	66.05
392.125	104.96
392.334	84.48
392.544	76.29
392.753	92.67
392.963	72.19
393.172	139.77
393.382	104.96
393.591	139.77
393.801	98.81
394.01	113.15
394.22	70.14
394.429	102.91
394.639	86.53
394.848	82.43
395.058	94.72
395.267	141.82
395.477	102.91
395.686	176.64
395.895	162.3
396.105	139.77
396.314	90.62
396.524	133.63
396.733	92.67
396.942	141.82
397.152	92.67
397.361	150.01
397.57	180.73
397.78	186.88
397.989	55.81
398.198	229.88
398.407	86.53
398.617	133.63
398.826	160.25
399.035	133.63
399.244	141.82
399.453	176.64
399.663	125.44
399.872	119.29
400.081	186.88
400.29	154.11
400.499	178.69
400.708	170.49
400.917	147.97
401.127	141.82
401.336	147.97
401.545	207.36
401.754	133.63
401.963	168.45
402.172	201.21
402.381	182.78
402.59	176.64
402.799	154.11
403.008	190.97
403.217	203.26
403.426	233.98
403.635	184.83
403.844	190.97
404.053	156.16
404.262	256.51
404.471	260.6
404.68	190.97
404.888	176.64
405.097	143.87
405.306	240.12
405.515	217.6
405.724	225.79
405.933	309.76
406.142	201.21
406.35	238.08
406.559	233.98
406.768	264.7
406.977	264.7
407.185	203.26
407.394	233.98
407.603	293.37
407.812	301.56
408.02	274.94
408.229	276.99
408.438	281.08
408.646	360.95
408.855	379.39
409.064	330.23
409.272	367.1
409.481	381.43
409.69	324.09
409.898	389.63
410.107	451.07
410.315	449.02
410.524	346.62
410.733	401.91
410.941	537.08
411.15	563.7
411.358	528.89
411.567	578.04
411.775	514.55
411.984	526.84
412.192	510.46
412.401	580.09
412.609	696.82
412.818	723.44
413.026	756.21
413.234	727.54
413.443	676.34
413.651	690.68
413.86	733.68
414.068	850.42
414.276	958.96
414.485	866.8
414.693	840.18
414.901	1014.26
415.11	1059.31
415.318	965.11
415.526	1077.74
415.734	1135.09
415.943	1153.52
416.151	1214.96
416.359	1135.09
416.567	1237.49
416.776	1118.7
416.984	1292.78
417.192	1335.79
417.4	1415.66
417.608	1409.51
417.817	1516.01
418.025	1489.39
418.233	1501.67
418.441	1636.84
418.649	1597.93
418.857	1749.48
419.065	1880.55
419.273	1858.02
419.481	1958.37
419.689	2122.21
419.897	2116.06
420.105	2187.74
420.313	2275.81
420.521	2292.19
420.729	2183.65
420.937	2425.31
421.145	2503.13
421.353	2636.25
421.561	2734.55
421.769	2707.93
421.977	2963.92
422.185	2781.65
422.393	3043.79
422.601	3299.79
422.809	3236.3
423.017	3271.12
423.224	3383.76
423.432	3596.75
423.64	3523.02
423.848	3869.12
424.056	3746.25
424.263	3994.05
424.471	4239.81
424.679	4088.26
424.887	4436.41
425.094	4399.55
425.302	4397.5
425.51	4645.31
425.718	4839.86
425.925	4854.2
426.133	5071.28
426.341	5374.38
426.548	5489.07
426.756	5693.87
426.964	5726.63
427.171	5937.57
427.379	6162.85
427.586	6271.39
427.794	6310.3
428.001	6771.1
428.209	6918.55
428.417	6982.04
428.624	7301.52
428.832	7238.03
429.039	7311.76
429.247	7338.38
429.454	7901.58
429.662	8571.26
429.869	8044.93
430.076	8604.03
430.284	8196.48
430.491	8823.16
430.699	9126.26
430.906	9222.52
431.114	9068.92
431.321	9587.05
431.528	9877.87
431.736	10451.3
431.943	11059.54
432.15	10633.57
432.358	10799.45
432.565	11444.56
432.772	11112.79
432.979	11989.32
433.187	12114.25
433.394	12101.96
433.601	13021.5
433.808	13062.46
434.016	13025.59
434.223	13609.26
434.43	14526.75
434.637	14053.67
434.844	14985.5
435.052	15456.53
435.259	15188.25
435.466	15286.55
435.673	15157.53
435.88	16376.07
436.087	16732.42
436.294	17228.03
436.501	16494.85
436.708	17086.72
436.915	17830.13
437.122	18327.78
437.329	18440.42
437.537	19013.85
437.743	19312.86
437.95	19032.29
438.157	20123.85
438.364	20836.55
438.571	20625.61
438.778	20820.16
438.985	22786.21
439.192	21934.26
439.399	22710.44
439.606	22096.05
439.813	23066.78
440.02	24621.19
440.227	24357
440.433	23922.83
440.64	24989.83
440.847	24600.71
441.054	25493.63
441.261	26734.7
441.467	26585.19
441.674	27312.22
441.881	28067.92
442.088	28022.87
442.294	27609.18
442.501	28674.12
442.708	29098.05
442.914	30165.04
443.121	31506.46
443.328	30658.6
443.534	33058.82
443.741	31588.38
443.948	31295.52
444.154	33955.83
444.361	33411.07
444.568	33724.41
444.774	33744.89
444.981	34109.43
445.187	35149.8
445.394	36693.97
445.6	36315.09
445.807	39221.16
446.013	37949.37
446.22	38385.59
446.426	40380.31
446.633	40380.31
446.839	41570.18
447.046	39810.98
447.252	42084.22
447.459	42422.14
447.665	42626.93
447.871	44216.16
448.078	45670.22
448.284	43777.89
448.491	44773.2
448.697	46735.16
448.903	46980.92
449.11	47669.03
449.316	46868.28
449.522	47515.43
449.728	48908.05
449.935	49151.76
450.141	49112.85
450.347	50284.29
450.553	48594.71
450.76	49354.51
450.966	50845.43
451.172	50247.43
451.378	51513.07
451.584	50726.65
451.791	52070.12
451.997	51879.66
452.203	52451.04
452.409	52483.81
452.615	52008.68
452.821	50538.24
453.027	49913.61
453.233	52569.82
453.44	50407.17
453.646	50614.01
453.852	51422.96
454.058	51920.62
454.264	50507.52
454.47	51465.97
454.676	50061.06
454.882	51986.15
455.088	47716.14
455.294	48275.23
455.5	49024.79
455.705	49645.32
455.911	47968.04
456.117	46825.27
456.323	46270.27
456.529	43759.46
456.735	45922.12
456.941	44570.46
457.147	43392.87
457.352	42528.63
457.558	42022.78
457.764	42358.65
457.97	41394.06
458.176	40398.74
458.381	40423.32
458.587	38471.6
458.793	38555.57
458.999	36603.86
459.204	39276.46
459.41	38062.01
459.616	35461.09
459.821	35551.2
460.027	35538.91
460.233	34557.94
460.438	33132.55
460.644	33355.78
460.85	32047.13
461.055	31510.56
461.261	31174.69
461.466	29161.54
461.672	28342.35
461.878	29878.33
462.083	27953.24
462.289	27521.12
462.494	27514.97
462.7	26263.66
462.905	25636.98
463.111	26513.52
463.316	26478.7
463.522	25942.13
463.727	25835.64
463.932	25854.07
464.138	25792.63
464.343	25395.32
464.549	24608.9
464.754	25340.03
464.959	25591.93
465.165	25487.48
465.37	24338.57
465.575	23472.28
465.781	24709.25
465.986	25008.26
466.191	23984.27
466.397	23441.56
466.602	22124.72
466.807	23074.98
