Data from USB4F104151__25__12-35-26-642.txt Node

Date: Fri Mar 14 12:35:26 EDT 2025
User: louis
Spectrometer: USB4F10415
Trigger mode: 4
Integration Time (sec): 2.000000E-2
Scans to average: 1
Electric dark correction enabled: true
Nonlinearity correction enabled: false
Boxcar width: 0
XAxis mode: Wavelengths
Number of Pixels in Spectrum: 3648
>>>>>Begin Spectral Data<<<<<
178.204	-97.11
178.424	-97.11
178.644	-97.11
178.864	-84.82
179.084	-99.16
179.304	29.87
179.524	-115.54
179.744	40.11
179.964	54.44
180.184	38.06
180.404	15.53
180.624	5.29
180.844	13.48
181.064	-47.96
181.283	-39.76
181.503	27.82
181.723	-21.33
181.943	3.24
182.163	23.72
182.383	-7
182.602	-29.52
182.822	11.43
183.042	-9.05
183.262	-33.62
183.482	-19.29
183.701	13.48
183.921	-64.34
184.141	29.87
184.361	72.87
184.58	3.24
184.8	29.87
185.02	9.39
185.239	74.92
185.459	15.53
185.679	23.72
185.898	-25.43
186.118	-15.19
186.338	15.53
186.557	23.72
186.777	-31.57
186.997	1.19
187.216	58.54
187.436	-7
187.655	33.96
187.875	-2.9
188.095	31.91
188.314	-25.43
188.534	-35.67
188.753	1.19
188.973	-9.05
189.192	54.44
189.412	-21.33
189.631	15.53
189.851	-15.19
190.07	42.15
190.29	19.63
190.509	-13.14
190.729	-15.19
190.948	3.24
191.168	89.26
191.387	-29.52
191.607	-4.95
191.826	29.87
192.045	-2.9
192.265	-27.48
192.484	23.72
192.704	89.26
192.923	-31.57
193.142	76.97
193.362	9.39
193.581	52.39
193.8	54.44
194.02	25.77
194.239	46.25
194.458	-23.38
194.678	17.58
194.897	-25.43
195.116	-4.95
195.335	40.11
195.555	36.01
195.774	19.63
195.993	-52.05
196.212	-31.57
196.432	9.39
196.651	11.43
196.87	13.48
197.089	97.45
197.308	40.11
197.528	68.78
197.747	40.11
197.966	-19.29
198.185	-15.19
198.404	-13.14
198.623	17.58
198.842	17.58
199.062	-64.34
199.281	23.72
199.5	3.24
199.719	11.43
199.938	-0.85
200.157	66.73
200.376	-66.39
200.595	54.44
200.814	13.48
201.033	29.87
201.252	17.58
201.471	99.5
201.69	7.34
201.909	11.43
202.128	93.35
202.347	83.11
202.566	-13.14
202.785	-60.24
203.004	-0.85
203.223	40.11
203.442	50.35
203.661	62.63
203.879	23.72
204.098	44.2
204.317	-66.39
204.536	46.25
204.755	23.72
204.974	89.26
205.193	-9.05
205.411	81.07
205.63	54.44
205.849	-33.62
206.068	23.72
206.287	21.67
206.505	13.48
206.724	54.44
206.943	-31.57
207.162	-39.76
207.381	36.01
207.599	19.63
207.818	46.25
208.037	-15.19
208.255	17.58
208.474	29.87
208.693	15.53
208.911	19.63
209.13	-29.52
209.349	64.68
209.567	23.72
209.786	38.06
210.005	-23.38
210.223	-11.09
210.442	-0.85
210.661	-15.19
210.879	-37.72
211.098	46.25
211.316	25.77
211.535	85.16
211.753	-33.62
211.972	-9.05
212.191	60.59
212.409	1.19
212.628	21.67
212.846	-4.95
213.065	7.34
213.283	81.07
213.502	36.01
213.72	13.48
213.938	-47.96
214.157	52.39
214.375	27.82
214.594	9.39
214.812	44.2
215.031	17.58
215.249	-31.57
215.467	-4.95
215.686	-60.24
215.904	52.39
216.122	-43.86
216.341	103.59
216.559	17.58
216.778	23.72
216.996	42.15
217.214	9.39
217.432	50.35
217.651	5.29
217.869	54.44
218.087	-58.2
218.306	17.58
218.524	-23.38
218.742	-43.86
218.96	87.21
219.179	25.77
219.397	48.3
219.615	64.68
219.833	25.77
220.051	-17.24
220.27	15.53
220.488	66.73
220.706	-31.57
220.924	-4.95
221.142	-19.29
221.36	23.72
221.578	-4.95
221.796	60.59
222.015	64.68
222.233	1.19
222.451	-0.85
222.669	17.58
222.887	1.19
223.105	31.91
223.323	5.29
223.541	-11.09
223.759	50.35
223.977	11.43
224.195	38.06
224.413	72.87
224.631	56.49
224.849	33.96
225.067	-0.85
225.285	115.88
225.503	48.3
225.721	52.39
225.939	-0.85
226.157	76.97
226.375	-21.33
226.592	-58.2
226.81	11.43
227.028	58.54
227.246	11.43
227.464	60.59
227.682	56.49
227.9	7.34
228.117	89.26
228.335	52.39
228.553	17.58
228.771	-7
228.989	1.19
229.206	31.91
229.424	-15.19
229.642	36.01
229.86	-78.68
230.077	70.83
230.295	29.87
230.513	38.06
230.731	19.63
230.948	40.11
231.166	-2.9
231.384	19.63
231.601	56.49
231.819	-27.48
232.037	40.11
232.254	-7
232.472	50.35
232.689	17.58
232.907	17.58
233.125	46.25
233.342	7.34
233.56	15.53
233.777	62.63
233.995	5.29
234.213	13.48
234.43	-15.19
234.648	-2.9
234.865	-25.43
235.083	81.07
235.3	-4.95
235.518	-0.85
235.735	48.3
235.953	-64.34
236.17	-31.57
236.388	40.11
236.605	29.87
236.822	40.11
237.04	62.63
237.257	66.73
237.475	58.54
237.692	36.01
237.909	19.63
238.127	21.67
238.344	21.67
238.562	38.06
238.779	-2.9
238.996	-27.48
239.214	25.77
239.431	31.91
239.648	-0.85
239.865	38.06
240.083	-21.33
240.3	-13.14
240.517	-15.19
240.735	58.54
240.952	62.63
241.169	31.91
241.386	40.11
241.603	-25.43
241.821	-84.82
242.038	-9.05
242.255	11.43
242.472	3.24
242.689	50.35
242.907	36.01
243.124	5.29
243.341	64.68
243.558	5.29
243.775	-13.14
243.992	5.29
244.209	21.67
244.426	85.16
244.643	50.35
244.86	-9.05
245.078	-41.81
245.295	44.2
245.512	9.39
245.729	-0.85
245.946	52.39
246.163	-11.09
246.38	31.91
246.597	-9.05
246.814	38.06
247.031	70.83
247.248	-29.52
247.464	-31.57
247.681	-68.44
247.898	54.44
248.115	-0.85
248.332	19.63
248.549	52.39
248.766	17.58
248.983	23.72
249.2	9.39
249.417	19.63
249.633	19.63
249.85	-11.09
250.067	19.63
250.284	38.06
250.501	83.11
250.717	-19.29
250.934	-7
251.151	-47.96
251.368	-70.48
251.585	54.44
251.801	-19.29
252.018	33.96
252.235	9.39
252.451	-31.57
252.668	-19.29
252.885	25.77
253.102	25.77
253.318	48.3
253.535	9.39
253.752	-15.19
253.968	11.43
254.185	-9.05
254.401	17.58
254.618	33.96
254.835	-11.09
255.051	50.35
255.268	33.96
255.484	33.96
255.701	-19.29
255.917	64.68
256.134	-11.09
256.351	50.35
256.567	-11.09
256.784	-0.85
257	19.63
257.217	48.3
257.433	-13.14
257.65	-31.57
257.866	25.77
258.082	-52.05
258.299	-19.29
258.515	-58.2
258.732	9.39
258.948	36.01
259.165	11.43
259.381	-25.43
259.597	91.31
259.814	-9.05
260.03	7.34
260.246	-4.95
260.463	-31.57
260.679	7.34
260.895	-31.57
261.112	19.63
261.328	19.63
261.544	-35.67
261.761	81.07
261.977	29.87
262.193	-37.72
262.409	-9.05
262.626	21.67
262.842	58.54
263.058	-15.19
263.274	17.58
263.49	68.78
263.707	60.59
263.923	-4.95
264.139	-15.19
264.355	-21.33
264.571	-2.9
264.787	42.15
265.004	46.25
265.22	-23.38
265.436	38.06
265.652	-33.62
265.868	-29.52
266.084	11.43
266.3	23.72
266.516	-68.44
266.732	-4.95
266.948	15.53
267.164	-15.19
267.38	70.83
267.596	50.35
267.812	7.34
268.028	52.39
268.244	-2.9
268.46	-47.96
268.676	5.29
268.892	21.67
269.108	15.53
269.324	-4.95
269.54	5.29
269.756	79.02
269.972	-2.9
270.188	56.49
270.403	38.06
270.619	-4.95
270.835	56.49
271.051	-7
271.267	-37.72
271.483	58.54
271.698	7.34
271.914	25.77
272.13	-9.05
272.346	-17.24
272.562	-31.57
272.777	42.15
272.993	-11.09
273.209	62.63
273.425	36.01
273.64	-35.67
273.856	31.91
274.072	68.78
274.287	-19.29
274.503	3.24
274.719	-9.05
274.934	79.02
275.15	-15.19
275.366	60.59
275.581	7.34
275.797	56.49
276.012	-21.33
276.228	44.2
276.444	-43.86
276.659	62.63
276.875	-45.91
277.09	81.07
277.306	-27.48
277.521	-9.05
277.737	38.06
277.952	62.63
278.168	25.77
278.383	27.82
278.599	17.58
278.814	122.02
279.03	29.87
279.245	66.73
279.461	25.77
279.676	50.35
279.892	11.43
280.107	64.68
280.322	27.82
280.538	-31.57
280.753	-27.48
280.969	-19.29
281.184	29.87
281.399	64.68
281.615	-31.57
281.83	64.68
282.045	-19.29
282.26	-9.05
282.476	60.59
282.691	105.64
282.906	3.24
283.122	11.43
283.337	3.24
283.552	48.3
283.767	25.77
283.983	15.53
284.198	38.06
284.413	54.44
284.628	23.72
284.843	70.83
285.058	36.01
285.274	31.91
285.489	-39.76
285.704	91.31
285.919	-45.91
286.134	15.53
286.349	-2.9
286.564	3.24
286.779	38.06
286.995	85.16
287.21	-72.53
287.425	23.72
287.64	-43.86
287.855	-25.43
288.07	-13.14
288.285	27.82
288.5	-9.05
288.715	50.35
288.93	1.19
289.145	-21.33
289.36	66.73
289.575	-4.95
289.79	15.53
290.004	40.11
290.219	60.59
290.434	15.53
290.649	-50
290.864	27.82
291.079	33.96
291.294	1.19
291.509	48.3
291.724	27.82
291.938	70.83
292.153	-19.29
292.368	38.06
292.583	33.96
292.798	-39.76
293.012	33.96
293.227	-2.9
293.442	-15.19
293.657	44.2
293.871	17.58
294.086	5.29
294.301	-7
294.516	95.4
294.73	-0.85
294.945	85.16
295.16	3.24
295.374	44.2
295.589	52.39
295.804	11.43
296.018	44.2
296.233	-25.43
296.447	-39.76
296.662	33.96
296.877	68.78
297.091	89.26
297.306	99.5
297.52	5.29
297.735	46.25
297.949	64.68
298.164	42.15
298.378	52.39
298.593	-4.95
298.807	15.53
299.022	83.11
299.236	95.4
299.451	38.06
299.665	72.87
299.88	29.87
300.094	36.01
300.309	52.39
300.523	31.91
300.737	44.2
300.952	-19.29
301.166	-23.38
301.381	-0.85
301.595	42.15
301.809	-41.81
302.024	36.01
302.238	3.24
302.452	70.83
302.667	64.68
302.881	89.26
303.095	-15.19
303.309	76.97
303.524	17.58
303.738	-35.67
303.952	29.87
304.166	40.11
304.381	-45.91
304.595	54.44
304.809	-41.81
305.023	50.35
305.237	36.01
305.452	21.67
305.666	56.49
305.88	27.82
306.094	79.02
306.308	68.78
306.522	42.15
306.736	42.15
306.95	31.91
307.164	52.39
307.379	15.53
307.593	-17.24
307.807	85.16
308.021	-11.09
308.235	-15.19
308.449	9.39
308.663	48.3
308.877	38.06
309.091	-9.05
309.305	15.53
309.519	-7
309.733	27.82
309.947	-2.9
310.161	62.63
310.374	62.63
310.588	101.55
310.802	31.91
311.016	15.53
311.23	27.82
311.444	76.97
311.658	-11.09
311.872	9.39
312.085	44.2
312.299	76.97
312.513	50.35
312.727	58.54
312.941	-27.48
313.154	31.91
313.368	36.01
313.582	48.3
313.796	25.77
314.009	-25.43
314.223	74.92
314.437	50.35
314.651	70.83
314.864	36.01
315.078	-13.14
315.292	-4.95
315.505	-9.05
315.719	-39.76
315.933	-2.9
316.146	7.34
316.36	-33.62
316.573	-11.09
316.787	25.77
317.001	25.77
317.214	3.24
317.428	48.3
317.641	19.63
317.855	-25.43
318.068	17.58
318.282	31.91
318.495	-4.95
318.709	50.35
318.922	17.58
319.136	54.44
319.349	64.68
319.563	107.69
319.776	62.63
319.99	-29.52
320.203	29.87
320.417	40.11
320.63	62.63
320.843	85.16
321.057	-2.9
321.27	72.87
321.483	74.92
321.697	89.26
321.91	11.43
322.124	31.91
322.337	128.17
322.55	-13.14
322.763	68.78
322.977	-25.43
323.19	40.11
323.403	46.25
323.617	29.87
323.83	66.73
324.043	50.35
324.256	109.74
324.469	3.24
324.683	97.45
324.896	42.15
325.109	11.43
325.322	21.67
325.535	-43.86
325.748	54.44
325.962	9.39
326.175	52.39
326.388	97.45
326.601	9.39
326.814	21.67
327.027	44.2
327.24	70.83
327.453	-15.19
327.666	103.59
327.879	85.16
328.092	54.44
328.305	74.92
328.518	107.69
328.731	-82.77
328.944	58.54
329.157	66.73
329.37	19.63
329.583	72.87
329.796	66.73
330.009	29.87
330.222	50.35
330.435	83.11
330.648	-21.33
330.861	103.59
331.073	56.49
331.286	76.97
331.499	87.21
331.712	54.44
331.925	27.82
332.138	25.77
332.35	60.59
332.563	64.68
332.776	74.92
332.989	23.72
333.202	9.39
333.414	31.91
333.627	68.78
333.84	-68.44
334.053	44.2
334.265	52.39
334.478	103.59
334.691	-17.24
334.903	36.01
335.116	54.44
335.329	85.16
335.541	44.2
335.754	126.12
335.966	-21.33
336.179	29.87
336.392	27.82
336.604	29.87
336.817	54.44
337.029	109.74
337.242	17.58
337.454	19.63
337.667	72.87
337.88	58.54
338.092	44.2
338.305	-15.19
338.517	3.24
338.729	-7
338.942	44.2
339.154	9.39
339.367	-123.73
339.579	58.54
339.792	19.63
340.004	7.34
340.217	-56.15
340.429	70.83
340.641	56.49
340.854	-11.09
341.066	62.63
341.278	52.39
341.491	54.44
341.703	-21.33
341.915	7.34
342.128	68.78
342.34	3.24
342.552	64.68
342.764	76.97
342.977	23.72
343.189	27.82
343.401	3.24
343.613	-33.62
343.826	-23.38
344.038	-4.95
344.25	50.35
344.462	-0.85
344.674	95.4
344.886	60.59
345.099	68.78
345.311	76.97
345.523	31.91
345.735	54.44
345.947	-27.48
346.159	42.15
346.371	7.34
346.583	-17.24
346.795	42.15
347.007	91.31
347.219	15.53
347.431	66.73
347.643	38.06
347.855	1.19
348.067	11.43
348.279	7.34
348.491	85.16
348.703	31.91
348.915	72.87
349.127	33.96
349.339	60.59
349.551	-0.85
349.763	99.5
349.975	9.39
350.187	56.49
350.399	46.25
350.61	44.2
350.822	11.43
351.034	50.35
351.246	64.68
351.458	62.63
351.669	44.2
351.881	9.39
352.093	79.02
352.305	64.68
352.517	66.73
352.728	-31.57
352.94	87.21
353.152	5.29
353.363	64.68
353.575	99.5
353.787	56.49
353.999	89.26
354.21	74.92
354.422	74.92
354.633	23.72
354.845	42.15
355.057	66.73
355.268	113.83
355.48	-4.95
355.692	-43.86
355.903	11.43
356.115	15.53
356.326	-17.24
356.538	7.34
356.749	23.72
356.961	44.2
357.172	48.3
357.384	33.96
357.595	52.39
357.807	76.97
358.018	85.16
358.23	-11.09
358.441	23.72
358.653	62.63
358.864	-39.76
359.075	7.34
359.287	58.54
359.498	81.07
359.709	5.29
359.921	29.87
360.132	31.91
360.344	54.44
360.555	46.25
360.766	70.83
360.977	91.31
361.189	72.87
361.4	72.87
361.611	27.82
361.823	83.11
362.034	23.72
362.245	64.68
362.456	50.35
362.667	76.97
362.879	19.63
363.09	52.39
363.301	-17.24
363.512	122.02
363.723	-11.09
363.935	5.29
364.146	25.77
364.357	40.11
364.568	113.83
364.779	15.53
364.99	113.83
365.201	-9.05
365.412	62.63
365.623	-4.95
365.834	64.68
366.045	7.34
366.256	21.67
366.467	5.29
366.678	58.54
366.889	9.39
367.1	87.21
367.311	72.87
367.522	17.58
367.733	91.31
367.944	1.19
368.155	85.16
368.366	27.82
368.577	54.44
368.788	81.07
368.999	62.63
369.209	25.77
369.42	72.87
369.631	72.87
369.842	11.43
370.053	42.15
370.264	62.63
370.474	-17.24
370.685	40.11
370.896	-13.14
371.107	99.5
371.317	29.87
371.528	17.58
371.739	70.83
371.95	54.44
372.16	52.39
372.371	15.53
372.582	72.87
372.792	89.26
373.003	5.29
373.214	76.97
373.424	113.83
373.635	-35.67
373.846	99.5
374.056	21.67
374.267	21.67
374.477	117.93
374.688	31.91
374.898	101.55
375.109	21.67
375.319	19.63
375.53	23.72
375.74	52.39
375.951	74.92
376.161	9.39
376.372	89.26
376.582	7.34
376.793	19.63
377.003	42.15
377.214	74.92
377.424	31.91
377.635	72.87
377.845	-2.9
378.055	72.87
378.266	11.43
378.476	27.82
378.686	87.21
378.897	23.72
379.107	62.63
379.317	44.2
379.528	-19.29
379.738	50.35
379.948	72.87
380.158	11.43
380.369	70.83
380.579	46.25
380.789	25.77
380.999	3.24
381.21	17.58
381.42	58.54
381.63	54.44
381.84	68.78
382.05	103.59
382.261	68.78
382.471	58.54
382.681	23.72
382.891	74.92
383.101	25.77
383.311	64.68
383.521	27.82
383.731	-4.95
383.941	81.07
384.151	54.44
384.361	23.72
384.571	83.11
384.781	79.02
384.991	52.39
385.201	138.41
385.411	27.82
385.621	122.02
385.831	87.21
386.041	54.44
386.251	81.07
386.461	117.93
386.671	33.96
386.881	91.31
387.091	87.21
387.301	95.4
387.511	46.25
387.72	85.16
387.93	23.72
388.14	85.16
388.35	74.92
388.56	52.39
388.769	3.24
388.979	83.11
389.189	60.59
389.399	25.77
389.609	66.73
389.818	119.98
390.028	52.39
390.238	72.87
390.447	36.01
390.657	33.96
390.867	29.87
391.076	93.35
391.286	42.15
391.496	81.07
391.705	23.72
391.915	46.25
392.125	107.69
392.334	64.68
392.544	42.15
392.753	58.54
392.963	44.2
393.172	46.25
393.382	70.83
393.591	48.3
393.801	210.09
394.01	101.55
394.22	52.39
394.429	58.54
394.639	87.21
394.848	138.41
395.058	-4.95
395.267	109.74
395.477	68.78
395.686	54.44
395.895	13.48
396.105	99.5
396.314	105.64
396.524	33.96
396.733	119.98
396.942	146.6
397.152	97.45
397.361	183.46
397.57	130.22
397.78	126.12
397.989	162.98
398.198	113.83
398.407	70.83
398.617	152.74
398.826	111.78
399.035	130.22
399.244	89.26
399.453	165.03
399.663	36.01
399.872	124.07
400.081	103.59
400.29	72.87
400.499	101.55
400.708	122.02
400.917	109.74
401.127	95.4
401.336	169.13
401.545	140.46
401.754	81.07
401.963	162.98
402.172	126.12
402.381	91.31
402.59	142.5
402.799	175.27
403.008	150.7
403.217	52.39
403.426	97.45
403.635	113.83
403.844	134.31
404.053	132.26
404.262	111.78
404.471	130.22
404.68	99.5
404.888	197.8
405.097	165.03
405.306	165.03
405.515	83.11
405.724	142.5
405.933	195.75
406.142	238.76
406.35	158.89
406.559	292.01
406.768	148.65
406.977	238.76
407.185	238.76
407.394	189.61
407.603	265.38
407.812	310.44
408.02	177.32
408.229	267.43
408.438	236.71
408.646	275.62
408.855	226.47
409.064	289.96
409.272	287.91
409.481	287.91
409.69	287.91
409.898	341.16
410.107	373.92
410.315	386.21
410.524	289.96
410.733	357.54
410.941	396.45
411.15	468.13
411.358	396.45
411.567	429.22
411.775	543.91
411.984	466.08
412.192	605.35
412.401	541.86
412.609	554.15
412.818	556.19
413.026	500.9
413.234	605.35
413.443	650.4
413.651	584.87
413.86	627.87
414.068	748.7
414.276	674.98
414.485	726.18
414.693	748.7
414.901	804
415.11	836.77
415.318	795.81
415.526	822.43
415.734	812.19
415.943	894.11
416.151	963.74
416.359	892.06
416.567	1031.32
416.776	933.02
416.984	1121.43
417.192	1100.95
417.4	1199.26
417.608	1088.67
417.817	1189.02
418.025	1227.93
418.233	1277.08
418.441	1305.75
418.649	1410.2
418.857	1496.21
419.065	1502.36
419.273	1543.32
419.481	1596.56
419.689	1602.71
419.897	1655.95
420.105	1754.26
420.313	1805.46
420.521	1897.61
420.729	1805.46
420.937	1901.71
421.145	1883.28
421.353	2067.6
421.561	2186.38
421.769	2348.17
421.977	2385.03
422.185	2339.97
422.393	2487.43
422.601	2581.64
422.809	2563.2
423.017	2704.51
423.224	2729.09
423.432	2905.21
423.64	2825.34
423.848	3110.01
424.056	3062.91
424.263	3243.13
424.471	3388.53
424.679	3337.34
424.887	3642.48
425.094	3564.66
425.302	3535.99
425.51	3761.27
425.718	3894.38
425.925	4033.65
426.133	4117.61
426.341	4289.64
426.548	4469.86
426.756	4363.37
426.964	4680.8
427.171	4848.74
427.379	5063.77
427.586	5143.64
427.794	5194.84
428.001	5454.94
428.209	5790.8
428.417	5524.57
428.624	6016.08
428.832	5950.54
429.039	6104.14
429.247	5868.63
429.454	6501.45
429.662	6962.24
429.869	6437.96
430.076	6952
430.284	6755.4
430.491	7132.22
430.699	7480.38
430.906	7609.4
431.114	7719.99
431.321	7965.75
431.528	8055.86
431.736	8373.29
431.943	8981.54
432.15	8582.18
432.358	8707.11
432.565	9124.9
432.772	8999.97
432.979	9716.76
433.187	9628.7
433.394	9888.79
433.601	10370.06
433.808	10449.93
434.016	10554.38
434.223	10896.39
434.43	11678.71
434.637	11291.65
434.844	11983.86
435.052	12338.16
435.259	12157.94
435.466	12211.18
435.673	12248.05
435.88	12901.35
436.087	13693.91
436.294	13833.18
436.501	13319.14
436.708	13738.97
436.915	14164.95
437.122	14914.5
437.329	14787.53
437.537	14914.5
437.743	15223.75
437.95	15186.88
438.157	16241.59
438.364	16133.04
438.571	16442.29
438.778	16540.59
438.985	18322.32
439.192	17458.08
439.399	17746.84
439.606	17494.94
439.813	18580.37
440.02	19864.44
440.227	19397.51
440.433	19131.27
440.64	19837.82
440.847	19610.5
441.054	20161.4
441.261	21318.5
441.467	21140.33
441.674	21810.01
441.881	22414.16
442.088	22311.77
442.294	22115.16
442.501	22604.63
442.708	23386.95
442.914	23833.41
443.121	25285.42
443.328	24443.7
443.534	26391.32
443.741	25357.1
443.948	25152.3
444.154	26925.84
444.361	26931.98
444.568	26815.25
444.774	27378.44
444.981	26936.08
445.187	28109.57
445.394	29313.77
445.6	28713.72
445.807	31584.97
446.013	30485.21
446.22	30903
446.426	32330.43
446.633	32242.37
446.839	33438.38
447.046	32389.82
447.252	33809.06
447.459	33667.75
447.665	33546.92
447.871	35271.31
448.078	36903.54
448.284	35054.23
448.491	35695.24
448.697	37186.16
448.903	37761.64
449.11	37950.06
449.316	37503.6
449.522	38152.8
449.728	39027.29
449.935	39424.59
450.141	39197.27
450.347	40335.94
450.553	39178.84
450.76	39486.03
450.966	41046.58
451.172	40307.27
451.378	41763.37
451.584	40438.34
451.791	41667.12
451.997	41490.99
452.203	42170.92
452.409	42056.23
452.615	41697.84
452.821	40321.6
453.027	40116.81
453.233	42345
453.44	40372.8
453.646	40860.22
453.852	41687.6
454.058	41812.52
454.264	40393.28
454.47	41497.14
454.676	40935.99
454.882	41613.87
455.088	38161
455.294	38828.63
455.5	39391.83
455.705	39776.84
455.911	38310.5
456.117	37778.03
456.323	37128.82
456.529	35232.4
456.735	36248.19
456.941	35687.05
457.147	35232.4
457.352	33964.71
457.558	33540.78
457.764	33714.86
457.97	32852.66
458.176	32578.23
458.381	32400.06
458.587	30681.81
458.793	30825.17
458.999	29313.77
459.204	31087.31
459.41	30192.35
459.616	28308.22
459.821	28537.59
460.027	28424.95
460.233	27771.65
460.438	26485.53
460.644	26725.14
460.85	25672.48
461.055	25070.38
461.261	25023.28
461.466	23057.23
461.672	22375.25
461.878	23835.45
462.083	22596.43
462.289	21887.84
462.494	21805.92
462.7	20677.49
462.905	20282.23
463.111	20757.36
463.316	21082.98
463.522	20560.75
463.727	20743.02
463.932	20597.62
464.138	20349.81
464.343	20374.39
464.549	19725.18
464.754	20366.2
464.959	20482.93
465.165	20208.5
465.37	19295.11
465.575	18668.43
465.781	19452.8
465.986	19465.09
466.191	18994.06
466.397	18553.74
466.602	17601.44
466.807	18301.84
467.012	18396.05
467.218	18295.7
467.423	17992.6
