Data from USB4F104151__24__12-35-26-266.txt Node

Date: Fri Mar 14 12:35:26 EDT 2025
User: louis
Spectrometer: USB4F10415
Trigger mode: 4
Integration Time (sec): 2.000000E-2
Scans to average: 1
Electric dark correction enabled: true
Nonlinearity correction enabled: false
Boxcar width: 0
XAxis mode: Wavelengths
Number of Pixels in Spectrum: 3648
>>>>>Begin Spectral Data<<<<<
178.204	-54.44
178.424	-54.44
178.644	-54.44
178.864	-48.3
179.084	-101.55
179.304	-5.29
179.524	17.24
179.744	-13.48
179.964	-1.19
180.184	15.19
180.404	-5.29
180.624	4.95
180.844	-62.63
181.064	41.81
181.283	-23.72
181.503	33.62
181.723	-1.19
181.943	-54.44
182.163	95.06
182.383	50
182.602	25.43
182.822	60.24
183.042	43.86
183.262	-19.63
183.482	68.44
183.701	47.96
183.921	-1.19
184.141	27.48
184.361	33.62
184.58	-76.97
184.8	9.05
185.02	-56.49
185.239	33.62
185.459	-19.63
185.679	31.57
185.898	-3.24
186.118	72.53
186.338	19.29
186.557	21.33
186.777	33.62
186.997	90.96
187.216	7
187.436	60.24
187.655	78.68
187.875	29.52
188.095	27.48
188.314	58.2
188.534	15.19
188.753	21.33
188.973	-27.82
189.192	80.72
189.412	0.85
189.631	7
189.851	-17.58
190.07	66.39
190.29	-11.43
190.509	84.82
190.729	78.68
190.948	76.63
191.168	78.68
191.387	19.29
191.607	-60.59
191.826	29.52
192.045	25.43
192.265	70.48
192.484	43.86
192.704	4.95
192.923	47.96
193.142	47.96
193.362	-15.53
193.581	13.14
193.8	27.48
194.02	43.86
194.239	-21.67
194.458	56.15
194.678	80.72
194.897	-13.48
195.116	23.38
195.335	21.33
195.555	7
195.774	33.62
195.993	52.05
196.212	-17.58
196.432	97.11
196.651	56.15
196.87	-19.63
197.089	150.36
197.308	37.72
197.528	19.29
197.747	2.9
197.966	-36.01
198.185	-31.91
198.404	52.05
198.623	-13.48
198.842	19.29
199.062	-19.63
199.281	103.25
199.5	43.86
199.719	82.77
199.938	105.3
200.157	41.81
200.376	29.52
200.595	50
200.814	58.2
201.033	45.91
201.252	80.72
201.471	74.58
201.69	-9.39
201.909	27.48
202.128	64.34
202.347	60.24
202.566	7
202.785	23.38
203.004	27.48
203.223	113.49
203.442	2.9
203.661	13.14
203.879	64.34
204.098	27.48
204.317	-25.77
204.536	43.86
204.755	68.44
204.974	0.85
205.193	41.81
205.411	25.43
205.63	45.91
205.849	50
206.068	27.48
206.287	-56.49
206.505	-40.11
206.724	4.95
206.943	-1.19
207.162	54.1
207.381	-33.96
207.599	27.48
207.818	9.05
208.037	0.85
208.255	25.43
208.474	64.34
208.693	31.57
208.911	60.24
209.13	-5.29
209.349	-5.29
209.567	-11.43
209.786	54.1
210.005	70.48
210.223	-7.34
210.442	31.57
210.661	17.24
210.879	56.15
211.098	-23.72
211.316	82.77
211.535	2.9
211.753	25.43
211.972	13.14
212.191	-7.34
212.409	45.91
212.628	0.85
212.846	-9.39
213.065	-70.83
213.283	-42.15
213.502	-70.83
213.72	39.76
213.938	58.2
214.157	58.2
214.375	39.76
214.594	19.29
214.812	0.85
215.031	0.85
215.249	47.96
215.467	11.09
215.686	39.76
215.904	74.58
216.122	-23.72
216.341	7
216.559	37.72
216.778	72.53
216.996	78.68
217.214	0.85
217.432	-31.91
217.651	29.52
217.869	50
218.087	4.95
218.306	93.01
218.524	62.29
218.742	-76.97
218.96	25.43
219.179	47.96
219.397	41.81
219.615	82.77
219.833	33.62
220.051	52.05
220.27	64.34
220.488	2.9
220.706	70.48
220.924	37.72
221.142	88.92
221.36	-11.43
221.578	13.14
221.796	31.57
222.015	86.87
222.233	15.19
222.451	2.9
222.669	64.34
222.887	15.19
223.105	-23.72
223.323	15.19
223.541	15.19
223.759	17.24
223.977	56.15
224.195	11.09
224.413	52.05
224.631	45.91
224.849	66.39
225.067	78.68
225.285	-9.39
225.503	15.19
225.721	-7.34
225.939	45.91
226.157	47.96
226.375	86.87
226.592	7
226.81	54.1
227.028	72.53
227.246	119.64
227.464	19.29
227.682	45.91
227.9	7
228.117	86.87
228.335	-17.58
228.553	2.9
228.771	25.43
228.989	-23.72
229.206	58.2
229.424	23.38
229.642	64.34
229.86	50
230.077	41.81
230.295	-11.43
230.513	74.58
230.731	-5.29
230.948	76.63
231.166	23.38
231.384	2.9
231.601	45.91
231.819	-9.39
232.037	19.29
232.254	-9.39
232.472	-13.48
232.689	-5.29
232.907	119.64
233.125	56.15
233.342	-1.19
233.56	-5.29
233.777	60.24
233.995	54.1
234.213	43.86
234.43	76.63
234.648	-31.91
234.865	113.49
235.083	45.91
235.3	2.9
235.518	-5.29
235.735	107.35
235.953	4.95
236.17	-46.25
236.388	-17.58
236.605	-1.19
236.822	29.52
237.04	35.67
237.257	68.44
237.475	-23.72
237.692	78.68
237.909	-11.43
238.127	58.2
238.344	19.29
238.562	31.57
238.779	39.76
238.996	39.76
239.214	50
239.431	62.29
239.648	21.33
239.865	31.57
240.083	64.34
240.3	-25.77
240.517	-56.49
240.735	29.52
240.952	82.77
241.169	9.05
241.386	33.62
241.603	58.2
241.821	13.14
242.038	84.82
242.255	52.05
242.472	43.86
242.689	23.38
242.907	72.53
243.124	43.86
243.341	101.2
243.558	-11.43
243.775	25.43
243.992	17.24
244.209	84.82
244.426	15.19
244.643	-33.96
244.86	25.43
245.078	31.57
245.295	68.44
245.512	39.76
245.729	-27.82
245.946	31.57
246.163	29.52
246.38	-5.29
246.597	23.38
246.814	-38.06
247.031	70.48
247.248	72.53
247.464	23.38
247.681	-25.77
247.898	15.19
248.115	27.48
248.332	-21.67
248.549	-3.24
248.766	45.91
248.983	4.95
249.2	15.19
249.417	43.86
249.633	9.05
249.85	150.36
250.067	72.53
250.284	27.48
250.501	13.14
250.717	-13.48
250.934	13.14
251.151	-76.97
251.368	4.95
251.585	50
251.801	25.43
252.018	80.72
252.235	47.96
252.451	-27.82
252.668	15.19
252.885	54.1
253.102	-15.53
253.318	47.96
253.535	4.95
253.752	25.43
253.968	35.67
254.185	0.85
254.401	140.12
254.618	29.52
254.835	43.86
255.051	117.59
255.268	33.62
255.484	50
255.701	82.77
255.917	45.91
256.134	43.86
256.351	-11.43
256.567	27.48
256.784	93.01
257	50
257.217	95.06
257.433	-25.77
257.65	39.76
257.866	17.24
258.082	29.52
258.299	25.43
258.515	7
258.732	39.76
258.948	-11.43
259.165	-9.39
259.381	47.96
259.597	54.1
259.814	41.81
260.03	78.68
260.246	41.81
260.463	-9.39
260.679	95.06
260.895	-19.63
261.112	74.58
261.328	0.85
261.544	19.29
261.761	140.12
261.977	2.9
262.193	31.57
262.409	70.48
262.626	50
262.842	21.33
263.058	41.81
263.274	23.38
263.49	45.91
263.707	84.82
263.923	37.72
264.139	50
264.355	13.14
264.571	33.62
264.787	56.15
265.004	39.76
265.22	45.91
265.436	31.57
265.652	11.09
265.868	58.2
266.084	-15.53
266.3	-9.39
266.516	47.96
266.732	7
266.948	50
267.164	27.48
267.38	54.1
267.596	-9.39
267.812	-7.34
268.028	15.19
268.244	119.64
268.46	-27.82
268.676	35.67
268.892	13.14
269.108	27.48
269.324	-36.01
269.54	-40.11
269.756	93.01
269.972	-15.53
270.188	19.29
270.403	60.24
270.619	74.58
270.835	90.96
271.051	41.81
271.267	68.44
271.483	29.52
271.698	72.53
271.914	72.53
272.13	-5.29
272.346	13.14
272.562	-5.29
272.777	72.53
272.993	13.14
273.209	21.33
273.425	54.1
273.64	76.63
273.856	74.58
274.072	-64.68
274.287	50
274.503	52.05
274.719	-19.63
274.934	11.09
275.15	-7.34
275.366	21.33
275.581	-33.96
275.797	35.67
276.012	-1.19
276.228	31.57
276.444	19.29
276.659	50
276.875	21.33
277.09	127.83
277.306	25.43
277.521	-5.29
277.737	9.05
277.952	4.95
278.168	17.24
278.383	27.48
278.599	29.52
278.814	70.48
279.03	-19.63
279.245	78.68
279.461	2.9
279.676	-27.82
279.892	-13.48
280.107	74.58
280.322	-5.29
280.538	19.29
280.753	13.14
280.969	62.29
281.184	13.14
281.399	52.05
281.615	93.01
281.83	7
282.045	111.44
282.26	-9.39
282.476	41.81
282.691	-21.67
282.906	45.91
283.122	80.72
283.337	43.86
283.552	72.53
283.767	-5.29
283.983	62.29
284.198	-17.58
284.413	68.44
284.628	9.05
284.843	45.91
285.058	86.87
285.274	-33.96
285.489	31.57
285.704	80.72
285.919	66.39
286.134	72.53
286.349	15.19
286.564	58.2
286.779	133.97
286.995	-19.63
287.21	-21.67
287.425	35.67
287.64	50
287.855	50
288.07	15.19
288.285	23.38
288.5	66.39
288.715	58.2
288.93	29.52
289.145	47.96
289.36	76.63
289.575	33.62
289.79	-46.25
290.004	-44.2
290.219	62.29
290.434	11.09
290.649	80.72
290.864	105.3
291.079	4.95
291.294	86.87
291.509	74.58
291.724	11.09
291.938	43.86
292.153	29.52
292.368	27.48
292.583	2.9
292.798	33.62
293.012	64.34
293.227	54.1
293.442	99.16
293.657	-27.82
293.871	15.19
294.086	-27.82
294.301	70.48
294.516	29.52
294.73	80.72
294.945	11.09
295.16	78.68
295.374	13.14
295.589	29.52
295.804	9.05
296.018	-27.82
296.233	170.83
296.447	74.58
296.662	43.86
296.877	74.58
297.091	19.29
297.306	52.05
297.52	-31.91
297.735	33.62
297.949	95.06
298.164	27.48
298.378	47.96
298.593	-46.25
298.807	29.52
299.022	41.81
299.236	54.1
299.451	47.96
299.665	29.52
299.88	60.24
300.094	39.76
300.309	31.57
300.523	95.06
300.737	7
300.952	78.68
301.166	11.09
301.381	45.91
301.595	90.96
301.809	9.05
302.024	80.72
302.238	47.96
302.452	19.29
302.667	86.87
302.881	58.2
303.095	56.15
303.309	88.92
303.524	-15.53
303.738	-3.24
303.952	-44.2
304.166	72.53
304.381	-25.77
304.595	41.81
304.809	35.67
305.023	70.48
305.237	37.72
305.452	50
305.666	62.29
305.88	43.86
306.094	19.29
306.308	-7.34
306.522	64.34
306.736	21.33
306.95	90.96
307.164	64.34
307.379	-5.29
307.593	25.43
307.807	-13.48
308.021	17.24
308.235	47.96
308.449	17.24
308.663	-9.39
308.877	80.72
309.091	101.2
309.305	21.33
309.519	4.95
309.733	133.97
309.947	64.34
310.161	84.82
310.374	56.15
310.588	111.44
310.802	-1.19
311.016	103.25
311.23	66.39
311.444	74.58
311.658	4.95
311.872	111.44
312.085	70.48
312.299	50
312.513	93.01
312.727	21.33
312.941	37.72
313.154	47.96
313.368	27.48
313.582	39.76
313.796	23.38
314.009	13.14
314.223	97.11
314.437	17.24
314.651	-42.15
314.864	84.82
315.078	68.44
315.292	-1.19
315.505	-33.96
315.719	39.76
315.933	15.19
316.146	13.14
316.36	13.14
316.573	113.49
316.787	80.72
317.001	80.72
317.214	19.29
317.428	37.72
317.641	66.39
317.855	50
318.068	-42.15
318.282	54.1
318.495	29.52
318.709	70.48
318.922	29.52
319.136	80.72
319.349	84.82
319.563	72.53
319.776	2.9
319.99	17.24
320.203	47.96
320.417	27.48
320.63	-36.01
320.843	103.25
321.057	37.72
321.27	50
321.483	31.57
321.697	93.01
321.91	17.24
322.124	56.15
322.337	60.24
322.55	27.48
322.763	-1.19
322.977	52.05
323.19	37.72
323.403	90.96
323.617	33.62
323.83	37.72
324.043	-44.2
324.256	-23.72
324.469	-25.77
324.683	84.82
324.896	13.14
325.109	47.96
325.322	27.48
325.535	50
325.748	50
325.962	90.96
326.175	41.81
326.388	37.72
326.601	19.29
326.814	72.53
327.027	60.24
327.24	140.12
327.453	27.48
327.666	68.44
327.879	-7.34
328.092	7
328.305	33.62
328.518	74.58
328.731	-7.34
328.944	11.09
329.157	50
329.37	-23.72
329.583	70.48
329.796	95.06
330.009	41.81
330.222	84.82
330.435	111.44
330.648	27.48
330.861	68.44
331.073	47.96
331.286	13.14
331.499	43.86
331.712	-42.15
331.925	-5.29
332.138	-3.24
332.35	56.15
332.563	-21.67
332.776	25.43
332.989	47.96
333.202	62.29
333.414	2.9
333.627	105.3
333.84	45.91
334.053	90.96
334.265	56.15
334.478	56.15
334.691	27.48
334.903	17.24
335.116	35.67
335.329	80.72
335.541	68.44
335.754	62.29
335.966	17.24
336.179	113.49
336.392	25.43
336.604	60.24
336.817	35.67
337.029	115.54
337.242	111.44
337.454	35.67
337.667	47.96
337.88	37.72
338.092	68.44
338.305	56.15
338.517	82.77
338.729	74.58
338.942	72.53
339.154	84.82
339.367	50
339.579	23.38
339.792	-33.96
340.004	78.68
340.217	-1.19
340.429	95.06
340.641	25.43
340.854	35.67
341.066	47.96
341.278	93.01
341.491	37.72
341.703	84.82
341.915	82.77
342.128	-42.15
342.34	13.14
342.552	113.49
342.764	60.24
342.977	27.48
343.189	15.19
343.401	62.29
343.613	33.62
343.826	90.96
344.038	7
344.25	74.58
344.462	-17.58
344.674	-50.35
344.886	37.72
345.099	39.76
345.311	25.43
345.523	31.57
345.735	-25.77
345.947	113.49
346.159	76.63
346.371	129.88
346.583	45.91
346.795	27.48
347.007	-19.63
347.219	86.87
347.431	19.29
347.643	64.34
347.855	-11.43
348.067	125.78
348.279	27.48
348.491	39.76
348.703	68.44
348.915	45.91
349.127	43.86
349.339	-27.82
349.551	50
349.763	21.33
349.975	7
350.187	33.62
350.399	21.33
350.61	95.06
350.822	95.06
351.034	78.68
351.246	2.9
351.458	15.19
351.669	19.29
351.881	80.72
352.093	13.14
352.305	54.1
352.517	60.24
352.728	70.48
352.94	27.48
353.152	39.76
353.363	-3.24
353.575	52.05
353.787	54.1
353.999	86.87
354.21	170.83
354.422	50
354.633	-29.87
354.845	0.85
355.057	64.34
355.268	90.96
355.48	76.63
355.692	37.72
355.903	-7.34
356.115	64.34
356.326	50
356.538	174.93
356.749	52.05
356.961	95.06
357.172	58.2
357.384	152.4
357.595	62.29
357.807	-1.19
358.018	58.2
358.23	66.39
358.441	78.68
358.653	103.25
358.864	7
359.075	47.96
359.287	29.52
359.498	117.59
359.709	25.43
359.921	33.62
360.132	35.67
360.344	117.59
360.555	64.34
360.766	119.64
360.977	58.2
361.189	95.06
361.4	-1.19
361.611	45.91
361.823	154.45
362.034	15.19
362.245	-23.72
362.456	99.16
362.667	72.53
362.879	76.63
363.09	66.39
363.301	140.12
363.512	54.1
363.723	-17.58
363.935	-1.19
364.146	84.82
364.357	37.72
364.568	101.2
364.779	70.48
364.99	47.96
365.201	84.82
365.412	45.91
365.623	9.05
365.834	80.72
366.045	21.33
366.256	125.78
366.467	54.1
366.678	52.05
366.889	56.15
367.1	131.92
367.311	64.34
367.522	7
367.733	62.29
367.944	15.19
368.155	45.91
368.366	76.63
368.577	33.62
368.788	113.49
368.999	7
369.209	78.68
369.42	72.53
369.631	93.01
369.842	2.9
370.053	-3.24
370.264	41.81
370.474	-36.01
370.685	56.15
370.896	84.82
371.107	78.68
371.317	86.87
371.528	39.76
371.739	66.39
371.95	13.14
372.16	103.25
372.371	2.9
372.582	50
372.792	25.43
373.003	88.92
373.214	0.85
373.424	58.2
373.635	52.05
373.846	29.52
374.056	70.48
374.267	97.11
374.477	117.59
374.688	56.15
374.898	47.96
375.109	97.11
375.319	101.2
375.53	62.29
375.74	25.43
375.951	41.81
376.161	109.4
376.372	80.72
376.582	13.14
376.793	76.63
377.003	72.53
377.214	70.48
377.424	27.48
377.635	88.92
377.845	47.96
378.055	-5.29
378.266	60.24
378.476	50
378.686	33.62
378.897	111.44
379.107	101.2
379.317	37.72
379.528	43.86
379.738	127.83
379.948	19.29
380.158	103.25
380.369	64.34
380.579	27.48
380.789	31.57
380.999	50
381.21	68.44
381.42	95.06
381.63	15.19
381.84	168.79
382.05	60.24
382.261	97.11
382.471	86.87
382.681	45.91
382.891	45.91
383.101	41.81
383.311	43.86
383.521	35.67
383.731	86.87
383.941	23.38
384.151	19.29
384.361	76.63
384.571	54.1
384.781	97.11
384.991	84.82
385.201	29.52
385.411	66.39
385.621	152.4
385.831	68.44
386.041	95.06
386.251	41.81
386.461	99.16
386.671	-29.87
386.881	113.49
387.091	19.29
387.301	119.64
387.511	72.53
387.72	80.72
387.93	-15.53
388.14	52.05
388.35	70.48
388.56	107.35
388.769	-13.48
388.979	90.96
389.189	45.91
389.399	97.11
389.609	68.44
389.818	127.83
390.028	33.62
390.238	99.16
390.447	56.15
390.657	93.01
390.867	60.24
391.076	70.48
391.286	64.34
391.496	101.2
391.705	78.68
391.915	35.67
392.125	60.24
392.334	41.81
392.544	39.76
392.753	125.78
392.963	37.72
393.172	119.64
393.382	33.62
393.591	107.35
393.801	62.29
394.01	158.55
394.22	119.64
394.429	113.49
394.639	88.92
394.848	113.49
395.058	70.48
395.267	56.15
395.477	109.4
395.686	70.48
395.895	66.39
396.105	148.31
396.314	129.88
396.524	109.4
396.733	64.34
396.942	93.01
397.152	181.07
397.361	133.97
397.57	43.86
397.78	129.88
397.989	70.48
398.198	187.22
398.407	107.35
398.617	162.64
398.826	185.17
399.035	88.92
399.244	140.12
399.453	84.82
399.663	43.86
399.872	86.87
400.081	115.54
400.29	166.74
400.499	123.73
400.708	133.97
400.917	78.68
401.127	95.06
401.336	101.2
401.545	156.5
401.754	174.93
401.963	119.64
402.172	131.92
402.381	168.79
402.59	62.29
402.799	207.7
403.008	193.36
403.217	176.98
403.426	123.73
403.635	95.06
403.844	129.88
404.053	199.51
404.262	168.79
404.471	154.45
404.68	168.79
404.888	156.5
405.097	252.75
405.306	127.83
405.515	195.41
405.724	158.55
405.933	222.03
406.142	238.42
406.35	252.75
406.559	193.36
406.768	211.79
406.977	248.66
407.185	240.47
407.394	283.47
407.603	176.98
407.812	283.47
408.02	385.87
408.229	326.48
408.438	293.71
408.646	310.1
408.855	344.91
409.064	308.05
409.272	246.61
409.481	326.48
409.69	308.05
409.898	373.58
410.107	320.34
410.315	289.62
410.524	355.15
410.733	402.26
410.941	361.3
411.15	412.5
411.358	363.34
411.567	492.37
411.775	420.69
411.984	484.17
412.192	514.89
412.401	500.56
412.609	586.57
412.818	553.8
413.026	508.75
413.234	594.76
413.443	682.83
413.651	602.96
413.86	707.4
414.068	764.75
414.276	709.45
414.485	734.03
414.693	791.37
414.901	772.94
415.11	752.46
415.318	723.79
415.526	799.56
415.734	889.67
415.943	932.68
416.151	1014.6
416.359	899.91
416.567	1028.93
416.776	1051.46
416.984	1198.92
417.192	1162.05
417.4	1172.29
417.608	1254.21
417.817	1243.97
418.025	1274.69
418.233	1327.94
418.441	1446.72
418.649	1413.95
418.857	1416
419.065	1557.31
419.273	1393.47
419.481	1676.09
419.689	1725.24
419.897	1688.38
420.105	1841.98
420.313	1819.45
420.521	1864.5
420.729	1909.56
420.937	1930.04
421.145	2069.3
421.353	2192.18
421.561	2136.88
421.769	2272.05
421.977	2413.36
422.185	2323.25
422.393	2499.38
422.601	2663.21
422.809	2661.16
423.017	2581.29
423.224	2880.3
423.432	2870.06
423.64	2904.87
423.848	3175.2
424.056	2976.55
424.263	3257.12
424.471	3388.19
424.679	3388.19
424.887	3564.32
425.094	3574.56
425.302	3609.37
425.51	3840.79
425.718	4029.21
425.925	4045.59
426.133	4021.02
426.341	4360.98
426.548	4647.69
426.756	4576.02
426.964	4621.07
427.171	4924.17
427.379	5104.39
427.586	5155.59
427.794	5200.65
428.001	5468.93
428.209	5427.97
428.417	5569.28
428.624	6056.7
428.832	6089.46
429.039	5876.48
429.247	6005.5
429.454	6501.11
429.662	7011.05
429.869	6519.54
430.076	7054.06
430.284	6796.01
430.491	7058.15
430.699	7424.74
430.906	7441.12
431.114	7604.96
431.321	7865.05
431.528	8035.03
431.736	8579.79
431.943	8893.13
432.15	8866.51
432.358	8852.17
432.565	9382.6
432.772	9157.32
432.979	9751.23
433.187	9761.47
433.394	10046.14
433.601	10523.32
433.808	10537.65
434.016	10592.95
434.223	11018.93
434.43	11704.99
434.637	11356.84
434.844	12090.01
435.052	12522.13
435.259	12032.67
435.466	12565.14
435.673	12225.18
435.88	13161.1
436.087	13603.46
436.294	13773.44
436.501	13200.01
436.708	13732.48
436.915	13982.34
437.122	14742.13
437.329	14631.54
437.537	15145.58
437.743	15485.55
437.95	15452.78
438.157	16341.6
438.364	16611.93
438.571	16788.05
438.778	16851.54
438.985	18354.75
439.192	17578.57
439.399	18168.38
439.606	17576.52
439.813	18737.72
440.02	19954.21
440.227	19755.56
440.433	19425.84
440.64	20204.07
440.847	19900.97
441.054	20306.46
441.261	21719.56
441.467	21266.96
441.674	21688.84
441.881	22919.67
442.088	22542.85
442.294	22452.73
442.501	23077.37
442.708	23411.18
442.914	24302.05
443.121	25268.69
443.328	24510.94
443.534	26304.96
443.741	25805.26
443.948	25383.38
444.154	27478.45
444.361	26759.61
444.568	27150.78
444.774	27431.35
444.981	27486.64
445.187	27924.91
445.394	29751.7
445.6	29114.78
445.807	31740.27
446.013	30564.74
446.22	31273.34
446.426	32409.96
446.633	32715.11
446.839	33511.77
447.046	32434.53
447.252	34128.2
447.459	33964.37
447.665	33616.21
447.871	35746.1
448.078	37259.55
448.284	35373.37
448.491	36344.11
448.697	37460.25
448.903	38396.17
449.11	38238.48
449.316	37415.19
449.522	38363.4
449.728	39446.78
449.935	39762.17
450.141	39641.34
450.347	40726.76
450.553	39403.77
450.76	39993.59
450.966	41404.64
451.172	40669.42
451.378	41459.93
451.584	40863.97
451.791	41898.2
451.997	41865.43
452.203	42678.47
452.409	42334.42
452.615	42303.7
452.821	40644.84
453.027	40685.8
453.233	42737.87
453.44	40782.06
453.646	41650.39
453.852	41570.52
454.058	42115.28
454.264	40755.43
454.47	41427.17
454.676	40898.79
454.882	42121.43
455.088	38365.45
455.294	39123.2
455.5	39817.46
455.705	39911.67
455.911	38641.93
456.117	37941.52
456.323	37314.84
456.529	35111.23
456.735	36661.54
456.941	35795.25
457.147	35381.56
457.352	34392.39
457.558	33843.54
457.764	33921.36
457.97	33249.63
458.176	32586.08
458.381	32643.43
458.587	30884.22
458.793	31156.6
458.999	29235.61
459.204	31674.74
459.41	30732.67
459.616	28866.97
459.821	28740
460.027	28463.52
460.233	27734.45
460.438	26638.78
460.644	27038.14
460.85	25704.91
461.055	25086.42
461.261	25000.41
461.466	23462.38
461.672	22741.5
461.878	24353.25
462.083	22422.02
462.289	22151.68
462.494	21864.97
462.7	20857.37
462.905	20597.28
463.111	21139.99
463.316	21258.77
463.522	20937.24
463.727	20935.19
463.932	20855.32
464.138	20546.08
464.343	20570.65
464.549	19835.43
464.754	20443.68
464.959	20505.12
465.165	20025.89
465.37	19198.51
465.575	19040.82
465.781	19544.62
465.986	19710.5
466.191	19184.18
466.397	18623.03
466.602	17730.12
466.807	18555.45
467.012	18500.16
467.218	18141.76
467.423	18121.28
467.628	18258.49
467.833	19038.77
468.038	18321.98
468.244	17887.81
468.449	18666.04
468.654	17764.93
