Data from USB4F104151__56__12-36-25-116.txt Node

Date: Fri Mar 14 12:36:25 EDT 2025
User: louis
Spectrometer: USB4F10415
Trigger mode: 4
Integration Time (sec): 2.000000E-2
Scans to average: 1
Electric dark correction enabled: true
Nonlinearity correction enabled: false
Boxcar width: 0
XAxis mode: Wavelengths
Number of Pixels in Spectrum: 3648
>>>>>Begin Spectral Data<<<<<
178.204	-86.87
178.424	-86.87
178.644	-86.87
178.864	-99.16
179.084	-148.31
179.304	5.29
179.524	27.82
179.744	19.63
179.964	42.15
180.184	-80.72
180.404	-2.9
180.624	-0.85
180.844	1.19
181.064	19.63
181.283	-15.19
181.503	27.82
181.723	-43.86
181.943	-41.81
182.163	72.87
182.383	1.19
182.602	17.58
182.822	-4.95
183.042	36.01
183.262	19.63
183.482	5.29
183.701	38.06
183.921	21.67
184.141	-37.72
184.361	79.02
184.58	74.92
184.8	19.63
185.02	-41.81
185.239	36.01
185.459	15.53
185.679	19.63
185.898	44.2
186.118	52.39
186.338	25.77
186.557	72.87
186.777	-27.48
186.997	-15.19
187.216	-37.72
187.436	72.87
187.655	50.35
187.875	81.07
188.095	-2.9
188.314	42.15
188.534	27.82
188.753	40.11
188.973	81.07
189.192	58.54
189.412	-9.05
189.631	54.44
189.851	23.72
190.07	76.97
190.29	42.15
190.509	15.53
190.729	-2.9
190.948	85.16
191.168	115.88
191.387	93.35
191.607	15.53
191.826	36.01
192.045	25.77
192.265	-62.29
192.484	-2.9
192.704	40.11
192.923	-7
193.142	60.59
193.362	50.35
193.581	13.48
193.8	62.63
194.02	1.19
194.239	40.11
194.458	23.72
194.678	111.78
194.897	-45.91
195.116	-4.95
195.335	52.39
195.555	15.53
195.774	33.96
195.993	19.63
196.212	25.77
196.432	11.43
196.651	23.72
196.87	-9.05
197.089	-19.29
197.308	40.11
197.528	33.96
197.747	54.44
197.966	40.11
198.185	85.16
198.404	17.58
198.623	76.97
198.842	72.87
199.062	-17.24
199.281	33.96
199.5	-41.81
199.719	40.11
199.938	-17.24
200.157	19.63
200.376	21.67
200.595	-23.38
200.814	17.58
201.033	54.44
201.252	13.48
201.471	29.87
201.69	52.39
201.909	44.2
202.128	70.83
202.347	109.74
202.566	-13.14
202.785	-60.24
203.004	52.39
203.223	148.65
203.442	-7
203.661	11.43
203.879	13.48
204.098	-25.43
204.317	46.25
204.536	58.54
204.755	11.43
204.974	19.63
205.193	-45.91
205.411	79.02
205.63	115.88
205.849	15.53
206.068	27.82
206.287	-2.9
206.505	42.15
206.724	31.91
206.943	29.87
207.162	-23.38
207.381	54.44
207.599	91.31
207.818	31.91
208.037	-7
208.255	-43.86
208.474	3.24
208.693	93.35
208.911	13.48
209.13	126.12
209.349	62.63
209.567	44.2
209.786	33.96
210.005	15.53
210.223	3.24
210.442	-25.43
210.661	52.39
210.879	93.35
211.098	58.54
211.316	15.53
211.535	-0.85
211.753	50.35
211.972	31.91
212.191	19.63
212.409	31.91
212.628	44.2
212.846	-2.9
213.065	15.53
213.283	33.96
213.502	3.24
213.72	60.59
213.938	111.78
214.157	17.58
214.375	38.06
214.594	-37.72
214.812	7.34
215.031	23.72
215.249	33.96
215.467	68.78
215.686	54.44
215.904	3.24
216.122	40.11
216.341	36.01
216.559	27.82
216.778	62.63
216.996	52.39
217.214	-0.85
217.432	3.24
217.651	36.01
217.869	15.53
218.087	101.55
218.306	23.72
218.524	21.67
218.742	15.53
218.96	-7
219.179	58.54
219.397	42.15
219.615	99.5
219.833	23.72
220.051	91.31
220.27	68.78
220.488	48.3
220.706	95.4
220.924	15.53
221.142	21.67
221.36	38.06
221.578	38.06
221.796	48.3
222.015	25.77
222.233	13.48
222.451	-13.14
222.669	-29.52
222.887	38.06
223.105	-99.16
223.323	1.19
223.541	46.25
223.759	54.44
223.977	48.3
224.195	103.59
224.413	79.02
224.631	-4.95
224.849	66.73
225.067	56.49
225.285	7.34
225.503	-11.09
225.721	5.29
225.939	52.39
226.157	70.83
226.375	79.02
226.592	13.48
226.81	-2.9
227.028	29.87
227.246	38.06
227.464	19.63
227.682	1.19
227.9	-37.72
228.117	9.39
228.335	-39.76
228.553	33.96
228.771	-4.95
228.989	76.97
229.206	36.01
229.424	-4.95
229.642	-70.48
229.86	40.11
230.077	-7
230.295	48.3
230.513	25.77
230.731	40.11
230.948	19.63
231.166	7.34
231.384	79.02
231.601	42.15
231.819	23.72
232.037	3.24
232.254	66.73
232.472	29.87
232.689	-15.19
232.907	33.96
233.125	9.39
233.342	81.07
233.56	52.39
233.777	56.49
233.995	-4.95
234.213	46.25
234.43	62.63
234.648	81.07
234.865	50.35
235.083	50.35
235.3	85.16
235.518	91.31
235.735	7.34
235.953	1.19
236.17	23.72
236.388	68.78
236.605	54.44
236.822	44.2
237.04	76.97
237.257	52.39
237.475	54.44
237.692	56.49
237.909	56.49
238.127	74.92
238.344	19.63
238.562	56.49
238.779	-15.19
238.996	50.35
239.214	19.63
239.431	81.07
239.648	-142.16
239.865	105.64
240.083	-7
240.3	-11.09
240.517	-9.05
240.735	33.96
240.952	79.02
241.169	17.58
241.386	62.63
241.603	-21.33
241.821	62.63
242.038	50.35
242.255	-4.95
242.472	29.87
242.689	23.72
242.907	54.44
243.124	-21.33
243.341	-58.2
243.558	27.82
243.775	60.59
243.992	5.29
244.209	83.11
244.426	31.91
244.643	46.25
244.86	50.35
245.078	62.63
245.295	46.25
245.512	70.83
245.729	-70.48
245.946	9.39
246.163	60.59
246.38	-11.09
246.597	29.87
246.814	27.82
247.031	56.49
247.248	42.15
247.464	99.5
247.681	72.87
247.898	83.11
248.115	74.92
248.332	50.35
248.549	83.11
248.766	91.31
248.983	27.82
249.2	-68.44
249.417	56.49
249.633	3.24
249.85	85.16
250.067	1.19
250.284	81.07
250.501	52.39
250.717	27.82
250.934	23.72
251.151	36.01
251.368	5.29
251.585	36.01
251.801	42.15
252.018	7.34
252.235	36.01
252.451	11.43
252.668	117.93
252.885	68.78
253.102	11.43
253.318	33.96
253.535	1.19
253.752	31.91
253.968	56.49
254.185	66.73
254.401	-17.24
254.618	105.64
254.835	1.19
255.051	23.72
255.268	50.35
255.484	46.25
255.701	74.92
255.917	136.36
256.134	-21.33
256.351	83.11
256.567	70.83
256.784	15.53
257	-54.1
257.217	50.35
257.433	44.2
257.65	89.26
257.866	25.77
258.082	-60.24
258.299	-37.72
258.515	81.07
258.732	54.44
258.948	7.34
259.165	36.01
259.381	89.26
259.597	87.21
259.814	19.63
260.03	-7
260.246	113.83
260.463	56.49
260.679	44.2
260.895	-21.33
261.112	7.34
261.328	64.68
261.544	23.72
261.761	36.01
261.977	48.3
262.193	33.96
262.409	38.06
262.626	11.43
262.842	-11.09
263.058	-11.09
263.274	21.67
263.49	-4.95
263.707	58.54
263.923	87.21
264.139	-4.95
264.355	56.49
264.571	48.3
264.787	64.68
265.004	50.35
265.22	83.11
265.436	62.63
265.652	-2.9
265.868	-27.48
266.084	19.63
266.3	103.59
266.516	15.53
266.732	66.73
266.948	13.48
267.164	21.67
267.38	-0.85
267.596	-27.48
267.812	146.6
268.028	81.07
268.244	-11.09
268.46	15.53
268.676	25.77
268.892	-7
269.108	-2.9
269.324	56.49
269.54	76.97
269.756	44.2
269.972	-11.09
270.188	-15.19
270.403	-7
270.619	-11.09
270.835	21.67
271.051	-43.86
271.267	68.78
271.483	87.21
271.698	83.11
271.914	42.15
272.13	1.19
272.346	36.01
272.562	64.68
272.777	21.67
272.993	54.44
273.209	-11.09
273.425	-7
273.64	17.58
273.856	58.54
274.072	3.24
274.287	-19.29
274.503	33.96
274.719	70.83
274.934	42.15
275.15	-2.9
275.366	5.29
275.581	-13.14
275.797	93.35
276.012	-50
276.228	3.24
276.444	46.25
276.659	13.48
276.875	105.64
277.09	-33.62
277.306	-17.24
277.521	42.15
277.737	-21.33
277.952	48.3
278.168	85.16
278.383	44.2
278.599	-54.1
278.814	89.26
279.03	-13.14
279.245	66.73
279.461	21.67
279.676	91.31
279.892	19.63
280.107	23.72
280.322	56.49
280.538	-88.92
280.753	5.29
280.969	38.06
281.184	15.53
281.399	97.45
281.615	29.87
281.83	-80.72
282.045	25.77
282.26	-25.43
282.476	87.21
282.691	33.96
282.906	95.4
283.122	64.68
283.337	50.35
283.552	17.58
283.767	11.43
283.983	5.29
284.198	1.19
284.413	54.44
284.628	-50
284.843	76.97
285.058	-11.09
285.274	19.63
285.489	81.07
285.704	50.35
285.919	-33.62
286.134	23.72
286.349	64.68
286.564	-62.29
286.779	56.49
286.995	60.59
287.21	-27.48
287.425	134.31
287.64	66.73
287.855	56.49
288.07	38.06
288.285	58.54
288.5	56.49
288.715	17.58
288.93	-19.29
289.145	50.35
289.36	83.11
289.575	42.15
289.79	23.72
290.004	91.31
290.219	-2.9
290.434	-50
290.649	23.72
290.864	38.06
291.079	-70.48
291.294	64.68
291.509	46.25
291.724	33.96
291.938	17.58
292.153	72.87
292.368	17.58
292.583	70.83
292.798	40.11
293.012	42.15
293.227	-35.67
293.442	-23.38
293.657	36.01
293.871	101.55
294.086	5.29
294.301	95.4
294.516	46.25
294.73	-23.38
294.945	-23.38
295.16	-7
295.374	19.63
295.589	76.97
295.804	9.39
296.018	64.68
296.233	42.15
296.447	-2.9
296.662	44.2
296.877	85.16
297.091	93.35
297.306	56.49
297.52	72.87
297.735	13.48
297.949	60.59
298.164	91.31
298.378	-19.29
298.593	83.11
298.807	23.72
299.022	9.39
299.236	76.97
299.451	44.2
299.665	-21.33
299.88	97.45
300.094	31.91
300.309	44.2
300.523	48.3
300.737	74.92
300.952	23.72
301.166	29.87
301.381	33.96
301.595	136.36
301.809	-7
302.024	48.3
302.238	15.53
302.452	50.35
302.667	60.59
302.881	95.4
303.095	1.19
303.309	52.39
303.524	42.15
303.738	-11.09
303.952	79.02
304.166	27.82
304.381	-58.2
304.595	85.16
304.809	-9.05
305.023	-21.33
305.237	-62.29
305.452	-13.14
305.666	48.3
305.88	113.83
306.094	42.15
306.308	52.39
306.522	7.34
306.736	66.73
306.95	103.59
307.164	58.54
307.379	15.53
307.593	44.2
307.807	58.54
308.021	52.39
308.235	83.11
308.449	-4.95
308.663	33.96
308.877	-9.05
309.091	95.4
309.305	48.3
309.519	-47.96
309.733	79.02
309.947	-0.85
310.161	81.07
310.374	15.53
310.588	68.78
310.802	-9.05
311.016	68.78
311.23	91.31
311.444	-0.85
311.658	25.77
311.872	13.48
312.085	1.19
312.299	91.31
312.513	-29.52
312.727	-50
312.941	-80.72
313.154	79.02
313.368	-17.24
313.582	3.24
313.796	-9.05
314.009	74.92
314.223	72.87
314.437	40.11
314.651	46.25
314.864	-25.43
315.078	-17.24
315.292	-43.86
315.505	87.21
315.719	64.68
315.933	87.21
316.146	113.83
316.36	62.63
316.573	62.63
316.787	-4.95
317.001	81.07
317.214	40.11
317.428	27.82
317.641	52.39
317.855	66.73
318.068	27.82
318.282	31.91
318.495	81.07
318.709	46.25
318.922	33.96
319.136	95.4
319.349	-15.19
319.563	56.49
319.776	72.87
319.99	60.59
320.203	-2.9
320.417	62.63
320.63	105.64
320.843	21.67
321.057	83.11
321.27	29.87
321.483	66.73
321.697	64.68
321.91	9.39
322.124	103.59
322.337	58.54
322.55	21.67
322.763	74.92
322.977	64.68
323.19	11.43
323.403	29.87
323.617	36.01
323.83	21.67
324.043	-2.9
324.256	54.44
324.469	-0.85
324.683	89.26
324.896	42.15
325.109	162.98
325.322	54.44
325.535	40.11
325.748	31.91
325.962	144.55
326.175	79.02
326.388	58.54
326.601	70.83
326.814	76.97
327.027	54.44
327.24	85.16
327.453	-21.33
327.666	81.07
327.879	79.02
328.092	64.68
328.305	62.63
328.518	46.25
328.731	79.02
328.944	89.26
329.157	1.19
329.37	40.11
329.583	48.3
329.796	9.39
330.009	66.73
330.222	54.44
330.435	70.83
330.648	-17.24
330.861	7.34
331.073	-9.05
331.286	42.15
331.499	-11.09
331.712	31.91
331.925	29.87
332.138	42.15
332.35	42.15
332.563	64.68
332.776	66.73
332.989	87.21
333.202	113.83
333.414	54.44
333.627	60.59
333.84	13.48
334.053	117.93
334.265	27.82
334.478	56.49
334.691	-29.52
334.903	-15.19
335.116	79.02
335.329	64.68
335.541	85.16
335.754	79.02
335.966	-4.95
336.179	89.26
336.392	31.91
336.604	23.72
336.817	89.26
337.029	87.21
337.242	40.11
337.454	68.78
337.667	36.01
337.88	33.96
338.092	13.48
338.305	68.78
338.517	-27.48
338.729	115.88
338.942	89.26
339.154	66.73
339.367	27.82
339.579	70.83
339.792	156.84
340.004	21.67
340.217	42.15
340.429	62.63
340.641	48.3
340.854	11.43
341.066	76.97
341.278	87.21
341.491	83.11
341.703	40.11
341.915	-31.57
342.128	15.53
342.34	76.97
342.552	21.67
342.764	-27.48
342.977	134.31
343.189	66.73
343.401	15.53
343.613	-9.05
343.826	122.02
344.038	21.67
344.25	-0.85
344.462	40.11
344.674	58.54
344.886	56.49
345.099	64.68
345.311	25.77
345.523	52.39
345.735	56.49
345.947	11.43
346.159	33.96
346.371	36.01
346.583	17.58
346.795	113.83
347.007	54.44
347.219	62.63
347.431	83.11
347.643	36.01
347.855	25.77
348.067	115.88
348.279	105.64
348.491	25.77
348.703	-0.85
348.915	64.68
349.127	5.29
349.339	56.49
349.551	17.58
349.763	76.97
349.975	-19.29
350.187	72.87
350.399	62.63
350.61	93.35
350.822	70.83
351.034	56.49
351.246	3.24
351.458	-0.85
351.669	99.5
351.881	52.39
352.093	50.35
352.305	1.19
352.517	72.87
352.728	25.77
352.94	76.97
353.152	42.15
353.363	72.87
353.575	72.87
353.787	58.54
353.999	50.35
354.21	46.25
354.422	15.53
354.633	23.72
354.845	72.87
355.057	21.67
355.268	122.02
355.48	50.35
355.692	7.34
355.903	62.63
356.115	19.63
356.326	13.48
356.538	56.49
356.749	13.48
356.961	38.06
357.172	-52.05
357.384	74.92
357.595	103.59
357.807	46.25
358.018	-11.09
358.23	79.02
358.441	54.44
358.653	58.54
358.864	109.74
359.075	42.15
359.287	29.87
359.498	56.49
359.709	87.21
359.921	83.11
360.132	107.69
360.344	19.63
360.555	70.83
360.766	117.93
360.977	91.31
361.189	3.24
361.4	48.3
361.611	128.17
361.823	29.87
362.034	83.11
362.245	31.91
362.456	74.92
362.667	66.73
362.879	48.3
363.09	3.24
363.301	62.63
363.512	107.69
363.723	3.24
363.935	44.2
364.146	38.06
364.357	9.39
364.568	48.3
364.779	52.39
364.99	79.02
365.201	21.67
365.412	36.01
365.623	48.3
365.834	15.53
366.045	62.63
366.256	169.13
366.467	93.35
366.678	111.78
366.889	48.3
367.1	124.07
367.311	13.48
367.522	81.07
367.733	62.63
367.944	66.73
368.155	7.34
368.366	60.59
368.577	23.72
368.788	50.35
368.999	74.92
369.209	93.35
369.42	93.35
369.631	111.78
369.842	95.4
370.053	95.4
370.264	1.19
370.474	81.07
370.685	25.77
370.896	79.02
371.107	119.98
371.317	46.25
371.528	40.11
371.739	36.01
371.95	62.63
372.16	105.64
372.371	-7
372.582	21.67
372.792	111.78
373.003	74.92
373.214	27.82
373.424	-7
373.635	25.77
373.846	115.88
374.056	99.5
374.267	97.45
374.477	140.46
374.688	38.06
374.898	46.25
375.109	109.74
375.319	50.35
375.53	21.67
375.74	38.06
375.951	33.96
376.161	113.83
376.372	140.46
376.582	66.73
376.793	66.73
377.003	109.74
377.214	56.49
377.424	93.35
377.635	31.91
377.845	7.34
378.055	101.55
378.266	3.24
378.476	91.31
378.686	93.35
378.897	85.16
379.107	1.19
379.317	76.97
379.528	23.72
379.738	128.17
379.948	76.97
380.158	81.07
380.369	72.87
380.579	74.92
380.789	81.07
380.999	64.68
381.21	58.54
381.42	76.97
381.63	31.91
381.84	68.78
382.05	85.16
382.261	89.26
382.471	101.55
382.681	48.3
382.891	134.31
383.101	162.98
383.311	144.55
383.521	74.92
383.731	60.59
383.941	62.63
384.151	87.21
384.361	91.31
384.571	79.02
384.781	15.53
384.991	103.59
385.201	134.31
385.411	105.64
385.621	95.4
385.831	99.5
386.041	115.88
386.251	15.53
386.461	70.83
386.671	132.26
386.881	60.59
387.091	62.63
387.301	5.29
387.511	40.11
387.72	48.3
387.93	76.97
388.14	44.2
388.35	122.02
388.56	68.78
388.769	21.67
388.979	132.26
389.189	56.49
389.399	52.39
389.609	109.74
389.818	113.83
390.028	101.55
390.238	146.6
390.447	74.92
390.657	138.41
390.867	95.4
391.076	40.11
391.286	87.21
391.496	109.74
391.705	119.98
391.915	107.69
392.125	79.02
392.334	95.4
392.544	46.25
392.753	42.15
392.963	64.68
393.172	165.03
393.382	74.92
393.591	113.83
393.801	91.31
394.01	197.8
394.22	81.07
394.429	79.02
394.639	66.73
394.848	52.39
395.058	138.41
395.267	33.96
395.477	83.11
395.686	62.63
395.895	156.84
396.105	242.85
396.314	95.4
396.524	54.44
396.733	136.36
396.942	81.07
397.152	126.12
397.361	111.78
397.57	109.74
397.78	140.46
397.989	107.69
398.198	193.7
398.407	132.26
398.617	205.99
398.826	138.41
399.035	105.64
399.244	130.22
399.453	158.89
399.663	148.65
399.872	253.09
400.081	203.94
400.29	122.02
400.499	193.7
400.708	154.79
400.917	97.45
401.127	214.18
401.336	201.9
401.545	171.18
401.754	148.65
401.963	158.89
402.172	220.33
402.381	134.31
402.59	175.27
402.799	138.41
403.008	218.28
403.217	181.42
403.426	195.75
403.635	148.65
403.844	171.18
404.053	162.98
404.262	199.85
404.471	175.27
404.68	238.76
404.888	160.94
405.097	130.22
405.306	234.66
405.515	226.47
405.724	232.62
405.933	210.09
406.142	242.85
406.35	216.23
406.559	304.29
406.768	236.71
406.977	345.25
407.185	289.96
407.394	267.43
407.603	275.62
407.812	326.82
408.02	339.11
408.229	312.49
408.438	298.15
408.646	380.07
408.855	392.36
409.064	332.97
409.272	388.26
409.481	480.42
409.69	396.45
409.898	453.8
410.107	302.25
410.315	439.46
410.524	521.38
410.733	515.23
410.941	488.61
411.15	511.14
411.358	498.85
411.567	552.1
411.775	523.43
411.984	523.43
412.192	574.63
412.401	732.32
412.609	732.32
412.818	670.88
413.026	681.12
413.234	773.28
413.443	781.47
413.651	793.76
413.86	894.11
414.068	896.16
414.276	967.84
414.485	957.6
414.693	984.22
414.901	988.32
415.11	900.25
415.318	1088.67
415.526	1115.29
415.734	1219.74
415.943	1219.74
416.151	1193.11
416.359	1295.51
416.567	1262.74
416.776	1229.98
416.984	1381.53
417.192	1354.9
417.4	1318.04
417.608	1492.12
417.817	1543.32
418.025	1629.33
418.233	1608.85
418.441	1754.26
418.649	1713.3
418.857	1877.13
419.065	1866.89
419.273	1819.79
419.481	2086.03
419.689	2094.22
419.897	2118.79
420.105	2219.14
420.313	2286.73
420.521	2337.93
420.729	2450.57
420.937	2458.76
421.145	2675.84
421.353	2604.16
421.561	2757.76
421.769	2768
421.977	3015.8
422.185	2878.59
422.393	3153.02
422.601	3370.1
422.809	3331.19
423.017	3460.21
423.224	3687.54
423.432	3624.05
423.64	3794.03
423.848	4004.97
424.056	3886.19
424.263	4142.19
424.471	4125.8
424.679	4287.59
424.887	4519.01
425.094	4684.9
425.302	4775.01
425.51	4779.11
425.718	5055.58
425.925	5051.49
426.133	5264.47
426.341	5416.02
426.548	5729.36
426.756	5706.84
426.964	5770.32
427.171	6294.6
427.379	6231.12
427.586	6489.16
427.794	6542.41
428.001	7150.65
428.209	7306.3
428.417	7162.94
428.624	7742.52
428.832	7584.82
429.039	7633.97
429.247	7638.07
429.454	8375.34
429.662	8793.12
429.869	8256.56
430.076	8997.92
430.284	8596.52
430.491	9104.42
430.699	9542.68
430.906	9577.5
431.114	9690.13
431.321	10054.67
431.528	10423.31
431.736	11006.98
431.943	11404.28
432.15	11176.96
432.358	11113.47
432.565	11740.15
432.772	11951.09
432.979	12223.47
433.187	12604.39
433.394	12585.96
433.601	13312.99
433.808	13538.27
434.016	13741.02
434.223	14107.6
434.43	14947.27
434.637	14652.36
434.844	15614.91
435.052	15827.9
435.259	15946.68
435.466	15905.72
435.673	15739.83
435.88	16837.55
436.087	17720.22
436.294	17503.14
436.501	17361.83
436.708	17689.5
436.915	18236.31
437.122	19137.41
437.329	19211.14
437.537	19534.72
437.743	19936.12
437.95	19827.58
438.157	20837.23
438.364	21523.3
438.571	21347.17
438.778	21504.87
438.985	23632.71
439.192	22905.68
439.399	23399.24
439.606	23077.71
439.813	24511.28
440.02	25768.74
440.227	25076.52
440.433	25066.28
440.64	25721.63
440.847	25662.24
441.054	26247.96
441.261	28017.41
441.467	27573
441.674	28408.57
441.881	29405.93
442.088	29315.82
442.294	29076.21
442.501	30063.33
442.708	30325.47
442.914	31453.9
443.121	32742.07
443.328	32015.04
443.534	34321.05
443.741	33813.16
443.948	32543.42
444.154	35445.39
444.361	34759.32
444.568	35025.56
444.774	35361.42
444.981	35814.02
445.187	36704.89
445.394	38607.45
445.6	37620.33
445.807	41038.39
446.013	39633.49
446.22	40501.82
446.426	42050.09
446.633	42418.72
446.839	43811.34
447.046	41939.5
447.252	44081.67
447.459	44534.28
447.665	44315.14
447.871	45744.62
448.078	47974.86
448.284	45668.85
448.491	46930.4
448.697	48677.32
448.903	49822.13
449.11	49545.65
449.316	49199.55
449.522	49981.87
449.728	50684.33
449.935	51421.59
450.141	51204.51
450.347	52642.18
450.553	51040.67
450.76	51505.56
450.966	53381.5
451.172	52949.38
451.378	53924.21
451.584	52957.57
451.791	54641
451.997	53645.69
452.203	55284.06
452.409	55132.51
452.615	54759.78
452.821	52730.25
453.027	52291.98
453.233	55085.41
453.44	52963.71
453.646	53674.36
453.852	54008.18
454.058	54722.92
454.264	52859.27
454.47	54088.05
454.676	52924.8
454.882	54223.22
455.088	50194.86
455.294	50723.24
455.5	51384.73
455.705	52072.85
455.911	50119.09
456.117	48861.63
456.323	48452.04
456.529	45930.99
456.735	48239.05
456.941	46993.89
457.147	46055.92
457.352	44769.79
457.558	44354.05
457.764	44575.23
457.97	43317.78
458.176	42721.82
458.381	42738.21
458.587	40147.53
458.793	40440.39
458.999	38275.68
459.204	41374.26
459.41	40294.98
459.616	37212.79
459.821	37556.85
460.027	37595.76
460.233	36936.31
460.438	34955.93
460.644	35654.28
460.85	33702.57
461.055	33235.63
461.261	33047.22
461.466	30864.08
461.672	29635.3
461.878	31904.45
462.083	29412.07
462.289	29397.74
462.494	28846.83
462.7	27738.88
462.905	27034.38
463.111	27890.43
463.316	28136.19
463.522	27220.75
463.727	27441.93
463.932	27198.22
464.138	27095.82
464.343	27288.33
464.549	26368.79
464.754	27120.4
464.959	26940.18
465.165	26759.95
465.37	25406.25
465.575	24943.41
465.781	25862.94
465.986	25985.82
466.191	25119.53
466.397	24937.26
466.602	23636.8
466.807	24513.33
467.012	24539.96
467.218	24210.23
467.423	24142.65
