Data from USB4F104151__70__12-36-44-154.txt Node

Date: Fri Mar 14 12:36:44 EDT 2025
User: louis
Spectrometer: USB4F10415
Trigger mode: 4
Integration Time (sec): 2.000000E-2
Scans to average: 1
Electric dark correction enabled: true
Nonlinearity correction enabled: false
Boxcar width: 0
XAxis mode: Wavelengths
Number of Pixels in Spectrum: 3648
>>>>>Begin Spectral Data<<<<<
178.204	-21.67
178.424	-21.67
178.644	-21.67
178.864	-99.5
179.084	-74.92
179.304	4.95
179.524	-27.82
179.744	74.58
179.964	27.48
180.184	-62.63
180.404	21.33
180.624	-44.2
180.844	39.76
181.064	-40.11
181.283	-11.43
181.503	-1.19
181.723	19.29
181.943	11.09
182.163	15.19
182.383	43.86
182.602	62.29
182.822	25.43
183.042	41.81
183.262	-9.39
183.482	23.38
183.701	25.43
183.921	7
184.141	-17.58
184.361	21.33
184.58	78.68
184.8	17.24
185.02	25.43
185.239	31.57
185.459	41.81
185.679	72.53
185.898	-3.24
186.118	17.24
186.338	103.25
186.557	129.88
186.777	37.72
186.997	25.43
187.216	-25.77
187.436	105.3
187.655	90.96
187.875	37.72
188.095	2.9
188.314	7
188.534	-31.91
188.753	-50.35
188.973	39.76
189.192	56.15
189.412	11.09
189.631	78.68
189.851	-3.24
190.07	37.72
190.29	41.81
190.509	4.95
190.729	54.1
190.948	39.76
191.168	146.26
191.387	82.77
191.607	39.76
191.826	2.9
192.045	37.72
192.265	39.76
192.484	-21.67
192.704	72.53
192.923	54.1
193.142	-3.24
193.362	11.09
193.581	50
193.8	19.29
194.02	113.49
194.239	72.53
194.458	88.92
194.678	-52.39
194.897	68.44
195.116	66.39
195.335	15.19
195.555	-25.77
195.774	50
195.993	9.05
196.212	45.91
196.432	11.09
196.651	82.77
196.87	-38.06
197.089	35.67
197.308	50
197.528	88.92
197.747	0.85
197.966	11.09
198.185	101.2
198.404	-11.43
198.623	84.82
198.842	-46.25
199.062	62.29
199.281	43.86
199.5	21.33
199.719	-33.96
199.938	33.62
200.157	29.52
200.376	129.88
200.595	27.48
200.814	27.48
201.033	15.19
201.252	25.43
201.471	-7.34
201.69	13.14
201.909	35.67
202.128	43.86
202.347	15.19
202.566	19.29
202.785	21.33
203.004	-36.01
203.223	86.87
203.442	62.29
203.661	-7.34
203.879	23.38
204.098	64.34
204.317	-13.48
204.536	43.86
204.755	13.14
204.974	27.48
205.193	35.67
205.411	86.87
205.63	19.29
205.849	-21.67
206.068	13.14
206.287	37.72
206.505	-36.01
206.724	68.44
206.943	15.19
207.162	-7.34
207.381	88.92
207.599	-9.39
207.818	43.86
208.037	-31.91
208.255	29.52
208.474	101.2
208.693	80.72
208.911	29.52
209.13	37.72
209.349	56.15
209.567	142.16
209.786	37.72
210.005	45.91
210.223	58.2
210.442	0.85
210.661	66.39
210.879	107.35
211.098	-42.15
211.316	25.43
211.535	39.76
211.753	50
211.972	9.05
212.191	21.33
212.409	97.11
212.628	7
212.846	58.2
213.065	52.05
213.283	121.68
213.502	29.52
213.72	13.14
213.938	56.15
214.157	43.86
214.375	25.43
214.594	13.14
214.812	52.05
215.031	80.72
215.249	-48.3
215.467	-56.49
215.686	60.24
215.904	97.11
216.122	31.57
216.341	39.76
216.559	17.24
216.778	117.59
216.996	99.16
217.214	88.92
217.432	60.24
217.651	21.33
217.869	43.86
218.087	50
218.306	31.57
218.524	64.34
218.742	41.81
218.96	68.44
219.179	66.39
219.397	97.11
219.615	82.77
219.833	27.48
220.051	-7.34
220.27	27.48
220.488	88.92
220.706	0.85
220.924	-58.54
221.142	4.95
221.36	86.87
221.578	64.34
221.796	41.81
222.015	58.2
222.233	17.24
222.451	50
222.669	11.09
222.887	29.52
223.105	19.29
223.323	-7.34
223.541	54.1
223.759	-25.77
223.977	58.2
224.195	64.34
224.413	62.29
224.631	45.91
224.849	-31.91
225.067	50
225.285	43.86
225.503	-15.53
225.721	-60.59
225.939	64.34
226.157	33.62
226.375	70.48
226.592	2.9
226.81	35.67
227.028	101.2
227.246	93.01
227.464	21.33
227.682	23.38
227.9	23.38
228.117	47.96
228.335	78.68
228.553	43.86
228.771	-19.63
228.989	56.15
229.206	60.24
229.424	97.11
229.642	33.62
229.86	-9.39
230.077	74.58
230.295	13.14
230.513	68.44
230.731	64.34
230.948	56.15
231.166	76.63
231.384	80.72
231.601	72.53
231.819	58.2
232.037	-23.72
232.254	35.67
232.472	-40.11
232.689	66.39
232.907	33.62
233.125	66.39
233.342	-17.58
233.56	21.33
233.777	41.81
233.995	29.52
234.213	35.67
234.43	50
234.648	37.72
234.865	9.05
235.083	19.29
235.3	70.48
235.518	29.52
235.735	74.58
235.953	97.11
236.17	-21.67
236.388	43.86
236.605	33.62
236.822	88.92
237.04	-27.82
237.257	105.3
237.475	31.57
237.692	70.48
237.909	-25.77
238.127	45.91
238.344	60.24
238.562	-42.15
238.779	2.9
238.996	21.33
239.214	97.11
239.431	15.19
239.648	-3.24
239.865	66.39
240.083	0.85
240.3	52.05
240.517	74.58
240.735	43.86
240.952	-15.53
241.169	78.68
241.386	125.78
241.603	-15.53
241.821	-1.19
242.038	70.48
242.255	13.14
242.472	19.29
242.689	80.72
242.907	52.05
243.124	39.76
243.341	13.14
243.558	9.05
243.775	7
243.992	80.72
244.209	47.96
244.426	93.01
244.643	47.96
244.86	64.34
245.078	54.1
245.295	27.48
245.512	41.81
245.729	0.85
245.946	80.72
246.163	-64.68
246.38	41.81
246.597	50
246.814	9.05
247.031	84.82
247.248	25.43
247.464	-27.82
247.681	29.52
247.898	123.73
248.115	31.57
248.332	-29.87
248.549	47.96
248.766	97.11
248.983	72.53
249.2	33.62
249.417	86.87
249.633	105.3
249.85	-15.53
250.067	64.34
250.284	17.24
250.501	66.39
250.717	93.01
250.934	39.76
251.151	43.86
251.368	54.1
251.585	56.15
251.801	-15.53
252.018	15.19
252.235	72.53
252.451	84.82
252.668	-25.77
252.885	68.44
253.102	115.54
253.318	2.9
253.535	7
253.752	-3.24
253.968	35.67
254.185	21.33
254.401	29.52
254.618	52.05
254.835	21.33
255.051	37.72
255.268	27.48
255.484	93.01
255.701	60.24
255.917	33.62
256.134	11.09
256.351	21.33
256.567	17.24
256.784	58.2
257	19.29
257.217	50
257.433	74.58
257.65	23.38
257.866	11.09
258.082	-15.53
258.299	64.34
258.515	105.3
258.732	11.09
258.948	15.19
259.165	60.24
259.381	37.72
259.597	-13.48
259.814	99.16
260.03	21.33
260.246	43.86
260.463	101.2
260.679	43.86
260.895	37.72
261.112	7
261.328	-23.72
261.544	29.52
261.761	64.34
261.977	56.15
262.193	-29.87
262.409	82.77
262.626	95.06
262.842	72.53
263.058	-44.2
263.274	47.96
263.49	66.39
263.707	47.96
263.923	35.67
264.139	52.05
264.355	15.19
264.571	117.59
264.787	74.58
265.004	88.92
265.22	-38.06
265.436	62.29
265.652	39.76
265.868	58.2
266.084	72.53
266.3	62.29
266.516	37.72
266.732	99.16
266.948	37.72
267.164	84.82
267.38	150.36
267.596	41.81
267.812	4.95
268.028	76.63
268.244	31.57
268.46	31.57
268.676	52.05
268.892	88.92
269.108	15.19
269.324	-17.58
269.54	60.24
269.756	50
269.972	-48.3
270.188	39.76
270.403	23.38
270.619	-7.34
270.835	-5.29
271.051	17.24
271.267	-3.24
271.483	82.77
271.698	60.24
271.914	-13.48
272.13	-5.29
272.346	60.24
272.562	41.81
272.777	41.81
272.993	37.72
273.209	31.57
273.425	-1.19
273.64	-31.91
273.856	107.35
274.072	74.58
274.287	-36.01
274.503	68.44
274.719	27.48
274.934	72.53
275.15	72.53
275.366	21.33
275.581	54.1
275.797	13.14
276.012	2.9
276.228	82.77
276.444	39.76
276.659	72.53
276.875	21.33
277.09	-1.19
277.306	27.48
277.521	50
277.737	31.57
277.952	31.57
278.168	23.38
278.383	33.62
278.599	127.83
278.814	31.57
279.03	103.25
279.245	123.73
279.461	82.77
279.676	43.86
279.892	4.95
280.107	56.15
280.322	-60.59
280.538	9.05
280.753	31.57
280.969	17.24
281.184	82.77
281.399	33.62
281.615	97.11
281.83	107.35
282.045	21.33
282.26	17.24
282.476	-23.72
282.691	95.06
282.906	-48.3
283.122	43.86
283.337	27.48
283.552	115.54
283.767	58.2
283.983	138.07
284.198	35.67
284.413	41.81
284.628	-3.24
284.843	43.86
285.058	-21.67
285.274	52.05
285.489	93.01
285.704	11.09
285.919	19.29
286.134	-36.01
286.349	-5.29
286.564	54.1
286.779	97.11
286.995	15.19
287.21	-17.58
287.425	25.43
287.64	60.24
287.855	33.62
288.07	-25.77
288.285	9.05
288.5	72.53
288.715	113.49
288.93	43.86
289.145	31.57
289.36	64.34
289.575	29.52
289.79	95.06
290.004	31.57
290.219	0.85
290.434	37.72
290.649	133.97
290.864	50
291.079	7
291.294	33.62
291.509	-23.72
291.724	39.76
291.938	-79.02
292.153	2.9
292.368	76.63
292.583	37.72
292.798	54.1
293.012	129.88
293.227	29.52
293.442	60.24
293.657	52.05
293.871	70.48
294.086	80.72
294.301	113.49
294.516	62.29
294.73	17.24
294.945	-27.82
295.16	17.24
295.374	54.1
295.589	70.48
295.804	45.91
296.018	70.48
296.233	74.58
296.447	95.06
296.662	-21.67
296.877	56.15
297.091	11.09
297.306	50
297.52	56.15
297.735	37.72
297.949	78.68
298.164	56.15
298.378	29.52
298.593	33.62
298.807	0.85
299.022	72.53
299.236	72.53
299.451	64.34
299.665	150.36
299.88	68.44
300.094	47.96
300.309	50
300.523	78.68
300.737	66.39
300.952	29.52
301.166	93.01
301.381	113.49
301.595	45.91
301.809	17.24
302.024	11.09
302.238	21.33
302.452	136.02
302.667	90.96
302.881	109.4
303.095	2.9
303.309	74.58
303.524	37.72
303.738	56.15
303.952	-48.3
304.166	37.72
304.381	64.34
304.595	111.44
304.809	33.62
305.023	66.39
305.237	-11.43
305.452	56.15
305.666	125.78
305.88	90.96
306.094	86.87
306.308	-5.29
306.522	50
306.736	74.58
306.95	33.62
307.164	103.25
307.379	95.06
307.593	99.16
307.807	43.86
308.021	56.15
308.235	27.48
308.449	60.24
308.663	13.14
308.877	140.12
309.091	50
309.305	80.72
309.519	101.2
309.733	123.73
309.947	41.81
310.161	37.72
310.374	58.2
310.588	115.54
310.802	17.24
311.016	62.29
311.23	31.57
311.444	88.92
311.658	43.86
311.872	-7.34
312.085	78.68
312.299	50
312.513	68.44
312.727	50
312.941	4.95
313.154	66.39
313.368	72.53
313.582	56.15
313.796	45.91
314.009	66.39
314.223	25.43
314.437	45.91
314.651	58.2
314.864	107.35
315.078	17.24
315.292	11.09
315.505	29.52
315.719	117.59
315.933	80.72
316.146	39.76
316.36	21.33
316.573	88.92
316.787	13.14
317.001	21.33
317.214	47.96
317.428	84.82
317.641	54.1
317.855	45.91
318.068	56.15
318.282	37.72
318.495	-3.24
318.709	13.14
318.922	-1.19
319.136	50
319.349	13.14
319.563	43.86
319.776	50
319.99	-15.53
320.203	129.88
320.417	21.33
320.63	66.39
320.843	107.35
321.057	54.1
321.27	58.2
321.483	64.34
321.697	-7.34
321.91	93.01
322.124	33.62
322.337	86.87
322.55	62.29
322.763	15.19
322.977	78.68
323.19	9.05
323.403	148.31
323.617	-54.44
323.83	50
324.043	41.81
324.256	31.57
324.469	45.91
324.683	93.01
324.896	25.43
325.109	-11.43
325.322	68.44
325.535	43.86
325.748	31.57
325.962	72.53
326.175	105.3
326.388	9.05
326.601	35.67
326.814	144.21
327.027	-54.44
327.24	47.96
327.453	-13.48
327.666	115.54
327.879	107.35
328.092	84.82
328.305	21.33
328.518	43.86
328.731	84.82
328.944	45.91
329.157	76.63
329.37	95.06
329.583	47.96
329.796	66.39
330.009	15.19
330.222	50
330.435	105.3
330.648	84.82
330.861	93.01
331.073	52.05
331.286	76.63
331.499	66.39
331.712	25.43
331.925	-54.44
332.138	45.91
332.35	82.77
332.563	31.57
332.776	111.44
332.989	52.05
333.202	25.43
333.414	17.24
333.627	62.29
333.84	19.29
334.053	88.92
334.265	101.2
334.478	54.1
334.691	62.29
334.903	56.15
335.116	105.3
335.329	41.81
335.541	93.01
335.754	95.06
335.966	11.09
336.179	88.92
336.392	4.95
336.604	80.72
336.817	76.63
337.029	64.34
337.242	80.72
337.454	66.39
337.667	105.3
337.88	4.95
338.092	33.62
338.305	21.33
338.517	84.82
338.729	29.52
338.942	97.11
339.154	-13.48
339.367	17.24
339.579	70.48
339.792	17.24
340.004	35.67
340.217	78.68
340.429	50
340.641	52.05
340.854	56.15
341.066	62.29
341.278	123.73
341.491	84.82
341.703	82.77
341.915	-25.77
342.128	37.72
342.34	72.53
342.552	45.91
342.764	-21.67
342.977	9.05
343.189	37.72
343.401	50
343.613	25.43
343.826	33.62
344.038	35.67
344.25	138.07
344.462	84.82
344.674	82.77
344.886	-7.34
345.099	115.54
345.311	78.68
345.523	19.29
345.735	23.38
345.947	56.15
346.159	-29.87
346.371	50
346.583	74.58
346.795	90.96
347.007	60.24
347.219	74.58
347.431	39.76
347.643	21.33
347.855	86.87
348.067	47.96
348.279	2.9
348.491	45.91
348.703	129.88
348.915	33.62
349.127	4.95
349.339	-5.29
349.551	86.87
349.763	-15.53
349.975	25.43
350.187	68.44
350.399	93.01
350.61	68.44
350.822	72.53
351.034	109.4
351.246	72.53
351.458	52.05
351.669	72.53
351.881	60.24
352.093	119.64
352.305	45.91
352.517	84.82
352.728	80.72
352.94	35.67
353.152	58.2
353.363	-31.91
353.575	60.24
353.787	52.05
353.999	54.1
354.21	33.62
354.422	72.53
354.633	-17.58
354.845	25.43
355.057	121.68
355.268	93.01
355.48	35.67
355.692	35.67
355.903	29.52
356.115	-13.48
356.326	50
356.538	95.06
356.749	9.05
356.961	60.24
357.172	105.3
357.384	82.77
357.595	82.77
357.807	19.29
358.018	13.14
358.23	164.69
358.441	58.2
358.653	90.96
358.864	78.68
359.075	15.19
359.287	88.92
359.498	99.16
359.709	64.34
359.921	97.11
360.132	25.43
360.344	47.96
360.555	109.4
360.766	158.55
360.977	88.92
361.189	29.52
361.4	70.48
361.611	93.01
361.823	99.16
362.034	29.52
362.245	0.85
362.456	33.62
362.667	127.83
362.879	27.48
363.09	35.67
363.301	88.92
363.512	123.73
363.723	7
363.935	80.72
364.146	11.09
364.357	78.68
364.568	101.2
364.779	72.53
364.99	113.49
365.201	41.81
365.412	115.54
365.623	90.96
365.834	66.39
366.045	17.24
366.256	54.1
366.467	31.57
366.678	97.11
366.889	90.96
367.1	74.58
367.311	136.02
367.522	0.85
367.733	97.11
367.944	101.2
368.155	43.86
368.366	148.31
368.577	68.44
368.788	50
368.999	90.96
369.209	-15.53
369.42	78.68
369.631	121.68
369.842	13.14
370.053	33.62
370.264	74.58
370.474	88.92
370.685	23.38
370.896	45.91
371.107	52.05
371.317	84.82
371.528	54.1
371.739	156.5
371.95	64.34
372.16	52.05
372.371	31.57
372.582	62.29
372.792	17.24
373.003	88.92
373.214	133.97
373.424	47.96
373.635	-21.67
373.846	13.14
374.056	27.48
374.267	25.43
374.477	78.68
374.688	64.34
374.898	62.29
375.109	62.29
375.319	15.19
375.53	109.4
375.74	-17.58
375.951	56.15
376.161	64.34
376.372	19.29
376.582	23.38
376.793	142.16
377.003	66.39
377.214	74.58
377.424	56.15
377.635	82.77
377.845	54.1
378.055	72.53
378.266	144.21
378.476	93.01
378.686	78.68
378.897	62.29
379.107	86.87
379.317	70.48
379.528	78.68
379.738	101.2
379.948	7
380.158	90.96
380.369	84.82
380.579	74.58
380.789	19.29
380.999	95.06
381.21	131.92
381.42	181.07
381.63	58.2
381.84	93.01
382.05	76.63
382.261	160.59
382.471	127.83
382.681	47.96
382.891	82.77
383.101	17.24
383.311	78.68
383.521	68.44
383.731	152.4
383.941	29.52
384.151	119.64
384.361	101.2
384.571	80.72
384.781	138.07
384.991	97.11
385.201	68.44
385.411	80.72
385.621	101.2
385.831	129.88
386.041	47.96
386.251	68.44
386.461	136.02
386.671	54.1
386.881	95.06
387.091	60.24
387.301	66.39
387.511	58.2
387.72	64.34
387.93	52.05
388.14	-17.58
388.35	97.11
388.56	23.38
388.769	88.92
388.979	80.72
389.189	35.67
389.399	39.76
389.609	60.24
389.818	105.3
390.028	144.21
390.238	66.39
390.447	39.76
390.657	129.88
390.867	66.39
391.076	88.92
391.286	54.1
391.496	64.34
391.705	54.1
391.915	136.02
392.125	123.73
392.334	17.24
392.544	127.83
392.753	150.36
392.963	66.39
393.172	146.26
393.382	41.81
393.591	68.44
393.801	66.39
394.01	123.73
394.22	93.01
394.429	64.34
394.639	115.54
394.848	185.17
395.058	54.1
395.267	76.63
395.477	162.64
395.686	107.35
395.895	80.72
396.105	150.36
396.314	82.77
396.524	193.36
396.733	172.88
396.942	179.03
397.152	103.25
397.361	152.4
397.57	217.94
397.78	78.68
397.989	133.97
398.198	146.26
398.407	80.72
398.617	136.02
398.826	136.02
399.035	82.77
399.244	158.55
399.453	131.92
399.663	148.31
399.872	125.78
400.081	131.92
400.29	170.83
400.499	168.79
400.708	142.16
400.917	129.88
401.127	119.64
401.336	154.45
401.545	168.79
401.754	127.83
401.963	176.98
402.172	193.36
402.381	160.59
402.59	150.36
402.799	170.83
403.008	127.83
403.217	183.12
403.426	109.4
403.635	170.83
403.844	228.18
404.053	201.55
404.262	213.84
404.471	191.31
404.68	217.94
404.888	136.02
405.097	138.07
405.306	195.41
405.515	256.85
405.724	228.18
405.933	326.48
406.142	248.66
406.35	183.12
406.559	262.99
406.768	250.71
406.977	285.52
407.185	273.23
407.394	269.14
407.603	213.84
407.812	414.54
408.02	332.62
408.229	377.68
408.438	269.14
408.646	283.47
408.855	361.3
409.064	389.97
409.272	361.3
409.481	459.6
409.69	400.21
409.898	430.93
410.107	398.16
410.315	426.83
410.524	451.41
410.733	478.03
410.941	510.8
411.15	539.47
411.358	557.9
411.567	553.8
411.775	494.41
411.984	566.09
412.192	551.76
412.401	631.63
412.609	631.63
412.818	686.92
413.026	717.64
413.234	740.17
413.443	791.37
413.651	758.6
413.86	748.36
414.068	861
414.276	867.14
414.485	803.66
414.693	944.97
414.901	985.93
415.11	891.72
415.318	938.82
415.526	992.07
415.734	1078.08
415.943	1002.31
416.151	1121.09
416.359	1051.46
416.567	1145.67
416.776	1178.44
416.984	1377.09
417.192	1246.02
417.4	1358.66
417.608	1397.57
417.817	1356.61
418.025	1485.63
418.233	1520.45
418.441	1477.44
418.649	1751.87
418.857	1860.41
419.065	1755.96
419.273	1758.01
419.481	1907.51
419.689	1864.5
419.897	2001.72
420.105	2016.05
420.313	2095.93
420.521	2155.32
420.729	2442.03
420.937	2421.55
421.145	2507.57
421.353	2439.98
421.561	2626.35
421.769	2677.55
421.977	2818.86
422.185	2757.42
422.393	2966.31
422.601	3040.04
422.809	3134.25
423.017	3064.61
423.224	3119.91
423.432	3396.39
423.64	3431.2
423.848	3592.99
424.056	3724.06
424.263	3877.66
424.471	3996.44
424.679	4031.26
424.887	4174.61
425.094	4223.76
425.302	4434.71
425.51	4414.23
425.718	4623.12
425.925	4696.85
426.133	4903.69
426.341	5272.32
426.548	5391.11
426.756	5397.25
426.964	5495.55
427.171	5925.63
427.379	5892.86
427.586	6093.56
427.794	6187.77
428.001	6501.11
428.209	6710
428.417	6660.85
428.624	7138.02
428.832	7217.9
429.039	7090.92
429.247	7242.47
429.454	7881.44
429.662	8192.73
429.869	7826.14
430.076	8340.18
430.284	8190.68
430.491	8387.29
430.699	8997.58
430.906	8860.37
431.114	9114.31
431.321	9562.82
431.528	9601.73
431.736	10214.07
431.943	10549.94
432.15	10382.01
432.358	10351.29
432.565	11008.69
432.772	10887.86
432.979	11543.21
433.187	11821.73
433.394	11903.65
433.601	12731.03
433.808	12657.3
434.016	12608.15
434.223	13015.69
434.43	13795.97
434.637	13572.74
434.844	14469.75
435.052	14924.4
435.259	14617.21
435.466	14770.8
435.673	14750.32
435.88	15657.57
436.087	16263.77
436.294	16636.5
436.501	16144.99
436.708	16538.2
436.915	17136.21
437.122	17553.99
437.329	17689.16
437.537	18477.63
437.743	18663.99
437.95	18475.58
438.157	19509.8
438.364	19978.79
438.571	19958.31
438.778	20015.65
438.985	22004.23
439.192	21125.65
439.399	21914.12
439.606	21844.49
439.813	22659.58
440.02	23652.84
440.227	23454.19
440.433	23359.98
440.64	24199.65
440.847	23740.91
441.054	24635.87
441.261	26069.45
441.467	25852.36
441.674	26423.75
441.881	27406.77
442.088	27357.62
442.294	27265.46
442.501	27558.32
442.708	28445.09
442.914	29450.64
443.121	30669.19
443.328	29682.06
443.534	32311.66
443.741	31250.81
443.948	30775.68
444.154	32811.36
444.361	32676.19
444.568	32784.74
444.774	32743.78
444.981	33233.24
445.187	34396.49
445.394	35799.35
445.6	35133.76
445.807	38629.64
446.013	36708.65
446.22	37822.74
446.426	39104.77
446.633	39209.22
446.839	40560.87
447.046	39088.38
447.252	41212.13
447.459	41363.68
447.665	40980.71
447.871	43313.34
448.078	44601.52
448.284	42715.34
448.491	44079.28
448.697	45185.19
448.903	46047.38
449.11	46219.41
449.316	45521.05
449.522	46569.61
449.728	47708.29
449.935	47849.6
450.141	48232.57
450.347	49070.18
450.553	47595.65
450.76	47896.7
450.966	49571.94
451.172	48887.92
451.378	50301.01
451.584	49367.14
451.791	50661.46
451.997	50489.43
452.203	51327.05
452.409	51212.36
452.615	51314.76
452.821	49631.33
453.027	48613.49
453.233	51357.77
453.44	49234.02
453.646	49875.04
453.852	49954.91
454.058	51089.48
454.264	49391.72
454.47	50526.29
454.676	49049.7
454.882	50987.08
455.088	46846.09
455.294	47427.71
455.5	47609.98
455.705	48308.34
455.911	46672.01
456.117	45570.21
456.323	44939.43
456.529	42574.03
456.735	44529.84
456.941	43436.22
457.147	42746.06
457.352	41439.45
457.558	41232.61
457.764	41496.8
457.97	40204.53
458.176	39336.19
458.381	39803.13
458.587	37546.26
458.793	38074.64
458.999	35660.09
459.204	37984.53
459.41	37339.42
459.616	34871.62
459.821	34462.02
460.027	34748.74
460.233	33741.14
460.438	32264.55
460.644	32790.88
460.85	31011.2
461.055	30755.2
461.261	30773.63
461.466	28465.57
461.672	27533.75
461.878	29229.46
462.083	27511.22
462.289	27044.28
462.494	26683.84
462.7	25283.03
462.905	24725.98
463.111	25745.87
463.316	25891.27
463.522	25364.95
463.727	25332.18
463.932	25270.74
464.138	25201.11
464.343	24969.69
464.549	24312.29
464.754	25135.57
464.959	25211.35
465.165	24807.9
465.37	23851.5
465.575	23239.15
465.781	24287.71
465.986	24390.11
466.191	23206.39
466.397	22819.32
466.602	21641.74
466.807	22329.86
467.012	22512.13
467.218	22583.8
467.423	22020.61
467.628	22354.43
467.833	23333.36
