Data from USB4F104151__76__12-36-50-013.txt Node

Date: Fri Mar 14 12:36:50 EDT 2025
User: louis
Spectrometer: USB4F10415
Trigger mode: 4
Integration Time (sec): 2.000000E-2
Scans to average: 1
Electric dark correction enabled: true
Nonlinearity correction enabled: false
Boxcar width: 0
XAxis mode: Wavelengths
Number of Pixels in Spectrum: 3648
>>>>>Begin Spectral Data<<<<<
178.204	-32.94
178.424	-32.94
178.644	-32.94
178.864	-166.06
179.084	-98.47
179.304	28.5
179.524	-57.51
179.744	40.79
179.964	-49.32
180.184	14.17
180.404	3.93
180.624	16.21
180.844	69.46
181.064	-41.13
181.283	-41.13
181.503	-2.22
181.723	18.26
181.943	-43.18
182.163	98.13
182.383	-14.51
182.602	89.94
182.822	65.36
183.042	5.97
183.262	14.17
183.482	22.36
183.701	61.27
183.921	65.36
184.141	8.02
184.361	46.93
184.58	26.45
184.8	12.12
185.02	67.41
185.239	71.51
185.459	-43.18
185.679	-34.99
185.898	-16.55
186.118	28.5
186.338	26.45
186.557	12.12
186.777	-4.27
186.997	-20.65
187.216	36.69
187.436	32.6
187.655	34.64
187.875	126.8
188.095	3.93
188.314	106.32
188.534	81.75
188.753	59.22
188.973	-32.94
189.192	53.08
189.412	-2.22
189.631	-24.75
189.851	8.02
190.07	16.21
190.29	-51.37
190.509	-12.46
190.729	-63.66
190.948	59.22
191.168	132.95
191.387	-14.51
191.607	5.97
191.826	-18.6
192.045	-20.65
192.265	3.93
192.484	14.17
192.704	71.51
192.923	69.46
193.142	44.88
193.362	-39.08
193.581	38.74
193.8	38.74
194.02	-18.6
194.239	32.6
194.458	20.31
194.678	-39.08
194.897	32.6
195.116	18.26
195.335	12.12
195.555	-0.17
195.774	114.52
195.993	34.64
196.212	-22.7
196.432	-16.55
196.651	-26.79
196.87	-39.08
197.089	96.08
197.308	48.98
197.528	24.4
197.747	8.02
197.966	65.36
198.185	-45.23
198.404	-51.37
198.623	-47.27
198.842	102.23
199.062	-14.51
199.281	-32.94
199.5	53.08
199.719	16.21
199.938	94.04
200.157	91.99
200.376	-24.75
200.595	61.27
200.814	53.08
201.033	51.03
201.252	65.36
201.471	20.31
201.69	10.07
201.909	77.65
202.128	-12.46
202.347	48.98
202.566	71.51
202.785	-10.41
203.004	26.45
203.223	91.99
203.442	-20.65
203.661	12.12
203.879	22.36
204.098	30.55
204.317	-67.75
204.536	18.26
204.755	14.17
204.974	81.75
205.193	-2.22
205.411	42.84
205.63	-20.65
205.849	38.74
206.068	108.37
206.287	5.97
206.505	44.88
206.724	71.51
206.943	-57.51
207.162	-4.27
207.381	-16.55
207.599	-12.46
207.818	61.27
208.037	-14.51
208.255	75.6
208.474	51.03
208.693	42.84
208.911	14.17
209.13	18.26
209.349	77.65
209.567	59.22
209.786	79.7
210.005	5.97
210.223	-24.75
210.442	-45.23
210.661	48.98
210.879	51.03
211.098	46.93
211.316	26.45
211.535	-6.31
211.753	67.41
211.972	91.99
212.191	16.21
212.409	26.45
212.628	61.27
212.846	8.02
213.065	96.08
213.283	55.12
213.502	-39.08
213.72	-39.08
213.938	83.8
214.157	48.98
214.375	-2.22
214.594	34.64
214.812	51.03
215.031	114.52
215.249	-24.75
215.467	8.02
215.686	-12.46
215.904	81.75
216.122	12.12
216.341	40.79
216.559	5.97
216.778	139.09
216.996	16.21
217.214	42.84
217.432	46.93
217.651	8.02
217.869	20.31
218.087	-2.22
218.306	71.51
218.524	28.5
218.742	-4.27
218.96	51.03
219.179	-2.22
219.397	36.69
219.615	22.36
219.833	5.97
220.051	22.36
220.27	44.88
220.488	116.56
220.706	44.88
220.924	34.64
221.142	-2.22
221.36	-28.84
221.578	77.65
221.796	28.5
222.015	-43.18
222.233	-6.31
222.451	32.6
222.669	28.5
222.887	20.31
223.105	30.55
223.323	36.69
223.541	32.6
223.759	1.88
223.977	10.07
224.195	14.17
224.413	3.93
224.631	73.56
224.849	53.08
225.067	32.6
225.285	26.45
225.503	32.6
225.721	-41.13
225.939	3.93
226.157	-30.89
226.375	40.79
226.592	16.21
226.81	75.6
227.028	30.55
227.246	77.65
227.464	5.97
227.682	10.07
227.9	-0.17
228.117	48.98
228.335	1.88
228.553	-24.75
228.771	-0.17
228.989	40.79
229.206	40.79
229.424	-73.9
229.642	46.93
229.86	67.41
230.077	79.7
230.295	46.93
230.513	14.17
230.731	-16.55
230.948	14.17
231.166	94.04
231.384	53.08
231.601	-4.27
231.819	53.08
232.037	100.18
232.254	46.93
232.472	89.94
232.689	14.17
232.907	-8.36
233.125	22.36
233.342	-24.75
233.56	36.69
233.777	67.41
233.995	3.93
234.213	5.97
234.43	63.32
234.648	32.6
234.865	32.6
235.083	20.31
235.3	22.36
235.518	24.4
235.735	91.99
235.953	22.36
236.17	16.21
236.388	-32.94
236.605	1.88
236.822	53.08
237.04	34.64
237.257	96.08
237.475	-20.65
237.692	65.36
237.909	28.5
238.127	36.69
238.344	34.64
238.562	-14.51
238.779	12.12
238.996	89.94
239.214	81.75
239.431	94.04
239.648	22.36
239.865	16.21
240.083	85.84
240.3	8.02
240.517	8.02
240.735	44.88
240.952	-34.99
241.169	32.6
241.386	59.22
241.603	55.12
241.821	10.07
242.038	34.64
242.255	3.93
242.472	-34.99
242.689	24.4
242.907	69.46
243.124	104.28
243.341	34.64
243.558	14.17
243.775	44.88
243.992	20.31
244.209	81.75
244.426	81.75
244.643	-22.7
244.86	59.22
245.078	122.71
245.295	46.93
245.512	-2.22
245.729	53.08
245.946	48.98
246.163	42.84
246.38	79.7
246.597	-18.6
246.814	87.89
247.031	-55.47
247.248	12.12
247.464	1.88
247.681	61.27
247.898	-32.94
248.115	24.4
248.332	-2.22
248.549	89.94
248.766	81.75
248.983	-10.41
249.2	112.47
249.417	-26.79
249.633	75.6
249.85	85.84
250.067	-34.99
250.284	-26.79
250.501	-4.27
250.717	139.09
250.934	-63.66
251.151	-20.65
251.368	71.51
251.585	34.64
251.801	59.22
252.018	-10.41
252.235	83.8
252.451	12.12
252.668	24.4
252.885	38.74
253.102	61.27
253.318	94.04
253.535	63.32
253.752	91.99
253.968	-34.99
254.185	-32.94
254.401	55.12
254.618	14.17
254.835	-10.41
255.051	67.41
255.268	-8.36
255.484	-2.22
255.701	55.12
255.917	22.36
256.134	44.88
256.351	51.03
256.567	-28.84
256.784	38.74
257	-30.89
257.217	57.17
257.433	42.84
257.65	75.6
257.866	53.08
258.082	28.5
258.299	-8.36
258.515	71.51
258.732	81.75
258.948	34.64
259.165	-6.31
259.381	-8.36
259.597	14.17
259.814	42.84
260.03	3.93
260.246	104.28
260.463	51.03
260.679	135
260.895	59.22
261.112	-4.27
261.328	100.18
261.544	14.17
261.761	71.51
261.977	22.36
262.193	24.4
262.409	85.84
262.626	81.75
262.842	69.46
263.058	-20.65
263.274	108.37
263.49	42.84
263.707	59.22
263.923	5.97
264.139	28.5
264.355	59.22
264.571	69.46
264.787	10.07
265.004	-18.6
265.22	-0.17
265.436	38.74
265.652	40.79
265.868	57.17
266.084	30.55
266.3	63.32
266.516	-28.84
266.732	53.08
266.948	91.99
267.164	8.02
267.38	-12.46
267.596	85.84
267.812	44.88
268.028	8.02
268.244	14.17
268.46	55.12
268.676	26.45
268.892	48.98
269.108	-34.99
269.324	-30.89
269.54	51.03
269.756	22.36
269.972	-6.31
270.188	-8.36
270.403	-0.17
270.619	44.88
270.835	51.03
271.051	69.46
271.267	-37.03
271.483	44.88
271.698	67.41
271.914	-55.47
272.13	5.97
272.346	-0.17
272.562	-0.17
272.777	26.45
272.993	-37.03
273.209	-14.51
273.425	-4.27
273.64	42.84
273.856	63.32
274.072	18.26
274.287	-18.6
274.503	5.97
274.719	22.36
274.934	3.93
275.15	5.97
275.366	16.21
275.581	10.07
275.797	14.17
276.012	48.98
276.228	1.88
276.444	-18.6
276.659	34.64
276.875	59.22
277.09	77.65
277.306	-2.22
277.521	81.75
277.737	22.36
277.952	53.08
278.168	38.74
278.383	32.6
278.599	32.6
278.814	10.07
279.03	81.75
279.245	91.99
279.461	22.36
279.676	98.13
279.892	8.02
280.107	100.18
280.322	44.88
280.538	59.22
280.753	-14.51
280.969	18.26
281.184	32.6
281.399	94.04
281.615	5.97
281.83	-18.6
282.045	59.22
282.26	24.4
282.476	8.02
282.691	20.31
282.906	53.08
283.122	71.51
283.337	22.36
283.552	42.84
283.767	36.69
283.983	26.45
284.198	48.98
284.413	18.26
284.628	-34.99
284.843	36.69
285.058	65.36
285.274	40.79
285.489	30.55
285.704	81.75
285.919	-18.6
286.134	12.12
286.349	22.36
286.564	-8.36
286.779	59.22
286.995	40.79
287.21	57.17
287.425	53.08
287.64	38.74
287.855	-0.17
288.07	-6.31
288.285	44.88
288.5	48.98
288.715	69.46
288.93	-24.75
289.145	-59.56
289.36	5.97
289.575	26.45
289.79	20.31
290.004	48.98
290.219	65.36
290.434	26.45
290.649	38.74
290.864	-18.6
291.079	28.5
291.294	85.84
291.509	10.07
291.724	61.27
291.938	-39.08
292.153	55.12
292.368	108.37
292.583	-20.65
292.798	85.84
293.012	-8.36
293.227	51.03
293.442	8.02
293.657	32.6
293.871	122.71
294.086	20.31
294.301	75.6
294.516	85.84
294.73	100.18
294.945	38.74
295.16	24.4
295.374	81.75
295.589	81.75
295.804	57.17
296.018	132.95
296.233	18.26
296.447	40.79
296.662	16.21
296.877	-2.22
297.091	122.71
297.306	5.97
297.52	22.36
297.735	75.6
297.949	-10.41
298.164	28.5
298.378	48.98
298.593	-41.13
298.807	-18.6
299.022	67.41
299.236	28.5
299.451	5.97
299.665	18.26
299.88	-30.89
300.094	63.32
300.309	20.31
300.523	51.03
300.737	98.13
300.952	71.51
301.166	16.21
301.381	46.93
301.595	59.22
301.809	-30.89
302.024	94.04
302.238	65.36
302.452	89.94
302.667	8.02
302.881	73.56
303.095	34.64
303.309	-84.14
303.524	-18.6
303.738	28.5
303.952	53.08
304.166	98.13
304.381	10.07
304.595	114.52
304.809	46.93
305.023	46.93
305.237	-4.27
305.452	-2.22
305.666	55.12
305.88	85.84
306.094	36.69
306.308	44.88
306.522	46.93
306.736	20.31
306.95	83.8
307.164	34.64
307.379	147.28
307.593	96.08
307.807	51.03
308.021	63.32
308.235	61.27
308.449	20.31
308.663	57.17
308.877	91.99
309.091	-22.7
309.305	53.08
309.519	46.93
309.733	59.22
309.947	-2.22
310.161	32.6
310.374	-41.13
310.588	104.28
310.802	-47.27
311.016	-0.17
311.23	89.94
311.444	83.8
311.658	5.97
311.872	28.5
312.085	85.84
312.299	-34.99
312.513	55.12
312.727	73.56
312.941	61.27
313.154	18.26
313.368	-18.6
313.582	20.31
313.796	79.7
314.009	57.17
314.223	67.41
314.437	63.32
314.651	48.98
314.864	1.88
315.078	-14.51
315.292	5.97
315.505	36.69
315.719	89.94
315.933	69.46
316.146	112.47
316.36	-82.09
316.573	57.17
316.787	38.74
317.001	65.36
317.214	-71.85
317.428	-8.36
317.641	10.07
317.855	-18.6
318.068	-8.36
318.282	48.98
318.495	34.64
318.709	40.79
318.922	-2.22
319.136	67.41
319.349	34.64
319.563	118.61
319.776	20.31
319.99	24.4
320.203	67.41
320.417	30.55
320.63	85.84
320.843	87.89
321.057	20.31
321.27	14.17
321.483	26.45
321.697	65.36
321.91	57.17
322.124	-10.41
322.337	85.84
322.55	81.75
322.763	79.7
322.977	3.93
323.19	36.69
323.403	46.93
323.617	61.27
323.83	-20.65
324.043	10.07
324.256	87.89
324.469	-18.6
324.683	55.12
324.896	51.03
325.109	51.03
325.322	24.4
325.535	59.22
325.748	30.55
325.962	63.32
326.175	-6.31
326.388	67.41
326.601	61.27
326.814	69.46
327.027	104.28
327.24	69.46
327.453	8.02
327.666	108.37
327.879	94.04
328.092	48.98
328.305	59.22
328.518	98.13
328.731	-16.55
328.944	22.36
329.157	94.04
329.37	-63.66
329.583	46.93
329.796	98.13
330.009	44.88
330.222	104.28
330.435	65.36
330.648	30.55
330.861	18.26
331.073	75.6
331.286	69.46
331.499	-12.46
331.712	34.64
331.925	32.6
332.138	-10.41
332.35	83.8
332.563	69.46
332.776	16.21
332.989	-28.84
333.202	-34.99
333.414	124.76
333.627	28.5
333.84	16.21
334.053	48.98
334.265	77.65
334.478	28.5
334.691	28.5
334.903	51.03
335.116	55.12
335.329	8.02
335.541	-6.31
335.754	122.71
335.966	79.7
336.179	65.36
336.392	22.36
336.604	22.36
336.817	40.79
337.029	104.28
337.242	34.64
337.454	-0.17
337.667	48.98
337.88	71.51
338.092	-65.71
338.305	32.6
338.517	38.74
338.729	79.7
338.942	67.41
339.154	-61.61
339.367	5.97
339.579	12.12
339.792	30.55
340.004	63.32
340.217	42.84
340.429	83.8
340.641	51.03
340.854	69.46
341.066	-0.17
341.278	71.51
341.491	63.32
341.703	38.74
341.915	48.98
342.128	24.4
342.34	-24.75
342.552	65.36
342.764	73.56
342.977	-0.17
343.189	65.36
343.401	79.7
343.613	-14.51
343.826	8.02
344.038	46.93
344.25	55.12
344.462	57.17
344.674	36.69
344.886	65.36
345.099	112.47
345.311	77.65
345.523	-4.27
345.735	22.36
345.947	73.56
346.159	75.6
346.371	65.36
346.583	-12.46
346.795	94.04
347.007	-22.7
347.219	71.51
347.431	-18.6
347.643	79.7
347.855	12.12
348.067	63.32
348.279	22.36
348.491	26.45
348.703	77.65
348.915	44.88
349.127	-0.17
349.339	87.89
349.551	16.21
349.763	16.21
349.975	24.4
350.187	28.5
350.399	55.12
350.61	30.55
350.822	26.45
351.034	-6.31
351.246	51.03
351.458	53.08
351.669	51.03
351.881	53.08
352.093	-10.41
352.305	-0.17
352.517	57.17
352.728	89.94
352.94	57.17
353.152	73.56
353.363	53.08
353.575	120.66
353.787	55.12
353.999	-12.46
354.21	59.22
354.422	28.5
354.633	83.8
354.845	79.7
355.057	34.64
355.268	36.69
355.48	69.46
355.692	28.5
355.903	96.08
356.115	48.98
356.326	20.31
356.538	59.22
356.749	73.56
356.961	128.85
357.172	42.84
357.384	48.98
357.595	108.37
357.807	-22.7
358.018	85.84
358.23	57.17
358.441	79.7
358.653	65.36
358.864	46.93
359.075	57.17
359.287	53.08
359.498	51.03
359.709	87.89
359.921	-0.17
360.132	14.17
360.344	73.56
360.555	81.75
360.766	77.65
360.977	73.56
361.189	24.4
361.4	-10.41
361.611	89.94
361.823	51.03
362.034	59.22
362.245	102.23
362.456	-16.55
362.667	149.33
362.879	75.6
363.09	132.95
363.301	20.31
363.512	69.46
363.723	61.27
363.935	18.26
364.146	53.08
364.357	73.56
364.568	42.84
364.779	38.74
364.99	102.23
365.201	20.31
365.412	81.75
365.623	22.36
365.834	79.7
366.045	-34.99
366.256	71.51
366.467	63.32
366.678	81.75
366.889	85.84
367.1	20.31
367.311	55.12
367.522	-34.99
367.733	16.21
367.944	44.88
368.155	34.64
368.366	77.65
368.577	81.75
368.788	22.36
368.999	55.12
369.209	38.74
369.42	73.56
369.631	42.84
369.842	69.46
370.053	51.03
370.264	22.36
370.474	85.84
370.685	48.98
370.896	108.37
371.107	67.41
371.317	130.9
371.528	46.93
371.739	44.88
371.95	-26.79
372.16	-4.27
372.371	8.02
372.582	51.03
372.792	102.23
373.003	-6.31
373.214	137.04
373.424	104.28
373.635	57.17
373.846	143.19
374.056	100.18
374.267	-10.41
374.477	98.13
374.688	22.36
374.898	55.12
375.109	-4.27
375.319	38.74
375.53	57.17
375.74	55.12
375.951	81.75
376.161	10.07
376.372	126.8
376.582	46.93
376.793	46.93
377.003	81.75
377.214	75.6
377.424	55.12
377.635	38.74
377.845	48.98
378.055	108.37
378.266	46.93
378.476	38.74
378.686	89.94
378.897	53.08
379.107	55.12
379.317	89.94
379.528	67.41
379.738	83.8
379.948	12.12
380.158	48.98
380.369	77.65
380.579	96.08
380.789	8.02
380.999	108.37
381.21	34.64
381.42	108.37
381.63	28.5
381.84	126.8
382.05	20.31
382.261	1.88
382.471	102.23
382.681	44.88
382.891	71.51
383.101	89.94
383.311	69.46
383.521	104.28
383.731	85.84
383.941	114.52
384.151	87.89
384.361	30.55
384.571	102.23
384.781	63.32
384.991	89.94
385.201	118.61
385.411	126.8
385.621	73.56
385.831	55.12
386.041	-12.46
386.251	40.79
386.461	8.02
386.671	89.94
386.881	5.97
387.091	81.75
387.301	98.13
387.511	120.66
387.72	122.71
387.93	57.17
388.14	59.22
388.35	75.6
388.56	63.32
388.769	65.36
388.979	24.4
389.189	32.6
389.399	55.12
389.609	55.12
389.818	79.7
390.028	94.04
390.238	96.08
390.447	55.12
390.657	106.32
390.867	42.84
391.076	38.74
391.286	132.95
391.496	102.23
391.705	91.99
391.915	98.13
392.125	112.47
392.334	34.64
392.544	96.08
392.753	104.28
392.963	44.88
393.172	51.03
393.382	124.76
393.591	112.47
393.801	102.23
394.01	124.76
394.22	100.18
394.429	22.36
394.639	102.23
394.848	91.99
395.058	94.04
395.267	132.95
395.477	67.41
395.686	24.4
395.895	120.66
396.105	108.37
396.314	116.56
396.524	214.87
396.733	112.47
396.942	198.48
397.152	130.9
397.361	178
397.57	149.33
397.78	36.69
397.989	186.19
398.198	165.71
398.407	128.85
398.617	112.47
398.826	59.22
399.035	151.38
399.244	141.14
399.453	128.85
399.663	59.22
399.872	167.76
400.081	171.86
400.29	192.34
400.499	159.57
400.708	184.15
400.917	102.23
401.127	114.52
401.336	126.8
401.545	171.86
401.754	143.19
401.963	106.32
402.172	112.47
402.381	141.14
402.59	180.05
402.799	165.71
403.008	100.18
403.217	173.91
403.426	163.67
403.635	128.85
403.844	118.61
404.053	184.15
404.262	155.47
404.471	206.67
404.68	159.57
404.888	161.62
405.097	223.06
405.306	200.53
405.515	204.63
405.724	178
405.933	190.29
406.142	270.16
406.35	218.96
406.559	188.24
406.768	257.87
406.977	257.87
407.185	175.95
407.394	259.92
407.603	227.15
407.812	264.02
408.02	321.36
408.229	208.72
408.438	270.16
408.646	335.7
408.855	233.3
409.064	286.54
409.272	333.65
409.481	376.66
409.69	405.33
409.898	350.03
410.107	440.14
410.315	352.08
410.524	362.32
410.733	472.91
410.941	425.81
411.15	431.95
411.358	429.9
411.567	581.45
411.775	542.54
411.984	499.53
412.192	571.21
412.401	491.34
412.609	634.7
412.818	591.69
413.026	673.61
413.234	610.12
413.443	716.62
413.651	712.52
413.86	730.95
414.068	784.2
414.276	739.15
414.485	780.11
414.693	806.73
414.901	843.59
415.11	960.33
415.318	874.31
415.526	876.36
415.734	980.81
415.943	1023.81
416.151	1068.87
416.359	1007.43
416.567	1103.68
416.776	1144.64
416.984	1091.4
417.192	1240.9
417.4	1218.37
417.608	1294.15
417.817	1251.14
418.025	1343.3
418.233	1464.13
418.441	1451.84
418.649	1468.22
418.857	1603.39
419.065	1621.82
419.273	1519.42
419.481	1718.08
419.689	1867.58
419.897	1890.1
420.105	1943.35
420.313	1959.74
420.521	1947.45
420.729	2086.71
420.937	2094.9
421.145	2232.12
421.353	2250.55
421.561	2387.76
421.769	2453.3
421.977	2492.21
422.185	2545.45
422.393	2780.97
422.601	2797.35
422.809	2791.21
423.017	3016.49
423.224	2981.67
423.432	3170.08
423.64	3190.56
423.848	3434.27
424.056	3424.03
424.263	3538.72
424.471	3510.05
424.679	3567.39
424.887	3989.27
425.094	3956.5
425.302	4024.09
425.51	4095.77
425.718	4212.5
425.925	4298.52
426.133	4425.49
426.341	4714.25
426.548	4896.52
426.756	4878.09
426.964	4978.44
427.171	5246.73
427.379	5506.82
427.586	5541.63
427.794	5738.24
428.001	5977.85
428.209	6278.9
428.417	6217.46
428.624	6590.19
428.832	6491.89
429.039	6586.1
429.247	6477.55
429.454	7159.53
429.662	7550.69
429.869	7040.75
430.076	7745.25
430.284	7503.59
430.491	7878.37
430.699	8392.41
430.906	8333.01
431.114	8447.7
431.321	8685.26
431.528	8748.75
431.736	9461.44
431.943	9885.37
432.15	9438.92
432.358	9576.13
432.565	9893.57
432.772	10225.34
432.979	10571.44
433.187	11032.24
433.394	10849.97
433.601	11714.21
433.808	11724.45
434.016	11466.41
434.223	12142.24
434.43	12818.07
434.637	12560.02
434.844	13432.46
435.052	13788.8
435.259	13475.46
435.466	13567.62
435.673	13438.6
435.88	14272.12
436.087	15410.79
436.294	15257.2
436.501	14630.52
436.708	15310.44
436.915	15699.56
437.122	16422.49
437.329	16336.48
437.537	16651.86
437.743	17030.74
437.95	16879.19
438.157	17784.39
438.364	18304.57
438.571	18538.04
438.778	18398.78
438.985	19981.86
439.192	19553.83
439.399	19926.57
439.606	19705.38
439.813	20903.45
440.02	21894.66
440.227	21540.36
440.433	21335.57
440.64	22105.6
440.847	21605.9
441.054	22580.73
441.261	23838.19
441.467	23815.66
441.674	24186.34
441.881	24862.17
442.088	25075.16
442.294	24899.03
442.501	25384.4
442.708	26093
442.914	27028.92
443.121	28036.52
443.328	27139.51
443.534	29484.44
443.741	28294.57
443.948	28280.23
444.154	30182.79
444.361	29928.84
444.568	30340.49
444.774	30332.29
444.981	30657.92
445.187	31135.1
445.394	32441.7
445.6	32435.56
445.807	35452.22
446.013	33889.62
446.22	34592.07
446.426	35923.25
446.633	36091.18
446.839	37408.03
447.046	35665.21
447.252	37987.6
447.459	38229.26
447.665	37903.63
447.871	39568.63
448.078	41135.33
448.284	39353.6
448.491	40414.44
448.697	41780.44
448.903	42722.51
449.11	42742.99
449.316	42302.67
449.522	42618.06
449.728	44287.15
449.935	44043.45
450.141	44272.82
450.347	45409.44
450.553	44143.8
450.76	44557.49
450.966	45991.06
451.172	45515.93
451.378	46564.49
451.584	45485.22
451.791	46376.08
451.997	46869.64
452.203	47355.01
452.409	47506.56
452.615	47049.86
452.821	45442.21
453.027	45251.75
453.233	47772.8
453.44	45485.22
453.646	46212.24
453.852	46183.57
454.058	47340.67
454.264	45481.12
454.47	46206.1
454.676	45429.92
454.882	47387.78
455.088	42779.85
455.294	43664.57
455.5	44430.51
455.705	44872.87
455.911	43488.45
456.117	42144.98
456.323	41600.22
456.529	39251.2
456.735	41131.23
456.941	40146.16
457.147	39441.66
457.352	38317.32
457.558	37874.96
457.764	37981.46
457.97	37231.9
458.176	36562.22
458.381	36490.54
458.587	34745.67
458.793	34846.02
458.999	33215.83
459.204	35476.79
459.41	34612.55
459.616	32183.66
459.821	32030.06
460.027	32085.36
460.233	31057.28
460.438	30047.63
460.644	30231.94
460.85	28722.59
461.055	28329.38
461.261	28175.78
461.466	26539.46
461.672	25069.01
461.878	27215.29
462.083	25607.63
462.289	25028.06
462.494	24917.47
462.7	23408.11
462.905	22638.08
463.111	23825.9
463.316	23829.99
463.522	23344.63
463.727	23582.19
463.932	23367.15
464.138	23186.93
464.343	23172.6
464.549	22476.29
464.754	23180.79
464.959	23115.25
465.165	23004.66
465.37	22033.93
465.575	21460.49
465.781	22287.87
465.986	22437.37
466.191	21550.6
466.397	21145.11
466.602	20117.03
466.807	20948.5
467.012	20866.58
467.218	20735.51
