Data from USB4F104151__34__12-35-36-641.txt Node

Date: Fri Mar 14 12:35:36 EDT 2025
User: louis
Spectrometer: USB4F10415
Trigger mode: 4
Integration Time (sec): 2.000000E-2
Scans to average: 1
Electric dark correction enabled: true
Nonlinearity correction enabled: false
Boxcar width: 0
XAxis mode: Wavelengths
Number of Pixels in Spectrum: 3648
>>>>>Begin Spectral Data<<<<<
178.204	-87.04
178.424	-87.04
178.644	-87.04
178.864	-95.23
179.084	-107.52
179.304	-37.89
179.524	-7.17
179.744	27.65
179.964	-58.37
180.184	23.55
180.404	11.26
180.624	80.89
180.844	31.74
181.064	-64.51
181.283	-19.46
181.503	-25.6
181.723	37.89
181.943	19.46
182.163	33.79
182.383	80.89
182.602	72.7
182.822	80.89
183.042	62.46
183.262	-25.6
183.482	41.98
183.701	19.46
183.921	27.65
184.141	3.07
184.361	66.56
184.58	-19.46
184.8	19.46
185.02	41.98
185.239	107.52
185.459	15.36
185.679	21.5
185.898	21.5
186.118	-3.07
186.338	50.18
186.557	103.42
186.777	3.07
186.997	70.65
187.216	-1.02
187.436	27.65
187.655	37.89
187.875	41.98
188.095	56.32
188.314	89.09
188.534	93.18
188.753	-5.12
188.973	-23.55
189.192	41.98
189.412	56.32
189.631	91.13
189.851	23.55
190.07	56.32
190.29	-37.89
190.509	25.6
190.729	31.74
190.948	-13.31
191.168	132.09
191.387	93.18
191.607	46.08
191.826	-3.07
192.045	37.89
192.265	68.61
192.484	39.94
192.704	54.27
192.923	-33.79
193.142	31.74
193.362	54.27
193.581	76.8
193.8	97.28
194.02	41.98
194.239	91.13
194.458	17.41
194.678	50.18
194.897	5.12
195.116	11.26
195.335	76.8
195.555	41.98
195.774	62.46
195.993	11.26
196.212	-7.17
196.432	60.42
196.651	1.02
196.87	87.04
197.089	87.04
197.308	52.22
197.528	5.12
197.747	37.89
197.966	-1.02
198.185	109.57
198.404	105.47
198.623	25.6
198.842	33.79
199.062	68.61
199.281	39.94
199.5	7.17
199.719	80.89
199.938	41.98
200.157	115.71
200.376	89.09
200.595	66.56
200.814	54.27
201.033	-27.65
201.252	91.13
201.471	68.61
201.69	27.65
201.909	56.32
202.128	35.84
202.347	99.33
202.566	29.7
202.785	64.51
203.004	66.56
203.223	134.14
203.442	-11.26
203.661	-46.08
203.879	33.79
204.098	134.14
204.317	-7.17
204.536	-5.12
204.755	48.13
204.974	27.65
205.193	80.89
205.411	-44.03
205.63	52.22
205.849	52.22
206.068	5.12
206.287	13.31
206.505	33.79
206.724	31.74
206.943	-25.6
207.162	-29.7
207.381	44.03
207.599	60.42
207.818	-3.07
208.037	-3.07
208.255	37.89
208.474	35.84
208.693	46.08
208.911	54.27
209.13	54.27
209.349	56.32
209.567	64.51
209.786	76.8
210.005	31.74
210.223	82.94
210.442	56.32
210.661	101.37
210.879	84.99
211.098	31.74
211.316	-29.7
211.535	50.18
211.753	35.84
211.972	68.61
212.191	-33.79
212.409	29.7
212.628	91.13
212.846	7.17
213.065	52.22
213.283	123.9
213.502	17.41
213.72	46.08
213.938	7.17
214.157	50.18
214.375	72.7
214.594	7.17
214.812	91.13
215.031	11.26
215.249	-5.12
215.467	23.55
215.686	-15.36
215.904	78.85
216.122	68.61
216.341	54.27
216.559	23.55
216.778	35.84
216.996	3.07
217.214	46.08
217.432	64.51
217.651	35.84
217.869	52.22
218.087	-19.46
218.306	-33.79
218.524	72.7
218.742	17.41
218.96	21.5
219.179	87.04
219.397	13.31
219.615	60.42
219.833	11.26
220.051	17.41
220.27	29.7
220.488	62.46
220.706	56.32
220.924	-39.94
221.142	-48.13
221.36	39.94
221.578	72.7
221.796	50.18
222.015	9.22
222.233	48.13
222.451	-25.6
222.669	5.12
222.887	-7.17
223.105	33.79
223.323	-19.46
223.541	-9.22
223.759	27.65
223.977	80.89
224.195	101.37
224.413	99.33
224.631	78.85
224.849	-3.07
225.067	23.55
225.285	-99.33
225.503	109.57
225.721	11.26
225.939	70.65
226.157	66.56
226.375	154.62
226.592	-3.07
226.81	95.23
227.028	54.27
227.246	52.22
227.464	105.47
227.682	117.76
227.9	46.08
228.117	13.31
228.335	35.84
228.553	48.13
228.771	54.27
228.989	56.32
229.206	23.55
229.424	27.65
229.642	50.18
229.86	-25.6
230.077	37.89
230.295	74.75
230.513	64.51
230.731	91.13
230.948	74.75
231.166	82.94
231.384	119.81
231.601	60.42
231.819	99.33
232.037	105.47
232.254	29.7
232.472	33.79
232.689	103.42
232.907	89.09
233.125	13.31
233.342	25.6
233.56	13.31
233.777	-9.22
233.995	29.7
234.213	62.46
234.43	111.61
234.648	111.61
234.865	52.22
235.083	70.65
235.3	-5.12
235.518	95.23
235.735	48.13
235.953	97.28
236.17	41.98
236.388	21.5
236.605	74.75
236.822	107.52
237.04	84.99
237.257	41.98
237.475	66.56
237.692	9.22
237.909	95.23
238.127	68.61
238.344	130.05
238.562	82.94
238.779	33.79
238.996	-15.36
239.214	60.42
239.431	5.12
239.648	103.42
239.865	44.03
240.083	15.36
240.3	62.46
240.517	60.42
240.735	33.79
240.952	91.13
241.169	60.42
241.386	3.07
241.603	19.46
241.821	-46.08
242.038	58.37
242.255	19.46
242.472	54.27
242.689	44.03
242.907	27.65
243.124	41.98
243.341	15.36
243.558	39.94
243.775	21.5
243.992	-9.22
244.209	41.98
244.426	115.71
244.643	87.04
244.86	29.7
245.078	58.37
245.295	46.08
245.512	89.09
245.729	19.46
245.946	5.12
246.163	-9.22
246.38	39.94
246.597	-7.17
246.814	44.03
247.031	23.55
247.248	62.46
247.464	23.55
247.681	39.94
247.898	78.85
248.115	54.27
248.332	25.6
248.549	-21.5
248.766	84.99
248.983	33.79
249.2	37.89
249.417	46.08
249.633	7.17
249.85	68.61
250.067	84.99
250.284	78.85
250.501	3.07
250.717	11.26
250.934	44.03
251.151	3.07
251.368	35.84
251.585	70.65
251.801	3.07
252.018	50.18
252.235	89.09
252.451	62.46
252.668	19.46
252.885	119.81
253.102	44.03
253.318	-11.26
253.535	84.99
253.752	41.98
253.968	119.81
254.185	54.27
254.401	13.31
254.618	54.27
254.835	50.18
255.051	152.57
255.268	11.26
255.484	44.03
255.701	-23.55
255.917	99.33
256.134	93.18
256.351	50.18
256.567	93.18
256.784	109.57
257	-5.12
257.217	76.8
257.433	60.42
257.65	39.94
257.866	74.75
258.082	-11.26
258.299	31.74
258.515	132.09
258.732	113.66
258.948	-5.12
259.165	-3.07
259.381	62.46
259.597	54.27
259.814	87.04
260.03	17.41
260.246	138.24
260.463	60.42
260.679	107.52
260.895	44.03
261.112	52.22
261.328	84.99
261.544	44.03
261.761	54.27
261.977	64.51
262.193	33.79
262.409	15.36
262.626	76.8
262.842	50.18
263.058	-3.07
263.274	39.94
263.49	7.17
263.707	50.18
263.923	48.13
264.139	52.22
264.355	-68.61
264.571	130.05
264.787	82.94
265.004	105.47
265.22	72.7
265.436	66.56
265.652	101.37
265.868	5.12
266.084	15.36
266.3	91.13
266.516	37.89
266.732	35.84
266.948	37.89
267.164	64.51
267.38	78.85
267.596	70.65
267.812	68.61
268.028	-9.22
268.244	33.79
268.46	50.18
268.676	37.89
268.892	152.57
269.108	68.61
269.324	39.94
269.54	-13.31
269.756	121.85
269.972	64.51
270.188	7.17
270.403	66.56
270.619	76.8
270.835	48.13
271.051	46.08
271.267	60.42
271.483	7.17
271.698	46.08
271.914	115.71
272.13	62.46
272.346	64.51
272.562	46.08
272.777	31.74
272.993	80.89
273.209	-21.5
273.425	136.19
273.64	89.09
273.856	103.42
274.072	76.8
274.287	25.6
274.503	56.32
274.719	58.37
274.934	132.09
275.15	35.84
275.366	-33.79
275.581	17.41
275.797	33.79
276.012	138.24
276.228	46.08
276.444	-11.26
276.659	17.41
276.875	39.94
277.09	87.04
277.306	48.13
277.521	35.84
277.737	29.7
277.952	132.09
278.168	46.08
278.383	11.26
278.599	-19.46
278.814	-3.07
279.03	-11.26
279.245	93.18
279.461	87.04
279.676	37.89
279.892	72.7
280.107	21.5
280.322	103.42
280.538	80.89
280.753	17.41
280.969	35.84
281.184	41.98
281.399	23.55
281.615	64.51
281.83	52.22
282.045	33.79
282.26	64.51
282.476	103.42
282.691	48.13
282.906	-1.02
283.122	11.26
283.337	95.23
283.552	58.37
283.767	13.31
283.983	78.85
284.198	7.17
284.413	107.52
284.628	17.41
284.843	37.89
285.058	66.56
285.274	35.84
285.489	-29.7
285.704	82.94
285.919	19.46
286.134	76.8
286.349	3.07
286.564	39.94
286.779	37.89
286.995	132.09
287.21	68.61
287.425	58.37
287.64	60.42
287.855	78.85
288.07	21.5
288.285	46.08
288.5	35.84
288.715	15.36
288.93	39.94
289.145	35.84
289.36	15.36
289.575	64.51
289.79	46.08
290.004	-5.12
290.219	3.07
290.434	-50.18
290.649	-5.12
290.864	62.46
291.079	23.55
291.294	70.65
291.509	44.03
291.724	84.99
291.938	64.51
292.153	27.65
292.368	46.08
292.583	54.27
292.798	3.07
293.012	50.18
293.227	23.55
293.442	-9.22
293.657	37.89
293.871	48.13
294.086	52.22
294.301	93.18
294.516	84.99
294.73	64.51
294.945	1.02
295.16	19.46
295.374	113.66
295.589	101.37
295.804	76.8
296.018	5.12
296.233	93.18
296.447	136.19
296.662	5.12
296.877	68.61
297.091	89.09
297.306	31.74
297.52	3.07
297.735	46.08
297.949	56.32
298.164	-41.98
298.378	27.65
298.593	-33.79
298.807	-5.12
299.022	-25.6
299.236	3.07
299.451	5.12
299.665	-13.31
299.88	62.46
300.094	84.99
300.309	72.7
300.523	44.03
300.737	103.42
300.952	93.18
301.166	50.18
301.381	64.51
301.595	78.85
301.809	29.7
302.024	-1.02
302.238	41.98
302.452	46.08
302.667	1.02
302.881	140.29
303.095	-9.22
303.309	52.22
303.524	-31.74
303.738	52.22
303.952	60.42
304.166	99.33
304.381	9.22
304.595	80.89
304.809	-9.22
305.023	5.12
305.237	-1.02
305.452	64.51
305.666	80.89
305.88	48.13
306.094	54.27
306.308	82.94
306.522	35.84
306.736	70.65
306.95	13.31
307.164	91.13
307.379	11.26
307.593	134.14
307.807	123.9
308.021	48.13
308.235	95.23
308.449	70.65
308.663	80.89
308.877	121.85
309.091	82.94
309.305	78.85
309.519	5.12
309.733	91.13
309.947	-27.65
310.161	130.05
310.374	62.46
310.588	80.89
310.802	62.46
311.016	111.61
311.23	111.61
311.444	-48.13
311.658	52.22
311.872	13.31
312.085	76.8
312.299	35.84
312.513	87.04
312.727	121.85
312.941	27.65
313.154	107.52
313.368	117.76
313.582	82.94
313.796	5.12
314.009	50.18
314.223	46.08
314.437	101.37
314.651	1.02
314.864	64.51
315.078	60.42
315.292	138.24
315.505	109.57
315.719	76.8
315.933	113.66
316.146	97.28
316.36	84.99
316.573	25.6
316.787	11.26
317.001	80.89
317.214	95.23
317.428	107.52
317.641	11.26
317.855	91.13
318.068	39.94
318.282	56.32
318.495	84.99
318.709	105.47
318.922	64.51
319.136	64.51
319.349	107.52
319.563	35.84
319.776	52.22
319.99	11.26
320.203	91.13
320.417	5.12
320.63	50.18
320.843	19.46
321.057	52.22
321.27	72.7
321.483	107.52
321.697	78.85
321.91	97.28
322.124	37.89
322.337	89.09
322.55	-31.74
322.763	21.5
322.977	99.33
323.19	21.5
323.403	119.81
323.617	146.43
323.83	64.51
324.043	-9.22
324.256	103.42
324.469	19.46
324.683	74.75
324.896	-25.6
325.109	23.55
325.322	-27.65
325.535	93.18
325.748	89.09
325.962	97.28
326.175	123.9
326.388	23.55
326.601	97.28
326.814	62.46
327.027	87.04
327.24	105.47
327.453	21.5
327.666	64.51
327.879	99.33
328.092	27.65
328.305	5.12
328.518	70.65
328.731	15.36
328.944	74.75
329.157	31.74
329.37	-3.07
329.583	101.37
329.796	95.23
330.009	64.51
330.222	80.89
330.435	46.08
330.648	50.18
330.861	17.41
331.073	70.65
331.286	41.98
331.499	64.51
331.712	62.46
331.925	87.04
332.138	44.03
332.35	46.08
332.563	29.7
332.776	132.09
332.989	13.31
333.202	144.38
333.414	-56.32
333.627	48.13
333.84	78.85
334.053	80.89
334.265	89.09
334.478	46.08
334.691	58.37
334.903	-1.02
335.116	-19.46
335.329	80.89
335.541	19.46
335.754	21.5
335.966	50.18
336.179	44.03
336.392	107.52
336.604	97.28
336.817	68.61
337.029	87.04
337.242	13.31
337.454	136.19
337.667	62.46
337.88	103.42
338.092	35.84
338.305	160.77
338.517	15.36
338.729	107.52
338.942	-5.12
339.154	-19.46
339.367	78.85
339.579	11.26
339.792	64.51
340.004	54.27
340.217	46.08
340.429	5.12
340.641	142.33
340.854	70.65
341.066	72.7
341.278	111.61
341.491	80.89
341.703	44.03
341.915	17.41
342.128	101.37
342.34	74.75
342.552	-15.36
342.764	80.89
342.977	48.13
343.189	78.85
343.401	9.22
343.613	99.33
343.826	68.61
344.038	23.55
344.25	58.37
344.462	84.99
344.674	56.32
344.886	41.98
345.099	97.28
345.311	60.42
345.523	15.36
345.735	107.52
345.947	48.13
346.159	62.46
346.371	117.76
346.583	93.18
346.795	121.85
347.007	31.74
347.219	78.85
347.431	-29.7
347.643	54.27
347.855	7.17
348.067	144.38
348.279	7.17
348.491	33.79
348.703	68.61
348.915	21.5
349.127	21.5
349.339	80.89
349.551	15.36
349.763	95.23
349.975	46.08
350.187	111.61
350.399	31.74
350.61	50.18
350.822	48.13
351.034	72.7
351.246	136.19
351.458	119.81
351.669	101.37
351.881	87.04
352.093	39.94
352.305	89.09
352.517	113.66
352.728	91.13
352.94	80.89
353.152	111.61
353.363	27.65
353.575	78.85
353.787	60.42
353.999	99.33
354.21	154.62
354.422	89.09
354.633	76.8
354.845	95.23
355.057	-41.98
355.268	82.94
355.48	144.38
355.692	44.03
355.903	82.94
356.115	117.76
356.326	5.12
356.538	-7.17
356.749	82.94
356.961	64.51
357.172	-41.98
357.384	68.61
357.595	50.18
357.807	33.79
358.018	27.65
358.23	35.84
358.441	93.18
358.653	97.28
358.864	48.13
359.075	132.09
359.287	87.04
359.498	80.89
359.709	91.13
359.921	87.04
360.132	68.61
360.344	52.22
360.555	64.51
360.766	25.6
360.977	101.37
361.189	1.02
361.4	113.66
361.611	103.42
361.823	70.65
362.034	87.04
362.245	44.03
362.456	37.89
362.667	17.41
362.879	37.89
363.09	82.94
363.301	111.61
363.512	103.42
363.723	25.6
363.935	48.13
364.146	87.04
364.357	33.79
364.568	115.71
364.779	-56.32
364.99	82.94
365.201	72.7
365.412	105.47
365.623	29.7
365.834	37.89
366.045	130.05
366.256	72.7
366.467	-7.17
366.678	78.85
366.889	74.75
367.1	23.55
367.311	52.22
367.522	-13.31
367.733	115.71
367.944	109.57
368.155	95.23
368.366	64.51
368.577	130.05
368.788	103.42
368.999	-23.55
369.209	70.65
369.42	113.66
369.631	125.95
369.842	115.71
370.053	31.74
370.264	66.56
370.474	46.08
370.685	11.26
370.896	31.74
371.107	78.85
371.317	46.08
371.528	35.84
371.739	56.32
371.95	76.8
372.16	91.13
372.371	117.76
372.582	101.37
372.792	152.57
373.003	97.28
373.214	87.04
373.424	105.47
373.635	37.89
373.846	142.33
374.056	41.98
374.267	35.84
374.477	101.37
374.688	66.56
374.898	84.99
375.109	78.85
375.319	52.22
375.53	13.31
375.74	80.89
375.951	64.51
376.161	103.42
376.372	117.76
376.582	33.79
376.793	95.23
377.003	68.61
377.214	93.18
377.424	89.09
377.635	46.08
377.845	115.71
378.055	93.18
378.266	76.8
378.476	148.48
378.686	56.32
378.897	76.8
379.107	105.47
379.317	84.99
379.528	70.65
379.738	111.61
379.948	25.6
380.158	58.37
380.369	121.85
380.579	35.84
380.789	-25.6
380.999	56.32
381.21	84.99
381.42	113.66
381.63	44.03
381.84	109.57
382.05	78.85
382.261	95.23
382.471	39.94
382.681	62.46
382.891	125.95
383.101	66.56
383.311	50.18
383.521	48.13
383.731	150.53
383.941	93.18
384.151	48.13
384.361	148.48
384.571	41.98
384.781	35.84
384.991	166.91
385.201	140.29
385.411	97.28
385.621	99.33
385.831	66.56
386.041	33.79
386.251	37.89
386.461	97.28
386.671	64.51
386.881	136.19
387.091	138.24
387.301	146.43
387.511	91.13
387.72	95.23
387.93	99.33
388.14	66.56
388.35	128
388.56	103.42
388.769	80.89
388.979	54.27
389.189	35.84
389.399	74.75
389.609	140.29
389.818	95.23
390.028	35.84
390.238	70.65
390.447	19.46
390.657	95.23
390.867	109.57
391.076	105.47
391.286	74.75
391.496	121.85
391.705	66.56
391.915	82.94
392.125	93.18
392.334	70.65
392.544	64.51
392.753	160.77
392.963	82.94
393.172	123.9
393.382	78.85
393.591	134.14
393.801	115.71
394.01	113.66
394.22	84.99
394.429	134.14
394.639	56.32
394.848	152.57
395.058	46.08
395.267	95.23
395.477	181.25
395.686	148.48
395.895	162.81
396.105	97.28
396.314	123.9
396.524	82.94
396.733	144.38
396.942	226.3
397.152	62.46
397.361	109.57
397.57	93.18
397.78	117.76
397.989	105.47
398.198	166.91
398.407	123.9
398.617	103.42
398.826	115.71
399.035	154.62
399.244	181.25
399.453	152.57
399.663	132.09
399.872	99.33
400.081	99.33
400.29	193.53
400.499	70.65
400.708	189.44
400.917	105.47
401.127	193.53
401.336	128
401.545	263.16
401.754	125.95
401.963	193.53
402.172	168.96
402.381	134.14
402.59	164.86
402.799	144.38
403.008	173.05
403.217	146.43
403.426	123.9
403.635	132.09
403.844	164.86
404.053	183.29
404.262	201.72
404.471	201.72
404.68	220.16
404.888	175.1
405.097	179.2
405.306	257.02
405.515	179.2
405.724	197.63
405.933	220.16
406.142	224.25
406.35	244.73
406.559	250.88
406.768	275.45
406.977	332.79
407.185	287.74
407.394	330.75
407.603	211.96
407.812	259.07
408.02	281.6
408.229	254.97
408.438	318.46
408.646	373.75
408.855	316.41
409.064	363.51
409.272	396.28
409.481	318.46
409.69	394.23
409.898	427
410.107	457.72
410.315	431.1
410.524	525.3
410.733	480.25
410.941	533.5
411.15	492.54
411.358	486.39
411.567	521.21
411.775	521.21
411.984	529.4
412.192	562.17
412.401	547.83
412.609	613.37
412.818	639.99
413.026	609.27
413.234	740.34
413.443	678.9
413.651	732.15
413.86	809.97
414.068	824.31
414.276	906.23
414.485	850.93
414.693	809.97
414.901	1010.67
415.11	932.85
415.318	938.99
415.526	834.55
415.734	1020.91
415.943	1055.73
416.151	1082.35
416.359	1137.65
416.567	1215.47
416.776	1190.89
416.984	1254.38
417.192	1375.21
417.4	1291.24
417.608	1367.02
417.817	1475.56
418.025	1450.99
418.233	1616.87
418.441	1604.58
418.649	1489.9
418.857	1584.1
419.065	1786.85
419.273	1723.37
419.481	1895.4
419.689	1969.12
419.897	1952.74
420.105	2100.19
420.313	2069.47
420.521	2085.86
420.729	2182.11
420.937	2204.64
421.145	2388.96
421.353	2343.9
421.561	2587.61
421.769	2726.87
421.977	2833.36
422.185	2714.58
422.393	3001.3
422.601	3036.11
422.809	3034.07
423.017	3146.7
423.224	3099.6
423.432	3214.29
423.64	3294.16
423.848	3693.51
424.056	3720.14
424.263	3777.48
424.471	3951.56
424.679	3867.59
424.887	4160.45
425.094	4174.78
425.302	4277.18
425.51	4481.98
425.718	4604.86
425.925	4539.32
426.133	4842.42
426.341	4918.2
426.548	5219.25
426.756	5239.73
426.964	5305.26
427.171	5757.86
427.379	5964.71
427.586	5764.01
427.794	6083.49
428.001	6157.22
428.209	6624.15
428.417	6478.75
428.624	6931.35
428.832	6976.41
429.039	6874.01
429.247	6861.72
429.454	7635.85
429.662	8092.55
429.869	7527.31
430.076	8201.09
430.284	7723.91
430.491	8258.43
430.699	8696.7
430.906	8559.49
431.114	8633.21
431.321	9016.18
431.528	9171.83
431.736	9800.55
431.943	10201.96
432.15	10001.26
432.358	10269.54
432.565	10572.64
432.772	10517.34
432.979	11268.95
433.187	11213.65
433.394	11443.03
433.601	12053.32
433.808	12270.4
434.016	12251.97
434.223	12684.09
434.43	13560.63
434.637	13069.11
434.844	13964.07
435.052	14414.63
435.259	14054.19
435.466	14320.42
435.673	14119.72
435.88	15018.78
436.087	15792.91
436.294	15774.48
436.501	15483.67
436.708	15846.16
436.915	16345.86
437.122	17033.98
437.329	17074.94
437.537	17599.22
437.743	17718
437.95	17672.95
438.157	18682.59
438.364	19090.14
438.571	19051.23
438.778	19194.59
438.985	20947.65
439.192	20206.28
439.399	20816.58
439.606	19899.09
439.813	21332.67
440.02	22495.91
440.227	22459.05
440.433	22137.52
440.64	22799.01
440.847	22821.54
441.054	23306.91
441.261	24906.37
441.467	24345.23
441.674	25264.77
441.881	25686.65
442.088	25805.43
442.294	25522.81
442.501	26159.73
442.708	26806.89
442.914	27910.74
443.121	28797.51
443.328	28353.1
443.534	30214.71
443.741	29080.13
443.948	28897.86
444.154	31300.13
444.361	30968.36
444.568	30775.85
444.774	31240.74
444.981	31380
445.187	32401.94
445.394	33690.11
445.6	33272.32
445.807	36714.96
446.013	35324.39
446.22	35887.58
446.426	36958.67
446.633	37411.27
446.839	38797.74
447.046	36884.94
447.252	39385.51
447.459	38984.11
447.665	38621.62
447.871	40911.25
448.078	42201.47
448.284	40343.96
448.491	41712
448.697	43110.77
448.903	44065.12
449.11	43776.36
449.316	42811.76
449.522	43966.82
449.728	45171.02
449.935	45265.23
450.141	45150.54
450.347	46367.04
450.553	45654.34
450.76	45560.14
450.966	47210.8
451.172	46745.91
451.378	47350.06
451.584	46754.1
451.791	47728.94
451.997	47884.58
452.203	48986.39
452.409	48470.3
452.615	47980.84
452.821	46379.32
453.027	46223.68
453.233	48642.33
453.44	46539.07
453.646	47438.12
453.852	47296.81
454.058	48208.16
454.264	46666.04
454.47	47868.2
454.676	46776.63
454.882	47976.74
455.088	44034.4
455.294	44466.52
455.5	45398.35
455.705	45887.81
455.911	43858.27
456.117	42969.46
456.323	42572.15
456.529	40862.1
456.735	42596.73
456.941	41273.74
457.147	40173.98
457.352	39100.84
457.558	38871.47
457.764	38721.97
457.97	38040
458.176	37276.1
458.381	37360.07
458.587	35844.57
458.793	35799.52
458.999	33780.22
459.204	36338.13
459.41	35078.63
459.616	32846.35
459.821	33276.42
460.027	32627.21
460.233	31896.09
460.438	30822.95
460.644	31009.32
460.85	29225.54
461.055	29041.22
461.261	29100.61
461.466	26897
461.672	25836.15
461.878	27734.62
462.083	25739.9
462.289	25737.85
462.494	25426.56
462.7	23952.02
462.905	23616.15
463.111	24306.32
463.316	24357.52
463.522	23689.88
463.727	23956.11
463.932	23648.92
464.138	23554.71
464.343	23878.29
464.549	22911.65
464.754	23583.38
464.959	23333.53
465.165	23249.57
465.37	22303.4
465.575	21744.31
465.781	22327.98
465.986	22430.38
466.191	21887.67
466.397	21332.67
466.602	20476.62
