Data from USB4F104151__45__12-35-56-539.txt Node

Date: Fri Mar 14 12:35:56 EDT 2025
User: louis
Spectrometer: USB4F10415
Trigger mode: 4
Integration Time (sec): 2.000000E-2
Scans to average: 1
Electric dark correction enabled: true
Nonlinearity correction enabled: false
Boxcar width: 0
XAxis mode: Wavelengths
Number of Pixels in Spectrum: 3648
>>>>>Begin Spectral Data<<<<<
178.204	-48.3
178.424	-48.3
178.644	-48.3
178.864	-81.07
179.084	-17.58
179.304	29.52
179.524	-5.29
179.744	-54.44
179.964	33.62
180.184	70.48
180.404	-13.48
180.624	-1.19
180.844	-56.49
181.064	-74.92
181.283	-25.77
181.503	45.91
181.723	52.05
181.943	-17.58
182.163	-11.43
182.383	17.24
182.602	7
182.822	15.19
183.042	72.53
183.262	-5.29
183.482	43.86
183.701	23.38
183.921	50
184.141	0.85
184.361	80.72
184.58	35.67
184.8	11.09
185.02	47.96
185.239	-66.73
185.459	-23.72
185.679	0.85
185.898	9.05
186.118	72.53
186.338	-11.43
186.557	74.58
186.777	2.9
186.997	50
187.216	125.78
187.436	45.91
187.655	88.92
187.875	64.34
188.095	33.62
188.314	33.62
188.534	62.29
188.753	-1.19
188.973	11.09
189.192	33.62
189.412	25.43
189.631	95.06
189.851	37.72
190.07	93.01
190.29	-19.63
190.509	54.1
190.729	-17.58
190.948	25.43
191.168	101.2
191.387	90.96
191.607	52.05
191.826	62.29
192.045	58.2
192.265	27.48
192.484	-5.29
192.704	7
192.923	64.34
193.142	80.72
193.362	-25.77
193.581	31.57
193.8	56.15
194.02	90.96
194.239	13.14
194.458	-1.19
194.678	123.73
194.897	58.2
195.116	-44.2
195.335	17.24
195.555	-23.72
195.774	101.2
195.993	47.96
196.212	78.68
196.432	17.24
196.651	33.62
196.87	52.05
197.089	68.44
197.308	45.91
197.528	43.86
197.747	2.9
197.966	66.39
198.185	86.87
198.404	76.63
198.623	25.43
198.842	97.11
199.062	43.86
199.281	13.14
199.5	41.81
199.719	11.09
199.938	68.44
200.157	56.15
200.376	4.95
200.595	76.63
200.814	-60.59
201.033	-13.48
201.252	50
201.471	-15.53
201.69	54.1
201.909	-17.58
202.128	35.67
202.347	56.15
202.566	27.48
202.785	0.85
203.004	21.33
203.223	117.59
203.442	19.29
203.661	99.16
203.879	-3.24
204.098	74.58
204.317	-19.63
204.536	27.48
204.755	-40.11
204.974	33.62
205.193	-29.87
205.411	144.21
205.63	97.11
205.849	-21.67
206.068	0.85
206.287	39.76
206.505	62.29
206.724	43.86
206.943	39.76
207.162	80.72
207.381	68.44
207.599	25.43
207.818	23.38
208.037	11.09
208.255	27.48
208.474	88.92
208.693	58.2
208.911	76.63
209.13	43.86
209.349	37.72
209.567	-15.53
209.786	52.05
210.005	27.48
210.223	31.57
210.442	-13.48
210.661	-27.82
210.879	-5.29
211.098	78.68
211.316	17.24
211.535	-42.15
211.753	-19.63
211.972	56.15
212.191	41.81
212.409	13.14
212.628	74.58
212.846	-7.34
213.065	11.09
213.283	117.59
213.502	86.87
213.72	31.57
213.938	27.48
214.157	17.24
214.375	103.25
214.594	9.05
214.812	-33.96
215.031	-1.19
215.249	27.48
215.467	37.72
215.686	35.67
215.904	78.68
216.122	45.91
216.341	78.68
216.559	41.81
216.778	58.2
216.996	62.29
217.214	39.76
217.432	-5.29
217.651	7
217.869	-1.19
218.087	13.14
218.306	123.73
218.524	-25.77
218.742	82.77
218.96	7
219.179	64.34
219.397	52.05
219.615	70.48
219.833	-9.39
220.051	37.72
220.27	29.52
220.488	60.24
220.706	121.68
220.924	70.48
221.142	97.11
221.36	45.91
221.578	66.39
221.796	11.09
222.015	54.1
222.233	113.49
222.451	131.92
222.669	-13.48
222.887	47.96
223.105	-27.82
223.323	29.52
223.541	15.19
223.759	-21.67
223.977	25.43
224.195	88.92
224.413	37.72
224.631	88.92
224.849	21.33
225.067	54.1
225.285	47.96
225.503	50
225.721	-7.34
225.939	33.62
226.157	25.43
226.375	66.39
226.592	-15.53
226.81	66.39
227.028	56.15
227.246	37.72
227.464	-56.49
227.682	27.48
227.9	13.14
228.117	56.15
228.335	41.81
228.553	21.33
228.771	-33.96
228.989	56.15
229.206	93.01
229.424	13.14
229.642	31.57
229.86	-85.16
230.077	29.52
230.295	17.24
230.513	-1.19
230.731	60.24
230.948	90.96
231.166	17.24
231.384	-13.48
231.601	60.24
231.819	45.91
232.037	-21.67
232.254	-19.63
232.472	82.77
232.689	-13.48
232.907	95.06
233.125	31.57
233.342	-19.63
233.56	31.57
233.777	70.48
233.995	35.67
234.213	105.3
234.43	62.29
234.648	41.81
234.865	-5.29
235.083	109.4
235.3	11.09
235.518	80.72
235.735	37.72
235.953	-11.43
236.17	52.05
236.388	60.24
236.605	21.33
236.822	37.72
237.04	31.57
237.257	33.62
237.475	-17.58
237.692	43.86
237.909	-17.58
238.127	29.52
238.344	47.96
238.562	-13.48
238.779	-36.01
238.996	11.09
239.214	2.9
239.431	82.77
239.648	39.76
239.865	45.91
240.083	47.96
240.3	-36.01
240.517	9.05
240.735	-1.19
240.952	72.53
241.169	78.68
241.386	-13.48
241.603	39.76
241.821	43.86
242.038	39.76
242.255	72.53
242.472	15.19
242.689	45.91
242.907	25.43
243.124	45.91
243.341	11.09
243.558	15.19
243.775	21.33
243.992	56.15
244.209	88.92
244.426	56.15
244.643	76.63
244.86	4.95
245.078	-23.72
245.295	2.9
245.512	21.33
245.729	-5.29
245.946	86.87
246.163	37.72
246.38	7
246.597	54.1
246.814	17.24
247.031	86.87
247.248	33.62
247.464	43.86
247.681	68.44
247.898	25.43
248.115	19.29
248.332	35.67
248.549	54.1
248.766	58.2
248.983	62.29
249.2	11.09
249.417	121.68
249.633	43.86
249.85	90.96
250.067	-17.58
250.284	31.57
250.501	11.09
250.717	31.57
250.934	45.91
251.151	31.57
251.368	45.91
251.585	50
251.801	62.29
252.018	35.67
252.235	115.54
252.451	13.14
252.668	60.24
252.885	58.2
253.102	78.68
253.318	41.81
253.535	74.58
253.752	90.96
253.968	56.15
254.185	-33.96
254.401	68.44
254.618	9.05
254.835	-21.67
255.051	25.43
255.268	64.34
255.484	15.19
255.701	33.62
255.917	95.06
256.134	-31.91
256.351	88.92
256.567	0.85
256.784	47.96
257	35.67
257.217	43.86
257.433	86.87
257.65	66.39
257.866	54.1
258.082	29.52
258.299	0.85
258.515	64.34
258.732	-7.34
258.948	105.3
259.165	-38.06
259.381	64.34
259.597	0.85
259.814	19.29
260.03	43.86
260.246	45.91
260.463	-5.29
260.679	15.19
260.895	11.09
261.112	45.91
261.328	15.19
261.544	23.38
261.761	103.25
261.977	27.48
262.193	2.9
262.409	58.2
262.626	33.62
262.842	37.72
263.058	72.53
263.274	111.44
263.49	52.05
263.707	95.06
263.923	-3.24
264.139	2.9
264.355	29.52
264.571	72.53
264.787	56.15
265.004	123.73
265.22	-36.01
265.436	-19.63
265.652	60.24
265.868	19.29
266.084	31.57
266.3	9.05
266.516	31.57
266.732	43.86
266.948	17.24
267.164	33.62
267.38	78.68
267.596	72.53
267.812	50
268.028	105.3
268.244	19.29
268.46	68.44
268.676	31.57
268.892	31.57
269.108	62.29
269.324	37.72
269.54	72.53
269.756	50
269.972	60.24
270.188	105.3
270.403	-27.82
270.619	11.09
270.835	45.91
271.051	41.81
271.267	60.24
271.483	23.38
271.698	33.62
271.914	68.44
272.13	-3.24
272.346	56.15
272.562	50
272.777	105.3
272.993	4.95
273.209	21.33
273.425	13.14
273.64	52.05
273.856	-56.49
274.072	66.39
274.287	35.67
274.503	131.92
274.719	-11.43
274.934	0.85
275.15	-31.91
275.366	-3.24
275.581	-3.24
275.797	105.3
276.012	52.05
276.228	62.29
276.444	-31.91
276.659	138.07
276.875	19.29
277.09	58.2
277.306	47.96
277.521	39.76
277.737	60.24
277.952	119.64
278.168	21.33
278.383	74.58
278.599	25.43
278.814	50
279.03	4.95
279.245	76.63
279.461	2.9
279.676	35.67
279.892	-31.91
280.107	54.1
280.322	70.48
280.538	82.77
280.753	86.87
280.969	90.96
281.184	-19.63
281.399	68.44
281.615	33.62
281.83	66.39
282.045	39.76
282.26	31.57
282.476	27.48
282.691	-29.87
282.906	80.72
283.122	95.06
283.337	-40.11
283.552	-33.96
283.767	-23.72
283.983	33.62
284.198	60.24
284.413	0.85
284.628	58.2
284.843	86.87
285.058	21.33
285.274	111.44
285.489	-17.58
285.704	11.09
285.919	31.57
286.134	23.38
286.349	25.43
286.564	43.86
286.779	70.48
286.995	-25.77
287.21	-1.19
287.425	31.57
287.64	31.57
287.855	72.53
288.07	70.48
288.285	60.24
288.5	15.19
288.715	52.05
288.93	-48.3
289.145	13.14
289.36	15.19
289.575	31.57
289.79	-27.82
290.004	66.39
290.219	115.54
290.434	115.54
290.649	33.62
290.864	9.05
291.079	15.19
291.294	43.86
291.509	41.81
291.724	25.43
291.938	17.24
292.153	72.53
292.368	25.43
292.583	70.48
292.798	23.38
293.012	43.86
293.227	35.67
293.442	19.29
293.657	50
293.871	95.06
294.086	39.76
294.301	54.1
294.516	72.53
294.73	29.52
294.945	21.33
295.16	0.85
295.374	76.63
295.589	29.52
295.804	56.15
296.018	45.91
296.233	121.68
296.447	-42.15
296.662	-60.59
296.877	60.24
297.091	47.96
297.306	105.3
297.52	62.29
297.735	29.52
297.949	45.91
298.164	82.77
298.378	45.91
298.593	4.95
298.807	-40.11
299.022	78.68
299.236	43.86
299.451	39.76
299.665	58.2
299.88	74.58
300.094	62.29
300.309	47.96
300.523	-15.53
300.737	58.2
300.952	19.29
301.166	37.72
301.381	74.58
301.595	17.24
301.809	39.76
302.024	47.96
302.238	-17.58
302.452	101.2
302.667	105.3
302.881	62.29
303.095	-25.77
303.309	54.1
303.524	-5.29
303.738	99.16
303.952	-33.96
304.166	11.09
304.381	50
304.595	60.24
304.809	45.91
305.023	41.81
305.237	21.33
305.452	56.15
305.666	31.57
305.88	43.86
306.094	84.82
306.308	31.57
306.522	-11.43
306.736	97.11
306.95	47.96
307.164	9.05
307.379	-58.54
307.593	9.05
307.807	7
308.021	64.34
308.235	47.96
308.449	74.58
308.663	4.95
308.877	0.85
309.091	23.38
309.305	93.01
309.519	-1.19
309.733	-1.19
309.947	-25.77
310.161	41.81
310.374	88.92
310.588	64.34
310.802	27.48
311.016	41.81
311.23	-15.53
311.444	45.91
311.658	13.14
311.872	86.87
312.085	97.11
312.299	50
312.513	-1.19
312.727	115.54
312.941	-15.53
313.154	45.91
313.368	140.12
313.582	52.05
313.796	4.95
314.009	13.14
314.223	68.44
314.437	97.11
314.651	72.53
314.864	-11.43
315.078	62.29
315.292	19.29
315.505	45.91
315.719	107.35
315.933	7
316.146	117.59
316.36	-1.19
316.573	33.62
316.787	17.24
317.001	52.05
317.214	62.29
317.428	58.2
317.641	50
317.855	47.96
318.068	95.06
318.282	156.5
318.495	29.52
318.709	47.96
318.922	62.29
319.136	68.44
319.349	68.44
319.563	43.86
319.776	-15.53
319.99	27.48
320.203	64.34
320.417	45.91
320.63	64.34
320.843	103.25
321.057	23.38
321.27	37.72
321.483	17.24
321.697	131.92
321.91	60.24
322.124	109.4
322.337	76.63
322.55	74.58
322.763	74.58
322.977	37.72
323.19	113.49
323.403	86.87
323.617	70.48
323.83	80.72
324.043	70.48
324.256	13.14
324.469	19.29
324.683	54.1
324.896	9.05
325.109	66.39
325.322	-3.24
325.535	54.1
325.748	56.15
325.962	33.62
326.175	39.76
326.388	33.62
326.601	13.14
326.814	25.43
327.027	68.44
327.24	82.77
327.453	39.76
327.666	25.43
327.879	82.77
328.092	68.44
328.305	54.1
328.518	60.24
328.731	45.91
328.944	2.9
329.157	84.82
329.37	29.52
329.583	74.58
329.796	76.63
330.009	52.05
330.222	119.64
330.435	37.72
330.648	9.05
330.861	33.62
331.073	19.29
331.286	56.15
331.499	84.82
331.712	-5.29
331.925	111.44
332.138	25.43
332.35	109.4
332.563	41.81
332.776	93.01
332.989	2.9
333.202	78.68
333.414	19.29
333.627	4.95
333.84	15.19
334.053	88.92
334.265	45.91
334.478	-9.39
334.691	62.29
334.903	82.77
335.116	80.72
335.329	111.44
335.541	25.43
335.754	45.91
335.966	7
336.179	11.09
336.392	41.81
336.604	80.72
336.817	76.63
337.029	45.91
337.242	82.77
337.454	76.63
337.667	111.44
337.88	115.54
338.092	37.72
338.305	9.05
338.517	15.19
338.729	84.82
338.942	11.09
339.154	76.63
339.367	45.91
339.579	107.35
339.792	50
340.004	107.35
340.217	66.39
340.429	66.39
340.641	97.11
340.854	21.33
341.066	133.97
341.278	45.91
341.491	33.62
341.703	103.25
341.915	-29.87
342.128	68.44
342.34	72.53
342.552	45.91
342.764	11.09
342.977	123.73
343.189	78.68
343.401	93.01
343.613	7
343.826	17.24
344.038	52.05
344.25	123.73
344.462	4.95
344.674	56.15
344.886	39.76
345.099	13.14
345.311	84.82
345.523	80.72
345.735	-17.58
345.947	23.38
346.159	33.62
346.371	29.52
346.583	-3.24
346.795	119.64
347.007	58.2
347.219	23.38
347.431	39.76
347.643	146.26
347.855	41.81
348.067	109.4
348.279	97.11
348.491	60.24
348.703	-5.29
348.915	13.14
349.127	60.24
349.339	43.86
349.551	31.57
349.763	113.49
349.975	39.76
350.187	37.72
350.399	47.96
350.61	29.52
350.822	95.06
351.034	58.2
351.246	56.15
351.458	39.76
351.669	62.29
351.881	78.68
352.093	50
352.305	95.06
352.517	37.72
352.728	107.35
352.94	68.44
353.152	90.96
353.363	27.48
353.575	58.2
353.787	17.24
353.999	47.96
354.21	146.26
354.422	19.29
354.633	27.48
354.845	35.67
355.057	70.48
355.268	39.76
355.48	105.3
355.692	2.9
355.903	86.87
356.115	25.43
356.326	-3.24
356.538	109.4
356.749	31.57
356.961	2.9
357.172	37.72
357.384	62.29
357.595	90.96
357.807	-33.96
358.018	64.34
358.23	80.72
358.441	105.3
358.653	74.58
358.864	103.25
359.075	66.39
359.287	136.02
359.498	54.1
359.709	86.87
359.921	54.1
360.132	111.44
360.344	148.31
360.555	9.05
360.766	72.53
360.977	50
361.189	56.15
361.4	50
361.611	-7.34
361.823	25.43
362.034	31.57
362.245	-5.29
362.456	86.87
362.667	105.3
362.879	45.91
363.09	103.25
363.301	95.06
363.512	80.72
363.723	19.29
363.935	117.59
364.146	127.83
364.357	35.67
364.568	121.68
364.779	64.34
364.99	129.88
365.201	9.05
365.412	101.2
365.623	19.29
365.834	121.68
366.045	64.34
366.256	111.44
366.467	-15.53
366.678	101.2
366.889	99.16
367.1	66.39
367.311	37.72
367.522	52.05
367.733	70.48
367.944	70.48
368.155	66.39
368.366	56.15
368.577	19.29
368.788	148.31
368.999	93.01
369.209	80.72
369.42	162.64
369.631	154.45
369.842	13.14
370.053	31.57
370.264	25.43
370.474	66.39
370.685	66.39
370.896	82.77
371.107	64.34
371.317	119.64
371.528	95.06
371.739	136.02
371.95	123.73
372.16	131.92
372.371	84.82
372.582	138.07
372.792	23.38
373.003	-25.77
373.214	93.01
373.424	21.33
373.635	82.77
373.846	45.91
374.056	68.44
374.267	43.86
374.477	115.54
374.688	109.4
374.898	107.35
375.109	109.4
375.319	105.3
375.53	54.1
375.74	115.54
375.951	35.67
376.161	76.63
376.372	88.92
376.582	31.57
376.793	133.97
377.003	29.52
377.214	78.68
377.424	9.05
377.635	115.54
377.845	37.72
378.055	47.96
378.266	90.96
378.476	76.63
378.686	123.73
378.897	74.58
379.107	123.73
379.317	117.59
379.528	76.63
379.738	136.02
379.948	41.81
380.158	84.82
380.369	80.72
380.579	43.86
380.789	56.15
380.999	88.92
381.21	101.2
381.42	127.83
381.63	21.33
381.84	127.83
382.05	111.44
382.261	45.91
382.471	117.59
382.681	78.68
382.891	99.16
383.101	39.76
383.311	60.24
383.521	27.48
383.731	107.35
383.941	31.57
384.151	113.49
384.361	109.4
384.571	80.72
384.781	74.58
384.991	78.68
385.201	86.87
385.411	107.35
385.621	103.25
385.831	39.76
386.041	23.38
386.251	37.72
386.461	-1.19
386.671	-23.72
386.881	78.68
387.091	90.96
387.301	109.4
387.511	84.82
387.72	52.05
387.93	58.2
388.14	72.53
388.35	-9.39
388.56	84.82
388.769	84.82
388.979	109.4
389.189	60.24
389.399	95.06
389.609	158.55
389.818	68.44
390.028	113.49
390.238	70.48
390.447	43.86
390.657	72.53
390.867	93.01
391.076	62.29
391.286	41.81
391.496	90.96
391.705	2.9
391.915	121.68
392.125	131.92
392.334	101.2
392.544	86.87
392.753	140.12
392.963	127.83
393.172	156.5
393.382	15.19
393.591	95.06
393.801	78.68
394.01	166.74
394.22	90.96
394.429	140.12
394.639	105.3
394.848	215.89
395.058	142.16
395.267	74.58
395.477	107.35
395.686	131.92
395.895	158.55
396.105	174.93
396.314	41.81
396.524	150.36
396.733	78.68
396.942	131.92
397.152	211.79
397.361	129.88
397.57	129.88
397.78	154.45
397.989	148.31
398.198	127.83
398.407	117.59
398.617	90.96
398.826	111.44
399.035	101.2
399.244	174.93
399.453	121.68
399.663	101.2
399.872	201.55
400.081	117.59
400.29	119.64
400.499	35.67
400.708	191.31
400.917	105.3
401.127	72.53
401.336	80.72
401.545	140.12
401.754	109.4
401.963	181.07
402.172	189.27
402.381	123.73
402.59	215.89
402.799	80.72
403.008	236.37
403.217	162.64
403.426	150.36
403.635	90.96
403.844	103.25
404.053	172.88
404.262	213.84
404.471	179.03
404.68	244.56
404.888	185.17
405.097	224.08
405.306	277.33
405.515	213.84
405.724	246.61
405.933	248.66
406.142	252.75
406.35	242.51
406.559	240.47
406.768	222.03
406.977	365.39
407.185	303.95
407.394	330.58
407.603	250.71
407.812	242.51
408.02	332.62
408.229	236.37
408.438	340.82
408.646	285.52
408.855	346.96
409.064	383.82
409.272	312.14
409.481	363.34
409.69	344.91
409.898	373.58
410.107	488.27
410.315	459.6
410.524	463.69
410.733	432.97
410.941	488.27
411.15	473.93
411.358	490.32
411.567	533.33
411.775	486.22
411.984	506.7
412.192	654.16
412.401	590.67
412.609	629.58
412.818	629.58
413.026	699.21
413.234	695.11
413.443	672.59
413.651	676.68
413.86	799.56
414.068	815.94
414.276	803.66
414.485	803.66
414.693	863.05
414.901	871.24
415.11	910.15
415.318	965.45
415.526	1014.6
415.734	1114.95
415.943	1055.56
416.151	1172.29
416.359	1137.48
416.567	1129.28
416.776	1223.49
416.984	1303.36
417.192	1227.59
417.4	1270.59
417.608	1442.62
417.817	1463.1
418.025	1454.91
418.233	1514.3
418.441	1563.45
418.649	1669.95
418.857	1723.2
419.065	1774.39
419.273	1839.93
419.481	1874.74
419.689	2003.77
419.897	2083.64
420.105	2161.46
420.313	2122.55
420.521	2100.02
420.729	2138.93
420.937	2315.06
421.145	2308.91
421.353	2429.74
421.561	2636.59
421.769	2679.6
421.977	2753.32
422.185	2585.39
422.393	2923.3
422.601	3085.09
422.809	3140.39
423.017	3146.53
423.224	3326.75
423.432	3349.28
423.64	3392.29
423.848	3742.49
424.056	3568.41
424.263	3867.42
424.471	3949.34
424.679	3978.01
424.887	4215.57
425.094	4266.77
425.302	4104.98
425.51	4424.47
425.718	4614.93
425.925	4533.01
426.133	4721.42
426.341	4979.47
426.548	5280.52
426.756	5477.12
426.964	5505.79
427.171	5681.92
427.379	6005.5
427.586	5864.19
427.794	6177.53
428.001	6234.87
428.209	6605.55
428.417	6542.07
428.624	7023.34
428.832	6968.04
429.039	6810.35
429.247	7041.77
429.454	7635.68
429.662	7938.78
429.869	7645.92
430.076	8190.68
430.284	7877.34
430.491	8303.32
430.699	8587.99
430.906	8698.58
431.114	8729.3
431.321	9147.08
431.528	9317.06
431.736	9843.39
431.943	10384.05
432.15	10113.72
432.358	10232.51
432.565	10793.65
432.772	10807.98
432.979	11397.8
433.187	11397.8
433.394	11557.54
433.601	12292.76
433.808	12276.38
434.016	12133.02
434.223	12733.08
434.43	13712
434.637	13275.79
434.844	13968
435.052	14346.87
435.259	14414.46
435.466	14416.51
435.673	14301.82
435.88	15067.76
436.087	15823.46
436.294	16056.93
436.501	15452.78
436.708	15821.41
436.915	16591.45
437.122	17033.81
437.329	17103.44
437.537	17865.28
437.743	18025.03
437.95	18035.27
438.157	18891.32
438.364	19358.25
438.571	19384.88
438.778	19642.92
438.985	21363.22
439.192	20345.37
439.399	21299.73
439.606	20750.87
439.813	21887.5
440.02	23147
440.227	22993.4
440.433	22479.36
440.64	23108.08
440.847	23065.08
441.054	23486.96
441.261	25387.47
441.467	24670.68
441.674	25258.45
441.881	26190.28
442.088	26352.07
442.294	26223.05
442.501	26458.56
442.708	27179.45
442.914	28101.03
443.121	29489.56
443.328	28742.05
443.534	30531.97
443.741	29534.61
443.948	29469.08
444.154	31336.82
444.361	31211.9
444.568	31510.9
444.774	31701.36
444.981	31965.55
445.187	32754.02
445.394	33898.83
445.6	34036.05
445.807	36976.93
446.013	35375.42
446.22	36286.76
446.426	37781.78
446.633	37902.61
446.839	39239.93
447.046	37519.64
447.252	39760.12
447.459	39459.07
447.665	39508.22
447.871	41081.06
448.078	42612.94
448.284	40784.1
448.491	42123.47
448.697	43886.78
448.903	44169.4
449.11	44724.39
449.316	43901.11
449.522	44673.2
449.728	45668.51
449.935	46264.47
450.141	46168.21
450.347	47392.9
450.553	45762.72
450.76	46758.03
450.966	47929.47
451.172	47179.91
451.378	48650.35
451.584	47636.61
451.791	48752.75
451.997	48429.17
452.203	49379.43
452.409	49344.61
452.615	48957.55
452.821	47112.33
453.027	46665.87
453.233	49641.57
453.44	47370.37
453.646	47886.46
453.852	48248.95
454.058	48937.07
454.264	47659.13
454.47	48453.75
454.676	47327.36
454.882	48879.72
455.088	45037.73
455.294	45592.73
455.5	45897.88
455.705	46604.43
455.911	44701.87
456.117	44114.1
456.323	43755.71
456.529	41236.7
456.735	43092.16
456.941	41722.07
457.147	41138.4
457.352	39962.87
457.558	39287.04
457.764	39723.26
457.97	38836.48
458.176	37812.5
458.381	38408.46
458.587	36372.78
458.793	36337.96
458.999	34261.32
459.204	36956.45
459.41	35748.15
459.616	33569.11
459.821	33575.25
460.027	33272.15
460.233	32749.92
460.438	31236.47
460.644	31125.88
460.85	29858.19
461.055	29301.14
461.261	29503.89
461.466	27115.96
461.672	26583.49
461.878	28492.19
462.083	26485.19
462.289	25825.74
462.494	25819.6
462.7	24390.11
462.905	24109.54
463.111	24578.53
463.316	24635.87
463.522	24300
463.727	24115.69
463.932	24203.75
464.138	23962.09
464.343	23773.67
464.549	23495.15
464.754	24009.19
464.959	23947.75
465.165	23871.98
465.37	22698.49
465.575	22155.78
465.781	23052.79
465.986	23112.18
466.191	22657.53
466.397	21676.55
466.602	20742.68
466.807	21584.4
467.012	21535.24
467.218	21787.14
467.423	21428.75
467.628	21451.28
