Data from USB4F104151__0__12-34-44-623.txt Node

Date: Fri Mar 14 12:34:44 EDT 2025
User: louis
Spectrometer: USB4F10415
Trigger mode: 4
Integration Time (sec): 2.000000E-2
Scans to average: 1
Electric dark correction enabled: true
Nonlinearity correction enabled: false
Boxcar width: 0
XAxis mode: Wavelengths
Number of Pixels in Spectrum: 3648
>>>>>Begin Spectral Data<<<<<
178.204	-29.18
178.424	-29.18
178.644	-29.18
178.864	-127.49
179.084	-61.95
179.304	-64
179.524	-55.81
179.744	-41.47
179.964	58.88
180.184	-68.09
180.404	48.64
180.624	9.73
180.844	1.54
181.064	-10.75
181.283	91.65
181.503	54.78
181.723	-25.09
181.943	9.73
182.163	87.55
182.383	-16.9
182.602	65.02
182.822	11.78
183.042	69.12
183.262	-61.95
183.482	19.97
183.701	1.54
183.921	40.45
184.141	-31.23
184.361	15.87
184.58	-10.75
184.8	69.12
185.02	-20.99
185.239	-2.56
185.459	1.54
185.679	-49.66
185.898	38.4
186.118	7.68
186.338	24.06
186.557	11.78
186.777	19.97
186.997	15.87
187.216	5.63
187.436	3.58
187.655	-20.99
187.875	36.35
188.095	11.78
188.314	67.07
188.534	67.07
188.753	-14.85
188.973	1.54
189.192	58.88
189.412	-37.38
189.631	22.02
189.851	15.87
190.07	-4.61
190.29	-47.62
190.509	62.98
190.729	15.87
190.948	11.78
191.168	95.74
191.387	46.59
191.607	50.69
191.826	11.78
192.045	-16.9
192.265	9.73
192.484	22.02
192.704	38.4
192.923	22.02
193.142	97.79
193.362	44.54
193.581	93.69
193.8	5.63
194.02	22.02
194.239	32.26
194.458	56.83
194.678	1.54
194.897	13.82
195.116	-31.23
195.335	-2.56
195.555	15.87
195.774	26.11
195.993	42.5
196.212	-8.7
196.432	52.74
196.651	1.54
196.87	42.5
197.089	87.55
197.308	-23.04
197.528	75.26
197.747	-29.18
197.966	26.11
198.185	-2.56
198.404	-20.99
198.623	-2.56
198.842	-55.81
199.062	9.73
199.281	-0.51
199.5	-59.9
199.719	97.79
199.938	73.21
200.157	42.5
200.376	13.82
200.595	-4.61
200.814	30.21
201.033	1.54
201.252	1.54
201.471	40.45
201.69	83.45
201.909	42.5
202.128	52.74
202.347	11.78
202.566	-12.8
202.785	-8.7
203.004	-6.66
203.223	118.27
203.442	7.68
203.661	5.63
203.879	-27.14
204.098	24.06
204.317	40.45
204.536	75.26
204.755	-55.81
204.974	1.54
205.193	50.69
205.411	40.45
205.63	-10.75
205.849	38.4
206.068	65.02
206.287	44.54
206.505	24.06
206.724	-0.51
206.943	67.07
207.162	-23.04
207.381	-2.56
207.599	5.63
207.818	22.02
208.037	-47.62
208.255	-55.81
208.474	-23.04
208.693	34.3
208.911	-53.76
209.13	28.16
209.349	87.55
209.567	-16.9
209.786	-35.33
210.005	54.78
210.223	36.35
210.442	-23.04
210.661	-29.18
210.879	-35.33
211.098	-18.94
211.316	22.02
211.535	3.58
211.753	5.63
211.972	67.07
212.191	24.06
212.409	30.21
212.628	-0.51
212.846	-35.33
213.065	-49.66
213.283	85.5
213.502	-10.75
213.72	-20.99
213.938	-8.7
214.157	22.02
214.375	34.3
214.594	1.54
214.812	48.64
215.031	50.69
215.249	5.63
215.467	67.07
215.686	3.58
215.904	79.36
216.122	30.21
216.341	28.16
216.559	32.26
216.778	38.4
216.996	48.64
217.214	101.89
217.432	-12.8
217.651	44.54
217.869	1.54
218.087	17.92
218.306	26.11
218.524	101.89
218.742	-61.95
218.96	34.3
219.179	-18.94
219.397	73.21
219.615	77.31
219.833	99.84
220.051	-2.56
220.27	38.4
220.488	38.4
220.706	-31.23
220.924	19.97
221.142	-35.33
221.36	-45.57
221.578	-16.9
221.796	83.45
222.015	-2.56
222.233	22.02
222.451	-8.7
222.669	15.87
222.887	52.74
223.105	15.87
223.323	-23.04
223.541	54.78
223.759	-55.81
223.977	3.58
224.195	22.02
224.413	65.02
224.631	46.59
224.849	15.87
225.067	26.11
225.285	40.45
225.503	56.83
225.721	-31.23
225.939	-2.56
226.157	-0.51
226.375	67.07
226.592	-74.24
226.81	-41.47
227.028	69.12
227.246	81.41
227.464	-33.28
227.682	-12.8
227.9	50.69
228.117	67.07
228.335	48.64
228.553	9.73
228.771	-12.8
228.989	17.92
229.206	56.83
229.424	69.12
229.642	-6.66
229.86	-29.18
230.077	34.3
230.295	40.45
230.513	22.02
230.731	-39.42
230.948	48.64
231.166	40.45
231.384	1.54
231.601	36.35
231.819	-10.75
232.037	44.54
232.254	-0.51
232.472	91.65
232.689	44.54
232.907	-20.99
233.125	19.97
233.342	-66.05
233.56	9.73
233.777	32.26
233.995	15.87
234.213	9.73
234.43	-2.56
234.648	91.65
234.865	19.97
235.083	44.54
235.3	32.26
235.518	28.16
235.735	30.21
235.953	56.83
236.17	42.5
236.388	-4.61
236.605	-2.56
236.822	62.98
237.04	9.73
237.257	-49.66
237.475	-16.9
237.692	-64
237.909	32.26
238.127	77.31
238.344	1.54
238.562	22.02
238.779	46.59
238.996	-6.66
239.214	9.73
239.431	17.92
239.648	52.74
239.865	89.6
240.083	71.17
240.3	87.55
240.517	19.97
240.735	52.74
240.952	52.74
241.169	28.16
241.386	32.26
241.603	26.11
241.821	19.97
242.038	32.26
242.255	22.02
242.472	-0.51
242.689	-2.56
242.907	38.4
243.124	30.21
243.341	-25.09
243.558	-45.57
243.775	-2.56
243.992	7.68
244.209	50.69
244.426	22.02
244.643	38.4
244.86	44.54
245.078	65.02
245.295	5.63
245.512	83.45
245.729	38.4
245.946	22.02
246.163	95.74
246.38	7.68
246.597	32.26
246.814	34.3
247.031	-16.9
247.248	-16.9
247.464	62.98
247.681	-66.05
247.898	7.68
248.115	9.73
248.332	13.82
248.549	26.11
248.766	50.69
248.983	75.26
249.2	13.82
249.417	58.88
249.633	28.16
249.85	56.83
250.067	42.5
250.284	11.78
250.501	15.87
250.717	67.07
250.934	42.5
251.151	-10.75
251.368	1.54
251.585	73.21
251.801	50.69
252.018	30.21
252.235	44.54
252.451	-23.04
252.668	87.55
252.885	-35.33
253.102	52.74
253.318	15.87
253.535	9.73
253.752	-2.56
253.968	54.78
254.185	-0.51
254.401	46.59
254.618	24.06
254.835	40.45
255.051	42.5
255.268	-20.99
255.484	56.83
255.701	116.22
255.917	105.98
256.134	67.07
256.351	13.82
256.567	9.73
256.784	130.56
257	-47.62
257.217	67.07
257.433	44.54
257.65	34.3
257.866	69.12
258.082	36.35
258.299	11.78
258.515	13.82
258.732	81.41
258.948	42.5
259.165	-37.38
259.381	56.83
259.597	-16.9
259.814	26.11
260.03	-6.66
260.246	81.41
260.463	11.78
260.679	46.59
260.895	40.45
261.112	60.93
261.328	56.83
261.544	36.35
261.761	120.32
261.977	-29.18
262.193	-31.23
262.409	32.26
262.626	38.4
262.842	11.78
263.058	-4.61
263.274	65.02
263.49	-51.71
263.707	13.82
263.923	-0.51
264.139	-41.47
264.355	-12.8
264.571	77.31
264.787	-2.56
265.004	24.06
265.22	91.65
265.436	24.06
265.652	54.78
265.868	13.82
266.084	-57.86
266.3	-12.8
266.516	65.02
266.732	17.92
266.948	-10.75
267.164	-29.18
267.38	36.35
267.596	75.26
267.812	19.97
268.028	48.64
268.244	1.54
268.46	32.26
268.676	28.16
268.892	75.26
269.108	-23.04
269.324	5.63
269.54	24.06
269.756	40.45
269.972	32.26
270.188	13.82
270.403	-51.71
270.619	36.35
270.835	26.11
271.051	130.56
271.267	13.82
271.483	56.83
271.698	75.26
271.914	44.54
272.13	7.68
272.346	73.21
272.562	97.79
272.777	40.45
272.993	-4.61
273.209	5.63
273.425	122.37
273.64	36.35
273.856	-4.61
274.072	-0.51
274.287	3.58
274.503	-6.66
274.719	75.26
274.934	7.68
275.15	24.06
275.366	1.54
275.581	-4.61
275.797	93.69
276.012	11.78
276.228	-33.28
276.444	-2.56
276.659	83.45
276.875	34.3
277.09	52.74
277.306	9.73
277.521	28.16
277.737	26.11
277.952	73.21
278.168	34.3
278.383	60.93
278.599	71.17
278.814	81.41
279.03	5.63
279.245	26.11
279.461	-18.94
279.676	17.92
279.892	-4.61
280.107	62.98
280.322	-6.66
280.538	60.93
280.753	36.35
280.969	-37.38
281.184	-2.56
281.399	71.17
281.615	67.07
281.83	69.12
282.045	-57.86
282.26	56.83
282.476	7.68
282.691	58.88
282.906	114.17
283.122	48.64
283.337	1.54
283.552	50.69
283.767	-12.8
283.983	-12.8
284.198	-12.8
284.413	81.41
284.628	-2.56
284.843	122.37
285.058	77.31
285.274	-14.85
285.489	9.73
285.704	15.87
285.919	26.11
286.134	40.45
286.349	46.59
286.564	24.06
286.779	138.75
286.995	9.73
287.21	-2.56
287.425	38.4
287.64	40.45
287.855	-12.8
288.07	28.16
288.285	17.92
288.5	34.3
288.715	15.87
288.93	44.54
289.145	-10.75
289.36	62.98
289.575	48.64
289.79	83.45
290.004	11.78
290.219	54.78
290.434	-37.38
290.649	38.4
290.864	13.82
291.079	26.11
291.294	65.02
291.509	-12.8
291.724	54.78
291.938	-2.56
292.153	22.02
292.368	69.12
292.583	42.5
292.798	54.78
293.012	22.02
293.227	73.21
293.442	56.83
293.657	11.78
293.871	48.64
294.086	52.74
294.301	79.36
294.516	13.82
294.73	22.02
294.945	44.54
295.16	-23.04
295.374	9.73
295.589	7.68
295.804	-31.23
296.018	99.84
296.233	60.93
296.447	3.58
296.662	3.58
296.877	-12.8
297.091	9.73
297.306	-0.51
297.52	-6.66
297.735	75.26
297.949	93.69
298.164	95.74
298.378	40.45
298.593	77.31
298.807	-4.61
299.022	40.45
299.236	77.31
299.451	32.26
299.665	-27.14
299.88	30.21
300.094	19.97
300.309	1.54
300.523	38.4
300.737	-23.04
300.952	17.92
301.166	50.69
301.381	-23.04
301.595	44.54
301.809	13.82
302.024	9.73
302.238	-0.51
302.452	11.78
302.667	9.73
302.881	124.41
303.095	60.93
303.309	24.06
303.524	-16.9
303.738	5.63
303.952	-35.33
304.166	40.45
304.381	34.3
304.595	50.69
304.809	36.35
305.023	79.36
305.237	-12.8
305.452	17.92
305.666	56.83
305.88	-0.51
306.094	73.21
306.308	28.16
306.522	32.26
306.736	79.36
306.95	-29.18
307.164	81.41
307.379	1.54
307.593	95.74
307.807	71.17
308.021	-2.56
308.235	46.59
308.449	110.08
308.663	-14.85
308.877	138.75
309.091	-6.66
309.305	42.5
309.519	17.92
309.733	1.54
309.947	24.06
310.161	79.36
310.374	-6.66
310.588	-29.18
310.802	44.54
311.016	1.54
311.23	-16.9
311.444	36.35
311.658	11.78
311.872	81.41
312.085	-25.09
312.299	11.78
312.513	1.54
312.727	85.5
312.941	36.35
313.154	9.73
313.368	69.12
313.582	9.73
313.796	36.35
314.009	-41.47
314.223	28.16
314.437	3.58
314.651	69.12
314.864	17.92
315.078	-2.56
315.292	15.87
315.505	-10.75
315.719	56.83
315.933	19.97
316.146	-29.18
316.36	3.58
316.573	103.93
316.787	73.21
317.001	30.21
317.214	5.63
317.428	9.73
317.641	-29.18
317.855	-2.56
318.068	69.12
318.282	65.02
318.495	44.54
318.709	-8.7
318.922	44.54
319.136	42.5
319.349	-0.51
319.563	124.41
319.776	11.78
319.99	67.07
320.203	67.07
320.417	-4.61
320.63	-68.09
320.843	73.21
321.057	30.21
321.27	19.97
321.483	-8.7
321.697	17.92
321.91	67.07
322.124	1.54
322.337	34.3
322.55	40.45
322.763	38.4
322.977	17.92
323.19	44.54
323.403	19.97
323.617	44.54
323.83	58.88
324.043	26.11
324.256	24.06
324.469	-49.66
324.683	-4.61
324.896	42.5
325.109	13.82
325.322	62.98
325.535	48.64
325.748	101.89
325.962	-16.9
326.175	28.16
326.388	54.78
326.601	13.82
326.814	48.64
327.027	60.93
327.24	15.87
327.453	9.73
327.666	71.17
327.879	60.93
328.092	67.07
328.305	9.73
328.518	-86.53
328.731	5.63
328.944	52.74
329.157	71.17
329.37	9.73
329.583	15.87
329.796	69.12
330.009	-43.52
330.222	34.3
330.435	38.4
330.648	-0.51
330.861	73.21
331.073	54.78
331.286	7.68
331.499	48.64
331.712	-37.38
331.925	58.88
332.138	67.07
332.35	9.73
332.563	69.12
332.776	124.41
332.989	-16.9
333.202	28.16
333.414	67.07
333.627	-12.8
333.84	19.97
334.053	58.88
334.265	24.06
334.478	75.26
334.691	-31.23
334.903	-10.75
335.116	-0.51
335.329	1.54
335.541	30.21
335.754	103.93
335.966	30.21
336.179	17.92
336.392	36.35
336.604	22.02
336.817	-35.33
337.029	19.97
337.242	105.98
337.454	22.02
337.667	11.78
337.88	87.55
338.092	22.02
338.305	46.59
338.517	-37.38
338.729	126.46
338.942	56.83
339.154	77.31
339.367	24.06
339.579	67.07
339.792	5.63
340.004	89.6
340.217	17.92
340.429	30.21
340.641	22.02
340.854	-8.7
341.066	73.21
341.278	-2.56
341.491	58.88
341.703	17.92
341.915	-6.66
342.128	36.35
342.34	-6.66
342.552	46.59
342.764	46.59
342.977	48.64
343.189	11.78
343.401	79.36
343.613	-47.62
343.826	34.3
344.038	75.26
344.25	36.35
344.462	36.35
344.674	11.78
344.886	22.02
345.099	22.02
345.311	75.26
345.523	42.5
345.735	-41.47
345.947	77.31
346.159	11.78
346.371	32.26
346.583	-10.75
346.795	87.55
347.007	65.02
347.219	71.17
347.431	15.87
347.643	48.64
347.855	-29.18
348.067	108.03
348.279	-45.57
348.491	19.97
348.703	32.26
348.915	116.22
349.127	-12.8
349.339	65.02
349.551	56.83
349.763	95.74
349.975	-8.7
350.187	110.08
350.399	40.45
350.61	34.3
350.822	-66.05
351.034	89.6
351.246	97.79
351.458	44.54
351.669	-8.7
351.881	36.35
352.093	67.07
352.305	24.06
352.517	15.87
352.728	54.78
352.94	22.02
353.152	62.98
353.363	56.83
353.575	44.54
353.787	87.55
353.999	42.5
354.21	114.17
354.422	-35.33
354.633	73.21
354.845	3.58
355.057	3.58
355.268	17.92
355.48	30.21
355.692	15.87
355.903	13.82
356.115	85.5
356.326	30.21
356.538	101.89
356.749	40.45
356.961	3.58
357.172	1.54
357.384	22.02
357.595	103.93
357.807	62.98
358.018	-0.51
358.23	83.45
358.441	140.8
358.653	52.74
358.864	75.26
359.075	56.83
359.287	-10.75
359.498	7.68
359.709	52.74
359.921	28.16
360.132	28.16
360.344	58.88
360.555	60.93
360.766	75.26
360.977	79.36
361.189	67.07
361.4	52.74
361.611	58.88
361.823	-4.61
362.034	56.83
362.245	-12.8
362.456	30.21
362.667	15.87
362.879	81.41
363.09	54.78
363.301	36.35
363.512	-16.9
363.723	15.87
363.935	56.83
364.146	-2.56
364.357	-2.56
364.568	36.35
364.779	-4.61
364.99	83.45
365.201	32.26
365.412	95.74
365.623	-33.28
365.834	91.65
366.045	62.98
366.256	50.69
366.467	-23.04
366.678	81.41
366.889	-18.94
367.1	11.78
367.311	52.74
367.522	24.06
367.733	79.36
367.944	103.93
368.155	105.98
368.366	83.45
368.577	83.45
368.788	103.93
368.999	1.54
369.209	108.03
369.42	79.36
369.631	108.03
369.842	-0.51
370.053	7.68
370.264	22.02
370.474	42.5
370.685	3.58
370.896	34.3
371.107	60.93
371.317	9.73
371.528	69.12
371.739	118.27
371.95	36.35
372.16	7.68
372.371	28.16
372.582	58.88
372.792	85.5
373.003	60.93
373.214	28.16
373.424	38.4
373.635	26.11
373.846	73.21
374.056	50.69
374.267	52.74
374.477	32.26
374.688	65.02
374.898	34.3
375.109	9.73
375.319	46.59
375.53	-25.09
375.74	36.35
375.951	7.68
376.161	-39.42
376.372	120.32
376.582	58.88
376.793	67.07
377.003	38.4
377.214	-33.28
377.424	112.13
377.635	44.54
377.845	-0.51
378.055	69.12
378.266	11.78
378.476	60.93
378.686	32.26
378.897	60.93
379.107	54.78
379.317	28.16
379.528	52.74
379.738	112.13
379.948	52.74
380.158	3.58
380.369	-0.51
380.579	44.54
380.789	30.21
380.999	15.87
381.21	13.82
381.42	118.27
381.63	-18.94
381.84	56.83
382.05	15.87
382.261	-8.7
382.471	52.74
382.681	40.45
382.891	103.93
383.101	9.73
383.311	-8.7
383.521	17.92
383.731	77.31
383.941	124.41
384.151	26.11
384.361	1.54
384.571	71.17
384.781	-47.62
384.991	85.5
385.201	103.93
385.411	118.27
385.621	58.88
385.831	54.78
386.041	13.82
386.251	17.92
386.461	126.46
386.671	38.4
386.881	50.69
387.091	17.92
387.301	19.97
387.511	52.74
387.72	46.59
387.93	110.08
388.14	52.74
388.35	7.68
388.56	75.26
388.769	97.79
388.979	108.03
389.189	30.21
389.399	62.98
389.609	15.87
389.818	146.94
390.028	42.5
390.238	38.4
390.447	60.93
390.657	-25.09
390.867	67.07
391.076	85.5
391.286	85.5
391.496	46.59
391.705	67.07
391.915	91.65
392.125	42.5
392.334	15.87
392.544	60.93
392.753	77.31
392.963	40.45
393.172	99.84
393.382	52.74
393.591	134.65
393.801	54.78
394.01	99.84
394.22	118.27
394.429	69.12
394.639	46.59
394.848	75.26
395.058	30.21
395.267	69.12
395.477	11.78
395.686	120.32
395.895	140.8
396.105	151.04
396.314	93.69
396.524	17.92
396.733	116.22
396.942	69.12
397.152	93.69
397.361	144.89
397.57	26.11
397.78	73.21
397.989	99.84
398.198	71.17
398.407	87.55
398.617	46.59
398.826	128.51
399.035	79.36
399.244	87.55
399.453	157.18
399.663	91.65
399.872	114.17
400.081	108.03
400.29	5.63
400.499	128.51
400.708	153.09
400.917	114.17
401.127	99.84
401.336	136.7
401.545	77.31
401.754	75.26
401.963	110.08
402.172	32.26
402.381	36.35
402.59	105.98
402.799	151.04
403.008	65.02
403.217	103.93
403.426	81.41
403.635	116.22
403.844	165.37
404.053	101.89
404.262	77.31
404.471	128.51
404.68	52.74
404.888	142.85
405.097	120.32
405.306	171.52
405.515	91.65
405.724	118.27
405.933	222.72
406.142	165.37
406.35	169.47
406.559	140.8
406.768	196.09
406.977	132.61
407.185	165.37
407.394	194.05
407.603	126.46
407.812	222.72
408.02	202.24
408.229	177.66
408.438	185.85
408.646	206.33
408.855	239.1
409.064	269.82
409.272	253.44
409.481	208.38
409.69	245.24
409.898	361.98
410.107	275.96
410.315	327.16
410.524	341.5
410.733	337.4
410.941	253.44
411.15	265.72
411.358	318.97
411.567	347.64
411.775	284.16
411.984	339.45
412.192	378.36
412.401	267.77
412.609	388.6
412.818	462.33
413.026	392.7
413.234	402.94
413.443	474.62
413.651	460.28
413.86	482.81
414.068	577.02
414.276	570.87
414.485	570.87
414.693	538.1
414.901	642.55
415.11	648.69
415.318	634.36
415.526	624.12
415.734	761.33
415.943	728.56
416.151	753.14
416.359	839.16
416.567	849.4
416.776	857.59
416.984	896.5
417.192	851.44
417.4	871.92
417.608	884.21
417.817	925.17
418.025	1011.18
418.233	1009.14
418.441	994.8
418.649	1080.82
418.857	1123.82
419.065	1148.4
419.273	1205.74
419.481	1205.74
419.689	1342.96
419.897	1381.87
420.105	1357.29
420.313	1437.16
420.521	1416.68
420.729	1498.6
420.937	1625.58
421.145	1521.13
421.353	1617.38
421.561	1801.7
421.769	1840.61
421.977	1859.04
422.185	1934.82
422.393	1953.25
422.601	2086.37
422.809	2137.57
423.017	2149.86
423.224	2178.53
423.432	2354.65
423.64	2262.49
423.848	2477.53
424.056	2438.62
424.263	2604.5
424.471	2608.6
424.679	2633.18
424.887	2780.63
425.094	2872.79
425.302	2848.21
425.51	3007.95
425.718	3118.54
425.925	3159.5
426.133	3218.89
426.341	3372.49
426.548	3478.99
426.756	3524.04
426.964	3511.75
427.171	3825.09
427.379	3933.64
427.586	4120
427.794	4128.19
428.001	4232.64
428.209	4521.4
428.417	4410.81
428.624	4709.82
428.832	4826.55
429.039	4668.86
429.247	4734.39
429.454	5023.16
429.662	5389.74
429.869	5158.32
430.076	5610.92
430.284	5359.02
430.491	5500.33
430.699	5854.63
430.906	5887.4
431.114	6012.32
431.321	6143.39
431.528	6383.01
431.736	6694.3
431.943	6911.38
432.15	6585.76
432.358	6835.61
432.565	7409.04
432.772	7269.78
432.979	7560.59
433.187	7642.51
433.394	7705.99
433.601	8394.11
433.808	8404.35
434.016	8265.09
434.223	8508.8
434.43	9282.93
434.637	8867.19
434.844	9577.84
435.052	9616.75
435.259	9702.76
435.466	9889.13
435.673	9645.42
435.88	10313.06
436.087	11013.46
436.294	10888.54
436.501	10452.32
436.708	10771.8
436.915	11226.45
437.122	11459.92
437.329	11621.71
437.537	12150.09
437.743	12016.97
437.95	12289.35
438.157	13026.62
438.364	13241.65
438.571	13206.84
438.778	13071.67
438.985	14265.64
439.192	14081.32
439.399	14300.45
439.606	14001.45
439.813	14933.28
440.02	15803.66
440.227	15375.64
440.433	15500.56
440.64	15742.22
440.847	15662.35
441.054	16045.32
441.261	17483
441.467	16954.62
441.674	17347.83
441.881	18048.24
442.088	17888.5
442.294	17988.85
442.501	18167.02
442.708	18580.71
442.914	19092.7
443.121	20022.48
443.328	19578.07
443.534	21177.53
443.741	20268.23
443.948	19881.17
444.154	21505.21
444.361	21230.78
444.568	21427.39
444.774	21255.36
444.981	22025.39
445.187	22447.27
445.394	23612.57
445.6	23174.3
445.807	25640.06
446.013	24190.09
446.22	24974.47
446.426	25803.89
446.633	25889.91
446.839	26807.4
447.046	25846.9
447.252	26924.13
447.459	27300.96
447.665	27061.35
447.871	28478.54
448.078	29977.65
448.284	28163.15
448.491	28771.4
448.697	30334
448.903	30700.59
449.11	30790.7
449.316	30180.4
449.522	30839.85
449.728	31794.2
449.935	31419.42
450.141	31759.39
450.347	32644.11
450.553	31560.73
450.76	31820.83
450.966	33104.9
451.172	32717.84
451.378	33313.8
451.584	32582.67
451.791	33838.08
451.997	33414.15
452.203	34044.92
452.409	34417.65
452.615	33809.4
452.821	32873.48
453.027	32549.9
453.233	34360.31
453.44	32803.85
453.646	33225.73
453.852	33473.54
454.058	34024.44
454.264	32865.29
454.47	33397.76
454.676	32359.44
454.882	33815.55
455.088	31210.53
455.294	31470.62
455.5	31466.53
455.705	32123.93
455.911	31075.37
456.117	30209.08
456.323	30002.23
456.529	27970.65
456.735	29713.47
456.941	28933.19
457.147	28341.33
457.352	27481.18
457.558	27116.64
457.764	27319.39
457.97	27092.07
458.176	26264.69
458.381	26399.85
458.587	24988.8
458.793	25005.19
458.999	23540.89
459.204	25277.57
459.41	24505.48
459.616	23084.19
459.821	22955.17
460.027	22989.99
460.233	22373.55
460.438	21281.98
460.644	21603.51
460.85	20450.5
461.055	20241.61
461.261	20176.08
461.466	18713.83
461.672	18312.42
461.878	19244.25
462.083	18115.82
462.289	18144.49
462.494	17575.16
462.7	16606.47
462.905	16534.79
463.111	16831.74
463.316	17003.77
463.522	16678.15
463.727	16696.58
463.932	16737.54
464.138	16454.92
464.343	16780.54
464.549	16086.28
464.754	16463.11
464.959	16225.54
465.165	16327.94
465.37	15654.16
465.575	15209.75
465.781	15926.54
465.986	15721.74
466.191	15451.41
466.397	15162.65
466.602	14363.94
466.807	14929.18
467.012	15009.05
467.218	14970.14
467.423	14605.6
467.628	14767.39
467.833	15443.22
468.038	14667.04
468.244	14402.85
468.449	14902.56
