Data from USB4F104151__67__12-36-36-155.txt Node

Date: Fri Mar 14 12:36:36 EDT 2025
User: louis
Spectrometer: USB4F10415
Trigger mode: 4
Integration Time (sec): 2.000000E-2
Scans to average: 1
Electric dark correction enabled: true
Nonlinearity correction enabled: false
Boxcar width: 0
XAxis mode: Wavelengths
Number of Pixels in Spectrum: 3648
>>>>>Begin Spectral Data<<<<<
178.204	-25.6
178.424	-25.6
178.644	-25.6
178.864	-89.09
179.084	-15.36
179.304	-3.07
179.524	-33.79
179.744	-23.55
179.964	48.13
180.184	-25.6
180.404	-37.89
180.624	-11.26
180.844	-35.84
181.064	-52.22
181.283	113.66
181.503	25.6
181.723	35.84
181.943	54.27
182.163	72.7
182.383	56.32
182.602	93.18
182.822	68.61
183.042	-5.12
183.262	48.13
183.482	89.09
183.701	35.84
183.921	109.57
184.141	46.08
184.361	33.79
184.58	21.5
184.8	68.61
185.02	-1.02
185.239	101.37
185.459	103.42
185.679	37.89
185.898	52.22
186.118	54.27
186.338	33.79
186.557	37.89
186.777	117.76
186.997	101.37
187.216	76.8
187.436	91.13
187.655	50.18
187.875	70.65
188.095	66.56
188.314	95.23
188.534	95.23
188.753	93.18
188.973	105.47
189.192	87.04
189.412	62.46
189.631	109.57
189.851	39.94
190.07	66.56
190.29	-44.03
190.509	64.51
190.729	97.28
190.948	66.56
191.168	166.91
191.387	50.18
191.607	19.46
191.826	-7.17
192.045	48.13
192.265	74.75
192.484	95.23
192.704	103.42
192.923	23.55
193.142	74.75
193.362	136.19
193.581	37.89
193.8	87.04
194.02	52.22
194.239	113.66
194.458	35.84
194.678	21.5
194.897	35.84
195.116	31.74
195.335	109.57
195.555	60.42
195.774	130.05
195.993	72.7
196.212	87.04
196.432	72.7
196.651	39.94
196.87	5.12
197.089	107.52
197.308	99.33
197.528	84.99
197.747	15.36
197.966	25.6
198.185	99.33
198.404	33.79
198.623	48.13
198.842	74.75
199.062	60.42
199.281	54.27
199.5	3.07
199.719	60.42
199.938	46.08
200.157	87.04
200.376	9.22
200.595	125.95
200.814	52.22
201.033	-29.7
201.252	93.18
201.471	37.89
201.69	70.65
201.909	99.33
202.128	105.47
202.347	50.18
202.566	25.6
202.785	68.61
203.004	29.7
203.223	168.96
203.442	41.98
203.661	128
203.879	103.42
204.098	66.56
204.317	13.31
204.536	44.03
204.755	89.09
204.974	39.94
205.193	37.89
205.411	44.03
205.63	60.42
205.849	76.8
206.068	109.57
206.287	76.8
206.505	31.74
206.724	-15.36
206.943	48.13
207.162	44.03
207.381	62.46
207.599	35.84
207.818	31.74
208.037	60.42
208.255	60.42
208.474	138.24
208.693	64.51
208.911	93.18
209.13	44.03
209.349	41.98
209.567	80.89
209.786	74.75
210.005	9.22
210.223	58.37
210.442	52.22
210.661	52.22
210.879	64.51
211.098	31.74
211.316	-31.74
211.535	11.26
211.753	44.03
211.972	23.55
212.191	44.03
212.409	82.94
212.628	91.13
212.846	58.37
213.065	23.55
213.283	107.52
213.502	64.51
213.72	33.79
213.938	152.57
214.157	56.32
214.375	62.46
214.594	111.61
214.812	46.08
215.031	101.37
215.249	78.85
215.467	39.94
215.686	33.79
215.904	140.29
216.122	68.61
216.341	97.28
216.559	41.98
216.778	89.09
216.996	3.07
217.214	15.36
217.432	17.41
217.651	50.18
217.869	39.94
218.087	35.84
218.306	54.27
218.524	148.48
218.742	25.6
218.96	50.18
219.179	76.8
219.397	56.32
219.615	97.28
219.833	74.75
220.051	5.12
220.27	130.05
220.488	66.56
220.706	25.6
220.924	11.26
221.142	78.85
221.36	52.22
221.578	19.46
221.796	37.89
222.015	68.61
222.233	66.56
222.451	21.5
222.669	-15.36
222.887	191.49
223.105	113.66
223.323	84.99
223.541	58.37
223.759	82.94
223.977	99.33
224.195	91.13
224.413	46.08
224.631	68.61
224.849	1.02
225.067	113.66
225.285	-1.02
225.503	105.47
225.721	-1.02
225.939	107.52
226.157	80.89
226.375	93.18
226.592	52.22
226.81	44.03
227.028	72.7
227.246	60.42
227.464	76.8
227.682	50.18
227.9	107.52
228.117	50.18
228.335	89.09
228.553	87.04
228.771	66.56
228.989	99.33
229.206	50.18
229.424	72.7
229.642	3.07
229.86	58.37
230.077	-3.07
230.295	-15.36
230.513	89.09
230.731	134.14
230.948	-17.41
231.166	66.56
231.384	39.94
231.601	3.07
231.819	58.37
232.037	78.85
232.254	17.41
232.472	101.37
232.689	-11.26
232.907	-1.02
233.125	68.61
233.342	31.74
233.56	48.13
233.777	78.85
233.995	66.56
234.213	78.85
234.43	31.74
234.648	-5.12
234.865	25.6
235.083	76.8
235.3	119.81
235.518	134.14
235.735	97.28
235.953	130.05
236.17	37.89
236.388	33.79
236.605	39.94
236.822	58.37
237.04	13.31
237.257	80.89
237.475	37.89
237.692	17.41
237.909	74.75
238.127	78.85
238.344	78.85
238.562	95.23
238.779	17.41
238.996	58.37
239.214	89.09
239.431	84.99
239.648	87.04
239.865	95.23
240.083	87.04
240.3	-21.5
240.517	44.03
240.735	35.84
240.952	103.42
241.169	93.18
241.386	91.13
241.603	80.89
241.821	91.13
242.038	54.27
242.255	64.51
242.472	31.74
242.689	99.33
242.907	15.36
243.124	87.04
243.341	35.84
243.558	115.71
243.775	103.42
243.992	54.27
244.209	78.85
244.426	95.23
244.643	27.65
244.86	37.89
245.078	109.57
245.295	164.86
245.512	58.37
245.729	19.46
245.946	-13.31
246.163	50.18
246.38	209.92
246.597	37.89
246.814	52.22
247.031	46.08
247.248	54.27
247.464	76.8
247.681	31.74
247.898	93.18
248.115	95.23
248.332	11.26
248.549	82.94
248.766	33.79
248.983	70.65
249.2	91.13
249.417	68.61
249.633	41.98
249.85	54.27
250.067	54.27
250.284	107.52
250.501	19.46
250.717	76.8
250.934	64.51
251.151	7.17
251.368	29.7
251.585	66.56
251.801	68.61
252.018	68.61
252.235	25.6
252.451	95.23
252.668	-1.02
252.885	84.99
253.102	21.5
253.318	23.55
253.535	125.95
253.752	68.61
253.968	29.7
254.185	109.57
254.401	11.26
254.618	74.75
254.835	44.03
255.051	99.33
255.268	95.23
255.484	115.71
255.701	130.05
255.917	101.37
256.134	-3.07
256.351	78.85
256.567	66.56
256.784	95.23
257	17.41
257.217	37.89
257.433	25.6
257.65	48.13
257.866	93.18
258.082	54.27
258.299	29.7
258.515	136.19
258.732	76.8
258.948	13.31
259.165	17.41
259.381	84.99
259.597	13.31
259.814	70.65
260.03	62.46
260.246	82.94
260.463	134.14
260.679	111.61
260.895	99.33
261.112	138.24
261.328	7.17
261.544	50.18
261.761	128
261.977	62.46
262.193	41.98
262.409	74.75
262.626	62.46
262.842	60.42
263.058	-41.98
263.274	87.04
263.49	1.02
263.707	27.65
263.923	115.71
264.139	56.32
264.355	52.22
264.571	101.37
264.787	105.47
265.004	97.28
265.22	27.65
265.436	70.65
265.652	33.79
265.868	80.89
266.084	-72.7
266.3	82.94
266.516	54.27
266.732	125.95
266.948	74.75
267.164	35.84
267.38	72.7
267.596	48.13
267.812	60.42
268.028	95.23
268.244	39.94
268.46	46.08
268.676	76.8
268.892	37.89
269.108	80.89
269.324	95.23
269.54	44.03
269.756	97.28
269.972	35.84
270.188	50.18
270.403	52.22
270.619	48.13
270.835	48.13
271.051	128
271.267	50.18
271.483	13.31
271.698	64.51
271.914	72.7
272.13	125.95
272.346	21.5
272.562	70.65
272.777	97.28
272.993	39.94
273.209	76.8
273.425	17.41
273.64	66.56
273.856	39.94
274.072	25.6
274.287	80.89
274.503	62.46
274.719	95.23
274.934	58.37
275.15	-5.12
275.366	76.8
275.581	125.95
275.797	119.81
276.012	7.17
276.228	50.18
276.444	60.42
276.659	101.37
276.875	82.94
277.09	130.05
277.306	80.89
277.521	115.71
277.737	52.22
277.952	64.51
278.168	68.61
278.383	93.18
278.599	54.27
278.814	21.5
279.03	48.13
279.245	70.65
279.461	-50.18
279.676	37.89
279.892	35.84
280.107	62.46
280.322	27.65
280.538	84.99
280.753	41.98
280.969	91.13
281.184	66.56
281.399	74.75
281.615	9.22
281.83	125.95
282.045	-15.36
282.26	19.46
282.476	58.37
282.691	113.66
282.906	23.55
283.122	74.75
283.337	62.46
283.552	128
283.767	87.04
283.983	58.37
284.198	109.57
284.413	91.13
284.628	50.18
284.843	29.7
285.058	132.09
285.274	87.04
285.489	46.08
285.704	87.04
285.919	56.32
286.134	48.13
286.349	52.22
286.564	60.42
286.779	111.61
286.995	95.23
287.21	103.42
287.425	175.1
287.64	41.98
287.855	111.61
288.07	35.84
288.285	70.65
288.5	117.76
288.715	121.85
288.93	89.09
289.145	29.7
289.36	68.61
289.575	99.33
289.79	31.74
290.004	58.37
290.219	72.7
290.434	54.27
290.649	125.95
290.864	-9.22
291.079	-17.41
291.294	101.37
291.509	64.51
291.724	99.33
291.938	119.81
292.153	80.89
292.368	-1.02
292.583	70.65
292.798	119.81
293.012	46.08
293.227	101.37
293.442	121.85
293.657	39.94
293.871	134.14
294.086	39.94
294.301	87.04
294.516	72.7
294.73	31.74
294.945	29.7
295.16	37.89
295.374	68.61
295.589	128
295.804	72.7
296.018	80.89
296.233	121.85
296.447	78.85
296.662	25.6
296.877	72.7
297.091	82.94
297.306	52.22
297.52	11.26
297.735	25.6
297.949	37.89
298.164	89.09
298.378	46.08
298.593	41.98
298.807	56.32
299.022	119.81
299.236	58.37
299.451	48.13
299.665	33.79
299.88	-19.46
300.094	80.89
300.309	99.33
300.523	11.26
300.737	82.94
300.952	17.41
301.166	39.94
301.381	148.48
301.595	5.12
301.809	60.42
302.024	35.84
302.238	17.41
302.452	64.51
302.667	93.18
302.881	156.67
303.095	148.48
303.309	107.52
303.524	76.8
303.738	56.32
303.952	101.37
304.166	91.13
304.381	58.37
304.595	70.65
304.809	37.89
305.023	80.89
305.237	33.79
305.452	21.5
305.666	15.36
305.88	158.72
306.094	78.85
306.308	54.27
306.522	37.89
306.736	107.52
306.95	35.84
307.164	95.23
307.379	144.38
307.593	64.51
307.807	109.57
308.021	109.57
308.235	142.33
308.449	66.56
308.663	84.99
308.877	80.89
309.091	91.13
309.305	33.79
309.519	9.22
309.733	132.09
309.947	1.02
310.161	134.14
310.374	62.46
310.588	123.9
310.802	109.57
311.016	48.13
311.23	95.23
311.444	74.75
311.658	82.94
311.872	80.89
312.085	113.66
312.299	78.85
312.513	39.94
312.727	46.08
312.941	44.03
313.154	78.85
313.368	58.37
313.582	82.94
313.796	80.89
314.009	1.02
314.223	37.89
314.437	13.31
314.651	70.65
314.864	52.22
315.078	62.46
315.292	48.13
315.505	50.18
315.719	70.65
315.933	7.17
316.146	56.32
316.36	31.74
316.573	93.18
316.787	70.65
317.001	64.51
317.214	41.98
317.428	37.89
317.641	103.42
317.855	58.37
318.068	115.71
318.282	60.42
318.495	109.57
318.709	60.42
318.922	60.42
319.136	76.8
319.349	128
319.563	52.22
319.776	91.13
319.99	33.79
320.203	111.61
320.417	82.94
320.63	99.33
320.843	146.43
321.057	27.65
321.27	87.04
321.483	33.79
321.697	164.86
321.91	115.71
322.124	66.56
322.337	41.98
322.55	84.99
322.763	115.71
322.977	97.28
323.19	39.94
323.403	19.46
323.617	25.6
323.83	111.61
324.043	-15.36
324.256	54.27
324.469	68.61
324.683	-7.17
324.896	27.65
325.109	132.09
325.322	97.28
325.535	82.94
325.748	138.24
325.962	74.75
326.175	44.03
326.388	82.94
326.601	21.5
326.814	111.61
327.027	44.03
327.24	99.33
327.453	46.08
327.666	35.84
327.879	80.89
328.092	39.94
328.305	44.03
328.518	62.46
328.731	74.75
328.944	44.03
329.157	130.05
329.37	109.57
329.583	56.32
329.796	150.53
330.009	93.18
330.222	136.19
330.435	64.51
330.648	87.04
330.861	80.89
331.073	109.57
331.286	107.52
331.499	72.7
331.712	109.57
331.925	76.8
332.138	46.08
332.35	25.6
332.563	76.8
332.776	101.37
332.989	-1.02
333.202	101.37
333.414	109.57
333.627	74.75
333.84	89.09
334.053	3.07
334.265	152.57
334.478	44.03
334.691	41.98
334.903	150.53
335.116	17.41
335.329	123.9
335.541	89.09
335.754	82.94
335.966	111.61
336.179	107.52
336.392	31.74
336.604	93.18
336.817	103.42
337.029	58.37
337.242	78.85
337.454	31.74
337.667	119.81
337.88	117.76
338.092	105.47
338.305	70.65
338.517	29.7
338.729	150.53
338.942	60.42
339.154	11.26
339.367	17.41
339.579	74.75
339.792	107.52
340.004	117.76
340.217	89.09
340.429	142.33
340.641	41.98
340.854	60.42
341.066	41.98
341.278	111.61
341.491	52.22
341.703	99.33
341.915	19.46
342.128	105.47
342.34	68.61
342.552	54.27
342.764	41.98
342.977	119.81
343.189	84.99
343.401	48.13
343.613	37.89
343.826	105.47
344.038	80.89
344.25	84.99
344.462	52.22
344.674	64.51
344.886	37.89
345.099	119.81
345.311	74.75
345.523	74.75
345.735	62.46
345.947	101.37
346.159	113.66
346.371	111.61
346.583	93.18
346.795	68.61
347.007	111.61
347.219	134.14
347.431	52.22
347.643	119.81
347.855	64.51
348.067	21.5
348.279	37.89
348.491	31.74
348.703	130.05
348.915	95.23
349.127	99.33
349.339	134.14
349.551	25.6
349.763	78.85
349.975	111.61
350.187	84.99
350.399	123.9
350.61	119.81
350.822	29.7
351.034	74.75
351.246	72.7
351.458	87.04
351.669	103.42
351.881	111.61
352.093	136.19
352.305	87.04
352.517	119.81
352.728	91.13
352.94	82.94
353.152	117.76
353.363	89.09
353.575	68.61
353.787	111.61
353.999	64.51
354.21	82.94
354.422	115.71
354.633	44.03
354.845	17.41
355.057	58.37
355.268	123.9
355.48	95.23
355.692	19.46
355.903	113.66
356.115	142.33
356.326	76.8
356.538	144.38
356.749	136.19
356.961	128
357.172	99.33
357.384	158.72
357.595	66.56
357.807	87.04
358.018	72.7
358.23	105.47
358.441	115.71
358.653	109.57
358.864	99.33
359.075	105.47
359.287	33.79
359.498	138.24
359.709	54.27
359.921	160.77
360.132	132.09
360.344	142.33
360.555	148.48
360.766	39.94
360.977	33.79
361.189	101.37
361.4	117.76
361.611	97.28
361.823	156.67
362.034	33.79
362.245	74.75
362.456	82.94
362.667	46.08
362.879	93.18
363.09	50.18
363.301	119.81
363.512	66.56
363.723	58.37
363.935	44.03
364.146	144.38
364.357	117.76
364.568	95.23
364.779	76.8
364.99	15.36
365.201	128
365.412	148.48
365.623	27.65
365.834	99.33
366.045	140.29
366.256	89.09
366.467	84.99
366.678	115.71
366.889	31.74
367.1	95.23
367.311	107.52
367.522	156.67
367.733	154.62
367.944	113.66
368.155	119.81
368.366	125.95
368.577	46.08
368.788	142.33
368.999	103.42
369.209	50.18
369.42	115.71
369.631	216.06
369.842	87.04
370.053	101.37
370.264	64.51
370.474	78.85
370.685	68.61
370.896	109.57
371.107	95.23
371.317	82.94
371.528	46.08
371.739	152.57
371.95	103.42
372.16	101.37
372.371	33.79
372.582	87.04
372.792	138.24
373.003	52.22
373.214	99.33
373.424	76.8
373.635	103.42
373.846	150.53
374.056	87.04
374.267	50.18
374.477	31.74
374.688	142.33
374.898	150.53
375.109	52.22
375.319	82.94
375.53	105.47
375.74	154.62
375.951	44.03
376.161	130.05
376.372	142.33
376.582	15.36
376.793	62.46
377.003	39.94
377.214	125.95
377.424	117.76
377.635	130.05
377.845	68.61
378.055	101.37
378.266	44.03
378.476	105.47
378.686	48.13
378.897	23.55
379.107	101.37
379.317	138.24
379.528	99.33
379.738	113.66
379.948	70.65
380.158	201.72
380.369	91.13
380.579	64.51
380.789	119.81
380.999	177.15
381.21	52.22
381.42	103.42
381.63	68.61
381.84	119.81
382.05	125.95
382.261	80.89
382.471	84.99
382.681	84.99
382.891	156.67
383.101	154.62
383.311	74.75
383.521	119.81
383.731	144.38
383.941	99.33
384.151	125.95
384.361	78.85
384.571	95.23
384.781	74.75
384.991	111.61
385.201	107.52
385.411	87.04
385.621	101.37
385.831	109.57
386.041	138.24
386.251	82.94
386.461	84.99
386.671	80.89
386.881	91.13
387.091	54.27
387.301	62.46
387.511	58.37
387.72	35.84
387.93	91.13
388.14	136.19
388.35	123.9
388.56	162.81
388.769	179.2
388.979	58.37
389.189	41.98
389.399	173.05
389.609	142.33
389.818	95.23
390.028	134.14
390.238	76.8
390.447	117.76
390.657	164.86
390.867	140.29
391.076	160.77
391.286	115.71
391.496	138.24
391.705	46.08
391.915	97.28
392.125	146.43
392.334	160.77
392.544	105.47
392.753	134.14
392.963	128
393.172	160.77
393.382	35.84
393.591	154.62
393.801	166.91
394.01	168.96
394.22	177.15
394.429	160.77
394.639	203.77
394.848	140.29
395.058	99.33
395.267	144.38
395.477	187.39
395.686	181.25
395.895	150.53
396.105	252.92
396.314	152.57
396.524	152.57
396.733	185.34
396.942	128
397.152	269.31
397.361	244.73
397.57	175.1
397.78	189.44
397.989	203.77
398.198	142.33
398.407	166.91
398.617	201.72
398.826	123.9
399.035	138.24
399.244	214.01
399.453	111.61
399.663	191.49
399.872	195.58
400.081	132.09
400.29	228.35
400.499	246.78
400.708	152.57
400.917	113.66
401.127	222.2
401.336	132.09
401.545	232.44
401.754	142.33
401.963	177.15
402.172	189.44
402.381	179.2
402.59	171.01
402.799	242.68
403.008	205.82
403.217	240.64
403.426	185.34
403.635	152.57
403.844	216.06
404.053	287.74
404.262	300.03
404.471	322.56
404.68	158.72
404.888	306.17
405.097	162.81
405.306	242.68
405.515	242.68
405.724	220.16
405.933	347.13
406.142	214.01
406.35	275.45
406.559	242.68
406.768	295.93
406.977	379.9
407.185	338.94
407.394	320.51
407.603	293.88
407.812	412.67
408.02	386.04
408.229	283.64
408.438	400.38
408.646	424.95
408.855	355.32
409.064	476.15
409.272	404.47
409.481	410.62
409.69	424.95
409.898	478.2
410.107	420.86
410.315	498.68
410.524	508.92
410.733	504.82
410.941	478.2
411.15	576.5
411.358	590.84
411.567	607.22
411.775	594.93
411.984	611.32
412.192	670.71
412.401	672.76
412.609	709.62
412.818	707.57
413.026	748.53
413.234	785.4
413.443	771.06
413.651	809.97
413.86	844.79
414.068	967.67
414.276	883.7
414.485	961.52
414.693	918.51
414.901	1037.3
415.11	1039.34
415.318	1051.63
415.526	1080.3
415.734	1111.02
415.943	1197.04
416.151	1201.13
416.359	1281
416.567	1338.35
416.776	1342.44
416.984	1389.55
417.192	1385.45
417.4	1551.34
417.608	1407.98
417.817	1594.34
418.025	1631.21
418.233	1717.22
418.441	1672.17
418.649	1758.18
418.857	1889.25
419.065	1854.44
419.273	1848.29
419.481	2110.43
419.689	2069.47
419.897	2266.08
420.105	2241.5
420.313	2280.41
420.521	2417.63
420.729	2491.35
420.937	2474.97
421.145	2618.33
421.353	2626.52
421.561	2851.8
421.769	2843.6
421.977	3126.22
422.185	2853.84
422.393	3132.37
422.601	3359.69
422.809	3249.1
423.017	3320.78
423.224	3587.02
423.432	3623.88
423.64	3736.52
423.848	3922.88
424.056	3922.88
424.263	4182.98
424.471	4225.98
424.679	4295.61
424.887	4725.69
425.094	4828.09
425.302	4572.09
425.51	4793.27
425.718	5196.72
425.925	5075.89
426.133	5317.55
426.341	5467.05
426.548	5882.79
426.756	5786.54
426.964	5815.21
427.171	6192.03
427.379	6372.25
427.586	6486.94
427.794	6667.16
428.001	7111.57
428.209	7170.96
428.417	7332.75
428.624	7746.44
428.832	7754.63
429.039	7771.02
429.247	7719.82
429.454	8336.26
429.662	8907.64
429.869	8518.53
430.076	9048.95
430.284	8629.12
430.491	9311.09
430.699	9649
430.906	9681.77
431.114	9761.64
431.321	10066.79
431.528	10593.12
431.736	11021.14
431.943	11332.44
432.15	11391.83
432.358	11236.18
432.565	11967.31
432.772	11928.39
432.979	12487.49
433.187	12608.32
433.394	12868.41
433.601	13740.85
433.808	13785.9
434.016	13574.96
434.223	14275.37
434.43	14813.98
434.637	14801.69
434.844	15633.17
435.052	16139.02
435.259	15885.07
435.466	16179.98
435.673	15754
435.88	16925.44
436.087	17740.53
436.294	17900.27
436.501	17201.91
436.708	17765.1
436.915	18586.34
437.122	19210.97
437.329	19014.37
437.537	19669.72
437.743	20300.49
437.95	19739.35
438.157	21088.96
438.364	21779.12
438.571	21445.3
438.778	21723.83
438.985	23591.58
439.192	22946.47
439.399	23722.65
439.606	22930.08
439.813	24320.65
440.02	25768.57
440.227	25463.42
440.433	24951.43
440.64	26126.96
440.847	25670.26
441.054	26872.42
441.261	28207.7
441.467	27544.16
441.674	28336.72
441.881	29581.88
442.088	29067.84
442.294	29033.03
442.501	29893.18
442.708	30624.3
442.914	31744.54
443.121	32911.88
443.328	31969.82
443.534	34023.93
443.741	33511.94
443.948	33092.1
444.154	35248.61
444.361	35271.14
444.568	35181.03
444.774	35490.27
444.981	35758.56
445.187	36966.86
445.394	38412.73
445.6	37878.21
445.807	41324.94
446.013	39768.48
446.22	40649.11
446.426	41781.63
446.633	42137.98
446.839	43489.64
447.046	41869.7
447.252	44495.19
447.459	44427.61
447.665	43989.34
447.871	45853
448.078	47536.43
448.284	45846.85
448.491	46860.6
448.697	49193.23
448.903	49781
449.11	49834.25
449.316	48892.18
449.522	49615.11
449.728	51120.37
449.935	51106.04
450.141	51632.36
450.347	52418.78
450.553	50761.98
450.76	51628.27
450.966	53211.35
451.172	52617.44
451.378	54046.92
451.584	53094.61
451.791	54241.48
451.997	53633.23
452.203	54806.72
452.409	54872.25
452.615	54579.39
452.821	52562.14
453.027	52252.9
453.233	54503.62
453.44	52566.24
453.646	53211.35
453.852	53612.75
454.058	54302.92
454.264	52453.6
454.47	53872.84
454.676	52377.82
454.882	54679.74
455.088	50032.9
455.294	50338.05
455.5	51513.58
455.705	51716.33
455.911	50090.24
456.117	49336.59
456.323	48171.3
456.529	46106.94
456.735	47866.15
456.941	46758.2
457.147	45775.17
457.352	43927.91
457.558	44044.64
457.764	43540.84
457.97	43159.92
458.176	42158.46
458.381	42146.17
458.587	40352.15
458.793	40515.99
458.999	37925.31
459.204	41163.15
459.41	40100.25
459.616	37161.42
459.821	37319.11
460.027	37724.61
460.233	36327.89
460.438	34501.11
460.644	34886.12
460.85	33436.16
461.055	33141.25
461.261	32539.15
461.466	30280.24
461.672	29323.84
461.878	31328.8
462.083	29557.31
462.289	29024.84
462.494	28768.84
462.7	27542.11
462.905	26677.86
463.111	27517.53
463.316	27892.31
463.522	27073.12
463.727	26892.9
463.932	26868.33
464.138	26614.38
464.343	26778.22
464.549	26165.87
464.754	26858.09
464.959	26610.28
465.165	26798.7
465.37	25555.58
465.575	24638.09
