Data from USB4F104151__52__12-36-16-396.txt Node

Date: Fri Mar 14 12:36:16 EDT 2025
User: louis
Spectrometer: USB4F10415
Trigger mode: 4
Integration Time (sec): 2.000000E-2
Scans to average: 1
Electric dark correction enabled: true
Nonlinearity correction enabled: false
Boxcar width: 0
XAxis mode: Wavelengths
Number of Pixels in Spectrum: 3648
>>>>>Begin Spectral Data<<<<<
178.204	-81.92
178.424	-81.92
178.644	-81.92
178.864	-98.3
179.084	-102.4
179.304	-55.3
179.524	32.77
179.744	16.38
179.964	67.58
180.184	8.19
180.404	8.19
180.624	-4.1
180.844	49.15
181.064	-88.06
181.283	-30.72
181.503	-57.34
181.723	53.25
181.943	14.34
182.163	-10.24
182.383	32.77
182.602	30.72
182.822	12.29
183.042	43.01
183.262	-8.19
183.482	36.86
183.701	53.25
183.921	-20.48
184.141	-36.86
184.361	122.88
184.58	18.43
184.8	20.48
185.02	-34.82
185.239	32.77
185.459	-20.48
185.679	65.53
185.898	-10.24
186.118	-10.24
186.338	-10.24
186.557	24.58
186.777	0
186.997	-14.34
187.216	20.48
187.436	-18.43
187.655	-57.34
187.875	57.34
188.095	30.72
188.314	122.88
188.534	96.25
188.753	0
188.973	18.43
189.192	165.89
189.412	45.06
189.631	12.29
189.851	-18.43
190.07	-26.62
190.29	-16.38
190.509	38.91
190.729	-30.72
190.948	59.39
191.168	38.91
191.387	-10.24
191.607	14.34
191.826	4.1
192.045	6.14
192.265	-16.38
192.484	32.77
192.704	20.48
192.923	10.24
193.142	38.91
193.362	6.14
193.581	86.01
193.8	88.06
194.02	16.38
194.239	-30.72
194.458	-28.67
194.678	-6.14
194.897	36.86
195.116	8.19
195.335	-14.34
195.555	57.34
195.774	28.67
195.993	-12.29
196.212	-28.67
196.432	28.67
196.651	-45.06
196.87	24.58
197.089	86.01
197.308	55.3
197.528	49.15
197.747	88.06
197.966	-63.49
198.185	94.21
198.404	2.05
198.623	55.3
198.842	36.86
199.062	38.91
199.281	79.87
199.5	57.34
199.719	38.91
199.938	47.1
200.157	110.59
200.376	30.72
200.595	45.06
200.814	14.34
201.033	2.05
201.252	8.19
201.471	75.77
201.69	36.86
201.909	40.96
202.128	-14.34
202.347	63.49
202.566	49.15
202.785	32.77
203.004	-53.25
203.223	51.2
203.442	2.05
203.661	14.34
203.879	10.24
204.098	96.25
204.317	-14.34
204.536	-16.38
204.755	53.25
204.974	53.25
205.193	22.53
205.411	32.77
205.63	36.86
205.849	57.34
206.068	83.97
206.287	-28.67
206.505	86.01
206.724	-34.82
206.943	-51.2
207.162	18.43
207.381	30.72
207.599	10.24
207.818	-14.34
208.037	47.1
208.255	106.49
208.474	-16.38
208.693	81.92
208.911	61.44
209.13	24.58
209.349	-10.24
209.567	40.96
209.786	24.58
210.005	0
210.223	-6.14
210.442	14.34
210.661	43.01
210.879	-16.38
211.098	24.58
211.316	26.62
211.535	30.72
211.753	18.43
211.972	63.49
212.191	-20.48
212.409	4.1
212.628	22.53
212.846	4.1
213.065	38.91
213.283	-8.19
213.502	16.38
213.72	20.48
213.938	36.86
214.157	55.3
214.375	-4.1
214.594	28.67
214.812	61.44
215.031	40.96
215.249	-2.05
215.467	30.72
215.686	36.86
215.904	34.82
216.122	49.15
216.341	10.24
216.559	-22.53
216.778	10.24
216.996	20.48
217.214	-4.1
217.432	-10.24
217.651	16.38
217.869	-12.29
218.087	-34.82
218.306	53.25
218.524	-28.67
218.742	4.1
218.96	-18.43
219.179	-6.14
219.397	47.1
219.615	30.72
219.833	-2.05
220.051	-38.91
220.27	-36.86
220.488	45.06
220.706	43.01
220.924	38.91
221.142	-4.1
221.36	-14.34
221.578	12.29
221.796	65.53
222.015	4.1
222.233	83.97
222.451	34.82
222.669	55.3
222.887	63.49
223.105	10.24
223.323	32.77
223.541	-10.24
223.759	100.35
223.977	-14.34
224.195	47.1
224.413	24.58
224.631	63.49
224.849	-14.34
225.067	-18.43
225.285	0
225.503	71.68
225.721	-24.58
225.939	-65.54
226.157	73.73
226.375	102.4
226.592	30.72
226.81	-22.53
227.028	-4.1
227.246	83.97
227.464	38.91
227.682	22.53
227.9	6.14
228.117	-8.19
228.335	2.05
228.553	-6.14
228.771	59.39
228.989	32.77
229.206	57.34
229.424	51.2
229.642	-12.29
229.86	22.53
230.077	45.06
230.295	10.24
230.513	69.63
230.731	0
230.948	51.2
231.166	10.24
231.384	30.72
231.601	-38.91
231.819	26.62
232.037	34.82
232.254	10.24
232.472	20.48
232.689	2.05
232.907	2.05
233.125	8.19
233.342	-20.48
233.56	-16.38
233.777	-47.1
233.995	86.01
234.213	18.43
234.43	0
234.648	-12.29
234.865	6.14
235.083	18.43
235.3	12.29
235.518	38.91
235.735	-32.77
235.953	65.53
236.17	-4.1
236.388	59.39
236.605	55.3
236.822	71.68
237.04	26.62
237.257	30.72
237.475	-4.1
237.692	-18.43
237.909	57.34
238.127	32.77
238.344	43.01
238.562	20.48
238.779	38.91
238.996	83.97
239.214	36.86
239.431	28.67
239.648	-67.58
239.865	67.58
240.083	126.97
240.3	-36.86
240.517	-43.01
240.735	94.21
240.952	88.06
241.169	8.19
241.386	47.1
241.603	12.29
241.821	-4.1
242.038	47.1
242.255	-47.1
242.472	10.24
242.689	-36.86
242.907	34.82
243.124	2.05
243.341	-53.25
243.558	26.62
243.775	0
243.992	20.48
244.209	8.19
244.426	51.2
244.643	49.15
244.86	12.29
245.078	26.62
245.295	67.58
245.512	-53.25
245.729	-32.77
245.946	2.05
246.163	69.63
246.38	92.16
246.597	24.58
246.814	36.86
247.031	-24.58
247.248	106.49
247.464	-2.05
247.681	0
247.898	16.38
248.115	40.96
248.332	-26.62
248.549	67.58
248.766	16.38
248.983	24.58
249.2	-34.82
249.417	88.06
249.633	-6.14
249.85	22.53
250.067	67.58
250.284	22.53
250.501	-4.1
250.717	81.92
250.934	16.38
251.151	47.1
251.368	10.24
251.585	18.43
251.801	-20.48
252.018	0
252.235	-2.05
252.451	-12.29
252.668	-6.14
252.885	49.15
253.102	10.24
253.318	-45.06
253.535	-6.14
253.752	-8.19
253.968	53.25
254.185	30.72
254.401	38.91
254.618	34.82
254.835	-16.38
255.051	53.25
255.268	34.82
255.484	32.77
255.701	-16.38
255.917	63.49
256.134	-32.77
256.351	47.1
256.567	34.82
256.784	-22.53
257	-2.05
257.217	43.01
257.433	6.14
257.65	22.53
257.866	20.48
258.082	20.48
258.299	-28.67
258.515	6.14
258.732	-12.29
258.948	59.39
259.165	12.29
259.381	38.91
259.597	43.01
259.814	20.48
260.03	47.1
260.246	-2.05
260.463	8.19
260.679	67.58
260.895	32.77
261.112	98.3
261.328	16.38
261.544	-20.48
261.761	94.21
261.977	67.58
262.193	38.91
262.409	18.43
262.626	90.11
262.842	16.38
263.058	18.43
263.274	38.91
263.49	8.19
263.707	10.24
263.923	38.91
264.139	73.73
264.355	2.05
264.571	61.44
264.787	20.48
265.004	24.58
265.22	-53.25
265.436	38.91
265.652	0
265.868	10.24
266.084	6.14
266.3	75.77
266.516	-8.19
266.732	-8.19
266.948	0
267.164	65.53
267.38	14.34
267.596	2.05
267.812	63.49
268.028	57.34
268.244	18.43
268.46	0
268.676	28.67
268.892	40.96
269.108	57.34
269.324	-24.58
269.54	92.16
269.756	49.15
269.972	14.34
270.188	30.72
270.403	-18.43
270.619	92.16
270.835	6.14
271.051	34.82
271.267	12.29
271.483	6.14
271.698	20.48
271.914	43.01
272.13	12.29
272.346	65.53
272.562	45.06
272.777	-12.29
272.993	-16.38
273.209	61.44
273.425	45.06
273.64	16.38
273.856	20.48
274.072	6.14
274.287	-8.19
274.503	0
274.719	88.06
274.934	-22.53
275.15	-8.19
275.366	63.49
275.581	-28.67
275.797	14.34
276.012	-63.49
276.228	59.39
276.444	-8.19
276.659	10.24
276.875	6.14
277.09	-2.05
277.306	-45.06
277.521	86.01
277.737	79.87
277.952	-43.01
278.168	79.87
278.383	53.25
278.599	47.1
278.814	38.91
279.03	16.38
279.245	45.06
279.461	8.19
279.676	49.15
279.892	-16.38
280.107	-10.24
280.322	-8.19
280.538	18.43
280.753	36.86
280.969	-8.19
281.184	71.68
281.399	92.16
281.615	75.77
281.83	47.1
282.045	-24.58
282.26	-20.48
282.476	55.3
282.691	81.92
282.906	-12.29
283.122	69.63
283.337	67.58
283.552	-8.19
283.767	53.25
283.983	49.15
284.198	-47.1
284.413	-30.72
284.628	6.14
284.843	-8.19
285.058	12.29
285.274	77.82
285.489	4.1
285.704	30.72
285.919	20.48
286.134	-8.19
286.349	8.19
286.564	20.48
286.779	71.68
286.995	43.01
287.21	-47.1
287.425	59.39
287.64	43.01
287.855	61.44
288.07	92.16
288.285	112.64
288.5	4.1
288.715	28.67
288.93	-26.62
289.145	6.14
289.36	67.58
289.575	30.72
289.79	73.73
290.004	-2.05
290.219	30.72
290.434	26.62
290.649	88.06
290.864	83.97
291.079	18.43
291.294	96.25
291.509	65.53
291.724	30.72
291.938	4.1
292.153	4.1
292.368	22.53
292.583	6.14
292.798	53.25
293.012	79.87
293.227	102.4
293.442	43.01
293.657	28.67
293.871	49.15
294.086	53.25
294.301	-2.05
294.516	106.49
294.73	-8.19
294.945	40.96
295.16	83.97
295.374	75.77
295.589	57.34
295.804	-34.82
296.018	-30.72
296.233	26.62
296.447	59.39
296.662	22.53
296.877	51.2
297.091	12.29
297.306	-4.1
297.52	53.25
297.735	112.64
297.949	14.34
298.164	24.58
298.378	63.49
298.593	20.48
298.807	30.72
299.022	-24.58
299.236	26.62
299.451	67.58
299.665	26.62
299.88	63.49
300.094	69.63
300.309	-8.19
300.523	-10.24
300.737	10.24
300.952	22.53
301.166	0
301.381	16.38
301.595	-26.62
301.809	51.2
302.024	0
302.238	-18.43
302.452	51.2
302.667	-16.38
302.881	-26.62
303.095	51.2
303.309	28.67
303.524	-34.82
303.738	49.15
303.952	51.2
304.166	24.58
304.381	18.43
304.595	108.54
304.809	65.53
305.023	26.62
305.237	14.34
305.452	57.34
305.666	-30.72
305.88	22.53
306.094	40.96
306.308	8.19
306.522	75.77
306.736	61.44
306.95	26.62
307.164	59.39
307.379	-45.06
307.593	96.25
307.807	59.39
308.021	65.53
308.235	4.1
308.449	-8.19
308.663	0
308.877	32.77
309.091	32.77
309.305	-12.29
309.519	16.38
309.733	-16.38
309.947	-18.43
310.161	106.49
310.374	47.1
310.588	100.35
310.802	-53.25
311.016	53.25
311.23	-8.19
311.444	16.38
311.658	57.34
311.872	47.1
312.085	24.58
312.299	-2.05
312.513	49.15
312.727	-36.86
312.941	30.72
313.154	40.96
313.368	-47.1
313.582	88.06
313.796	14.34
314.009	-16.38
314.223	59.39
314.437	51.2
314.651	51.2
314.864	49.15
315.078	34.82
315.292	-28.67
315.505	90.11
315.719	45.06
315.933	32.77
316.146	34.82
316.36	-14.34
316.573	30.72
316.787	18.43
317.001	32.77
317.214	-22.53
317.428	63.49
317.641	24.58
317.855	12.29
318.068	100.35
318.282	112.64
318.495	61.44
318.709	28.67
318.922	0
319.136	43.01
319.349	55.3
319.563	12.29
319.776	-12.29
319.99	-75.77
320.203	106.49
320.417	-12.29
320.63	22.53
320.843	38.91
321.057	147.45
321.27	55.3
321.483	10.24
321.697	92.16
321.91	43.01
322.124	26.62
322.337	14.34
322.55	45.06
322.763	83.97
322.977	55.3
323.19	-14.34
323.403	59.39
323.617	-12.29
323.83	81.92
324.043	55.3
324.256	-16.38
324.469	53.25
324.683	61.44
324.896	-14.34
325.109	-4.1
325.322	14.34
325.535	65.53
325.748	94.21
325.962	61.44
326.175	18.43
326.388	47.1
326.601	0
326.814	18.43
327.027	75.77
327.24	104.45
327.453	36.86
327.666	24.58
327.879	86.01
328.092	36.86
328.305	98.3
328.518	40.96
328.731	-12.29
328.944	45.06
329.157	-2.05
329.37	57.34
329.583	94.21
329.796	38.91
330.009	26.62
330.222	24.58
330.435	53.25
330.648	61.44
330.861	65.53
331.073	-16.38
331.286	4.1
331.499	90.11
331.712	-18.43
331.925	92.16
332.138	16.38
332.35	57.34
332.563	77.82
332.776	-2.05
332.989	100.35
333.202	-16.38
333.414	43.01
333.627	51.2
333.84	20.48
334.053	43.01
334.265	22.53
334.478	-6.14
334.691	16.38
334.903	8.19
335.116	77.82
335.329	94.21
335.541	49.15
335.754	124.93
335.966	10.24
336.179	20.48
336.392	14.34
336.604	100.35
336.817	71.68
337.029	10.24
337.242	51.2
337.454	55.3
337.667	-30.72
337.88	6.14
338.092	-4.1
338.305	65.53
338.517	81.92
338.729	61.44
338.942	40.96
339.154	51.2
339.367	-18.43
339.579	8.19
339.792	-16.38
340.004	28.67
340.217	-8.19
340.429	122.88
340.641	18.43
340.854	12.29
341.066	22.53
341.278	88.06
341.491	22.53
341.703	6.14
341.915	22.53
342.128	24.58
342.34	-20.48
342.552	-22.53
342.764	51.2
342.977	67.58
343.189	110.59
343.401	51.2
343.613	-24.58
343.826	-18.43
344.038	96.25
344.25	38.91
344.462	59.39
344.674	28.67
344.886	2.05
345.099	126.97
345.311	47.1
345.523	36.86
345.735	65.53
345.947	61.44
346.159	57.34
346.371	96.25
346.583	28.67
346.795	16.38
347.007	40.96
347.219	73.73
347.431	0
347.643	8.19
347.855	51.2
348.067	22.53
348.279	-14.34
348.491	96.25
348.703	26.62
348.915	38.91
349.127	-8.19
349.339	18.43
349.551	-22.53
349.763	22.53
349.975	-14.34
350.187	49.15
350.399	126.97
350.61	57.34
350.822	4.1
351.034	40.96
351.246	53.25
351.458	38.91
351.669	79.87
351.881	69.63
352.093	92.16
352.305	61.44
352.517	43.01
352.728	67.58
352.94	45.06
353.152	28.67
353.363	-22.53
353.575	102.4
353.787	79.87
353.999	139.26
354.21	92.16
354.422	122.88
354.633	-24.58
354.845	-26.62
355.057	28.67
355.268	38.91
355.48	79.87
355.692	10.24
355.903	18.43
356.115	26.62
356.326	-22.53
356.538	63.49
356.749	65.53
356.961	81.92
357.172	-38.91
357.384	-30.72
357.595	22.53
357.807	12.29
358.018	10.24
358.23	14.34
358.441	83.97
358.653	53.25
358.864	36.86
359.075	32.77
359.287	16.38
359.498	16.38
359.709	10.24
359.921	86.01
360.132	26.62
360.344	-30.72
360.555	45.06
360.766	100.35
360.977	-38.91
361.189	145.41
361.4	126.97
361.611	6.14
361.823	-2.05
362.034	38.91
362.245	4.1
362.456	10.24
362.667	12.29
362.879	-8.19
363.09	104.45
363.301	57.34
363.512	102.4
363.723	26.62
363.935	40.96
364.146	67.58
364.357	8.19
364.568	-12.29
364.779	10.24
364.99	86.01
365.201	10.24
365.412	47.1
365.623	-4.1
365.834	65.53
366.045	81.92
366.256	69.63
366.467	63.49
366.678	90.11
366.889	61.44
367.1	20.48
367.311	45.06
367.522	-34.82
367.733	102.4
367.944	40.96
368.155	65.53
368.366	38.91
368.577	67.58
368.788	-14.34
368.999	38.91
369.209	49.15
369.42	106.49
369.631	14.34
369.842	59.39
370.053	20.48
370.264	12.29
370.474	67.58
370.685	22.53
370.896	16.38
371.107	61.44
371.317	102.4
371.528	57.34
371.739	96.25
371.95	61.44
372.16	-10.24
372.371	77.82
372.582	45.06
372.792	88.06
373.003	-32.77
373.214	-6.14
373.424	92.16
373.635	10.24
373.846	79.87
374.056	34.82
374.267	63.49
374.477	6.14
374.688	79.87
374.898	102.4
375.109	102.4
375.319	88.06
375.53	63.49
375.74	36.86
375.951	14.34
376.161	55.3
376.372	47.1
376.582	55.3
376.793	-10.24
377.003	-6.14
377.214	65.53
377.424	18.43
377.635	30.72
377.845	14.34
378.055	90.11
378.266	-2.05
378.476	43.01
378.686	98.3
378.897	94.21
379.107	106.49
379.317	45.06
379.528	-18.43
379.738	120.83
379.948	12.29
380.158	88.06
380.369	51.2
380.579	55.3
380.789	57.34
380.999	79.87
381.21	49.15
381.42	77.82
381.63	12.29
381.84	16.38
382.05	51.2
382.261	83.97
382.471	63.49
382.681	73.73
382.891	90.11
383.101	30.72
383.311	-45.06
383.521	-24.58
383.731	22.53
383.941	108.54
384.151	116.73
384.361	24.58
384.571	75.77
384.781	200.7
384.991	22.53
385.201	147.45
385.411	14.34
385.621	79.87
385.831	-14.34
386.041	63.49
386.251	32.77
386.461	45.06
386.671	83.97
386.881	112.64
387.091	-6.14
387.301	108.54
387.511	69.63
387.72	12.29
387.93	47.1
388.14	20.48
388.35	198.65
388.56	100.35
388.769	71.68
388.979	61.44
389.189	-4.1
389.399	26.62
389.609	26.62
389.818	69.63
390.028	-2.05
390.238	88.06
390.447	49.15
390.657	79.87
390.867	53.25
391.076	22.53
391.286	-30.72
391.496	98.3
391.705	30.72
391.915	96.25
392.125	122.88
392.334	63.49
392.544	124.93
392.753	102.4
392.963	59.39
393.172	88.06
393.382	24.58
393.591	86.01
393.801	71.68
394.01	116.73
394.22	51.2
394.429	28.67
394.639	83.97
394.848	147.45
395.058	133.12
395.267	102.4
395.477	32.77
395.686	40.96
395.895	176.13
396.105	120.83
396.314	20.48
396.524	131.07
396.733	79.87
396.942	79.87
397.152	51.2
397.361	92.16
397.57	38.91
397.78	96.25
397.989	90.11
398.198	147.45
398.407	45.06
398.617	98.3
398.826	20.48
399.035	71.68
399.244	180.22
399.453	114.69
399.663	53.25
399.872	122.88
400.081	34.82
400.29	96.25
400.499	122.88
400.708	104.45
400.917	118.78
401.127	149.5
401.336	110.59
401.545	135.17
401.754	165.89
401.963	182.27
402.172	147.45
402.381	112.64
402.59	149.5
402.799	126.97
403.008	151.55
403.217	194.56
403.426	256
403.635	83.97
403.844	114.69
404.053	180.22
404.262	147.45
404.471	169.98
404.68	155.65
404.888	180.22
405.097	139.26
405.306	231.42
405.515	192.51
405.724	157.69
405.933	217.08
406.142	188.41
406.35	178.17
406.559	188.41
406.768	200.7
406.977	237.56
407.185	227.32
407.394	270.33
407.603	104.45
407.812	229.37
408.02	241.66
408.229	270.33
408.438	319.48
408.646	251.9
408.855	241.66
409.064	274.43
409.272	284.67
409.481	305.15
409.69	370.68
409.898	317.44
410.107	380.92
410.315	374.78
410.524	417.79
410.733	319.48
410.941	376.83
411.15	462.84
411.358	337.91
411.567	423.93
411.775	448.51
411.984	561.14
412.192	522.23
412.401	382.97
412.609	583.67
412.818	585.72
413.026	559.1
413.234	612.34
413.443	628.73
413.651	598.01
413.86	571.38
414.068	708.6
414.276	628.73
414.485	657.4
414.693	679.93
414.901	731.12
415.11	796.66
415.318	784.37
415.526	870.39
415.734	882.67
415.943	892.91
416.151	952.31
416.359	997.36
416.567	1036.27
416.776	1023.98
416.984	1112.05
417.192	1155.05
417.4	1077.23
417.608	1177.58
417.817	1163.25
418.025	1136.62
418.233	1255.4
418.441	1300.46
418.649	1388.52
418.857	1589.22
419.065	1474.54
419.273	1503.21
419.481	1628.14
419.689	1560.55
419.897	1652.71
420.105	1722.34
420.313	1816.55
420.521	1849.32
420.729	1869.8
420.937	1880.04
421.145	1964
421.353	2101.22
421.561	2127.84
421.769	2213.85
421.977	2351.07
422.185	2387.93
422.393	2488.28
422.601	2643.93
422.809	2559.96
423.017	2766.81
423.224	2762.71
423.432	2793.43
423.64	2869.2
423.848	3028.95
424.056	3010.51
424.263	3203.02
424.471	3282.89
424.679	3295.18
424.887	3514.31
425.094	3680.2
425.302	3600.33
425.51	3686.34
425.718	3819.46
425.925	3923.91
426.133	4048.83
426.341	4251.58
426.548	4401.08
426.756	4460.48
426.964	4591.55
427.171	4829.11
427.379	4890.55
427.586	4878.26
427.794	5136.31
428.001	5357.49
428.209	5506.99
428.417	5377.97
428.624	5789.61
428.832	5828.52
429.039	6061.99
429.247	5982.12
429.454	6248.35
429.662	6715.29
429.869	6404
430.076	6793.11
430.284	6541.21
430.491	6866.84
430.699	7280.53
430.906	7206.8
431.114	7481.23
431.321	7681.93
431.528	7720.84
431.736	8472.45
431.943	8578.94
432.15	8316.8
432.358	8601.47
432.565	9070.45
432.772	9107.32
432.979	9408.37
433.187	9506.67
433.394	9555.82
433.601	10166.12
433.808	10190.69
434.016	10266.47
434.223	10878.81
434.43	11437.91
434.637	11093.85
434.844	11779.92
435.052	12128.07
435.259	11890.51
435.466	11845.45
435.673	11781.96
435.88	12869.44
436.087	13295.41
436.294	13315.89
436.501	13119.29
436.708	13057.85
436.915	13766.45
437.122	14122.79
437.329	14561.06
437.537	14821.15
437.743	14935.84
437.95	14946.08
438.157	15879.95
438.364	16144.14
438.571	16176.91
438.778	16297.74
438.985	17716.98
439.192	17018.62
439.399	17790.7
439.606	17211.13
439.813	17925.87
440.02	19306.2
440.227	18867.94
440.433	18874.08
440.64	19676.88
440.847	19146.46
441.054	19912.4
441.261	20887.23
441.467	20698.82
441.674	21388.99
441.881	21765.81
442.088	21849.78
442.294	21450.42
442.501	22238.89
442.708	23043.74
442.914	23740.05
443.121	24477.32
443.328	23907.99
443.534	25577.08
443.741	24856.2
443.948	24561.29
444.154	26429.04
444.361	26211.95
444.568	26404.46
444.774	26453.61
444.981	26871.4
445.187	27502.17
445.394	28507.72
445.6	28255.82
445.807	31122.98
446.013	29681.21
446.22	30004.79
446.426	31020.58
446.633	31669.79
446.839	32867.85
447.046	31247.91
447.252	33666.56
447.459	33211.91
447.665	32943.63
447.871	34483.7
448.078	36249.05
448.284	34119.16
448.491	35059.18
448.697	36316.63
448.903	37094.86
449.11	37330.37
449.316	36931.02
449.522	37422.53
449.728	38317.5
449.935	39044.52
450.141	38630.83
450.347	39613.86
450.553	38473.14
450.76	38464.95
450.966	40287.64
451.172	39402.92
451.378	40752.53
451.584	40000.93
451.791	40662.42
451.997	40897.94
452.203	41698.69
452.409	41790.85
452.615	41506.18
452.821	39720.35
453.027	39437.73
453.233	41381.26
453.44	39857.57
453.646	40353.18
453.852	40549.78
454.058	41274.76
454.264	39794.08
454.47	40949.14
454.676	39603.62
454.882	41145.74
455.088	37543.36
455.294	38444.47
455.5	38608.31
455.705	39187.88
455.911	37594.56
456.117	36767.18
456.323	36165.08
456.529	34504.18
456.735	36365.78
456.941	35290.6
457.147	34471.41
457.352	33254.92
457.558	33115.65
457.764	33189.38
457.97	32742.92
458.176	32083.48
458.381	31770.14
458.587	30281.27
458.793	30832.17
458.999	28843.59
459.204	30733.87
459.41	30096.95
459.616	28145.23
459.821	28048.98
460.027	27817.56
460.233	27432.54
460.438	26011.25
460.644	26320.49
460.85	25304.7
461.055	24839.81
461.261	24757.89
461.466	22697.64
461.672	22161.07
461.878	23838.36
462.083	22208.17
462.289	21731
462.494	21808.82
462.7	20573.89
462.905	20246.22
463.111	20860.61
463.316	20969.15
463.522	20408.01
463.727	20375.24
463.932	20510.41
464.138	19998.41
464.343	20344.52
464.549	19717.84
464.754	20461.26
464.959	20109.01
465.165	20172.49
465.37	19128.03
465.575	18511.59
465.781	19359.45
465.986	19605.2
466.191	18874.08
466.397	18708.19
466.602	17698.55
466.807	18306.79
467.012	18523.88
467.218	18151.15
467.423	18022.12
467.628	18261.74
467.833	18302.7
468.038	18183.91
