Data from USB4F104151__61__12-36-30-316.txt Node

Date: Fri Mar 14 12:36:30 EDT 2025
User: louis
Spectrometer: USB4F10415
Trigger mode: 4
Integration Time (sec): 2.000000E-2
Scans to average: 1
Electric dark correction enabled: true
Nonlinearity correction enabled: false
Boxcar width: 0
XAxis mode: Wavelengths
Number of Pixels in Spectrum: 3648
>>>>>Begin Spectral Data<<<<<
178.204	-105.64
178.424	-105.64
178.644	-105.64
178.864	-152.74
179.084	-66.73
179.304	25.43
179.524	-33.96
179.744	9.05
179.964	-17.58
180.184	9.05
180.404	19.29
180.624	23.38
180.844	-9.39
181.064	-95.4
181.283	19.29
181.503	-5.29
181.723	56.15
181.943	80.72
182.163	47.96
182.383	27.48
182.602	-5.29
182.822	47.96
183.042	23.38
183.262	-68.78
183.482	-29.87
183.701	33.62
183.921	66.39
184.141	-48.3
184.361	70.48
184.58	-15.53
184.8	-11.43
185.02	-33.96
185.239	-17.58
185.459	52.05
185.679	-3.24
185.898	-19.63
186.118	90.96
186.338	-15.53
186.557	35.67
186.777	-42.15
186.997	33.62
187.216	50
187.436	80.72
187.655	62.29
187.875	29.52
188.095	-13.48
188.314	23.38
188.534	76.63
188.753	11.09
188.973	52.05
189.192	121.68
189.412	33.62
189.631	-25.77
189.851	9.05
190.07	52.05
190.29	70.48
190.509	39.76
190.729	35.67
190.948	7
191.168	97.11
191.387	-15.53
191.607	-33.96
191.826	117.59
192.045	-5.29
192.265	-38.06
192.484	21.33
192.704	39.76
192.923	-7.34
193.142	101.2
193.362	99.16
193.581	4.95
193.8	27.48
194.02	37.72
194.239	-3.24
194.458	7
194.678	41.81
194.897	80.72
195.116	9.05
195.335	11.09
195.555	15.19
195.774	41.81
195.993	37.72
196.212	13.14
196.432	11.09
196.651	-31.91
196.87	50
197.089	60.24
197.308	88.92
197.528	23.38
197.747	17.24
197.966	45.91
198.185	45.91
198.404	2.9
198.623	-29.87
198.842	82.77
199.062	93.01
199.281	70.48
199.5	88.92
199.719	47.96
199.938	25.43
200.157	41.81
200.376	29.52
200.595	29.52
200.814	105.3
201.033	-5.29
201.252	27.48
201.471	41.81
201.69	15.19
201.909	-17.58
202.128	-7.34
202.347	62.29
202.566	76.63
202.785	31.57
203.004	50
203.223	84.82
203.442	-38.06
203.661	21.33
203.879	19.29
204.098	93.01
204.317	-7.34
204.536	72.53
204.755	88.92
204.974	97.11
205.193	23.38
205.411	56.15
205.63	19.29
205.849	109.4
206.068	47.96
206.287	19.29
206.505	90.96
206.724	66.39
206.943	21.33
207.162	68.44
207.381	35.67
207.599	47.96
207.818	50
208.037	-40.11
208.255	72.53
208.474	19.29
208.693	-29.87
208.911	15.19
209.13	70.48
209.349	60.24
209.567	11.09
209.786	27.48
210.005	86.87
210.223	56.15
210.442	-7.34
210.661	52.05
210.879	39.76
211.098	41.81
211.316	60.24
211.535	72.53
211.753	23.38
211.972	64.34
212.191	15.19
212.409	82.77
212.628	43.86
212.846	-42.15
213.065	19.29
213.283	64.34
213.502	56.15
213.72	64.34
213.938	13.14
214.157	21.33
214.375	72.53
214.594	39.76
214.812	50
215.031	52.05
215.249	25.43
215.467	25.43
215.686	-31.91
215.904	76.63
216.122	29.52
216.341	121.68
216.559	41.81
216.778	39.76
216.996	74.58
217.214	80.72
217.432	0.85
217.651	-42.15
217.869	-19.63
218.087	-7.34
218.306	2.9
218.524	72.53
218.742	-11.43
218.96	78.68
219.179	50
219.397	66.39
219.615	78.68
219.833	29.52
220.051	-3.24
220.27	31.57
220.488	52.05
220.706	35.67
220.924	9.05
221.142	101.2
221.36	-19.63
221.578	19.29
221.796	-19.63
222.015	101.2
222.233	-5.29
222.451	74.58
222.669	29.52
222.887	50
223.105	7
223.323	62.29
223.541	-46.25
223.759	45.91
223.977	-17.58
224.195	82.77
224.413	58.2
224.631	27.48
224.849	7
225.067	103.25
225.285	35.67
225.503	84.82
225.721	66.39
225.939	-29.87
226.157	29.52
226.375	187.22
226.592	58.2
226.81	15.19
227.028	39.76
227.246	9.05
227.464	-21.67
227.682	19.29
227.9	-1.19
228.117	4.95
228.335	-19.63
228.553	27.48
228.771	23.38
228.989	76.63
229.206	2.9
229.424	31.57
229.642	31.57
229.86	-11.43
230.077	60.24
230.295	27.48
230.513	82.77
230.731	41.81
230.948	80.72
231.166	29.52
231.384	127.83
231.601	23.38
231.819	66.39
232.037	68.44
232.254	90.96
232.472	68.44
232.689	19.29
232.907	37.72
233.125	4.95
233.342	80.72
233.56	27.48
233.777	109.4
233.995	31.57
234.213	129.88
234.43	60.24
234.648	29.52
234.865	-5.29
235.083	43.86
235.3	60.24
235.518	15.19
235.735	125.78
235.953	72.53
236.17	76.63
236.388	70.48
236.605	62.29
236.822	23.38
237.04	90.96
237.257	64.34
237.475	56.15
237.692	4.95
237.909	41.81
238.127	25.43
238.344	78.68
238.562	95.06
238.779	-40.11
238.996	74.58
239.214	41.81
239.431	70.48
239.648	25.43
239.865	9.05
240.083	123.73
240.3	33.62
240.517	54.1
240.735	107.35
240.952	-5.29
241.169	90.96
241.386	43.86
241.603	43.86
241.821	27.48
242.038	47.96
242.255	45.91
242.472	-7.34
242.689	33.62
242.907	117.59
243.124	-3.24
243.341	76.63
243.558	56.15
243.775	27.48
243.992	25.43
244.209	68.44
244.426	47.96
244.643	45.91
244.86	23.38
245.078	86.87
245.295	62.29
245.512	56.15
245.729	-48.3
245.946	109.4
246.163	4.95
246.38	64.34
246.597	0.85
246.814	-15.53
247.031	27.48
247.248	76.63
247.464	50
247.681	13.14
247.898	13.14
248.115	41.81
248.332	-11.43
248.549	97.11
248.766	78.68
248.983	82.77
249.2	-7.34
249.417	43.86
249.633	50
249.85	56.15
250.067	56.15
250.284	-27.82
250.501	33.62
250.717	121.68
250.934	-46.25
251.151	13.14
251.368	64.34
251.585	21.33
251.801	76.63
252.018	66.39
252.235	60.24
252.451	95.06
252.668	-23.72
252.885	11.09
253.102	9.05
253.318	37.72
253.535	31.57
253.752	45.91
253.968	23.38
254.185	84.82
254.401	86.87
254.618	105.3
254.835	33.62
255.051	66.39
255.268	90.96
255.484	68.44
255.701	72.53
255.917	58.2
256.134	2.9
256.351	62.29
256.567	-19.63
256.784	31.57
257	-1.19
257.217	68.44
257.433	74.58
257.65	-5.29
257.866	80.72
258.082	47.96
258.299	70.48
258.515	9.05
258.732	64.34
258.948	60.24
259.165	62.29
259.381	70.48
259.597	99.16
259.814	13.14
260.03	54.1
260.246	19.29
260.463	54.1
260.679	74.58
260.895	76.63
261.112	64.34
261.328	41.81
261.544	105.3
261.761	62.29
261.977	37.72
262.193	9.05
262.409	66.39
262.626	62.29
262.842	27.48
263.058	2.9
263.274	60.24
263.49	84.82
263.707	4.95
263.923	70.48
264.139	19.29
264.355	105.3
264.571	160.59
264.787	70.48
265.004	60.24
265.22	15.19
265.436	25.43
265.652	41.81
265.868	45.91
266.084	7
266.3	-23.72
266.516	17.24
266.732	-31.91
266.948	45.91
267.164	45.91
267.38	82.77
267.596	-15.53
267.812	99.16
268.028	68.44
268.244	-1.19
268.46	72.53
268.676	43.86
268.892	11.09
269.108	-11.43
269.324	-11.43
269.54	9.05
269.756	64.34
269.972	70.48
270.188	99.16
270.403	25.43
270.619	50
270.835	0.85
271.051	58.2
271.267	60.24
271.483	54.1
271.698	88.92
271.914	35.67
272.13	72.53
272.346	0.85
272.562	88.92
272.777	9.05
272.993	50
273.209	41.81
273.425	58.2
273.64	25.43
273.856	107.35
274.072	25.43
274.287	9.05
274.503	39.76
274.719	97.11
274.934	52.05
275.15	54.1
275.366	78.68
275.581	21.33
275.797	-40.11
276.012	27.48
276.228	82.77
276.444	17.24
276.659	31.57
276.875	-15.53
277.09	33.62
277.306	70.48
277.521	17.24
277.737	27.48
277.952	52.05
278.168	64.34
278.383	64.34
278.599	17.24
278.814	88.92
279.03	25.43
279.245	31.57
279.461	101.2
279.676	93.01
279.892	-21.67
280.107	88.92
280.322	-5.29
280.538	41.81
280.753	11.09
280.969	88.92
281.184	39.76
281.399	103.25
281.615	-5.29
281.83	76.63
282.045	-44.2
282.26	35.67
282.476	54.1
282.691	119.64
282.906	90.96
283.122	56.15
283.337	4.95
283.552	99.16
283.767	27.48
283.983	93.01
284.198	-13.48
284.413	97.11
284.628	31.57
284.843	68.44
285.058	80.72
285.274	-21.67
285.489	-15.53
285.704	9.05
285.919	66.39
286.134	97.11
286.349	97.11
286.564	41.81
286.779	72.53
286.995	7
287.21	9.05
287.425	58.2
287.64	-50.35
287.855	64.34
288.07	-3.24
288.285	101.2
288.5	125.78
288.715	23.38
288.93	-11.43
289.145	15.19
289.36	60.24
289.575	62.29
289.79	74.58
290.004	101.2
290.219	52.05
290.434	136.02
290.649	15.19
290.864	25.43
291.079	9.05
291.294	76.63
291.509	127.83
291.724	74.58
291.938	58.2
292.153	-3.24
292.368	60.24
292.583	84.82
292.798	39.76
293.012	64.34
293.227	45.91
293.442	-1.19
293.657	31.57
293.871	52.05
294.086	52.05
294.301	93.01
294.516	25.43
294.73	80.72
294.945	0.85
295.16	52.05
295.374	35.67
295.589	70.48
295.804	21.33
296.018	121.68
296.233	47.96
296.447	47.96
296.662	31.57
296.877	56.15
297.091	93.01
297.306	78.68
297.52	76.63
297.735	-5.29
297.949	117.59
298.164	90.96
298.378	25.43
298.593	17.24
298.807	21.33
299.022	33.62
299.236	142.16
299.451	47.96
299.665	123.73
299.88	-11.43
300.094	19.29
300.309	39.76
300.523	64.34
300.737	54.1
300.952	47.96
301.166	62.29
301.381	84.82
301.595	82.77
301.809	41.81
302.024	62.29
302.238	7
302.452	72.53
302.667	84.82
302.881	45.91
303.095	35.67
303.309	64.34
303.524	35.67
303.738	27.48
303.952	31.57
304.166	33.62
304.381	-25.77
304.595	29.52
304.809	21.33
305.023	58.2
305.237	35.67
305.452	56.15
305.666	31.57
305.88	31.57
306.094	35.67
306.308	97.11
306.522	64.34
306.736	131.92
306.95	93.01
307.164	13.14
307.379	68.44
307.593	115.54
307.807	35.67
308.021	2.9
308.235	-15.53
308.449	66.39
308.663	43.86
308.877	31.57
309.091	76.63
309.305	109.4
309.519	29.52
309.733	66.39
309.947	54.1
310.161	101.2
310.374	56.15
310.588	60.24
310.802	-13.48
311.016	21.33
311.23	113.49
311.444	54.1
311.658	58.2
311.872	7
312.085	41.81
312.299	80.72
312.513	56.15
312.727	66.39
312.941	-1.19
313.154	58.2
313.368	27.48
313.582	66.39
313.796	70.48
314.009	7
314.223	43.86
314.437	70.48
314.651	84.82
314.864	50
315.078	19.29
315.292	58.2
315.505	23.38
315.719	27.48
315.933	58.2
316.146	37.72
316.36	31.57
316.573	45.91
316.787	33.62
317.001	39.76
317.214	43.86
317.428	90.96
317.641	-50.35
317.855	33.62
318.068	-11.43
318.282	47.96
318.495	54.1
318.709	47.96
318.922	74.58
319.136	121.68
319.349	11.09
319.563	21.33
319.776	31.57
319.99	47.96
320.203	35.67
320.417	72.53
320.63	-3.24
320.843	41.81
321.057	121.68
321.27	-5.29
321.483	25.43
321.697	62.29
321.91	-5.29
322.124	25.43
322.337	111.44
322.55	11.09
322.763	43.86
322.977	119.64
323.19	31.57
323.403	66.39
323.617	66.39
323.83	41.81
324.043	62.29
324.256	80.72
324.469	70.48
324.683	113.49
324.896	23.38
325.109	113.49
325.322	41.81
325.535	80.72
325.748	64.34
325.962	43.86
326.175	72.53
326.388	64.34
326.601	54.1
326.814	-5.29
327.027	37.72
327.24	17.24
327.453	33.62
327.666	129.88
327.879	84.82
328.092	125.78
328.305	58.2
328.518	35.67
328.731	56.15
328.944	76.63
329.157	56.15
329.37	50
329.583	113.49
329.796	99.16
330.009	-13.48
330.222	62.29
330.435	43.86
330.648	70.48
330.861	17.24
331.073	23.38
331.286	80.72
331.499	103.25
331.712	41.81
331.925	33.62
332.138	31.57
332.35	82.77
332.563	123.73
332.776	29.52
332.989	-1.19
333.202	56.15
333.414	58.2
333.627	95.06
333.84	-17.58
334.053	95.06
334.265	54.1
334.478	109.4
334.691	21.33
334.903	15.19
335.116	41.81
335.329	-15.53
335.541	82.77
335.754	82.77
335.966	113.49
336.179	45.91
336.392	23.38
336.604	64.34
336.817	95.06
337.029	72.53
337.242	0.85
337.454	56.15
337.667	21.33
337.88	84.82
338.092	66.39
338.305	23.38
338.517	-7.34
338.729	111.44
338.942	99.16
339.154	29.52
339.367	45.91
339.579	80.72
339.792	82.77
340.004	162.64
340.217	80.72
340.429	4.95
340.641	45.91
340.854	78.68
341.066	0.85
341.278	21.33
341.491	47.96
341.703	127.83
341.915	54.1
342.128	76.63
342.34	56.15
342.552	88.92
342.764	35.67
342.977	88.92
343.189	70.48
343.401	33.62
343.613	64.34
343.826	148.31
344.038	72.53
344.25	52.05
344.462	88.92
344.674	64.34
344.886	117.59
345.099	39.76
345.311	117.59
345.523	74.58
345.735	72.53
345.947	35.67
346.159	37.72
346.371	-33.96
346.583	72.53
346.795	140.12
347.007	25.43
347.219	99.16
347.431	45.91
347.643	72.53
347.855	25.43
348.067	60.24
348.279	15.19
348.491	47.96
348.703	27.48
348.915	47.96
349.127	103.25
349.339	66.39
349.551	39.76
349.763	76.63
349.975	56.15
350.187	103.25
350.399	74.58
350.61	162.64
350.822	4.95
351.034	4.95
351.246	47.96
351.458	50
351.669	29.52
351.881	113.49
352.093	90.96
352.305	47.96
352.517	50
352.728	78.68
352.94	121.68
353.152	72.53
353.363	88.92
353.575	52.05
353.787	25.43
353.999	123.73
354.21	140.12
354.422	56.15
354.633	56.15
354.845	90.96
355.057	88.92
355.268	105.3
355.48	158.55
355.692	23.38
355.903	37.72
356.115	62.29
356.326	86.87
356.538	56.15
356.749	9.05
356.961	56.15
357.172	86.87
357.384	107.35
357.595	78.68
357.807	115.54
358.018	23.38
358.23	29.52
358.441	82.77
358.653	97.11
358.864	19.29
359.075	101.2
359.287	68.44
359.498	66.39
359.709	52.05
359.921	31.57
360.132	93.01
360.344	84.82
360.555	50
360.766	35.67
360.977	56.15
361.189	50
361.4	43.86
361.611	72.53
361.823	68.44
362.034	50
362.245	66.39
362.456	70.48
362.667	86.87
362.879	47.96
363.09	58.2
363.301	99.16
363.512	29.52
363.723	11.09
363.935	52.05
364.146	86.87
364.357	-23.72
364.568	19.29
364.779	62.29
364.99	9.05
365.201	29.52
365.412	60.24
365.623	-25.77
365.834	17.24
366.045	76.63
366.256	56.15
366.467	95.06
366.678	7
366.889	4.95
367.1	121.68
367.311	45.91
367.522	78.68
367.733	58.2
367.944	74.58
368.155	84.82
368.366	70.48
368.577	74.58
368.788	117.59
368.999	15.19
369.209	56.15
369.42	121.68
369.631	103.25
369.842	84.82
370.053	37.72
370.264	45.91
370.474	50
370.685	27.48
370.896	125.78
371.107	27.48
371.317	113.49
371.528	19.29
371.739	129.88
371.95	72.53
372.16	74.58
372.371	15.19
372.582	78.68
372.792	111.44
373.003	113.49
373.214	62.29
373.424	123.73
373.635	4.95
373.846	74.58
374.056	103.25
374.267	29.52
374.477	80.72
374.688	97.11
374.898	60.24
375.109	80.72
375.319	39.76
375.53	72.53
375.74	76.63
375.951	82.77
376.161	0.85
376.372	64.34
376.582	25.43
376.793	76.63
377.003	33.62
377.214	90.96
377.424	107.35
377.635	76.63
377.845	72.53
378.055	111.44
378.266	-23.72
378.476	119.64
378.686	4.95
378.897	43.86
379.107	66.39
379.317	13.14
379.528	9.05
379.738	25.43
379.948	29.52
380.158	43.86
380.369	123.73
380.579	68.44
380.789	23.38
380.999	99.16
381.21	109.4
381.42	138.07
381.63	111.44
381.84	107.35
382.05	131.92
382.261	43.86
382.471	62.29
382.681	58.2
382.891	144.21
383.101	60.24
383.311	-1.19
383.521	95.06
383.731	37.72
383.941	90.96
384.151	101.2
384.361	101.2
384.571	84.82
384.781	97.11
384.991	58.2
385.201	86.87
385.411	66.39
385.621	113.49
385.831	93.01
386.041	131.92
386.251	19.29
386.461	103.25
386.671	101.2
386.881	88.92
387.091	66.39
387.301	123.73
387.511	93.01
387.72	133.97
387.93	93.01
388.14	74.58
388.35	129.88
388.56	119.64
388.769	80.72
388.979	27.48
389.189	52.05
389.399	123.73
389.609	99.16
389.818	90.96
390.028	129.88
390.238	152.4
390.447	68.44
390.657	115.54
390.867	0.85
391.076	103.25
391.286	105.3
391.496	97.11
391.705	76.63
391.915	78.68
392.125	170.83
392.334	37.72
392.544	45.91
392.753	45.91
392.963	140.12
393.172	131.92
393.382	90.96
393.591	103.25
393.801	170.83
394.01	68.44
394.22	80.72
394.429	90.96
394.639	140.12
394.848	142.16
395.058	119.64
395.267	142.16
395.477	140.12
395.686	113.49
395.895	111.44
396.105	166.74
396.314	168.79
396.524	154.45
396.733	170.83
396.942	154.45
397.152	119.64
397.361	142.16
397.57	148.31
397.78	166.74
397.989	205.65
398.198	140.12
398.407	146.26
398.617	211.79
398.826	138.07
399.035	148.31
399.244	168.79
399.453	111.44
399.663	170.83
399.872	154.45
400.081	113.49
400.29	95.06
400.499	140.12
400.708	244.56
400.917	127.83
401.127	154.45
401.336	166.74
401.545	170.83
401.754	162.64
401.963	236.37
402.172	115.54
402.381	146.26
402.59	138.07
402.799	197.46
403.008	195.41
403.217	179.03
403.426	197.46
403.635	217.94
403.844	224.08
404.053	168.79
404.262	172.88
404.471	228.18
404.68	189.27
404.888	154.45
405.097	181.07
405.306	217.94
405.515	232.27
405.724	179.03
405.933	318.29
406.142	336.72
406.35	211.79
406.559	254.8
406.768	273.23
406.977	293.71
407.185	197.46
407.394	301.9
407.603	215.89
407.812	346.96
408.02	326.48
408.229	275.28
408.438	355.15
408.646	379.73
408.855	463.69
409.064	381.78
409.272	457.55
409.481	424.78
409.69	363.34
409.898	439.12
410.107	445.26
410.315	475.98
410.524	359.25
410.733	416.59
410.941	463.69
411.15	629.58
411.358	465.74
411.567	588.62
411.775	564.04
411.984	498.51
412.192	615.24
412.401	596.81
412.609	658.25
412.818	727.88
413.026	707.4
413.234	656.2
413.443	752.46
413.651	774.99
413.86	879.43
414.068	942.92
414.276	848.71
414.485	899.91
414.693	879.43
414.901	942.92
415.11	1063.75
415.318	904.01
415.526	1010.5
415.734	1129.28
415.943	1121.09
416.151	1184.58
416.359	1141.57
416.567	1217.35
416.776	1305.41
416.984	1375.04
417.192	1422.14
417.4	1381.18
417.608	1434.43
417.817	1557.31
418.025	1549.12
418.233	1657.66
418.441	1635.13
418.649	1669.95
418.857	1809.21
419.065	1858.36
419.273	1876.79
419.481	2016.05
419.689	1985.34
419.897	2091.83
420.105	2253.62
420.313	2079.54
420.521	2272.05
420.729	2423.6
420.937	2460.46
421.145	2460.46
421.353	2720.56
421.561	2569.01
421.769	2779.95
421.977	2949.93
422.185	3001.13
422.393	3107.62
422.601	3201.83
422.809	3142.44
423.017	3265.32
423.224	3332.9
423.432	3595.04
423.64	3652.38
423.848	3922.71
424.056	3955.48
424.263	3951.39
424.471	4043.54
424.679	4115.22
424.887	4375.31
425.094	4600.59
425.302	4473.62
425.51	4633.36
425.718	4860.68
425.925	4850.44
426.133	5231.37
426.341	5262.09
426.548	5454.59
426.756	5540.61
426.964	5516.03
427.171	5995.26
427.379	6083.32
427.586	6290.17
427.794	6468.34
428.001	6791.92
428.209	6972.14
428.417	6906.6
428.624	7379.68
428.832	7475.94
429.039	7250.66
429.247	7375.59
429.454	7992.03
429.662	8596.18
429.869	7971.55
430.076	8563.41
430.284	8321.75
430.491	8612.56
430.699	9165.51
430.906	9239.24
431.114	9360.07
431.321	9804.48
431.528	9908.93
431.736	10568.37
431.943	10842.8
432.15	10828.46
432.358	10717.87
432.565	11463.33
432.772	11326.12
432.979	12153.5
433.187	12110.49
433.394	12423.83
433.601	13154.96
433.808	12970.64
434.016	13064.85
434.223	13609.61
434.43	14205.56
434.637	14070.4
434.844	15086.19
435.052	15227.5
435.259	15157.87
435.466	15499.88
435.673	15207.02
435.88	16390.75
436.087	17003.09
436.294	17009.23
436.501	16495.19
436.708	17046.1
436.915	17517.13
437.122	18096.71
437.329	18274.88
437.537	19036.72
437.743	19155.51
437.95	18971.19
438.157	19933.73
438.364	20621.85
438.571	20593.18
438.778	20894.23
438.985	22665.72
439.192	21934.6
439.399	22282.75
439.606	22004.23
439.813	23450.1
440.02	24609.25
440.227	24232.42
440.433	24087.01
440.64	25049.56
440.847	24695.26
441.054	25039.32
441.261	26913.21
441.467	26573.25
441.674	27079.1
441.881	27883.95
442.088	27931.05
442.294	28008.87
442.501	28383.65
442.708	29077.91
442.914	30239.11
443.121	31656.31
443.328	30390.66
443.534	32717.15
443.741	32078.19
443.948	31553.91
444.154	33835.35
444.361	33405.27
444.568	34015.57
444.774	33642.84
444.981	34154.83
445.187	35121.47
445.394	36469.03
445.6	35973.42
445.807	39565.56
446.013	37538.07
446.22	38490.38
446.426	40317.17
446.633	40507.63
446.839	42150.1
447.046	40220.91
447.252	42129.62
447.459	42086.61
447.665	42221.78
447.871	44073.14
448.078	46125.21
448.284	43577.53
448.491	44957.86
448.697	46860.43
448.903	47376.51
449.11	47761.53
449.316	46801.04
449.522	47712.38
449.728	48230.52
449.935	49311.84
450.141	49262.69
450.347	50057.31
450.553	48619.63
450.76	49725.53
450.966	50911.31
451.172	50260.05
451.378	51556.42
451.584	50327.64
451.791	51621.95
451.997	51595.33
452.203	52533.3
452.409	52615.22
452.615	52152.38
452.821	50583.63
453.027	50116.7
453.233	52252.73
453.44	50407.51
453.646	51122.25
453.852	50964.56
454.058	52156.47
454.264	50534.48
454.47	51443.78
454.676	50346.07
454.882	52135.99
455.088	47700.09
455.294	48443.51
455.5	48920.68
455.705	49426.53
455.911	47472.77
456.117	46639.25
456.323	46110.87
456.529	43968.69
456.735	45623.45
456.941	44382.38
457.147	44021.94
457.352	42397.9
457.558	42148.05
457.764	41738.46
457.97	41203.94
458.176	40620.27
458.381	40358.13
458.587	38476.04
458.793	38834.44
458.999	36282.67
459.204	39067.91
459.41	37902.61
459.616	35408.19
459.821	35567.93
460.027	35535.16
460.233	34515.27
460.438	33007.97
460.644	33464.66
460.85	32029.04
461.055	31232.38
461.261	31547.76
461.466	28957.08
461.672	28328.36
461.878	30126.47
462.083	27886
462.289	27554.22
462.494	27230.65
462.7	26085.83
462.905	25582.03
463.111	26212.81
463.316	26534.34
463.522	25792.97
463.727	25913.8
463.932	25741.77
464.138	25536.98
464.343	25784.78
464.549	24631.77
464.754	25805.26
464.959	25244.12
465.165	25485.78
465.37	23794.15
465.575	23417.33
465.781	24463.84
465.986	24549.85
466.191	23951.85
466.397	23181.81
466.602	22090.24
466.807	23161.33
467.012	23128.56
467.218	22733.31
467.423	22735.35
