Data from USB4F104151__39__12-35-46-820.txt Node

Date: Fri Mar 14 12:35:46 EDT 2025
User: louis
Spectrometer: USB4F10415
Trigger mode: 4
Integration Time (sec): 2.000000E-2
Scans to average: 1
Electric dark correction enabled: true
Nonlinearity correction enabled: false
Boxcar width: 0
XAxis mode: Wavelengths
Number of Pixels in Spectrum: 3648
>>>>>Begin Spectral Data<<<<<
178.204	-105.3
178.424	-105.3
178.644	-105.3
178.864	-41.81
179.084	-68.44
179.304	25.77
179.524	1.19
179.744	-29.52
179.964	3.24
180.184	-2.9
180.404	27.82
180.624	11.43
180.844	-70.48
181.064	11.43
181.283	23.72
181.503	-27.48
181.723	25.77
181.943	17.58
182.163	101.55
182.383	-13.14
182.602	60.59
182.822	70.83
183.042	36.01
183.262	21.67
183.482	9.39
183.701	58.54
183.921	3.24
184.141	-33.62
184.361	44.2
184.58	60.59
184.8	-21.33
185.02	-0.85
185.239	85.16
185.459	-52.05
185.679	115.88
185.898	11.43
186.118	-37.72
186.338	36.01
186.557	136.36
186.777	56.49
186.997	46.25
187.216	21.67
187.436	132.26
187.655	56.49
187.875	19.63
188.095	38.06
188.314	-19.29
188.534	105.64
188.753	60.59
188.973	60.59
189.192	54.44
189.412	72.87
189.631	91.31
189.851	-11.09
190.07	64.68
190.29	-17.24
190.509	111.78
190.729	-7
190.948	95.4
191.168	128.17
191.387	15.53
191.607	7.34
191.826	154.79
192.045	52.39
192.265	46.25
192.484	27.82
192.704	66.73
192.923	29.87
193.142	70.83
193.362	50.35
193.581	40.11
193.8	74.92
194.02	97.45
194.239	15.53
194.458	74.92
194.678	76.97
194.897	-2.9
195.116	91.31
195.335	29.87
195.555	48.3
195.774	56.49
195.993	-15.19
196.212	89.26
196.432	31.91
196.651	-29.52
196.87	36.01
197.089	31.91
197.308	89.26
197.528	48.3
197.747	46.25
197.966	54.44
198.185	48.3
198.404	-37.72
198.623	95.4
198.842	40.11
199.062	109.74
199.281	27.82
199.5	52.39
199.719	25.77
199.938	7.34
200.157	83.11
200.376	27.82
200.595	46.25
200.814	9.39
201.033	-21.33
201.252	40.11
201.471	148.65
201.69	33.96
201.909	13.48
202.128	11.43
202.347	58.54
202.566	62.63
202.785	29.87
203.004	48.3
203.223	79.02
203.442	56.49
203.661	13.48
203.879	50.35
204.098	119.98
204.317	-23.38
204.536	48.3
204.755	64.68
204.974	91.31
205.193	54.44
205.411	95.4
205.63	19.63
205.849	23.72
206.068	3.24
206.287	70.83
206.505	36.01
206.724	-25.43
206.943	-29.52
207.162	-2.9
207.381	36.01
207.599	7.34
207.818	85.16
208.037	-2.9
208.255	29.87
208.474	64.68
208.693	115.88
208.911	89.26
209.13	44.2
209.349	-2.9
209.567	5.29
209.786	56.49
210.005	-7
210.223	79.02
210.442	-11.09
210.661	29.87
210.879	97.45
211.098	44.2
211.316	5.29
211.535	91.31
211.753	-29.52
211.972	31.91
212.191	21.67
212.409	62.63
212.628	81.07
212.846	64.68
213.065	48.3
213.283	36.01
213.502	29.87
213.72	46.25
213.938	33.96
214.157	21.67
214.375	99.5
214.594	95.4
214.812	76.97
215.031	-21.33
215.249	21.67
215.467	91.31
215.686	-21.33
215.904	54.44
216.122	21.67
216.341	87.21
216.559	40.11
216.778	101.55
216.996	119.98
217.214	19.63
217.432	62.63
217.651	62.63
217.869	-76.63
218.087	1.19
218.306	46.25
218.524	48.3
218.742	25.77
218.96	68.78
219.179	38.06
219.397	11.43
219.615	46.25
219.833	83.11
220.051	40.11
220.27	48.3
220.488	40.11
220.706	33.96
220.924	25.77
221.142	42.15
221.36	44.2
221.578	25.77
221.796	76.97
222.015	56.49
222.233	81.07
222.451	64.68
222.669	5.29
222.887	79.02
223.105	-7
223.323	87.21
223.541	42.15
223.759	93.35
223.977	46.25
224.195	101.55
224.413	74.92
224.631	140.46
224.849	99.5
225.067	62.63
225.285	31.91
225.503	54.44
225.721	15.53
225.939	76.97
226.157	-29.52
226.375	128.17
226.592	40.11
226.81	56.49
227.028	36.01
227.246	91.31
227.464	42.15
227.682	91.31
227.9	25.77
228.117	79.02
228.335	66.73
228.553	66.73
228.771	52.39
228.989	-13.14
229.206	-17.24
229.424	29.87
229.642	72.87
229.86	58.54
230.077	76.97
230.295	42.15
230.513	60.59
230.731	64.68
230.948	-25.43
231.166	62.63
231.384	-9.05
231.601	-31.57
231.819	50.35
232.037	40.11
232.254	19.63
232.472	85.16
232.689	-21.33
232.907	13.48
233.125	85.16
233.342	-43.86
233.56	42.15
233.777	23.72
233.995	58.54
234.213	76.97
234.43	38.06
234.648	-15.19
234.865	66.73
235.083	5.29
235.3	23.72
235.518	103.59
235.735	42.15
235.953	25.77
236.17	38.06
236.388	74.92
236.605	113.83
236.822	50.35
237.04	83.11
237.257	7.34
237.475	62.63
237.692	83.11
237.909	117.93
238.127	62.63
238.344	70.83
238.562	33.96
238.779	33.96
238.996	105.64
239.214	91.31
239.431	13.48
239.648	62.63
239.865	15.53
240.083	95.4
240.3	5.29
240.517	23.72
240.735	5.29
240.952	42.15
241.169	5.29
241.386	-4.95
241.603	42.15
241.821	-17.24
242.038	152.74
242.255	44.2
242.472	1.19
242.689	85.16
242.907	76.97
243.124	23.72
243.341	58.54
243.558	33.96
243.775	64.68
243.992	107.69
244.209	113.83
244.426	66.73
244.643	54.44
244.86	70.83
245.078	64.68
245.295	103.59
245.512	85.16
245.729	7.34
245.946	89.26
246.163	66.73
246.38	101.55
246.597	79.02
246.814	52.39
247.031	109.74
247.248	17.58
247.464	50.35
247.681	29.87
247.898	-4.95
248.115	50.35
248.332	60.59
248.549	134.31
248.766	52.39
248.983	50.35
249.2	79.02
249.417	27.82
249.633	40.11
249.85	-15.19
250.067	99.5
250.284	9.39
250.501	93.35
250.717	60.59
250.934	7.34
251.151	27.82
251.368	54.44
251.585	13.48
251.801	-11.09
252.018	31.91
252.235	19.63
252.451	-15.19
252.668	38.06
252.885	31.91
253.102	-58.2
253.318	76.97
253.535	74.92
253.752	33.96
253.968	40.11
254.185	17.58
254.401	64.68
254.618	19.63
254.835	87.21
255.051	29.87
255.268	74.92
255.484	5.29
255.701	81.07
255.917	74.92
256.134	-23.38
256.351	38.06
256.567	7.34
256.784	54.44
257	-17.24
257.217	-17.24
257.433	38.06
257.65	81.07
257.866	25.77
258.082	13.48
258.299	54.44
258.515	72.87
258.732	-15.19
258.948	15.53
259.165	17.58
259.381	29.87
259.597	64.68
259.814	93.35
260.03	13.48
260.246	54.44
260.463	87.21
260.679	83.11
260.895	21.67
261.112	62.63
261.328	-7
261.544	38.06
261.761	50.35
261.977	74.92
262.193	-0.85
262.409	72.87
262.626	44.2
262.842	60.59
263.058	3.24
263.274	62.63
263.49	36.01
263.707	25.77
263.923	91.31
264.139	70.83
264.355	50.35
264.571	126.12
264.787	31.91
265.004	105.64
265.22	19.63
265.436	62.63
265.652	-31.57
265.868	-27.48
266.084	56.49
266.3	-11.09
266.516	3.24
266.732	95.4
266.948	-13.14
267.164	33.96
267.38	25.77
267.596	68.78
267.812	1.19
268.028	68.78
268.244	46.25
268.46	74.92
268.676	-0.85
268.892	38.06
269.108	40.11
269.324	44.2
269.54	36.01
269.756	-25.43
269.972	9.39
270.188	64.68
270.403	72.87
270.619	74.92
270.835	40.11
271.051	17.58
271.267	27.82
271.483	48.3
271.698	9.39
271.914	95.4
272.13	85.16
272.346	15.53
272.562	42.15
272.777	93.35
272.993	64.68
273.209	-58.2
273.425	50.35
273.64	11.43
273.856	58.54
274.072	23.72
274.287	7.34
274.503	17.58
274.719	11.43
274.934	13.48
275.15	74.92
275.366	33.96
275.581	42.15
275.797	68.78
276.012	15.53
276.228	5.29
276.444	19.63
276.659	74.92
276.875	-4.95
277.09	15.53
277.306	50.35
277.521	-19.29
277.737	42.15
277.952	128.17
278.168	42.15
278.383	91.31
278.599	111.78
278.814	72.87
279.03	113.83
279.245	105.64
279.461	-35.67
279.676	25.77
279.892	31.91
280.107	25.77
280.322	83.11
280.538	15.53
280.753	115.88
280.969	19.63
281.184	42.15
281.399	70.83
281.615	48.3
281.83	85.16
282.045	25.77
282.26	31.91
282.476	11.43
282.691	64.68
282.906	72.87
283.122	126.12
283.337	-21.33
283.552	52.39
283.767	38.06
283.983	19.63
284.198	83.11
284.413	138.41
284.628	40.11
284.843	85.16
285.058	1.19
285.274	42.15
285.489	52.39
285.704	17.58
285.919	33.96
286.134	70.83
286.349	52.39
286.564	23.72
286.779	11.43
286.995	42.15
287.21	17.58
287.425	9.39
287.64	31.91
287.855	25.77
288.07	1.19
288.285	-23.38
288.5	79.02
288.715	36.01
288.93	23.72
289.145	36.01
289.36	81.07
289.575	5.29
289.79	54.44
290.004	83.11
290.219	1.19
290.434	-27.48
290.649	15.53
290.864	-15.19
291.079	9.39
291.294	15.53
291.509	58.54
291.724	-13.14
291.938	23.72
292.153	52.39
292.368	31.91
292.583	95.4
292.798	95.4
293.012	89.26
293.227	9.39
293.442	66.73
293.657	9.39
293.871	79.02
294.086	3.24
294.301	101.55
294.516	72.87
294.73	56.49
294.945	25.77
295.16	44.2
295.374	117.93
295.589	81.07
295.804	13.48
296.018	36.01
296.233	54.44
296.447	93.35
296.662	-4.95
296.877	15.53
297.091	72.87
297.306	27.82
297.52	33.96
297.735	87.21
297.949	40.11
298.164	21.67
298.378	79.02
298.593	38.06
298.807	42.15
299.022	36.01
299.236	72.87
299.451	-7
299.665	31.91
299.88	29.87
300.094	87.21
300.309	68.78
300.523	76.97
300.737	-23.38
300.952	70.83
301.166	50.35
301.381	48.3
301.595	40.11
301.809	3.24
302.024	52.39
302.238	-29.52
302.452	85.16
302.667	79.02
302.881	62.63
303.095	-7
303.309	89.26
303.524	36.01
303.738	76.97
303.952	95.4
304.166	-33.62
304.381	31.91
304.595	29.87
304.809	-21.33
305.023	44.2
305.237	17.58
305.452	81.07
305.666	42.15
305.88	68.78
306.094	46.25
306.308	52.39
306.522	62.63
306.736	-27.48
306.95	38.06
307.164	31.91
307.379	58.54
307.593	85.16
307.807	74.92
308.021	64.68
308.235	29.87
308.449	23.72
308.663	38.06
308.877	11.43
309.091	60.59
309.305	52.39
309.519	38.06
309.733	97.45
309.947	-58.2
310.161	52.39
310.374	107.69
310.588	89.26
310.802	-39.76
311.016	33.96
311.23	42.15
311.444	11.43
311.658	54.44
311.872	76.97
312.085	25.77
312.299	70.83
312.513	42.15
312.727	9.39
312.941	38.06
313.154	40.11
313.368	81.07
313.582	52.39
313.796	48.3
314.009	101.55
314.223	-17.24
314.437	5.29
314.651	58.54
314.864	-0.85
315.078	-9.05
315.292	52.39
315.505	33.96
315.719	85.16
315.933	60.59
316.146	33.96
316.36	-25.43
316.573	70.83
316.787	95.4
317.001	91.31
317.214	-2.9
317.428	11.43
317.641	31.91
317.855	50.35
318.068	42.15
318.282	29.87
318.495	126.12
318.709	115.88
318.922	1.19
319.136	60.59
319.349	117.93
319.563	68.78
319.776	3.24
319.99	-43.86
320.203	38.06
320.417	19.63
320.63	99.5
320.843	54.44
321.057	-2.9
321.27	83.11
321.483	87.21
321.697	95.4
321.91	29.87
322.124	48.3
322.337	-0.85
322.55	103.59
322.763	56.49
322.977	122.02
323.19	29.87
323.403	-7
323.617	50.35
323.83	122.02
324.043	126.12
324.256	162.98
324.469	52.39
324.683	99.5
324.896	31.91
325.109	64.68
325.322	21.67
325.535	17.58
325.748	119.98
325.962	76.97
326.175	68.78
326.388	72.87
326.601	85.16
326.814	68.78
327.027	72.87
327.24	74.92
327.453	-23.38
327.666	97.45
327.879	7.34
328.092	74.92
328.305	72.87
328.518	46.25
328.731	38.06
328.944	40.11
329.157	54.44
329.37	29.87
329.583	48.3
329.796	83.11
330.009	23.72
330.222	38.06
330.435	93.35
330.648	58.54
330.861	79.02
331.073	25.77
331.286	52.39
331.499	52.39
331.712	5.29
331.925	13.48
332.138	81.07
332.35	23.72
332.563	74.92
332.776	56.49
332.989	-4.95
333.202	68.78
333.414	23.72
333.627	140.46
333.84	54.44
334.053	-33.62
334.265	3.24
334.478	83.11
334.691	105.64
334.903	58.54
335.116	-45.91
335.329	101.55
335.541	74.92
335.754	64.68
335.966	-13.14
336.179	44.2
336.392	50.35
336.604	-2.9
336.817	54.44
337.029	64.68
337.242	23.72
337.454	54.44
337.667	42.15
337.88	113.83
338.092	85.16
338.305	46.25
338.517	1.19
338.729	58.54
338.942	33.96
339.154	48.3
339.367	117.93
339.579	44.2
339.792	74.92
340.004	54.44
340.217	15.53
340.429	74.92
340.641	9.39
340.854	13.48
341.066	46.25
341.278	29.87
341.491	91.31
341.703	115.88
341.915	54.44
342.128	70.83
342.34	19.63
342.552	31.91
342.764	-7
342.977	111.78
343.189	11.43
343.401	62.63
343.613	40.11
343.826	66.73
344.038	81.07
344.25	89.26
344.462	13.48
344.674	46.25
344.886	40.11
345.099	56.49
345.311	40.11
345.523	87.21
345.735	-25.43
345.947	165.03
346.159	95.4
346.371	33.96
346.583	95.4
346.795	68.78
347.007	56.49
347.219	89.26
347.431	89.26
347.643	13.48
347.855	97.45
348.067	56.49
348.279	70.83
348.491	23.72
348.703	-4.95
348.915	87.21
349.127	46.25
349.339	31.91
349.551	40.11
349.763	27.82
349.975	54.44
350.187	89.26
350.399	46.25
350.61	64.68
350.822	33.96
351.034	68.78
351.246	79.02
351.458	79.02
351.669	68.78
351.881	89.26
352.093	25.77
352.305	119.98
352.517	38.06
352.728	56.49
352.94	103.59
353.152	70.83
353.363	36.01
353.575	91.31
353.787	40.11
353.999	7.34
354.21	107.69
354.422	48.3
354.633	44.2
354.845	27.82
355.057	46.25
355.268	36.01
355.48	85.16
355.692	-2.9
355.903	74.92
356.115	31.91
356.326	11.43
356.538	89.26
356.749	81.07
356.961	64.68
357.172	74.92
357.384	25.77
357.595	72.87
357.807	-15.19
358.018	7.34
358.23	15.53
358.441	95.4
358.653	91.31
358.864	91.31
359.075	29.87
359.287	56.49
359.498	29.87
359.709	138.41
359.921	48.3
360.132	36.01
360.344	64.68
360.555	62.63
360.766	138.41
360.977	48.3
361.189	48.3
361.4	-15.19
361.611	60.59
361.823	44.2
362.034	36.01
362.245	9.39
362.456	19.63
362.667	81.07
362.879	70.83
363.09	105.64
363.301	62.63
363.512	9.39
363.723	93.35
363.935	70.83
364.146	91.31
364.357	70.83
364.568	138.41
364.779	48.3
364.99	93.35
365.201	115.88
365.412	48.3
365.623	23.72
365.834	83.11
366.045	27.82
366.256	72.87
366.467	68.78
366.678	119.98
366.889	46.25
367.1	27.82
367.311	134.31
367.522	99.5
367.733	46.25
367.944	58.54
368.155	64.68
368.366	74.92
368.577	44.2
368.788	101.55
368.999	64.68
369.209	60.59
369.42	160.94
369.631	76.97
369.842	48.3
370.053	42.15
370.264	64.68
370.474	117.93
370.685	42.15
370.896	31.91
371.107	97.45
371.317	44.2
371.528	-2.9
371.739	83.11
371.95	33.96
372.16	68.78
372.371	-0.85
372.582	48.3
372.792	15.53
373.003	93.35
373.214	74.92
373.424	122.02
373.635	-15.19
373.846	74.92
374.056	89.26
374.267	107.69
374.477	62.63
374.688	83.11
374.898	56.49
375.109	62.63
375.319	109.74
375.53	115.88
375.74	70.83
375.951	76.97
376.161	89.26
376.372	44.2
376.582	7.34
376.793	52.39
377.003	-11.09
377.214	52.39
377.424	33.96
377.635	48.3
377.845	21.67
378.055	115.88
378.266	81.07
378.476	48.3
378.686	68.78
378.897	-17.24
379.107	-9.05
379.317	83.11
379.528	-7
379.738	19.63
379.948	60.59
380.158	58.54
380.369	62.63
380.579	140.46
380.789	-2.9
380.999	122.02
381.21	122.02
381.42	91.31
381.63	81.07
381.84	46.25
382.05	105.64
382.261	128.17
382.471	87.21
382.681	81.07
382.891	83.11
383.101	79.02
383.311	-25.43
383.521	60.59
383.731	76.97
383.941	66.73
384.151	81.07
384.361	60.59
384.571	87.21
384.781	42.15
384.991	60.59
385.201	175.27
385.411	48.3
385.621	44.2
385.831	38.06
386.041	50.35
386.251	60.59
386.461	58.54
386.671	134.31
386.881	60.59
387.091	42.15
387.301	42.15
387.511	15.53
387.72	117.93
387.93	117.93
388.14	81.07
388.35	146.6
388.56	119.98
388.769	42.15
388.979	38.06
389.189	31.91
389.399	122.02
389.609	74.92
389.818	124.07
390.028	36.01
390.238	46.25
390.447	31.91
390.657	27.82
390.867	113.83
391.076	97.45
391.286	70.83
391.496	74.92
391.705	31.91
391.915	40.11
392.125	31.91
392.334	62.63
392.544	109.74
392.753	62.63
392.963	60.59
393.172	72.87
393.382	91.31
393.591	70.83
393.801	119.98
394.01	111.78
394.22	74.92
394.429	76.97
394.639	40.11
394.848	81.07
395.058	105.64
395.267	74.92
395.477	107.69
395.686	46.25
395.895	76.97
396.105	62.63
396.314	99.5
396.524	99.5
396.733	50.35
396.942	140.46
397.152	85.16
397.361	29.87
397.57	105.64
397.78	146.6
397.989	76.97
398.198	146.6
398.407	83.11
398.617	150.7
398.826	97.45
399.035	103.59
399.244	105.64
399.453	113.83
399.663	83.11
399.872	122.02
400.081	124.07
400.29	74.92
400.499	132.26
400.708	109.74
400.917	83.11
401.127	134.31
401.336	48.3
401.545	81.07
401.754	115.88
401.963	191.66
402.172	95.4
402.381	173.22
402.59	115.88
402.799	79.02
403.008	103.59
403.217	124.07
403.426	122.02
403.635	117.93
403.844	136.36
404.053	167.08
404.262	111.78
404.471	126.12
404.68	224.42
404.888	136.36
405.097	160.94
405.306	154.79
405.515	107.69
405.724	130.22
405.933	193.7
406.142	199.85
406.35	232.62
406.559	160.94
406.768	197.8
406.977	210.09
407.185	201.9
407.394	220.33
407.603	136.36
407.812	283.81
408.02	253.09
408.229	251.05
408.438	193.7
408.646	197.8
408.855	203.94
409.064	234.66
409.272	273.57
409.481	249
409.69	314.53
409.898	267.43
410.107	328.87
410.315	316.58
410.524	320.68
410.733	304.29
410.941	337.06
411.15	363.69
411.358	314.53
411.567	421.03
411.775	437.41
411.984	390.31
412.192	392.36
412.401	414.88
412.609	507.04
412.818	496.8
413.026	451.75
413.234	482.47
413.443	486.56
413.651	468.13
413.86	574.63
414.068	570.53
414.276	629.92
414.485	605.35
414.693	627.87
414.901	634.02
415.11	613.54
415.318	644.26
415.526	652.45
415.734	728.22
415.943	670.88
416.151	767.13
416.359	677.02
416.567	703.65
416.776	900.25
416.984	838.81
417.192	883.87
417.4	879.77
417.608	941.21
417.817	1039.51
418.025	947.36
418.233	1019.04
418.441	1078.43
418.649	1133.72
418.857	1242.26
419.065	1252.5
419.273	1180.82
419.481	1205.4
419.689	1277.08
419.897	1420.44
420.105	1330.33
420.313	1434.77
420.521	1453.2
420.729	1442.96
420.937	1600.66
421.145	1539.22
421.353	1744.02
421.561	1713.3
421.769	1713.3
421.977	1901.71
422.185	1830.03
422.393	1969.29
422.601	2198.67
422.809	2094.22
423.017	2038.92
423.224	2210.95
423.432	2147.47
423.64	2233.48
423.848	2550.92
424.056	2454.66
424.263	2598.02
424.471	2600.07
424.679	2626.69
424.887	2786.43
425.094	2811.01
425.302	2923.65
425.51	3007.61
425.718	3142.78
425.925	3124.35
426.133	3171.45
426.341	3310.71
426.548	3464.31
426.756	3525.75
426.964	3574.9
427.171	3796.08
427.379	3845.23
427.586	3923.05
427.794	4136.04
428.001	4209.77
428.209	4586.6
428.417	4336.74
428.624	4744.29
428.832	4580.45
429.039	4658.28
429.247	4637.8
429.454	5147.74
429.662	5387.35
429.869	4996.19
430.076	5528.66
430.284	5389.4
430.491	5633.11
430.699	5760.08
430.906	5815.38
431.114	5971.02
431.321	6126.67
431.528	6194.25
431.736	6743.11
431.943	6841.41
432.15	6743.11
432.358	6704.2
432.565	7179.33
432.772	7060.54
432.979	7498.81
433.187	7656.5
433.394	7707.7
433.601	8199.21
433.808	8315.95
434.016	8207.41
434.223	8479.79
434.43	9022.5
434.637	8916
434.844	9311.26
435.052	9571.35
435.259	9577.5
435.466	9571.35
435.673	9575.45
435.88	10071.06
436.087	10531.85
436.294	10632.2
436.501	10380.3
436.708	10695.69
436.915	11011.07
437.122	11385.85
437.329	11498.49
437.537	11815.93
437.743	11971.57
437.95	11764.73
438.157	12696.55
438.364	12774.38
438.571	12798.95
438.778	12966.88
438.985	14123.99
439.192	13384.67
439.399	14148.56
439.606	13507.55
439.813	14513.1
440.02	15174.6
440.227	14898.12
440.433	14924.74
440.64	15272.9
440.847	15217.6
441.054	15766.46
441.261	16614.32
441.467	16358.32
441.674	17060.77
441.881	17611.68
442.088	17259.43
442.294	17453.98
442.501	17761.18
442.708	18109.33
442.914	18891.66
443.121	19587.97
443.328	19205
443.534	20206.45
443.741	19790.72
443.948	19516.29
444.154	20444.02
444.361	21017.45
444.568	20968.3
444.774	21080.94
444.981	20751.21
445.187	21873.5
445.394	22426.45
445.6	22553.43
445.807	24523.57
446.013	23466.82
446.22	23933.76
446.426	24718.13
446.633	25162.54
446.839	25703.2
447.046	24472.37
447.252	26278.68
447.459	26272.54
447.665	25998.11
447.871	27126.54
448.078	28650.23
448.284	26835.73
448.491	28291.83
448.697	28898.03
448.903	29358.83
449.11	29723.37
449.316	29016.82
449.522	29539.05
449.728	30239.45
449.935	30520.02
450.141	30317.28
450.347	31021.78
450.553	30198.49
450.76	30755.54
450.966	31720.13
451.172	31214.29
451.378	31953.6
451.584	31265.49
451.791	32420.54
451.997	31963.84
452.203	32500.41
452.409	32654.01
452.615	32535.23
452.821	30825.17
453.027	30970.58
453.233	32430.78
453.44	31249.1
453.646	31793.86
453.852	31711.94
454.058	32074.43
454.264	31365.84
454.47	31965.89
454.676	31402.7
454.882	32297.66
455.088	29772.52
455.294	29479.66
455.5	30348
455.705	30753.49
455.911	29420.27
456.117	28572.41
456.323	28429.05
456.529	26882.83
456.735	27839.23
456.941	27001.61
457.147	26727.19
457.352	26313.5
457.558	25744.16
457.764	25910.05
457.97	24863.54
458.176	24740.66
458.381	24742.71
458.587	23309.13
458.793	23610.18
458.999	22270.81
459.204	23589.7
459.41	23276.36
459.616	21535.59
459.821	21504.87
460.027	21570.4
460.233	21105.51
460.438	20163.45
460.644	20337.52
460.85	19262.34
461.055	18955.15
461.261	19075.98
461.466	17363.87
461.672	17048.49
461.878	18359.19
462.083	16894.89
462.289	16720.81
462.494	16444.34
462.7	15764.41
462.905	15543.23
463.111	15885.24
463.316	15645.63
463.522	15422.4
463.727	15705.02
463.932	15655.87
464.138	15403.97
464.343	15496.13
464.549	15088.58
464.754	15369.15
464.959	15254.47
465.165	15182.79
465.37	14449.61
465.575	14369.74
465.781	14861.26
465.986	14916.55
466.191	14156.75
466.397	14027.73
466.602	13464.54
466.807	13908.95
467.012	13728.73
467.218	13837.27
467.423	13743.06
467.628	13579.23
467.833	14269.39
468.038	13698.01
