Data from USB4F104151__99__12-37-18-130.txt Node

Date: Fri Mar 14 12:37:18 EDT 2025
User: louis
Spectrometer: USB4F10415
Trigger mode: 4
Integration Time (sec): 2.000000E-2
Scans to average: 1
Electric dark correction enabled: true
Nonlinearity correction enabled: false
Boxcar width: 0
XAxis mode: Wavelengths
Number of Pixels in Spectrum: 3648
>>>>>Begin Spectral Data<<<<<
178.204	-43.18
178.424	-43.18
178.644	-43.18
178.864	-114.86
179.084	-16.55
179.304	-32.94
179.524	-0.17
179.744	28.5
179.964	-39.08
180.184	22.36
180.404	-6.31
180.624	-22.7
180.844	5.97
181.064	-4.27
181.283	12.12
181.503	-2.22
181.723	38.74
181.943	-20.65
182.163	-10.41
182.383	-32.94
182.602	48.98
182.822	30.55
183.042	-24.75
183.262	42.84
183.482	71.51
183.701	-12.46
183.921	5.97
184.141	18.26
184.361	16.21
184.58	34.64
184.8	-4.27
185.02	8.02
185.239	-2.22
185.459	-26.79
185.679	44.88
185.898	38.74
186.118	3.93
186.338	24.4
186.557	22.36
186.777	-51.37
186.997	28.5
187.216	38.74
187.436	69.46
187.655	57.17
187.875	155.47
188.095	-0.17
188.314	71.51
188.534	116.56
188.753	44.88
188.973	48.98
189.192	55.12
189.412	98.13
189.631	38.74
189.851	-14.51
190.07	81.75
190.29	-51.37
190.509	-30.89
190.729	38.74
190.948	12.12
191.168	65.36
191.387	22.36
191.607	32.6
191.826	28.5
192.045	1.88
192.265	36.69
192.484	16.21
192.704	3.93
192.923	-82.09
193.142	110.42
193.362	22.36
193.581	-14.51
193.8	16.21
194.02	-2.22
194.239	22.36
194.458	24.4
194.678	-18.6
194.897	-43.18
195.116	14.17
195.335	-22.7
195.555	65.36
195.774	1.88
195.993	32.6
196.212	30.55
196.432	-2.22
196.651	57.17
196.87	-39.08
197.089	141.14
197.308	10.07
197.528	61.27
197.747	53.08
197.966	24.4
198.185	85.84
198.404	24.4
198.623	51.03
198.842	96.08
199.062	8.02
199.281	46.93
199.5	-0.17
199.719	57.17
199.938	28.5
200.157	46.93
200.376	5.97
200.595	77.65
200.814	44.88
201.033	34.64
201.252	-12.46
201.471	48.98
201.69	12.12
201.909	98.13
202.128	3.93
202.347	16.21
202.566	44.88
202.785	-26.79
203.004	40.79
203.223	55.12
203.442	32.6
203.661	16.21
203.879	59.22
204.098	77.65
204.317	69.46
204.536	85.84
204.755	3.93
204.974	16.21
205.193	20.31
205.411	73.56
205.63	91.99
205.849	73.56
206.068	46.93
206.287	65.36
206.505	65.36
206.724	-8.36
206.943	-8.36
207.162	8.02
207.381	71.51
207.599	24.4
207.818	-4.27
208.037	3.93
208.255	30.55
208.474	59.22
208.693	81.75
208.911	59.22
209.13	96.08
209.349	63.32
209.567	38.74
209.786	69.46
210.005	126.8
210.223	38.74
210.442	26.45
210.661	67.41
210.879	63.32
211.098	44.88
211.316	77.65
211.535	57.17
211.753	-26.79
211.972	40.79
212.191	79.7
212.409	-22.7
212.628	36.69
212.846	67.41
213.065	59.22
213.283	42.84
213.502	40.79
213.72	32.6
213.938	10.07
214.157	10.07
214.375	16.21
214.594	22.36
214.812	48.98
215.031	-28.84
215.249	75.6
215.467	-43.18
215.686	-0.17
215.904	85.84
216.122	-8.36
216.341	114.52
216.559	42.84
216.778	71.51
216.996	96.08
217.214	-18.6
217.432	-32.94
217.651	53.08
217.869	51.03
218.087	-4.27
218.306	28.5
218.524	46.93
218.742	1.88
218.96	-20.65
219.179	-10.41
219.397	55.12
219.615	65.36
219.833	65.36
220.051	1.88
220.27	104.28
220.488	42.84
220.706	36.69
220.924	24.4
221.142	55.12
221.36	30.55
221.578	24.4
221.796	63.32
222.015	-34.99
222.233	73.56
222.451	28.5
222.669	65.36
222.887	71.51
223.105	28.5
223.323	75.6
223.541	-32.94
223.759	100.18
223.977	-57.51
224.195	71.51
224.413	69.46
224.631	28.5
224.849	24.4
225.067	106.32
225.285	57.17
225.503	22.36
225.721	5.97
225.939	59.22
226.157	94.04
226.375	128.85
226.592	-4.27
226.81	-55.47
227.028	83.8
227.246	79.7
227.464	128.85
227.682	-24.75
227.9	55.12
228.117	1.88
228.335	40.79
228.553	46.93
228.771	-10.41
228.989	75.6
229.206	87.89
229.424	-26.79
229.642	65.36
229.86	40.79
230.077	30.55
230.295	65.36
230.513	104.28
230.731	14.17
230.948	55.12
231.166	106.32
231.384	46.93
231.601	18.26
231.819	61.27
232.037	30.55
232.254	-26.79
232.472	59.22
232.689	69.46
232.907	98.13
233.125	26.45
233.342	-0.17
233.56	71.51
233.777	61.27
233.995	-12.46
234.213	20.31
234.43	-43.18
234.648	10.07
234.865	48.98
235.083	81.75
235.3	-14.51
235.518	24.4
235.735	42.84
235.953	-2.22
236.17	14.17
236.388	3.93
236.605	-16.55
236.822	69.46
237.04	71.51
237.257	48.98
237.475	22.36
237.692	-2.22
237.909	22.36
238.127	77.65
238.344	51.03
238.562	59.22
238.779	-26.79
238.996	14.17
239.214	94.04
239.431	91.99
239.648	-8.36
239.865	38.74
240.083	57.17
240.3	55.12
240.517	34.64
240.735	3.93
240.952	10.07
241.169	14.17
241.386	24.4
241.603	89.94
241.821	3.93
242.038	46.93
242.255	12.12
242.472	94.04
242.689	-2.22
242.907	42.84
243.124	63.32
243.341	28.5
243.558	53.08
243.775	26.45
243.992	-0.17
244.209	42.84
244.426	69.46
244.643	79.7
244.86	-32.94
245.078	28.5
245.295	36.69
245.512	51.03
245.729	30.55
245.946	71.51
246.163	8.02
246.38	24.4
246.597	36.69
246.814	53.08
247.031	40.79
247.248	10.07
247.464	28.5
247.681	-6.31
247.898	10.07
248.115	14.17
248.332	-10.41
248.549	118.61
248.766	38.74
248.983	110.42
249.2	118.61
249.417	51.03
249.633	32.6
249.85	18.26
250.067	36.69
250.284	5.97
250.501	55.12
250.717	96.08
250.934	44.88
251.151	24.4
251.368	30.55
251.585	57.17
251.801	46.93
252.018	-14.51
252.235	57.17
252.451	61.27
252.668	1.88
252.885	-24.75
253.102	28.5
253.318	-39.08
253.535	5.97
253.752	16.21
253.968	75.6
254.185	12.12
254.401	10.07
254.618	110.42
254.835	8.02
255.051	135
255.268	-8.36
255.484	-0.17
255.701	-8.36
255.917	94.04
256.134	46.93
256.351	77.65
256.567	26.45
256.784	22.36
257	-2.22
257.217	77.65
257.433	26.45
257.65	104.28
257.866	73.56
258.082	1.88
258.299	22.36
258.515	16.21
258.732	-63.66
258.948	44.88
259.165	34.64
259.381	38.74
259.597	65.36
259.814	38.74
260.03	-41.13
260.246	48.98
260.463	-2.22
260.679	122.71
260.895	77.65
261.112	89.94
261.328	57.17
261.544	51.03
261.761	18.26
261.977	28.5
262.193	53.08
262.409	40.79
262.626	-6.31
262.842	85.84
263.058	-10.41
263.274	55.12
263.49	36.69
263.707	100.18
263.923	-8.36
264.139	5.97
264.355	24.4
264.571	51.03
264.787	-28.84
265.004	73.56
265.22	55.12
265.436	-14.51
265.652	42.84
265.868	65.36
266.084	8.02
266.3	53.08
266.516	24.4
266.732	5.97
266.948	69.46
267.164	-12.46
267.38	48.98
267.596	116.56
267.812	106.32
268.028	34.64
268.244	-53.42
268.46	77.65
268.676	69.46
268.892	59.22
269.108	59.22
269.324	71.51
269.54	-20.65
269.756	12.12
269.972	87.89
270.188	55.12
270.403	-16.55
270.619	55.12
270.835	-14.51
271.051	87.89
271.267	8.02
271.483	30.55
271.698	3.93
271.914	44.88
272.13	42.84
272.346	-6.31
272.562	-28.84
272.777	3.93
272.993	69.46
273.209	87.89
273.425	42.84
273.64	30.55
273.856	104.28
274.072	16.21
274.287	26.45
274.503	48.98
274.719	51.03
274.934	30.55
275.15	12.12
275.366	-10.41
275.581	63.32
275.797	-10.41
276.012	51.03
276.228	87.89
276.444	59.22
276.659	81.75
276.875	18.26
277.09	-2.22
277.306	55.12
277.521	65.36
277.737	16.21
277.952	67.41
278.168	94.04
278.383	30.55
278.599	-49.32
278.814	143.19
279.03	89.94
279.245	-14.51
279.461	18.26
279.676	77.65
279.892	40.79
280.107	36.69
280.322	10.07
280.538	10.07
280.753	44.88
280.969	102.23
281.184	53.08
281.399	118.61
281.615	108.37
281.83	65.36
282.045	118.61
282.26	137.04
282.476	69.46
282.691	77.65
282.906	42.84
283.122	73.56
283.337	38.74
283.552	116.56
283.767	61.27
283.983	57.17
284.198	94.04
284.413	67.41
284.628	-8.36
284.843	-10.41
285.058	36.69
285.274	44.88
285.489	22.36
285.704	67.41
285.919	-8.36
286.134	-14.51
286.349	-0.17
286.564	51.03
286.779	10.07
286.995	53.08
287.21	44.88
287.425	85.84
287.64	12.12
287.855	100.18
288.07	-2.22
288.285	38.74
288.5	116.56
288.715	55.12
288.93	5.97
289.145	51.03
289.36	20.31
289.575	104.28
289.79	-18.6
290.004	30.55
290.219	122.71
290.434	75.6
290.649	30.55
290.864	-24.75
291.079	1.88
291.294	44.88
291.509	73.56
291.724	34.64
291.938	53.08
292.153	116.56
292.368	81.75
292.583	-47.27
292.798	61.27
293.012	-6.31
293.227	94.04
293.442	55.12
293.657	87.89
293.871	108.37
294.086	61.27
294.301	87.89
294.516	67.41
294.73	69.46
294.945	73.56
295.16	5.97
295.374	89.94
295.589	61.27
295.804	14.17
296.018	24.4
296.233	81.75
296.447	48.98
296.662	63.32
296.877	53.08
297.091	32.6
297.306	-12.46
297.52	69.46
297.735	57.17
297.949	30.55
298.164	38.74
298.378	26.45
298.593	28.5
298.807	57.17
299.022	34.64
299.236	85.84
299.451	71.51
299.665	63.32
299.88	28.5
300.094	-63.66
300.309	-32.94
300.523	96.08
300.737	65.36
300.952	73.56
301.166	73.56
301.381	42.84
301.595	24.4
301.809	5.97
302.024	77.65
302.238	91.99
302.452	40.79
302.667	8.02
302.881	69.46
303.095	42.84
303.309	53.08
303.524	51.03
303.738	100.18
303.952	69.46
304.166	20.31
304.381	51.03
304.595	102.23
304.809	104.28
305.023	77.65
305.237	32.6
305.452	48.98
305.666	124.76
305.88	65.36
306.094	153.43
306.308	57.17
306.522	102.23
306.736	-28.84
306.95	53.08
307.164	48.98
307.379	32.6
307.593	57.17
307.807	26.45
308.021	-14.51
308.235	98.13
308.449	42.84
308.663	85.84
308.877	32.6
309.091	108.37
309.305	59.22
309.519	48.98
309.733	91.99
309.947	-12.46
310.161	85.84
310.374	30.55
310.588	73.56
310.802	48.98
311.016	53.08
311.23	114.52
311.444	112.47
311.658	98.13
311.872	77.65
312.085	1.88
312.299	102.23
312.513	8.02
312.727	38.74
312.941	-4.27
313.154	3.93
313.368	65.36
313.582	130.9
313.796	100.18
314.009	51.03
314.223	10.07
314.437	22.36
314.651	130.9
314.864	67.41
315.078	46.93
315.292	40.79
315.505	20.31
315.719	8.02
315.933	63.32
316.146	5.97
316.36	44.88
316.573	143.19
316.787	83.8
317.001	145.24
317.214	-8.36
317.428	5.97
317.641	36.69
317.855	77.65
318.068	83.8
318.282	44.88
318.495	145.24
318.709	32.6
318.922	42.84
319.136	48.98
319.349	36.69
319.563	63.32
319.776	57.17
319.99	55.12
320.203	38.74
320.417	57.17
320.63	61.27
320.843	48.98
321.057	112.47
321.27	79.7
321.483	53.08
321.697	104.28
321.91	26.45
322.124	59.22
322.337	67.41
322.55	32.6
322.763	-8.36
322.977	48.98
323.19	24.4
323.403	28.5
323.617	65.36
323.83	77.65
324.043	42.84
324.256	104.28
324.469	26.45
324.683	59.22
324.896	34.64
325.109	32.6
325.322	61.27
325.535	87.89
325.748	8.02
325.962	112.47
326.175	34.64
326.388	81.75
326.601	57.17
326.814	106.32
327.027	79.7
327.24	89.94
327.453	34.64
327.666	118.61
327.879	-4.27
328.092	40.79
328.305	77.65
328.518	69.46
328.731	30.55
328.944	26.45
329.157	71.51
329.37	3.93
329.583	46.93
329.796	118.61
330.009	-0.17
330.222	98.13
330.435	130.9
330.648	102.23
330.861	-28.84
331.073	104.28
331.286	126.8
331.499	71.51
331.712	18.26
331.925	73.56
332.138	57.17
332.35	67.41
332.563	36.69
332.776	48.98
332.989	53.08
333.202	85.84
333.414	48.98
333.627	34.64
333.84	1.88
334.053	5.97
334.265	30.55
334.478	34.64
334.691	61.27
334.903	46.93
335.116	-43.18
335.329	30.55
335.541	1.88
335.754	108.37
335.966	-10.41
336.179	55.12
336.392	55.12
336.604	94.04
336.817	10.07
337.029	30.55
337.242	36.69
337.454	110.42
337.667	-2.22
337.88	75.6
338.092	34.64
338.305	28.5
338.517	69.46
338.729	118.61
338.942	83.8
339.154	38.74
339.367	20.31
339.579	96.08
339.792	-4.27
340.004	65.36
340.217	-18.6
340.429	14.17
340.641	51.03
340.854	-30.89
341.066	-12.46
341.278	57.17
341.491	73.56
341.703	79.7
341.915	-39.08
342.128	69.46
342.34	-4.27
342.552	16.21
342.764	79.7
342.977	67.41
343.189	48.98
343.401	83.8
343.613	46.93
343.826	73.56
344.038	28.5
344.25	34.64
344.462	46.93
344.674	110.42
344.886	-12.46
345.099	102.23
345.311	112.47
345.523	67.41
345.735	-22.7
345.947	120.66
346.159	89.94
346.371	91.99
346.583	46.93
346.795	30.55
347.007	-2.22
347.219	71.51
347.431	26.45
347.643	85.84
347.855	5.97
348.067	71.51
348.279	-4.27
348.491	71.51
348.703	87.89
348.915	1.88
349.127	116.56
349.339	114.52
349.551	51.03
349.763	106.32
349.975	1.88
350.187	59.22
350.399	94.04
350.61	73.56
350.822	24.4
351.034	102.23
351.246	53.08
351.458	91.99
351.669	48.98
351.881	63.32
352.093	79.7
352.305	44.88
352.517	18.26
352.728	128.85
352.94	114.52
353.152	81.75
353.363	40.79
353.575	91.99
353.787	57.17
353.999	85.84
354.21	145.24
354.422	83.8
354.633	30.55
354.845	22.36
355.057	69.46
355.268	96.08
355.48	57.17
355.692	63.32
355.903	48.98
356.115	63.32
356.326	30.55
356.538	79.7
356.749	96.08
356.961	139.09
357.172	24.4
357.384	112.47
357.595	75.6
357.807	79.7
358.018	67.41
358.23	32.6
358.441	87.89
358.653	26.45
358.864	63.32
359.075	1.88
359.287	100.18
359.498	139.09
359.709	32.6
359.921	34.64
360.132	102.23
360.344	118.61
360.555	44.88
360.766	104.28
360.977	-6.31
361.189	71.51
361.4	71.51
361.611	10.07
361.823	59.22
362.034	48.98
362.245	53.08
362.456	116.56
362.667	79.7
362.879	3.93
363.09	87.89
363.301	55.12
363.512	79.7
363.723	59.22
363.935	91.99
364.146	42.84
364.357	110.42
364.568	91.99
364.779	-37.03
364.99	71.51
365.201	147.28
365.412	91.99
365.623	32.6
365.834	81.75
366.045	128.85
366.256	100.18
366.467	130.9
366.678	71.51
366.889	36.69
367.1	24.4
367.311	10.07
367.522	18.26
367.733	24.4
367.944	141.14
368.155	48.98
368.366	44.88
368.577	108.37
368.788	116.56
368.999	65.36
369.209	83.8
369.42	120.66
369.631	77.65
369.842	87.89
370.053	51.03
370.264	145.24
370.474	67.41
370.685	38.74
370.896	81.75
371.107	63.32
371.317	51.03
371.528	44.88
371.739	83.8
371.95	85.84
372.16	73.56
372.371	-8.36
372.582	34.64
372.792	55.12
373.003	85.84
373.214	87.89
373.424	38.74
373.635	48.98
373.846	104.28
374.056	44.88
374.267	26.45
374.477	89.94
374.688	63.32
374.898	30.55
375.109	71.51
375.319	42.84
375.53	71.51
375.74	135
375.951	40.79
376.161	38.74
376.372	100.18
376.582	118.61
376.793	81.75
377.003	81.75
377.214	40.79
377.424	81.75
377.635	65.36
377.845	155.47
378.055	87.89
378.266	55.12
378.476	30.55
378.686	61.27
378.897	12.12
379.107	48.98
379.317	120.66
379.528	36.69
379.738	83.8
379.948	79.7
380.158	85.84
380.369	42.84
380.579	73.56
380.789	132.95
380.999	77.65
381.21	126.8
381.42	178
381.63	16.21
381.84	173.91
382.05	143.19
382.261	149.33
382.471	57.17
382.681	61.27
382.891	96.08
383.101	91.99
383.311	44.88
383.521	36.69
383.731	100.18
383.941	151.38
384.151	65.36
384.361	79.7
384.571	51.03
384.781	73.56
384.991	73.56
385.201	98.13
385.411	141.14
385.621	175.95
385.831	63.32
386.041	112.47
386.251	53.08
386.461	106.32
386.671	69.46
386.881	69.46
387.091	57.17
387.301	89.94
387.511	145.24
387.72	139.09
387.93	122.71
388.14	106.32
388.35	79.7
388.56	83.8
388.769	32.6
388.979	71.51
389.189	87.89
389.399	67.41
389.609	63.32
389.818	114.52
390.028	55.12
390.238	147.28
390.447	1.88
390.657	83.8
390.867	-2.22
391.076	55.12
391.286	20.31
391.496	110.42
391.705	10.07
391.915	81.75
392.125	112.47
392.334	46.93
392.544	130.9
392.753	44.88
392.963	100.18
393.172	67.41
393.382	57.17
393.591	126.8
393.801	151.38
394.01	130.9
394.22	104.28
394.429	114.52
394.639	118.61
394.848	169.81
395.058	182.1
395.267	155.47
395.477	116.56
395.686	141.14
395.895	171.86
396.105	151.38
396.314	42.84
396.524	96.08
396.733	141.14
396.942	161.62
397.152	108.37
397.361	151.38
397.57	169.81
397.78	192.34
397.989	106.32
398.198	98.13
398.407	157.52
398.617	106.32
398.826	114.52
399.035	48.98
399.244	139.09
399.453	126.8
399.663	194.39
399.872	165.71
400.081	145.24
400.29	221.01
400.499	120.66
400.708	87.89
400.917	163.67
401.127	155.47
401.336	114.52
401.545	126.8
401.754	208.72
401.963	167.76
402.172	132.95
402.381	145.24
402.59	157.52
402.799	161.62
403.008	173.91
403.217	165.71
403.426	145.24
403.635	132.95
403.844	161.62
404.053	155.47
404.262	151.38
404.471	145.24
404.68	137.04
404.888	225.11
405.097	132.95
405.306	198.48
405.515	280.4
405.724	229.2
405.933	223.06
406.142	182.1
406.35	274.26
406.559	198.48
406.768	309.07
406.977	345.94
407.185	311.12
407.394	270.16
407.603	272.21
407.812	272.21
408.02	245.59
408.229	300.88
408.438	284.5
408.646	366.42
408.855	339.79
409.064	378.7
409.272	352.08
409.481	405.33
409.69	446.29
409.898	407.38
410.107	425.81
410.315	434
410.524	388.94
410.733	382.8
410.941	534.35
411.15	495.44
411.358	515.92
411.567	585.55
411.775	524.11
411.984	505.68
412.192	556.88
412.401	587.6
412.609	585.55
412.818	714.57
413.026	665.42
413.234	714.57
413.443	716.62
413.651	804.68
413.86	700.23
414.068	843.59
414.276	823.11
414.485	784.2
414.693	843.59
414.901	1027.91
415.11	941.89
415.318	864.07
415.526	1040.2
415.734	878.41
415.943	978.76
416.151	1036.1
416.359	1128.26
416.567	1136.45
416.776	1142.6
416.984	1312.58
417.192	1304.39
417.4	1353.54
417.608	1281.86
417.817	1339.2
418.025	1431.36
418.233	1535.81
418.441	1584.96
418.649	1556.29
418.857	1650.49
419.065	1855.29
419.273	1677.12
419.481	1767.23
419.689	1904.44
419.897	1978.17
420.105	2012.98
420.313	2076.47
420.521	2146.1
420.729	2268.98
420.937	2236.21
421.145	2332.47
421.353	2395.95
421.561	2674.48
421.769	2680.62
421.977	2717.48
422.185	2660.14
422.393	2955.05
422.601	3096.36
422.809	2965.29
423.017	3014.44
423.224	3266.34
423.432	3389.22
423.64	3223.33
423.848	3671.84
424.056	3505.95
424.263	3784.48
424.471	3936.03
424.679	3899.16
424.887	4271.89
425.094	4132.63
425.302	4362
425.51	4456.21
425.718	4452.11
425.925	4671.25
426.133	4808.46
426.341	5041.93
426.548	5170.95
426.756	5256.97
426.964	5252.87
427.171	5631.74
427.379	5793.53
427.586	5928.7
427.794	6174.46
428.001	6526.71
428.209	6737.65
428.417	6500.08
428.624	6958.83
428.832	6936.3
429.039	7073.51
429.247	7143.14
429.454	7591.65
429.662	8048.35
429.869	7814.88
430.076	8165.08
430.284	7870.17
430.491	8191.7
430.699	8570.58
430.906	8758.99
431.114	8933.07
431.321	9316.04
431.528	9434.82
431.736	9950.91
431.943	10591.92
432.15	10321.59
432.358	10032.83
432.565	10868.4
432.772	10819.25
432.979	11527.85
433.187	11519.65
433.394	11546.28
433.601	12406.42
433.808	12416.66
434.016	12527.25
434.223	12701.33
434.43	13543.05
434.637	13366.92
434.844	14409.34
435.052	14749.3
435.259	14438.01
435.466	14567.03
435.673	14263.93
435.88	15210.09
436.087	15982.18
436.294	16365.15
436.501	15767.14
436.708	16029.28
436.915	16821.84
437.122	17444.43
437.329	17481.29
437.537	17985.09
437.743	18144.83
437.95	18042.43
438.157	18996.79
438.364	19707.43
438.571	19756.58
438.778	20059.68
438.985	21478.93
439.192	20583.96
439.399	21884.42
439.606	21145.11
439.813	22089.22
440.02	23363.06
440.227	22986.23
440.433	22697.47
440.64	23457.26
440.847	23621.1
441.054	24143.33
441.261	25529.81
441.467	25376.21
441.674	26031.56
441.881	26959.29
442.088	26435.01
442.294	26580.42
442.501	27340.21
442.708	27903.4
442.914	28609.95
443.121	30180.74
443.328	29144.47
443.534	31645.04
443.741	30410.12
443.948	29998.48
444.154	32017.77
444.361	31868.27
444.568	32007.53
444.774	32398.69
444.981	32781.67
445.187	33443.16
445.394	34835.78
445.6	34073.93
445.807	37606.68
446.013	36275.5
446.22	36625.7
446.426	38083.86
446.633	38518.03
446.839	40062.19
447.046	38411.53
447.252	40258.8
447.459	40793.32
447.665	40211.7
447.871	42216.66
448.078	43709.63
448.284	42097.87
448.491	42775.75
448.697	44631.21
448.903	45161.64
449.11	45380.77
449.316	44840.11
449.522	45839.51
449.728	46781.58
449.935	47023.24
450.141	47027.34
450.347	48606.32
450.553	46806.16
450.76	47385.73
450.966	48807.02
451.172	48114.81
451.378	49609.82
451.584	48198.77
451.791	49501.28
451.997	49759.33
452.203	50336.85
452.409	50873.42
452.615	50289.75
452.821	48237.69
453.027	48032.89
453.233	50357.33
453.44	48802.92
453.646	48888.94
453.852	49577.06
454.058	49957.98
454.264	48270.45
454.47	49460.32
454.676	48749.68
454.882	49980.51
455.088	45890.71
455.294	46668.94
455.5	47068.3
455.705	47703.17
455.911	45544.61
456.117	44836.01
456.323	44475.57
456.529	42466.51
456.735	43850.94
456.941	42951.88
457.147	41876.69
457.352	40459.5
457.558	40541.42
457.764	40379.63
457.97	39914.74
458.176	38714.63
458.381	38618.38
458.587	36918.56
458.793	36859.17
458.999	34954.56
459.204	37891.35
459.41	36756.77
459.616	33801.55
459.821	34225.48
460.027	33981.77
460.233	33178.97
460.438	31835.5
460.644	31995.25
460.85	30340.49
461.055	30217.61
461.261	30021
461.466	27815.34
461.672	26949.05
461.878	28857.76
462.083	26803.64
462.289	26379.71
462.494	26404.29
462.7	25062.87
462.905	24192.48
463.111	25357.78
463.316	25349.59
463.522	24751.58
463.727	24925.66
463.932	24718.81
464.138	24638.94
464.343	24444.38
464.549	23707.12
464.754	24657.37
464.959	24462.82
465.165	24264.16
465.37	23039.48
465.575	22894.07
465.781	23750.12
465.986	23815.66
466.191	23002.61
466.397	22343.17
466.602	21370.38
466.807	22265.35
467.012	22267.39
