Data from USB4F104151__58__12-36-26-036.txt Node

Date: Fri Mar 14 12:36:26 EDT 2025
User: louis
Spectrometer: USB4F10415
Trigger mode: 4
Integration Time (sec): 2.000000E-2
Scans to average: 1
Electric dark correction enabled: true
Nonlinearity correction enabled: false
Boxcar width: 0
XAxis mode: Wavelengths
Number of Pixels in Spectrum: 3648
>>>>>Begin Spectral Data<<<<<
178.204	-97.62
178.424	-97.62
178.644	-97.62
178.864	-97.62
179.084	-95.57
179.304	-64.85
179.524	-19.8
179.744	-19.8
179.964	86.7
180.184	0.68
180.404	8.87
180.624	-30.04
180.844	-9.56
181.064	111.27
181.283	-7.51
181.503	-52.56
181.723	-3.41
181.943	-66.9
182.163	51.88
182.383	33.45
182.602	-17.75
182.822	74.41
183.042	39.59
183.262	-23.89
183.482	23.21
183.701	-13.65
183.921	-34.13
184.141	-30.04
184.361	144.04
184.58	19.11
184.8	92.84
185.02	-38.23
185.239	25.26
185.459	-17.75
185.679	0.68
185.898	35.5
186.118	78.51
186.338	12.97
186.557	39.59
186.777	29.35
186.997	-3.41
187.216	58.03
187.436	41.64
187.655	-23.89
187.875	-15.7
188.095	39.59
188.314	-38.23
188.534	45.74
188.753	64.17
188.973	111.27
189.192	60.07
189.412	-5.46
189.631	6.83
189.851	27.31
190.07	37.55
190.29	-3.41
190.509	23.21
190.729	58.03
190.948	39.59
191.168	166.57
191.387	6.83
191.607	94.89
191.826	8.87
192.045	-19.8
192.265	-62.8
192.484	49.83
192.704	23.21
192.923	12.97
193.142	43.69
193.362	60.07
193.581	2.73
193.8	53.93
194.02	64.17
194.239	39.59
194.458	86.7
194.678	-21.85
194.897	-27.99
195.116	53.93
195.335	12.97
195.555	15.02
195.774	125.61
195.993	55.98
196.212	25.26
196.432	-1.37
196.651	2.73
196.87	8.87
197.089	23.21
197.308	70.31
197.528	94.89
197.747	-3.41
197.966	17.07
198.185	-7.51
198.404	-13.65
198.623	-44.37
198.842	53.93
199.062	-40.28
199.281	2.73
199.5	60.07
199.719	25.26
199.938	55.98
200.157	4.78
200.376	17.07
200.595	58.03
200.814	-32.08
201.033	-11.61
201.252	12.97
201.471	-11.61
201.69	47.79
201.909	43.69
202.128	60.07
202.347	-7.51
202.566	51.88
202.785	-81.24
203.004	45.74
203.223	76.46
203.442	17.07
203.661	-5.46
203.879	84.65
204.098	-7.51
204.317	27.31
204.536	49.83
204.755	72.36
204.974	12.97
205.193	-46.42
205.411	-17.75
205.63	19.11
205.849	31.4
206.068	35.5
206.287	19.11
206.505	49.83
206.724	-64.85
206.943	6.83
207.162	27.31
207.381	-13.65
207.599	0.68
207.818	-21.85
208.037	10.92
208.255	-5.46
208.474	88.75
208.693	-95.57
208.911	15.02
209.13	-3.41
209.349	-3.41
209.567	45.74
209.786	51.88
210.005	2.73
210.223	-38.23
210.442	49.83
210.661	60.07
210.879	55.98
211.098	-3.41
211.316	66.22
211.535	-32.08
211.753	55.98
211.972	41.64
212.191	-36.18
212.409	-1.37
212.628	37.55
212.846	101.03
213.065	23.21
213.283	92.84
213.502	-11.61
213.72	74.41
213.938	51.88
214.157	19.11
214.375	58.03
214.594	25.26
214.812	55.98
215.031	66.22
215.249	10.92
215.467	-25.94
215.686	8.87
215.904	-9.56
216.122	43.69
216.341	15.02
216.559	58.03
216.778	-75.09
216.996	105.13
217.214	-1.37
217.432	-13.65
217.651	15.02
217.869	51.88
218.087	-15.7
218.306	-38.23
218.524	41.64
218.742	-21.85
218.96	-68.95
219.179	82.6
219.397	4.78
219.615	35.5
219.833	-32.08
220.051	19.11
220.27	-5.46
220.488	47.79
220.706	55.98
220.924	0.68
221.142	47.79
221.36	25.26
221.578	-27.99
221.796	117.42
222.015	19.11
222.233	6.83
222.451	39.59
222.669	47.79
222.887	29.35
223.105	-77.14
223.323	35.5
223.541	37.55
223.759	-32.08
223.977	-30.04
224.195	101.03
224.413	19.11
224.631	58.03
224.849	-13.65
225.067	80.55
225.285	45.74
225.503	41.64
225.721	-7.51
225.939	-40.28
226.157	74.41
226.375	115.37
226.592	-7.51
226.81	25.26
227.028	2.73
227.246	33.45
227.464	39.59
227.682	29.35
227.9	-3.41
228.117	2.73
228.335	51.88
228.553	37.55
228.771	31.4
228.989	-17.75
229.206	25.26
229.424	4.78
229.642	45.74
229.86	-23.89
230.077	17.07
230.295	90.79
230.513	33.45
230.731	68.27
230.948	-17.75
231.166	53.93
231.384	15.02
231.601	47.79
231.819	29.35
232.037	-1.37
232.254	86.7
232.472	78.51
232.689	-25.94
232.907	49.83
233.125	-58.71
233.342	-44.37
233.56	4.78
233.777	-54.61
233.995	55.98
234.213	25.26
234.43	4.78
234.648	21.16
234.865	-5.46
235.083	39.59
235.3	31.4
235.518	15.02
235.735	-5.46
235.953	98.99
236.17	12.97
236.388	68.27
236.605	45.74
236.822	-44.37
237.04	43.69
237.257	62.12
237.475	27.31
237.692	10.92
237.909	51.88
238.127	-19.8
238.344	51.88
238.562	19.11
238.779	10.92
238.996	27.31
239.214	43.69
239.431	29.35
239.648	-9.56
239.865	47.79
240.083	-11.61
240.3	27.31
240.517	-58.71
240.735	6.83
240.952	82.6
241.169	-46.42
241.386	43.69
241.603	-19.8
241.821	19.11
242.038	53.93
242.255	12.97
242.472	78.51
242.689	-7.51
242.907	27.31
243.124	64.17
243.341	19.11
243.558	17.07
243.775	2.73
243.992	41.64
244.209	74.41
244.426	27.31
244.643	41.64
244.86	-23.89
245.078	15.02
245.295	-9.56
245.512	-25.94
245.729	64.17
245.946	107.18
246.163	47.79
246.38	84.65
246.597	17.07
246.814	41.64
247.031	70.31
247.248	-30.04
247.464	17.07
247.681	58.03
247.898	23.21
248.115	-11.61
248.332	23.21
248.549	64.17
248.766	68.27
248.983	-58.71
249.2	29.35
249.417	72.36
249.633	4.78
249.85	80.55
250.067	10.92
250.284	96.94
250.501	94.89
250.717	-3.41
250.934	-9.56
251.151	27.31
251.368	2.73
251.585	-9.56
251.801	15.02
252.018	-1.37
252.235	64.17
252.451	25.26
252.668	23.21
252.885	10.92
253.102	60.07
253.318	-27.99
253.535	80.55
253.752	-23.89
253.968	-27.99
254.185	-34.13
254.401	-3.41
254.618	4.78
254.835	-36.18
255.051	33.45
255.268	60.07
255.484	49.83
255.701	78.51
255.917	76.46
256.134	-23.89
256.351	60.07
256.567	64.17
256.784	21.16
257	-91.48
257.217	21.16
257.433	58.03
257.65	53.93
257.866	64.17
258.082	-11.61
258.299	25.26
258.515	19.11
258.732	39.59
258.948	-25.94
259.165	-9.56
259.381	111.27
259.597	-1.37
259.814	39.59
260.03	72.36
260.246	29.35
260.463	-5.46
260.679	121.51
260.895	-23.89
261.112	41.64
261.328	-19.8
261.544	27.31
261.761	160.42
261.977	2.73
262.193	-23.89
262.409	84.65
262.626	29.35
262.842	-23.89
263.058	15.02
263.274	-52.56
263.49	8.87
263.707	33.45
263.923	47.79
264.139	49.83
264.355	0.68
264.571	49.83
264.787	29.35
265.004	15.02
265.22	6.83
265.436	8.87
265.652	43.69
265.868	25.26
266.084	21.16
266.3	4.78
266.516	2.73
266.732	47.79
266.948	-17.75
267.164	6.83
267.38	-9.56
267.596	58.03
267.812	92.84
268.028	25.26
268.244	-38.23
268.46	8.87
268.676	-38.23
268.892	45.74
269.108	-1.37
269.324	0.68
269.54	6.83
269.756	-23.89
269.972	10.92
270.188	-5.46
270.403	-7.51
270.619	98.99
270.835	-3.41
271.051	86.7
271.267	43.69
271.483	76.46
271.698	43.69
271.914	80.55
272.13	78.51
272.346	41.64
272.562	6.83
272.777	96.94
272.993	-15.7
273.209	-7.51
273.425	-7.51
273.64	17.07
273.856	35.5
274.072	8.87
274.287	-107.86
274.503	0.68
274.719	17.07
274.934	12.97
275.15	31.4
275.366	39.59
275.581	-101.72
275.797	78.51
276.012	45.74
276.228	51.88
276.444	-38.23
276.659	58.03
276.875	33.45
277.09	-3.41
277.306	-32.08
277.521	15.02
277.737	62.12
277.952	17.07
278.168	-27.99
278.383	68.27
278.599	41.64
278.814	19.11
279.03	0.68
279.245	103.08
279.461	25.26
279.676	76.46
279.892	23.21
280.107	27.31
280.322	41.64
280.538	23.21
280.753	-19.8
280.969	25.26
281.184	51.88
281.399	74.41
281.615	47.79
281.83	113.32
282.045	-17.75
282.26	-11.61
282.476	51.88
282.691	68.27
282.906	-7.51
283.122	33.45
283.337	-52.56
283.552	-19.8
283.767	43.69
283.983	43.69
284.198	2.73
284.413	62.12
284.628	62.12
284.843	33.45
285.058	-5.46
285.274	-60.76
285.489	58.03
285.704	-23.89
285.919	-30.04
286.134	80.55
286.349	119.46
286.564	58.03
286.779	27.31
286.995	19.11
287.21	60.07
287.425	27.31
287.64	19.11
287.855	76.46
288.07	6.83
288.285	80.55
288.5	51.88
288.715	39.59
288.93	27.31
289.145	27.31
289.36	-19.8
289.575	2.73
289.79	70.31
290.004	-15.7
290.219	35.5
290.434	51.88
290.649	21.16
290.864	19.11
291.079	4.78
291.294	41.64
291.509	78.51
291.724	-48.47
291.938	37.55
292.153	6.83
292.368	33.45
292.583	21.16
292.798	70.31
293.012	47.79
293.227	105.13
293.442	17.07
293.657	-23.89
293.871	82.6
294.086	39.59
294.301	90.79
294.516	33.45
294.73	39.59
294.945	12.97
295.16	70.31
295.374	109.22
295.589	-54.61
295.804	94.89
296.018	4.78
296.233	58.03
296.447	27.31
296.662	-17.75
296.877	47.79
297.091	2.73
297.306	51.88
297.52	55.98
297.735	21.16
297.949	-25.94
298.164	12.97
298.378	90.79
298.593	0.68
298.807	-34.13
299.022	55.98
299.236	43.69
299.451	33.45
299.665	43.69
299.88	60.07
300.094	39.59
300.309	-5.46
300.523	10.92
300.737	12.97
300.952	23.21
301.166	35.5
301.381	-54.61
301.595	66.22
301.809	39.59
302.024	45.74
302.238	39.59
302.452	64.17
302.667	-25.94
302.881	47.79
303.095	41.64
303.309	-3.41
303.524	64.17
303.738	33.45
303.952	-11.61
304.166	-11.61
304.381	17.07
304.595	80.55
304.809	96.94
305.023	33.45
305.237	-25.94
305.452	23.21
305.666	74.41
305.88	62.12
306.094	80.55
306.308	60.07
306.522	6.83
306.736	21.16
306.95	68.27
307.164	43.69
307.379	70.31
307.593	45.74
307.807	25.26
308.021	131.75
308.235	47.79
308.449	-50.52
308.663	37.55
308.877	33.45
309.091	17.07
309.305	25.26
309.519	-50.52
309.733	35.5
309.947	47.79
310.161	76.46
310.374	25.26
310.588	-46.42
310.802	4.78
311.016	78.51
311.23	-19.8
311.444	60.07
311.658	86.7
311.872	33.45
312.085	-1.37
312.299	146.09
312.513	111.27
312.727	88.75
312.941	45.74
313.154	51.88
313.368	33.45
313.582	82.6
313.796	135.85
314.009	33.45
314.223	62.12
314.437	84.65
314.651	117.42
314.864	82.6
315.078	74.41
315.292	-1.37
315.505	-36.18
315.719	29.35
315.933	15.02
316.146	10.92
316.36	37.55
316.573	55.98
316.787	19.11
317.001	-5.46
317.214	-27.99
317.428	53.93
317.641	12.97
317.855	6.83
318.068	58.03
318.282	45.74
318.495	70.31
318.709	92.84
318.922	10.92
319.136	119.46
319.349	62.12
319.563	76.46
319.776	98.99
319.99	-40.28
320.203	66.22
320.417	72.36
320.63	4.78
320.843	90.79
321.057	29.35
321.27	45.74
321.483	115.37
321.697	74.41
321.91	12.97
322.124	51.88
322.337	-1.37
322.55	39.59
322.763	23.21
322.977	60.07
323.19	66.22
323.403	72.36
323.617	94.89
323.83	23.21
324.043	51.88
324.256	101.03
324.469	31.4
324.683	94.89
324.896	96.94
325.109	62.12
325.322	19.11
325.535	39.59
325.748	64.17
325.962	64.17
326.175	80.55
326.388	96.94
326.601	39.59
326.814	76.46
327.027	33.45
327.24	84.65
327.453	6.83
327.666	76.46
327.879	129.7
328.092	66.22
328.305	-9.56
328.518	86.7
328.731	-19.8
328.944	78.51
329.157	68.27
329.37	19.11
329.583	121.51
329.796	47.79
330.009	64.17
330.222	105.13
330.435	-3.41
330.648	31.4
330.861	49.83
331.073	17.07
331.286	47.79
331.499	58.03
331.712	125.61
331.925	98.99
332.138	123.56
332.35	4.78
332.563	10.92
332.776	39.59
332.989	31.4
333.202	58.03
333.414	49.83
333.627	29.35
333.84	15.02
334.053	12.97
334.265	47.79
334.478	0.68
334.691	53.93
334.903	21.16
335.116	55.98
335.329	21.16
335.541	0.68
335.754	15.02
335.966	66.22
336.179	55.98
336.392	70.31
336.604	41.64
336.817	4.78
337.029	-30.04
337.242	10.92
337.454	53.93
337.667	29.35
337.88	94.89
338.092	84.65
338.305	51.88
338.517	70.31
338.729	49.83
338.942	49.83
339.154	66.22
339.367	29.35
339.579	4.78
339.792	31.4
340.004	74.41
340.217	62.12
340.429	72.36
340.641	96.94
340.854	19.11
341.066	62.12
341.278	74.41
341.491	53.93
341.703	107.18
341.915	60.07
342.128	88.75
342.34	49.83
342.552	49.83
342.764	0.68
342.977	-44.37
343.189	31.4
343.401	19.11
343.613	6.83
343.826	74.41
344.038	41.64
344.25	41.64
344.462	37.55
344.674	10.92
344.886	80.55
345.099	135.85
345.311	84.65
345.523	-3.41
345.735	41.64
345.947	35.5
346.159	76.46
346.371	105.13
346.583	-9.56
346.795	53.93
347.007	53.93
347.219	125.61
347.431	27.31
347.643	92.84
347.855	10.92
348.067	78.51
348.279	-19.8
348.491	43.69
348.703	68.27
348.915	12.97
349.127	29.35
349.339	58.03
349.551	35.5
349.763	8.87
349.975	60.07
350.187	29.35
350.399	-7.51
350.61	68.27
350.822	43.69
351.034	84.65
351.246	6.83
351.458	66.22
351.669	49.83
351.881	96.94
352.093	17.07
352.305	135.85
352.517	84.65
352.728	84.65
352.94	-17.75
353.152	33.45
353.363	66.22
353.575	76.46
353.787	86.7
353.999	84.65
354.21	78.51
354.422	47.79
354.633	29.35
354.845	21.16
355.057	-11.61
355.268	49.83
355.48	15.02
355.692	125.61
355.903	70.31
356.115	66.22
356.326	51.88
356.538	41.64
356.749	35.5
356.961	90.79
357.172	111.27
357.384	53.93
357.595	141.99
357.807	25.26
358.018	-5.46
358.23	92.84
358.441	129.7
358.653	33.45
358.864	2.73
359.075	17.07
359.287	47.79
359.498	115.37
359.709	37.55
359.921	43.69
360.132	19.11
360.344	55.98
360.555	31.4
360.766	-3.41
360.977	51.88
361.189	64.17
361.4	12.97
361.611	90.79
361.823	31.4
362.034	92.84
362.245	29.35
362.456	94.89
362.667	62.12
362.879	135.85
363.09	49.83
363.301	64.17
363.512	49.83
363.723	111.27
363.935	33.45
364.146	58.03
364.357	-11.61
364.568	47.79
364.779	31.4
364.99	92.84
365.201	21.16
365.412	66.22
365.623	117.42
365.834	115.37
366.045	-5.46
366.256	96.94
366.467	88.75
366.678	115.37
366.889	78.51
367.1	27.31
367.311	92.84
367.522	31.4
367.733	70.31
367.944	82.6
368.155	39.59
368.366	37.55
368.577	146.09
368.788	109.22
368.999	41.64
369.209	-21.85
369.42	103.08
369.631	33.45
369.842	66.22
370.053	19.11
370.264	27.31
370.474	-7.51
370.685	49.83
370.896	21.16
371.107	60.07
371.317	25.26
371.528	53.93
371.739	55.98
371.95	58.03
372.16	121.51
372.371	45.74
372.582	74.41
372.792	6.83
373.003	119.46
373.214	35.5
373.424	88.75
373.635	10.92
373.846	55.98
374.056	68.27
374.267	113.32
374.477	76.46
374.688	37.55
374.898	76.46
375.109	41.64
375.319	86.7
375.53	21.16
375.74	0.68
375.951	55.98
376.161	31.4
376.372	55.98
376.582	68.27
376.793	98.99
377.003	125.61
377.214	41.64
377.424	27.31
377.635	66.22
377.845	82.6
378.055	113.32
378.266	49.83
378.476	60.07
378.686	82.6
378.897	62.12
379.107	115.37
379.317	66.22
379.528	105.13
379.738	47.79
379.948	23.21
380.158	74.41
380.369	113.32
380.579	49.83
380.789	49.83
380.999	49.83
381.21	103.08
381.42	51.88
381.63	-23.89
381.84	82.6
382.05	88.75
382.261	66.22
382.471	80.55
382.681	0.68
382.891	41.64
383.101	35.5
383.311	19.11
383.521	66.22
383.731	10.92
383.941	35.5
384.151	23.21
384.361	84.65
384.571	62.12
384.781	101.03
384.991	107.18
385.201	213.67
385.411	168.62
385.621	53.93
385.831	64.17
386.041	141.99
386.251	66.22
386.461	164.52
386.671	101.03
386.881	60.07
387.091	117.42
387.301	101.03
387.511	60.07
387.72	76.46
387.93	84.65
388.14	60.07
388.35	86.7
388.56	129.7
388.769	129.7
388.979	86.7
389.189	55.98
389.399	25.26
389.609	72.36
389.818	160.42
390.028	88.75
390.238	80.55
390.447	133.8
390.657	92.84
390.867	119.46
391.076	92.84
391.286	82.6
391.496	76.46
391.705	49.83
391.915	131.75
392.125	76.46
392.334	49.83
392.544	82.6
392.753	51.88
392.963	76.46
393.172	105.13
393.382	51.88
393.591	131.75
393.801	98.99
394.01	70.31
394.22	21.16
394.429	92.84
394.639	98.99
394.848	141.99
395.058	27.31
395.267	109.22
395.477	105.13
395.686	166.57
395.895	166.57
396.105	98.99
396.314	88.75
396.524	62.12
396.733	72.36
396.942	160.42
397.152	127.66
397.361	131.75
397.57	139.94
397.78	166.57
397.989	117.42
398.198	185
398.407	154.28
398.617	117.42
398.826	123.56
399.035	121.51
399.244	168.62
399.453	88.75
399.663	135.85
399.872	121.51
400.081	180.9
400.29	164.52
400.499	125.61
400.708	182.95
400.917	201.38
401.127	152.23
401.336	166.57
401.545	148.14
401.754	211.62
401.963	182.95
402.172	141.99
402.381	193.19
402.59	121.51
402.799	125.61
403.008	150.18
403.217	168.62
403.426	238.25
403.635	195.24
403.844	250.53
404.053	221.86
404.262	178.86
404.471	225.96
404.68	197.29
404.888	187.05
405.097	182.95
405.306	197.29
405.515	207.53
405.724	223.91
405.933	225.96
406.142	238.25
406.35	207.53
406.559	260.77
406.768	275.11
406.977	275.11
407.185	328.36
407.394	307.88
407.603	338.6
407.812	348.84
408.02	326.31
408.229	338.6
408.438	281.25
408.646	416.42
408.855	357.03
409.064	383.65
409.272	322.21
409.481	428.71
409.69	400.04
409.898	449.19
410.107	455.33
410.315	527.01
410.524	524.96
410.733	498.34
410.941	494.24
411.15	451.24
411.358	479.91
411.567	584.35
411.775	600.74
411.984	649.89
412.192	602.79
412.401	656.03
412.609	682.66
412.818	705.18
413.026	770.72
413.234	760.48
413.443	805.53
413.651	787.1
413.86	797.34
414.068	887.45
414.276	834.21
414.485	952.99
414.693	932.51
414.901	952.99
415.11	1026.71
415.318	1049.24
415.526	1118.87
415.734	1143.45
415.943	1133.21
416.151	1170.07
416.359	1190.55
416.567	1213.08
416.776	1305.24
416.984	1424.02
417.192	1407.64
417.4	1424.02
417.608	1344.15
417.817	1436.31
418.025	1620.63
418.233	1671.83
418.441	1661.59
418.649	1747.6
418.857	1835.66
419.065	1903.25
419.273	1903.25
419.481	1995.4
419.689	2048.65
419.897	2261.64
420.105	2124.43
420.313	2359.94
420.521	2341.51
420.729	2433.67
420.937	2441.86
421.145	2687.62
421.353	2634.37
421.561	2810.5
421.769	2845.31
421.977	2947.71
422.185	2992.76
422.393	3091.07
422.601	3332.73
422.809	3400.31
423.017	3342.97
423.224	3564.15
423.432	3560.05
423.64	3766.9
423.848	3992.17
424.056	3814
424.263	4117.1
424.471	4217.45
424.679	4153.96
424.887	4315.75
425.094	4579.94
425.302	4711.01
425.51	4921.95
425.718	5073.5
425.925	5059.17
426.133	5288.54
426.341	5274.2
426.548	5778
426.756	5837.39
426.964	5884.5
427.171	6251.08
427.379	6380.11
427.586	6425.16
427.794	6584.9
428.001	6779.46
428.209	7277.12
428.417	7201.34
428.624	7588.41
428.832	7602.74
429.039	7490.1
429.247	7567.93
429.454	8161.84
429.662	8993.31
429.869	8299.05
430.076	8831.52
430.284	8784.42
430.491	9067.04
430.699	9521.69
430.906	9613.85
431.114	9630.23
431.321	10154.51
431.528	10414.6
431.736	10807.81
431.943	11321.85
432.15	11209.22
432.358	11207.17
432.565	12165.62
432.772	11805.17
432.979	12552.68
433.187	12532.2
433.394	12863.97
433.601	13554.14
433.808	13674.97
434.016	13576.67
434.223	13994.45
434.43	14971.33
434.637	14639.56
434.844	15528.38
435.052	15894.97
435.259	16003.51
435.466	15921.59
435.673	15888.82
435.88	17156.52
436.087	17861.02
436.294	17650.08
436.501	17457.57
436.708	17801.63
436.915	18452.88
437.122	19319.17
437.329	19165.57
437.537	19726.72
437.743	19947.9
437.95	19745.15
438.157	20685.17
438.364	21713.25
438.571	21600.61
438.778	21862.75
438.985	23818.56
439.192	22716.75
439.399	23316.81
439.606	23060.81
439.813	24289.59
440.02	25688.35
440.227	25213.23
440.433	24764.72
440.64	25778.47
440.847	25887.01
441.054	26538.26
441.261	27955.46
441.467	27676.93
441.674	28537.08
441.881	29325.55
442.088	29554.92
442.294	29155.57
442.501	30167.26
442.708	30593.24
442.914	31649.99
443.121	32780.47
443.328	32153.79
443.534	34195.62
443.741	33382.57
443.948	32694.46
444.154	35291.28
444.361	35174.55
444.568	35356.82
444.774	35254.42
444.981	35580.04
445.187	36794.49
445.394	38148.2
445.6	37957.74
445.807	41295.92
446.013	39956.55
446.22	40718.4
446.426	42278.95
446.633	42194.98
446.839	43659.28
447.046	41748.53
447.252	44363.78
447.459	44308.49
447.665	43974.67
447.871	46198.76
448.078	47992.78
448.284	45682.67
448.491	47085.53
448.697	48641.99
448.903	49573.81
449.11	49602.49
449.316	49205.18
449.522	50055.09
449.728	51199.9
449.935	51115.93
450.141	51539.86
450.347	52688.77
450.553	51492.76
450.76	51748.76
450.966	53168
451.172	52791.17
451.378	54335.34
451.584	52887.43
451.791	53835.64
451.997	53770.1
452.203	54941.54
452.409	55009.12
452.615	54828.9
452.821	52785.03
453.027	52516.75
453.233	55103.33
453.44	52711.3
453.646	53653.37
453.852	53745.53
454.058	54904.68
454.264	53098.37
454.47	54019.95
454.676	53122.94
454.882	54929.25
455.088	50360.23
455.294	50997.15
455.5	51435.42
455.705	52045.71
455.911	50198.44
456.117	49297.34
456.323	48695.24
456.529	46155.75
456.735	48490.44
456.941	46929.89
457.147	46356.46
457.352	44949.5
457.558	44478.47
457.764	44558.34
457.97	43460.63
458.176	42965.02
458.381	43034.65
458.587	40845.37
458.793	41091.13
458.999	38563.93
459.204	41480.24
459.41	40130.63
459.616	37580.91
459.821	37501.04
460.027	37806.19
460.233	36575.36
460.438	35020.95
460.644	35332.24
460.85	33712.3
461.055	33427.63
461.261	33331.37
461.466	30490.84
461.672	30105.82
461.878	31981.76
462.083	29661.41
462.289	29284.59
462.494	28946.67
462.7	27449.61
462.905	26722.58
463.111	28064
463.316	27969.79
463.522	27402.5
463.727	27367.69
463.932	27216.14
464.138	27017.49
464.343	27230.48
464.549	26294.55
464.754	27218.19
464.959	27207.95
465.165	27025.68
465.37	25817.38
465.575	25155.88
465.781	26278.17
465.986	26241.31
466.191	24944.94
466.397	24852.78
466.602	23769.41
