Data from USB4F104151__53__12-36-16-957.txt Node

Date: Fri Mar 14 12:36:16 EDT 2025
User: louis
Spectrometer: USB4F10415
Trigger mode: 4
Integration Time (sec): 2.000000E-2
Scans to average: 1
Electric dark correction enabled: true
Nonlinearity correction enabled: false
Boxcar width: 0
XAxis mode: Wavelengths
Number of Pixels in Spectrum: 3648
>>>>>Begin Spectral Data<<<<<
178.204	-32.94
178.424	-32.94
178.644	-32.94
178.864	-69.8
179.084	-61.61
179.304	-37.03
179.524	8.02
179.744	-12.46
179.964	26.45
180.184	-0.17
180.404	-30.89
180.624	28.5
180.844	24.4
181.064	-39.08
181.283	20.31
181.503	-18.6
181.723	30.55
181.943	44.88
182.163	69.46
182.383	14.17
182.602	89.94
182.822	79.7
183.042	100.18
183.262	40.79
183.482	-16.55
183.701	57.17
183.921	34.64
184.141	55.12
184.361	22.36
184.58	18.26
184.8	79.7
185.02	46.93
185.239	108.37
185.459	12.12
185.679	-2.22
185.898	28.5
186.118	16.21
186.338	34.64
186.557	96.08
186.777	40.79
186.997	30.55
187.216	102.23
187.436	91.99
187.655	100.18
187.875	75.6
188.095	34.64
188.314	51.03
188.534	24.4
188.753	-39.08
188.973	5.97
189.192	51.03
189.412	63.32
189.631	61.27
189.851	-4.27
190.07	122.71
190.29	-30.89
190.509	38.74
190.729	100.18
190.948	118.61
191.168	67.41
191.387	53.08
191.607	-2.22
191.826	143.19
192.045	-6.31
192.265	36.69
192.484	77.65
192.704	75.6
192.923	5.97
193.142	108.37
193.362	40.79
193.581	120.66
193.8	63.32
194.02	73.56
194.239	81.75
194.458	8.02
194.678	26.45
194.897	53.08
195.116	38.74
195.335	48.98
195.555	26.45
195.774	79.7
195.993	44.88
196.212	69.46
196.432	3.93
196.651	26.45
196.87	69.46
197.089	135
197.308	61.27
197.528	12.12
197.747	14.17
197.966	55.12
198.185	46.93
198.404	14.17
198.623	71.51
198.842	42.84
199.062	81.75
199.281	12.12
199.5	63.32
199.719	81.75
199.938	44.88
200.157	89.94
200.376	28.5
200.595	61.27
200.814	91.99
201.033	57.17
201.252	57.17
201.471	57.17
201.69	67.41
201.909	73.56
202.128	34.64
202.347	53.08
202.566	36.69
202.785	79.7
203.004	-0.17
203.223	61.27
203.442	110.42
203.661	26.45
203.879	65.36
204.098	69.46
204.317	20.31
204.536	-0.17
204.755	63.32
204.974	44.88
205.193	61.27
205.411	67.41
205.63	120.66
205.849	38.74
206.068	3.93
206.287	26.45
206.505	46.93
206.724	12.12
206.943	-0.17
207.162	100.18
207.381	77.65
207.599	53.08
207.818	34.64
208.037	81.75
208.255	20.31
208.474	69.46
208.693	79.7
208.911	98.13
209.13	59.22
209.349	48.98
209.567	122.71
209.786	75.6
210.005	98.13
210.223	36.69
210.442	22.36
210.661	34.64
210.879	-14.51
211.098	96.08
211.316	46.93
211.535	73.56
211.753	85.84
211.972	69.46
212.191	18.26
212.409	48.98
212.628	36.69
212.846	10.07
213.065	108.37
213.283	132.95
213.502	26.45
213.72	18.26
213.938	79.7
214.157	61.27
214.375	75.6
214.594	30.55
214.812	79.7
215.031	51.03
215.249	20.31
215.467	36.69
215.686	1.88
215.904	77.65
216.122	24.4
216.341	106.32
216.559	114.52
216.778	61.27
216.996	69.46
217.214	75.6
217.432	120.66
217.651	102.23
217.869	18.26
218.087	67.41
218.306	61.27
218.524	83.8
218.742	122.71
218.96	73.56
219.179	67.41
219.397	100.18
219.615	59.22
219.833	79.7
220.051	59.22
220.27	87.89
220.488	46.93
220.706	114.52
220.924	44.88
221.142	143.19
221.36	22.36
221.578	59.22
221.796	-0.17
222.015	-14.51
222.233	112.47
222.451	89.94
222.669	-8.36
222.887	116.56
223.105	124.76
223.323	57.17
223.541	-12.46
223.759	151.38
223.977	65.36
224.195	46.93
224.413	73.56
224.631	100.18
224.849	38.74
225.067	87.89
225.285	46.93
225.503	40.79
225.721	94.04
225.939	63.32
226.157	1.88
226.375	118.61
226.592	-2.22
226.81	-14.51
227.028	40.79
227.246	128.85
227.464	59.22
227.682	16.21
227.9	73.56
228.117	34.64
228.335	141.14
228.553	22.36
228.771	98.13
228.989	65.36
229.206	-2.22
229.424	36.69
229.642	-16.55
229.86	1.88
230.077	59.22
230.295	8.02
230.513	85.84
230.731	28.5
230.948	69.46
231.166	10.07
231.384	48.98
231.601	44.88
231.819	20.31
232.037	98.13
232.254	59.22
232.472	59.22
232.689	53.08
232.907	157.52
233.125	8.02
233.342	63.32
233.56	28.5
233.777	14.17
233.995	38.74
234.213	22.36
234.43	79.7
234.648	110.42
234.865	14.17
235.083	116.56
235.3	59.22
235.518	65.36
235.735	130.9
235.953	135
236.17	79.7
236.388	18.26
236.605	28.5
236.822	96.08
237.04	67.41
237.257	3.93
237.475	30.55
237.692	40.79
237.909	28.5
238.127	67.41
238.344	3.93
238.562	116.56
238.779	14.17
238.996	12.12
239.214	108.37
239.431	44.88
239.648	57.17
239.865	120.66
240.083	44.88
240.3	51.03
240.517	20.31
240.735	42.84
240.952	59.22
241.169	61.27
241.386	55.12
241.603	63.32
241.821	28.5
242.038	65.36
242.255	83.8
242.472	-32.94
242.689	83.8
242.907	48.98
243.124	24.4
243.341	116.56
243.558	53.08
243.775	53.08
243.992	20.31
244.209	59.22
244.426	63.32
244.643	120.66
244.86	51.03
245.078	30.55
245.295	42.84
245.512	10.07
245.729	36.69
245.946	55.12
246.163	42.84
246.38	30.55
246.597	79.7
246.814	51.03
247.031	69.46
247.248	16.21
247.464	8.02
247.681	65.36
247.898	38.74
248.115	55.12
248.332	57.17
248.549	53.08
248.766	32.6
248.983	10.07
249.2	38.74
249.417	108.37
249.633	57.17
249.85	38.74
250.067	-4.27
250.284	-49.32
250.501	153.43
250.717	122.71
250.934	20.31
251.151	59.22
251.368	116.56
251.585	36.69
251.801	46.93
252.018	83.8
252.235	53.08
252.451	10.07
252.668	-6.31
252.885	85.84
253.102	48.98
253.318	46.93
253.535	57.17
253.752	46.93
253.968	87.89
254.185	-26.79
254.401	71.51
254.618	75.6
254.835	53.08
255.051	51.03
255.268	53.08
255.484	118.61
255.701	75.6
255.917	32.6
256.134	22.36
256.351	81.75
256.567	-2.22
256.784	55.12
257	61.27
257.217	73.56
257.433	100.18
257.65	108.37
257.866	48.98
258.082	44.88
258.299	96.08
258.515	44.88
258.732	59.22
258.948	69.46
259.165	40.79
259.381	38.74
259.597	22.36
259.814	67.41
260.03	30.55
260.246	48.98
260.463	85.84
260.679	141.14
260.895	14.17
261.112	65.36
261.328	14.17
261.544	100.18
261.761	32.6
261.977	106.32
262.193	-6.31
262.409	116.56
262.626	46.93
262.842	100.18
263.058	73.56
263.274	40.79
263.49	44.88
263.707	36.69
263.923	24.4
264.139	40.79
264.355	22.36
264.571	32.6
264.787	32.6
265.004	44.88
265.22	46.93
265.436	30.55
265.652	96.08
265.868	55.12
266.084	-2.22
266.3	42.84
266.516	26.45
266.732	18.26
266.948	91.99
267.164	38.74
267.38	36.69
267.596	57.17
267.812	46.93
268.028	83.8
268.244	73.56
268.46	32.6
268.676	59.22
268.892	42.84
269.108	48.98
269.324	26.45
269.54	53.08
269.756	81.75
269.972	67.41
270.188	96.08
270.403	69.46
270.619	53.08
270.835	87.89
271.051	61.27
271.267	59.22
271.483	73.56
271.698	26.45
271.914	44.88
272.13	24.4
272.346	34.64
272.562	83.8
272.777	44.88
272.993	87.89
273.209	36.69
273.425	53.08
273.64	61.27
273.856	46.93
274.072	42.84
274.287	5.97
274.503	42.84
274.719	110.42
274.934	59.22
275.15	10.07
275.366	24.4
275.581	38.74
275.797	55.12
276.012	30.55
276.228	63.32
276.444	96.08
276.659	118.61
276.875	8.02
277.09	69.46
277.306	34.64
277.521	81.75
277.737	112.47
277.952	24.4
278.168	104.28
278.383	89.94
278.599	65.36
278.814	81.75
279.03	120.66
279.245	98.13
279.461	18.26
279.676	96.08
279.892	46.93
280.107	36.69
280.322	36.69
280.538	-16.55
280.753	42.84
280.969	124.76
281.184	57.17
281.399	75.6
281.615	67.41
281.83	85.84
282.045	57.17
282.26	18.26
282.476	34.64
282.691	63.32
282.906	53.08
283.122	63.32
283.337	-0.17
283.552	69.46
283.767	73.56
283.983	114.52
284.198	28.5
284.413	102.23
284.628	-8.36
284.843	94.04
285.058	8.02
285.274	55.12
285.489	40.79
285.704	75.6
285.919	102.23
286.134	132.95
286.349	42.84
286.564	69.46
286.779	61.27
286.995	83.8
287.21	69.46
287.425	59.22
287.64	36.69
287.855	102.23
288.07	69.46
288.285	106.32
288.5	81.75
288.715	40.79
288.93	26.45
289.145	28.5
289.36	3.93
289.575	69.46
289.79	-12.46
290.004	71.51
290.219	51.03
290.434	98.13
290.649	67.41
290.864	20.31
291.079	91.99
291.294	53.08
291.509	-18.6
291.724	-20.65
291.938	55.12
292.153	120.66
292.368	81.75
292.583	32.6
292.798	81.75
293.012	102.23
293.227	112.47
293.442	18.26
293.657	71.51
293.871	71.51
294.086	44.88
294.301	-20.65
294.516	61.27
294.73	34.64
294.945	48.98
295.16	30.55
295.374	55.12
295.589	32.6
295.804	-8.36
296.018	67.41
296.233	75.6
296.447	30.55
296.662	61.27
296.877	98.13
297.091	59.22
297.306	85.84
297.52	53.08
297.735	-22.7
297.949	75.6
298.164	67.41
298.378	87.89
298.593	44.88
298.807	91.99
299.022	137.04
299.236	75.6
299.451	53.08
299.665	14.17
299.88	81.75
300.094	110.42
300.309	59.22
300.523	96.08
300.737	-20.65
300.952	46.93
301.166	67.41
301.381	-16.55
301.595	57.17
301.809	63.32
302.024	30.55
302.238	94.04
302.452	124.76
302.667	24.4
302.881	57.17
303.095	112.47
303.309	51.03
303.524	26.45
303.738	51.03
303.952	69.46
304.166	96.08
304.381	16.21
304.595	81.75
304.809	-45.23
305.023	81.75
305.237	8.02
305.452	106.32
305.666	57.17
305.88	114.52
306.094	137.04
306.308	100.18
306.522	59.22
306.736	26.45
306.95	55.12
307.164	94.04
307.379	38.74
307.593	67.41
307.807	87.89
308.021	102.23
308.235	61.27
308.449	71.51
308.663	16.21
308.877	112.47
309.091	3.93
309.305	75.6
309.519	114.52
309.733	145.24
309.947	67.41
310.161	57.17
310.374	83.8
310.588	114.52
310.802	22.36
311.016	-12.46
311.23	57.17
311.444	87.89
311.658	5.97
311.872	98.13
312.085	-2.22
312.299	61.27
312.513	65.36
312.727	16.21
312.941	63.32
313.154	57.17
313.368	34.64
313.582	128.85
313.796	65.36
314.009	87.89
314.223	65.36
314.437	12.12
314.651	30.55
314.864	42.84
315.078	51.03
315.292	44.88
315.505	24.4
315.719	46.93
315.933	116.56
316.146	91.99
316.36	44.88
316.573	65.36
316.787	102.23
317.001	83.8
317.214	1.88
317.428	128.85
317.641	69.46
317.855	42.84
318.068	20.31
318.282	81.75
318.495	65.36
318.709	116.56
318.922	110.42
319.136	38.74
319.349	73.56
319.563	94.04
319.776	57.17
319.99	26.45
320.203	98.13
320.417	108.37
320.63	98.13
320.843	96.08
321.057	69.46
321.27	100.18
321.483	65.36
321.697	124.76
321.91	69.46
322.124	116.56
322.337	89.94
322.55	108.37
322.763	63.32
322.977	126.8
323.19	67.41
323.403	55.12
323.617	59.22
323.83	83.8
324.043	48.98
324.256	48.98
324.469	40.79
324.683	61.27
324.896	1.88
325.109	85.84
325.322	22.36
325.535	59.22
325.748	55.12
325.962	98.13
326.175	75.6
326.388	42.84
326.601	100.18
326.814	1.88
327.027	57.17
327.24	141.14
327.453	-6.31
327.666	91.99
327.879	100.18
328.092	98.13
328.305	36.69
328.518	77.65
328.731	16.21
328.944	1.88
329.157	132.95
329.37	42.84
329.583	69.46
329.796	104.28
330.009	16.21
330.222	77.65
330.435	28.5
330.648	14.17
330.861	126.8
331.073	79.7
331.286	69.46
331.499	71.51
331.712	79.7
331.925	-49.32
332.138	75.6
332.35	87.89
332.563	85.84
332.776	46.93
332.989	42.84
333.202	75.6
333.414	-8.36
333.627	124.76
333.84	51.03
334.053	61.27
334.265	120.66
334.478	71.51
334.691	104.28
334.903	89.94
335.116	10.07
335.329	77.65
335.541	8.02
335.754	108.37
335.966	-14.51
336.179	75.6
336.392	63.32
336.604	-0.17
336.817	36.69
337.029	110.42
337.242	104.28
337.454	46.93
337.667	73.56
337.88	65.36
338.092	51.03
338.305	55.12
338.517	30.55
338.729	100.18
338.942	53.08
339.154	40.79
339.367	108.37
339.579	98.13
339.792	48.98
340.004	114.52
340.217	24.4
340.429	53.08
340.641	104.28
340.854	53.08
341.066	69.46
341.278	96.08
341.491	106.32
341.703	81.75
341.915	32.6
342.128	143.19
342.34	96.08
342.552	85.84
342.764	42.84
342.977	20.31
343.189	51.03
343.401	139.09
343.613	20.31
343.826	1.88
344.038	59.22
344.25	67.41
344.462	32.6
344.674	57.17
344.886	108.37
345.099	96.08
345.311	71.51
345.523	-14.51
345.735	28.5
345.947	61.27
346.159	67.41
346.371	87.89
346.583	8.02
346.795	149.33
347.007	118.61
347.219	83.8
347.431	83.8
347.643	91.99
347.855	96.08
348.067	38.74
348.279	63.32
348.491	44.88
348.703	132.95
348.915	36.69
349.127	42.84
349.339	67.41
349.551	53.08
349.763	61.27
349.975	44.88
350.187	61.27
350.399	94.04
350.61	91.99
350.822	-6.31
351.034	71.51
351.246	126.8
351.458	75.6
351.669	83.8
351.881	48.98
352.093	53.08
352.305	73.56
352.517	71.51
352.728	40.79
352.94	63.32
353.152	57.17
353.363	130.9
353.575	87.89
353.787	36.69
353.999	108.37
354.21	87.89
354.422	83.8
354.633	65.36
354.845	69.46
355.057	59.22
355.268	16.21
355.48	-14.51
355.692	69.46
355.903	147.28
356.115	18.26
356.326	-8.36
356.538	71.51
356.749	98.13
356.961	59.22
357.172	104.28
357.384	36.69
357.595	153.43
357.807	-55.47
358.018	-0.17
358.23	51.03
358.441	122.71
358.653	87.89
358.864	36.69
359.075	42.84
359.287	91.99
359.498	63.32
359.709	81.75
359.921	61.27
360.132	96.08
360.344	89.94
360.555	73.56
360.766	94.04
360.977	38.74
361.189	65.36
361.4	77.65
361.611	137.04
361.823	102.23
362.034	61.27
362.245	1.88
362.456	38.74
362.667	57.17
362.879	48.98
363.09	34.64
363.301	108.37
363.512	110.42
363.723	116.56
363.935	42.84
364.146	143.19
364.357	36.69
364.568	124.76
364.779	57.17
364.99	145.24
365.201	94.04
365.412	1.88
365.623	-28.84
365.834	106.32
366.045	79.7
366.256	61.27
366.467	46.93
366.678	57.17
366.889	51.03
367.1	67.41
367.311	118.61
367.522	104.28
367.733	139.09
367.944	57.17
368.155	108.37
368.366	77.65
368.577	40.79
368.788	167.76
368.999	42.84
369.209	73.56
369.42	63.32
369.631	104.28
369.842	53.08
370.053	-12.46
370.264	192.34
370.474	100.18
370.685	53.08
370.896	59.22
371.107	122.71
371.317	104.28
371.528	63.32
371.739	116.56
371.95	46.93
372.16	40.79
372.371	5.97
372.582	85.84
372.792	46.93
373.003	34.64
373.214	114.52
373.424	104.28
373.635	94.04
373.846	151.38
374.056	85.84
374.267	89.94
374.477	100.18
374.688	73.56
374.898	30.55
375.109	61.27
375.319	81.75
375.53	141.14
375.74	87.89
375.951	34.64
376.161	16.21
376.372	67.41
376.582	77.65
376.793	83.8
377.003	53.08
377.214	79.7
377.424	79.7
377.635	94.04
377.845	81.75
378.055	77.65
378.266	94.04
378.476	8.02
378.686	147.28
378.897	75.6
379.107	53.08
379.317	143.19
379.528	83.8
379.738	108.37
379.948	94.04
380.158	24.4
380.369	20.31
380.579	151.38
380.789	79.7
380.999	75.6
381.21	149.33
381.42	157.52
381.63	89.94
381.84	124.76
382.05	94.04
382.261	153.43
382.471	104.28
382.681	96.08
382.891	42.84
383.101	63.32
383.311	73.56
383.521	30.55
383.731	57.17
383.941	106.32
384.151	22.36
384.361	65.36
384.571	59.22
384.781	85.84
384.991	112.47
385.201	132.95
385.411	165.71
385.621	108.37
385.831	159.57
386.041	46.93
386.251	65.36
386.461	108.37
386.671	132.95
386.881	114.52
387.091	51.03
387.301	96.08
387.511	110.42
387.72	108.37
387.93	53.08
388.14	114.52
388.35	57.17
388.56	89.94
388.769	83.8
388.979	75.6
389.189	36.69
389.399	130.9
389.609	61.27
389.818	65.36
390.028	151.38
390.238	147.28
390.447	71.51
390.657	77.65
390.867	8.02
391.076	51.03
391.286	98.13
391.496	96.08
391.705	128.85
391.915	149.33
392.125	3.93
392.334	57.17
392.544	51.03
392.753	108.37
392.963	79.7
393.172	110.42
393.382	126.8
393.591	163.67
393.801	157.52
394.01	71.51
394.22	110.42
394.429	83.8
394.639	75.6
394.848	91.99
395.058	65.36
395.267	155.47
395.477	163.67
395.686	184.15
395.895	182.1
396.105	143.19
396.314	173.91
396.524	94.04
396.733	130.9
396.942	124.76
397.152	120.66
397.361	110.42
397.57	59.22
397.78	186.19
397.989	180.05
398.198	124.76
398.407	169.81
398.617	155.47
398.826	204.63
399.035	141.14
399.244	110.42
399.453	194.39
399.663	110.42
399.872	126.8
400.081	114.52
400.29	159.57
400.499	100.18
400.708	155.47
400.917	85.84
401.127	118.61
401.336	118.61
401.545	173.91
401.754	161.62
401.963	116.56
402.172	188.24
402.381	96.08
402.59	175.95
402.799	65.36
403.008	163.67
403.217	190.29
403.426	141.14
403.635	141.14
403.844	212.82
404.053	253.78
404.262	157.52
404.471	212.82
404.68	198.48
404.888	216.91
405.097	194.39
405.306	206.67
405.515	204.63
405.724	157.52
405.933	159.57
406.142	229.2
406.35	235.35
406.559	204.63
406.768	233.3
406.977	221.01
407.185	257.87
407.394	313.17
407.603	210.77
407.812	317.26
408.02	327.5
408.229	292.69
408.438	284.5
408.646	264.02
408.855	286.54
409.064	352.08
409.272	368.46
409.481	378.7
409.69	380.75
409.898	343.89
410.107	313.17
410.315	368.46
410.524	384.85
410.733	474.96
410.941	411.47
411.15	454.48
411.358	380.75
411.567	460.62
411.775	417.61
411.984	454.48
412.192	554.83
412.401	493.39
412.609	493.39
412.818	560.97
413.026	614.22
413.234	606.03
413.443	610.12
413.651	679.75
413.86	614.22
414.068	681.8
414.276	651.08
414.485	591.69
414.693	665.42
414.901	786.25
415.11	796.49
415.318	757.58
415.526	862.02
415.734	816.97
415.943	935.75
416.151	886.6
416.359	864.07
416.567	941.89
416.776	991.05
416.984	974.66
417.192	972.61
417.4	1103.68
417.608	1085.25
417.817	1136.45
418.025	1210.18
418.233	1292.1
418.441	1232.71
418.649	1365.82
418.857	1347.39
419.065	1439.55
419.273	1355.58
419.481	1513.28
419.689	1568.57
419.897	1654.59
420.105	1695.55
420.313	1732.41
420.521	1703.74
420.729	1685.31
420.937	1756.99
421.145	1802.04
421.353	1939.26
421.561	2058.04
421.769	2033.46
421.977	2135.86
422.185	2162.48
422.393	2305.84
422.601	2461.49
422.809	2371.38
423.017	2512.69
423.224	2453.3
423.432	2635.57
423.64	2705.2
423.848	2883.37
424.056	2803.5
424.263	3075.88
424.471	3063.59
424.679	3165.99
424.887	3288.87
425.094	3335.97
425.302	3354.4
425.51	3505.95
425.718	3661.6
425.925	3587.87
426.133	3696.41
426.341	3952.41
426.548	4103.96
426.756	4063
426.964	4181.78
427.171	4386.58
427.379	4587.28
427.586	4392.72
427.794	4732.69
428.001	4923.15
428.209	5234.44
428.417	5142.28
428.624	5476.1
428.832	5394.18
429.039	5439.23
429.247	5476.1
429.454	5844.73
429.662	6405.88
429.869	6006.52
430.076	6330.1
430.284	6094.58
430.491	6430.45
430.699	6653.68
430.906	6842.09
431.114	6870.76
431.321	7175.91
431.528	7130.86
431.736	7849.69
431.943	8001.24
432.15	7945.95
432.358	7825.12
432.565	8433.36
432.772	8539.86
432.979	8672.98
433.187	8910.54
433.394	8795.86
433.601	9713.35
433.808	9447.11
434.016	9612.99
434.223	9955.01
434.43	10491.57
434.637	10385.08
434.844	10921.65
435.052	11099.82
435.259	11030.19
435.466	11234.99
435.673	11062.96
435.88	11859.62
436.087	12263.07
436.294	12236.44
436.501	12084.89
436.708	12328.6
436.915	12756.63
437.122	13407.88
437.329	13436.55
437.537	13659.78
437.743	13803.14
437.95	13923.97
438.157	14585.46
438.364	15081.07
438.571	14896.75
438.778	15052.4
438.985	16436.83
439.192	15576.68
439.399	16256.61
439.606	15822.44
439.813	16631.38
440.02	17903.17
440.227	17702.47
440.433	17323.6
440.64	17974.85
440.847	17927.75
441.054	18335.29
441.261	19549.74
441.467	19181.1
441.674	19666.47
441.881	20387.36
442.088	20207.14
442.294	20031.01
442.501	20483.61
442.708	21116.44
442.914	21689.87
443.121	22707.71
443.328	22189.57
443.534	23793.13
443.741	23148.02
443.948	22507.01
444.154	24567.26
444.361	23954.92
444.568	24645.09
444.774	24567.26
444.981	24569.31
445.187	25294.29
445.394	26236.36
445.6	25957.83
445.807	28700.06
446.013	27129.27
446.22	28024.23
446.426	28941.72
446.633	29455.76
446.839	30412.17
447.046	29173.14
447.252	30412.17
447.459	30371.21
447.665	30522.76
447.871	31989.1
448.078	32943.45
448.284	31348.09
448.491	32185.71
448.697	33719.63
448.903	34628.93
449.11	34628.93
449.316	33838.42
449.522	34702.66
449.728	35972.4
449.935	36011.31
450.141	35929.39
450.347	36853.03
450.553	35171.64
450.76	36031.79
450.966	37063.97
451.172	36924.71
451.378	37846.29
451.584	37053.73
451.791	38239.5
451.997	37637.4
452.203	38227.21
452.409	38786.31
452.615	38159.63
452.821	37084.45
453.027	36648.23
453.233	38565.13
453.44	37123.36
453.646	37465.37
453.852	37571.86
454.058	38237.45
454.264	36875.55
454.47	37795.09
454.676	36560.17
454.882	37940.5
455.088	34952.51
455.294	35388.73
455.5	35917.11
455.705	36048.18
455.911	34878.79
456.117	34227.53
456.323	34086.22
456.529	31882.61
456.735	33404.25
456.941	32236.91
457.147	31978.86
457.352	31300.98
457.558	30563.71
457.764	30903.68
457.97	29891.98
458.176	29562.26
458.381	29599.12
458.587	27884.97
458.793	28302.76
458.999	26635.71
459.204	28878.24
459.41	27764.14
459.616	26078.66
459.821	26011.08
460.027	25847.24
460.233	25175.51
460.438	24053.22
460.644	24161.76
460.85	23463.41
461.055	22746.62
461.261	23098.87
461.466	20999.7
461.672	20387.36
461.878	22076.93
462.083	20733.46
462.289	19895.85
462.494	19942.95
462.7	19002.93
462.905	18591.29
463.111	19131.95
463.316	19400.24
463.522	19037.75
463.727	18851.38
463.932	19013.17
464.138	18746.94
464.343	18935.35
464.549	18073.15
464.754	18867.77
464.959	18445.88
465.165	18466.36
465.37	17874.5
465.575	17305.17
465.781	18239.04
465.986	18275.9
466.191	17296.97
466.397	17036.88
466.602	16152.16
466.807	17057.36
