Data from USB4F104151__40__12-35-47-160.txt Node

Date: Fri Mar 14 12:35:47 EDT 2025
User: louis
Spectrometer: USB4F10415
Trigger mode: 4
Integration Time (sec): 2.000000E-2
Scans to average: 1
Electric dark correction enabled: true
Nonlinearity correction enabled: false
Boxcar width: 0
XAxis mode: Wavelengths
Number of Pixels in Spectrum: 3648
>>>>>Begin Spectral Data<<<<<
178.204	-58.71
178.424	-58.71
178.644	-58.71
178.864	-120.15
179.084	-17.75
179.304	-9.56
179.524	-27.99
179.744	6.83
179.964	12.97
180.184	37.55
180.404	-44.37
180.624	2.73
180.844	-11.61
181.064	-34.13
181.283	51.88
181.503	-25.94
181.723	41.64
181.943	-5.46
182.163	-9.56
182.383	31.4
182.602	82.6
182.822	101.03
183.042	49.83
183.262	-11.61
183.482	-19.8
183.701	25.26
183.921	64.17
184.141	0.68
184.361	72.36
184.58	41.64
184.8	76.46
185.02	-23.89
185.239	58.03
185.459	62.12
185.679	74.41
185.898	-87.38
186.118	84.65
186.338	31.4
186.557	-9.56
186.777	41.64
186.997	66.22
187.216	43.69
187.436	33.45
187.655	74.41
187.875	29.35
188.095	25.26
188.314	68.27
188.534	80.55
188.753	21.16
188.973	41.64
189.192	72.36
189.412	33.45
189.631	33.45
189.851	23.21
190.07	74.41
190.29	-56.66
190.509	-21.85
190.729	-9.56
190.948	29.35
191.168	86.7
191.387	58.03
191.607	84.65
191.826	70.31
192.045	84.65
192.265	92.84
192.484	-83.28
192.704	47.79
192.923	33.45
193.142	29.35
193.362	78.51
193.581	47.79
193.8	31.4
194.02	41.64
194.239	25.26
194.458	17.07
194.678	49.83
194.897	66.22
195.116	0.68
195.335	-23.89
195.555	43.69
195.774	8.87
195.993	-1.37
196.212	29.35
196.432	8.87
196.651	49.83
196.87	12.97
197.089	68.27
197.308	113.32
197.528	49.83
197.747	90.79
197.966	64.17
198.185	103.08
198.404	-9.56
198.623	6.83
198.842	60.07
199.062	76.46
199.281	39.59
199.5	-21.85
199.719	86.7
199.938	17.07
200.157	90.79
200.376	150.18
200.595	78.51
200.814	31.4
201.033	41.64
201.252	80.55
201.471	58.03
201.69	144.04
201.909	33.45
202.128	27.31
202.347	53.93
202.566	-38.23
202.785	-40.28
203.004	31.4
203.223	141.99
203.442	58.03
203.661	90.79
203.879	66.22
204.098	53.93
204.317	-36.18
204.536	94.89
204.755	62.12
204.974	-21.85
205.193	6.83
205.411	15.02
205.63	55.98
205.849	101.03
206.068	23.21
206.287	-25.94
206.505	113.32
206.724	-48.47
206.943	60.07
207.162	-3.41
207.381	15.02
207.599	68.27
207.818	29.35
208.037	8.87
208.255	27.31
208.474	76.46
208.693	-3.41
208.911	60.07
209.13	60.07
209.349	60.07
209.567	51.88
209.786	64.17
210.005	78.51
210.223	58.03
210.442	41.64
210.661	74.41
210.879	19.11
211.098	74.41
211.316	64.17
211.535	92.84
211.753	-50.52
211.972	0.68
212.191	41.64
212.409	43.69
212.628	8.87
212.846	-17.75
213.065	78.51
213.283	66.22
213.502	84.65
213.72	53.93
213.938	29.35
214.157	2.73
214.375	47.79
214.594	25.26
214.812	23.21
215.031	92.84
215.249	105.13
215.467	49.83
215.686	45.74
215.904	19.11
216.122	60.07
216.341	17.07
216.559	62.12
216.778	15.02
216.996	78.51
217.214	86.7
217.432	10.92
217.651	49.83
217.869	78.51
218.087	12.97
218.306	-5.46
218.524	-17.75
218.742	-17.75
218.96	92.84
219.179	80.55
219.397	82.6
219.615	88.75
219.833	96.94
220.051	-9.56
220.27	49.83
220.488	29.35
220.706	39.59
220.924	55.98
221.142	2.73
221.36	84.65
221.578	45.74
221.796	66.22
222.015	70.31
222.233	62.12
222.451	37.55
222.669	37.55
222.887	33.45
223.105	-13.65
223.323	-9.56
223.541	29.35
223.759	62.12
223.977	45.74
224.195	47.79
224.413	84.65
224.631	-19.8
224.849	98.99
225.067	72.36
225.285	-40.28
225.503	6.83
225.721	10.92
225.939	35.5
226.157	64.17
226.375	121.51
226.592	-21.85
226.81	12.97
227.028	94.89
227.246	45.74
227.464	123.56
227.682	103.08
227.9	43.69
228.117	17.07
228.335	43.69
228.553	74.41
228.771	98.99
228.989	27.31
229.206	29.35
229.424	-3.41
229.642	72.36
229.86	74.41
230.077	19.11
230.295	33.45
230.513	33.45
230.731	72.36
230.948	-9.56
231.166	78.51
231.384	78.51
231.601	41.64
231.819	94.89
232.037	-19.8
232.254	10.92
232.472	21.16
232.689	4.78
232.907	27.31
233.125	0.68
233.342	78.51
233.56	-44.37
233.777	90.79
233.995	43.69
234.213	51.88
234.43	64.17
234.648	27.31
234.865	92.84
235.083	78.51
235.3	25.26
235.518	31.4
235.735	72.36
235.953	105.13
236.17	33.45
236.388	19.11
236.605	43.69
236.822	43.69
237.04	92.84
237.257	60.07
237.475	27.31
237.692	31.4
237.909	68.27
238.127	21.16
238.344	78.51
238.562	74.41
238.779	10.92
238.996	21.16
239.214	19.11
239.431	55.98
239.648	47.79
239.865	88.75
240.083	43.69
240.3	-5.46
240.517	84.65
240.735	68.27
240.952	41.64
241.169	113.32
241.386	27.31
241.603	49.83
241.821	43.69
242.038	105.13
242.255	146.09
242.472	103.08
242.689	25.26
242.907	68.27
243.124	4.78
243.341	-9.56
243.558	-25.94
243.775	-15.7
243.992	-3.41
244.209	107.18
244.426	84.65
244.643	109.23
244.86	33.45
245.078	25.26
245.295	10.92
245.512	74.41
245.729	-64.85
245.946	41.64
246.163	21.16
246.38	55.98
246.597	72.36
246.814	21.16
247.031	31.4
247.248	21.16
247.464	47.79
247.681	51.88
247.898	90.79
248.115	6.83
248.332	4.78
248.549	62.12
248.766	47.79
248.983	21.16
249.2	80.55
249.417	10.92
249.633	92.84
249.85	41.64
250.067	43.69
250.284	115.37
250.501	2.73
250.717	60.07
250.934	-62.8
251.151	21.16
251.368	4.78
251.585	51.88
251.801	39.59
252.018	66.22
252.235	123.56
252.451	12.97
252.668	19.11
252.885	76.46
253.102	49.83
253.318	0.68
253.535	0.68
253.752	55.98
253.968	27.31
254.185	-9.56
254.401	101.03
254.618	55.98
254.835	-60.76
255.051	66.22
255.268	-5.46
255.484	66.22
255.701	49.83
255.917	64.17
256.134	58.03
256.351	35.5
256.567	80.55
256.784	41.64
257	76.46
257.217	19.11
257.433	27.31
257.65	109.23
257.866	27.31
258.082	82.6
258.299	66.22
258.515	78.51
258.732	-1.37
258.948	60.07
259.165	17.07
259.381	41.64
259.597	-3.41
259.814	80.55
260.03	10.92
260.246	43.69
260.463	84.65
260.679	68.27
260.895	17.07
261.112	125.61
261.328	62.12
261.544	-15.7
261.761	60.07
261.977	53.93
262.193	35.5
262.409	27.31
262.626	-3.41
262.842	62.12
263.058	53.93
263.274	-5.46
263.49	21.16
263.707	72.36
263.923	66.22
264.139	98.99
264.355	12.97
264.571	41.64
264.787	103.08
265.004	-11.61
265.22	68.27
265.436	96.94
265.652	51.88
265.868	35.5
266.084	31.4
266.3	115.37
266.516	82.6
266.732	-34.13
266.948	-1.37
267.164	4.78
267.38	27.31
267.596	41.64
267.812	41.64
268.028	80.55
268.244	-13.65
268.46	64.17
268.676	64.17
268.892	21.16
269.108	53.93
269.324	-44.37
269.54	39.59
269.756	88.75
269.972	15.02
270.188	29.35
270.403	-13.65
270.619	60.07
270.835	25.26
271.051	78.51
271.267	-36.18
271.483	154.28
271.698	62.12
271.914	53.93
272.13	0.68
272.346	68.27
272.562	-3.41
272.777	68.27
272.993	129.7
273.209	-3.41
273.425	86.7
273.64	17.07
273.856	39.59
274.072	4.78
274.287	17.07
274.503	39.59
274.719	78.51
274.934	94.89
275.15	-32.08
275.366	51.88
275.581	37.55
275.797	60.07
276.012	55.98
276.228	25.26
276.444	23.21
276.659	19.11
276.875	80.55
277.09	6.83
277.306	33.45
277.521	115.37
277.737	15.02
277.952	76.46
278.168	45.74
278.383	29.35
278.599	72.36
278.814	55.98
279.03	72.36
279.245	74.41
279.461	60.07
279.676	72.36
279.892	17.07
280.107	90.79
280.322	41.64
280.538	-42.32
280.753	53.93
280.969	31.4
281.184	25.26
281.399	29.35
281.615	10.92
281.83	74.41
282.045	-23.89
282.26	-13.65
282.476	33.45
282.691	39.59
282.906	62.12
283.122	76.46
283.337	21.16
283.552	103.08
283.767	4.78
283.983	60.07
284.198	41.64
284.413	80.55
284.628	19.11
284.843	-5.46
285.058	41.64
285.274	76.46
285.489	0.68
285.704	35.5
285.919	12.97
286.134	-3.41
286.349	105.13
286.564	0.68
286.779	125.61
286.995	55.98
287.21	86.7
287.425	-36.18
287.64	-5.46
287.855	-15.7
288.07	29.35
288.285	105.13
288.5	121.51
288.715	88.75
288.93	47.79
289.145	70.31
289.36	-1.37
289.575	29.35
289.79	-15.7
290.004	76.46
290.219	72.36
290.434	105.13
290.649	21.16
290.864	119.46
291.079	35.5
291.294	19.11
291.509	4.78
291.724	76.46
291.938	49.83
292.153	47.79
292.368	86.7
292.583	29.35
292.798	92.84
293.012	37.55
293.227	19.11
293.442	-25.94
293.657	101.03
293.871	-5.46
294.086	31.4
294.301	107.18
294.516	80.55
294.73	41.64
294.945	-25.94
295.16	41.64
295.374	4.78
295.589	150.18
295.804	-3.41
296.018	17.07
296.233	47.79
296.447	15.02
296.662	43.69
296.877	72.36
297.091	45.74
297.306	10.92
297.52	53.93
297.735	58.03
297.949	107.18
298.164	86.7
298.378	-1.37
298.593	84.65
298.807	-23.89
299.022	66.22
299.236	19.11
299.451	43.69
299.665	-21.85
299.88	23.21
300.094	4.78
300.309	74.41
300.523	8.87
300.737	27.31
300.952	55.98
301.166	90.79
301.381	55.98
301.595	123.56
301.809	66.22
302.024	113.32
302.238	19.11
302.452	41.64
302.667	55.98
302.881	0.68
303.095	53.93
303.309	23.21
303.524	0.68
303.738	-11.61
303.952	10.92
304.166	68.27
304.381	66.22
304.595	82.6
304.809	55.98
305.023	29.35
305.237	70.31
305.452	-34.13
305.666	53.93
305.88	105.13
306.094	115.37
306.308	-1.37
306.522	33.45
306.736	33.45
306.95	105.13
307.164	43.69
307.379	53.93
307.593	0.68
307.807	119.46
308.021	66.22
308.235	2.73
308.449	-17.75
308.663	53.93
308.877	131.75
309.091	90.79
309.305	19.11
309.519	53.93
309.733	49.83
309.947	33.45
310.161	58.03
310.374	64.17
310.588	45.74
310.802	47.79
311.016	0.68
311.23	103.08
311.444	-1.37
311.658	74.41
311.872	41.64
312.085	37.55
312.299	47.79
312.513	55.98
312.727	33.45
312.941	45.74
313.154	90.79
313.368	86.7
313.582	92.84
313.796	-27.99
314.009	76.46
314.223	19.11
314.437	53.93
314.651	58.03
314.864	2.73
315.078	-7.51
315.292	51.88
315.505	19.11
315.719	70.31
315.933	84.65
316.146	29.35
316.36	82.6
316.573	84.65
316.787	53.93
317.001	98.99
317.214	113.32
317.428	43.69
317.641	86.7
317.855	90.79
318.068	66.22
318.282	0.68
318.495	37.55
318.709	90.79
318.922	80.55
319.136	76.46
319.349	6.83
319.563	21.16
319.776	41.64
319.99	84.65
320.203	80.55
320.417	47.79
320.63	-19.8
320.843	88.75
321.057	4.78
321.27	37.55
321.483	25.26
321.697	47.79
321.91	86.7
322.124	-21.85
322.337	90.79
322.55	15.02
322.763	64.17
322.977	76.46
323.19	21.16
323.403	58.03
323.617	10.92
323.83	82.6
324.043	82.6
324.256	49.83
324.469	76.46
324.683	86.7
324.896	98.99
325.109	29.35
325.322	27.31
325.535	74.41
325.748	39.59
325.962	19.11
326.175	10.92
326.388	74.41
326.601	33.45
326.814	25.26
327.027	-23.89
327.24	58.03
327.453	-7.51
327.666	55.98
327.879	53.93
328.092	21.16
328.305	39.59
328.518	64.17
328.731	68.27
328.944	35.5
329.157	49.83
329.37	2.73
329.583	76.46
329.796	121.51
330.009	15.02
330.222	92.84
330.435	27.31
330.648	43.69
330.861	49.83
331.073	101.03
331.286	139.94
331.499	62.12
331.712	55.98
331.925	-13.65
332.138	31.4
332.35	-9.56
332.563	17.07
332.776	41.64
332.989	111.27
333.202	80.55
333.414	51.88
333.627	-5.46
333.84	-38.23
334.053	58.03
334.265	29.35
334.478	10.92
334.691	39.59
334.903	119.46
335.116	58.03
335.329	66.22
335.541	19.11
335.754	39.59
335.966	94.89
336.179	15.02
336.392	49.83
336.604	27.31
336.817	23.21
337.029	47.79
337.242	58.03
337.454	78.51
337.667	33.45
337.88	86.7
338.092	82.6
338.305	78.51
338.517	131.75
338.729	88.75
338.942	-13.65
339.154	2.73
339.367	49.83
339.579	55.98
339.792	10.92
340.004	29.35
340.217	51.88
340.429	-13.65
340.641	33.45
340.854	55.98
341.066	43.69
341.278	45.74
341.491	92.84
341.703	45.74
341.915	51.88
342.128	39.59
342.34	78.51
342.552	53.93
342.764	10.92
342.977	31.4
343.189	47.79
343.401	45.74
343.613	49.83
343.826	60.07
344.038	-19.8
344.25	47.79
344.462	-25.94
344.674	0.68
344.886	-25.94
345.099	-11.61
345.311	47.79
345.523	37.55
345.735	68.27
345.947	-11.61
346.159	94.89
346.371	72.36
346.583	41.64
346.795	19.11
347.007	39.59
347.219	72.36
347.431	12.97
347.643	35.5
347.855	60.07
348.067	76.46
348.279	39.59
348.491	33.45
348.703	21.16
348.915	10.92
349.127	86.7
349.339	70.31
349.551	-9.56
349.763	66.22
349.975	82.6
350.187	27.31
350.399	98.99
350.61	94.89
350.822	76.46
351.034	6.83
351.246	41.64
351.458	37.55
351.669	10.92
351.881	62.12
352.093	19.11
352.305	-9.56
352.517	0.68
352.728	80.55
352.94	53.93
353.152	29.35
353.363	31.4
353.575	66.22
353.787	121.51
353.999	53.93
354.21	82.6
354.422	-13.65
354.633	60.07
354.845	47.79
355.057	64.17
355.268	117.42
355.48	41.64
355.692	68.27
355.903	2.73
356.115	8.87
356.326	27.31
356.538	86.7
356.749	39.59
356.961	84.65
357.172	76.46
357.384	37.55
357.595	76.46
357.807	105.13
358.018	27.31
358.23	4.78
358.441	107.18
358.653	-38.23
358.864	39.59
359.075	47.79
359.287	21.16
359.498	84.65
359.709	43.69
359.921	6.83
360.132	86.7
360.344	17.07
360.555	60.07
360.766	109.23
360.977	45.74
361.189	49.83
361.4	64.17
361.611	74.41
361.823	101.03
362.034	41.64
362.245	45.74
362.456	60.07
362.667	41.64
362.879	41.64
363.09	23.21
363.301	70.31
363.512	119.46
363.723	12.97
363.935	41.64
364.146	133.8
364.357	-19.8
364.568	86.7
364.779	17.07
364.99	101.03
365.201	141.99
365.412	33.45
365.623	-44.37
365.834	64.17
366.045	39.59
366.256	21.16
366.467	35.5
366.678	12.97
366.889	27.31
367.1	15.02
367.311	39.59
367.522	62.12
367.733	66.22
367.944	37.55
368.155	15.02
368.366	84.65
368.577	144.04
368.788	96.94
368.999	17.07
369.209	35.5
369.42	158.38
369.631	111.27
369.842	98.99
370.053	86.7
370.264	86.7
370.474	15.02
370.685	82.6
370.896	113.32
371.107	62.12
371.317	15.02
371.528	96.94
371.739	66.22
371.95	90.79
372.16	94.89
372.371	-9.56
372.582	8.87
372.792	53.93
373.003	33.45
373.214	62.12
373.424	80.55
373.635	55.98
373.846	55.98
374.056	49.83
374.267	78.51
374.477	82.6
374.688	78.51
374.898	86.7
375.109	109.23
375.319	-5.46
375.53	45.74
375.74	88.75
375.951	64.17
376.161	31.4
376.372	27.31
376.582	98.99
376.793	84.65
377.003	72.36
377.214	105.13
377.424	88.75
377.635	70.31
377.845	-3.41
378.055	109.23
378.266	-19.8
378.476	58.03
378.686	37.55
378.897	88.75
379.107	51.88
379.317	45.74
379.528	60.07
379.738	74.41
379.948	-21.85
380.158	125.61
380.369	82.6
380.579	133.8
380.789	60.07
380.999	76.46
381.21	144.04
381.42	86.7
381.63	49.83
381.84	92.84
382.05	29.35
382.261	64.17
382.471	33.45
382.681	115.37
382.891	62.12
383.101	55.98
383.311	-5.46
383.521	90.79
383.731	68.27
383.941	150.18
384.151	135.85
384.361	55.98
384.571	60.07
384.781	66.22
384.991	105.13
385.201	90.79
385.411	121.51
385.621	21.16
385.831	6.83
386.041	144.04
386.251	103.08
386.461	58.03
386.671	80.55
386.881	60.07
387.091	25.26
387.301	60.07
387.511	60.07
387.72	111.27
387.93	80.55
388.14	25.26
388.35	37.55
388.56	109.23
388.769	55.98
388.979	80.55
389.189	35.5
389.399	105.13
389.609	66.22
389.818	43.69
390.028	88.75
390.238	82.6
390.447	80.55
390.657	74.41
390.867	31.4
391.076	98.99
391.286	68.27
391.496	25.26
391.705	45.74
391.915	133.8
392.125	45.74
392.334	39.59
392.544	80.55
392.753	10.92
392.963	105.13
393.172	109.23
393.382	39.59
393.591	96.94
393.801	115.37
394.01	180.9
394.22	144.04
394.429	86.7
394.639	33.45
394.848	96.94
395.058	174.76
395.267	27.31
395.477	51.88
395.686	109.23
395.895	135.85
396.105	115.37
396.314	86.7
396.524	37.55
396.733	17.07
396.942	113.32
397.152	86.7
397.361	94.89
397.57	137.9
397.78	111.27
397.989	107.18
398.198	187.05
398.407	33.45
398.617	47.79
398.826	86.7
399.035	37.55
399.244	55.98
399.453	123.56
399.663	64.17
399.872	45.74
400.081	90.79
400.29	123.56
400.499	51.88
400.708	291.49
400.917	117.42
401.127	74.41
401.336	141.99
401.545	141.99
401.754	195.24
401.963	176.81
402.172	129.7
402.381	64.17
402.59	74.41
402.799	146.09
403.008	141.99
403.217	103.08
403.426	166.57
403.635	125.61
403.844	88.75
404.053	150.18
404.262	166.57
404.471	170.66
404.68	115.37
404.888	121.51
405.097	141.99
405.306	193.19
405.515	129.7
405.724	150.18
405.933	225.96
406.142	213.67
406.35	207.53
406.559	207.53
406.768	164.52
406.977	264.87
407.185	203.43
407.394	232.1
407.603	139.94
407.812	254.63
408.02	215.72
408.229	209.58
408.438	193.19
408.646	166.57
408.855	271.01
409.064	209.58
409.272	221.86
409.481	254.63
409.69	318.12
409.898	244.39
410.107	309.93
410.315	324.26
410.524	324.26
410.733	322.21
410.941	363.17
411.15	410.28
411.358	424.61
411.567	342.69
411.775	277.16
411.984	361.13
412.192	375.46
412.401	410.28
412.609	412.32
412.818	465.57
413.026	459.43
413.234	496.29
413.443	412.32
413.651	531.11
413.86	481.96
414.068	529.06
414.276	514.72
414.485	555.68
414.693	557.73
414.901	631.46
415.11	631.46
415.318	740
415.526	701.09
415.734	764.58
415.943	727.71
416.151	742.05
416.359	811.68
416.567	864.93
416.776	815.77
416.984	897.69
417.192	938.65
417.4	856.73
417.608	905.88
417.817	993.95
418.025	989.85
418.233	1073.82
418.441	981.66
418.649	1125.02
418.857	1149.59
419.065	1147.55
419.273	1159.83
419.481	1227.42
419.689	1364.63
419.897	1352.34
420.105	1401.49
420.313	1485.46
420.521	1493.65
420.729	1520.28
420.937	1575.57
421.145	1598.1
421.353	1596.05
421.561	1745.55
421.769	1741.46
421.977	1950.35
422.185	1819.28
422.393	1995.4
422.601	2038.41
422.809	1933.97
423.017	2032.27
423.224	2179.72
423.432	2353.8
423.64	2402.95
423.848	2380.42
424.056	2361.99
424.263	2579.08
424.471	2523.78
424.679	2577.03
424.887	2730.62
425.094	2873.98
425.302	2925.18
425.51	3025.53
425.718	3086.97
425.925	3215.99
426.133	3166.84
426.341	3494.52
426.548	3586.68
426.756	3582.58
426.964	3615.35
427.171	3875.44
427.379	3977.84
427.586	3973.74
427.794	4094.57
428.001	4274.79
428.209	4385.38
428.417	4242.03
428.624	4663.91
428.832	4694.63
429.039	4608.61
429.247	4782.69
429.454	5110.36
429.662	5458.52
429.869	5014.11
430.076	5294.68
430.284	5317.21
430.491	5536.34
430.699	5878.35
430.906	5945.94
431.114	5972.56
431.321	6058.57
431.528	6257.23
431.736	6502.98
431.943	6976.06
432.15	6670.92
432.358	6668.87
432.565	7154.24
432.772	7305.79
432.979	7701.05
433.187	7502.39
433.394	7858.74
433.601	8120.88
433.808	8247.85
434.016	8200.75
434.223	8532.52
434.43	9136.67
434.637	8737.32
434.844	9364
435.052	9634.33
435.259	9484.83
435.466	9669.14
435.673	9579.03
435.88	10093.07
436.087	10514.95
436.294	10652.17
436.501	10230.29
436.708	10754.57
436.915	10963.46
437.122	11416.06
437.329	11334.14
437.537	11901.43
437.743	11946.48
437.95	11962.87
438.157	12444.14
438.364	12954.08
438.571	12917.22
438.778	12743.14
438.985	14131.67
439.192	13654.49
439.399	13906.39
439.606	13640.15
439.813	14539.21
440.02	15223.23
440.227	15051.2
440.433	14997.96
440.64	15634.88
440.847	15153.6
441.054	15536.57
441.261	16724.4
441.467	16572.85
441.674	16964.01
441.881	17463.71
442.088	17277.35
442.294	16998.82
442.501	17830.3
442.708	18389.39
442.914	18731.4
443.121	19757.44
443.328	19032.46
443.534	20545.91
443.741	19714.43
443.948	19607.94
444.154	20846.96
444.361	20785.52
444.568	20808.05
444.774	21150.06
444.981	21195.11
445.187	21510.5
445.394	22825.29
445.6	22387.03
445.807	24113.47
446.013	23466.31
446.22	23703.87
446.426	24647.99
446.633	24932.65
446.839	25989.41
447.046	24736.05
447.252	26353.94
447.459	26335.51
447.665	25948.45
447.871	27584.77
448.078	28336.38
448.284	27087.12
448.491	27771.14
448.697	28711.16
448.903	29354.22
449.11	29278.44
449.316	29063.41
449.522	29438.19
449.728	30132.45
449.935	30693.59
450.141	30531.8
450.347	31187.15
450.553	30099.68
450.76	30386.39
450.966	31471.82
451.172	31248.59
451.378	31946.95
451.584	31404.24
451.791	32526.52
451.997	31918.28
452.203	32456.89
452.409	32635.06
452.615	32569.53
452.821	31400.14
453.027	30746.84
453.233	32522.43
453.44	31523.02
453.646	31811.78
453.852	31869.12
454.058	32227.52
454.264	31103.18
454.47	31617.22
454.676	31035.6
454.882	32155.84
455.088	29272.3
455.294	30101.73
455.5	29901.03
455.705	30433.5
455.911	29237.48
456.117	28451.06
456.323	28330.23
456.529	26867.98
456.735	28023.04
456.941	26876.18
457.147	26833.17
457.352	25907.49
457.558	25768.23
457.764	25524.52
457.97	25512.23
458.176	24885.55
458.381	25000.24
458.587	23785.79
458.793	23736.64
458.999	22210.9
459.204	23775.55
459.41	23105.87
459.616	21832.03
459.821	21526.88
460.027	21705.06
460.233	21018.99
460.438	20324.72
460.644	20521.33
460.85	19358.08
461.055	19143.05
461.261	18801.04
461.466	17832.35
461.672	17191.33
461.878	18213.27
462.083	16966.06
462.289	16679.34
462.494	16615.85
462.7	15882.68
462.905	15235.52
463.111	15724.99
463.316	15790.52
463.522	15626.68
463.727	15772.09
463.932	15534.53
464.138	15495.61
464.343	15460.8
464.549	14942.66
464.754	15663.55
464.959	15389.12
465.165	15452.61
465.37	14830.02
465.575	14221.78
465.781	14899.66
465.986	14844.36
466.191	14332.37
466.397	13910.49
466.602	13427.17
466.807	13996.5
467.012	13994.45
467.218	14074.32
467.423	13789.66
467.628	13851.1
