Data from USB4F104151__16__12-35-19-702.txt Node

Date: Fri Mar 14 12:35:19 EDT 2025
User: louis
Spectrometer: USB4F10415
Trigger mode: 4
Integration Time (sec): 2.000000E-2
Scans to average: 1
Electric dark correction enabled: true
Nonlinearity correction enabled: false
Boxcar width: 0
XAxis mode: Wavelengths
Number of Pixels in Spectrum: 3648
>>>>>Begin Spectral Data<<<<<
178.204	-137.73
178.424	-137.73
178.644	-137.73
178.864	-82.43
179.084	-68.09
179.304	-45.57
179.524	-4.61
179.744	28.16
179.964	26.11
180.184	48.64
180.404	-8.7
180.624	5.63
180.844	-4.61
181.064	-57.86
181.283	7.68
181.503	15.87
181.723	-10.75
181.943	-59.9
182.163	99.84
182.383	36.35
182.602	-12.8
182.822	9.73
183.042	83.45
183.262	77.31
183.482	-39.42
183.701	19.97
183.921	30.21
184.141	-49.66
184.361	48.64
184.58	38.4
184.8	40.45
185.02	-6.66
185.239	48.64
185.459	-0.51
185.679	44.54
185.898	-6.66
186.118	60.93
186.338	83.45
186.557	38.4
186.777	81.41
186.997	32.26
187.216	42.5
187.436	71.17
187.655	58.88
187.875	54.78
188.095	42.5
188.314	15.87
188.534	32.26
188.753	5.63
188.973	30.21
189.192	75.26
189.412	15.87
189.631	-49.66
189.851	30.21
190.07	77.31
190.29	17.92
190.509	24.06
190.729	65.02
190.948	28.16
191.168	97.79
191.387	7.68
191.607	22.02
191.826	44.54
192.045	75.26
192.265	26.11
192.484	9.73
192.704	44.54
192.923	-25.09
193.142	99.84
193.362	44.54
193.581	85.5
193.8	-2.56
194.02	7.68
194.239	163.33
194.458	-12.8
194.678	-23.04
194.897	22.02
195.116	24.06
195.335	13.82
195.555	15.87
195.774	24.06
195.993	48.64
196.212	1.54
196.432	-61.95
196.651	28.16
196.87	101.89
197.089	62.98
197.308	46.59
197.528	-29.18
197.747	15.87
197.966	77.31
198.185	103.93
198.404	24.06
198.623	22.02
198.842	-39.42
199.062	46.59
199.281	-0.51
199.5	-0.51
199.719	56.83
199.938	79.36
200.157	105.98
200.376	11.78
200.595	40.45
200.814	42.5
201.033	36.35
201.252	24.06
201.471	-47.62
201.69	81.41
201.909	-57.86
202.128	26.11
202.347	44.54
202.566	48.64
202.785	22.02
203.004	5.63
203.223	120.32
203.442	81.41
203.661	-0.51
203.879	32.26
204.098	77.31
204.317	38.4
204.536	89.6
204.755	-10.75
204.974	79.36
205.193	7.68
205.411	105.98
205.63	50.69
205.849	5.63
206.068	19.97
206.287	42.5
206.505	65.02
206.724	36.35
206.943	15.87
207.162	50.69
207.381	87.55
207.599	-14.85
207.818	110.08
208.037	95.74
208.255	-14.85
208.474	42.5
208.693	73.21
208.911	56.83
209.13	50.69
209.349	71.17
209.567	26.11
209.786	42.5
210.005	36.35
210.223	-33.28
210.442	24.06
210.661	26.11
210.879	114.17
211.098	50.69
211.316	32.26
211.535	62.98
211.753	3.58
211.972	-37.38
212.191	52.74
212.409	-2.56
212.628	13.82
212.846	97.79
213.065	48.64
213.283	71.17
213.502	67.07
213.72	40.45
213.938	40.45
214.157	26.11
214.375	11.78
214.594	38.4
214.812	-16.9
215.031	-8.7
215.249	36.35
215.467	15.87
215.686	5.63
215.904	65.02
216.122	34.3
216.341	50.69
216.559	26.11
216.778	73.21
216.996	58.88
217.214	87.55
217.432	13.82
217.651	50.69
217.869	13.82
218.087	-8.7
218.306	28.16
218.524	24.06
218.742	62.98
218.96	3.58
219.179	71.17
219.397	32.26
219.615	85.5
219.833	7.68
220.051	-33.28
220.27	-4.61
220.488	79.36
220.706	5.63
220.924	-4.61
221.142	95.74
221.36	-0.51
221.578	93.69
221.796	58.88
222.015	22.02
222.233	101.89
222.451	89.6
222.669	58.88
222.887	108.03
223.105	44.54
223.323	-27.14
223.541	-43.52
223.759	71.17
223.977	26.11
224.195	83.45
224.413	89.6
224.631	79.36
224.849	108.03
225.067	19.97
225.285	26.11
225.503	58.88
225.721	-14.85
225.939	15.87
226.157	-16.9
226.375	99.84
226.592	-20.99
226.81	-2.56
227.028	17.92
227.246	32.26
227.464	38.4
227.682	60.93
227.9	36.35
228.117	95.74
228.335	24.06
228.553	-0.51
228.771	30.21
228.989	-6.66
229.206	71.17
229.424	-8.7
229.642	32.26
229.86	65.02
230.077	48.64
230.295	60.93
230.513	101.89
230.731	67.07
230.948	50.69
231.166	24.06
231.384	-14.85
231.601	34.3
231.819	89.6
232.037	58.88
232.254	11.78
232.472	-14.85
232.689	32.26
232.907	118.27
233.125	19.97
233.342	52.74
233.56	22.02
233.777	71.17
233.995	85.5
234.213	108.03
234.43	38.4
234.648	52.74
234.865	48.64
235.083	-2.56
235.3	28.16
235.518	7.68
235.735	85.5
235.953	77.31
236.17	-72.19
236.388	1.54
236.605	77.31
236.822	52.74
237.04	58.88
237.257	140.8
237.475	-29.18
237.692	22.02
237.909	7.68
238.127	85.5
238.344	34.3
238.562	44.54
238.779	48.64
238.996	58.88
239.214	-47.62
239.431	19.97
239.648	-8.7
239.865	-12.8
240.083	103.93
240.3	-2.56
240.517	28.16
240.735	77.31
240.952	11.78
241.169	73.21
241.386	40.45
241.603	52.74
241.821	79.36
242.038	7.68
242.255	-12.8
242.472	1.54
242.689	93.69
242.907	48.64
243.124	19.97
243.341	11.78
243.558	-25.09
243.775	-25.09
243.992	32.26
244.209	36.35
244.426	77.31
244.643	38.4
244.86	32.26
245.078	79.36
245.295	-29.18
245.512	60.93
245.729	-25.09
245.946	101.89
246.163	48.64
246.38	60.93
246.597	44.54
246.814	24.06
247.031	38.4
247.248	42.5
247.464	60.93
247.681	3.58
247.898	24.06
248.115	97.79
248.332	50.69
248.549	65.02
248.766	110.08
248.983	116.22
249.2	13.82
249.417	62.98
249.633	46.59
249.85	128.51
250.067	93.69
250.284	58.88
250.501	-6.66
250.717	153.09
250.934	19.97
251.151	5.63
251.368	93.69
251.585	34.3
251.801	97.79
252.018	81.41
252.235	67.07
252.451	7.68
252.668	116.22
252.885	24.06
253.102	79.36
253.318	34.3
253.535	-23.04
253.752	24.06
253.968	56.83
254.185	30.21
254.401	69.12
254.618	95.74
254.835	58.88
255.051	30.21
255.268	67.07
255.484	22.02
255.701	22.02
255.917	62.98
256.134	95.74
256.351	-27.14
256.567	-35.33
256.784	87.55
257	-0.51
257.217	105.98
257.433	65.02
257.65	26.11
257.866	-4.61
258.082	9.73
258.299	34.3
258.515	75.26
258.732	50.69
258.948	44.54
259.165	58.88
259.381	7.68
259.597	13.82
259.814	75.26
260.03	50.69
260.246	38.4
260.463	36.35
260.679	5.63
260.895	13.82
261.112	40.45
261.328	38.4
261.544	67.07
261.761	122.37
261.977	58.88
262.193	-4.61
262.409	22.02
262.626	65.02
262.842	126.46
263.058	58.88
263.274	-74.24
263.49	99.84
263.707	67.07
263.923	34.3
264.139	1.54
264.355	67.07
264.571	83.45
264.787	50.69
265.004	75.26
265.22	34.3
265.436	79.36
265.652	73.21
265.868	81.41
266.084	30.21
266.3	38.4
266.516	-6.66
266.732	79.36
266.948	-4.61
267.164	26.11
267.38	71.17
267.596	42.5
267.812	32.26
268.028	95.74
268.244	28.16
268.46	58.88
268.676	62.98
268.892	128.51
269.108	75.26
269.324	11.78
269.54	-0.51
269.756	56.83
269.972	-0.51
270.188	38.4
270.403	-55.81
270.619	85.5
270.835	83.45
271.051	75.26
271.267	36.35
271.483	114.17
271.698	65.02
271.914	28.16
272.13	40.45
272.346	93.69
272.562	34.3
272.777	-12.8
272.993	15.87
273.209	13.82
273.425	19.97
273.64	48.64
273.856	116.22
274.072	40.45
274.287	13.82
274.503	38.4
274.719	3.58
274.934	65.02
275.15	65.02
275.366	17.92
275.581	3.58
275.797	26.11
276.012	36.35
276.228	44.54
276.444	7.68
276.659	54.78
276.875	30.21
277.09	54.78
277.306	50.69
277.521	54.78
277.737	40.45
277.952	40.45
278.168	17.92
278.383	-45.57
278.599	58.88
278.814	9.73
279.03	30.21
279.245	97.79
279.461	15.87
279.676	44.54
279.892	95.74
280.107	-100.86
280.322	103.93
280.538	44.54
280.753	36.35
280.969	71.17
281.184	-23.04
281.399	-2.56
281.615	19.97
281.83	65.02
282.045	-12.8
282.26	38.4
282.476	56.83
282.691	81.41
282.906	67.07
283.122	52.74
283.337	54.78
283.552	114.17
283.767	105.98
283.983	62.98
284.198	15.87
284.413	28.16
284.628	36.35
284.843	36.35
285.058	13.82
285.274	71.17
285.489	-31.23
285.704	46.59
285.919	44.54
286.134	62.98
286.349	44.54
286.564	13.82
286.779	38.4
286.995	79.36
287.21	85.5
287.425	81.41
287.64	32.26
287.855	36.35
288.07	67.07
288.285	114.17
288.5	56.83
288.715	36.35
288.93	52.74
289.145	108.03
289.36	7.68
289.575	105.98
289.79	50.69
290.004	54.78
290.219	38.4
290.434	7.68
290.649	36.35
290.864	-20.99
291.079	62.98
291.294	75.26
291.509	54.78
291.724	58.88
291.938	50.69
292.153	71.17
292.368	62.98
292.583	110.08
292.798	5.63
293.012	85.5
293.227	13.82
293.442	95.74
293.657	38.4
293.871	105.98
294.086	40.45
294.301	38.4
294.516	-2.56
294.73	110.08
294.945	3.58
295.16	1.54
295.374	99.84
295.589	69.12
295.804	52.74
296.018	81.41
296.233	116.22
296.447	38.4
296.662	75.26
296.877	128.51
297.091	105.98
297.306	52.74
297.52	67.07
297.735	38.4
297.949	83.45
298.164	136.7
298.378	83.45
298.593	87.55
298.807	73.21
299.022	73.21
299.236	65.02
299.451	13.82
299.665	81.41
299.88	-0.51
300.094	50.69
300.309	46.59
300.523	89.6
300.737	120.32
300.952	116.22
301.166	62.98
301.381	-23.04
301.595	40.45
301.809	13.82
302.024	103.93
302.238	32.26
302.452	116.22
302.667	42.5
302.881	79.36
303.095	128.51
303.309	48.64
303.524	83.45
303.738	48.64
303.952	75.26
304.166	62.98
304.381	13.82
304.595	60.93
304.809	56.83
305.023	122.37
305.237	83.45
305.452	97.79
305.666	56.83
305.88	46.59
306.094	81.41
306.308	5.63
306.522	116.22
306.736	52.74
306.95	40.45
307.164	54.78
307.379	44.54
307.593	110.08
307.807	-8.7
308.021	122.37
308.235	60.93
308.449	17.92
308.663	-18.94
308.877	99.84
309.091	13.82
309.305	105.98
309.519	7.68
309.733	46.59
309.947	99.84
310.161	67.07
310.374	19.97
310.588	132.61
310.802	60.93
311.016	65.02
311.23	103.93
311.444	-10.75
311.658	62.98
311.872	22.02
312.085	69.12
312.299	-2.56
312.513	73.21
312.727	97.79
312.941	95.74
313.154	28.16
313.368	36.35
313.582	103.93
313.796	81.41
314.009	-10.75
314.223	44.54
314.437	95.74
314.651	44.54
314.864	65.02
315.078	44.54
315.292	9.73
315.505	65.02
315.719	103.93
315.933	87.55
316.146	30.21
316.36	60.93
316.573	58.88
316.787	40.45
317.001	153.09
317.214	13.82
317.428	44.54
317.641	11.78
317.855	-4.61
318.068	5.63
318.282	120.32
318.495	85.5
318.709	73.21
318.922	26.11
319.136	110.08
319.349	36.35
319.563	83.45
319.776	17.92
319.99	58.88
320.203	44.54
320.417	36.35
320.63	22.02
320.843	163.33
321.057	60.93
321.27	42.5
321.483	52.74
321.697	44.54
321.91	46.59
322.124	44.54
322.337	-20.99
322.55	60.93
322.763	71.17
322.977	54.78
323.19	112.13
323.403	69.12
323.617	77.31
323.83	83.45
324.043	-33.28
324.256	93.69
324.469	22.02
324.683	173.57
324.896	11.78
325.109	110.08
325.322	50.69
325.535	108.03
325.748	32.26
325.962	40.45
326.175	85.5
326.388	130.56
326.601	79.36
326.814	91.65
327.027	-0.51
327.24	73.21
327.453	-4.61
327.666	99.84
327.879	32.26
328.092	69.12
328.305	32.26
328.518	-12.8
328.731	46.59
328.944	101.89
329.157	75.26
329.37	36.35
329.583	85.5
329.796	36.35
330.009	22.02
330.222	62.98
330.435	101.89
330.648	36.35
330.861	36.35
331.073	30.21
331.286	9.73
331.499	-0.51
331.712	-47.62
331.925	19.97
332.138	97.79
332.35	69.12
332.563	60.93
332.776	93.69
332.989	13.82
333.202	52.74
333.414	56.83
333.627	52.74
333.84	58.88
334.053	56.83
334.265	26.11
334.478	44.54
334.691	50.69
334.903	34.3
335.116	69.12
335.329	56.83
335.541	77.31
335.754	48.64
335.966	46.59
336.179	93.69
336.392	38.4
336.604	126.46
336.817	89.6
337.029	52.74
337.242	116.22
337.454	42.5
337.667	60.93
337.88	103.93
338.092	17.92
338.305	38.4
338.517	67.07
338.729	-6.66
338.942	97.79
339.154	67.07
339.367	85.5
339.579	7.68
339.792	17.92
340.004	114.17
340.217	105.98
340.429	-4.61
340.641	48.64
340.854	58.88
341.066	9.73
341.278	77.31
341.491	50.69
341.703	103.93
341.915	38.4
342.128	122.37
342.34	62.98
342.552	28.16
342.764	52.74
342.977	138.75
343.189	46.59
343.401	65.02
343.613	-0.51
343.826	81.41
344.038	-8.7
344.25	71.17
344.462	60.93
344.674	38.4
344.886	44.54
345.099	91.65
345.311	24.06
345.523	1.54
345.735	52.74
345.947	52.74
346.159	-14.85
346.371	99.84
346.583	54.78
346.795	108.03
347.007	67.07
347.219	71.17
347.431	17.92
347.643	87.55
347.855	50.69
348.067	36.35
348.279	28.16
348.491	52.74
348.703	46.59
348.915	130.56
349.127	32.26
349.339	99.84
349.551	101.89
349.763	101.89
349.975	-8.7
350.187	165.37
350.399	167.42
350.61	65.02
350.822	-39.42
351.034	89.6
351.246	48.64
351.458	36.35
351.669	91.65
351.881	69.12
352.093	91.65
352.305	132.61
352.517	91.65
352.728	67.07
352.94	56.83
353.152	83.45
353.363	38.4
353.575	-10.75
353.787	75.26
353.999	85.5
354.21	91.65
354.422	-33.28
354.633	124.41
354.845	60.93
355.057	73.21
355.268	69.12
355.48	36.35
355.692	83.45
355.903	44.54
356.115	46.59
356.326	56.83
356.538	105.98
356.749	38.4
356.961	114.17
357.172	71.17
357.384	9.73
357.595	132.61
357.807	95.74
358.018	89.6
358.23	77.31
358.441	40.45
358.653	140.8
358.864	26.11
359.075	79.36
359.287	36.35
359.498	46.59
359.709	40.45
359.921	136.7
360.132	83.45
360.344	22.02
360.555	95.74
360.766	124.41
360.977	62.98
361.189	103.93
361.4	19.97
361.611	15.87
361.823	11.78
362.034	97.79
362.245	-41.47
362.456	52.74
362.667	-39.42
362.879	28.16
363.09	58.88
363.301	146.94
363.512	60.93
363.723	32.26
363.935	77.31
364.146	77.31
364.357	46.59
364.568	60.93
364.779	38.4
364.99	120.32
365.201	91.65
365.412	97.79
365.623	13.82
365.834	54.78
366.045	79.36
366.256	97.79
366.467	65.02
366.678	36.35
366.889	38.4
367.1	52.74
367.311	34.3
367.522	13.82
367.733	120.32
367.944	146.94
368.155	58.88
368.366	65.02
368.577	87.55
368.788	73.21
368.999	40.45
369.209	71.17
369.42	163.33
369.631	75.26
369.842	67.07
370.053	65.02
370.264	108.03
370.474	101.89
370.685	95.74
370.896	22.02
371.107	93.69
371.317	163.33
371.528	22.02
371.739	48.64
371.95	34.3
372.16	32.26
372.371	22.02
372.582	46.59
372.792	-6.66
373.003	91.65
373.214	73.21
373.424	101.89
373.635	73.21
373.846	128.51
374.056	97.79
374.267	34.3
374.477	15.87
374.688	85.5
374.898	114.17
375.109	62.98
375.319	58.88
375.53	142.85
375.74	89.6
375.951	48.64
376.161	79.36
376.372	79.36
376.582	69.12
376.793	101.89
377.003	85.5
377.214	138.75
377.424	97.79
377.635	118.27
377.845	71.17
378.055	134.65
378.266	83.45
378.476	116.22
378.686	132.61
378.897	54.78
379.107	7.68
379.317	103.93
379.528	50.69
379.738	105.98
379.948	132.61
380.158	97.79
380.369	54.78
380.579	134.65
380.789	128.51
380.999	69.12
381.21	97.79
381.42	110.08
381.63	126.46
381.84	77.31
382.05	77.31
382.261	97.79
382.471	83.45
382.681	110.08
382.891	73.21
383.101	56.83
383.311	7.68
383.521	136.7
383.731	93.69
383.941	52.74
384.151	87.55
384.361	103.93
384.571	81.41
384.781	91.65
384.991	167.42
385.201	136.7
385.411	95.74
385.621	138.75
385.831	122.37
386.041	153.09
386.251	130.56
386.461	83.45
386.671	52.74
386.881	128.51
387.091	17.92
387.301	114.17
387.511	81.41
387.72	95.74
387.93	50.69
388.14	44.54
388.35	67.07
388.56	95.74
388.769	71.17
388.979	52.74
389.189	140.8
389.399	118.27
389.609	122.37
389.818	99.84
390.028	77.31
390.238	126.46
390.447	30.21
390.657	108.03
390.867	103.93
391.076	58.88
391.286	116.22
391.496	87.55
391.705	56.83
391.915	138.75
392.125	122.37
392.334	48.64
392.544	120.32
392.753	128.51
392.963	34.3
393.172	130.56
393.382	85.5
393.591	62.98
393.801	101.89
394.01	144.89
394.22	95.74
394.429	124.41
394.639	99.84
394.848	163.33
395.058	93.69
395.267	69.12
395.477	116.22
395.686	148.99
395.895	103.93
396.105	155.13
396.314	142.85
396.524	134.65
396.733	185.85
396.942	140.8
397.152	132.61
397.361	120.32
397.57	151.04
397.78	148.99
397.989	171.52
398.198	212.48
398.407	58.88
398.617	185.85
398.826	95.74
399.035	198.14
399.244	175.61
399.453	202.24
399.663	99.84
399.872	163.33
400.081	148.99
400.29	185.85
400.499	187.9
400.708	138.75
400.917	146.94
401.127	202.24
401.336	91.65
401.545	226.81
401.754	196.09
401.963	202.24
402.172	159.23
402.381	134.65
402.59	163.33
402.799	163.33
403.008	230.91
403.217	112.13
403.426	173.57
403.635	196.09
403.844	196.09
404.053	247.29
404.262	282.11
404.471	290.3
404.68	192
404.888	171.52
405.097	177.66
405.306	179.71
405.515	284.16
405.724	228.86
405.933	241.15
406.142	255.48
406.35	226.81
406.559	237.05
406.768	290.3
406.977	407.03
407.185	327.16
407.394	339.45
407.603	310.78
407.812	329.21
408.02	357.88
408.229	349.69
408.438	376.31
408.646	366.07
408.855	278.01
409.064	306.68
409.272	361.98
409.481	466.42
409.69	454.14
409.898	368.12
410.107	374.27
410.315	495.1
410.524	398.84
410.733	486.9
410.941	566.78
411.15	515.58
411.358	579.06
411.567	503.29
411.775	546.3
411.984	587.26
412.192	597.49
412.401	626.17
412.609	656.89
412.818	755.19
413.026	673.27
413.234	747
413.443	687.61
413.651	740.85
413.86	822.77
414.068	896.5
414.276	904.69
414.485	898.55
414.693	974.32
414.901	898.55
415.11	1037.81
415.318	1017.33
415.526	1078.77
415.734	1129.97
415.943	1117.68
416.151	1127.92
416.359	1256.94
416.567	1285.61
416.776	1379.82
416.984	1396.2
417.192	1404.39
417.4	1463.79
417.608	1396.2
417.817	1381.87
418.025	1523.18
418.233	1658.34
418.441	1660.39
418.649	1705.45
418.857	1869.28
419.065	1857
419.273	1826.28
419.481	1930.72
419.689	2020.83
419.897	2182.62
420.105	2178.53
420.313	2289.12
420.521	2280.93
420.729	2375.13
420.937	2412
421.145	2516.44
421.353	2692.57
421.561	2737.62
421.769	2790.87
421.977	2954.71
422.185	2870.74
422.393	3091.92
422.601	3233.23
422.809	3272.14
423.017	3388.88
423.224	3247.57
423.432	3485.13
423.64	3608.01
423.848	4009.41
424.056	3810.76
424.263	4083.14
424.471	4056.51
424.679	4144.58
424.887	4371.9
425.094	4586.94
425.302	4588.99
425.51	4877.75
425.718	5006.77
425.925	4982.2
426.133	5139.89
426.341	5424.56
426.548	5551.53
426.756	5721.51
426.964	5774.76
427.171	6016.42
427.379	6268.32
427.586	6292.9
427.794	6487.45
428.001	6657.43
428.209	7054.74
428.417	6792.6
428.624	7484.81
428.832	7452.05
429.039	7466.38
429.247	7353.74
429.454	8101.25
429.662	8695.16
429.869	8091.01
430.076	8519.04
430.284	8529.28
430.491	8762.75
430.699	9217.4
430.906	9387.38
431.114	9540.97
431.321	9665.9
431.528	9858.41
431.736	10489.18
431.943	11076.95
432.15	10771.8
432.358	10749.28
432.565	11427.15
432.772	11613.52
432.979	11973.96
433.187	12483.91
433.394	12406.08
433.601	13157.69
433.808	13342
434.016	13086.01
434.223	13462.83
434.43	14359.84
434.637	14357.8
434.844	15168.79
435.052	15189.27
435.259	15398.17
435.466	15422.74
435.673	15349.01
435.88	16231.69
436.087	17167.61
436.294	17130.75
436.501	16719.1
436.708	17169.66
436.915	17788.14
437.122	18476.26
437.329	18031.85
437.537	18824.42
437.743	19014.88
437.95	19258.59
438.157	20182.22
438.364	20786.37
438.571	20933.82
438.778	20925.63
438.985	22529.19
439.192	21757.11
439.399	22490.28
439.606	22199.47
439.813	23444.63
440.02	24927.36
440.227	24136.85
440.433	24106.13
440.64	24685.7
440.847	24640.65
441.054	24894.6
441.261	26971.24
441.467	26623.08
441.674	27159.65
441.881	28054.61
442.088	28161.11
442.294	27991.12
442.501	28277.84
442.708	28785.74
442.914	30508.08
443.121	31689.76
443.328	30348.34
443.534	32990.22
443.741	32103.45
443.948	31249.44
444.154	33680.38
444.361	33287.17
444.568	33963
444.774	33983.48
444.981	34145.27
445.187	34986.99
445.394	36910.03
445.6	36312.02
445.807	39601.06
446.013	38054.84
446.22	38855.6
446.426	39969.69
446.633	40635.28
446.839	41642.88
447.046	39879.58
447.252	42470.26
447.459	42650.49
447.665	42353.53
447.871	44213.09
448.078	45529.93
448.284	43783.01
448.491	44667.73
448.697	46758.71
448.903	47428.4
449.11	47070
449.316	46414.65
449.522	47274.8
449.728	48907.03
449.935	49154.83
450.141	48890.65
450.347	50125.57
450.553	48700.18
450.76	49203.99
450.966	50402.05
451.172	50311.94
451.378	51923.69
451.584	50305.79
451.791	52120.29
451.997	51491.57
452.203	52325.09
452.409	52288.23
452.615	51956.46
452.821	50017.03
453.027	49507.08
453.233	52257.51
453.44	50248.45
453.646	51579.63
453.852	51157.75
454.058	51966.7
454.264	50348.8
454.47	51208.95
454.676	50025.22
454.882	51786.47
455.088	47280.94
455.294	48132.9
455.5	48833.3
455.705	48896.79
455.911	47442.73
456.117	46920.5
456.323	46224.19
456.529	43604.84
456.735	45589.32
456.941	44131.17
457.147	43688.81
457.352	41831.3
457.558	41864.07
457.764	41845.63
457.97	41044.88
458.176	40037.28
458.381	40135.58
458.587	37989.31
458.793	38542.26
458.999	36594.64
459.204	38828.98
459.41	37891.01
459.616	35191.78
459.821	35589.09
460.027	35425.25
460.233	34880.49
460.438	32807.95
460.644	33102.85
460.85	31747.1
461.055	31400.99
461.261	31142.95
461.466	29107.27
461.672	27708.51
461.878	30198.84
462.083	27843.67
462.289	27673.69
462.494	27036.77
462.7	25977.97
462.905	25343.1
463.111	25844.85
463.316	25982.07
463.522	25535.61
463.727	25748.6
463.932	25676.92
464.138	25447.55
464.343	25570.43
464.549	24577.16
464.754	25627.77
464.959	25150.59
465.165	25212.03
465.37	24040.59
465.575	23379.1
465.781	24325.26
465.986	24501.39
466.191	23749.78
466.397	23090.34
466.602	21902.51
466.807	22918.31
467.012	22793.38
