Data from USB4F104151__36__12-35-45-620.txt Node

Date: Fri Mar 14 12:35:45 EDT 2025
User: louis
Spectrometer: USB4F10415
Trigger mode: 4
Integration Time (sec): 2.000000E-2
Scans to average: 1
Electric dark correction enabled: true
Nonlinearity correction enabled: false
Boxcar width: 0
XAxis mode: Wavelengths
Number of Pixels in Spectrum: 3648
>>>>>Begin Spectral Data<<<<<
178.204	-60.24
178.424	-60.24
178.644	-60.24
178.864	-109.4
179.084	-101.2
179.304	-50
179.524	25.77
179.744	-103.25
179.964	60.59
180.184	-47.96
180.404	5.29
180.624	-41.81
180.844	70.83
181.064	-7
181.283	25.77
181.503	1.19
181.723	60.59
181.943	-62.29
182.163	58.54
182.383	38.06
182.602	17.58
182.822	101.55
183.042	60.59
183.262	-95.06
183.482	5.29
183.701	-13.14
183.921	23.72
184.141	-33.62
184.361	-33.62
184.58	7.34
184.8	40.11
185.02	-37.72
185.239	44.2
185.459	-13.14
185.679	70.83
185.898	-25.43
186.118	23.72
186.338	29.87
186.557	64.68
186.777	-25.43
186.997	21.67
187.216	56.49
187.436	72.87
187.655	29.87
187.875	-56.15
188.095	-60.24
188.314	48.3
188.534	54.44
188.753	27.82
188.973	46.25
189.192	74.92
189.412	-39.76
189.631	58.54
189.851	-39.76
190.07	19.63
190.29	-17.24
190.509	38.06
190.729	64.68
190.948	13.48
191.168	38.06
191.387	122.02
191.607	79.02
191.826	-19.29
192.045	-29.52
192.265	11.43
192.484	52.39
192.704	-9.05
192.923	-37.72
193.142	52.39
193.362	9.39
193.581	17.58
193.8	56.49
194.02	-29.52
194.239	-0.85
194.458	-0.85
194.678	21.67
194.897	33.96
195.116	5.29
195.335	1.19
195.555	36.01
195.774	29.87
195.993	60.59
196.212	-39.76
196.432	29.87
196.651	-4.95
196.87	9.39
197.089	21.67
197.308	-4.95
197.528	70.83
197.747	-17.24
197.966	60.59
198.185	36.01
198.404	29.87
198.623	72.87
198.842	-25.43
199.062	11.43
199.281	11.43
199.5	15.53
199.719	-17.24
199.938	50.35
200.157	-13.14
200.376	83.11
200.595	-21.33
200.814	5.29
201.033	31.91
201.252	60.59
201.471	42.15
201.69	-0.85
201.909	-15.19
202.128	60.59
202.347	64.68
202.566	23.72
202.785	-43.86
203.004	-39.76
203.223	103.59
203.442	85.16
203.661	-7
203.879	42.15
204.098	-17.24
204.317	-47.96
204.536	-25.43
204.755	3.24
204.974	-33.62
205.193	21.67
205.411	68.78
205.63	115.88
205.849	11.43
206.068	-15.19
206.287	-25.43
206.505	-15.19
206.724	1.19
206.943	23.72
207.162	15.53
207.381	70.83
207.599	36.01
207.818	79.02
208.037	52.39
208.255	-25.43
208.474	15.53
208.693	36.01
208.911	5.29
209.13	-17.24
209.349	66.73
209.567	44.2
209.786	44.2
210.005	-39.76
210.223	-31.57
210.442	-54.1
210.661	31.91
210.879	76.97
211.098	11.43
211.316	83.11
211.535	17.58
211.753	-0.85
211.972	-21.33
212.191	-95.06
212.409	-29.52
212.628	81.07
212.846	-27.48
213.065	-7
213.283	87.21
213.502	-13.14
213.72	33.96
213.938	-11.09
214.157	-47.96
214.375	-25.43
214.594	27.82
214.812	21.67
215.031	79.02
215.249	29.87
215.467	-9.05
215.686	29.87
215.904	44.2
216.122	-66.39
216.341	27.82
216.559	58.54
216.778	7.34
216.996	-4.95
217.214	64.68
217.432	-19.29
217.651	72.87
217.869	44.2
218.087	-11.09
218.306	-41.81
218.524	17.58
218.742	7.34
218.96	25.77
219.179	-2.9
219.397	-15.19
219.615	111.78
219.833	23.72
220.051	-4.95
220.27	13.48
220.488	19.63
220.706	-37.72
220.924	3.24
221.142	-9.05
221.36	17.58
221.578	-21.33
221.796	-2.9
222.015	44.2
222.233	103.59
222.451	7.34
222.669	-41.81
222.887	70.83
223.105	5.29
223.323	46.25
223.541	-33.62
223.759	60.59
223.977	-13.14
224.195	91.31
224.413	44.2
224.631	19.63
224.849	76.97
225.067	46.25
225.285	-33.62
225.503	-13.14
225.721	-4.95
225.939	-4.95
226.157	42.15
226.375	105.64
226.592	-33.62
226.81	-15.19
227.028	-11.09
227.246	33.96
227.464	56.49
227.682	79.02
227.9	52.39
228.117	91.31
228.335	87.21
228.553	42.15
228.771	-13.14
228.989	-2.9
229.206	1.19
229.424	38.06
229.642	-11.09
229.86	-0.85
230.077	95.4
230.295	91.31
230.513	-4.95
230.731	66.73
230.948	1.19
231.166	38.06
231.384	-23.38
231.601	44.2
231.819	-21.33
232.037	79.02
232.254	25.77
232.472	21.67
232.689	52.39
232.907	5.29
233.125	56.49
233.342	-29.52
233.56	9.39
233.777	-45.91
233.995	29.87
234.213	15.53
234.43	19.63
234.648	21.67
234.865	-15.19
235.083	103.59
235.3	-15.19
235.518	46.25
235.735	-21.33
235.953	-25.43
236.17	17.58
236.388	-15.19
236.605	7.34
236.822	7.34
237.04	25.77
237.257	19.63
237.475	48.3
237.692	66.73
237.909	36.01
238.127	29.87
238.344	-0.85
238.562	-13.14
238.779	19.63
238.996	23.72
239.214	9.39
239.431	1.19
239.648	40.11
239.865	54.44
240.083	29.87
240.3	36.01
240.517	-33.62
240.735	23.72
240.952	-45.91
241.169	58.54
241.386	29.87
241.603	-27.48
241.821	29.87
242.038	48.3
242.255	-39.76
242.472	27.82
242.689	38.06
242.907	74.92
243.124	89.26
243.341	-50
243.558	-27.48
243.775	46.25
243.992	-43.86
244.209	83.11
244.426	46.25
244.643	17.58
244.86	-0.85
245.078	-4.95
245.295	-2.9
245.512	-19.29
245.729	-37.72
245.946	50.35
246.163	-41.81
246.38	40.11
246.597	36.01
246.814	-7
247.031	-29.52
247.248	87.21
247.464	109.74
247.681	44.2
247.898	19.63
248.115	85.16
248.332	29.87
248.549	-39.76
248.766	23.72
248.983	56.49
249.2	9.39
249.417	13.48
249.633	33.96
249.85	72.87
250.067	48.3
250.284	74.92
250.501	40.11
250.717	48.3
250.934	27.82
251.151	5.29
251.368	48.3
251.585	46.25
251.801	-17.24
252.018	5.29
252.235	-9.05
252.451	9.39
252.668	66.73
252.885	48.3
253.102	-9.05
253.318	-13.14
253.535	31.91
253.752	25.77
253.968	36.01
254.185	-17.24
254.401	81.07
254.618	1.19
254.835	72.87
255.051	38.06
255.268	50.35
255.484	31.91
255.701	54.44
255.917	46.25
256.134	-43.86
256.351	56.49
256.567	52.39
256.784	54.44
257	-50
257.217	27.82
257.433	5.29
257.65	33.96
257.866	13.48
258.082	36.01
258.299	-33.62
258.515	42.15
258.732	40.11
258.948	38.06
259.165	-0.85
259.381	27.82
259.597	11.43
259.814	19.63
260.03	5.29
260.246	31.91
260.463	36.01
260.679	56.49
260.895	33.96
261.112	60.59
261.328	7.34
261.544	11.43
261.761	21.67
261.977	-35.67
262.193	23.72
262.409	46.25
262.626	13.48
262.842	-13.14
263.058	-0.85
263.274	27.82
263.49	-35.67
263.707	56.49
263.923	5.29
264.139	27.82
264.355	40.11
264.571	7.34
264.787	-50
265.004	9.39
265.22	81.07
265.436	46.25
265.652	62.63
265.868	42.15
266.084	13.48
266.3	-19.29
266.516	19.63
266.732	76.97
266.948	-11.09
267.164	64.68
267.38	15.53
267.596	48.3
267.812	-11.09
268.028	62.63
268.244	19.63
268.46	-29.52
268.676	62.63
268.892	29.87
269.108	-31.57
269.324	38.06
269.54	-0.85
269.756	97.45
269.972	23.72
270.188	9.39
270.403	56.49
270.619	-19.29
270.835	66.73
271.051	115.88
271.267	27.82
271.483	-35.67
271.698	56.49
271.914	-39.76
272.13	7.34
272.346	40.11
272.562	64.68
272.777	17.58
272.993	60.59
273.209	-4.95
273.425	62.63
273.64	17.58
273.856	85.16
274.072	15.53
274.287	11.43
274.503	27.82
274.719	38.06
274.934	50.35
275.15	-21.33
275.366	11.43
275.581	-0.85
275.797	27.82
276.012	40.11
276.228	54.44
276.444	38.06
276.659	81.07
276.875	-64.34
277.09	15.53
277.306	44.2
277.521	44.2
277.737	21.67
277.952	38.06
278.168	93.35
278.383	-35.67
278.599	46.25
278.814	42.15
279.03	36.01
279.245	85.16
279.461	29.87
279.676	-27.48
279.892	38.06
280.107	46.25
280.322	25.77
280.538	17.58
280.753	44.2
280.969	-17.24
281.184	40.11
281.399	33.96
281.615	-15.19
281.83	-17.24
282.045	58.54
282.26	-21.33
282.476	27.82
282.691	-43.86
282.906	-37.72
283.122	42.15
283.337	-17.24
283.552	21.67
283.767	-2.9
283.983	126.12
284.198	54.44
284.413	85.16
284.628	-72.53
284.843	7.34
285.058	64.68
285.274	-23.38
285.489	-35.67
285.704	-35.67
285.919	-19.29
286.134	-9.05
286.349	33.96
286.564	38.06
286.779	42.15
286.995	50.35
287.21	1.19
287.425	79.02
287.64	-9.05
287.855	42.15
288.07	36.01
288.285	103.59
288.5	19.63
288.715	83.11
288.93	42.15
289.145	95.4
289.36	19.63
289.575	68.78
289.79	99.5
290.004	15.53
290.219	-21.33
290.434	-4.95
290.649	-17.24
290.864	-60.24
291.079	21.67
291.294	-23.38
291.509	-15.19
291.724	7.34
291.938	9.39
292.153	40.11
292.368	36.01
292.583	83.11
292.798	31.91
293.012	128.17
293.227	46.25
293.442	50.35
293.657	42.15
293.871	76.97
294.086	46.25
294.301	62.63
294.516	68.78
294.73	33.96
294.945	44.2
295.16	-15.19
295.374	-2.9
295.589	42.15
295.804	54.44
296.018	40.11
296.233	11.43
296.447	-29.52
296.662	13.48
296.877	-4.95
297.091	50.35
297.306	-13.14
297.52	-35.67
297.735	13.48
297.949	40.11
298.164	-7
298.378	-17.24
298.593	-23.38
298.807	-21.33
299.022	36.01
299.236	25.77
299.451	11.43
299.665	66.73
299.88	-45.91
300.094	23.72
300.309	-45.91
300.523	29.87
300.737	27.82
300.952	19.63
301.166	40.11
301.381	-23.38
301.595	36.01
301.809	21.67
302.024	13.48
302.238	23.72
302.452	40.11
302.667	54.44
302.881	93.35
303.095	85.16
303.309	-0.85
303.524	52.39
303.738	42.15
303.952	-68.44
304.166	40.11
304.381	-31.57
304.595	60.59
304.809	62.63
305.023	19.63
305.237	17.58
305.452	62.63
305.666	25.77
305.88	72.87
306.094	23.72
306.308	38.06
306.522	74.92
306.736	62.63
306.95	58.54
307.164	23.72
307.379	33.96
307.593	146.6
307.807	27.82
308.021	1.19
308.235	56.49
308.449	19.63
308.663	60.59
308.877	58.54
309.091	54.44
309.305	93.35
309.519	38.06
309.733	11.43
309.947	-15.19
310.161	-0.85
310.374	7.34
310.588	68.78
310.802	-35.67
311.016	13.48
311.23	7.34
311.444	-13.14
311.658	11.43
311.872	93.35
312.085	19.63
312.299	87.21
312.513	87.21
312.727	72.87
312.941	-35.67
313.154	38.06
313.368	9.39
313.582	81.07
313.796	7.34
314.009	5.29
314.223	60.59
314.437	-7
314.651	7.34
314.864	31.91
315.078	29.87
315.292	56.49
315.505	5.29
315.719	21.67
315.933	29.87
316.146	36.01
316.36	-0.85
316.573	38.06
316.787	83.11
317.001	52.39
317.214	13.48
317.428	29.87
317.641	79.02
317.855	124.07
318.068	44.2
318.282	29.87
318.495	48.3
318.709	46.25
318.922	-27.48
319.136	-52.05
319.349	83.11
319.563	79.02
319.776	38.06
319.99	50.35
320.203	13.48
320.417	56.49
320.63	46.25
320.843	-7
321.057	1.19
321.27	11.43
321.483	-4.95
321.697	81.07
321.91	19.63
322.124	-11.09
322.337	83.11
322.55	31.91
322.763	85.16
322.977	52.39
323.19	-29.52
323.403	-2.9
323.617	70.83
323.83	74.92
324.043	38.06
324.256	40.11
324.469	21.67
324.683	36.01
324.896	87.21
325.109	3.24
325.322	5.29
325.535	74.92
325.748	60.59
325.962	17.58
326.175	76.97
326.388	146.6
326.601	29.87
326.814	17.58
327.027	50.35
327.24	72.87
327.453	-17.24
327.666	54.44
327.879	33.96
328.092	58.54
328.305	-4.95
328.518	50.35
328.731	-9.05
328.944	9.39
329.157	42.15
329.37	-21.33
329.583	15.53
329.796	38.06
330.009	7.34
330.222	54.44
330.435	17.58
330.648	54.44
330.861	-2.9
331.073	40.11
331.286	31.91
331.499	36.01
331.712	46.25
331.925	-29.52
332.138	19.63
332.35	60.59
332.563	60.59
332.776	56.49
332.989	44.2
333.202	89.26
333.414	-21.33
333.627	60.59
333.84	5.29
334.053	29.87
334.265	48.3
334.478	9.39
334.691	52.39
334.903	101.55
335.116	52.39
335.329	113.83
335.541	15.53
335.754	44.2
335.966	19.63
336.179	85.16
336.392	36.01
336.604	-31.57
336.817	46.25
337.029	33.96
337.242	-15.19
337.454	70.83
337.667	31.91
337.88	50.35
338.092	62.63
338.305	60.59
338.517	-2.9
338.729	23.72
338.942	81.07
339.154	42.15
339.367	21.67
339.579	42.15
339.792	17.58
340.004	46.25
340.217	54.44
340.429	17.58
340.641	-64.34
340.854	33.96
341.066	-23.38
341.278	50.35
341.491	-25.43
341.703	48.3
341.915	74.92
342.128	62.63
342.34	23.72
342.552	89.26
342.764	-47.96
342.977	-25.43
343.189	-15.19
343.401	11.43
343.613	52.39
343.826	50.35
344.038	-9.05
344.25	36.01
344.462	62.63
344.674	74.92
344.886	33.96
345.099	-9.05
345.311	-76.63
345.523	38.06
345.735	21.67
345.947	50.35
346.159	42.15
346.371	33.96
346.583	46.25
346.795	33.96
347.007	36.01
347.219	-11.09
347.431	95.4
347.643	85.16
347.855	9.39
348.067	33.96
348.279	-15.19
348.491	-27.48
348.703	42.15
348.915	7.34
349.127	19.63
349.339	-21.33
349.551	91.31
349.763	52.39
349.975	31.91
350.187	9.39
350.399	79.02
350.61	42.15
350.822	3.24
351.034	66.73
351.246	105.64
351.458	23.72
351.669	58.54
351.881	91.31
352.093	-76.63
352.305	3.24
352.517	-58.2
352.728	46.25
352.94	40.11
353.152	-2.9
353.363	50.35
353.575	99.5
353.787	62.63
353.999	83.11
354.21	79.02
354.422	66.73
354.633	7.34
354.845	11.43
355.057	62.63
355.268	68.78
355.48	1.19
355.692	44.2
355.903	64.68
356.115	21.67
356.326	11.43
356.538	72.87
356.749	7.34
356.961	17.58
357.172	23.72
357.384	52.39
357.595	87.21
357.807	48.3
358.018	-9.05
358.23	52.39
358.441	89.26
358.653	-23.38
358.864	-13.14
359.075	11.43
359.287	3.24
359.498	64.68
359.709	101.55
359.921	103.59
360.132	29.87
360.344	-19.29
360.555	31.91
360.766	109.74
360.977	56.49
361.189	70.83
361.4	66.73
361.611	38.06
361.823	58.54
362.034	36.01
362.245	1.19
362.456	31.91
362.667	11.43
362.879	99.5
363.09	25.77
363.301	-11.09
363.512	70.83
363.723	44.2
363.935	91.31
364.146	89.26
364.357	-2.9
364.568	40.11
364.779	-37.72
364.99	9.39
365.201	54.44
365.412	31.91
365.623	-9.05
365.834	-13.14
366.045	31.91
366.256	48.3
366.467	87.21
366.678	13.48
366.889	-2.9
367.1	74.92
367.311	136.36
367.522	68.78
367.733	68.78
367.944	38.06
368.155	15.53
368.366	33.96
368.577	138.41
368.788	68.78
368.999	-80.72
369.209	54.44
369.42	72.87
369.631	83.11
369.842	15.53
370.053	17.58
370.264	70.83
370.474	17.58
370.685	-80.72
370.896	46.25
371.107	97.45
371.317	17.58
371.528	79.02
371.739	99.5
371.95	-19.29
372.16	54.44
372.371	42.15
372.582	130.22
372.792	99.5
373.003	60.59
373.214	-4.95
373.424	42.15
373.635	48.3
373.846	29.87
374.056	31.91
374.267	72.87
374.477	95.4
374.688	11.43
374.898	42.15
375.109	50.35
375.319	29.87
375.53	68.78
375.74	27.82
375.951	-17.24
376.161	23.72
376.372	42.15
376.582	62.63
376.793	19.63
377.003	-17.24
377.214	54.44
377.424	27.82
377.635	38.06
377.845	7.34
378.055	107.69
378.266	-45.91
378.476	72.87
378.686	56.49
378.897	115.88
379.107	60.59
379.317	74.92
379.528	46.25
379.738	62.63
379.948	-11.09
380.158	17.58
380.369	27.82
380.579	62.63
380.789	-2.9
380.999	27.82
381.21	40.11
381.42	150.7
381.63	7.34
381.84	44.2
382.05	48.3
382.261	134.31
382.471	97.45
382.681	-21.33
382.891	21.67
383.101	97.45
383.311	25.77
383.521	25.77
383.731	54.44
383.941	101.55
384.151	101.55
384.361	64.68
384.571	40.11
384.781	119.98
384.991	101.55
385.201	150.7
385.411	44.2
385.621	-11.09
385.831	48.3
386.041	64.68
386.251	-19.29
386.461	115.88
386.671	1.19
386.881	11.43
387.091	-4.95
387.301	83.11
387.511	54.44
387.72	-9.05
387.93	44.2
388.14	17.58
388.35	89.26
388.56	79.02
388.769	109.74
388.979	54.44
389.189	25.77
389.399	93.35
389.609	175.27
389.818	-27.48
390.028	23.72
390.238	81.07
390.447	62.63
390.657	83.11
390.867	7.34
391.076	74.92
391.286	87.21
391.496	44.2
391.705	79.02
391.915	89.26
392.125	122.02
392.334	89.26
392.544	52.39
392.753	85.16
392.963	21.67
393.172	44.2
393.382	105.64
393.591	122.02
393.801	-23.38
394.01	130.22
394.22	89.26
394.429	93.35
394.639	33.96
394.848	70.83
395.058	44.2
395.267	146.6
395.477	54.44
395.686	107.69
395.895	85.16
396.105	111.78
396.314	60.59
396.524	15.53
396.733	119.98
396.942	169.13
397.152	68.78
397.361	31.91
397.57	101.55
397.78	13.48
397.989	25.77
398.198	122.02
398.407	130.22
398.617	89.26
398.826	91.31
399.035	38.06
399.244	64.68
399.453	97.45
399.663	74.92
399.872	115.88
400.081	81.07
400.29	148.65
400.499	74.92
400.708	111.78
400.917	103.59
401.127	56.49
401.336	79.02
401.545	126.12
401.754	140.46
401.963	124.07
402.172	101.55
402.381	111.78
402.59	169.13
402.799	124.07
403.008	85.16
403.217	142.5
403.426	181.42
403.635	50.35
403.844	132.26
404.053	97.45
404.262	124.07
404.471	183.46
404.68	134.31
404.888	197.8
405.097	85.16
405.306	183.46
405.515	111.78
405.724	87.21
405.933	208.04
406.142	167.08
406.35	167.08
406.559	156.84
406.768	167.08
406.977	203.94
407.185	257.19
407.394	183.46
407.603	181.42
407.812	189.61
408.02	296.1
408.229	249
408.438	142.5
408.646	197.8
408.855	210.09
409.064	314.53
409.272	195.75
409.481	236.71
409.69	308.39
409.898	259.24
410.107	285.86
410.315	257.19
410.524	234.66
410.733	345.25
410.941	298.15
411.15	355.49
411.358	341.16
411.567	423.08
411.775	298.15
411.984	320.68
412.192	388.26
412.401	339.11
412.609	472.23
412.818	363.69
413.026	421.03
413.234	488.61
413.443	486.56
413.651	523.43
413.86	441.51
414.068	548
414.276	578.72
414.485	554.15
414.693	578.72
414.901	648.35
415.11	699.55
415.318	607.39
415.526	631.97
415.734	689.31
415.943	744.61
416.151	758.94
416.359	746.66
416.567	752.8
416.776	847.01
416.984	844.96
417.192	851.1
417.4	908.44
417.608	818.33
417.817	847.01
418.025	969.88
418.233	1043.61
418.441	994.46
418.649	1160.34
418.857	1098.91
419.065	1213.59
419.273	1238.17
419.481	1242.26
419.689	1340.57
419.897	1346.71
420.105	1350.81
420.313	1500.31
420.521	1438.87
420.729	1555.6
420.937	1541.27
421.145	1655.95
421.353	1707.15
421.561	1803.41
421.769	1713.3
421.977	1823.89
422.185	1860.75
422.393	2012.3
422.601	2059.4
422.809	2000.01
423.017	2004.11
423.224	2067.6
423.432	2217.1
423.64	2184.33
423.848	2376.84
424.056	2440.33
424.263	2536.58
424.471	2589.83
424.679	2614.4
424.887	2837.63
425.094	2872.45
425.302	2825.34
425.51	2925.69
425.718	3038.33
425.925	3046.52
426.133	3175.55
426.341	3404.92
426.548	3591.28
426.756	3466.36
426.964	3597.43
427.171	3648.63
427.379	3923.05
427.586	4021.36
427.794	4021.36
428.001	4320.36
428.209	4471.91
428.417	4394.09
428.624	4641.89
428.832	4543.59
429.039	4662.37
429.247	4676.71
429.454	4990.05
429.662	5399.64
429.869	5078.11
430.076	5549.14
430.284	5135.45
430.491	5524.57
430.699	5696.6
430.906	5880.91
431.114	5837.91
431.321	6192.2
431.528	6319.18
431.736	6759.49
431.943	6825.03
432.15	6624.33
432.358	6761.54
432.565	7117.89
432.772	7136.32
432.979	7429.18
433.187	7668.79
433.394	7695.41
433.601	8090.67
433.808	8256.56
434.016	7947.31
434.223	8565.8
434.43	8889.38
434.637	8821.8
434.844	9509.91
435.052	9575.45
435.259	9493.53
435.466	9616.41
435.673	9688.09
435.88	10005.52
436.087	10746.89
436.294	10695.69
436.501	10359.82
436.708	10667.02
436.915	10871.81
437.122	11408.38
437.329	11414.52
437.537	11838.45
437.743	11912.18
437.95	11817.97
438.157	12608.49
438.364	12995.56
438.571	12919.78
438.778	12831.72
438.985	14087.12
439.192	13591.52
439.399	14072.79
439.606	13722.59
439.813	14523.34
440.02	15219.65
440.227	15031.24
440.433	14990.28
440.64	15535.04
440.847	15350.72
441.054	15928.25
441.261	16663.47
441.467	16368.56
441.674	16925.61
441.881	17419.17
442.088	16997.29
442.294	17007.53
442.501	17763.23
442.708	18056.09
442.914	18566.03
443.121	19409.79
443.328	18754.44
443.534	20317.04
443.741	19747.71
443.948	19522.43
444.154	20929.39
444.361	20894.57
444.568	20876.14
444.774	20851.56
444.981	20941.68
445.187	21732.19
445.394	22463.32
445.6	22295.38
445.807	24589.11
446.013	23204.68
446.22	23810.88
446.426	24820.53
446.633	24871.73
446.839	25967.39
447.046	24789.81
447.252	25940.77
447.459	26069.79
447.665	25938.72
447.871	27261.71
448.078	28498.68
448.284	26897.17
448.491	27489.03
448.697	28805.88
448.903	29240.04
449.11	29233.9
449.316	29065.97
449.522	29129.45
449.728	30415.58
449.935	30214.88
450.141	30122.72
450.347	31066.83
450.553	29915.87
450.76	30563.03
450.966	31484.62
451.172	31294.16
451.378	31716.04
451.584	31165.14
451.791	31843.01
451.997	31867.59
452.203	32588.47
452.409	32721.59
452.615	32391.87
452.821	31304.4
453.027	31101.65
453.233	32332.48
453.44	31208.14
453.646	31396.56
453.852	31533.77
454.058	32496.31
454.264	31214.29
454.47	32004.8
454.676	31183.57
454.882	32068.29
455.088	29369.07
455.294	30026.46
455.5	29932.26
455.705	30470.87
455.911	29209.32
456.117	28730.1
456.323	28461.82
456.529	26655.51
456.735	27849.47
456.941	27306.76
457.147	26422.04
457.352	26061.6
457.558	25527.08
457.764	25889.57
457.97	25273.13
458.176	24638.26
458.381	24595.25
458.587	23499.59
458.793	23366.47
458.999	22219.61
459.204	23763.78
459.41	23206.73
459.616	21400.42
459.821	21338.98
460.027	21418.85
460.233	21218.15
460.438	19831.68
460.644	20343.67
460.85	19444.61
461.055	19039.11
461.261	19073.93
461.466	17564.57
461.672	16753.58
461.878	18224.02
462.083	16849.83
462.289	16634.8
462.494	16489.39
462.7	15918.01
462.905	15276.99
463.111	15852.47
463.316	16038.84
463.522	15657.92
463.727	15721.4
463.932	15436.74
464.138	15358.91
464.343	15309.76
464.549	14900.17
464.754	15483.84
464.959	15297.47
465.165	14957.51
465.37	14445.52
465.575	14136.27
465.781	14689.23
465.986	14721.99
466.191	14156.75
466.397	14001.11
466.602	13224.93
466.807	14025.68
467.012	13632.47
467.218	13667.29
467.423	13597.66
