Data from USB4F104151__62__12-36-30-715.txt Node

Date: Fri Mar 14 12:36:30 EDT 2025
User: louis
Spectrometer: USB4F10415
Trigger mode: 4
Integration Time (sec): 2.000000E-2
Scans to average: 1
Electric dark correction enabled: true
Nonlinearity correction enabled: false
Boxcar width: 0
XAxis mode: Wavelengths
Number of Pixels in Spectrum: 3648
>>>>>Begin Spectral Data<<<<<
178.204	-91.65
178.424	-91.65
178.644	-91.65
178.864	-65.02
179.084	-67.07
179.304	23.04
179.524	25.09
179.744	-46.59
179.964	-13.82
180.184	2.56
180.404	23.04
180.624	18.94
180.844	-22.02
181.064	-89.6
181.283	31.23
181.503	29.18
181.723	18.94
181.943	-34.3
182.163	98.81
182.383	16.9
182.602	8.7
182.822	59.9
183.042	47.62
183.262	29.18
183.482	104.96
183.701	66.05
183.921	104.96
184.141	-38.4
184.361	100.86
184.58	59.9
184.8	-54.78
185.02	6.66
185.239	43.52
185.459	57.86
185.679	115.2
185.898	53.76
186.118	45.57
186.338	72.19
186.557	57.86
186.777	37.38
186.997	35.33
187.216	-3.58
187.436	100.86
187.655	35.33
187.875	47.62
188.095	-24.06
188.314	53.76
188.534	96.77
188.753	68.09
188.973	0.51
189.192	86.53
189.412	16.9
189.631	84.48
189.851	-26.11
190.07	25.09
190.29	8.7
190.509	25.09
190.729	45.57
190.948	84.48
191.168	135.68
191.387	66.05
191.607	45.57
191.826	70.14
192.045	92.67
192.265	35.33
192.484	72.19
192.704	41.47
192.923	6.66
193.142	82.43
193.362	31.23
193.581	37.38
193.8	49.66
194.02	31.23
194.239	-3.58
194.458	78.33
194.678	49.66
194.897	8.7
195.116	-1.54
195.335	55.81
195.555	68.09
195.774	59.9
195.993	25.09
196.212	74.24
196.432	27.14
196.651	76.29
196.87	53.76
197.089	107.01
197.308	31.23
197.528	102.91
197.747	-13.82
197.966	16.9
198.185	66.05
198.404	16.9
198.623	84.48
198.842	82.43
199.062	57.86
199.281	37.38
199.5	76.29
199.719	107.01
199.938	98.81
200.157	55.81
200.376	61.95
200.595	51.71
200.814	86.53
201.033	29.18
201.252	131.58
201.471	86.53
201.69	51.71
201.909	61.95
202.128	25.09
202.347	59.9
202.566	-40.45
202.785	94.72
203.004	45.57
203.223	133.63
203.442	35.33
203.661	53.76
203.879	43.52
204.098	53.76
204.317	64
204.536	25.09
204.755	107.01
204.974	55.81
205.193	39.42
205.411	72.19
205.63	45.57
205.849	45.57
206.068	100.86
206.287	156.16
206.505	25.09
206.724	53.76
206.943	27.14
207.162	86.53
207.381	-28.16
207.599	57.86
207.818	10.75
208.037	68.09
208.255	-26.11
208.474	70.14
208.693	8.7
208.911	25.09
209.13	47.62
209.349	92.67
209.567	82.43
209.786	55.81
210.005	0.51
210.223	-5.63
210.442	37.38
210.661	-36.35
210.879	37.38
211.098	51.71
211.316	27.14
211.535	100.86
211.753	57.86
211.972	82.43
212.191	-44.54
212.409	66.05
212.628	76.29
212.846	82.43
213.065	45.57
213.283	70.14
213.502	-26.11
213.72	61.95
213.938	86.53
214.157	20.99
214.375	35.33
214.594	49.66
214.812	80.38
215.031	72.19
215.249	-1.54
215.467	59.9
215.686	14.85
215.904	70.14
216.122	29.18
216.341	107.01
216.559	0.51
216.778	45.57
216.996	-36.35
217.214	-3.58
217.432	88.57
217.651	0.51
217.869	66.05
218.087	14.85
218.306	53.76
218.524	-3.58
218.742	-19.97
218.96	90.62
219.179	37.38
219.397	109.05
219.615	82.43
219.833	143.87
220.051	72.19
220.27	45.57
220.488	39.42
220.706	94.72
220.924	59.9
221.142	29.18
221.36	43.52
221.578	74.24
221.796	-30.21
222.015	84.48
222.233	23.04
222.451	158.21
222.669	35.33
222.887	33.28
223.105	115.2
223.323	20.99
223.541	61.95
223.759	131.58
223.977	66.05
224.195	92.67
224.413	39.42
224.631	127.49
224.849	96.77
225.067	55.81
225.285	45.57
225.503	80.38
225.721	-5.63
225.939	57.86
226.157	80.38
226.375	100.86
226.592	10.75
226.81	59.9
227.028	12.8
227.246	39.42
227.464	51.71
227.682	84.48
227.9	61.95
228.117	45.57
228.335	0.51
228.553	57.86
228.771	25.09
228.989	45.57
229.206	47.62
229.424	29.18
229.642	45.57
229.86	0.51
230.077	35.33
230.295	-26.11
230.513	88.57
230.731	47.62
230.948	86.53
231.166	55.81
231.384	49.66
231.601	94.72
231.819	86.53
232.037	82.43
232.254	-3.58
232.472	41.47
232.689	119.29
232.907	27.14
233.125	39.42
233.342	-22.02
233.56	18.94
233.777	8.7
233.995	74.24
234.213	37.38
234.43	94.72
234.648	23.04
234.865	49.66
235.083	39.42
235.3	-67.07
235.518	98.81
235.735	113.15
235.953	92.67
236.17	-15.87
236.388	29.18
236.605	80.38
236.822	37.38
237.04	-22.02
237.257	39.42
237.475	51.71
237.692	72.19
237.909	102.91
238.127	33.28
238.344	6.66
238.562	-17.92
238.779	76.29
238.996	53.76
239.214	61.95
239.431	129.53
239.648	64
239.865	-1.54
240.083	10.75
240.3	39.42
240.517	23.04
240.735	64
240.952	31.23
241.169	76.29
241.386	84.48
241.603	53.76
241.821	59.9
242.038	45.57
242.255	76.29
242.472	-22.02
242.689	76.29
242.907	41.47
243.124	49.66
243.341	-24.06
243.558	35.33
243.775	82.43
243.992	64
244.209	100.86
244.426	107.01
244.643	92.67
244.86	68.09
245.078	25.09
245.295	37.38
245.512	59.9
245.729	78.33
245.946	111.1
246.163	35.33
246.38	76.29
246.597	68.09
246.814	35.33
247.031	2.56
247.248	70.14
247.464	18.94
247.681	53.76
247.898	47.62
248.115	117.25
248.332	0.51
248.549	82.43
248.766	57.86
248.983	66.05
249.2	115.2
249.417	100.86
249.633	55.81
249.85	74.24
250.067	66.05
250.284	74.24
250.501	20.99
250.717	66.05
250.934	61.95
251.151	12.8
251.368	10.75
251.585	66.05
251.801	33.28
252.018	-5.63
252.235	123.39
252.451	29.18
252.668	82.43
252.885	78.33
253.102	96.77
253.318	78.33
253.535	100.86
253.752	49.66
253.968	-15.87
254.185	51.71
254.401	29.18
254.618	107.01
254.835	57.86
255.051	29.18
255.268	55.81
255.484	76.29
255.701	47.62
255.917	72.19
256.134	74.24
256.351	78.33
256.567	86.53
256.784	31.23
257	14.85
257.217	18.94
257.433	45.57
257.65	43.52
257.866	43.52
258.082	-30.21
258.299	33.28
258.515	45.57
258.732	2.56
258.948	64
259.165	88.57
259.381	33.28
259.597	43.52
259.814	113.15
260.03	68.09
260.246	131.58
260.463	80.38
260.679	23.04
260.895	109.05
261.112	84.48
261.328	29.18
261.544	66.05
261.761	64
261.977	23.04
262.193	16.9
262.409	115.2
262.626	49.66
262.842	31.23
263.058	23.04
263.274	70.14
263.49	6.66
263.707	82.43
263.923	98.81
264.139	18.94
264.355	90.62
264.571	47.62
264.787	92.67
265.004	158.21
265.22	96.77
265.436	57.86
265.652	14.85
265.868	113.15
266.084	61.95
266.3	39.42
266.516	12.8
266.732	10.75
266.948	10.75
267.164	59.9
267.38	47.62
267.596	51.71
267.812	111.1
268.028	29.18
268.244	-44.54
268.46	23.04
268.676	16.9
268.892	27.14
269.108	-3.58
269.324	104.96
269.54	31.23
269.756	117.25
269.972	23.04
270.188	49.66
270.403	64
270.619	129.53
270.835	90.62
271.051	70.14
271.267	20.99
271.483	39.42
271.698	84.48
271.914	-13.82
272.13	76.29
272.346	43.52
272.562	41.47
272.777	121.34
272.993	72.19
273.209	72.19
273.425	70.14
273.64	55.81
273.856	90.62
274.072	-19.97
274.287	109.05
274.503	43.52
274.719	70.14
274.934	49.66
275.15	35.33
275.366	-7.68
275.581	-28.16
275.797	127.49
276.012	45.57
276.228	86.53
276.444	39.42
276.659	139.77
276.875	55.81
277.09	2.56
277.306	49.66
277.521	143.87
277.737	-24.06
277.952	70.14
278.168	0.51
278.383	90.62
278.599	57.86
278.814	98.81
279.03	66.05
279.245	51.71
279.461	92.67
279.676	4.61
279.892	72.19
280.107	55.81
280.322	59.9
280.538	59.9
280.753	18.94
280.969	94.72
281.184	55.81
281.399	131.58
281.615	92.67
281.83	41.47
282.045	35.33
282.26	6.66
282.476	35.33
282.691	125.44
282.906	41.47
283.122	61.95
283.337	57.86
283.552	33.28
283.767	76.29
283.983	96.77
284.198	57.86
284.413	82.43
284.628	41.47
284.843	72.19
285.058	55.81
285.274	-1.54
285.489	117.25
285.704	49.66
285.919	61.95
286.134	16.9
286.349	59.9
286.564	27.14
286.779	145.92
286.995	37.38
287.21	-11.78
287.425	-32.26
287.64	-11.78
287.855	66.05
288.07	39.42
288.285	37.38
288.5	90.62
288.715	41.47
288.93	82.43
289.145	57.86
289.36	55.81
289.575	86.53
289.79	100.86
290.004	74.24
290.219	45.57
290.434	27.14
290.649	20.99
290.864	66.05
291.079	45.57
291.294	84.48
291.509	45.57
291.724	57.86
291.938	45.57
292.153	129.53
292.368	66.05
292.583	55.81
292.798	74.24
293.012	92.67
293.227	49.66
293.442	117.25
293.657	82.43
293.871	76.29
294.086	74.24
294.301	150.01
294.516	94.72
294.73	61.95
294.945	59.9
295.16	51.71
295.374	96.77
295.589	111.1
295.804	121.34
296.018	10.75
296.233	100.86
296.447	94.72
296.662	53.76
296.877	53.76
297.091	86.53
297.306	-30.21
297.52	-11.78
297.735	61.95
297.949	66.05
298.164	51.71
298.378	49.66
298.593	64
298.807	-3.58
299.022	78.33
299.236	76.29
299.451	43.52
299.665	70.14
299.88	145.92
300.094	102.91
300.309	68.09
300.523	107.01
300.737	59.9
300.952	43.52
301.166	51.71
301.381	14.85
301.595	-32.26
301.809	61.95
302.024	4.61
302.238	47.62
302.452	135.68
302.667	33.28
302.881	100.86
303.095	113.15
303.309	55.81
303.524	-3.58
303.738	23.04
303.952	25.09
304.166	76.29
304.381	14.85
304.595	84.48
304.809	51.71
305.023	4.61
305.237	72.19
305.452	127.49
305.666	33.28
305.88	74.24
306.094	94.72
306.308	61.95
306.522	100.86
306.736	88.57
306.95	64
307.164	121.34
307.379	2.56
307.593	96.77
307.807	100.86
308.021	31.23
308.235	74.24
308.449	27.14
308.663	-42.5
308.877	109.05
309.091	72.19
309.305	55.81
309.519	-15.87
309.733	23.04
309.947	41.47
310.161	45.57
310.374	102.91
310.588	39.42
310.802	8.7
311.016	70.14
311.23	70.14
311.444	104.96
311.658	8.7
311.872	154.11
312.085	16.9
312.299	45.57
312.513	123.39
312.727	125.44
312.941	86.53
313.154	92.67
313.368	39.42
313.582	80.38
313.796	90.62
314.009	78.33
314.223	123.39
314.437	35.33
314.651	20.99
314.864	82.43
315.078	86.53
315.292	16.9
315.505	14.85
315.719	64
315.933	25.09
316.146	86.53
316.36	27.14
316.573	47.62
316.787	14.85
317.001	131.58
317.214	27.14
317.428	158.21
317.641	64
317.855	55.81
318.068	68.09
318.282	55.81
318.495	51.71
318.709	90.62
318.922	41.47
319.136	43.52
319.349	35.33
319.563	49.66
319.776	27.14
319.99	39.42
320.203	96.77
320.417	14.85
320.63	119.29
320.843	113.15
321.057	64
321.27	66.05
321.483	137.73
321.697	80.38
321.91	88.57
322.124	53.76
322.337	72.19
322.55	43.52
322.763	25.09
322.977	80.38
323.19	41.47
323.403	94.72
323.617	94.72
323.83	27.14
324.043	53.76
324.256	72.19
324.469	41.47
324.683	98.81
324.896	68.09
325.109	111.1
325.322	115.2
325.535	59.9
325.748	16.9
325.962	39.42
326.175	51.71
326.388	72.19
326.601	82.43
326.814	-15.87
327.027	76.29
327.24	100.86
327.453	-15.87
327.666	20.99
327.879	98.81
328.092	68.09
328.305	49.66
328.518	84.48
328.731	14.85
328.944	72.19
329.157	150.01
329.37	55.81
329.583	37.38
329.796	96.77
330.009	29.18
330.222	115.2
330.435	2.56
330.648	49.66
330.861	41.47
331.073	39.42
331.286	47.62
331.499	57.86
331.712	111.1
331.925	43.52
332.138	107.01
332.35	90.62
332.563	31.23
332.776	129.53
332.989	92.67
333.202	121.34
333.414	51.71
333.627	39.42
333.84	29.18
334.053	90.62
334.265	8.7
334.478	74.24
334.691	4.61
334.903	31.23
335.116	55.81
335.329	100.86
335.541	64
335.754	174.59
335.966	35.33
336.179	94.72
336.392	125.44
336.604	84.48
336.817	117.25
337.029	25.09
337.242	66.05
337.454	117.25
337.667	47.62
337.88	74.24
338.092	82.43
338.305	107.01
338.517	107.01
338.729	137.73
338.942	53.76
339.154	29.18
339.367	43.52
339.579	74.24
339.792	-19.97
340.004	98.81
340.217	104.96
340.429	90.62
340.641	29.18
340.854	131.58
341.066	20.99
341.278	23.04
341.491	137.73
341.703	76.29
341.915	-42.5
342.128	82.43
342.34	27.14
342.552	-3.58
342.764	94.72
342.977	82.43
343.189	57.86
343.401	129.53
343.613	72.19
343.826	100.86
344.038	-1.54
344.25	45.57
344.462	31.23
344.674	51.71
344.886	43.52
345.099	45.57
345.311	72.19
345.523	137.73
345.735	49.66
345.947	109.05
346.159	64
346.371	49.66
346.583	86.53
346.795	113.15
347.007	49.66
347.219	84.48
347.431	45.57
347.643	47.62
347.855	64
348.067	53.76
348.279	49.66
348.491	121.34
348.703	119.29
348.915	49.66
349.127	127.49
349.339	74.24
349.551	23.04
349.763	80.38
349.975	94.72
350.187	107.01
350.399	100.86
350.61	123.39
350.822	-40.45
351.034	88.57
351.246	59.9
351.458	111.1
351.669	90.62
351.881	49.66
352.093	96.77
352.305	133.63
352.517	45.57
352.728	100.86
352.94	92.67
353.152	78.33
353.363	127.49
353.575	190.97
353.787	6.66
353.999	86.53
354.21	92.67
354.422	57.86
354.633	119.29
354.845	35.33
355.057	16.9
355.268	45.57
355.48	53.76
355.692	18.94
355.903	53.76
356.115	90.62
356.326	12.8
356.538	123.39
356.749	96.77
356.961	98.81
357.172	37.38
357.384	8.7
357.595	145.92
357.807	111.1
358.018	49.66
358.23	104.96
358.441	115.2
358.653	80.38
358.864	29.18
359.075	80.38
359.287	41.47
359.498	117.25
359.709	107.01
359.921	109.05
360.132	-11.78
360.344	92.67
360.555	90.62
360.766	92.67
360.977	55.81
361.189	113.15
361.4	88.57
361.611	82.43
361.823	104.96
362.034	135.68
362.245	8.7
362.456	88.57
362.667	55.81
362.879	68.09
363.09	25.09
363.301	102.91
363.512	82.43
363.723	88.57
363.935	113.15
364.146	59.9
364.357	102.91
364.568	121.34
364.779	104.96
364.99	123.39
365.201	18.94
365.412	121.34
365.623	49.66
365.834	117.25
366.045	143.87
366.256	78.33
366.467	16.9
366.678	68.09
366.889	74.24
367.1	66.05
367.311	88.57
367.522	94.72
367.733	100.86
367.944	127.49
368.155	74.24
368.366	113.15
368.577	86.53
368.788	158.21
368.999	86.53
369.209	76.29
369.42	25.09
369.631	104.96
369.842	111.1
370.053	29.18
370.264	90.62
370.474	129.53
370.685	68.09
370.896	59.9
371.107	45.57
371.317	92.67
371.528	94.72
371.739	41.47
371.95	104.96
372.16	23.04
372.371	90.62
372.582	92.67
372.792	86.53
373.003	70.14
373.214	74.24
373.424	109.05
373.635	90.62
373.846	78.33
374.056	55.81
374.267	109.05
374.477	129.53
374.688	47.62
374.898	-38.4
375.109	119.29
375.319	96.77
375.53	55.81
375.74	139.77
375.951	94.72
376.161	49.66
376.372	111.1
376.582	109.05
376.793	64
377.003	4.61
377.214	43.52
377.424	104.96
377.635	66.05
377.845	92.67
378.055	78.33
378.266	53.76
378.476	111.1
378.686	-1.54
378.897	12.8
379.107	129.53
379.317	115.2
379.528	117.25
379.738	64
379.948	121.34
380.158	111.1
380.369	74.24
380.579	102.91
380.789	129.53
380.999	131.58
381.21	64
381.42	178.69
381.63	102.91
381.84	57.86
382.05	107.01
382.261	55.81
382.471	113.15
382.681	92.67
382.891	158.21
383.101	100.86
383.311	61.95
383.521	133.63
383.731	61.95
383.941	90.62
384.151	111.1
384.361	68.09
384.571	6.66
384.781	115.2
384.991	76.29
385.201	168.45
385.411	66.05
385.621	96.77
385.831	33.28
386.041	102.91
386.251	59.9
386.461	86.53
386.671	76.29
386.881	88.57
387.091	68.09
387.301	111.1
387.511	39.42
387.72	158.21
387.93	145.92
388.14	10.75
388.35	39.42
388.56	109.05
388.769	113.15
388.979	94.72
389.189	125.44
389.399	70.14
389.609	-5.63
389.818	170.49
390.028	43.52
390.238	78.33
390.447	113.15
390.657	100.86
390.867	102.91
391.076	123.39
391.286	121.34
391.496	176.64
391.705	125.44
391.915	49.66
392.125	115.2
392.334	94.72
392.544	150.01
392.753	158.21
392.963	168.45
393.172	160.25
393.382	96.77
393.591	186.88
393.801	127.49
394.01	74.24
394.22	129.53
394.429	127.49
394.639	86.53
394.848	172.54
395.058	150.01
395.267	150.01
395.477	141.82
395.686	127.49
395.895	180.73
396.105	152.06
396.314	162.3
396.524	139.77
396.733	121.34
396.942	100.86
397.152	119.29
397.361	238.08
397.57	117.25
397.78	125.44
397.989	203.26
398.198	186.88
398.407	164.35
398.617	135.68
398.826	190.97
399.035	107.01
399.244	127.49
399.453	201.21
399.663	225.79
399.872	117.25
400.081	166.4
400.29	123.39
400.499	176.64
400.708	166.4
400.917	182.78
401.127	174.59
401.336	133.63
401.545	156.16
401.754	82.43
401.963	295.42
402.172	141.82
402.381	127.49
402.59	133.63
402.799	178.69
403.008	252.41
403.217	201.21
403.426	176.64
403.635	254.46
403.844	188.93
404.053	197.12
404.262	119.29
404.471	215.55
404.68	231.93
404.888	211.45
405.097	244.22
405.306	238.08
405.515	231.93
405.724	246.27
405.933	254.46
406.142	223.74
406.35	231.93
406.559	287.23
406.768	281.08
406.977	317.95
407.185	313.85
407.394	283.13
407.603	320
407.812	358.91
408.02	389.63
408.229	367.1
408.438	377.34
408.646	276.99
408.855	375.29
409.064	410.11
409.272	426.49
409.481	412.15
409.69	354.81
409.898	434.68
410.107	408.06
410.315	446.97
410.524	508.41
410.733	520.7
410.941	543.22
411.15	502.26
411.358	545.27
411.567	598.52
411.775	623.09
411.984	612.85
412.192	651.77
412.401	678.39
412.609	694.77
412.818	666.1
413.026	688.63
413.234	764.4
413.443	709.11
413.651	756.21
413.86	838.13
414.068	907.76
414.276	846.32
414.485	877.04
414.693	975.35
414.901	987.63
415.11	1024.5
415.318	993.78
415.526	1073.65
415.734	1165.81
415.943	1143.28
416.151	1141.23
416.359	1219.05
416.567	1159.66
416.776	1333.74
416.984	1395.18
417.192	1286.64
417.4	1272.3
417.608	1366.51
417.817	1458.67
418.025	1548.78
418.233	1606.12
418.441	1651.17
418.649	1688.04
418.857	1706.47
419.065	1804.77
419.273	1788.39
419.481	1974.75
419.689	2036.19
419.897	2150.88
420.105	2177.5
420.313	2329.05
420.521	2357.72
420.729	2322.91
420.937	2458.07
421.145	2421.21
421.353	2660.82
421.561	2597.34
421.769	2795.99
421.977	2968.02
422.185	2802.13
422.393	3131.86
422.601	3250.64
422.809	3254.73
423.017	3445.2
423.224	3410.38
423.432	3598.79
423.64	3623.37
423.848	3869.12
424.056	3850.69
424.263	4045.25
424.471	4016.58
424.679	4108.74
424.887	4547
425.094	4536.76
425.302	4600.25
425.51	4690.36
425.718	4917.68
425.925	4921.78
426.133	5028.28
426.341	5335.47
426.548	5771.69
426.756	5638.57
426.964	5675.43
427.171	5933.48
427.379	6042.02
427.586	6320.54
427.794	6476.19
428.001	6715.8
428.209	7096.72
428.417	7082.39
428.624	7242.13
428.832	7446.93
429.039	7227.79
429.247	7303.57
429.454	7995.78
429.662	8634.75
429.869	8057.22
430.076	8778.11
430.284	8417.66
430.491	8712.57
430.699	9259.38
430.906	9142.64
431.114	9181.56
431.321	9695.6
431.528	9902.44
431.736	10357.09
431.943	10957.14
432.15	10580.32
432.358	10858.84
432.565	11485.52
432.772	11260.24
432.979	12063.05
433.187	12179.78
433.394	12310.85
433.601	13232.44
433.808	13220.15
434.016	12886.33
434.223	13652.27
434.43	14498.08
434.637	14004.52
434.844	15161.62
435.052	15413.52
435.259	15225.11
435.466	15538.45
435.673	15325.46
435.88	16050.44
436.087	17017.08
436.294	17111.29
436.501	16603.39
436.708	17189.11
436.915	17760.5
437.122	18376.94
437.329	18348.26
437.537	18837.73
437.743	19386.58
437.95	19073.24
438.157	20256.97
438.364	20820.16
438.571	20459.72
438.778	20922.56
438.985	22601.9
439.192	21897.39
439.399	22644.9
439.606	21948.59
439.813	23277.72
440.02	24938.63
440.227	24383.63
440.433	24080.53
440.64	24963.2
440.847	24643.72
441.054	25542.78
441.261	26894.44
441.467	26804.33
441.674	27248.74
441.881	28016.72
442.088	27926.61
442.294	28149.84
442.501	28379.21
442.708	29153.35
442.914	30324.79
443.121	31758.36
443.328	30513.2
443.534	32632.85
443.741	31748.12
443.948	31494.18
444.154	33828.86
444.361	33574.91
444.568	33769.47
444.774	33806.33
444.981	34195.45
445.187	35307.49
445.394	36622.29
445.6	36272.09
445.807	39647.14
446.013	38019
446.22	38791.09
446.426	40478.61
446.633	40796.05
446.839	41914.24
447.046	40251.29
447.252	42323.83
447.459	42469.24
447.665	42403.7
447.871	44224.35
448.078	45868.87
448.284	43949.92
448.491	44814.16
448.697	46628.66
448.903	47800.1
449.11	47228.72
449.316	46446.4
449.522	47542.06
449.728	48518.94
449.935	49422.09
450.141	49317.65
450.347	50157.31
450.553	48580.38
450.76	49501.96
450.966	50663.16
451.172	50050.82
451.378	51740.39
451.584	50695.93
451.791	52025.06
451.997	51447.53
452.203	52500.19
452.409	52737.76
452.615	52129.51
452.821	50315.01
453.027	49913.61
453.233	52469.47
453.44	50951.93
453.646	51261.17
453.852	51238.64
454.058	52074.21
454.264	50851.58
454.47	51687.15
454.676	50235.14
454.882	52190.95
455.088	47927.08
455.294	48367.39
455.5	48770.84
455.705	49592.08
455.911	47695.66
456.117	46780.21
456.323	46337.85
456.529	43992.93
456.735	46071.62
456.941	44969.81
457.147	43794.28
457.352	42633.08
457.558	42092.41
457.764	41977.73
457.97	41269.13
458.176	40339.35
458.381	40636.31
458.587	38627.25
458.793	39114.67
458.999	36890.57
459.204	38973.36
459.41	38012.86
459.616	35659.74
459.821	35633.12
460.027	35622.88
460.233	34865.13
460.438	33208.33
460.644	33775.61
460.85	31938.58
461.055	31252.52
461.261	31432.74
461.466	29114.44
461.672	28166.23
461.878	30269.49
462.083	28039.25
462.289	27705.43
462.494	27484.25
462.7	26241.14
462.905	25364.6
463.111	26353.77
463.316	26826.85
463.522	25757.81
463.727	26022
463.932	25987.19
464.138	25319.55
464.343	25706.62
464.549	24840.32
464.754	25950.32
464.959	25667.7
465.165	25069.7
465.37	24295.57
465.575	23638.17
465.781	24758.41
465.986	24782.98
466.191	23771.29
466.397	23406.75
