Data from USB4F104151__10__12-35-08-124.txt Node

Date: Fri Mar 14 12:35:08 EDT 2025
User: louis
Spectrometer: USB4F10415
Trigger mode: 4
Integration Time (sec): 2.000000E-2
Scans to average: 1
Electric dark correction enabled: true
Nonlinearity correction enabled: false
Boxcar width: 0
XAxis mode: Wavelengths
Number of Pixels in Spectrum: 3648
>>>>>Begin Spectral Data<<<<<
178.204	-59.22
178.424	-59.22
178.644	-59.22
178.864	-55.12
179.084	-87.89
179.304	-67.41
179.524	16.55
179.744	10.41
179.964	2.22
180.184	22.7
180.404	-1.88
180.624	30.89
180.844	-30.55
181.064	-24.4
181.283	14.51
181.503	18.6
181.723	8.36
181.943	-10.07
182.163	49.32
182.383	22.7
182.602	51.37
182.822	88.23
183.042	20.65
183.262	49.32
183.482	39.08
183.701	6.31
183.921	34.99
184.141	-1.88
184.361	30.89
184.58	26.79
184.8	43.18
185.02	166.06
185.239	127.14
185.459	18.6
185.679	53.42
185.898	22.7
186.118	112.81
186.338	10.41
186.557	141.48
186.777	69.8
186.997	45.23
187.216	47.27
187.436	22.7
187.655	-3.93
187.875	63.66
188.095	43.18
188.314	106.67
188.534	61.61
188.753	61.61
188.973	127.14
189.192	67.75
189.412	45.23
189.631	2.22
189.851	22.7
190.07	53.42
190.29	28.84
190.509	8.36
190.729	84.14
190.948	94.38
191.168	65.71
191.387	94.38
191.607	67.75
191.826	61.61
192.045	51.37
192.265	92.33
192.484	67.75
192.704	94.38
192.923	41.13
193.142	69.8
193.362	94.38
193.581	98.47
193.8	2.22
194.02	84.14
194.239	51.37
194.458	12.46
194.678	88.23
194.897	-16.21
195.116	14.51
195.335	45.23
195.555	116.9
195.774	82.09
195.993	53.42
196.212	8.36
196.432	86.19
196.651	32.94
196.87	-1.88
197.089	63.66
197.308	106.67
197.528	47.27
197.747	12.46
197.966	-30.55
198.185	65.71
198.404	45.23
198.623	112.81
198.842	104.62
199.062	110.76
199.281	75.95
199.5	96.43
199.719	39.08
199.938	112.81
200.157	16.55
200.376	55.47
200.595	53.42
200.814	80.04
201.033	67.75
201.252	88.23
201.471	67.75
201.69	39.08
201.909	32.94
202.128	45.23
202.347	22.7
202.566	84.14
202.785	47.27
203.004	49.32
203.223	92.33
203.442	43.18
203.661	71.85
203.879	47.27
204.098	61.61
204.317	53.42
204.536	45.23
204.755	28.84
204.974	43.18
205.193	121
205.411	104.62
205.63	51.37
205.849	39.08
206.068	32.94
206.287	110.76
206.505	41.13
206.724	10.41
206.943	104.62
207.162	53.42
207.381	41.13
207.599	12.46
207.818	34.99
208.037	0.17
208.255	12.46
208.474	125.1
208.693	80.04
208.911	24.75
209.13	39.08
209.349	24.75
209.567	94.38
209.786	34.99
210.005	34.99
210.223	43.18
210.442	73.9
210.661	28.84
210.879	39.08
211.098	51.37
211.316	67.75
211.535	57.51
211.753	80.04
211.972	127.14
212.191	51.37
212.409	2.22
212.628	26.79
212.846	129.19
213.065	75.95
213.283	45.23
213.502	84.14
213.72	-40.79
213.938	53.42
214.157	92.33
214.375	26.79
214.594	-30.55
214.812	32.94
215.031	92.33
215.249	49.32
215.467	80.04
215.686	30.89
215.904	80.04
216.122	47.27
216.341	129.19
216.559	69.8
216.778	82.09
216.996	-1.88
217.214	18.6
217.432	55.47
217.651	20.65
217.869	47.27
218.087	104.62
218.306	47.27
218.524	127.14
218.742	59.56
218.96	61.61
219.179	73.9
219.397	43.18
219.615	112.81
219.833	90.28
220.051	90.28
220.27	71.85
220.488	51.37
220.706	53.42
220.924	37.03
221.142	45.23
221.36	84.14
221.578	32.94
221.796	30.89
222.015	139.43
222.233	28.84
222.451	55.47
222.669	59.56
222.887	92.33
223.105	73.9
223.323	-20.31
223.541	12.46
223.759	121
223.977	63.66
224.195	34.99
224.413	55.47
224.631	121
224.849	16.55
225.067	129.19
225.285	26.79
225.503	82.09
225.721	45.23
225.939	-1.88
226.157	141.48
226.375	194.73
226.592	4.27
226.81	43.18
227.028	57.51
227.246	143.53
227.464	94.38
227.682	80.04
227.9	80.04
228.117	90.28
228.335	55.47
228.553	100.52
228.771	34.99
228.989	75.95
229.206	114.86
229.424	82.09
229.642	-28.5
229.86	20.65
230.077	61.61
230.295	55.47
230.513	82.09
230.731	131.24
230.948	20.65
231.166	125.1
231.384	26.79
231.601	92.33
231.819	145.58
232.037	14.51
232.254	2.22
232.472	82.09
232.689	28.84
232.907	77.99
233.125	-16.21
233.342	43.18
233.56	84.14
233.777	67.75
233.995	10.41
234.213	116.9
234.43	24.75
234.648	16.55
234.865	22.7
235.083	84.14
235.3	6.31
235.518	4.27
235.735	51.37
235.953	84.14
236.17	75.95
236.388	39.08
236.605	8.36
236.822	114.86
237.04	30.89
237.257	61.61
237.475	59.56
237.692	47.27
237.909	67.75
238.127	69.8
238.344	14.51
238.562	67.75
238.779	-3.93
238.996	-24.4
239.214	96.43
239.431	67.75
239.648	37.03
239.865	92.33
240.083	20.65
240.3	0.17
240.517	127.14
240.735	12.46
240.952	104.62
241.169	69.8
241.386	51.37
241.603	-83.8
241.821	22.7
242.038	151.72
242.255	100.52
242.472	63.66
242.689	90.28
242.907	92.33
243.124	32.94
243.341	47.27
243.558	53.42
243.775	104.62
243.992	88.23
244.209	59.56
244.426	98.47
244.643	100.52
244.86	41.13
245.078	67.75
245.295	10.41
245.512	92.33
245.729	-14.17
245.946	77.99
246.163	18.6
246.38	37.03
246.597	4.27
246.814	82.09
247.031	-36.69
247.248	57.51
247.464	77.99
247.681	69.8
247.898	80.04
248.115	67.75
248.332	100.52
248.549	102.57
248.766	145.58
248.983	71.85
249.2	51.37
249.417	63.66
249.633	-18.26
249.85	55.47
250.067	80.04
250.284	47.27
250.501	106.67
250.717	49.32
250.934	-16.21
251.151	73.9
251.368	61.61
251.585	65.71
251.801	100.52
252.018	16.55
252.235	77.99
252.451	151.72
252.668	59.56
252.885	82.09
253.102	45.23
253.318	-18.26
253.535	141.48
253.752	86.19
253.968	-26.45
254.185	118.95
254.401	153.77
254.618	77.99
254.835	26.79
255.051	34.99
255.268	61.61
255.484	108.71
255.701	63.66
255.917	30.89
256.134	24.75
256.351	114.86
256.567	26.79
256.784	73.9
257	108.71
257.217	69.8
257.433	41.13
257.65	98.47
257.866	-3.93
258.082	90.28
258.299	61.61
258.515	92.33
258.732	80.04
258.948	63.66
259.165	75.95
259.381	71.85
259.597	80.04
259.814	61.61
260.03	59.56
260.246	121
260.463	18.6
260.679	75.95
260.895	98.47
261.112	100.52
261.328	49.32
261.544	47.27
261.761	114.86
261.977	71.85
262.193	77.99
262.409	106.67
262.626	67.75
262.842	96.43
263.058	51.37
263.274	151.72
263.49	96.43
263.707	47.27
263.923	-5.97
264.139	-3.93
264.355	59.56
264.571	0.17
264.787	53.42
265.004	37.03
265.22	34.99
265.436	73.9
265.652	2.22
265.868	77.99
266.084	80.04
266.3	39.08
266.516	114.86
266.732	61.61
266.948	104.62
267.164	61.61
267.38	73.9
267.596	37.03
267.812	112.81
268.028	69.8
268.244	34.99
268.46	63.66
268.676	43.18
268.892	73.9
269.108	51.37
269.324	8.36
269.54	86.19
269.756	77.99
269.972	6.31
270.188	47.27
270.403	8.36
270.619	53.42
270.835	53.42
271.051	110.76
271.267	71.85
271.483	73.9
271.698	104.62
271.914	69.8
272.13	71.85
272.346	51.37
272.562	39.08
272.777	53.42
272.993	32.94
273.209	20.65
273.425	30.89
273.64	0.17
273.856	61.61
274.072	114.86
274.287	47.27
274.503	77.99
274.719	47.27
274.934	51.37
275.15	61.61
275.366	63.66
275.581	53.42
275.797	100.52
276.012	20.65
276.228	75.95
276.444	98.47
276.659	145.58
276.875	-53.08
277.09	-38.74
277.306	-36.69
277.521	6.31
277.737	49.32
277.952	63.66
278.168	53.42
278.383	84.14
278.599	45.23
278.814	98.47
279.03	84.14
279.245	30.89
279.461	53.42
279.676	51.37
279.892	55.47
280.107	82.09
280.322	133.29
280.538	45.23
280.753	84.14
280.969	30.89
281.184	92.33
281.399	90.28
281.615	82.09
281.83	121
282.045	80.04
282.26	16.55
282.476	80.04
282.691	149.67
282.906	69.8
283.122	118.95
283.337	57.51
283.552	45.23
283.767	49.32
283.983	47.27
284.198	71.85
284.413	94.38
284.628	28.84
284.843	90.28
285.058	30.89
285.274	137.38
285.489	71.85
285.704	37.03
285.919	32.94
286.134	129.19
286.349	86.19
286.564	80.04
286.779	80.04
286.995	57.51
287.21	10.41
287.425	32.94
287.64	47.27
287.855	57.51
288.07	-16.21
288.285	-3.93
288.5	49.32
288.715	102.57
288.93	51.37
289.145	102.57
289.36	-12.12
289.575	77.99
289.79	174.25
290.004	82.09
290.219	65.71
290.434	98.47
290.649	26.79
290.864	86.19
291.079	73.9
291.294	65.71
291.509	100.52
291.724	102.57
291.938	41.13
292.153	127.14
292.368	61.61
292.583	-10.07
292.798	22.7
293.012	53.42
293.227	75.95
293.442	73.9
293.657	65.71
293.871	118.95
294.086	57.51
294.301	143.53
294.516	-24.4
294.73	-36.69
294.945	32.94
295.16	67.75
295.374	121
295.589	106.67
295.804	84.14
296.018	30.89
296.233	8.36
296.447	94.38
296.662	102.57
296.877	98.47
297.091	49.32
297.306	139.43
297.52	-5.97
297.735	77.99
297.949	98.47
298.164	49.32
298.378	30.89
298.593	98.47
298.807	55.47
299.022	77.99
299.236	34.99
299.451	18.6
299.665	41.13
299.88	26.79
300.094	114.86
300.309	57.51
300.523	55.47
300.737	22.7
300.952	67.75
301.166	133.29
301.381	39.08
301.595	75.95
301.809	67.75
302.024	106.67
302.238	75.95
302.452	104.62
302.667	82.09
302.881	63.66
303.095	14.51
303.309	98.47
303.524	39.08
303.738	106.67
303.952	24.75
304.166	53.42
304.381	30.89
304.595	147.62
304.809	10.41
305.023	94.38
305.237	71.85
305.452	80.04
305.666	59.56
305.88	82.09
306.094	-8.02
306.308	143.53
306.522	108.71
306.736	24.75
306.95	110.76
307.164	98.47
307.379	80.04
307.593	137.38
307.807	39.08
308.021	170.15
308.235	88.23
308.449	14.51
308.663	65.71
308.877	98.47
309.091	73.9
309.305	92.33
309.519	96.43
309.733	65.71
309.947	53.42
310.161	131.24
310.374	114.86
310.588	131.24
310.802	75.95
311.016	100.52
311.23	6.31
311.444	59.56
311.658	39.08
311.872	147.62
312.085	49.32
312.299	34.99
312.513	174.25
312.727	106.67
312.941	55.47
313.154	123.05
313.368	110.76
313.582	55.47
313.796	92.33
314.009	98.47
314.223	112.81
314.437	106.67
314.651	159.91
314.864	51.37
315.078	112.81
315.292	59.56
315.505	49.32
315.719	194.73
315.933	53.42
316.146	16.55
316.36	110.76
316.573	112.81
316.787	63.66
317.001	106.67
317.214	8.36
317.428	100.52
317.641	39.08
317.855	133.29
318.068	28.84
318.282	102.57
318.495	34.99
318.709	98.47
318.922	14.51
319.136	26.79
319.349	24.75
319.563	20.65
319.776	92.33
319.99	30.89
320.203	84.14
320.417	84.14
320.63	0.17
320.843	96.43
321.057	77.99
321.27	61.61
321.483	71.85
321.697	84.14
321.91	75.95
322.124	30.89
322.337	94.38
322.55	28.84
322.763	110.76
322.977	143.53
323.19	53.42
323.403	61.61
323.617	12.46
323.83	137.38
324.043	100.52
324.256	86.19
324.469	16.55
324.683	92.33
324.896	92.33
325.109	77.99
325.322	-16.21
325.535	112.81
325.748	59.56
325.962	82.09
326.175	57.51
326.388	88.23
326.601	53.42
326.814	51.37
327.027	112.81
327.24	98.47
327.453	8.36
327.666	100.52
327.879	77.99
328.092	92.33
328.305	45.23
328.518	65.71
328.731	45.23
328.944	53.42
329.157	92.33
329.37	6.31
329.583	110.76
329.796	90.28
330.009	45.23
330.222	90.28
330.435	90.28
330.648	168.1
330.861	16.55
331.073	106.67
331.286	114.86
331.499	-5.97
331.712	84.14
331.925	102.57
332.138	114.86
332.35	104.62
332.563	114.86
332.776	2.22
332.989	104.62
333.202	6.31
333.414	10.41
333.627	73.9
333.84	32.94
334.053	123.05
334.265	14.51
334.478	77.99
334.691	61.61
334.903	59.56
335.116	28.84
335.329	96.43
335.541	80.04
335.754	34.99
335.966	59.56
336.179	61.61
336.392	57.51
336.604	108.71
336.817	129.19
337.029	71.85
337.242	8.36
337.454	53.42
337.667	49.32
337.88	86.19
338.092	121
338.305	94.38
338.517	47.27
338.729	112.81
338.942	135.34
339.154	92.33
339.367	16.55
339.579	100.52
339.792	86.19
340.004	65.71
340.217	24.75
340.429	47.27
340.641	69.8
340.854	49.32
341.066	59.56
341.278	110.76
341.491	166.06
341.703	102.57
341.915	41.13
342.128	82.09
342.34	135.34
342.552	63.66
342.764	96.43
342.977	145.58
343.189	98.47
343.401	159.91
343.613	88.23
343.826	59.56
344.038	51.37
344.25	139.43
344.462	57.51
344.674	141.48
344.886	77.99
345.099	75.95
345.311	18.6
345.523	123.05
345.735	39.08
345.947	47.27
346.159	67.75
346.371	45.23
346.583	86.19
346.795	94.38
347.007	51.37
347.219	63.66
347.431	129.19
347.643	34.99
347.855	104.62
348.067	86.19
348.279	22.7
348.491	164.01
348.703	34.99
348.915	137.38
349.127	116.9
349.339	61.61
349.551	69.8
349.763	71.85
349.975	61.61
350.187	104.62
350.399	88.23
350.61	26.79
350.822	172.2
351.034	30.89
351.246	71.85
351.458	121
351.669	59.56
351.881	82.09
352.093	71.85
352.305	151.72
352.517	53.42
352.728	80.04
352.94	10.41
353.152	96.43
353.363	57.51
353.575	43.18
353.787	18.6
353.999	49.32
354.21	110.76
354.422	-1.88
354.633	63.66
354.845	112.81
355.057	69.8
355.268	102.57
355.48	37.03
355.692	84.14
355.903	6.31
356.115	123.05
356.326	41.13
356.538	59.56
356.749	88.23
356.961	129.19
357.172	137.38
357.384	22.7
357.595	106.67
357.807	67.75
358.018	77.99
358.23	67.75
358.441	69.8
358.653	63.66
358.864	12.46
359.075	-16.21
359.287	22.7
359.498	104.62
359.709	49.32
359.921	-5.97
360.132	71.85
360.344	153.77
360.555	28.84
360.766	55.47
360.977	63.66
361.189	96.43
361.4	55.47
361.611	92.33
361.823	43.18
362.034	55.47
362.245	94.38
362.456	88.23
362.667	123.05
362.879	86.19
363.09	112.81
363.301	55.47
363.512	57.51
363.723	80.04
363.935	141.48
364.146	131.24
364.357	90.28
364.568	131.24
364.779	77.99
364.99	65.71
365.201	75.95
365.412	121
365.623	41.13
365.834	116.9
366.045	121
366.256	90.28
366.467	100.52
366.678	129.19
366.889	106.67
367.1	37.03
367.311	65.71
367.522	32.94
367.733	77.99
367.944	84.14
368.155	112.81
368.366	135.34
368.577	43.18
368.788	84.14
368.999	84.14
369.209	157.86
369.42	96.43
369.631	135.34
369.842	82.09
370.053	57.51
370.264	22.7
370.474	92.33
370.685	80.04
370.896	49.32
371.107	65.71
371.317	57.51
371.528	80.04
371.739	137.38
371.95	10.41
372.16	43.18
372.371	67.75
372.582	26.79
372.792	147.62
373.003	45.23
373.214	61.61
373.424	149.67
373.635	65.71
373.846	75.95
374.056	104.62
374.267	104.62
374.477	96.43
374.688	18.6
374.898	98.47
375.109	108.71
375.319	110.76
375.53	90.28
375.74	92.33
375.951	55.47
376.161	147.62
376.372	100.52
376.582	32.94
376.793	123.05
377.003	116.9
377.214	47.27
377.424	137.38
377.635	4.27
377.845	61.61
378.055	94.38
378.266	30.89
378.476	106.67
378.686	170.15
378.897	110.76
379.107	53.42
379.317	114.86
379.528	100.52
379.738	90.28
379.948	55.47
380.158	112.81
380.369	88.23
380.579	47.27
380.789	73.9
380.999	149.67
381.21	51.37
381.42	159.91
381.63	100.52
381.84	63.66
382.05	116.9
382.261	143.53
382.471	37.03
382.681	63.66
382.891	12.46
383.101	102.57
383.311	90.28
383.521	90.28
383.731	98.47
383.941	118.95
384.151	112.81
384.361	125.1
384.571	55.47
384.781	69.8
384.991	98.47
385.201	123.05
385.411	147.62
385.621	92.33
385.831	151.72
386.041	82.09
386.251	77.99
386.461	98.47
386.671	49.32
386.881	145.58
387.091	129.19
387.301	100.52
387.511	53.42
387.72	106.67
387.93	182.44
388.14	55.47
388.35	102.57
388.56	159.91
388.769	112.81
388.979	86.19
389.189	32.94
389.399	55.47
389.609	123.05
389.818	159.91
390.028	51.37
390.238	98.47
390.447	63.66
390.657	164.01
390.867	127.14
391.076	82.09
391.286	100.52
391.496	131.24
391.705	84.14
391.915	155.82
392.125	121
392.334	41.13
392.544	184.49
392.753	45.23
392.963	135.34
393.172	133.29
393.382	112.81
393.591	127.14
393.801	55.47
394.01	143.53
394.22	145.58
394.429	141.48
394.639	116.9
394.848	149.67
395.058	98.47
395.267	114.86
395.477	166.06
395.686	133.29
395.895	164.01
396.105	164.01
396.314	145.58
396.524	133.29
396.733	172.2
396.942	127.14
397.152	221.35
397.361	188.58
397.57	116.9
397.78	172.2
397.989	98.47
398.198	188.58
398.407	155.82
398.617	125.1
398.826	112.81
399.035	159.91
399.244	200.87
399.453	151.72
399.663	135.34
399.872	282.79
400.081	198.82
400.29	190.63
400.499	102.57
400.708	151.72
400.917	112.81
401.127	104.62
401.336	159.91
401.545	176.3
401.754	166.06
401.963	188.58
402.172	151.72
402.381	139.43
402.59	227.5
402.799	209.06
403.008	194.73
403.217	196.78
403.426	147.62
403.635	166.06
403.844	188.58
404.053	194.73
404.262	198.82
404.471	202.92
404.68	237.74
404.888	274.6
405.097	233.64
405.306	209.06
405.515	176.3
405.724	276.65
405.933	237.74
406.142	315.56
406.35	194.73
406.559	211.11
406.768	229.54
406.977	301.22
407.185	284.84
407.394	266.41
407.603	313.51
407.812	340.13
408.02	323.75
408.229	290.98
408.438	360.61
408.646	313.51
408.855	389.28
409.064	432.29
409.272	393.38
409.481	379.04
409.69	374.95
409.898	407.72
410.107	465.06
410.315	436.39
410.524	426.15
410.733	559.27
410.941	493.73
411.15	546.98
411.358	534.69
411.567	512.16
411.775	508.07
411.984	540.83
412.192	557.22
412.401	608.42
412.609	583.84
412.818	694.43
413.026	622.75
413.234	708.77
413.443	698.53
413.651	608.42
413.86	766.11
414.068	790.69
414.276	850.08
414.485	786.59
414.693	862.37
414.901	882.85
415.11	903.32
415.318	884.89
415.526	872.61
415.734	1110.17
415.943	1073.31
416.151	1108.12
416.359	1050.78
416.567	1046.68
416.776	1155.23
416.984	1222.81
417.192	1251.48
417.4	1314.97
417.608	1317.01
417.817	1390.74
418.025	1394.84
418.233	1548.44
418.441	1476.76
418.649	1437.84
418.857	1747.09
419.065	1663.12
419.273	1777.81
419.481	1761.42
419.689	1902.73
419.897	1863.82
420.105	1980.56
420.313	2039.95
420.521	2074.76
420.729	2013.32
420.937	2197.64
421.145	2252.94
421.353	2306.18
421.561	2351.24
421.769	2558.08
421.977	2742.4
422.185	2564.23
422.393	2793.6
422.601	2957.44
422.809	2898.05
423.017	3063.93
423.224	3080.32
423.432	3246.2
423.64	3217.53
423.848	3440.76
424.056	3459.19
424.263	3696.75
424.471	3668.08
424.679	3745.91
424.887	3993.71
425.094	4059.24
425.302	4141.16
425.51	4221.03
425.718	4233.32
425.925	4397.16
426.133	4513.89
426.341	4806.75
426.548	5081.18
426.756	5132.38
426.964	5179.48
427.171	5578.84
427.379	5494.87
427.586	5640.28
427.794	5810.26
428.001	6039.63
428.209	6408.26
428.417	6113.36
428.624	6586.44
428.832	6645.83
429.039	6469.7
429.247	6621.25
429.454	7292.99
429.662	7766.07
429.869	7227.45
430.076	7843.89
430.284	7639.09
430.491	7872.56
430.699	8396.84
430.906	8278.06
431.114	8550.44
431.321	8802.34
431.528	9035.81
431.736	9461.79
431.943	9943.06
432.15	9443.35
432.358	9603.1
432.565	10278.93
432.772	10084.37
432.979	10852.36
433.187	10899.46
433.394	10756.1
433.601	11812.85
433.808	11894.77
434.016	11556.86
434.223	12378.09
434.43	13021.16
434.637	12484.59
434.844	13404.13
435.052	13535.2
435.259	13512.67
435.466	13830.1
435.673	13613.02
435.88	14516.17
436.087	15333.31
436.294	15181.76
436.501	15124.42
436.708	15288.26
436.915	15790.01
437.122	16101.3
437.329	16451.5
437.537	16881.58
437.743	17156
437.95	17242.02
438.157	18091.93
438.364	18415.51
438.571	18696.08
438.778	18583.44
438.985	20365.17
439.192	19509.12
439.399	19982.2
439.606	19734.4
439.813	20862.83
440.02	22073.18
440.227	21657.44
440.433	21528.42
440.64	22290.26
440.847	22306.65
441.054	22566.74
441.261	24215.35
441.467	23844.67
441.674	24389.43
441.881	25161.51
442.088	25323.3
442.294	24950.57
442.501	25534.25
442.708	25962.27
442.914	26908.43
443.121	28448.5
443.328	27436.81
443.534	29447.91
443.741	28827.38
443.948	28241.66
444.154	30400.22
444.361	29966.05
444.568	30357.21
444.774	30418.65
444.981	30807.76
445.187	31745.73
445.394	33064.63
445.6	32386.75
445.807	35606.16
446.013	33937.06
446.22	35038.87
446.426	35894.92
446.633	36296.32
446.839	37690.99
447.046	35995.27
447.252	38030.95
447.459	37772.91
447.665	37949.03
447.871	39325.27
448.078	41305.65
448.284	39300.69
448.491	40248.9
448.697	42294.82
448.903	42745.37
449.11	42642.98
449.316	42122.79
449.522	43021.85
449.728	44219.91
449.935	44314.12
450.141	44125.71
450.347	45299.19
450.553	44195.34
450.76	44951.04
450.966	45985.26
451.172	45202.94
451.378	46386.66
451.584	45700.59
451.791	46853.6
451.997	46648.8
452.203	47742.42
452.409	47539.67
452.615	47410.65
452.821	45618.67
453.027	45346.29
453.233	47447.51
453.44	45655.54
453.646	46116.33
453.852	46517.73
454.058	47119.84
454.264	45680.11
454.47	46603.75
454.676	45508.08
454.882	47271.39
455.088	43071
455.294	43664.91
455.5	43986.44
455.705	44246.54
455.911	43197.98
456.117	42249.77
456.323	41809.45
456.529	39605.84
456.735	41250.36
456.941	40652.35
457.147	39718.48
457.352	38561.37
457.558	37979.75
457.764	38039.14
457.97	37488.24
458.176	36660.86
458.381	36421.25
458.587	35284.62
458.793	34915.99
458.999	32741.05
459.204	35524.24
459.41	34289.31
459.616	32302.78
459.821	32280.25
460.027	32112.32
460.233	31475.4
460.438	29863.65
460.644	30299.87
460.85	28716.79
461.055	28423.93
461.261	28194.56
461.466	26216.22
461.672	25208.62
461.878	27420.42
462.083	25388.84
462.289	24989.49
462.494	24934.19
462.7	23789.38
462.905	22978.38
463.111	23895.87
463.316	23885.63
463.522	23265.1
463.727	23527.24
463.932	23213.9
464.138	23150.41
464.343	23080.78
464.549	22388.57
464.754	23293.77
464.959	23086.92
465.165	23023.44
465.37	21940.06
465.575	21313.38
465.781	22267.73
