Data from USB4F104151__87__12-36-58-552.txt Node

Date: Fri Mar 14 12:36:58 EDT 2025
User: louis
Spectrometer: USB4F10415
Trigger mode: 4
Integration Time (sec): 2.000000E-2
Scans to average: 1
Electric dark correction enabled: true
Nonlinearity correction enabled: false
Boxcar width: 0
XAxis mode: Wavelengths
Number of Pixels in Spectrum: 3648
>>>>>Begin Spectral Data<<<<<
178.204	-123.39
178.424	-123.39
178.644	-123.39
178.864	-86.53
179.084	-80.38
179.304	32.26
179.524	-31.23
179.744	30.21
179.964	13.82
180.184	44.54
180.404	24.06
180.624	-8.7
180.844	-35.33
181.064	1.54
181.283	28.16
181.503	-72.19
181.723	-27.14
181.943	-33.28
182.163	15.87
182.383	-4.61
182.602	-2.56
182.822	24.06
183.042	65.02
183.262	-25.09
183.482	62.98
183.701	-27.14
183.921	-0.51
184.141	-14.85
184.361	52.74
184.58	-4.61
184.8	60.93
185.02	32.26
185.239	-23.04
185.459	5.63
185.679	15.87
185.898	15.87
186.118	-27.14
186.338	-47.62
186.557	34.3
186.777	5.63
186.997	22.02
187.216	7.68
187.436	69.12
187.655	28.16
187.875	24.06
188.095	44.54
188.314	-14.85
188.534	7.68
188.753	46.59
188.973	42.5
189.192	60.93
189.412	15.87
189.631	48.64
189.851	54.78
190.07	9.73
190.29	-68.09
190.509	62.98
190.729	69.12
190.948	77.31
191.168	136.7
191.387	77.31
191.607	-18.94
191.826	77.31
192.045	-20.99
192.265	-4.61
192.484	13.82
192.704	54.78
192.923	3.58
193.142	13.82
193.362	11.78
193.581	46.59
193.8	17.92
194.02	71.17
194.239	60.93
194.458	22.02
194.678	69.12
194.897	7.68
195.116	30.21
195.335	89.6
195.555	-53.76
195.774	32.26
195.993	-43.52
196.212	19.97
196.432	3.58
196.651	-43.52
196.87	58.88
197.089	13.82
197.308	67.07
197.528	54.78
197.747	-6.66
197.966	-25.09
198.185	40.45
198.404	-18.94
198.623	13.82
198.842	46.59
199.062	60.93
199.281	34.3
199.5	52.74
199.719	56.83
199.938	-41.47
200.157	-23.04
200.376	24.06
200.595	13.82
200.814	62.98
201.033	73.21
201.252	50.69
201.471	46.59
201.69	-61.95
201.909	46.59
202.128	32.26
202.347	54.78
202.566	26.11
202.785	-41.47
203.004	26.11
203.223	130.56
203.442	32.26
203.661	85.5
203.879	9.73
204.098	-51.71
204.317	24.06
204.536	42.5
204.755	58.88
204.974	-10.75
205.193	142.85
205.411	62.98
205.63	24.06
205.849	62.98
206.068	44.54
206.287	-2.56
206.505	65.02
206.724	-27.14
206.943	71.17
207.162	50.69
207.381	24.06
207.599	-27.14
207.818	9.73
208.037	-8.7
208.255	30.21
208.474	-49.66
208.693	24.06
208.911	19.97
209.13	13.82
209.349	67.07
209.567	13.82
209.786	99.84
210.005	110.08
210.223	101.89
210.442	-88.57
210.661	5.63
210.879	-45.57
211.098	-23.04
211.316	1.54
211.535	15.87
211.753	-35.33
211.972	-4.61
212.191	-12.8
212.409	-12.8
212.628	1.54
212.846	15.87
213.065	62.98
213.283	65.02
213.502	-18.94
213.72	22.02
213.938	-37.38
214.157	30.21
214.375	1.54
214.594	-2.56
214.812	58.88
215.031	42.5
215.249	-66.05
215.467	26.11
215.686	-35.33
215.904	79.36
216.122	-14.85
216.341	87.55
216.559	-27.14
216.778	34.3
216.996	97.79
217.214	105.98
217.432	105.98
217.651	42.5
217.869	85.5
218.087	-14.85
218.306	30.21
218.524	34.3
218.742	-25.09
218.96	17.92
219.179	56.83
219.397	15.87
219.615	65.02
219.833	-10.75
220.051	-20.99
220.27	-10.75
220.488	46.59
220.706	24.06
220.924	28.16
221.142	-43.52
221.36	22.02
221.578	-51.71
221.796	15.87
222.015	40.45
222.233	-16.9
222.451	67.07
222.669	-18.94
222.887	32.26
223.105	-27.14
223.323	36.35
223.541	1.54
223.759	-20.99
223.977	1.54
224.195	56.83
224.413	17.92
224.631	-0.51
224.849	3.58
225.067	62.98
225.285	17.92
225.503	-2.56
225.721	-6.66
225.939	7.68
226.157	48.64
226.375	50.69
226.592	28.16
226.81	91.65
227.028	58.88
227.246	87.55
227.464	50.69
227.682	38.4
227.9	48.64
228.117	32.26
228.335	71.17
228.553	-16.9
228.771	81.41
228.989	77.31
229.206	71.17
229.424	24.06
229.642	67.07
229.86	7.68
230.077	89.6
230.295	3.58
230.513	36.35
230.731	40.45
230.948	81.41
231.166	50.69
231.384	52.74
231.601	-27.14
231.819	15.87
232.037	87.55
232.254	71.17
232.472	30.21
232.689	-47.62
232.907	56.83
233.125	22.02
233.342	-59.9
233.56	11.78
233.777	73.21
233.995	42.5
234.213	36.35
234.43	28.16
234.648	26.11
234.865	-6.66
235.083	77.31
235.3	-20.99
235.518	48.64
235.735	99.84
235.953	38.4
236.17	-10.75
236.388	24.06
236.605	46.59
236.822	75.26
237.04	-31.23
237.257	44.54
237.475	65.02
237.692	-49.66
237.909	-8.7
238.127	-100.86
238.344	36.35
238.562	54.78
238.779	-23.04
238.996	7.68
239.214	54.78
239.431	24.06
239.648	-2.56
239.865	38.4
240.083	38.4
240.3	75.26
240.517	73.21
240.735	38.4
240.952	56.83
241.169	60.93
241.386	28.16
241.603	62.98
241.821	17.92
242.038	5.63
242.255	-18.94
242.472	11.78
242.689	26.11
242.907	13.82
243.124	87.55
243.341	5.63
243.558	-41.47
243.775	89.6
243.992	-51.71
244.209	73.21
244.426	52.74
244.643	40.45
244.86	11.78
245.078	89.6
245.295	56.83
245.512	48.64
245.729	-20.99
245.946	101.89
246.163	15.87
246.38	50.69
246.597	-4.61
246.814	11.78
247.031	48.64
247.248	-16.9
247.464	32.26
247.681	65.02
247.898	97.79
248.115	112.13
248.332	19.97
248.549	48.64
248.766	-8.7
248.983	34.3
249.2	17.92
249.417	44.54
249.633	-70.14
249.85	75.26
250.067	-37.38
250.284	-14.85
250.501	11.78
250.717	5.63
250.934	1.54
251.151	58.88
251.368	95.74
251.585	73.21
251.801	-18.94
252.018	69.12
252.235	5.63
252.451	-43.52
252.668	5.63
252.885	79.36
253.102	38.4
253.318	-33.28
253.535	60.93
253.752	19.97
253.968	22.02
254.185	32.26
254.401	36.35
254.618	13.82
254.835	77.31
255.051	116.22
255.268	7.68
255.484	40.45
255.701	71.17
255.917	58.88
256.134	1.54
256.351	50.69
256.567	15.87
256.784	30.21
257	-25.09
257.217	36.35
257.433	24.06
257.65	-16.9
257.866	-4.61
258.082	7.68
258.299	-25.09
258.515	-18.94
258.732	22.02
258.948	34.3
259.165	67.07
259.381	1.54
259.597	-10.75
259.814	50.69
260.03	-18.94
260.246	3.58
260.463	-6.66
260.679	42.5
260.895	11.78
261.112	58.88
261.328	9.73
261.544	85.5
261.761	-12.8
261.977	56.83
262.193	17.92
262.409	-39.42
262.626	11.78
262.842	17.92
263.058	-66.05
263.274	77.31
263.49	22.02
263.707	1.54
263.923	5.63
264.139	28.16
264.355	7.68
264.571	69.12
264.787	36.35
265.004	32.26
265.22	75.26
265.436	38.4
265.652	38.4
265.868	15.87
266.084	28.16
266.3	48.64
266.516	-8.7
266.732	22.02
266.948	87.55
267.164	5.63
267.38	19.97
267.596	22.02
267.812	77.31
268.028	-31.23
268.244	-6.66
268.46	38.4
268.676	46.59
268.892	46.59
269.108	1.54
269.324	79.36
269.54	32.26
269.756	87.55
269.972	28.16
270.188	-45.57
270.403	26.11
270.619	26.11
270.835	62.98
271.051	15.87
271.267	11.78
271.483	62.98
271.698	-20.99
271.914	5.63
272.13	52.74
272.346	42.5
272.562	-0.51
272.777	24.06
272.993	30.21
273.209	58.88
273.425	-51.71
273.64	-14.85
273.856	7.68
274.072	46.59
274.287	1.54
274.503	128.51
274.719	85.5
274.934	42.5
275.15	3.58
275.366	34.3
275.581	-6.66
275.797	50.69
276.012	52.74
276.228	81.41
276.444	40.45
276.659	17.92
276.875	56.83
277.09	-27.14
277.306	58.88
277.521	1.54
277.737	54.78
277.952	-4.61
278.168	79.36
278.383	85.5
278.599	30.21
278.814	3.58
279.03	-12.8
279.245	1.54
279.461	11.78
279.676	89.6
279.892	13.82
280.107	50.69
280.322	-51.71
280.538	-16.9
280.753	44.54
280.969	-10.75
281.184	36.35
281.399	71.17
281.615	3.58
281.83	11.78
282.045	40.45
282.26	11.78
282.476	-4.61
282.691	24.06
282.906	3.58
283.122	11.78
283.337	-31.23
283.552	30.21
283.767	38.4
283.983	19.97
284.198	19.97
284.413	77.31
284.628	-8.7
284.843	-8.7
285.058	-2.56
285.274	46.59
285.489	52.74
285.704	44.54
285.919	48.64
286.134	-10.75
286.349	40.45
286.564	67.07
286.779	40.45
286.995	26.11
287.21	9.73
287.425	32.26
287.64	22.02
287.855	28.16
288.07	-12.8
288.285	99.84
288.5	40.45
288.715	22.02
288.93	-33.28
289.145	46.59
289.36	159.23
289.575	-33.28
289.79	69.12
290.004	-20.99
290.219	89.6
290.434	71.17
290.649	-20.99
290.864	1.54
291.079	22.02
291.294	36.35
291.509	42.5
291.724	40.45
291.938	-2.56
292.153	75.26
292.368	50.69
292.583	30.21
292.798	40.45
293.012	52.74
293.227	-6.66
293.442	7.68
293.657	69.12
293.871	67.07
294.086	-18.94
294.301	26.11
294.516	26.11
294.73	73.21
294.945	-47.62
295.16	-6.66
295.374	81.41
295.589	114.17
295.804	-2.56
296.018	7.68
296.233	-35.33
296.447	15.87
296.662	65.02
296.877	62.98
297.091	40.45
297.306	79.36
297.52	7.68
297.735	75.26
297.949	50.69
298.164	40.45
298.378	-2.56
298.593	-12.8
298.807	7.68
299.022	38.4
299.236	48.64
299.451	69.12
299.665	-0.51
299.88	1.54
300.094	38.4
300.309	73.21
300.523	112.13
300.737	36.35
300.952	-16.9
301.166	71.17
301.381	-6.66
301.595	65.02
301.809	17.92
302.024	9.73
302.238	50.69
302.452	108.03
302.667	26.11
302.881	65.02
303.095	-57.86
303.309	89.6
303.524	81.41
303.738	32.26
303.952	-25.09
304.166	7.68
304.381	-20.99
304.595	77.31
304.809	56.83
305.023	81.41
305.237	-14.85
305.452	38.4
305.666	56.83
305.88	13.82
306.094	38.4
306.308	-0.51
306.522	83.45
306.736	-25.09
306.95	60.93
307.164	-31.23
307.379	40.45
307.593	85.5
307.807	77.31
308.021	67.07
308.235	28.16
308.449	71.17
308.663	7.68
308.877	-14.85
309.091	36.35
309.305	58.88
309.519	-33.28
309.733	56.83
309.947	77.31
310.161	60.93
310.374	26.11
310.588	56.83
310.802	34.3
311.016	83.45
311.23	-29.18
311.444	24.06
311.658	-18.94
311.872	30.21
312.085	52.74
312.299	38.4
312.513	5.63
312.727	24.06
312.941	15.87
313.154	108.03
313.368	44.54
313.582	93.69
313.796	56.83
314.009	46.59
314.223	89.6
314.437	110.08
314.651	-14.85
314.864	73.21
315.078	-8.7
315.292	44.54
315.505	19.97
315.719	71.17
315.933	19.97
316.146	79.36
316.36	7.68
316.573	5.63
316.787	95.74
317.001	22.02
317.214	-27.14
317.428	-6.66
317.641	-10.75
317.855	42.5
318.068	-33.28
318.282	95.74
318.495	-18.94
318.709	-16.9
318.922	-33.28
319.136	56.83
319.349	15.87
319.563	95.74
319.776	83.45
319.99	15.87
320.203	75.26
320.417	-0.51
320.63	-2.56
320.843	54.78
321.057	71.17
321.27	97.79
321.483	28.16
321.697	132.61
321.91	50.69
322.124	28.16
322.337	89.6
322.55	-23.04
322.763	7.68
322.977	44.54
323.19	-6.66
323.403	26.11
323.617	5.63
323.83	62.98
324.043	71.17
324.256	69.12
324.469	-0.51
324.683	-47.62
324.896	38.4
325.109	67.07
325.322	95.74
325.535	89.6
325.748	79.36
325.962	103.93
326.175	38.4
326.388	79.36
326.601	48.64
326.814	138.75
327.027	54.78
327.24	95.74
327.453	-59.9
327.666	30.21
327.879	126.46
328.092	93.69
328.305	71.17
328.518	13.82
328.731	24.06
328.944	28.16
329.157	34.3
329.37	-33.28
329.583	24.06
329.796	32.26
330.009	-41.47
330.222	60.93
330.435	73.21
330.648	56.83
330.861	60.93
331.073	30.21
331.286	-8.7
331.499	30.21
331.712	56.83
331.925	-6.66
332.138	97.79
332.35	108.03
332.563	-70.14
332.776	112.13
332.989	-55.81
333.202	103.93
333.414	11.78
333.627	95.74
333.84	-27.14
334.053	34.3
334.265	-14.85
334.478	32.26
334.691	22.02
334.903	-12.8
335.116	22.02
335.329	5.63
335.541	15.87
335.754	62.98
335.966	81.41
336.179	-8.7
336.392	-33.28
336.604	50.69
336.817	60.93
337.029	15.87
337.242	50.69
337.454	69.12
337.667	73.21
337.88	28.16
338.092	22.02
338.305	-6.66
338.517	67.07
338.729	54.78
338.942	87.55
339.154	-2.56
339.367	-29.18
339.579	38.4
339.792	-33.28
340.004	54.78
340.217	-2.56
340.429	19.97
340.641	-37.38
340.854	-57.86
341.066	44.54
341.278	97.79
341.491	79.36
341.703	-10.75
341.915	9.73
342.128	85.5
342.34	52.74
342.552	95.74
342.764	56.83
342.977	5.63
343.189	69.12
343.401	87.55
343.613	75.26
343.826	19.97
344.038	-64
344.25	32.26
344.462	7.68
344.674	26.11
344.886	15.87
345.099	24.06
345.311	26.11
345.523	71.17
345.735	11.78
345.947	15.87
346.159	15.87
346.371	58.88
346.583	11.78
346.795	97.79
347.007	48.64
347.219	15.87
347.431	54.78
347.643	73.21
347.855	-2.56
348.067	97.79
348.279	30.21
348.491	7.68
348.703	36.35
348.915	32.26
349.127	38.4
349.339	69.12
349.551	65.02
349.763	52.74
349.975	48.64
350.187	42.5
350.399	24.06
350.61	-12.8
350.822	28.16
351.034	36.35
351.246	42.5
351.458	19.97
351.669	-8.7
351.881	93.69
352.093	28.16
352.305	93.69
352.517	48.64
352.728	42.5
352.94	44.54
353.152	73.21
353.363	28.16
353.575	67.07
353.787	75.26
353.999	97.79
354.21	95.74
354.422	71.17
354.633	-37.38
354.845	-10.75
355.057	44.54
355.268	62.98
355.48	67.07
355.692	1.54
355.903	38.4
356.115	28.16
356.326	17.92
356.538	54.78
356.749	30.21
356.961	101.89
357.172	-16.9
357.384	30.21
357.595	65.02
357.807	36.35
358.018	42.5
358.23	-16.9
358.441	103.93
358.653	91.65
358.864	77.31
359.075	-18.94
359.287	69.12
359.498	67.07
359.709	126.46
359.921	-0.51
360.132	1.54
360.344	38.4
360.555	11.78
360.766	36.35
360.977	93.69
361.189	50.69
361.4	9.73
361.611	60.93
361.823	46.59
362.034	52.74
362.245	-33.28
362.456	60.93
362.667	108.03
362.879	19.97
363.09	56.83
363.301	58.88
363.512	124.41
363.723	60.93
363.935	77.31
364.146	148.99
364.357	-16.9
364.568	62.98
364.779	54.78
364.99	73.21
365.201	101.89
365.412	67.07
365.623	91.65
365.834	67.07
366.045	-16.9
366.256	89.6
366.467	50.69
366.678	50.69
366.889	93.69
367.1	91.65
367.311	60.93
367.522	62.98
367.733	79.36
367.944	71.17
368.155	-29.18
368.366	118.27
368.577	108.03
368.788	110.08
368.999	79.36
369.209	30.21
369.42	56.83
369.631	77.31
369.842	101.89
370.053	22.02
370.264	95.74
370.474	60.93
370.685	-4.61
370.896	97.79
371.107	87.55
371.317	85.5
371.528	7.68
371.739	79.36
371.95	67.07
372.16	56.83
372.371	-18.94
372.582	17.92
372.792	97.79
373.003	48.64
373.214	-4.61
373.424	132.61
373.635	50.69
373.846	122.37
374.056	42.5
374.267	69.12
374.477	73.21
374.688	-29.18
374.898	69.12
375.109	67.07
375.319	69.12
375.53	110.08
375.74	9.73
375.951	73.21
376.161	75.26
376.372	58.88
376.582	81.41
376.793	95.74
377.003	73.21
377.214	17.92
377.424	93.69
377.635	91.65
377.845	-18.94
378.055	95.74
378.266	26.11
378.476	50.69
378.686	69.12
378.897	22.02
379.107	118.27
379.317	122.37
379.528	50.69
379.738	40.45
379.948	-0.51
380.158	60.93
380.369	48.64
380.579	110.08
380.789	87.55
380.999	93.69
381.21	97.79
381.42	42.5
381.63	87.55
381.84	85.5
382.05	85.5
382.261	116.22
382.471	101.89
382.681	17.92
382.891	58.88
383.101	83.45
383.311	11.78
383.521	52.74
383.731	91.65
383.941	62.98
384.151	75.26
384.361	30.21
384.571	58.88
384.781	65.02
384.991	-2.56
385.201	151.04
385.411	118.27
385.621	67.07
385.831	60.93
386.041	-10.75
386.251	30.21
386.461	169.47
386.671	26.11
386.881	110.08
387.091	24.06
387.301	17.92
387.511	48.64
387.72	124.41
387.93	77.31
388.14	48.64
388.35	99.84
388.56	110.08
388.769	89.6
388.979	120.32
389.189	79.36
389.399	73.21
389.609	60.93
389.818	-10.75
390.028	93.69
390.238	22.02
390.447	54.78
390.657	52.74
390.867	60.93
391.076	36.35
391.286	30.21
391.496	54.78
391.705	77.31
391.915	163.33
392.125	110.08
392.334	36.35
392.544	134.65
392.753	89.6
392.963	60.93
393.172	132.61
393.382	52.74
393.591	56.83
393.801	56.83
394.01	132.61
394.22	17.92
394.429	56.83
394.639	71.17
394.848	132.61
395.058	71.17
395.267	126.46
395.477	120.32
395.686	42.5
395.895	165.37
396.105	140.8
396.314	48.64
396.524	81.41
396.733	62.98
396.942	99.84
397.152	105.98
397.361	144.89
397.57	167.42
397.78	114.17
397.989	105.98
398.198	163.33
398.407	105.98
398.617	171.52
398.826	56.83
399.035	202.24
399.244	91.65
399.453	40.45
399.663	56.83
399.872	122.37
400.081	142.85
400.29	146.94
400.499	11.78
400.708	148.99
400.917	142.85
401.127	138.75
401.336	99.84
401.545	91.65
401.754	128.51
401.963	144.89
402.172	146.94
402.381	85.5
402.59	85.5
402.799	153.09
403.008	124.41
403.217	189.95
403.426	204.28
403.635	175.61
403.844	128.51
404.053	163.33
404.262	99.84
404.471	157.18
404.68	103.93
404.888	120.32
405.097	159.23
405.306	204.28
405.515	171.52
405.724	226.81
405.933	210.43
406.142	239.1
406.35	124.41
406.559	208.38
406.768	263.68
406.977	218.62
407.185	255.48
407.394	171.52
407.603	216.57
407.812	290.3
408.02	280.06
408.229	189.95
408.438	275.96
408.646	243.2
408.855	318.97
409.064	230.91
409.272	353.79
409.481	376.31
409.69	343.55
409.898	318.97
410.107	415.23
410.315	388.6
410.524	388.6
410.733	441.85
410.941	345.59
411.15	318.97
411.358	462.33
411.567	505.34
411.775	431.61
411.984	464.38
412.192	499.19
412.401	534.01
412.609	577.02
412.818	581.11
413.026	572.92
413.234	663.03
413.443	636.41
413.651	644.6
413.86	656.89
414.068	656.89
414.276	738.8
414.485	759.28
414.693	742.9
414.901	824.82
415.11	835.06
415.318	859.63
415.526	867.83
415.734	876.02
415.943	925.17
416.151	896.5
416.359	912.88
416.567	994.8
416.776	1086.96
416.984	1095.15
417.192	1138.16
417.4	1207.79
417.608	1187.31
417.817	1236.46
418.025	1234.41
418.233	1320.43
418.441	1330.67
418.649	1390.06
418.857	1514.98
419.065	1527.27
419.273	1467.88
419.481	1611.24
419.689	1695.21
419.897	1793.51
420.105	1785.32
420.313	1895.91
420.521	1844.71
420.729	2041.31
420.937	1990.11
421.145	2151.9
421.353	2149.86
421.561	2346.46
421.769	2295.26
421.977	2430.43
422.185	2319.84
422.393	2459.1
422.601	2641.37
422.809	2801.11
423.017	2735.57
423.224	2829.78
423.432	2842.07
423.64	2973.14
423.848	3200.46
424.056	3122.64
424.263	3468.75
424.471	3378.64
424.679	3429.84
424.887	3585.48
425.094	3653.06
425.302	3808.71
425.51	3880.39
425.718	4064.71
425.925	3982.79
426.133	4353.47
426.341	4433.34
426.548	4554.17
426.756	4595.13
426.964	4621.75
427.171	4928.95
427.379	5023.16
427.586	5191.09
427.794	5178.8
428.001	5684.65
428.209	5983.65
428.417	5760.42
428.624	6049.19
428.832	6313.38
429.039	6110.63
429.247	6090.15
429.454	6575.52
429.662	7105.94
429.869	6819.22
430.076	7337.36
430.284	6718.87
430.491	7392.66
430.699	7871.88
430.906	7697.8
431.114	7800.2
431.321	8215.94
431.528	8250.75
431.736	8721.79
431.943	9151.86
432.15	8961.4
432.358	9059.7
432.565	9563.5
432.772	9729.39
432.979	10200.42
433.187	10376.55
433.394	10313.06
433.601	10906.97
433.808	11124.05
434.016	10958.17
434.223	11345.23
434.43	12078.41
434.637	11701.58
434.844	12621.12
435.052	12694.85
435.259	12623.17
435.466	12981.56
435.673	12645.7
435.88	13704.49
436.087	14284.07
436.294	14261.54
436.501	13911.34
436.708	14394.66
436.915	15019.29
437.122	15510.8
437.329	15353.11
437.537	15904.01
437.743	16198.92
437.95	15977.74
438.157	16950.53
438.364	17190.14
438.571	17229.05
438.778	17599.73
438.985	19184.86
439.192	18218.22
439.399	18791.65
439.606	18513.13
439.813	19811.54
440.02	20884.67
440.227	20321.48
440.433	20133.07
440.64	20923.58
440.847	20737.22
441.054	21136.57
441.261	22770.85
441.467	22254.76
441.674	22670.5
441.881	23686.29
442.088	23735.45
442.294	23450.78
442.501	24114.32
442.708	25101.44
442.914	25382.01
443.121	26676.33
443.328	25906.29
443.534	27575.39
443.741	27176.03
443.948	26442.86
444.154	28277.84
444.361	28302.42
444.568	28593.23
444.774	28597.32
444.981	28777.54
445.187	29578.3
445.394	31423.52
445.6	30604.33
445.807	33704.96
446.013	32345.11
446.22	32734.22
446.426	33573.89
446.633	33993.72
446.839	35240.93
447.046	33901.56
447.252	35699.68
447.459	35861.47
447.665	35722.21
447.871	37221.32
448.078	39056.3
448.284	37141.45
448.491	37938.11
448.697	39560.1
448.903	40043.42
449.11	40258.46
449.316	39756.71
449.522	40618.9
449.728	41730.95
449.935	41538.44
450.141	41956.22
450.347	42777.46
450.553	41001.87
450.76	42255.23
450.966	43193.2
451.172	42982.26
451.378	43955.04
451.584	43268.97
451.791	44264.28
451.997	43713.38
452.203	44956.5
452.409	44727.13
452.615	44356.44
452.821	42906.48
453.027	42531.7
453.233	44749.65
453.44	42863.47
453.646	43572.07
453.852	43901.79
454.058	44446.55
454.264	42883.95
454.47	43875.17
454.676	42779.51
454.882	44340.06
455.088	40618.9
455.294	41243.53
455.5	41997.18
455.705	42091.39
455.911	40397.72
456.117	39599.01
456.323	39183.27
456.529	37368.77
456.735	38812.59
456.941	37379.01
457.147	36979.66
457.352	35681.25
457.558	35836.89
457.764	35570.66
457.97	34788.33
458.176	34479.09
458.381	34341.88
458.587	32427.03
458.793	32656.4
458.999	31020.07
459.204	33432.58
459.41	32121.88
459.616	30080.05
459.821	29989.94
460.027	29791.29
460.233	29484.09
460.438	28003.41
460.644	28388.43
460.85	26780.78
461.055	26545.26
461.261	26256.5
461.466	24767.62
461.672	23708.82
461.878	25373.82
462.083	23557.27
462.289	23295.13
462.494	23250.08
462.7	22056.11
462.905	21517.5
463.111	22224.04
463.316	22400.17
463.522	22015.15
463.727	21753.01
463.932	21697.72
464.138	21623.99
464.343	21546.17
464.549	21021.89
464.754	21603.51
464.959	21484.73
465.165	21603.51
465.37	20376.78
465.575	19887.31
465.781	20720.84
465.986	21177.53
466.191	20376.78
466.397	19651.8
466.602	18722.02
466.807	19514.58
467.012	19614.93
467.218	19064.03
