Data from USB4F104151__75__12-36-49-573.txt Node

Date: Fri Mar 14 12:36:49 EDT 2025
User: louis
Spectrometer: USB4F10415
Trigger mode: 4
Integration Time (sec): 2.000000E-2
Scans to average: 1
Electric dark correction enabled: true
Nonlinearity correction enabled: false
Boxcar width: 0
XAxis mode: Wavelengths
Number of Pixels in Spectrum: 3648
>>>>>Begin Spectral Data<<<<<
178.204	-146.77
178.424	-146.77
178.644	-146.77
178.864	-91.48
179.084	-62.8
179.304	-52.56
179.524	53.93
179.744	-66.9
179.964	109.22
180.184	-32.08
180.404	10.92
180.624	31.4
180.844	-46.42
181.064	-32.08
181.283	-13.65
181.503	19.11
181.723	19.11
181.943	-17.75
182.163	23.21
182.383	-9.56
182.602	92.84
182.822	60.07
183.042	12.97
183.262	-32.08
183.482	-34.13
183.701	19.11
183.921	17.07
184.141	4.78
184.361	60.07
184.58	19.11
184.8	70.31
185.02	-9.56
185.239	86.7
185.459	4.78
185.679	10.92
185.898	-58.71
186.118	37.55
186.338	19.11
186.557	19.11
186.777	-21.85
186.997	-3.41
187.216	27.31
187.436	55.98
187.655	17.07
187.875	-23.89
188.095	-42.32
188.314	76.46
188.534	68.27
188.753	53.93
188.973	45.74
189.192	45.74
189.412	0.68
189.631	60.07
189.851	-5.46
190.07	92.84
190.29	27.31
190.509	-52.56
190.729	21.16
190.948	6.83
191.168	76.46
191.387	37.55
191.607	-83.28
191.826	68.27
192.045	25.26
192.265	0.68
192.484	21.16
192.704	-34.13
192.923	-54.61
193.142	45.74
193.362	21.16
193.581	62.12
193.8	-13.65
194.02	37.55
194.239	31.4
194.458	-21.85
194.678	-1.37
194.897	-91.48
195.116	8.87
195.335	25.26
195.555	4.78
195.774	53.93
195.993	25.26
196.212	-1.37
196.432	-60.76
196.651	-7.51
196.87	-1.37
197.089	103.08
197.308	10.92
197.528	37.55
197.747	-9.56
197.966	19.11
198.185	49.83
198.404	31.4
198.623	53.93
198.842	12.97
199.062	49.83
199.281	-54.61
199.5	-36.18
199.719	33.45
199.938	-9.56
200.157	17.07
200.376	23.21
200.595	51.88
200.814	-15.7
201.033	-3.41
201.252	-46.42
201.471	19.11
201.69	15.02
201.909	-23.89
202.128	21.16
202.347	-30.04
202.566	-5.46
202.785	0.68
203.004	4.78
203.223	33.45
203.442	98.99
203.661	-13.65
203.879	12.97
204.098	35.5
204.317	8.87
204.536	27.31
204.755	66.22
204.974	15.02
205.193	80.55
205.411	144.04
205.63	43.69
205.849	39.59
206.068	45.74
206.287	43.69
206.505	33.45
206.724	2.73
206.943	35.5
207.162	-13.65
207.381	47.79
207.599	-46.42
207.818	107.18
208.037	-9.56
208.255	6.83
208.474	37.55
208.693	8.87
208.911	-7.51
209.13	49.83
209.349	90.79
209.567	-36.18
209.786	55.98
210.005	41.64
210.223	70.31
210.442	-46.42
210.661	41.64
210.879	25.26
211.098	-11.61
211.316	31.4
211.535	55.98
211.753	-15.7
211.972	23.21
212.191	-54.61
212.409	2.73
212.628	-23.89
212.846	47.79
213.065	-17.75
213.283	107.18
213.502	-17.75
213.72	62.12
213.938	17.07
214.157	27.31
214.375	-17.75
214.594	-34.13
214.812	80.55
215.031	12.97
215.249	41.64
215.467	8.87
215.686	15.02
215.904	86.7
216.122	19.11
216.341	39.59
216.559	31.4
216.778	78.51
216.996	62.12
217.214	-38.23
217.432	88.75
217.651	31.4
217.869	-7.51
218.087	-23.89
218.306	4.78
218.524	21.16
218.742	15.02
218.96	39.59
219.179	62.12
219.397	41.64
219.615	51.88
219.833	27.31
220.051	19.11
220.27	62.12
220.488	76.46
220.706	58.03
220.924	-50.52
221.142	76.46
221.36	41.64
221.578	90.79
221.796	23.21
222.015	37.55
222.233	58.03
222.451	23.21
222.669	15.02
222.887	49.83
223.105	-19.8
223.323	49.83
223.541	29.35
223.759	2.73
223.977	-11.61
224.195	80.55
224.413	64.17
224.631	82.6
224.849	-5.46
225.067	115.37
225.285	33.45
225.503	6.83
225.721	-128.34
225.939	17.07
226.157	72.36
226.375	0.68
226.592	-30.04
226.81	109.22
227.028	72.36
227.246	72.36
227.464	-15.7
227.682	70.31
227.9	31.4
228.117	113.32
228.335	74.41
228.553	-13.65
228.771	47.79
228.989	2.73
229.206	37.55
229.424	-1.37
229.642	-36.18
229.86	17.07
230.077	-11.61
230.295	-5.46
230.513	80.55
230.731	35.5
230.948	51.88
231.166	37.55
231.384	47.79
231.601	80.55
231.819	62.12
232.037	-11.61
232.254	19.11
232.472	35.5
232.689	4.78
232.907	-54.61
233.125	55.98
233.342	70.31
233.56	27.31
233.777	19.11
233.995	-62.8
234.213	76.46
234.43	68.27
234.648	103.08
234.865	31.4
235.083	-7.51
235.3	23.21
235.518	31.4
235.735	64.17
235.953	15.02
236.17	-13.65
236.388	2.73
236.605	76.46
236.822	23.21
237.04	12.97
237.257	8.87
237.475	8.87
237.692	107.18
237.909	27.31
238.127	17.07
238.344	66.22
238.562	55.98
238.779	-23.89
238.996	6.83
239.214	66.22
239.431	74.41
239.648	55.98
239.865	6.83
240.083	21.16
240.3	78.51
240.517	6.83
240.735	62.12
240.952	45.74
241.169	49.83
241.386	72.36
241.603	58.03
241.821	78.51
242.038	-5.46
242.255	62.12
242.472	-38.23
242.689	-25.94
242.907	-38.23
243.124	-9.56
243.341	2.73
243.558	8.87
243.775	-50.52
243.992	31.4
244.209	68.27
244.426	74.41
244.643	39.59
244.86	82.6
245.078	43.69
245.295	62.12
245.512	19.11
245.729	58.03
245.946	17.07
246.163	68.27
246.38	37.55
246.597	19.11
246.814	29.35
247.031	21.16
247.248	27.31
247.464	-48.47
247.681	78.51
247.898	-15.7
248.115	64.17
248.332	29.35
248.549	45.74
248.766	39.59
248.983	109.22
249.2	19.11
249.417	47.79
249.633	15.02
249.85	78.51
250.067	49.83
250.284	12.97
250.501	31.4
250.717	96.94
250.934	-101.72
251.151	21.16
251.368	-54.61
251.585	-7.51
251.801	86.7
252.018	-11.61
252.235	17.07
252.451	-40.28
252.668	21.16
252.885	51.88
253.102	45.74
253.318	82.6
253.535	8.87
253.752	55.98
253.968	-21.85
254.185	86.7
254.401	45.74
254.618	78.51
254.835	82.6
255.051	53.93
255.268	49.83
255.484	-60.76
255.701	39.59
255.917	90.79
256.134	-21.85
256.351	53.93
256.567	49.83
256.784	76.46
257	27.31
257.217	-17.75
257.433	-17.75
257.65	-17.75
257.866	-23.89
258.082	-62.8
258.299	21.16
258.515	41.64
258.732	-27.99
258.948	-19.8
259.165	19.11
259.381	-9.56
259.597	64.17
259.814	2.73
260.03	25.26
260.246	39.59
260.463	90.79
260.679	58.03
260.895	78.51
261.112	0.68
261.328	82.6
261.544	78.51
261.761	10.92
261.977	101.03
262.193	-19.8
262.409	51.88
262.626	-13.65
262.842	-1.37
263.058	6.83
263.274	51.88
263.49	70.31
263.707	25.26
263.923	72.36
264.139	37.55
264.355	-25.94
264.571	41.64
264.787	74.41
265.004	60.07
265.22	-19.8
265.436	-21.85
265.652	-46.42
265.868	-19.8
266.084	88.75
266.3	-66.9
266.516	-62.8
266.732	12.97
266.948	33.45
267.164	51.88
267.38	27.31
267.596	47.79
267.812	49.83
268.028	-54.61
268.244	6.83
268.46	41.64
268.676	-3.41
268.892	62.12
269.108	43.69
269.324	15.02
269.54	19.11
269.756	72.36
269.972	49.83
270.188	2.73
270.403	29.35
270.619	49.83
270.835	49.83
271.051	49.83
271.267	-32.08
271.483	62.12
271.698	-36.18
271.914	53.93
272.13	-19.8
272.346	-23.89
272.562	-7.51
272.777	17.07
272.993	-3.41
273.209	-23.89
273.425	45.74
273.64	-15.7
273.856	-3.41
274.072	-15.7
274.287	43.69
274.503	-27.99
274.719	43.69
274.934	-1.37
275.15	21.16
275.366	27.31
275.581	-13.65
275.797	-19.8
276.012	58.03
276.228	-13.65
276.444	43.69
276.659	80.55
276.875	21.16
277.09	33.45
277.306	60.07
277.521	41.64
277.737	4.78
277.952	27.31
278.168	76.46
278.383	43.69
278.599	0.68
278.814	21.16
279.03	27.31
279.245	8.87
279.461	41.64
279.676	15.02
279.892	-21.85
280.107	6.83
280.322	-3.41
280.538	4.78
280.753	-64.85
280.969	29.35
281.184	-5.46
281.399	43.69
281.615	74.41
281.83	-15.7
282.045	23.21
282.26	72.36
282.476	0.68
282.691	27.31
282.906	2.73
283.122	-13.65
283.337	6.83
283.552	35.5
283.767	84.65
283.983	55.98
284.198	41.64
284.413	37.55
284.628	68.27
284.843	55.98
285.058	94.89
285.274	60.07
285.489	62.12
285.704	64.17
285.919	90.79
286.134	33.45
286.349	-66.9
286.564	-17.75
286.779	90.79
286.995	33.45
287.21	39.59
287.425	43.69
287.64	55.98
287.855	58.03
288.07	45.74
288.285	62.12
288.5	51.88
288.715	62.12
288.93	-3.41
289.145	31.4
289.36	8.87
289.575	10.92
289.79	80.55
290.004	21.16
290.219	45.74
290.434	6.83
290.649	45.74
290.864	33.45
291.079	15.02
291.294	37.55
291.509	51.88
291.724	76.46
291.938	68.27
292.153	68.27
292.368	-48.47
292.583	64.17
292.798	53.93
293.012	-5.46
293.227	47.79
293.442	72.36
293.657	-30.04
293.871	-30.04
294.086	-25.94
294.301	39.59
294.516	49.83
294.73	86.7
294.945	-1.37
295.16	-62.8
295.374	33.45
295.589	90.79
295.804	10.92
296.018	35.5
296.233	84.65
296.447	41.64
296.662	25.26
296.877	45.74
297.091	58.03
297.306	10.92
297.52	-25.94
297.735	80.55
297.949	-21.85
298.164	6.83
298.378	-66.9
298.593	-19.8
298.807	98.99
299.022	88.75
299.236	105.13
299.451	23.21
299.665	43.69
299.88	82.6
300.094	72.36
300.309	-15.7
300.523	-3.41
300.737	8.87
300.952	-40.28
301.166	76.46
301.381	6.83
301.595	62.12
301.809	82.6
302.024	4.78
302.238	10.92
302.452	123.56
302.667	8.87
302.881	58.03
303.095	80.55
303.309	74.41
303.524	19.11
303.738	115.37
303.952	-3.41
304.166	2.73
304.381	-19.8
304.595	10.92
304.809	23.21
305.023	17.07
305.237	21.16
305.452	0.68
305.666	84.65
305.88	68.27
306.094	-11.61
306.308	37.55
306.522	80.55
306.736	117.42
306.95	25.26
307.164	41.64
307.379	8.87
307.593	127.66
307.807	27.31
308.021	-3.41
308.235	10.92
308.449	-21.85
308.663	37.55
308.877	72.36
309.091	17.07
309.305	45.74
309.519	-62.8
309.733	29.35
309.947	29.35
310.161	33.45
310.374	98.99
310.588	68.27
310.802	39.59
311.016	105.13
311.23	58.03
311.444	23.21
311.658	98.99
311.872	51.88
312.085	-60.76
312.299	23.21
312.513	84.65
312.727	27.31
312.941	43.69
313.154	55.98
313.368	45.74
313.582	78.51
313.796	21.16
314.009	8.87
314.223	39.59
314.437	68.27
314.651	-11.61
314.864	39.59
315.078	66.22
315.292	35.5
315.505	-23.89
315.719	117.42
315.933	58.03
316.146	41.64
316.36	58.03
316.573	82.6
316.787	35.5
317.001	25.26
317.214	8.87
317.428	43.69
317.641	29.35
317.855	39.59
318.068	60.07
318.282	17.07
318.495	-21.85
318.709	15.02
318.922	-5.46
319.136	76.46
319.349	4.78
319.563	27.31
319.776	62.12
319.99	0.68
320.203	86.7
320.417	74.41
320.63	-11.61
320.843	86.7
321.057	4.78
321.27	31.4
321.483	72.36
321.697	33.45
321.91	21.16
322.124	29.35
322.337	27.31
322.55	-13.65
322.763	90.79
322.977	137.9
323.19	45.74
323.403	49.83
323.617	53.93
323.83	113.32
324.043	15.02
324.256	2.73
324.469	27.31
324.683	27.31
324.896	27.31
325.109	90.79
325.322	41.64
325.535	-5.46
325.748	76.46
325.962	10.92
326.175	53.93
326.388	51.88
326.601	125.61
326.814	55.98
327.027	27.31
327.24	94.89
327.453	-44.37
327.666	31.4
327.879	47.79
328.092	21.16
328.305	29.35
328.518	21.16
328.731	45.74
328.944	74.41
329.157	49.83
329.37	12.97
329.583	-5.46
329.796	49.83
330.009	45.74
330.222	70.31
330.435	31.4
330.648	55.98
330.861	8.87
331.073	78.51
331.286	101.03
331.499	58.03
331.712	10.92
331.925	27.31
332.138	45.74
332.35	31.4
332.563	-87.38
332.776	41.64
332.989	49.83
333.202	2.73
333.414	70.31
333.627	96.94
333.84	4.78
334.053	45.74
334.265	43.69
334.478	23.21
334.691	17.07
334.903	31.4
335.116	62.12
335.329	15.02
335.541	25.26
335.754	117.42
335.966	43.69
336.179	29.35
336.392	45.74
336.604	82.6
336.817	64.17
337.029	39.59
337.242	12.97
337.454	62.12
337.667	-46.42
337.88	51.88
338.092	-3.41
338.305	64.17
338.517	86.7
338.729	123.56
338.942	101.03
339.154	-15.7
339.367	53.93
339.579	82.6
339.792	25.26
340.004	107.18
340.217	33.45
340.429	4.78
340.641	53.93
340.854	-21.85
341.066	98.99
341.278	45.74
341.491	51.88
341.703	55.98
341.915	35.5
342.128	84.65
342.34	72.36
342.552	-17.75
342.764	-1.37
342.977	-9.56
343.189	53.93
343.401	25.26
343.613	27.31
343.826	37.55
344.038	25.26
344.25	98.99
344.462	49.83
344.674	45.74
344.886	-1.37
345.099	111.27
345.311	45.74
345.523	-50.52
345.735	4.78
345.947	58.03
346.159	12.97
346.371	39.59
346.583	58.03
346.795	90.79
347.007	53.93
347.219	101.03
347.431	101.03
347.643	55.98
347.855	45.74
348.067	43.69
348.279	51.88
348.491	31.4
348.703	-7.51
348.915	4.78
349.127	60.07
349.339	25.26
349.551	33.45
349.763	127.66
349.975	-7.51
350.187	58.03
350.399	74.41
350.61	41.64
350.822	-5.46
351.034	39.59
351.246	51.88
351.458	62.12
351.669	33.45
351.881	101.03
352.093	74.41
352.305	37.55
352.517	19.11
352.728	92.84
352.94	72.36
353.152	96.94
353.363	25.26
353.575	60.07
353.787	119.46
353.999	62.12
354.21	27.31
354.422	45.74
354.633	107.18
354.845	62.12
355.057	72.36
355.268	4.78
355.48	-30.04
355.692	62.12
355.903	21.16
356.115	55.98
356.326	6.83
356.538	76.46
356.749	19.11
356.961	58.03
357.172	111.27
357.384	51.88
357.595	8.87
357.807	17.07
358.018	68.27
358.23	94.89
358.441	88.75
358.653	21.16
358.864	62.12
359.075	37.55
359.287	82.6
359.498	70.31
359.709	113.32
359.921	-1.37
360.132	45.74
360.344	82.6
360.555	45.74
360.766	76.46
360.977	64.17
361.189	4.78
361.4	68.27
361.611	113.32
361.823	62.12
362.034	66.22
362.245	-34.13
362.456	66.22
362.667	8.87
362.879	-36.18
363.09	6.83
363.301	60.07
363.512	33.45
363.723	4.78
363.935	41.64
364.146	43.69
364.357	92.84
364.568	72.36
364.779	2.73
364.99	98.99
365.201	27.31
365.412	133.8
365.623	-13.65
365.834	27.31
366.045	33.45
366.256	98.99
366.467	121.51
366.678	-19.8
366.889	103.08
367.1	25.26
367.311	31.4
367.522	129.7
367.733	49.83
367.944	43.69
368.155	-3.41
368.366	80.55
368.577	103.08
368.788	27.31
368.999	45.74
369.209	-36.18
369.42	72.36
369.631	76.46
369.842	105.13
370.053	66.22
370.264	21.16
370.474	43.69
370.685	68.27
370.896	31.4
371.107	84.65
371.317	76.46
371.528	4.78
371.739	76.46
371.95	25.26
372.16	72.36
372.371	70.31
372.582	82.6
372.792	119.46
373.003	82.6
373.214	115.37
373.424	15.02
373.635	55.98
373.846	2.73
374.056	86.7
374.267	35.5
374.477	31.4
374.688	70.31
374.898	88.75
375.109	51.88
375.319	45.74
375.53	127.66
375.74	10.92
375.951	-5.46
376.161	76.46
376.372	41.64
376.582	-5.46
376.793	119.46
377.003	68.27
377.214	60.07
377.424	84.65
377.635	62.12
377.845	-7.51
378.055	74.41
378.266	4.78
378.476	35.5
378.686	12.97
378.897	64.17
379.107	47.79
379.317	47.79
379.528	39.59
379.738	84.65
379.948	45.74
380.158	68.27
380.369	86.7
380.579	101.03
380.789	33.45
380.999	76.46
381.21	-15.7
381.42	12.97
381.63	25.26
381.84	55.98
382.05	78.51
382.261	103.08
382.471	-7.51
382.681	37.55
382.891	107.18
383.101	86.7
383.311	90.79
383.521	78.51
383.731	25.26
383.941	86.7
384.151	-9.56
384.361	68.27
384.571	23.21
384.781	-9.56
384.991	66.22
385.201	127.66
385.411	78.51
385.621	64.17
385.831	62.12
386.041	27.31
386.251	6.83
386.461	68.27
386.671	96.94
386.881	70.31
387.091	29.35
387.301	123.56
387.511	92.84
387.72	41.64
387.93	41.64
388.14	21.16
388.35	127.66
388.56	68.27
388.769	119.46
388.979	96.94
389.189	60.07
389.399	55.98
389.609	86.7
389.818	146.09
390.028	23.21
390.238	70.31
390.447	66.22
390.657	107.18
390.867	88.75
391.076	37.55
391.286	90.79
391.496	119.46
391.705	29.35
391.915	62.12
392.125	144.04
392.334	39.59
392.544	6.83
392.753	72.36
392.963	33.45
393.172	111.27
393.382	37.55
393.591	53.93
393.801	64.17
394.01	105.13
394.22	84.65
394.429	98.99
394.639	60.07
394.848	86.7
395.058	144.04
395.267	51.88
395.477	105.13
395.686	135.85
395.895	115.37
396.105	139.94
396.314	90.79
396.524	135.85
396.733	180.9
396.942	10.92
397.152	131.75
397.361	133.8
397.57	174.76
397.78	49.83
397.989	174.76
398.198	107.18
398.407	58.03
398.617	174.76
398.826	164.52
399.035	68.27
399.244	187.05
399.453	131.75
399.663	101.03
399.872	166.57
400.081	72.36
400.29	248.49
400.499	43.69
400.708	127.66
400.917	111.27
401.127	119.46
401.336	129.7
401.545	158.38
401.754	86.7
401.963	174.76
402.172	98.99
402.381	135.85
402.59	123.56
402.799	144.04
403.008	174.76
403.217	133.8
403.426	195.24
403.635	166.57
403.844	141.99
404.053	170.66
404.262	152.23
404.471	256.68
404.68	133.8
404.888	191.14
405.097	164.52
405.306	223.91
405.515	172.71
405.724	205.48
405.933	260.77
406.142	303.78
406.35	176.81
406.559	133.8
406.768	199.34
406.977	275.11
407.185	211.62
407.394	275.11
407.603	254.63
407.812	250.53
408.02	266.92
408.229	316.07
408.438	316.07
408.646	260.77
408.855	342.69
409.064	248.49
409.272	344.74
409.481	361.13
409.69	420.52
409.898	430.76
410.107	354.98
410.315	420.52
410.524	354.98
410.733	359.08
410.941	422.56
411.15	475.81
411.358	438.95
411.567	504.48
411.775	533.15
411.984	567.97
412.192	529.06
412.401	592.55
412.609	610.98
412.818	545.44
413.026	529.06
413.234	692.9
413.443	705.18
413.651	641.7
413.86	740
414.068	801.44
414.276	811.68
414.485	801.44
414.693	748.19
414.901	899.74
415.11	905.88
415.318	869.02
415.526	938.65
415.734	1034.91
415.943	998.04
416.151	991.9
416.359	1079.96
416.567	1061.53
416.776	1036.95
416.984	1163.93
417.192	1225.37
417.4	1348.25
417.608	1221.27
417.817	1333.91
418.025	1452.69
418.233	1338.01
418.441	1446.55
418.649	1505.94
418.857	1544.85
419.065	1583.76
419.273	1559.19
419.481	1725.07
419.689	1745.55
419.897	1841.81
420.105	1989.26
420.313	1913.49
420.521	2085.51
420.729	2069.13
420.937	2046.6
421.145	2208.39
421.353	2310.79
421.561	2466.44
421.769	2478.72
421.977	2632.32
422.185	2568.84
422.393	2755.2
422.601	2939.52
422.809	2904.7
423.017	2919.04
423.224	3086.97
423.432	3095.16
423.64	3267.19
423.848	3428.98
424.056	3287.67
424.263	3703.41
424.471	3549.81
424.679	3609.2
424.887	3887.73
425.094	4010.61
425.302	3986.03
425.51	4217.45
425.718	4309.61
425.925	4366.95
426.133	4354.66
426.341	4766.31
426.548	4901.47
426.756	4977.25
426.964	4887.14
427.171	5464.66
427.379	5440.09
427.586	5601.88
427.794	5732.95
428.001	6013.52
428.209	6326.86
428.417	6042.19
428.624	6572.61
428.832	6621.77
429.039	6558.28
429.247	6416.97
429.454	7084.61
429.662	7600.69
429.869	7166.53
430.076	7709.24
430.284	7371.32
430.491	7707.19
430.699	8299.05
430.906	8184.37
431.114	8241.71
431.321	8636.97
431.528	8800.8
431.736	9429.53
431.943	9779.73
432.15	9634.33
432.358	9607.7
432.565	10252.81
432.772	10248.72
432.979	10562.06
433.187	10906.12
433.394	11024.9
433.601	11661.82
433.808	11477.5
434.016	11561.47
434.223	12161.52
434.43	12794.34
434.637	12481
434.844	13394.4
435.052	13605.34
435.259	13490.65
435.466	13478.36
435.673	13550.04
435.88	14344.66
436.087	15157.7
436.294	15038.92
436.501	14717.39
436.708	15088.07
436.915	15798.71
437.122	16331.19
437.329	16341.43
437.537	16826.79
437.743	16972.2
437.95	17000.87
438.157	18016.66
438.364	18575.76
438.571	18196.89
438.778	18678.16
438.985	20470.13
439.192	19528.06
439.399	20105.59
439.606	19382.66
439.813	20779.37
440.02	21930.33
440.227	21584.23
440.433	21533.03
440.64	22147.42
440.847	21950.81
441.054	22372.69
441.261	23947.58
441.467	23705.92
441.674	24328.5
441.881	24992.05
442.088	24899.89
442.294	25086.25
442.501	25323.82
442.708	26237.21
442.914	27189.52
443.121	27820.29
443.328	27521.29
443.534	29389.03
443.741	28344.57
443.948	28373.24
444.154	30419.16
444.361	29714.66
444.568	30161.12
444.774	29974.75
444.981	30660.82
445.187	31301.84
445.394	32762.04
445.6	32237.76
445.807	35121.3
446.013	34027.68
446.22	34646.17
446.426	35571.85
446.633	35995.78
446.839	37644.4
447.046	36165.76
447.252	37953.64
447.459	38006.89
447.665	37636.2
447.871	39264.34
448.078	41127.99
448.284	39047.25
448.491	40028.23
448.697	41742.38
448.903	42313.76
449.11	42903.58
449.316	42027.05
449.522	43329.56
449.728	43640.85
449.935	43964.43
450.141	43964.43
450.347	45189.11
450.553	43816.97
450.76	44361.73
450.966	45787.12
451.172	45383.67
451.378	46755.81
451.584	45641.71
451.791	46467.05
451.997	46268.39
452.203	47370.2
452.409	47159.26
452.615	46890.98
452.821	45373.43
453.027	45094.91
453.233	47572.95
453.44	45664.24
453.646	46114.79
453.852	46327.78
454.058	46723.04
454.264	45543.41
454.47	46778.34
454.676	45623.28
454.882	46712.8
455.088	43309.08
455.294	43431.96
455.5	44017.67
455.705	44505.09
455.911	43333.65
456.117	42627.1
456.323	41515.06
456.529	39413.84
456.735	41486.39
456.941	40327.24
457.147	39602.25
457.352	38357.09
457.558	38074.47
457.764	38004.84
457.97	37382.26
458.176	36415.61
458.381	36247.68
458.587	34648.22
458.793	34762.9
458.999	33200.3
459.204	35328.14
459.41	34138.27
459.616	32274.62
459.821	32327.87
460.027	32209.09
460.233	31731.91
460.438	29800.68
460.644	30021.86
460.85	28920.05
461.055	28477.69
461.261	28553.46
461.466	26349.85
461.672	25510.18
461.878	27154.7
462.083	25428.26
462.289	24740.15
462.494	24670.51
462.7	23501.12
462.905	23136.59
463.111	23656.77
463.316	23861.57
463.522	23525.7
463.727	23447.88
463.932	23460.16
464.138	23218.5
464.343	23138.63
464.549	22374.74
464.754	22825.29
464.959	22909.26
465.165	22800.72
465.37	21967.2
465.575	21246.31
465.781	22274.39
465.986	22223.19
466.191	21705.06
466.397	20883.82
466.602	20347.25
466.807	20783.47
467.012	21174.63
467.218	20580.72
