Data from USB4F104151__42__11-51-48-070.txt Node

Date: Fri Mar 14 11:51:48 EDT 2025
User: louis
Spectrometer: USB4F10415
Trigger mode: 4
Integration Time (sec): 2.000000E-2
Scans to average: 1
Electric dark correction enabled: true
Nonlinearity correction enabled: false
Boxcar width: 0
XAxis mode: Wavelengths
Number of Pixels in Spectrum: 3648
>>>>>Begin Spectral Data<<<<<
178.204	-15.87
178.424	-15.87
178.644	-15.87
178.864	-60.93
179.084	-116.22
179.304	16.9
179.524	-40.45
179.744	10.75
179.964	-7.68
180.184	6.66
180.404	-32.26
180.624	2.56
180.844	4.61
181.064	-48.64
181.283	20.99
181.503	55.81
181.723	10.75
181.943	23.04
182.163	47.62
182.383	-22.02
182.602	66.05
182.822	80.38
183.042	-11.78
183.262	-60.93
183.482	-3.58
183.701	33.28
183.921	53.76
184.141	41.47
184.361	49.66
184.58	18.94
184.8	70.14
185.02	8.7
185.239	59.9
185.459	-60.93
185.679	29.18
185.898	20.99
186.118	-15.87
186.338	-24.06
186.557	76.29
186.777	100.86
186.997	43.52
187.216	31.23
187.436	119.29
187.655	-32.26
187.875	39.42
188.095	-15.87
188.314	-9.73
188.534	76.29
188.753	20.99
188.973	8.7
189.192	68.09
189.412	-40.45
189.631	-30.21
189.851	33.28
190.07	82.43
190.29	49.66
190.509	20.99
190.729	59.9
190.948	84.48
191.168	43.52
191.387	111.1
191.607	74.24
191.826	-15.87
192.045	37.38
192.265	31.23
192.484	39.42
192.704	49.66
192.923	8.7
193.142	23.04
193.362	53.76
193.581	129.53
193.8	2.56
194.02	51.71
194.239	41.47
194.458	20.99
194.678	102.91
194.897	-26.11
195.116	35.33
195.335	-15.87
195.555	43.52
195.774	51.71
195.993	12.8
196.212	-11.78
196.432	-1.54
196.651	18.94
196.87	14.85
197.089	82.43
197.308	23.04
197.528	-3.58
197.747	92.67
197.966	49.66
198.185	27.14
198.404	72.19
198.623	45.57
198.842	29.18
199.062	25.09
199.281	45.57
199.5	31.23
199.719	20.99
199.938	51.71
200.157	115.2
200.376	-7.68
200.595	18.94
200.814	-17.92
201.033	41.47
201.252	-46.59
201.471	35.33
201.69	16.9
201.909	39.42
202.128	-1.54
202.347	68.09
202.566	16.9
202.785	20.99
203.004	-42.5
203.223	23.04
203.442	37.38
203.661	68.09
203.879	-26.11
204.098	129.53
204.317	74.24
204.536	25.09
204.755	0.51
204.974	80.38
205.193	-9.73
205.411	61.95
205.63	64
205.849	-5.63
206.068	18.94
206.287	31.23
206.505	104.96
206.724	57.86
206.943	-9.73
207.162	107.01
207.381	23.04
207.599	66.05
207.818	-34.3
208.037	-40.45
208.255	25.09
208.474	-22.02
208.693	33.28
208.911	-7.68
209.13	82.43
209.349	27.14
209.567	47.62
209.786	123.39
210.005	74.24
210.223	53.76
210.442	-65.02
210.661	61.95
210.879	-22.02
211.098	-38.4
211.316	-24.06
211.535	4.61
211.753	45.57
211.972	-5.63
212.191	37.38
212.409	-24.06
212.628	74.24
212.846	4.61
213.065	45.57
213.283	76.29
213.502	-15.87
213.72	-32.26
213.938	29.18
214.157	-9.73
214.375	12.8
214.594	31.23
214.812	41.47
215.031	4.61
215.249	31.23
215.467	45.57
215.686	-46.59
215.904	23.04
216.122	23.04
216.341	150.01
216.559	25.09
216.778	10.75
216.996	45.57
217.214	35.33
217.432	-5.63
217.651	-11.78
217.869	-7.68
218.087	45.57
218.306	-5.63
218.524	111.1
218.742	-24.06
218.96	86.53
219.179	-40.45
219.397	23.04
219.615	98.81
219.833	-52.74
220.051	55.81
220.27	66.05
220.488	-28.16
220.706	-1.54
220.924	-15.87
221.142	59.9
221.36	4.61
221.578	49.66
221.796	33.28
222.015	49.66
222.233	51.71
222.451	119.29
222.669	27.14
222.887	18.94
223.105	2.56
223.323	0.51
223.541	29.18
223.759	31.23
223.977	78.33
224.195	131.58
224.413	59.9
224.631	51.71
224.849	10.75
225.067	20.99
225.285	12.8
225.503	41.47
225.721	18.94
225.939	41.47
226.157	-15.87
226.375	27.14
226.592	66.05
226.81	64
227.028	92.67
227.246	35.33
227.464	25.09
227.682	66.05
227.9	-17.92
228.117	-13.82
228.335	53.76
228.553	55.81
228.771	29.18
228.989	74.24
229.206	127.49
229.424	6.66
229.642	74.24
229.86	53.76
230.077	-5.63
230.295	-7.68
230.513	35.33
230.731	12.8
230.948	64
231.166	131.58
231.384	12.8
231.601	59.9
231.819	20.99
232.037	41.47
232.254	-44.54
232.472	80.38
232.689	47.62
232.907	33.28
233.125	27.14
233.342	72.19
233.56	-17.92
233.777	20.99
233.995	74.24
234.213	33.28
234.43	47.62
234.648	37.38
234.865	33.28
235.083	-56.83
235.3	4.61
235.518	27.14
235.735	92.67
235.953	23.04
236.17	4.61
236.388	8.7
236.605	37.38
236.822	39.42
237.04	-11.78
237.257	59.9
237.475	68.09
237.692	31.23
237.909	55.81
238.127	109.05
238.344	27.14
238.562	107.01
238.779	4.61
238.996	8.7
239.214	12.8
239.431	59.9
239.648	37.38
239.865	100.86
240.083	84.48
240.3	55.81
240.517	45.57
240.735	-13.82
240.952	-22.02
241.169	41.47
241.386	29.18
241.603	70.14
241.821	47.62
242.038	6.66
242.255	-28.16
242.472	-32.26
242.689	35.33
242.907	84.48
243.124	80.38
243.341	59.9
243.558	66.05
243.775	37.38
243.992	20.99
244.209	41.47
244.426	115.2
244.643	-13.82
244.86	35.33
245.078	20.99
245.295	37.38
245.512	-26.11
245.729	90.62
245.946	88.57
246.163	23.04
246.38	-30.21
246.597	-11.78
246.814	-60.93
247.031	59.9
247.248	29.18
247.464	45.57
247.681	51.71
247.898	55.81
248.115	-79.36
248.332	-22.02
248.549	45.57
248.766	18.94
248.983	92.67
249.2	39.42
249.417	37.38
249.633	-28.16
249.85	74.24
250.067	-13.82
250.284	64
250.501	104.96
250.717	37.38
250.934	41.47
251.151	27.14
251.368	78.33
251.585	61.95
251.801	-15.87
252.018	-38.4
252.235	61.95
252.451	-13.82
252.668	0.51
252.885	43.52
253.102	20.99
253.318	31.23
253.535	49.66
253.752	49.66
253.968	43.52
254.185	20.99
254.401	74.24
254.618	23.04
254.835	-17.92
255.051	117.25
255.268	33.28
255.484	6.66
255.701	45.57
255.917	-44.54
256.134	16.9
256.351	-1.54
256.567	-22.02
256.784	55.81
257	29.18
257.217	45.57
257.433	-11.78
257.65	107.01
257.866	84.48
258.082	-15.87
258.299	51.71
258.515	45.57
258.732	-3.58
258.948	31.23
259.165	80.38
259.381	41.47
259.597	0.51
259.814	14.85
260.03	72.19
260.246	27.14
260.463	31.23
260.679	59.9
260.895	37.38
261.112	109.05
261.328	-7.68
261.544	43.52
261.761	88.57
261.977	37.38
262.193	43.52
262.409	53.76
262.626	-77.31
262.842	33.28
263.058	20.99
263.274	4.61
263.49	72.19
263.707	141.82
263.923	33.28
264.139	72.19
264.355	4.61
264.571	14.85
264.787	25.09
265.004	43.52
265.22	72.19
265.436	-5.63
265.652	0.51
265.868	39.42
266.084	59.9
266.3	31.23
266.516	-58.88
266.732	90.62
266.948	23.04
267.164	61.95
267.38	20.99
267.596	31.23
267.812	-11.78
268.028	72.19
268.244	37.38
268.46	-15.87
268.676	-9.73
268.892	82.43
269.108	-60.93
269.324	57.86
269.54	8.7
269.756	-11.78
269.972	-30.21
270.188	4.61
270.403	31.23
270.619	-9.73
270.835	33.28
271.051	45.57
271.267	-34.3
271.483	66.05
271.698	23.04
271.914	49.66
272.13	76.29
272.346	33.28
272.562	6.66
272.777	37.38
272.993	53.76
273.209	55.81
273.425	14.85
273.64	14.85
273.856	31.23
274.072	-5.63
274.287	64
274.503	47.62
274.719	59.9
274.934	8.7
275.15	-26.11
275.366	4.61
275.581	6.66
275.797	29.18
276.012	39.42
276.228	53.76
276.444	31.23
276.659	102.91
276.875	-3.58
277.09	76.29
277.306	82.43
277.521	37.38
277.737	59.9
277.952	20.99
278.168	31.23
278.383	6.66
278.599	8.7
278.814	49.66
279.03	-11.78
279.245	51.71
279.461	41.47
279.676	-9.73
279.892	-7.68
280.107	6.66
280.322	23.04
280.538	47.62
280.753	12.8
280.969	4.61
281.184	16.9
281.399	31.23
281.615	31.23
281.83	27.14
282.045	8.7
282.26	-38.4
282.476	66.05
282.691	-32.26
282.906	31.23
283.122	37.38
283.337	94.72
283.552	43.52
283.767	66.05
283.983	74.24
284.198	4.61
284.413	70.14
284.628	-19.97
284.843	49.66
285.058	55.81
285.274	8.7
285.489	-67.07
285.704	35.33
285.919	-28.16
286.134	59.9
286.349	51.71
286.564	-46.59
286.779	29.18
286.995	12.8
287.21	23.04
287.425	94.72
287.64	25.09
287.855	-17.92
288.07	31.23
288.285	16.9
288.5	33.28
288.715	41.47
288.93	2.56
289.145	88.57
289.36	141.82
289.575	8.7
289.79	31.23
290.004	-26.11
290.219	10.75
290.434	64
290.649	20.99
290.864	-26.11
291.079	25.09
291.294	84.48
291.509	12.8
291.724	49.66
291.938	-7.68
292.153	-3.58
292.368	-32.26
292.583	92.67
292.798	49.66
293.012	90.62
293.227	84.48
293.442	70.14
293.657	12.8
293.871	55.81
294.086	4.61
294.301	98.81
294.516	64
294.73	35.33
294.945	49.66
295.16	61.95
295.374	53.76
295.589	43.52
295.804	-9.73
296.018	47.62
296.233	88.57
296.447	96.77
296.662	-24.06
296.877	82.43
297.091	64
297.306	74.24
297.52	-44.54
297.735	113.15
297.949	0.51
298.164	-22.02
298.378	43.52
298.593	14.85
298.807	0.51
299.022	43.52
299.236	84.48
299.451	10.75
299.665	35.33
299.88	59.9
300.094	39.42
300.309	45.57
300.523	-9.73
300.737	92.67
300.952	49.66
301.166	6.66
301.381	-32.26
301.595	82.43
301.809	4.61
302.024	-62.98
302.238	2.56
302.452	20.99
302.667	51.71
302.881	96.77
303.095	23.04
303.309	90.62
303.524	47.62
303.738	6.66
303.952	0.51
304.166	115.2
304.381	25.09
304.595	14.85
304.809	55.81
305.023	4.61
305.237	-36.35
305.452	-56.83
305.666	25.09
305.88	82.43
306.094	64
306.308	100.86
306.522	49.66
306.736	104.96
306.95	64
307.164	37.38
307.379	84.48
307.593	70.14
307.807	117.25
308.021	45.57
308.235	23.04
308.449	-13.82
308.663	8.7
308.877	14.85
309.091	-34.3
309.305	6.66
309.519	-15.87
309.733	145.92
309.947	-17.92
310.161	23.04
310.374	25.09
310.588	125.44
310.802	-19.97
311.016	-3.58
311.23	55.81
311.444	39.42
311.658	-42.5
311.872	0.51
312.085	-28.16
312.299	47.62
312.513	39.42
312.727	39.42
312.941	6.66
313.154	55.81
313.368	82.43
313.582	-5.63
313.796	104.96
314.009	96.77
314.223	64
314.437	84.48
314.651	43.52
314.864	29.18
315.078	-3.58
315.292	33.28
315.505	4.61
315.719	68.09
315.933	-17.92
316.146	45.57
316.36	-24.06
316.573	33.28
316.787	55.81
317.001	47.62
317.214	8.7
317.428	31.23
317.641	49.66
317.855	47.62
318.068	25.09
318.282	57.86
318.495	100.86
318.709	35.33
318.922	27.14
319.136	92.67
319.349	90.62
319.563	31.23
319.776	-17.92
319.99	27.14
320.203	0.51
320.417	-54.78
320.63	41.47
320.843	64
321.057	80.38
321.27	0.51
321.483	53.76
321.697	88.57
321.91	57.86
322.124	25.09
322.337	84.48
322.55	35.33
322.763	31.23
322.977	51.71
323.19	8.7
323.403	8.7
323.617	18.94
323.83	94.72
324.043	57.86
324.256	45.57
324.469	2.56
324.683	72.19
324.896	14.85
325.109	29.18
325.322	43.52
325.535	57.86
325.748	82.43
325.962	0.51
326.175	23.04
326.388	35.33
326.601	43.52
326.814	35.33
327.027	55.81
327.24	-15.87
327.453	-11.78
327.666	74.24
327.879	39.42
328.092	82.43
328.305	20.99
328.518	59.9
328.731	2.56
328.944	-34.3
329.157	59.9
329.37	-15.87
329.583	59.9
329.796	86.53
330.009	57.86
330.222	80.38
330.435	102.91
330.648	-3.58
330.861	27.14
331.073	47.62
331.286	55.81
331.499	49.66
331.712	-15.87
331.925	-3.58
332.138	61.95
332.35	70.14
332.563	12.8
332.776	39.42
332.989	51.71
333.202	14.85
333.414	25.09
333.627	37.38
333.84	82.43
334.053	68.09
334.265	12.8
334.478	33.28
334.691	74.24
334.903	2.56
335.116	45.57
335.329	64
335.541	-30.21
335.754	117.25
335.966	31.23
336.179	-1.54
336.392	76.29
336.604	45.57
336.817	14.85
337.029	2.56
337.242	33.28
337.454	64
337.667	47.62
337.88	125.44
338.092	49.66
338.305	33.28
338.517	25.09
338.729	107.01
338.942	2.56
339.154	6.66
339.367	64
339.579	2.56
339.792	2.56
340.004	70.14
340.217	-28.16
340.429	86.53
340.641	16.9
340.854	55.81
341.066	-1.54
341.278	18.94
341.491	2.56
341.703	29.18
341.915	33.28
342.128	51.71
342.34	68.09
342.552	10.75
342.764	-11.78
342.977	-11.78
343.189	25.09
343.401	0.51
343.613	31.23
343.826	43.52
344.038	-13.82
344.25	4.61
344.462	-38.4
344.674	35.33
344.886	-28.16
345.099	49.66
345.311	55.81
345.523	94.72
345.735	23.04
345.947	45.57
346.159	92.67
346.371	78.33
346.583	-13.82
346.795	45.57
347.007	20.99
347.219	78.33
347.431	14.85
347.643	90.62
347.855	14.85
348.067	41.47
348.279	27.14
348.491	-1.54
348.703	57.86
348.915	-30.21
349.127	57.86
349.339	37.38
349.551	18.94
349.763	25.09
349.975	66.05
350.187	41.47
350.399	33.28
350.61	-34.3
350.822	-5.63
351.034	68.09
351.246	98.81
351.458	29.18
351.669	37.38
351.881	29.18
352.093	72.19
352.305	82.43
352.517	14.85
352.728	102.91
352.94	84.48
353.152	72.19
353.363	16.9
353.575	31.23
353.787	66.05
353.999	74.24
354.21	55.81
354.422	4.61
354.633	27.14
354.845	53.76
355.057	29.18
355.268	43.52
355.48	47.62
355.692	64
355.903	27.14
356.115	64
356.326	31.23
356.538	117.25
356.749	57.86
356.961	55.81
357.172	78.33
357.384	35.33
357.595	121.34
357.807	27.14
358.018	31.23
358.23	66.05
358.441	-7.68
358.653	31.23
358.864	55.81
359.075	35.33
359.287	-40.45
359.498	82.43
359.709	51.71
359.921	12.8
360.132	-38.4
360.344	-22.02
360.555	66.05
360.766	84.48
360.977	74.24
361.189	72.19
361.4	-54.78
361.611	8.7
361.823	109.05
362.034	96.77
362.245	119.29
362.456	43.52
362.667	74.24
362.879	10.75
363.09	94.72
363.301	-26.11
363.512	29.18
363.723	12.8
363.935	14.85
364.146	68.09
364.357	-5.63
364.568	94.72
364.779	55.81
364.99	16.9
365.201	51.71
365.412	72.19
365.623	-11.78
365.834	119.29
366.045	51.71
366.256	43.52
366.467	61.95
366.678	27.14
366.889	-46.59
367.1	164.35
367.311	66.05
367.522	80.38
367.733	107.01
367.944	68.09
368.155	-22.02
368.366	23.04
368.577	78.33
368.788	94.72
368.999	23.04
369.209	51.71
369.42	113.15
369.631	117.25
369.842	29.18
370.053	80.38
370.264	68.09
370.474	70.14
370.685	51.71
370.896	27.14
371.107	12.8
371.317	29.18
371.528	4.61
371.739	4.61
371.95	45.57
372.16	4.61
372.371	51.71
372.582	68.09
372.792	-28.16
373.003	53.76
373.214	-3.58
373.424	143.87
373.635	43.52
373.846	53.76
374.056	47.62
374.267	80.38
374.477	47.62
374.688	94.72
374.898	37.38
375.109	37.38
375.319	27.14
375.53	78.33
375.74	10.75
375.951	10.75
376.161	82.43
376.372	47.62
376.582	51.71
376.793	-5.63
377.003	49.66
377.214	55.81
377.424	88.57
377.635	33.28
377.845	76.29
378.055	72.19
378.266	18.94
378.476	20.99
378.686	111.1
378.897	23.04
379.107	86.53
379.317	59.9
379.528	-11.78
379.738	45.57
379.948	0.51
380.158	70.14
380.369	78.33
380.579	76.29
380.789	49.66
380.999	68.09
381.21	49.66
381.42	51.71
381.63	39.42
381.84	96.77
382.05	70.14
382.261	61.95
382.471	-15.87
382.681	18.94
382.891	31.23
383.101	20.99
383.311	59.9
383.521	31.23
383.731	57.86
383.941	23.04
384.151	90.62
384.361	59.9
384.571	80.38
384.781	41.47
384.991	94.72
385.201	94.72
385.411	55.81
385.621	51.71
385.831	14.85
386.041	4.61
386.251	57.86
386.461	37.38
386.671	31.23
386.881	98.81
387.091	47.62
387.301	147.97
387.511	-1.54
387.72	51.71
387.93	94.72
388.14	-1.54
388.35	-22.02
388.56	53.76
388.769	94.72
388.979	61.95
389.189	12.8
389.399	53.76
389.609	109.05
389.818	88.57
390.028	109.05
390.238	-42.5
390.447	45.57
390.657	-28.16
390.867	49.66
391.076	64
391.286	47.62
391.496	37.38
391.705	55.81
391.915	35.33
392.125	53.76
392.334	64
392.544	41.47
392.753	45.57
392.963	18.94
393.172	109.05
393.382	74.24
393.591	88.57
393.801	123.39
394.01	47.62
394.22	37.38
394.429	127.49
394.639	147.97
394.848	78.33
395.058	100.86
395.267	98.81
395.477	115.2
395.686	51.71
395.895	135.68
396.105	133.63
396.314	115.2
396.524	25.09
396.733	70.14
396.942	100.86
397.152	109.05
397.361	94.72
397.57	121.34
397.78	70.14
397.989	66.05
398.198	107.01
398.407	143.87
398.617	90.62
398.826	43.52
399.035	51.71
399.244	152.06
399.453	45.57
399.663	80.38
399.872	109.05
400.081	102.91
400.29	127.49
400.499	66.05
400.708	127.49
400.917	27.14
401.127	57.86
401.336	57.86
401.545	113.15
401.754	94.72
401.963	133.63
402.172	137.73
402.381	76.29
402.59	100.86
402.799	59.9
403.008	139.77
403.217	158.21
403.426	104.96
403.635	107.01
403.844	86.53
404.053	90.62
404.262	88.57
404.471	104.96
404.68	119.29
404.888	143.87
405.097	156.16
405.306	131.58
405.515	164.35
405.724	127.49
405.933	131.58
406.142	203.26
406.35	182.78
406.559	139.77
406.768	115.2
406.977	231.93
407.185	219.64
407.394	174.59
407.603	158.21
407.812	182.78
408.02	90.62
408.229	190.97
408.438	209.4
408.646	195.07
408.855	170.49
409.064	244.22
409.272	217.6
409.481	248.32
409.69	213.5
409.898	195.07
410.107	297.47
410.315	233.98
410.524	223.74
410.733	242.17
410.941	348.67
411.15	309.76
411.358	285.18
411.567	287.23
411.775	289.28
411.984	346.62
412.192	305.66
412.401	373.24
412.609	369.15
412.818	426.49
413.026	432.63
413.234	416.25
413.443	334.33
413.651	373.24
413.86	457.21
414.068	504.31
414.276	502.26
414.485	381.43
414.693	539.13
414.901	614.9
415.11	584.18
415.318	578.04
415.526	643.57
415.734	676.34
415.943	565.75
416.151	610.81
416.359	600.57
416.567	670.2
416.776	696.82
416.984	764.4
417.192	813.56
417.4	819.7
417.608	838.13
417.817	770.55
418.025	911.86
418.233	948.72
418.441	877.04
418.649	1053.17
418.857	999.92
419.065	989.68
419.273	1036.78
419.481	1042.93
419.689	1118.7
419.897	1167.85
420.105	1163.76
420.313	1233.39
420.521	1327.6
420.729	1260.01
420.937	1393.13
421.145	1393.13
421.353	1384.94
421.561	1532.39
421.769	1573.35
421.977	1606.12
422.185	1585.64
422.393	1755.62
422.601	1788.39
422.809	1802.72
423.017	1855.97
423.224	1958.37
423.432	2048.48
423.64	1935.84
423.848	2179.55
424.056	2146.78
424.263	2232.8
424.471	2281.95
424.679	2271.71
424.887	2351.58
425.094	2523.61
425.302	2429.4
425.51	2476.51
425.718	2658.78
425.925	2609.62
426.133	2818.52
426.341	2902.48
426.548	2994.64
426.756	3127.76
426.964	3209.68
427.171	3338.7
427.379	3391.95
427.586	3451.34
427.794	3576.27
428.001	3693
428.209	3975.62
428.417	3670.47
428.624	4116.93
428.832	4170.18
429.039	4020.67
429.247	4010.43
429.454	4506.04
429.662	4809.14
429.869	4405.69
430.076	4696.5
430.284	4714.94
430.491	4784.57
430.699	5063.09
430.906	5087.67
431.114	5173.68
431.321	5382.57
431.528	5439.92
431.736	5949.86
431.943	6138.27
432.15	5894.57
432.358	5982.63
432.565	6431.13
432.772	6308.26
432.979	6726.04
433.187	6701.47
433.394	6693.27
433.601	7141.78
433.808	7358.86
434.016	7113.11
434.223	7500.17
434.43	7958.92
434.637	7938.44
434.844	8468.86
435.052	8554.88
435.259	8511.87
435.466	8542.59
435.673	8391.04
435.88	8919.42
436.087	9222.52
436.294	9290.1
436.501	9308.53
436.708	9619.82
436.915	9599.34
437.122	10320.23
437.329	10295.65
437.537	10455.39
437.743	10617.18
437.95	10510.69
438.157	10989.91
438.364	11309.4
438.571	11575.63
438.778	11829.58
438.985	12763.45
439.192	12142.92
439.399	12525.89
439.606	12079.43
439.813	13015.35
440.02	13572.4
440.227	13467.95
440.433	13343.03
440.64	13703.47
440.847	13689.14
441.054	14231.85
441.261	15147.29
441.467	14706.98
441.674	15149.34
441.881	15702.29
442.088	15638.8
442.294	15427.86
442.501	16079.11
442.708	16187.66
442.914	16986.36
443.121	17580.28
443.328	17158.39
443.534	18252.01
443.741	17809.65
443.948	17658.1
444.154	18993.37
444.361	18596.07
444.568	18905.31
444.774	19185.88
444.981	19099.87
445.187	19587.29
445.394	20871.36
445.6	20375.75
445.807	22227.12
446.013	21285.05
446.22	21870.77
446.426	22624.42
446.633	22720.68
446.839	23505.05
447.046	22651.05
447.252	23900.31
447.459	23928.98
447.665	23646.36
447.871	24932.48
448.078	25907.32
448.284	24656.01
448.491	25356.41
448.697	26636.39
448.903	26822.76
449.11	27224.16
449.316	26458.22
449.522	26992.74
449.728	27703.39
449.935	28098.64
450.141	28014.68
450.347	28692.55
450.553	27533.4
450.76	28166.23
450.966	29272.13
451.172	28934.21
451.378	29509.69
451.584	29122.63
451.791	29612.09
451.997	29425.73
452.203	29909.05
452.409	30414.9
452.615	29798.46
452.821	28792.9
453.027	28624.97
453.233	30066.74
453.44	29075.52
453.646	29302.85
453.852	29675.58
454.058	29923.38
454.264	29206.59
454.47	29548.61
454.676	28741.71
454.882	29896.76
455.088	27136.1
455.294	27672.67
455.5	27975.77
455.705	28313.68
455.911	27185.25
456.117	26445.93
456.323	26310.77
456.529	24995.97
456.735	26210.42
456.941	25448.57
457.147	24983.68
457.352	24348.81
457.558	23898.26
457.764	24115.34
457.97	23898.26
458.176	23134.37
458.381	23335.07
458.587	22001.84
458.793	22036.66
458.999	20967.62
459.204	22218.92
459.41	21758.13
459.616	20445.38
459.821	20385.99
460.027	20345.03
460.233	19685.59
460.438	18929.89
460.644	19153.12
460.85	18327.78
461.055	17774.83
461.261	17803.5
461.466	16548.1
461.672	16148.75
461.878	17223.93
462.083	15821.07
462.289	15902.99
462.494	15657.23
462.7	14700.83
462.905	14434.6
463.111	15059.23
463.316	14922.01
463.522	14842.14
463.727	14762.27
463.932	14731.55
464.138	14498.08
464.343	14807.33
464.549	14141.74
464.754	14741.79
464.959	14623.01
465.165	14596.39
465.37	13814.06
465.575	13566.26
465.781	14186.79
465.986	14227.75
466.191	13594.93
466.397	13332.79
466.602	12702.01
466.807	13023.55
467.012	13347.12
467.218	13062.46
467.423	12779.84
467.628	13074.74
467.833	13580.59
468.038	13248.82
468.244	12939.58
468.449	13392.18
