Data from USB4F104151__93__11-52-59-259.txt Node

Date: Fri Mar 14 11:52:59 EDT 2025
User: louis
Spectrometer: USB4F10415
Trigger mode: 4
Integration Time (sec): 2.000000E-2
Scans to average: 1
Electric dark correction enabled: true
Nonlinearity correction enabled: false
Boxcar width: 0
XAxis mode: Wavelengths
Number of Pixels in Spectrum: 3648
>>>>>Begin Spectral Data<<<<<
178.204	-98.13
178.424	-98.13
178.644	-98.13
178.864	-53.08
179.084	-87.89
179.304	16.55
179.524	-30.55
179.744	-8.02
179.964	18.6
180.184	-53.08
180.404	-36.69
180.624	-30.55
180.844	102.57
181.064	-3.93
181.283	-16.21
181.503	-8.02
181.723	49.32
181.943	-42.84
182.163	24.75
182.383	-8.02
182.602	-34.64
182.822	45.23
183.042	-12.12
183.262	57.51
183.482	82.09
183.701	-34.64
183.921	0.17
184.141	34.99
184.361	12.46
184.58	8.36
184.8	28.84
185.02	-26.45
185.239	104.62
185.459	18.6
185.679	39.08
185.898	-30.55
186.118	-10.07
186.338	-34.64
186.557	-5.97
186.777	41.13
186.997	51.37
187.216	37.03
187.436	45.23
187.655	32.94
187.875	-10.07
188.095	-10.07
188.314	57.51
188.534	49.32
188.753	-32.6
188.973	34.99
189.192	8.36
189.412	-34.64
189.631	24.75
189.851	-1.88
190.07	92.33
190.29	-20.31
190.509	47.27
190.729	-20.31
190.948	43.18
191.168	69.8
191.387	94.38
191.607	-1.88
191.826	39.08
192.045	22.7
192.265	10.41
192.484	10.41
192.704	-10.07
192.923	8.36
193.142	67.75
193.362	75.95
193.581	59.56
193.8	55.47
194.02	104.62
194.239	47.27
194.458	37.03
194.678	16.55
194.897	-1.88
195.116	55.47
195.335	20.65
195.555	41.13
195.774	16.55
195.993	8.36
196.212	24.75
196.432	51.37
196.651	12.46
196.87	-20.31
197.089	49.32
197.308	53.42
197.528	65.71
197.747	-1.88
197.966	-8.02
198.185	0.17
198.404	22.7
198.623	14.51
198.842	34.99
199.062	59.56
199.281	73.9
199.5	34.99
199.719	24.75
199.938	-65.36
200.157	67.75
200.376	55.47
200.595	45.23
200.814	37.03
201.033	-3.93
201.252	14.51
201.471	-36.69
201.69	-24.4
201.909	32.94
202.128	-30.55
202.347	12.46
202.566	34.99
202.785	-12.12
203.004	0.17
203.223	34.99
203.442	32.94
203.661	32.94
203.879	55.47
204.098	65.71
204.317	-40.79
204.536	4.27
204.755	47.27
204.974	65.71
205.193	-22.36
205.411	16.55
205.63	71.85
205.849	-36.69
206.068	-18.26
206.287	37.03
206.505	-36.69
206.724	-30.55
206.943	28.84
207.162	-20.31
207.381	-53.08
207.599	-53.08
207.818	12.46
208.037	-40.79
208.255	-12.12
208.474	12.46
208.693	-16.21
208.911	32.94
209.13	-28.5
209.349	34.99
209.567	-20.31
209.786	67.75
210.005	-10.07
210.223	118.95
210.442	-34.64
210.661	22.7
210.879	-44.88
211.098	39.08
211.316	18.6
211.535	59.56
211.753	-8.02
211.972	67.75
212.191	65.71
212.409	-1.88
212.628	-1.88
212.846	-85.84
213.065	77.99
213.283	-83.8
213.502	-38.74
213.72	10.41
213.938	73.9
214.157	6.31
214.375	-53.08
214.594	16.55
214.812	28.84
215.031	43.18
215.249	-10.07
215.467	37.03
215.686	49.32
215.904	34.99
216.122	-46.93
216.341	4.27
216.559	-5.97
216.778	34.99
216.996	-5.97
217.214	-12.12
217.432	41.13
217.651	-32.6
217.869	59.56
218.087	55.47
218.306	2.22
218.524	10.41
218.742	-10.07
218.96	65.71
219.179	22.7
219.397	-22.36
219.615	22.7
219.833	14.51
220.051	32.94
220.27	63.66
220.488	73.9
220.706	26.79
220.924	82.09
221.142	2.22
221.36	32.94
221.578	6.31
221.796	-16.21
222.015	-26.45
222.233	53.42
222.451	8.36
222.669	-28.5
222.887	112.81
223.105	-3.93
223.323	20.65
223.541	-32.6
223.759	12.46
223.977	26.79
224.195	77.99
224.413	16.55
224.631	77.99
224.849	-71.51
225.067	24.75
225.285	30.89
225.503	-12.12
225.721	-8.02
225.939	22.7
226.157	4.27
226.375	53.42
226.592	-3.93
226.81	-24.4
227.028	-3.93
227.246	80.04
227.464	-40.79
227.682	-18.26
227.9	-28.5
228.117	-26.45
228.335	110.76
228.553	82.09
228.771	22.7
228.989	75.95
229.206	-18.26
229.424	28.84
229.642	6.31
229.86	-1.88
230.077	69.8
230.295	82.09
230.513	2.22
230.731	26.79
230.948	-30.55
231.166	51.37
231.384	51.37
231.601	28.84
231.819	86.19
232.037	-53.08
232.254	-12.12
232.472	12.46
232.689	24.75
232.907	16.55
233.125	-8.02
233.342	75.95
233.56	24.75
233.777	-22.36
233.995	22.7
234.213	96.43
234.43	-24.4
234.648	14.51
234.865	-18.26
235.083	4.27
235.3	34.99
235.518	30.89
235.735	16.55
235.953	59.56
236.17	-24.4
236.388	-10.07
236.605	51.37
236.822	92.33
237.04	59.56
237.257	30.89
237.475	-34.64
237.692	51.37
237.909	-1.88
238.127	-8.02
238.344	6.31
238.562	59.56
238.779	14.51
238.996	32.94
239.214	41.13
239.431	34.99
239.648	12.46
239.865	30.89
240.083	114.86
240.3	-10.07
240.517	10.41
240.735	-18.26
240.952	108.71
241.169	37.03
241.386	47.27
241.603	59.56
241.821	6.31
242.038	12.46
242.255	2.22
242.472	-18.26
242.689	34.99
242.907	32.94
243.124	-3.93
243.341	37.03
243.558	-20.31
243.775	43.18
243.992	-40.79
244.209	67.75
244.426	28.84
244.643	-36.69
244.86	-1.88
245.078	16.55
245.295	-1.88
245.512	39.08
245.729	-30.55
245.946	61.61
246.163	-22.36
246.38	14.51
246.597	34.99
246.814	51.37
247.031	32.94
247.248	-16.21
247.464	-3.93
247.681	-28.5
247.898	63.66
248.115	92.33
248.332	45.23
248.549	49.32
248.766	69.8
248.983	24.75
249.2	16.55
249.417	37.03
249.633	-40.79
249.85	20.65
250.067	6.31
250.284	30.89
250.501	-12.12
250.717	0.17
250.934	-42.84
251.151	30.89
251.368	116.9
251.585	-14.17
251.801	14.51
252.018	22.7
252.235	-3.93
252.451	-5.97
252.668	6.31
252.885	-24.4
253.102	-57.17
253.318	-44.88
253.535	-8.02
253.752	-12.12
253.968	34.99
254.185	39.08
254.401	28.84
254.618	67.75
254.835	24.75
255.051	51.37
255.268	63.66
255.484	0.17
255.701	-44.88
255.917	8.36
256.134	6.31
256.351	59.56
256.567	-3.93
256.784	57.51
257	6.31
257.217	34.99
257.433	41.13
257.65	28.84
257.866	47.27
258.082	59.56
258.299	4.27
258.515	67.75
258.732	57.51
258.948	51.37
259.165	73.9
259.381	24.75
259.597	4.27
259.814	-34.64
260.03	24.75
260.246	-79.7
260.463	51.37
260.679	41.13
260.895	43.18
261.112	37.03
261.328	16.55
261.544	-14.17
261.761	108.71
261.977	-75.6
262.193	41.13
262.409	45.23
262.626	-30.55
262.842	51.37
263.058	-1.88
263.274	14.51
263.49	32.94
263.707	61.61
263.923	-22.36
264.139	28.84
264.355	45.23
264.571	59.56
264.787	4.27
265.004	22.7
265.22	-40.79
265.436	88.23
265.652	57.51
265.868	45.23
266.084	20.65
266.3	-46.93
266.516	-3.93
266.732	16.55
266.948	-59.22
267.164	34.99
267.38	-22.36
267.596	-22.36
267.812	22.7
268.028	71.85
268.244	-5.97
268.46	-22.36
268.676	-40.79
268.892	26.79
269.108	-12.12
269.324	45.23
269.54	-24.4
269.756	12.46
269.972	-28.5
270.188	-3.93
270.403	-20.31
270.619	20.65
270.835	-46.93
271.051	47.27
271.267	106.67
271.483	-1.88
271.698	39.08
271.914	92.33
272.13	-30.55
272.346	-1.88
272.562	37.03
272.777	-16.21
272.993	14.51
273.209	94.38
273.425	24.75
273.64	-20.31
273.856	10.41
274.072	100.52
274.287	12.46
274.503	-28.5
274.719	67.75
274.934	6.31
275.15	-24.4
275.366	-22.36
275.581	92.33
275.797	47.27
276.012	24.75
276.228	45.23
276.444	-16.21
276.659	102.57
276.875	20.65
277.09	6.31
277.306	-24.4
277.521	61.61
277.737	-77.65
277.952	73.9
278.168	53.42
278.383	22.7
278.599	24.75
278.814	45.23
279.03	90.28
279.245	69.8
279.461	32.94
279.676	49.32
279.892	4.27
280.107	49.32
280.322	41.13
280.538	59.56
280.753	22.7
280.969	47.27
281.184	18.6
281.399	34.99
281.615	67.75
281.83	94.38
282.045	-12.12
282.26	41.13
282.476	57.51
282.691	88.23
282.906	2.22
283.122	55.47
283.337	-8.02
283.552	77.99
283.767	-46.93
283.983	47.27
284.198	-22.36
284.413	30.89
284.628	-71.51
284.843	41.13
285.058	82.09
285.274	37.03
285.489	-59.22
285.704	67.75
285.919	84.14
286.134	20.65
286.349	28.84
286.564	47.27
286.779	59.56
286.995	57.51
287.21	18.6
287.425	41.13
287.64	-14.17
287.855	61.61
288.07	-12.12
288.285	-1.88
288.5	92.33
288.715	37.03
288.93	-73.56
289.145	14.51
289.36	10.41
289.575	41.13
289.79	10.41
290.004	43.18
290.219	2.22
290.434	-12.12
290.649	-1.88
290.864	-30.55
291.079	-22.36
291.294	49.32
291.509	51.37
291.724	45.23
291.938	-14.17
292.153	-42.84
292.368	-48.98
292.583	80.04
292.798	-38.74
293.012	0.17
293.227	39.08
293.442	6.31
293.657	8.36
293.871	4.27
294.086	6.31
294.301	4.27
294.516	-3.93
294.73	22.7
294.945	24.75
295.16	94.38
295.374	106.67
295.589	65.71
295.804	12.46
296.018	57.51
296.233	59.56
296.447	20.65
296.662	-3.93
296.877	20.65
297.091	96.43
297.306	71.85
297.52	82.09
297.735	77.99
297.949	18.6
298.164	10.41
298.378	0.17
298.593	34.99
298.807	8.36
299.022	0.17
299.236	20.65
299.451	-3.93
299.665	-10.07
299.88	18.6
300.094	57.51
300.309	-3.93
300.523	26.79
300.737	22.7
300.952	16.55
301.166	75.95
301.381	26.79
301.595	67.75
301.809	-36.69
302.024	-8.02
302.238	80.04
302.452	14.51
302.667	69.8
302.881	53.42
303.095	88.23
303.309	69.8
303.524	2.22
303.738	0.17
303.952	20.65
304.166	2.22
304.381	-44.88
304.595	32.94
304.809	22.7
305.023	45.23
305.237	-5.97
305.452	26.79
305.666	88.23
305.88	4.27
306.094	32.94
306.308	73.9
306.522	10.41
306.736	92.33
306.95	53.42
307.164	24.75
307.379	69.8
307.593	-12.12
307.807	49.32
308.021	98.47
308.235	51.37
308.449	71.85
308.663	-46.93
308.877	73.9
309.091	-26.45
309.305	94.38
309.519	43.18
309.733	71.85
309.947	-48.98
310.161	39.08
310.374	41.13
310.588	43.18
310.802	14.51
311.016	118.95
311.23	77.99
311.444	-69.46
311.658	26.79
311.872	57.51
312.085	-10.07
312.299	49.32
312.513	24.75
312.727	16.55
312.941	-32.6
313.154	-24.4
313.368	8.36
313.582	-14.17
313.796	6.31
314.009	28.84
314.223	32.94
314.437	28.84
314.651	43.18
314.864	61.61
315.078	26.79
315.292	53.42
315.505	43.18
315.719	-5.97
315.933	12.46
316.146	10.41
316.36	22.7
316.573	34.99
316.787	84.14
317.001	-12.12
317.214	32.94
317.428	18.6
317.641	20.65
317.855	96.43
318.068	92.33
318.282	55.47
318.495	39.08
318.709	37.03
318.922	43.18
319.136	55.47
319.349	-32.6
319.563	28.84
319.776	77.99
319.99	2.22
320.203	-12.12
320.417	92.33
320.63	61.61
320.843	26.79
321.057	16.55
321.27	77.99
321.483	30.89
321.697	63.66
321.91	20.65
322.124	67.75
322.337	53.42
322.55	51.37
322.763	24.75
322.977	63.66
323.19	20.65
323.403	34.99
323.617	12.46
323.83	45.23
324.043	20.65
324.256	37.03
324.469	47.27
324.683	82.09
324.896	-36.69
325.109	34.99
325.322	-32.6
325.535	45.23
325.748	49.32
325.962	84.14
326.175	43.18
326.388	45.23
326.601	88.23
326.814	26.79
327.027	37.03
327.24	110.76
327.453	24.75
327.666	61.61
327.879	43.18
328.092	75.95
328.305	37.03
328.518	6.31
328.731	-14.17
328.944	-1.88
329.157	2.22
329.37	-14.17
329.583	57.51
329.796	37.03
330.009	102.57
330.222	-1.88
330.435	12.46
330.648	55.47
330.861	94.38
331.073	47.27
331.286	63.66
331.499	28.84
331.712	26.79
331.925	24.75
332.138	18.6
332.35	90.28
332.563	-30.55
332.776	51.37
332.989	47.27
333.202	18.6
333.414	69.8
333.627	69.8
333.84	-3.93
334.053	37.03
334.265	14.51
334.478	-18.26
334.691	-73.56
334.903	20.65
335.116	-1.88
335.329	32.94
335.541	-28.5
335.754	55.47
335.966	-12.12
336.179	41.13
336.392	47.27
336.604	65.71
336.817	18.6
337.029	63.66
337.242	59.56
337.454	20.65
337.667	10.41
337.88	49.32
338.092	10.41
338.305	118.95
338.517	-40.79
338.729	-10.07
338.942	32.94
339.154	10.41
339.367	-24.4
339.579	59.56
339.792	49.32
340.004	59.56
340.217	12.46
340.429	26.79
340.641	57.51
340.854	-5.97
341.066	14.51
341.278	57.51
341.491	14.51
341.703	69.8
341.915	22.7
342.128	49.32
342.34	0.17
342.552	14.51
342.764	-30.55
342.977	30.89
343.189	82.09
343.401	57.51
343.613	4.27
343.826	45.23
344.038	10.41
344.25	34.99
344.462	-8.02
344.674	2.22
344.886	-5.97
345.099	73.9
345.311	14.51
345.523	41.13
345.735	57.51
345.947	53.42
346.159	14.51
346.371	49.32
346.583	8.36
346.795	57.51
347.007	82.09
347.219	43.18
347.431	45.23
347.643	24.75
347.855	59.56
348.067	84.14
348.279	-8.02
348.491	90.28
348.703	51.37
348.915	22.7
349.127	10.41
349.339	37.03
349.551	63.66
349.763	84.14
349.975	84.14
350.187	-5.97
350.399	75.95
350.61	77.99
350.822	14.51
351.034	16.55
351.246	-28.5
351.458	20.65
351.669	92.33
351.881	71.85
352.093	12.46
352.305	8.36
352.517	-28.5
352.728	77.99
352.94	82.09
353.152	61.61
353.363	14.51
353.575	26.79
353.787	57.51
353.999	18.6
354.21	55.47
354.422	71.85
354.633	14.51
354.845	37.03
355.057	45.23
355.268	39.08
355.48	57.51
355.692	39.08
355.903	28.84
356.115	-3.93
356.326	-48.98
356.538	98.47
356.749	53.42
356.961	16.55
357.172	39.08
357.384	75.95
357.595	71.85
357.807	-16.21
358.018	43.18
358.23	43.18
358.441	77.99
358.653	84.14
358.864	41.13
359.075	24.75
359.287	18.6
359.498	30.89
359.709	30.89
359.921	34.99
360.132	63.66
360.344	55.47
360.555	57.51
360.766	-71.51
360.977	-20.31
361.189	166.06
361.4	41.13
361.611	114.86
361.823	53.42
362.034	118.95
362.245	30.89
362.456	2.22
362.667	-28.5
362.879	59.56
363.09	0.17
363.301	-5.97
363.512	-20.31
363.723	65.71
363.935	26.79
364.146	114.86
364.357	43.18
364.568	28.84
364.779	14.51
364.99	10.41
365.201	22.7
365.412	20.65
365.623	-24.4
365.834	37.03
366.045	43.18
366.256	20.65
366.467	65.71
366.678	63.66
366.889	26.79
367.1	26.79
367.311	61.61
367.522	43.18
367.733	51.37
367.944	53.42
368.155	26.79
368.366	30.89
368.577	20.65
368.788	-12.12
368.999	8.36
369.209	-8.02
369.42	59.56
369.631	49.32
369.842	55.47
370.053	10.41
370.264	26.79
370.474	55.47
370.685	12.46
370.896	61.61
371.107	8.36
371.317	75.95
371.528	2.22
371.739	104.62
371.95	37.03
372.16	63.66
372.371	22.7
372.582	59.56
372.792	49.32
373.003	39.08
373.214	39.08
373.424	55.47
373.635	45.23
373.846	43.18
374.056	34.99
374.267	24.75
374.477	12.46
374.688	32.94
374.898	16.55
375.109	2.22
375.319	0.17
375.53	71.85
375.74	20.65
375.951	-3.93
376.161	77.99
376.372	94.38
376.582	2.22
376.793	53.42
377.003	57.51
377.214	-22.36
377.424	86.19
377.635	94.38
377.845	69.8
378.055	71.85
378.266	28.84
378.476	65.71
378.686	28.84
378.897	96.43
379.107	43.18
379.317	71.85
379.528	16.55
379.738	49.32
379.948	41.13
380.158	16.55
380.369	-20.31
380.579	71.85
380.789	43.18
380.999	51.37
381.21	20.65
381.42	59.56
381.63	-51.03
381.84	84.14
382.05	65.71
382.261	39.08
382.471	65.71
382.681	71.85
382.891	-10.07
383.101	94.38
383.311	71.85
383.521	92.33
383.731	86.19
383.941	65.71
384.151	26.79
384.361	32.94
384.571	47.27
384.781	20.65
384.991	86.19
385.201	59.56
385.411	57.51
385.621	49.32
385.831	86.19
386.041	168.1
386.251	20.65
386.461	24.75
386.671	8.36
386.881	30.89
387.091	88.23
387.301	-10.07
387.511	59.56
387.72	43.18
387.93	24.75
388.14	-28.5
388.35	98.47
388.56	45.23
388.769	125.1
388.979	49.32
389.189	12.46
389.399	71.85
389.609	67.75
389.818	-14.17
390.028	55.47
390.238	45.23
390.447	-18.26
390.657	49.32
390.867	104.62
391.076	108.71
391.286	86.19
391.496	71.85
391.705	77.99
391.915	-16.21
392.125	2.22
392.334	34.99
392.544	73.9
392.753	121
392.963	8.36
393.172	69.8
393.382	24.75
393.591	110.76
393.801	57.51
394.01	94.38
394.22	18.6
394.429	-8.02
394.639	88.23
394.848	75.95
395.058	55.47
395.267	12.46
395.477	69.8
395.686	47.27
395.895	129.19
396.105	125.1
396.314	108.71
396.524	-8.02
396.733	73.9
396.942	61.61
397.152	123.05
397.361	94.38
397.57	88.23
397.78	14.51
397.989	73.9
398.198	137.38
398.407	94.38
398.617	49.32
398.826	32.94
399.035	63.66
399.244	86.19
399.453	55.47
399.663	51.37
399.872	147.62
400.081	90.28
400.29	88.23
400.499	39.08
400.708	143.53
400.917	135.34
401.127	114.86
401.336	24.75
401.545	149.67
401.754	139.43
401.963	121
402.172	121
402.381	166.06
402.59	82.09
402.799	114.86
403.008	110.76
403.217	114.86
403.426	65.71
403.635	55.47
403.844	143.53
404.053	170.15
404.262	39.08
404.471	90.28
404.68	110.76
404.888	155.82
405.097	77.99
405.306	149.67
405.515	98.47
405.724	75.95
405.933	112.81
406.142	166.06
406.35	114.86
406.559	147.62
406.768	125.1
406.977	204.97
407.185	211.11
407.394	186.54
407.603	161.96
407.812	86.19
408.02	186.54
408.229	178.34
408.438	178.34
408.646	266.41
408.855	225.45
409.064	241.83
409.272	258.21
409.481	284.84
409.69	237.74
409.898	303.27
410.107	317.61
410.315	272.55
410.524	286.89
410.733	395.43
410.941	297.13
411.15	299.17
411.358	360.61
411.567	338.09
411.775	340.13
411.984	315.56
412.192	346.28
412.401	360.61
412.609	411.81
412.818	485.54
413.026	493.73
413.234	444.58
413.443	377
413.651	467.11
413.86	544.93
414.068	522.4
414.276	551.07
414.485	479.4
414.693	600.23
414.901	637.09
415.11	594.08
415.318	577.7
415.526	571.55
415.734	680.1
415.943	587.94
416.151	731.3
416.359	743.58
416.567	815.26
416.776	833.69
416.984	796.83
417.192	719.01
417.4	891.04
417.608	829.6
417.817	866.46
418.025	942.24
418.233	995.48
418.441	1034.39
418.649	1097.88
418.857	1132.7
419.065	1138.84
419.273	1089.69
419.481	1222.81
419.689	1216.66
419.897	1304.73
420.105	1276.06
420.313	1271.96
420.521	1325.21
420.729	1366.17
420.937	1493.14
421.145	1585.3
421.353	1607.83
421.561	1638.55
421.769	1630.35
421.977	1751.18
422.185	1755.28
422.393	1863.82
422.601	2044.04
422.809	2042
423.017	1962.12
423.224	2050.19
423.432	2228.36
423.64	2160.78
423.848	2308.23
424.056	2338.95
424.263	2375.81
424.471	2437.25
424.679	2535.56
424.887	2666.63
425.094	2773.12
425.302	2695.3
425.51	2861.18
425.718	2912.38
425.925	3043.45
426.133	3051.64
426.341	3293.3
426.548	3344.5
426.756	3330.17
426.964	3426.42
427.171	3684.47
427.379	3799.15
427.586	3831.92
427.794	3903.6
428.001	3965.04
428.209	4317.29
428.417	4178.03
428.624	4425.83
428.832	4497.51
429.039	4378.73
429.247	4501.61
429.454	4966.49
429.662	5171.29
429.869	4886.62
430.076	5255.26
430.284	5116
430.491	5296.22
430.699	5589.08
430.906	5560.41
431.114	5554.26
431.321	5818.45
431.528	6182.99
431.736	6158.41
431.943	6699.08
432.15	6525
432.358	6725.7
432.565	6928.45
432.772	6897.73
432.979	7206.97
433.187	7374.91
433.394	7376.95
433.601	8030.26
433.808	8101.94
434.016	7784.5
434.223	8366.12
434.43	8865.83
434.637	8532.01
434.844	9103.39
435.052	9207.84
435.259	9340.96
435.466	9349.15
435.673	9285.66
435.88	9809.94
436.087	10360.84
436.294	10518.54
436.501	10256.4
436.708	10405.9
436.915	10450.96
437.122	11196.42
437.329	11051.01
437.537	11644.92
437.743	11618.3
437.95	11433.98
438.157	12185.58
438.364	12525.55
438.571	12623.85
438.778	12705.77
438.985	13793.24
439.192	13246.43
439.399	13746.14
439.606	13508.57
439.813	14233.55
440.02	14931.91
440.227	14839.75
440.433	14444.49
440.64	14786.51
440.847	14927.81
441.054	15562.69
441.261	16000.95
441.467	16191.41
441.674	16467.89
441.881	17463.2
442.088	17092.52
442.294	16773.03
442.501	17293.22
442.708	17758.11
442.914	18347.92
443.121	18902.92
443.328	18804.62
443.534	20100.98
443.741	19230.6
443.948	19154.82
444.154	20291.45
444.361	20676.46
444.568	20551.54
444.774	20733.81
444.981	20973.42
445.187	21391.2
445.394	22265.69
445.6	22116.19
445.807	24543.03
446.013	23392.07
446.22	23924.54
446.426	24497.97
446.633	24803.12
446.839	25435.94
447.046	24397.62
447.252	25941.79
447.459	25964.32
447.665	25825.06
447.871	27352.84
448.078	28215.04
448.284	26834.71
448.491	27922.18
448.697	28462.84
448.903	29032.18
449.11	29527.78
449.316	28948.21
449.522	29480.68
449.728	29957.86
449.935	29992.67
450.141	30207.71
450.347	31014.61
450.553	29910.75
450.76	30367.45
450.966	31346.38
451.172	31063.76
451.378	31868.61
451.584	31332.04
451.791	32353.98
451.997	32167.62
452.203	32401.08
452.409	32388.8
452.615	32310.97
452.821	30975.7
453.027	30748.37
453.233	32313.02
453.44	31340.24
453.646	31622.86
453.852	31841.99
454.058	32171.71
454.264	31024.85
454.47	31870.66
454.676	30564.06
454.882	32038.59
455.088	29501.16
455.294	29959.91
455.5	30256.86
455.705	30629.59
455.911	29292.27
456.117	28931.83
456.323	28368.63
456.529	26996.49
456.735	27952.9
456.941	27283.21
457.147	27129.61
457.352	25904.93
457.558	26128.16
457.764	25747.23
457.97	25499.43
458.176	24753.97
458.381	24905.52
458.587	23598.91
458.793	23928.64
458.999	22378.33
459.204	23936.83
459.41	23600.96
459.616	21948.25
459.821	21864.29
460.027	21882.72
460.233	21071.72
460.438	20207.48
460.644	20258.68
460.85	19488.64
461.055	19179.4
461.261	19357.57
461.466	17788.83
461.672	17139.62
461.878	18450.32
462.083	17016.74
462.289	17008.55
462.494	16695.21
462.7	16056.25
462.905	15826.87
463.111	16142.26
463.316	16302
463.522	15863.74
463.727	15923.13
463.932	15888.31
464.138	15534.01
464.343	15855.54
464.549	15259.59
464.754	15728.57
464.959	15689.66
465.165	15556.54
465.37	14878.66
465.575	14634.96
465.781	15173.57
465.986	15173.57
466.191	14700.49
466.397	14317.52
466.602	13674.46
466.807	14190.55
467.012	14047.19
467.218	14096.34
467.423	13909.97
467.628	14036.95
467.833	14733.26
