Data from USB4F104151__79__11-52-45-040.txt Node

Date: Fri Mar 14 11:52:45 EDT 2025
User: louis
Spectrometer: USB4F10415
Trigger mode: 4
Integration Time (sec): 2.000000E-2
Scans to average: 1
Electric dark correction enabled: true
Nonlinearity correction enabled: false
Boxcar width: 0
XAxis mode: Wavelengths
Number of Pixels in Spectrum: 3648
>>>>>Begin Spectral Data<<<<<
178.204	-147.8
178.424	-147.8
178.644	-147.8
178.864	-170.32
179.084	-96.6
179.304	34.47
179.524	-45.4
179.744	-20.82
179.964	106.15
180.184	11.95
180.404	36.52
180.624	-72.02
180.844	-33.11
181.064	-6.49
181.283	1.71
181.503	-10.58
181.723	-2.39
181.943	-59.73
182.163	73.39
182.383	-33.11
182.602	30.38
182.822	32.43
183.042	57
183.262	-4.44
183.482	59.05
183.701	-45.4
183.921	28.33
184.141	-67.92
184.361	-10.58
184.58	5.8
184.8	1.71
185.02	-14.68
185.239	26.28
185.459	20.14
185.679	5.8
185.898	38.57
186.118	26.28
186.338	63.15
186.557	100.01
186.777	11.95
186.997	-37.2
187.216	34.47
187.436	67.24
187.655	30.38
187.875	-26.96
188.095	40.62
188.314	-6.49
188.534	91.82
188.753	13.99
188.973	-6.49
189.192	100.01
189.412	57
189.631	65.19
189.851	22.19
190.07	32.43
190.29	24.23
190.509	77.48
190.729	-31.06
190.948	20.14
191.168	22.19
191.387	34.47
191.607	9.9
191.826	71.34
192.045	5.8
192.265	77.48
192.484	67.24
192.704	40.62
192.923	7.85
193.142	7.85
193.362	11.95
193.581	-16.73
193.8	77.48
194.02	18.09
194.239	-2.39
194.458	30.38
194.678	-37.2
194.897	32.43
195.116	3.75
195.335	20.14
195.555	-4.44
195.774	73.39
195.993	-29.01
196.212	5.8
196.432	9.9
196.651	-0.34
196.87	-49.49
197.089	143.02
197.308	42.67
197.528	-10.58
197.747	-18.77
197.966	7.85
198.185	77.48
198.404	1.71
198.623	16.04
198.842	-20.82
199.062	32.43
199.281	38.57
199.5	77.48
199.719	24.23
199.938	18.09
200.157	-8.53
200.376	13.99
200.595	81.58
200.814	18.09
201.033	-37.2
201.252	44.71
201.471	89.77
201.69	106.15
201.909	54.95
202.128	-0.34
202.347	38.57
202.566	24.23
202.785	22.19
203.004	-22.87
203.223	71.34
203.442	22.19
203.661	34.47
203.879	22.19
204.098	-37.2
204.317	-33.11
204.536	61.1
204.755	34.47
204.974	-10.58
205.193	-20.82
205.411	38.57
205.63	38.57
205.849	42.67
206.068	-51.54
206.287	-90.45
206.505	50.86
206.724	67.24
206.943	57
207.162	-33.11
207.381	34.47
207.599	22.19
207.818	-33.11
208.037	40.62
208.255	-0.34
208.474	32.43
208.693	36.52
208.911	36.52
209.13	16.04
209.349	42.67
209.567	-18.77
209.786	30.38
210.005	38.57
210.223	83.63
210.442	50.86
210.661	75.43
210.879	-35.16
211.098	13.99
211.316	63.15
211.535	18.09
211.753	59.05
211.972	38.57
212.191	-2.39
212.409	67.24
212.628	20.14
212.846	-51.54
213.065	30.38
213.283	83.63
213.502	-45.4
213.72	42.67
213.938	26.28
214.157	-63.83
214.375	7.85
214.594	44.71
214.812	-12.63
215.031	48.81
215.249	81.58
215.467	26.28
215.686	36.52
215.904	-2.39
216.122	44.71
216.341	126.63
216.559	-2.39
216.778	46.76
216.996	18.09
217.214	7.85
217.432	13.99
217.651	3.75
217.869	26.28
218.087	-31.06
218.306	30.38
218.524	-8.53
218.742	46.76
218.96	-29.01
219.179	28.33
219.397	-14.68
219.615	16.04
219.833	44.71
220.051	22.19
220.27	89.77
220.488	59.05
220.706	-47.44
220.924	-37.2
221.142	3.75
221.36	50.86
221.578	63.15
221.796	32.43
222.015	44.71
222.233	75.43
222.451	7.85
222.669	-29.01
222.887	95.91
223.105	28.33
223.323	-12.63
223.541	-16.73
223.759	9.9
223.977	-2.39
224.195	38.57
224.413	-2.39
224.631	34.47
224.849	36.52
225.067	-18.77
225.285	-74.07
225.503	38.57
225.721	-49.49
225.939	11.95
226.157	65.19
226.375	59.05
226.592	18.09
226.81	104.11
227.028	67.24
227.246	108.2
227.464	48.81
227.682	26.28
227.9	65.19
228.117	-37.2
228.335	1.71
228.553	34.47
228.771	-31.06
228.989	50.86
229.206	67.24
229.424	87.72
229.642	48.81
229.86	40.62
230.077	54.95
230.295	48.81
230.513	28.33
230.731	-8.53
230.948	3.75
231.166	52.91
231.384	13.99
231.601	85.67
231.819	13.99
232.037	73.39
232.254	-88.4
232.472	-14.68
232.689	38.57
232.907	108.2
233.125	-6.49
233.342	40.62
233.56	20.14
233.777	36.52
233.995	11.95
234.213	77.48
234.43	18.09
234.648	28.33
234.865	50.86
235.083	77.48
235.3	48.81
235.518	42.67
235.735	1.71
235.953	61.1
236.17	-51.54
236.388	26.28
236.605	-2.39
236.822	143.02
237.04	89.77
237.257	30.38
237.475	-12.63
237.692	26.28
237.909	20.14
238.127	24.23
238.344	20.14
238.562	59.05
238.779	22.19
238.996	7.85
239.214	9.9
239.431	38.57
239.648	5.8
239.865	110.25
240.083	28.33
240.3	7.85
240.517	20.14
240.735	63.15
240.952	3.75
241.169	11.95
241.386	-4.44
241.603	69.29
241.821	-4.44
242.038	75.43
242.255	89.77
242.472	-12.63
242.689	-14.68
242.907	38.57
243.124	67.24
243.341	1.71
243.558	36.52
243.775	-69.97
243.992	-8.53
244.209	34.47
244.426	50.86
244.643	9.9
244.86	32.43
245.078	36.52
245.295	-8.53
245.512	89.77
245.729	-78.16
245.946	-2.39
246.163	11.95
246.38	40.62
246.597	46.76
246.814	-22.87
247.031	1.71
247.248	83.63
247.464	5.8
247.681	13.99
247.898	22.19
248.115	-26.96
248.332	57
248.549	40.62
248.766	57
248.983	11.95
249.2	-10.58
249.417	52.91
249.633	-35.16
249.85	95.91
250.067	40.62
250.284	26.28
250.501	-4.44
250.717	48.81
250.934	-20.82
251.151	-18.77
251.368	57
251.585	30.38
251.801	46.76
252.018	26.28
252.235	73.39
252.451	34.47
252.668	20.14
252.885	97.96
253.102	22.19
253.318	-33.11
253.535	3.75
253.752	16.04
253.968	-2.39
254.185	-76.12
254.401	30.38
254.618	79.53
254.835	48.81
255.051	71.34
255.268	30.38
255.484	38.57
255.701	1.71
255.917	-18.77
256.134	-6.49
256.351	65.19
256.567	-26.96
256.784	48.81
257	42.67
257.217	57
257.433	104.11
257.65	85.67
257.866	26.28
258.082	36.52
258.299	50.86
258.515	165.54
258.732	16.04
258.948	-0.34
259.165	59.05
259.381	-10.58
259.597	67.24
259.814	36.52
260.03	36.52
260.246	36.52
260.463	67.24
260.679	163.5
260.895	7.85
261.112	32.43
261.328	-4.44
261.544	32.43
261.761	85.67
261.977	77.48
262.193	7.85
262.409	134.82
262.626	57
262.842	-4.44
263.058	20.14
263.274	52.91
263.49	5.8
263.707	42.67
263.923	-39.25
264.139	9.9
264.355	1.71
264.571	63.15
264.787	-0.34
265.004	42.67
265.22	104.11
265.436	-41.3
265.652	-4.44
265.868	-10.58
266.084	11.95
266.3	7.85
266.516	11.95
266.732	54.95
266.948	-14.68
267.164	28.33
267.38	59.05
267.596	67.24
267.812	24.23
268.028	48.81
268.244	36.52
268.46	24.23
268.676	-12.63
268.892	54.95
269.108	-35.16
269.324	16.04
269.54	-18.77
269.756	61.1
269.972	-24.92
270.188	114.34
270.403	-29.01
270.619	-12.63
270.835	46.76
271.051	93.87
271.267	-31.06
271.483	69.29
271.698	26.28
271.914	40.62
272.13	73.39
272.346	5.8
272.562	40.62
272.777	65.19
272.993	36.52
273.209	22.19
273.425	-20.82
273.64	-8.53
273.856	20.14
274.072	11.95
274.287	-6.49
274.503	87.72
274.719	-2.39
274.934	28.33
275.15	18.09
275.366	13.99
275.581	57
275.797	52.91
276.012	13.99
276.228	13.99
276.444	48.81
276.659	-12.63
276.875	-20.82
277.09	11.95
277.306	30.38
277.521	75.43
277.737	89.77
277.952	44.71
278.168	-37.2
278.383	42.67
278.599	69.29
278.814	54.95
279.03	57
279.245	-24.92
279.461	73.39
279.676	54.95
279.892	97.96
280.107	-4.44
280.322	40.62
280.538	-14.68
280.753	5.8
280.969	44.71
281.184	34.47
281.399	67.24
281.615	3.75
281.83	50.86
282.045	30.38
282.26	-10.58
282.476	28.33
282.691	-16.73
282.906	63.15
283.122	38.57
283.337	-29.01
283.552	67.24
283.767	-18.77
283.983	61.1
284.198	-2.39
284.413	26.28
284.628	16.04
284.843	28.33
285.058	81.58
285.274	114.34
285.489	-26.96
285.704	44.71
285.919	11.95
286.134	85.67
286.349	50.86
286.564	67.24
286.779	20.14
286.995	-10.58
287.21	22.19
287.425	5.8
287.64	34.47
287.855	13.99
288.07	-12.63
288.285	73.39
288.5	40.62
288.715	-41.3
288.93	-4.44
289.145	48.81
289.36	1.71
289.575	-18.77
289.79	110.25
290.004	30.38
290.219	83.63
290.434	75.43
290.649	-31.06
290.864	54.95
291.079	50.86
291.294	63.15
291.509	116.39
291.724	69.29
291.938	46.76
292.153	42.67
292.368	36.52
292.583	26.28
292.798	13.99
293.012	116.39
293.227	34.47
293.442	-4.44
293.657	44.71
293.871	67.24
294.086	67.24
294.301	128.68
294.516	34.47
294.73	79.53
294.945	36.52
295.16	38.57
295.374	34.47
295.589	28.33
295.804	-22.87
296.018	30.38
296.233	-29.01
296.447	42.67
296.662	-0.34
296.877	57
297.091	48.81
297.306	-12.63
297.52	-2.39
297.735	71.34
297.949	-45.4
298.164	34.47
298.378	24.23
298.593	38.57
298.807	-29.01
299.022	9.9
299.236	-49.49
299.451	-16.73
299.665	65.19
299.88	11.95
300.094	-49.49
300.309	69.29
300.523	-31.06
300.737	-16.73
300.952	16.04
301.166	22.19
301.381	46.76
301.595	30.38
301.809	-22.87
302.024	71.34
302.238	44.71
302.452	100.01
302.667	20.14
302.881	77.48
303.095	26.28
303.309	13.99
303.524	11.95
303.738	34.47
303.952	24.23
304.166	26.28
304.381	-65.88
304.595	69.29
304.809	5.8
305.023	9.9
305.237	9.9
305.452	75.43
305.666	38.57
305.88	36.52
306.094	63.15
306.308	11.95
306.522	73.39
306.736	118.44
306.95	7.85
307.164	32.43
307.379	-49.49
307.593	-18.77
307.807	87.72
308.021	28.33
308.235	-22.87
308.449	50.86
308.663	81.58
308.877	44.71
309.091	46.76
309.305	7.85
309.519	57
309.733	24.23
309.947	-72.02
310.161	-6.49
310.374	32.43
310.588	-2.39
310.802	-59.73
311.016	36.52
311.23	30.38
311.444	-0.34
311.658	67.24
311.872	40.62
312.085	73.39
312.299	46.76
312.513	-2.39
312.727	73.39
312.941	-8.53
313.154	104.11
313.368	-31.06
313.582	57
313.796	30.38
314.009	9.9
314.223	40.62
314.437	38.57
314.651	57
314.864	16.04
315.078	34.47
315.292	81.58
315.505	50.86
315.719	3.75
315.933	-24.92
316.146	77.48
316.36	46.76
316.573	112.3
316.787	32.43
317.001	87.72
317.214	9.9
317.428	18.09
317.641	18.09
317.855	44.71
318.068	36.52
318.282	36.52
318.495	26.28
318.709	-24.92
318.922	11.95
319.136	34.47
319.349	81.58
319.563	48.81
319.776	-6.49
319.99	22.19
320.203	40.62
320.417	46.76
320.63	18.09
320.843	69.29
321.057	52.91
321.27	28.33
321.483	30.38
321.697	67.24
321.91	120.49
322.124	16.04
322.337	65.19
322.55	46.76
322.763	5.8
322.977	24.23
323.19	69.29
323.403	-51.54
323.617	-14.68
323.83	50.86
324.043	44.71
324.256	28.33
324.469	61.1
324.683	61.1
324.896	16.04
325.109	24.23
325.322	-31.06
325.535	-4.44
325.748	26.28
325.962	54.95
326.175	22.19
326.388	16.04
326.601	-16.73
326.814	-0.34
327.027	67.24
327.24	50.86
327.453	-12.63
327.666	57
327.879	67.24
328.092	34.47
328.305	104.11
328.518	30.38
328.731	28.33
328.944	13.99
329.157	11.95
329.37	57
329.583	89.77
329.796	38.57
330.009	5.8
330.222	73.39
330.435	59.05
330.648	38.57
330.861	16.04
331.073	13.99
331.286	77.48
331.499	-4.44
331.712	-47.44
331.925	-18.77
332.138	34.47
332.35	1.71
332.563	40.62
332.776	67.24
332.989	73.39
333.202	67.24
333.414	7.85
333.627	7.85
333.84	-22.87
334.053	26.28
334.265	71.34
334.478	75.43
334.691	54.95
334.903	85.67
335.116	38.57
335.329	100.01
335.541	9.9
335.754	65.19
335.966	-18.77
336.179	9.9
336.392	130.73
336.604	44.71
336.817	59.05
337.029	-0.34
337.242	-2.39
337.454	46.76
337.667	108.2
337.88	-53.59
338.092	30.38
338.305	-39.25
338.517	-63.83
338.729	30.38
338.942	24.23
339.154	24.23
339.367	-29.01
339.579	83.63
339.792	-0.34
340.004	42.67
340.217	-26.96
340.429	34.47
340.641	9.9
340.854	30.38
341.066	24.23
341.278	89.77
341.491	-2.39
341.703	44.71
341.915	-12.63
342.128	59.05
342.34	-14.68
342.552	61.1
342.764	32.43
342.977	110.25
343.189	34.47
343.401	11.95
343.613	32.43
343.826	59.05
344.038	50.86
344.25	-22.87
344.462	38.57
344.674	54.95
344.886	-29.01
345.099	63.15
345.311	83.63
345.523	44.71
345.735	5.8
345.947	13.99
346.159	59.05
346.371	120.49
346.583	-47.44
346.795	18.09
347.007	63.15
347.219	9.9
347.431	77.48
347.643	52.91
347.855	7.85
348.067	61.1
348.279	-18.77
348.491	13.99
348.703	42.67
348.915	24.23
349.127	-26.96
349.339	38.57
349.551	38.57
349.763	79.53
349.975	79.53
350.187	50.86
350.399	48.81
350.61	22.19
350.822	20.14
351.034	28.33
351.246	44.71
351.458	61.1
351.669	52.91
351.881	79.53
352.093	26.28
352.305	65.19
352.517	11.95
352.728	-18.77
352.94	18.09
353.152	48.81
353.363	63.15
353.575	22.19
353.787	7.85
353.999	13.99
354.21	69.29
354.422	87.72
354.633	69.29
354.845	13.99
355.057	44.71
355.268	38.57
355.48	36.52
355.692	7.85
355.903	1.71
356.115	57
356.326	20.14
356.538	91.82
356.749	110.25
356.961	36.52
357.172	69.29
357.384	28.33
357.595	75.43
357.807	54.95
358.018	-41.3
358.23	-37.2
358.441	114.34
358.653	26.28
358.864	34.47
359.075	3.75
359.287	63.15
359.498	-0.34
359.709	61.1
359.921	-4.44
360.132	36.52
360.344	83.63
360.555	-45.4
360.766	108.2
360.977	26.28
361.189	28.33
361.4	77.48
361.611	61.1
361.823	50.86
362.034	126.63
362.245	24.23
362.456	124.58
362.667	67.24
362.879	5.8
363.09	83.63
363.301	26.28
363.512	16.04
363.723	16.04
363.935	42.67
364.146	91.82
364.357	36.52
364.568	79.53
364.779	77.48
364.99	93.87
365.201	-16.73
365.412	9.9
365.623	-12.63
365.834	77.48
366.045	81.58
366.256	30.38
366.467	67.24
366.678	42.67
366.889	26.28
367.1	46.76
367.311	9.9
367.522	7.85
367.733	100.01
367.944	9.9
368.155	3.75
368.366	93.87
368.577	9.9
368.788	22.19
368.999	-12.63
369.209	134.82
369.42	102.06
369.631	52.91
369.842	50.86
370.053	48.81
370.264	73.39
370.474	40.62
370.685	24.23
370.896	-0.34
371.107	93.87
371.317	16.04
371.528	-18.77
371.739	54.95
371.95	22.19
372.16	3.75
372.371	71.34
372.582	3.75
372.792	38.57
373.003	42.67
373.214	44.71
373.424	69.29
373.635	22.19
373.846	100.01
374.056	13.99
374.267	75.43
374.477	28.33
374.688	32.43
374.898	38.57
375.109	46.76
375.319	5.8
375.53	67.24
375.74	22.19
375.951	24.23
376.161	102.06
376.372	112.3
376.582	-33.11
376.793	50.86
377.003	7.85
377.214	50.86
377.424	83.63
377.635	46.76
377.845	79.53
378.055	30.38
378.266	69.29
378.476	77.48
378.686	-0.34
378.897	-14.68
379.107	44.71
379.317	108.2
379.528	-2.39
379.738	161.45
379.948	-12.63
380.158	69.29
380.369	93.87
380.579	89.77
380.789	120.49
380.999	77.48
381.21	112.3
381.42	108.2
381.63	79.53
381.84	13.99
382.05	95.91
382.261	87.72
382.471	73.39
382.681	65.19
382.891	52.91
383.101	75.43
383.311	30.38
383.521	95.91
383.731	30.38
383.941	120.49
384.151	147.11
384.361	81.58
384.571	69.29
384.781	75.43
384.991	-0.34
385.201	52.91
385.411	44.71
385.621	38.57
385.831	-61.78
386.041	79.53
386.251	79.53
386.461	40.62
386.671	77.48
386.881	65.19
387.091	71.34
387.301	63.15
387.511	67.24
387.72	91.82
387.93	-6.49
388.14	59.05
388.35	34.47
388.56	120.49
388.769	93.87
388.979	67.24
389.189	-53.59
389.399	-4.44
389.609	16.04
389.818	95.91
390.028	65.19
390.238	63.15
390.447	77.48
390.657	73.39
390.867	59.05
391.076	-6.49
391.286	30.38
391.496	65.19
391.705	87.72
391.915	95.91
392.125	50.86
392.334	83.63
392.544	18.09
392.753	38.57
392.963	3.75
393.172	91.82
393.382	22.19
393.591	161.45
393.801	63.15
394.01	132.78
394.22	79.53
394.429	97.96
394.639	54.95
394.848	48.81
395.058	54.95
395.267	26.28
395.477	83.63
395.686	63.15
395.895	48.81
396.105	63.15
396.314	73.39
396.524	149.16
396.733	54.95
396.942	128.68
397.152	93.87
397.361	83.63
397.57	13.99
397.78	44.71
397.989	48.81
398.198	118.44
398.407	87.72
398.617	100.01
398.826	77.48
399.035	28.33
399.244	128.68
399.453	44.71
399.663	143.02
399.872	48.81
400.081	104.11
400.29	30.38
400.499	102.06
400.708	112.3
400.917	100.01
401.127	106.15
401.336	122.54
401.545	188.07
401.754	140.97
401.963	81.58
402.172	63.15
402.381	130.73
402.59	110.25
402.799	138.92
403.008	151.21
403.217	151.21
403.426	59.05
403.635	81.58
403.844	69.29
404.053	110.25
404.262	151.21
404.471	136.87
404.68	179.88
404.888	95.91
405.097	102.06
405.306	124.58
405.515	179.88
405.724	183.98
405.933	124.58
406.142	147.11
406.35	157.35
406.559	159.4
406.768	173.74
406.977	136.87
407.185	218.79
407.394	218.79
407.603	157.35
407.812	116.39
408.02	183.98
408.229	204.46
408.438	290.47
408.646	200.36
408.855	315.05
409.064	169.64
409.272	198.31
409.481	220.84
409.69	243.37
409.898	214.7
410.107	218.79
410.315	292.52
410.524	251.56
410.733	308.9
410.941	276.13
411.15	319.14
411.358	274.09
411.567	394.92
411.775	315.05
411.984	331.43
412.192	394.92
412.401	378.53
412.609	407.2
412.818	409.25
413.026	407.2
413.234	485.03
413.443	456.36
413.651	446.12
413.86	458.4
414.068	462.5
414.276	544.42
414.485	550.56
414.693	509.6
414.901	523.94
415.11	558.75
415.318	552.61
415.526	605.86
415.734	614.05
415.943	620.19
416.151	706.21
416.359	659.1
416.567	777.89
416.776	761.5
416.984	714.4
417.192	847.52
417.4	849.57
417.608	814.75
417.817	915.1
418.025	943.77
418.233	1050.27
418.441	900.76
418.649	1011.36
418.857	1033.88
419.065	1115.8
419.273	1115.8
419.481	1095.32
419.689	1150.62
419.897	1296.02
420.105	1298.07
420.313	1216.15
420.521	1320.6
420.729	1341.08
420.937	1357.46
421.145	1375.89
421.353	1556.11
421.561	1635.99
421.769	1611.41
421.977	1744.53
422.185	1623.7
422.393	1795.73
422.601	1914.51
422.809	1914.51
423.017	1922.7
423.224	1883.79
423.432	2041.48
423.64	2059.92
423.848	2354.82
424.056	2107.02
424.263	2342.53
424.471	2381.45
424.679	2395.78
424.887	2627.2
425.094	2582.15
425.302	2786.94
425.51	2698.88
425.718	2737.79
425.925	2829.95
426.133	2942.59
426.341	3143.29
426.548	3194.49
426.756	3362.42
426.964	3296.89
427.171	3573.36
427.379	3597.94
427.586	3626.61
427.794	3708.53
428.001	3915.37
428.209	4105.84
428.417	3982.96
428.624	4308.58
428.832	4384.36
429.039	4284.01
429.247	4394.6
429.454	4632.16
429.662	4965.98
429.869	4767.33
430.076	5097.05
430.284	4767.33
430.491	5209.69
430.699	5404.25
430.906	5527.13
431.114	5490.26
431.321	5699.16
431.528	5852.75
431.736	6121.04
431.943	6407.75
432.15	6229.58
432.358	6417.99
432.565	6485.58
432.772	6620.74
432.979	6848.07
433.187	7102.01
433.394	7208.51
433.601	7683.64
433.808	7581.24
434.016	7376.44
434.223	7773.75
434.43	8506.92
434.637	8037.94
434.844	8646.18
435.052	8853.03
435.259	8789.54
435.466	9020.96
435.673	8912.42
435.88	9369.12
436.087	10051.09
436.294	9928.21
436.501	9766.42
436.708	9860.63
436.915	10276.37
437.122	10833.41
437.329	10737.16
437.537	11130.37
437.743	11470.33
437.95	11122.18
438.157	11853.3
438.364	12082.67
438.571	12189.17
438.778	12193.26
438.985	13483.48
439.192	13110.75
439.399	13336.03
439.606	13020.64
439.813	13563.36
440.02	14390.74
440.227	14042.58
440.433	14147.03
440.64	14396.88
440.847	14482.89
441.054	14800.33
441.261	16049.59
441.467	15728.06
441.674	16045.49
441.881	16713.13
442.088	16686.51
442.294	16377.26
442.501	16690.6
442.708	17241.51
442.914	18103.7
443.121	18652.56
443.328	18386.32
443.534	19131.78
443.741	18857.35
443.948	18898.31
444.154	19922.3
444.361	20053.37
444.568	20079.99
444.774	20153.72
444.981	20176.25
445.187	20931.95
445.394	21722.46
445.6	21572.96
445.807	23481.67
446.013	22750.54
446.22	23162.19
446.426	24157.5
446.633	24421.69
446.839	24673.59
447.046	23848.25
447.252	25306.41
447.459	25140.52
447.665	25208.11
447.871	26494.23
448.078	27598.09
448.284	26344.73
448.491	26828.05
448.697	28163.32
448.903	28515.58
449.11	28728.56
449.316	28171.52
449.522	28730.61
449.728	29394.15
449.935	29471.98
450.141	29879.52
450.347	30321.88
450.553	29322.48
450.76	29471.98
450.966	30739.67
451.172	30397.66
451.378	31407.31
451.584	30743.77
451.791	31376.59
451.997	31450.31
452.203	31907.01
452.409	31937.73
452.615	31556.81
452.821	30522.58
453.027	30231.77
453.233	31859.91
453.44	30440.67
453.646	30842.07
453.852	31177.93
454.058	31481.03
454.264	30377.18
454.47	31341.77
454.676	30756.05
454.882	31632.58
455.088	28949.74
455.294	29347.05
455.5	29947.11
455.705	30414.04
455.911	29127.92
456.117	28474.62
456.323	27892.99
456.529	26598.68
456.735	27831.55
456.941	26932.5
457.147	26570.01
457.352	25617.7
457.558	25535.78
457.764	25500.97
457.97	24999.21
458.176	24712.5
458.381	24202.55
458.587	23393.61
458.793	23520.58
458.999	21964.12
459.204	23725.38
459.41	22900.05
459.616	21718.37
459.821	21648.74
460.027	21265.77
460.233	21077.35
460.438	20030.84
460.644	19918.2
460.85	19305.86
461.055	18918.79
461.261	19144.07
461.466	17505.7
461.672	17085.86
461.878	18288.02
462.083	17135.01
462.289	16776.62
462.494	16549.29
462.7	15904.18
462.905	15478.21
463.111	15891.9
463.316	16309.68
463.522	15750.59
463.727	15826.36
463.932	15701.44
464.138	15521.21
464.343	15422.91
464.549	14912.97
464.754	15467.97
464.959	15408.58
465.165	15103.43
465.37	14908.87
465.575	14390.74
465.781	15025.61
465.986	14966.21
466.191	14544.33
466.397	14099.92
466.602	13399.52
466.807	14001.62
467.012	13766.1
467.218	13762.01
467.423	13456.86
467.628	13884.89
467.833	14331.34
468.038	13897.17
