Data from USB4F104151__24__11-51-28-689.txt Node

Date: Fri Mar 14 11:51:28 EDT 2025
User: louis
Spectrometer: USB4F10415
Trigger mode: 4
Integration Time (sec): 2.000000E-2
Scans to average: 1
Electric dark correction enabled: true
Nonlinearity correction enabled: false
Boxcar width: 0
XAxis mode: Wavelengths
Number of Pixels in Spectrum: 3648
>>>>>Begin Spectral Data<<<<<
178.204	-65.54
178.424	-65.54
178.644	-65.54
178.864	-141.31
179.084	-53.25
179.304	-22.53
179.524	-8.19
179.744	22.53
179.964	71.68
180.184	8.19
180.404	-22.53
180.624	36.86
180.844	-18.43
181.064	-28.67
181.283	-6.14
181.503	-24.58
181.723	-8.19
181.943	-20.48
182.163	10.24
182.383	65.53
182.602	75.77
182.822	73.73
183.042	43.01
183.262	67.58
183.482	53.25
183.701	-0
183.921	34.82
184.141	-16.38
184.361	16.38
184.58	-28.67
184.8	51.2
185.02	-12.29
185.239	96.25
185.459	-36.86
185.679	43.01
185.898	18.43
186.118	49.15
186.338	71.68
186.557	34.82
186.777	-77.82
186.997	55.3
187.216	24.58
187.436	22.53
187.655	18.43
187.875	-8.19
188.095	30.72
188.314	-8.19
188.534	38.91
188.753	32.77
188.973	32.77
189.192	4.1
189.412	6.14
189.631	26.62
189.851	-26.62
190.07	16.38
190.29	-20.48
190.509	65.53
190.729	-30.72
190.948	34.82
191.168	43.01
191.387	100.35
191.607	-34.82
191.826	45.06
192.045	49.15
192.265	14.34
192.484	-18.43
192.704	94.21
192.923	59.39
193.142	90.11
193.362	65.53
193.581	86.01
193.8	49.15
194.02	-2.05
194.239	-38.91
194.458	38.91
194.678	49.15
194.897	-12.29
195.116	90.11
195.335	-12.29
195.555	-16.38
195.774	-57.34
195.993	-30.72
196.212	40.96
196.432	-16.38
196.651	40.96
196.87	10.24
197.089	45.06
197.308	45.06
197.528	-12.29
197.747	-8.19
197.966	6.14
198.185	-4.1
198.404	-4.1
198.623	34.82
198.842	8.19
199.062	4.1
199.281	59.39
199.5	96.25
199.719	98.3
199.938	38.91
200.157	28.67
200.376	53.25
200.595	92.16
200.814	26.62
201.033	26.62
201.252	98.3
201.471	-0
201.69	53.25
201.909	63.49
202.128	47.1
202.347	-10.24
202.566	81.92
202.785	14.34
203.004	4.1
203.223	38.91
203.442	18.43
203.661	24.58
203.879	18.43
204.098	-12.29
204.317	-2.05
204.536	-22.53
204.755	-38.91
204.974	18.43
205.193	43.01
205.411	8.19
205.63	81.92
205.849	-4.1
206.068	14.34
206.287	65.53
206.505	-2.05
206.724	36.86
206.943	-49.15
207.162	-12.29
207.381	61.44
207.599	67.58
207.818	12.29
208.037	-6.14
208.255	-26.62
208.474	-55.3
208.693	-40.96
208.911	22.53
209.13	43.01
209.349	2.05
209.567	2.05
209.786	-18.43
210.005	83.97
210.223	10.24
210.442	6.14
210.661	-2.05
210.879	49.15
211.098	-24.58
211.316	22.53
211.535	79.87
211.753	12.29
211.972	86.01
212.191	69.63
212.409	-38.91
212.628	8.19
212.846	71.68
213.065	6.14
213.283	4.1
213.502	94.21
213.72	53.25
213.938	-8.19
214.157	110.59
214.375	-8.19
214.594	-2.05
214.812	-10.24
215.031	-2.05
215.249	10.24
215.467	24.58
215.686	55.3
215.904	65.53
216.122	-34.82
216.341	4.1
216.559	86.01
216.778	61.44
216.996	45.06
217.214	-10.24
217.432	20.48
217.651	-24.58
217.869	-0
218.087	24.58
218.306	55.3
218.524	-51.2
218.742	16.38
218.96	92.16
219.179	-43.01
219.397	-8.19
219.615	4.1
219.833	88.06
220.051	18.43
220.27	63.49
220.488	40.96
220.706	26.62
220.924	6.14
221.142	69.63
221.36	63.49
221.578	38.91
221.796	-6.14
222.015	51.2
222.233	43.01
222.451	57.34
222.669	10.24
222.887	-12.29
223.105	-45.06
223.323	-14.34
223.541	88.06
223.759	-26.62
223.977	14.34
224.195	57.34
224.413	71.68
224.631	79.87
224.849	75.77
225.067	6.14
225.285	30.72
225.503	2.05
225.721	-2.05
225.939	51.2
226.157	63.49
226.375	81.92
226.592	38.91
226.81	-40.96
227.028	20.48
227.246	114.69
227.464	18.43
227.682	40.96
227.9	-26.62
228.117	26.62
228.335	75.77
228.553	6.14
228.771	-6.14
228.989	10.24
229.206	12.29
229.424	8.19
229.642	28.67
229.86	49.15
230.077	65.53
230.295	96.25
230.513	65.53
230.731	24.58
230.948	49.15
231.166	122.88
231.384	4.1
231.601	-16.38
231.819	77.82
232.037	30.72
232.254	-6.14
232.472	26.62
232.689	102.4
232.907	53.25
233.125	-10.24
233.342	6.14
233.56	16.38
233.777	30.72
233.995	55.3
234.213	67.58
234.43	18.43
234.648	88.06
234.865	-22.53
235.083	32.77
235.3	10.24
235.518	71.68
235.735	36.86
235.953	43.01
236.17	6.14
236.388	53.25
236.605	75.77
236.822	110.59
237.04	63.49
237.257	22.53
237.475	51.2
237.692	34.82
237.909	26.62
238.127	-47.1
238.344	24.58
238.562	10.24
238.779	-10.24
238.996	-16.38
239.214	18.43
239.431	8.19
239.648	-49.15
239.865	26.62
240.083	55.3
240.3	-34.82
240.517	55.3
240.735	-40.96
240.952	63.49
241.169	-28.67
241.386	20.48
241.603	49.15
241.821	8.19
242.038	129.02
242.255	40.96
242.472	14.34
242.689	71.68
242.907	32.77
243.124	-61.44
243.341	-0
243.558	-14.34
243.775	22.53
243.992	-36.86
244.209	2.05
244.426	71.68
244.643	43.01
244.86	20.48
245.078	30.72
245.295	57.34
245.512	18.43
245.729	36.86
245.946	63.49
246.163	32.77
246.38	51.2
246.597	-26.62
246.814	12.29
247.031	28.67
247.248	75.77
247.464	-14.34
247.681	36.86
247.898	-14.34
248.115	43.01
248.332	79.87
248.549	65.53
248.766	30.72
248.983	47.1
249.2	20.48
249.417	2.05
249.633	-38.91
249.85	102.4
250.067	32.77
250.284	-71.68
250.501	92.16
250.717	6.14
250.934	6.14
251.151	-47.1
251.368	43.01
251.585	-18.43
251.801	43.01
252.018	77.82
252.235	57.34
252.451	6.14
252.668	-24.58
252.885	22.53
253.102	40.96
253.318	40.96
253.535	-14.34
253.752	24.58
253.968	34.82
254.185	32.77
254.401	67.58
254.618	2.05
254.835	-18.43
255.051	83.97
255.268	6.14
255.484	38.91
255.701	69.63
255.917	155.65
256.134	14.34
256.351	20.48
256.567	47.1
256.784	57.34
257	-6.14
257.217	26.62
257.433	40.96
257.65	-6.14
257.866	24.58
258.082	40.96
258.299	30.72
258.515	51.2
258.732	-22.53
258.948	-34.82
259.165	28.67
259.381	-4.1
259.597	-8.19
259.814	59.39
260.03	-20.48
260.246	8.19
260.463	71.68
260.679	45.06
260.895	-24.58
261.112	38.91
261.328	22.53
261.544	63.49
261.761	43.01
261.977	-10.24
262.193	49.15
262.409	86.01
262.626	75.77
262.842	32.77
263.058	61.44
263.274	59.39
263.49	34.82
263.707	-0
263.923	51.2
264.139	-4.1
264.355	24.58
264.571	102.4
264.787	55.3
265.004	34.82
265.22	30.72
265.436	30.72
265.652	28.67
265.868	61.44
266.084	63.49
266.3	32.77
266.516	-12.29
266.732	100.35
266.948	-10.24
267.164	69.63
267.38	110.59
267.596	86.01
267.812	79.87
268.028	45.06
268.244	38.91
268.46	53.25
268.676	53.25
268.892	38.91
269.108	79.87
269.324	22.53
269.54	12.29
269.756	36.86
269.972	-12.29
270.188	-2.05
270.403	24.58
270.619	61.44
270.835	59.39
271.051	28.67
271.267	36.86
271.483	-0
271.698	24.58
271.914	69.63
272.13	2.05
272.346	-28.67
272.562	-30.72
272.777	116.73
272.993	26.62
273.209	6.14
273.425	28.67
273.64	-10.24
273.856	-8.19
274.072	-0
274.287	-20.48
274.503	79.87
274.719	98.3
274.934	26.62
275.15	-75.77
275.366	8.19
275.581	-26.62
275.797	-10.24
276.012	124.93
276.228	53.25
276.444	-55.3
276.659	51.2
276.875	4.1
277.09	38.91
277.306	12.29
277.521	77.82
277.737	28.67
277.952	77.82
278.168	71.68
278.383	53.25
278.599	-43.01
278.814	73.73
279.03	34.82
279.245	112.64
279.461	71.68
279.676	151.55
279.892	-6.14
280.107	-0
280.322	-38.91
280.538	10.24
280.753	51.2
280.969	45.06
281.184	30.72
281.399	98.3
281.615	20.48
281.83	18.43
282.045	10.24
282.26	-28.67
282.476	30.72
282.691	4.1
282.906	24.58
283.122	90.11
283.337	10.24
283.552	10.24
283.767	83.97
283.983	-24.58
284.198	-28.67
284.413	53.25
284.628	-14.34
284.843	28.67
285.058	67.58
285.274	26.62
285.489	-22.53
285.704	22.53
285.919	-73.73
286.134	-22.53
286.349	55.3
286.564	40.96
286.779	83.97
286.995	79.87
287.21	36.86
287.425	36.86
287.64	96.25
287.855	61.44
288.07	6.14
288.285	-4.1
288.5	-55.3
288.715	-2.05
288.93	-24.58
289.145	20.48
289.36	51.2
289.575	-12.29
289.79	2.05
290.004	8.19
290.219	18.43
290.434	6.14
290.649	-26.62
290.864	38.91
291.079	16.38
291.294	-38.91
291.509	63.49
291.724	-8.19
291.938	96.25
292.153	24.58
292.368	16.38
292.583	-10.24
292.798	65.53
293.012	20.48
293.227	20.48
293.442	12.29
293.657	2.05
293.871	129.02
294.086	40.96
294.301	53.25
294.516	-24.58
294.73	81.92
294.945	-38.91
295.16	45.06
295.374	16.38
295.589	26.62
295.804	-34.82
296.018	2.05
296.233	8.19
296.447	12.29
296.662	-18.43
296.877	73.73
297.091	-20.48
297.306	-6.14
297.52	-18.43
297.735	-43.01
297.949	-10.24
298.164	34.82
298.378	26.62
298.593	2.05
298.807	10.24
299.022	30.72
299.236	34.82
299.451	32.77
299.665	40.96
299.88	24.58
300.094	-34.82
300.309	102.4
300.523	-38.91
300.737	-65.54
300.952	-2.05
301.166	-0
301.381	59.39
301.595	20.48
301.809	-16.38
302.024	57.34
302.238	-2.05
302.452	94.21
302.667	6.14
302.881	12.29
303.095	65.53
303.309	38.91
303.524	-16.38
303.738	43.01
303.952	-16.38
304.166	16.38
304.381	20.48
304.595	51.2
304.809	-6.14
305.023	43.01
305.237	71.68
305.452	38.91
305.666	16.38
305.88	88.06
306.094	69.63
306.308	67.58
306.522	-47.1
306.736	102.4
306.95	32.77
307.164	6.14
307.379	-30.72
307.593	69.63
307.807	26.62
308.021	45.06
308.235	20.48
308.449	-14.34
308.663	14.34
308.877	75.77
309.091	57.34
309.305	79.87
309.519	18.43
309.733	139.26
309.947	100.35
310.161	24.58
310.374	47.1
310.588	6.14
310.802	-0
311.016	32.77
311.23	14.34
311.444	18.43
311.658	28.67
311.872	24.58
312.085	-4.1
312.299	155.65
312.513	36.86
312.727	51.2
312.941	-12.29
313.154	131.07
313.368	26.62
313.582	47.1
313.796	59.39
314.009	108.54
314.223	18.43
314.437	-0
314.651	83.97
314.864	51.2
315.078	-38.91
315.292	-20.48
315.505	51.2
315.719	49.15
315.933	-55.3
316.146	90.11
316.36	81.92
316.573	26.62
316.787	-4.1
317.001	40.96
317.214	55.3
317.428	51.2
317.641	-43.01
317.855	26.62
318.068	4.1
318.282	40.96
318.495	73.73
318.709	24.58
318.922	75.77
319.136	4.1
319.349	61.44
319.563	49.15
319.776	65.53
319.99	-0
320.203	30.72
320.417	-0
320.63	-22.53
320.843	71.68
321.057	28.67
321.27	45.06
321.483	-22.53
321.697	47.1
321.91	22.53
322.124	102.4
322.337	32.77
322.55	43.01
322.763	-0
322.977	22.53
323.19	-83.97
323.403	96.25
323.617	-2.05
323.83	118.78
324.043	-14.34
324.256	-14.34
324.469	-45.06
324.683	51.2
324.896	30.72
325.109	16.38
325.322	55.3
325.535	45.06
325.748	75.77
325.962	-12.29
326.175	94.21
326.388	61.44
326.601	-12.29
326.814	34.82
327.027	16.38
327.24	96.25
327.453	38.91
327.666	51.2
327.879	73.73
328.092	40.96
328.305	71.68
328.518	-6.14
328.731	16.38
328.944	49.15
329.157	90.11
329.37	-71.68
329.583	98.3
329.796	16.38
330.009	18.43
330.222	4.1
330.435	81.92
330.648	-10.24
330.861	-18.43
331.073	-8.19
331.286	53.25
331.499	20.48
331.712	26.62
331.925	-14.34
332.138	102.4
332.35	45.06
332.563	10.24
332.776	90.11
332.989	-8.19
333.202	-26.62
333.414	-2.05
333.627	86.01
333.84	34.82
334.053	53.25
334.265	-20.48
334.478	-14.34
334.691	-6.14
334.903	112.64
335.116	65.53
335.329	-12.29
335.541	22.53
335.754	126.97
335.966	59.39
336.179	-14.34
336.392	14.34
336.604	30.72
336.817	57.34
337.029	71.68
337.242	-28.67
337.454	-6.14
337.667	32.77
337.88	22.53
338.092	-6.14
338.305	57.34
338.517	38.91
338.729	98.3
338.942	120.83
339.154	59.39
339.367	32.77
339.579	108.54
339.792	10.24
340.004	14.34
340.217	79.87
340.429	-22.53
340.641	65.53
340.854	45.06
341.066	6.14
341.278	45.06
341.491	116.73
341.703	6.14
341.915	43.01
342.128	40.96
342.34	122.88
342.552	-32.77
342.764	81.92
342.977	-10.24
343.189	34.82
343.401	32.77
343.613	12.29
343.826	79.87
344.038	18.43
344.25	57.34
344.462	40.96
344.674	34.82
344.886	32.77
345.099	112.64
345.311	51.2
345.523	20.48
345.735	61.44
345.947	53.25
346.159	-32.77
346.371	81.92
346.583	51.2
346.795	12.29
347.007	40.96
347.219	120.83
347.431	32.77
347.643	43.01
347.855	-75.77
348.067	47.1
348.279	-20.48
348.491	32.77
348.703	118.78
348.915	81.92
349.127	12.29
349.339	49.15
349.551	-10.24
349.763	61.44
349.975	18.43
350.187	49.15
350.399	77.82
350.61	10.24
350.822	63.49
351.034	112.64
351.246	-26.62
351.458	28.67
351.669	32.77
351.881	55.3
352.093	51.2
352.305	36.86
352.517	32.77
352.728	73.73
352.94	47.1
353.152	-24.58
353.363	20.48
353.575	-4.1
353.787	94.21
353.999	12.29
354.21	96.25
354.422	8.19
354.633	22.53
354.845	65.53
355.057	86.01
355.268	77.82
355.48	49.15
355.692	51.2
355.903	43.01
356.115	-26.62
356.326	-59.39
356.538	38.91
356.749	12.29
356.961	71.68
357.172	137.21
357.384	16.38
357.595	104.45
357.807	8.19
358.018	28.67
358.23	26.62
358.441	43.01
358.653	137.21
358.864	16.38
359.075	38.91
359.287	88.06
359.498	63.49
359.709	-2.05
359.921	59.39
360.132	73.73
360.344	63.49
360.555	-30.72
360.766	81.92
360.977	67.58
361.189	-10.24
361.4	69.63
361.611	81.92
361.823	116.73
362.034	53.25
362.245	30.72
362.456	53.25
362.667	116.73
362.879	69.63
363.09	4.1
363.301	49.15
363.512	32.77
363.723	-59.39
363.935	2.05
364.146	88.06
364.357	55.3
364.568	10.24
364.779	28.67
364.99	65.53
365.201	43.01
365.412	43.01
365.623	12.29
365.834	43.01
366.045	-8.19
366.256	90.11
366.467	133.12
366.678	8.19
366.889	-18.43
367.1	-0
367.311	81.92
367.522	22.53
367.733	47.1
367.944	94.21
368.155	-8.19
368.366	4.1
368.577	71.68
368.788	77.82
368.999	-14.34
369.209	67.58
369.42	112.64
369.631	65.53
369.842	49.15
370.053	30.72
370.264	22.53
370.474	-2.05
370.685	43.01
370.896	4.1
371.107	14.34
371.317	-32.77
371.528	-18.43
371.739	24.58
371.95	55.3
372.16	102.4
372.371	57.34
372.582	118.78
372.792	49.15
373.003	65.53
373.214	40.96
373.424	32.77
373.635	20.48
373.846	131.07
374.056	81.92
374.267	43.01
374.477	55.3
374.688	69.63
374.898	34.82
375.109	2.05
375.319	61.44
375.53	6.14
375.74	67.58
375.951	67.58
376.161	104.45
376.372	36.86
376.582	26.62
376.793	67.58
377.003	71.68
377.214	16.38
377.424	69.63
377.635	69.63
377.845	102.4
378.055	100.35
378.266	-14.34
378.476	110.59
378.686	145.41
378.897	61.44
379.107	77.82
379.317	-0
379.528	-65.54
379.738	53.25
379.948	18.43
380.158	100.35
380.369	36.86
380.579	69.63
380.789	12.29
380.999	14.34
381.21	51.2
381.42	139.26
381.63	51.2
381.84	116.73
382.05	10.24
382.261	34.82
382.471	114.69
382.681	106.49
382.891	6.14
383.101	96.25
383.311	61.44
383.521	65.53
383.731	75.77
383.941	55.3
384.151	79.87
384.361	38.91
384.571	30.72
384.781	118.78
384.991	75.77
385.201	14.34
385.411	6.14
385.621	40.96
385.831	8.19
386.041	88.06
386.251	12.29
386.461	-12.29
386.671	22.53
386.881	94.21
387.091	10.24
387.301	63.49
387.511	26.62
387.72	86.01
387.93	34.82
388.14	32.77
388.35	57.34
388.56	114.69
388.769	22.53
388.979	10.24
389.189	75.77
389.399	36.86
389.609	96.25
389.818	75.77
390.028	110.59
390.238	28.67
390.447	20.48
390.657	94.21
390.867	108.54
391.076	88.06
391.286	53.25
391.496	-20.48
391.705	-8.19
391.915	81.92
392.125	143.36
392.334	-10.24
392.544	98.3
392.753	102.4
392.963	26.62
393.172	135.17
393.382	73.73
393.591	57.34
393.801	61.44
394.01	79.87
394.22	88.06
394.429	53.25
394.639	38.91
394.848	77.82
395.058	47.1
395.267	73.73
395.477	92.16
395.686	83.97
395.895	43.01
396.105	90.11
396.314	81.92
396.524	10.24
396.733	-32.77
396.942	118.78
397.152	124.93
397.361	30.72
397.57	79.87
397.78	145.41
397.989	55.3
398.198	129.02
398.407	73.73
398.617	63.49
398.826	139.26
399.035	153.6
399.244	65.53
399.453	124.93
399.663	151.55
399.872	75.77
400.081	2.05
400.29	63.49
400.499	65.53
400.708	106.49
400.917	45.06
401.127	129.02
401.336	59.39
401.545	118.78
401.754	129.02
401.963	204.8
402.172	104.45
402.381	61.44
402.59	122.88
402.799	90.11
403.008	98.3
403.217	169.98
403.426	67.58
403.635	83.97
403.844	116.73
404.053	131.07
404.262	114.69
404.471	77.82
404.68	106.49
404.888	135.17
405.097	135.17
405.306	149.5
405.515	81.92
405.724	86.01
405.933	133.12
406.142	143.36
406.35	194.56
406.559	227.32
406.768	67.58
406.977	133.12
407.185	180.22
407.394	110.59
407.603	161.79
407.812	176.13
408.02	178.17
408.229	239.61
408.438	151.55
408.646	165.89
408.855	286.72
409.064	221.18
409.272	210.94
409.481	311.29
409.69	212.99
409.898	296.96
410.107	311.29
410.315	356.35
410.524	262.14
410.733	344.06
410.941	317.44
411.15	333.82
411.358	313.34
411.567	315.39
411.775	299
411.984	382.97
412.192	407.55
412.401	329.72
412.609	374.78
412.818	411.64
413.026	387.07
413.234	346.11
413.443	514.04
413.651	434.17
413.86	458.74
414.068	481.27
414.276	544.76
414.485	407.55
414.693	452.6
414.901	653.3
415.11	600.05
415.318	530.42
415.526	620.53
415.734	583.67
415.943	612.34
416.151	657.4
416.359	706.55
416.567	673.78
416.776	765.94
416.984	765.94
417.192	802.8
417.4	884.72
417.608	739.32
417.817	872.43
418.025	901.11
418.233	964.59
418.441	923.63
418.649	995.31
418.857	1097.71
419.065	1110
419.273	1071.09
419.481	1136.62
419.689	1181.68
419.897	1177.58
420.105	1261.55
420.313	1308.65
420.521	1386.47
420.729	1384.43
420.937	1325.04
421.145	1517.54
421.353	1578.98
421.561	1540.07
421.769	1624.04
421.977	1632.23
422.185	1636.33
422.393	1736.68
422.601	1927.14
422.809	1912.8
423.017	1861.6
423.224	2086.88
423.432	2168.8
423.64	2115.55
423.848	2332.64
424.056	2158.56
424.263	2375.64
424.471	2365.4
424.679	2291.68
424.887	2519
425.094	2754.52
425.302	2629.59
425.51	2729.94
425.718	2717.65
425.925	2912.21
426.133	2887.64
426.341	3061.71
426.548	3260.37
426.756	3198.93
426.964	3186.64
427.171	3393.48
427.379	3592.14
427.586	3661.77
427.794	3751.88
428.001	3925.96
428.209	4202.43
428.417	4040.64
428.624	4376.51
428.832	4257.73
429.039	4130.75
429.247	4265.92
429.454	4808.63
429.662	5142.45
429.869	4829.11
430.076	5062.58
430.284	4882.36
430.491	5171.12
430.699	5377.97
430.906	5375.92
431.114	5447.6
431.321	5660.59
431.528	5687.21
431.736	6027.17
431.943	6514.59
432.15	6262.69
432.358	6270.88
432.565	6700.95
432.772	6639.51
432.979	6887.32
433.187	7085.97
433.394	7147.41
433.601	7669.64
433.808	7659.4
434.016	7475.09
434.223	7845.77
434.43	8415.1
434.637	7923.59
434.844	8603.52
435.052	8849.27
435.259	8716.15
435.466	8845.18
435.673	8742.78
435.88	9402.22
436.087	9828.2
436.294	9785.19
436.501	9498.48
436.708	9926.5
436.915	10151.78
437.122	10575.71
437.329	10631.01
437.537	10981.21
437.743	11173.72
437.95	11151.19
438.157	11423.57
438.364	11888.46
438.571	11962.19
438.778	11919.18
438.985	13088.57
439.192	12484.42
439.399	12857.15
439.606	12879.68
439.813	13565.74
440.02	14362.4
440.227	14292.77
440.433	13965.1
440.64	14487.33
440.847	14208.81
441.054	14683.94
441.261	15560.47
441.467	15400.73
441.674	15884.05
441.881	16330.5
442.088	16293.64
442.294	16060.17
442.501	16502.53
442.708	16905.98
442.914	17600.24
443.121	18632.42
443.328	17813.23
443.534	19144.41
443.741	18405.1
443.948	18061.04
444.154	19635.92
444.361	19801.81
444.568	19652.31
444.774	19711.7
444.981	19785.43
445.187	20319.95
445.394	21335.74
445.6	21253.82
445.807	23000.74
446.013	22089.39
446.22	22593.19
446.426	23303.84
446.633	23414.43
446.839	24235.66
447.046	23457.43
447.252	24596.1
447.459	24532.62
447.665	24540.81
447.871	25659
448.078	27016.8
448.284	25521.79
448.491	26097.27
448.697	27213.41
448.903	27506.27
449.11	27786.84
449.316	27276.9
449.522	27698.78
449.728	28487.25
449.935	28933.7
450.141	28710.47
450.347	29341.25
450.553	28540.49
450.76	28933.7
450.966	29754.94
451.172	29300.29
451.378	30109.24
451.584	29814.33
451.791	30189.11
451.997	30250.55
452.203	30350.9
452.409	31069.73
452.615	30631.47
452.821	29470.27
453.027	29097.54
453.233	30535.21
453.44	29558.33
453.646	29986.36
453.852	29830.71
454.058	30850.6
454.264	29666.88
454.47	29976.12
454.676	29417.02
454.882	30336.56
455.088	27784.79
455.294	28069.46
455.5	28558.92
455.705	28663.37
455.911	27995.73
456.117	27184.74
456.323	26695.27
456.529	25183.87
456.735	26519.15
456.941	25527.93
457.147	25104
457.352	24473.23
457.558	24364.68
457.764	24630.92
457.97	24180.37
458.176	23404.19
458.381	23615.13
458.587	22511.27
458.793	22361.77
458.999	21188.28
459.204	22722.21
459.41	21913.27
459.616	20463.3
459.821	20541.13
460.027	20418.25
460.233	20131.53
460.438	18970.33
460.644	19447.51
460.85	18056.94
461.055	18063.08
461.261	18038.51
461.466	16754.43
461.672	16078.6
461.878	17401.59
462.083	16137.99
462.289	15855.37
462.494	15705.87
462.7	15157.02
462.905	14757.66
463.111	15292.18
463.316	15253.27
463.522	14825.25
463.727	14825.25
463.932	14839.58
464.138	14726.94
464.343	14864.16
464.549	14200.62
464.754	14661.41
464.959	14755.61
465.165	14567.2
465.37	13952.81
465.575	13561.65
465.781	14042.92
465.986	14024.49
466.191	13604.66
466.397	13334.32
466.602	12721.98
466.807	13184.82
467.012	13428.53
467.218	13199.16
467.423	13180.73
467.628	13045.56
467.833	13682.48
468.038	13156.15
