Data from USB4F104151__63__11-52-32-282.txt Node

Date: Fri Mar 14 11:52:32 EDT 2025
User: louis
Spectrometer: USB4F10415
Trigger mode: 4
Integration Time (sec): 2.000000E-2
Scans to average: 1
Electric dark correction enabled: true
Nonlinearity correction enabled: false
Boxcar width: 0
XAxis mode: Wavelengths
Number of Pixels in Spectrum: 3648
>>>>>Begin Spectral Data<<<<<
178.204	-53.25
178.424	-53.25
178.644	-53.25
178.864	-124.93
179.084	-63.49
179.304	-10.24
179.524	-2.05
179.744	-12.29
179.964	2.05
180.184	-12.29
180.404	51.2
180.624	65.53
180.844	-6.14
181.064	-32.77
181.283	-22.53
181.503	14.34
181.723	-34.82
181.943	6.14
182.163	16.38
182.383	-61.44
182.602	34.82
182.822	96.25
183.042	57.34
183.262	32.77
183.482	30.72
183.701	67.58
183.921	77.82
184.141	-16.38
184.361	118.78
184.58	94.21
184.8	-0
185.02	88.06
185.239	26.62
185.459	6.14
185.679	34.82
185.898	12.29
186.118	63.49
186.338	67.58
186.557	16.38
186.777	4.1
186.997	47.1
187.216	38.91
187.436	63.49
187.655	32.77
187.875	12.29
188.095	-24.58
188.314	65.53
188.534	8.19
188.753	53.25
188.973	77.82
189.192	8.19
189.412	112.64
189.631	8.19
189.851	18.43
190.07	43.01
190.29	20.48
190.509	10.24
190.729	-69.63
190.948	61.44
191.168	122.88
191.387	96.25
191.607	69.63
191.826	55.3
192.045	73.73
192.265	30.72
192.484	24.58
192.704	38.91
192.923	-40.96
193.142	133.12
193.362	-40.96
193.581	59.39
193.8	57.34
194.02	114.69
194.239	4.1
194.458	34.82
194.678	49.15
194.897	83.97
195.116	77.82
195.335	14.34
195.555	67.58
195.774	61.44
195.993	96.25
196.212	40.96
196.432	-12.29
196.651	71.68
196.87	-47.1
197.089	40.96
197.308	47.1
197.528	47.1
197.747	47.1
197.966	49.15
198.185	47.1
198.404	59.39
198.623	-4.1
198.842	63.49
199.062	79.87
199.281	53.25
199.5	83.97
199.719	12.29
199.938	77.82
200.157	18.43
200.376	43.01
200.595	20.48
200.814	30.72
201.033	32.77
201.252	75.77
201.471	69.63
201.69	77.82
201.909	55.3
202.128	-26.62
202.347	59.39
202.566	-12.29
202.785	6.14
203.004	-2.05
203.223	51.2
203.442	-6.14
203.661	32.77
203.879	-6.14
204.098	38.91
204.317	30.72
204.536	-43.01
204.755	34.82
204.974	26.62
205.193	106.49
205.411	75.77
205.63	4.1
205.849	139.26
206.068	4.1
206.287	28.67
206.505	49.15
206.724	16.38
206.943	-12.29
207.162	45.06
207.381	-20.48
207.599	-43.01
207.818	-28.67
208.037	-36.86
208.255	49.15
208.474	40.96
208.693	12.29
208.911	-6.14
209.13	59.39
209.349	18.43
209.567	-26.62
209.786	86.01
210.005	8.19
210.223	30.72
210.442	26.62
210.661	49.15
210.879	-38.91
211.098	-18.43
211.316	45.06
211.535	73.73
211.753	63.49
211.972	28.67
212.191	36.86
212.409	61.44
212.628	12.29
212.846	73.73
213.065	22.53
213.283	-14.34
213.502	53.25
213.72	116.73
213.938	10.24
214.157	51.2
214.375	-26.62
214.594	88.06
214.812	43.01
215.031	47.1
215.249	28.67
215.467	-2.05
215.686	65.53
215.904	-34.82
216.122	63.49
216.341	92.16
216.559	43.01
216.778	57.34
216.996	69.63
217.214	63.49
217.432	81.92
217.651	69.63
217.869	77.82
218.087	-12.29
218.306	-16.38
218.524	83.97
218.742	8.19
218.96	8.19
219.179	14.34
219.397	63.49
219.615	51.2
219.833	104.45
220.051	40.96
220.27	47.1
220.488	61.44
220.706	36.86
220.924	32.77
221.142	53.25
221.36	4.1
221.578	18.43
221.796	-26.62
222.015	63.49
222.233	45.06
222.451	26.62
222.669	26.62
222.887	22.53
223.105	-32.77
223.323	6.14
223.541	-0
223.759	65.53
223.977	49.15
224.195	63.49
224.413	-24.58
224.631	141.31
224.849	-14.34
225.067	86.01
225.285	38.91
225.503	-55.3
225.721	51.2
225.939	-12.29
226.157	102.4
226.375	73.73
226.592	102.4
226.81	36.86
227.028	57.34
227.246	71.68
227.464	36.86
227.682	45.06
227.9	65.53
228.117	69.63
228.335	-8.19
228.553	18.43
228.771	77.82
228.989	75.77
229.206	120.83
229.424	24.58
229.642	-0
229.86	55.3
230.077	14.34
230.295	-10.24
230.513	61.44
230.731	36.86
230.948	120.83
231.166	100.35
231.384	77.82
231.601	12.29
231.819	45.06
232.037	32.77
232.254	-26.62
232.472	77.82
232.689	40.96
232.907	100.35
233.125	-30.72
233.342	73.73
233.56	16.38
233.777	38.91
233.995	8.19
234.213	36.86
234.43	26.62
234.648	4.1
234.865	-32.77
235.083	12.29
235.3	36.86
235.518	73.73
235.735	-32.77
235.953	106.49
236.17	108.54
236.388	-36.86
236.605	18.43
236.822	77.82
237.04	43.01
237.257	75.77
237.475	176.13
237.692	43.01
237.909	-28.67
238.127	32.77
238.344	90.11
238.562	77.82
238.779	10.24
238.996	67.58
239.214	49.15
239.431	28.67
239.648	106.49
239.865	12.29
240.083	67.58
240.3	-51.2
240.517	88.06
240.735	18.43
240.952	-34.82
241.169	49.15
241.386	69.63
241.603	75.77
241.821	34.82
242.038	22.53
242.255	16.38
242.472	2.05
242.689	135.17
242.907	8.19
243.124	67.58
243.341	57.34
243.558	30.72
243.775	4.1
243.992	-34.82
244.209	43.01
244.426	94.21
244.643	86.01
244.86	63.49
245.078	51.2
245.295	4.1
245.512	30.72
245.729	22.53
245.946	26.62
246.163	4.1
246.38	28.67
246.597	10.24
246.814	65.53
247.031	36.86
247.248	32.77
247.464	81.92
247.681	40.96
247.898	36.86
248.115	55.3
248.332	-10.24
248.549	86.01
248.766	57.34
248.983	49.15
249.2	88.06
249.417	2.05
249.633	36.86
249.85	20.48
250.067	102.4
250.284	-16.38
250.501	34.82
250.717	88.06
250.934	2.05
251.151	2.05
251.368	94.21
251.585	22.53
251.801	49.15
252.018	18.43
252.235	59.39
252.451	-53.25
252.668	63.49
252.885	122.88
253.102	71.68
253.318	40.96
253.535	45.06
253.752	43.01
253.968	18.43
254.185	30.72
254.401	79.87
254.618	57.34
254.835	-40.96
255.051	18.43
255.268	90.11
255.484	73.73
255.701	10.24
255.917	51.2
256.134	69.63
256.351	57.34
256.567	-14.34
256.784	53.25
257	-16.38
257.217	65.53
257.433	71.68
257.65	22.53
257.866	77.82
258.082	34.82
258.299	-10.24
258.515	100.35
258.732	-20.48
258.948	22.53
259.165	116.73
259.381	-6.14
259.597	40.96
259.814	8.19
260.03	34.82
260.246	34.82
260.463	34.82
260.679	32.77
260.895	6.14
261.112	6.14
261.328	-2.05
261.544	8.19
261.761	18.43
261.977	6.14
262.193	86.01
262.409	69.63
262.626	36.86
262.842	65.53
263.058	-16.38
263.274	55.3
263.49	40.96
263.707	71.68
263.923	36.86
264.139	6.14
264.355	36.86
264.571	126.97
264.787	90.11
265.004	61.44
265.22	36.86
265.436	51.2
265.652	36.86
265.868	53.25
266.084	16.38
266.3	20.48
266.516	-22.53
266.732	55.3
266.948	49.15
267.164	26.62
267.38	43.01
267.596	26.62
267.812	73.73
268.028	18.43
268.244	-40.96
268.46	83.97
268.676	63.49
268.892	73.73
269.108	14.34
269.324	53.25
269.54	36.86
269.756	94.21
269.972	-38.91
270.188	65.53
270.403	57.34
270.619	-4.1
270.835	49.15
271.051	24.58
271.267	45.06
271.483	67.58
271.698	59.39
271.914	98.3
272.13	8.19
272.346	98.3
272.562	-12.29
272.777	22.53
272.993	75.77
273.209	71.68
273.425	79.87
273.64	147.45
273.856	77.82
274.072	14.34
274.287	16.38
274.503	73.73
274.719	36.86
274.934	108.54
275.15	14.34
275.366	86.01
275.581	32.77
275.797	-34.82
276.012	36.86
276.228	-67.58
276.444	57.34
276.659	65.53
276.875	32.77
277.09	40.96
277.306	-2.05
277.521	-6.14
277.737	63.49
277.952	69.63
278.168	92.16
278.383	55.3
278.599	8.19
278.814	34.82
279.03	49.15
279.245	73.73
279.461	26.62
279.676	45.06
279.892	45.06
280.107	-0
280.322	28.67
280.538	122.88
280.753	-28.67
280.969	90.11
281.184	-47.1
281.399	102.4
281.615	32.77
281.83	8.19
282.045	124.93
282.26	98.3
282.476	12.29
282.691	6.14
282.906	22.53
283.122	59.39
283.337	-34.82
283.552	45.06
283.767	-0
283.983	67.58
284.198	-12.29
284.413	61.44
284.628	-0
284.843	4.1
285.058	108.54
285.274	83.97
285.489	6.14
285.704	30.72
285.919	14.34
286.134	-38.91
286.349	69.63
286.564	4.1
286.779	53.25
286.995	53.25
287.21	-10.24
287.425	-4.1
287.64	81.92
287.855	96.25
288.07	34.82
288.285	38.91
288.5	49.15
288.715	110.59
288.93	-8.19
289.145	73.73
289.36	104.45
289.575	81.92
289.79	96.25
290.004	32.77
290.219	118.78
290.434	-12.29
290.649	110.59
290.864	49.15
291.079	36.86
291.294	86.01
291.509	114.69
291.724	71.68
291.938	38.91
292.153	57.34
292.368	55.3
292.583	65.53
292.798	63.49
293.012	135.17
293.227	55.3
293.442	28.67
293.657	43.01
293.871	57.34
294.086	38.91
294.301	67.58
294.516	16.38
294.73	100.35
294.945	53.25
295.16	53.25
295.374	14.34
295.589	106.49
295.804	67.58
296.018	-49.15
296.233	86.01
296.447	49.15
296.662	-4.1
296.877	49.15
297.091	79.87
297.306	32.77
297.52	75.77
297.735	34.82
297.949	-0
298.164	40.96
298.378	59.39
298.593	73.73
298.807	75.77
299.022	104.45
299.236	45.06
299.451	100.35
299.665	20.48
299.88	40.96
300.094	28.67
300.309	24.58
300.523	8.19
300.737	-6.14
300.952	69.63
301.166	67.58
301.381	30.72
301.595	32.77
301.809	45.06
302.024	104.45
302.238	-0
302.452	43.01
302.667	55.3
302.881	-20.48
303.095	43.01
303.309	53.25
303.524	28.67
303.738	59.39
303.952	22.53
304.166	18.43
304.381	-14.34
304.595	131.07
304.809	24.58
305.023	57.34
305.237	-22.53
305.452	55.3
305.666	18.43
305.88	75.77
306.094	32.77
306.308	55.3
306.522	71.68
306.736	-0
306.95	61.44
307.164	26.62
307.379	14.34
307.593	75.77
307.807	81.92
308.021	61.44
308.235	32.77
308.449	86.01
308.663	43.01
308.877	122.88
309.091	73.73
309.305	59.39
309.519	-8.19
309.733	32.77
309.947	53.25
310.161	2.05
310.374	77.82
310.588	18.43
310.802	24.58
311.016	122.88
311.23	59.39
311.444	75.77
311.658	51.2
311.872	12.29
312.085	126.97
312.299	100.35
312.513	90.11
312.727	65.53
312.941	88.06
313.154	34.82
313.368	22.53
313.582	73.73
313.796	79.87
314.009	28.67
314.223	81.92
314.437	65.53
314.651	34.82
314.864	20.48
315.078	61.44
315.292	53.25
315.505	59.39
315.719	18.43
315.933	83.97
316.146	112.64
316.36	98.3
316.573	104.45
316.787	38.91
317.001	28.67
317.214	-0
317.428	69.63
317.641	55.3
317.855	51.2
318.068	77.82
318.282	61.44
318.495	137.21
318.709	108.54
318.922	-2.05
319.136	53.25
319.349	83.97
319.563	51.2
319.776	57.34
319.99	14.34
320.203	28.67
320.417	77.82
320.63	-8.19
320.843	143.36
321.057	69.63
321.27	59.39
321.483	32.77
321.697	83.97
321.91	43.01
322.124	55.3
322.337	59.39
322.55	22.53
322.763	73.73
322.977	12.29
323.19	28.67
323.403	55.3
323.617	-77.82
323.83	59.39
324.043	8.19
324.256	43.01
324.469	14.34
324.683	43.01
324.896	18.43
325.109	110.59
325.322	49.15
325.535	100.35
325.748	69.63
325.962	63.49
326.175	28.67
326.388	65.53
326.601	141.31
326.814	38.91
327.027	26.62
327.24	63.49
327.453	-4.1
327.666	18.43
327.879	131.07
328.092	65.53
328.305	20.48
328.518	81.92
328.731	77.82
328.944	90.11
329.157	57.34
329.37	12.29
329.583	-10.24
329.796	92.16
330.009	14.34
330.222	63.49
330.435	8.19
330.648	24.58
330.861	43.01
331.073	32.77
331.286	77.82
331.499	51.2
331.712	57.34
331.925	20.48
332.138	20.48
332.35	83.97
332.563	71.68
332.776	30.72
332.989	8.19
333.202	49.15
333.414	94.21
333.627	53.25
333.84	-0
334.053	36.86
334.265	-22.53
334.478	53.25
334.691	-14.34
334.903	6.14
335.116	-4.1
335.329	96.25
335.541	100.35
335.754	61.44
335.966	61.44
336.179	24.58
336.392	12.29
336.604	28.67
336.817	36.86
337.029	28.67
337.242	28.67
337.454	55.3
337.667	59.39
337.88	79.87
338.092	77.82
338.305	86.01
338.517	-28.67
338.729	94.21
338.942	45.06
339.154	65.53
339.367	59.39
339.579	47.1
339.792	26.62
340.004	110.59
340.217	22.53
340.429	81.92
340.641	30.72
340.854	49.15
341.066	86.01
341.278	77.82
341.491	106.49
341.703	57.34
341.915	-47.1
342.128	22.53
342.34	32.77
342.552	24.58
342.764	-12.29
342.977	51.2
343.189	86.01
343.401	151.55
343.613	67.58
343.826	67.58
344.038	59.39
344.25	24.58
344.462	57.34
344.674	-4.1
344.886	40.96
345.099	53.25
345.311	73.73
345.523	57.34
345.735	53.25
345.947	106.49
346.159	61.44
346.371	118.78
346.583	51.2
346.795	69.63
347.007	79.87
347.219	45.06
347.431	65.53
347.643	75.77
347.855	57.34
348.067	45.06
348.279	69.63
348.491	135.17
348.703	94.21
348.915	8.19
349.127	22.53
349.339	49.15
349.551	30.72
349.763	75.77
349.975	114.69
350.187	-4.1
350.399	61.44
350.61	96.25
350.822	79.87
351.034	16.38
351.246	26.62
351.458	63.49
351.669	20.48
351.881	86.01
352.093	24.58
352.305	67.58
352.517	71.68
352.728	49.15
352.94	124.93
353.152	73.73
353.363	22.53
353.575	81.92
353.787	96.25
353.999	92.16
354.21	38.91
354.422	45.06
354.633	61.44
354.845	53.25
355.057	141.31
355.268	24.58
355.48	49.15
355.692	-49.15
355.903	94.21
356.115	34.82
356.326	49.15
356.538	79.87
356.749	73.73
356.961	47.1
357.172	53.25
357.384	-20.48
357.595	104.45
357.807	104.45
358.018	81.92
358.23	24.58
358.441	106.49
358.653	88.06
358.864	71.68
359.075	83.97
359.287	112.64
359.498	14.34
359.709	77.82
359.921	92.16
360.132	45.06
360.344	43.01
360.555	124.93
360.766	77.82
360.977	73.73
361.189	34.82
361.4	47.1
361.611	69.63
361.823	114.69
362.034	75.77
362.245	12.29
362.456	45.06
362.667	45.06
362.879	159.74
363.09	67.58
363.301	153.6
363.512	-10.24
363.723	22.53
363.935	12.29
364.146	73.73
364.357	81.92
364.568	114.69
364.779	79.87
364.99	96.25
365.201	51.2
365.412	-20.48
365.623	75.77
365.834	122.88
366.045	24.58
366.256	77.82
366.467	57.34
366.678	28.67
366.889	55.3
367.1	102.4
367.311	40.96
367.522	120.83
367.733	63.49
367.944	38.91
368.155	69.63
368.366	88.06
368.577	67.58
368.788	63.49
368.999	-14.34
369.209	65.53
369.42	118.78
369.631	38.91
369.842	40.96
370.053	63.49
370.264	71.68
370.474	57.34
370.685	100.35
370.896	63.49
371.107	32.77
371.317	79.87
371.528	8.19
371.739	40.96
371.95	57.34
372.16	81.92
372.371	65.53
372.582	45.06
372.792	10.24
373.003	129.02
373.214	-4.1
373.424	135.17
373.635	20.48
373.846	4.1
374.056	86.01
374.267	159.74
374.477	18.43
374.688	73.73
374.898	32.77
375.109	180.22
375.319	94.21
375.53	137.21
375.74	86.01
375.951	16.38
376.161	-6.14
376.372	57.34
376.582	-26.62
376.793	20.48
377.003	45.06
377.214	102.4
377.424	108.54
377.635	143.36
377.845	24.58
378.055	81.92
378.266	79.87
378.476	55.3
378.686	81.92
378.897	38.91
379.107	77.82
379.317	57.34
379.528	49.15
379.738	106.49
379.948	38.91
380.158	61.44
380.369	86.01
380.579	106.49
380.789	57.34
380.999	106.49
381.21	98.3
381.42	114.69
381.63	-12.29
381.84	55.3
382.05	61.44
382.261	88.06
382.471	77.82
382.681	51.2
382.891	81.92
383.101	61.44
383.311	18.43
383.521	106.49
383.731	61.44
383.941	47.1
384.151	100.35
384.361	57.34
384.571	49.15
384.781	106.49
384.991	108.54
385.201	102.4
385.411	53.25
385.621	32.77
385.831	43.01
386.041	43.01
386.251	75.77
386.461	10.24
386.671	24.58
386.881	88.06
387.091	24.58
387.301	106.49
387.511	45.06
387.72	114.69
387.93	49.15
388.14	36.86
388.35	65.53
388.56	167.93
388.769	55.3
388.979	10.24
389.189	65.53
389.399	47.1
389.609	86.01
389.818	47.1
390.028	-18.43
390.238	126.97
390.447	57.34
390.657	77.82
390.867	53.25
391.076	88.06
391.286	106.49
391.496	-0
391.705	22.53
391.915	75.77
392.125	92.16
392.334	14.34
392.544	71.68
392.753	53.25
392.963	83.97
393.172	55.3
393.382	71.68
393.591	116.73
393.801	43.01
394.01	143.36
394.22	47.1
394.429	57.34
394.639	94.21
394.848	139.26
395.058	65.53
395.267	14.34
395.477	88.06
395.686	100.35
395.895	133.12
396.105	163.84
396.314	131.07
396.524	163.84
396.733	71.68
396.942	53.25
397.152	79.87
397.361	126.97
397.57	81.92
397.78	75.77
397.989	145.41
398.198	34.82
398.407	92.16
398.617	110.59
398.826	114.69
399.035	155.65
399.244	59.39
399.453	174.08
399.663	161.79
399.872	118.78
400.081	135.17
400.29	151.55
400.499	116.73
400.708	141.31
400.917	143.36
401.127	63.49
401.336	151.55
401.545	165.89
401.754	141.31
401.963	96.25
402.172	120.83
402.381	73.73
402.59	102.4
402.799	153.6
403.008	16.38
403.217	110.59
403.426	172.03
403.635	94.21
403.844	141.31
404.053	75.77
404.262	133.12
404.471	169.98
404.68	114.69
404.888	196.6
405.097	221.18
405.306	280.57
405.515	178.17
405.724	149.5
405.933	198.65
406.142	188.41
406.35	231.42
406.559	210.94
406.768	196.6
406.977	264.19
407.185	190.46
407.394	266.24
407.603	215.04
407.812	305.15
408.02	245.76
408.229	266.24
408.438	206.84
408.646	286.72
408.855	288.76
409.064	253.95
409.272	233.47
409.481	352.25
409.69	282.62
409.898	335.87
410.107	290.81
410.315	448.51
410.524	382.97
410.733	364.54
410.941	319.48
411.15	425.98
411.358	473.08
411.567	487.42
411.775	391.16
411.984	436.22
412.192	407.55
412.401	454.65
412.609	528.38
412.818	606.2
413.026	540.66
413.234	491.51
413.443	536.57
413.651	540.66
413.86	585.72
414.068	710.65
414.276	686.07
414.485	745.46
414.693	638.97
414.901	716.79
415.11	710.65
415.318	673.78
415.526	847.86
415.734	815.09
415.943	892.91
416.151	884.72
416.359	872.43
416.567	862.19
416.776	958.45
416.984	1011.7
417.192	1075.18
417.4	1064.94
417.608	1069.04
417.817	1120.24
418.025	1122.29
418.233	1302.51
418.441	1193.97
418.649	1261.55
418.857	1279.98
419.065	1441.77
419.273	1427.43
419.481	1476.59
419.689	1435.63
419.897	1495.02
420.105	1546.22
420.313	1677.29
420.521	1826.79
420.729	1605.61
420.937	1837.03
421.145	1861.6
421.353	1980.39
421.561	2002.91
421.769	2076.64
421.977	2064.35
422.185	2099.17
422.393	2191.33
422.601	2459.61
422.809	2416.6
423.017	2430.94
423.224	2521.05
423.432	2537.43
423.64	2684.89
423.848	2834.39
424.056	2897.88
424.263	3041.23
424.471	2957.27
424.679	3057.62
424.887	3172.3
425.094	3268.56
425.302	3346.38
425.51	3332.05
425.718	3514.31
425.925	3590.09
426.133	3626.95
426.341	3796.93
426.548	4171.71
426.756	4022.21
426.964	4061.12
427.171	4409.28
427.379	4474.81
427.586	4536.25
427.794	4747.19
428.001	5023.67
428.209	5130.16
428.417	5085.11
428.624	5363.63
428.832	5244.85
429.039	5474.22
429.247	5490.6
429.454	5914.53
429.662	6254.5
429.869	5971.88
430.076	6283.17
430.284	6012.84
430.491	6258.59
430.699	6694.81
430.906	6782.87
431.114	6844.31
431.321	7229.33
431.528	7214.99
431.736	7702.41
431.943	7919.5
432.15	7804.81
432.358	8071.04
432.565	8312.71
432.772	8333.18
432.979	8742.78
433.187	9002.87
433.394	9066.36
433.601	9641.84
433.808	9625.45
434.016	9400.18
434.223	9994.09
434.43	10592.09
434.637	10260.32
434.844	10948.44
435.052	11177.81
435.259	11065.18
435.466	11278.16
435.673	11294.55
435.88	11896.65
436.087	12390.21
436.294	12568.38
436.501	12234.57
436.708	12502.85
436.915	13109.05
437.122	13442.87
437.329	13436.72
437.537	13754.16
437.743	14028.59
437.95	13922.09
438.157	14710.56
438.364	15193.88
438.571	15091.48
438.778	15179.54
438.985	16602.88
439.192	15996.68
439.399	16500.48
439.606	16068.36
439.813	17137.4
440.02	17794.8
440.227	17594.1
440.433	17524.47
440.64	18009.84
440.847	18038.51
441.054	18607.84
441.261	19701.46
441.467	19666.64
441.674	19910.35
441.881	20762.31
442.088	20412.1
442.294	20362.95
442.501	20735.68
442.708	21518.01
442.914	22140.59
443.121	23068.32
443.328	22398.63
443.534	23930.51
443.741	23557.78
443.948	23312.03
444.154	24901.25
444.361	24489.61
444.568	24934.02
444.774	24755.85
444.981	25036.42
445.187	25884.28
445.394	26996.32
445.6	26330.73
445.807	29072.96
446.013	27745.88
446.22	28167.76
446.426	29455.93
446.633	29767.23
446.839	30637.61
447.046	29587
447.252	30807.59
447.459	31114.79
447.665	31233.57
447.871	32386.58
448.078	34108.92
448.284	32103.96
448.491	32849.42
448.697	34522.61
448.903	34967.02
449.11	34936.3
449.316	34672.11
449.522	35122.66
449.728	36275.67
449.935	36537.81
450.141	36218.33
450.347	37283.27
450.553	36052.44
450.76	36275.67
450.966	37907.9
451.172	36982.22
451.378	38213.05
451.584	37508.55
451.791	38802.86
451.997	38344.12
452.203	39046.57
452.409	39015.85
452.615	38309.3
452.821	37119.43
453.027	36863.44
453.233	38845.87
453.44	37039.56
453.646	37569.99
453.852	38147.51
454.058	38159.8
454.264	37078.47
454.47	38354.36
454.676	37266.89
454.882	38311.35
455.088	35345.89
455.294	35755.49
455.5	36185.56
455.705	36888.01
455.911	35397.09
456.117	34448.88
456.323	33758.72
456.529	32460.3
456.735	33672.7
456.941	32773.64
457.147	32181.78
457.352	31086.12
457.558	31102.5
457.764	30920.23
457.97	30379.57
458.176	30012.98
458.381	29855.29
458.587	28042.84
458.793	28825.16
458.999	26902.12
459.204	28710.47
459.41	27627.1
459.616	26269.3
459.821	25880.18
460.027	26181.23
460.233	25515.64
460.438	24290.96
460.644	24575.62
460.85	23563.93
461.055	23121.57
461.261	22881.95
461.466	21149.37
461.672	20616.9
461.878	22308.52
462.083	20950.72
462.289	20180.68
462.494	20213.45
462.7	19304.15
462.905	18835.17
463.111	19607.25
463.316	19525.33
463.522	18843.36
463.727	19285.72
463.932	18802.4
464.138	18669.28
464.343	18882.27
464.549	18355.94
464.754	19007.2
464.959	18972.38
465.165	18372.33
465.37	17475.32
465.575	17362.68
465.781	18044.65
465.986	18185.96
466.191	17645.3
466.397	16953.09
466.602	16422.66
466.807	16905.98
467.012	17145.59
467.218	16955.13
467.423	16654.08
