Data from USB4F104151__23__11-51-28-209.txt Node

Date: Fri Mar 14 11:51:28 EDT 2025
User: louis
Spectrometer: USB4F10415
Trigger mode: 4
Integration Time (sec): 2.000000E-2
Scans to average: 1
Electric dark correction enabled: true
Nonlinearity correction enabled: false
Boxcar width: 0
XAxis mode: Wavelengths
Number of Pixels in Spectrum: 3648
>>>>>Begin Spectral Data<<<<<
178.204	-34.99
178.424	-34.99
178.644	-34.99
178.864	-121
179.084	-110.76
179.304	-12.46
179.524	26.45
179.744	-65.71
179.964	55.12
180.184	-20.65
180.404	71.51
180.624	-30.89
180.844	-45.23
181.064	3.93
181.283	69.46
181.503	-18.6
181.723	-32.94
181.943	-69.8
182.163	110.42
182.383	-26.79
182.602	42.84
182.822	87.89
183.042	-14.51
183.262	30.55
183.482	46.93
183.701	-32.94
183.921	-51.37
184.141	-14.51
184.361	22.36
184.58	-0.17
184.8	98.13
185.02	24.4
185.239	14.17
185.459	12.12
185.679	83.8
185.898	-65.71
186.118	55.12
186.338	-26.79
186.557	38.74
186.777	3.93
186.997	32.6
187.216	32.6
187.436	46.93
187.655	38.74
187.875	75.6
188.095	40.79
188.314	-41.13
188.534	22.36
188.753	-22.7
188.973	61.27
189.192	67.41
189.412	77.65
189.631	51.03
189.851	5.97
190.07	20.31
190.29	22.36
190.509	-6.31
190.729	22.36
190.948	30.55
191.168	59.22
191.387	91.99
191.607	18.26
191.826	65.36
192.045	-65.71
192.265	32.6
192.484	30.55
192.704	-10.41
192.923	-55.47
193.142	122.71
193.362	32.6
193.581	14.17
193.8	14.17
194.02	20.31
194.239	67.41
194.458	36.69
194.678	51.03
194.897	48.98
195.116	1.88
195.335	12.12
195.555	32.6
195.774	96.08
195.993	16.21
196.212	-37.03
196.432	32.6
196.651	61.27
196.87	14.17
197.089	79.7
197.308	10.07
197.528	55.12
197.747	-57.51
197.966	-4.27
198.185	5.97
198.404	65.36
198.623	-4.27
198.842	-8.36
199.062	53.08
199.281	83.8
199.5	73.56
199.719	32.6
199.938	77.65
200.157	1.88
200.376	-16.55
200.595	98.13
200.814	3.93
201.033	26.45
201.252	48.98
201.471	65.36
201.69	100.18
201.909	10.07
202.128	69.46
202.347	59.22
202.566	-86.19
202.785	32.6
203.004	-61.61
203.223	96.08
203.442	65.36
203.661	-80.04
203.879	32.6
204.098	75.6
204.317	42.84
204.536	20.31
204.755	53.08
204.974	24.4
205.193	5.97
205.411	61.27
205.63	16.21
205.849	26.45
206.068	77.65
206.287	65.36
206.505	36.69
206.724	18.26
206.943	69.46
207.162	16.21
207.381	-26.79
207.599	53.08
207.818	81.75
208.037	-82.09
208.255	46.93
208.474	10.07
208.693	46.93
208.911	36.69
209.13	79.7
209.349	48.98
209.567	44.88
209.786	63.32
210.005	18.26
210.223	36.69
210.442	-14.51
210.661	3.93
210.879	55.12
211.098	55.12
211.316	-24.75
211.535	32.6
211.753	32.6
211.972	-8.36
212.191	63.32
212.409	28.5
212.628	-55.47
212.846	32.6
213.065	40.79
213.283	36.69
213.502	63.32
213.72	81.75
213.938	34.64
214.157	-12.46
214.375	57.17
214.594	96.08
214.812	-8.36
215.031	59.22
215.249	3.93
215.467	24.4
215.686	18.26
215.904	67.41
216.122	24.4
216.341	34.64
216.559	28.5
216.778	44.88
216.996	-37.03
217.214	30.55
217.432	55.12
217.651	-12.46
217.869	18.26
218.087	12.12
218.306	-18.6
218.524	130.9
218.742	55.12
218.96	-8.36
219.179	-20.65
219.397	20.31
219.615	-16.55
219.833	53.08
220.051	-12.46
220.27	24.4
220.488	36.69
220.706	36.69
220.924	55.12
221.142	32.6
221.36	3.93
221.578	100.18
221.796	28.5
222.015	26.45
222.233	61.27
222.451	-55.47
222.669	22.36
222.887	71.51
223.105	42.84
223.323	24.4
223.541	-6.31
223.759	20.31
223.977	44.88
224.195	18.26
224.413	-0.17
224.631	65.36
224.849	-14.51
225.067	91.99
225.285	-30.89
225.503	63.32
225.721	40.79
225.939	57.17
226.157	-22.7
226.375	59.22
226.592	-22.7
226.81	-18.6
227.028	22.36
227.246	77.65
227.464	-41.13
227.682	104.28
227.9	61.27
228.117	81.75
228.335	53.08
228.553	20.31
228.771	59.22
228.989	-16.55
229.206	61.27
229.424	-45.23
229.642	46.93
229.86	10.07
230.077	36.69
230.295	46.93
230.513	46.93
230.731	57.17
230.948	24.4
231.166	28.5
231.384	46.93
231.601	-45.23
231.819	32.6
232.037	120.66
232.254	24.4
232.472	77.65
232.689	91.99
232.907	-18.6
233.125	44.88
233.342	14.17
233.56	10.07
233.777	48.98
233.995	12.12
234.213	67.41
234.43	12.12
234.648	-14.51
234.865	98.13
235.083	1.88
235.3	53.08
235.518	10.07
235.735	28.5
235.953	77.65
236.17	89.94
236.388	67.41
236.605	59.22
236.822	26.45
237.04	22.36
237.257	-24.75
237.475	28.5
237.692	51.03
237.909	12.12
238.127	8.02
238.344	-16.55
238.562	26.45
238.779	18.26
238.996	69.46
239.214	71.51
239.431	155.47
239.648	5.97
239.865	16.21
240.083	18.26
240.3	36.69
240.517	8.02
240.735	-18.6
240.952	57.17
241.169	12.12
241.386	53.08
241.603	1.88
241.821	57.17
242.038	42.84
242.255	28.5
242.472	-37.03
242.689	-37.03
242.907	55.12
243.124	59.22
243.341	63.32
243.558	24.4
243.775	79.7
243.992	-39.08
244.209	12.12
244.426	85.84
244.643	65.36
244.86	53.08
245.078	67.41
245.295	46.93
245.512	32.6
245.729	22.36
245.946	53.08
246.163	30.55
246.38	34.64
246.597	87.89
246.814	61.27
247.031	8.02
247.248	51.03
247.464	-4.27
247.681	38.74
247.898	30.55
248.115	24.4
248.332	-16.55
248.549	71.51
248.766	20.31
248.983	-4.27
249.2	18.26
249.417	-26.79
249.633	24.4
249.85	67.41
250.067	28.5
250.284	-8.36
250.501	71.51
250.717	16.21
250.934	-16.55
251.151	-16.55
251.368	-45.23
251.585	36.69
251.801	16.21
252.018	8.02
252.235	85.84
252.451	83.8
252.668	8.02
252.885	-18.6
253.102	75.6
253.318	108.37
253.535	-26.79
253.752	26.45
253.968	-0.17
254.185	59.22
254.401	-24.75
254.618	71.51
254.835	8.02
255.051	151.38
255.268	18.26
255.484	8.02
255.701	98.13
255.917	12.12
256.134	-22.7
256.351	42.84
256.567	-39.08
256.784	-12.46
257	20.31
257.217	48.98
257.433	28.5
257.65	-43.18
257.866	36.69
258.082	14.17
258.299	1.88
258.515	34.64
258.732	36.69
258.948	63.32
259.165	116.56
259.381	-0.17
259.597	77.65
259.814	-2.22
260.03	46.93
260.246	38.74
260.463	135
260.679	94.04
260.895	5.97
261.112	57.17
261.328	14.17
261.544	10.07
261.761	34.64
261.977	-18.6
262.193	-0.17
262.409	-20.65
262.626	3.93
262.842	18.26
263.058	-12.46
263.274	79.7
263.49	-8.36
263.707	18.26
263.923	-22.7
264.139	28.5
264.355	-22.7
264.571	83.8
264.787	-39.08
265.004	48.98
265.22	20.31
265.436	87.89
265.652	38.74
265.868	98.13
266.084	1.88
266.3	32.6
266.516	-4.27
266.732	57.17
266.948	32.6
267.164	14.17
267.38	44.88
267.596	57.17
267.812	65.36
268.028	69.46
268.244	28.5
268.46	8.02
268.676	20.31
268.892	51.03
269.108	26.45
269.324	75.6
269.54	34.64
269.756	5.97
269.972	-4.27
270.188	46.93
270.403	71.51
270.619	57.17
270.835	67.41
271.051	32.6
271.267	-34.99
271.483	-12.46
271.698	112.47
271.914	79.7
272.13	61.27
272.346	18.26
272.562	44.88
272.777	85.84
272.993	48.98
273.209	-43.18
273.425	-43.18
273.64	-2.22
273.856	53.08
274.072	32.6
274.287	12.12
274.503	96.08
274.719	-22.7
274.934	67.41
275.15	28.5
275.366	83.8
275.581	73.56
275.797	75.6
276.012	34.64
276.228	61.27
276.444	28.5
276.659	173.91
276.875	83.8
277.09	24.4
277.306	-45.23
277.521	-16.55
277.737	36.69
277.952	112.47
278.168	44.88
278.383	-34.99
278.599	8.02
278.814	26.45
279.03	16.21
279.245	122.71
279.461	28.5
279.676	65.36
279.892	-34.99
280.107	32.6
280.322	63.32
280.538	-39.08
280.753	-16.55
280.969	104.28
281.184	42.84
281.399	42.84
281.615	12.12
281.83	8.02
282.045	63.32
282.26	53.08
282.476	8.02
282.691	-34.99
282.906	30.55
283.122	71.51
283.337	-22.7
283.552	34.64
283.767	59.22
283.983	34.64
284.198	12.12
284.413	40.79
284.628	30.55
284.843	1.88
285.058	3.93
285.274	65.36
285.489	-8.36
285.704	77.65
285.919	34.64
286.134	38.74
286.349	-18.6
286.564	30.55
286.779	59.22
286.995	28.5
287.21	1.88
287.425	53.08
287.64	16.21
287.855	38.74
288.07	36.69
288.285	32.6
288.5	63.32
288.715	122.71
288.93	-4.27
289.145	8.02
289.36	22.36
289.575	-20.65
289.79	61.27
290.004	44.88
290.219	-24.75
290.434	-2.22
290.649	-20.65
290.864	-10.41
291.079	89.94
291.294	48.98
291.509	40.79
291.724	44.88
291.938	-18.6
292.153	34.64
292.368	5.97
292.583	63.32
292.798	91.99
293.012	63.32
293.227	69.46
293.442	85.84
293.657	67.41
293.871	-20.65
294.086	55.12
294.301	79.7
294.516	53.08
294.73	42.84
294.945	-24.75
295.16	38.74
295.374	79.7
295.589	30.55
295.804	-28.84
296.018	42.84
296.233	24.4
296.447	-22.7
296.662	65.36
296.877	12.12
297.091	-14.51
297.306	44.88
297.52	81.75
297.735	-0.17
297.949	59.22
298.164	53.08
298.378	30.55
298.593	-30.89
298.807	24.4
299.022	18.26
299.236	22.36
299.451	-18.6
299.665	26.45
299.88	-34.99
300.094	-8.36
300.309	26.45
300.523	75.6
300.737	32.6
300.952	20.31
301.166	44.88
301.381	24.4
301.595	73.56
301.809	28.5
302.024	34.64
302.238	63.32
302.452	94.04
302.667	91.99
302.881	40.79
303.095	48.98
303.309	34.64
303.524	55.12
303.738	-43.18
303.952	28.5
304.166	40.79
304.381	12.12
304.595	139.09
304.809	5.97
305.023	28.5
305.237	-6.31
305.452	-10.41
305.666	-4.27
305.88	48.98
306.094	20.31
306.308	48.98
306.522	34.64
306.736	12.12
306.95	59.22
307.164	59.22
307.379	-0.17
307.593	110.42
307.807	81.75
308.021	28.5
308.235	26.45
308.449	-32.94
308.663	167.76
308.877	46.93
309.091	53.08
309.305	87.89
309.519	1.88
309.733	83.8
309.947	73.56
310.161	61.27
310.374	51.03
310.588	200.53
310.802	12.12
311.016	38.74
311.23	100.18
311.444	-12.46
311.658	87.89
311.872	55.12
312.085	10.07
312.299	32.6
312.513	73.56
312.727	36.69
312.941	28.5
313.154	59.22
313.368	87.89
313.582	67.41
313.796	12.12
314.009	40.79
314.223	38.74
314.437	46.93
314.651	55.12
314.864	-26.79
315.078	16.21
315.292	22.36
315.505	61.27
315.719	112.47
315.933	5.97
316.146	-12.46
316.36	-16.55
316.573	75.6
316.787	46.93
317.001	40.79
317.214	87.89
317.428	108.37
317.641	-53.42
317.855	12.12
318.068	61.27
318.282	51.03
318.495	94.04
318.709	94.04
318.922	51.03
319.136	110.42
319.349	77.65
319.563	-10.41
319.776	87.89
319.99	10.07
320.203	71.51
320.417	100.18
320.63	-20.65
320.843	12.12
321.057	40.79
321.27	10.07
321.483	30.55
321.697	61.27
321.91	57.17
322.124	24.4
322.337	10.07
322.55	-4.27
322.763	96.08
322.977	24.4
323.19	42.84
323.403	10.07
323.617	18.26
323.83	22.36
324.043	-28.84
324.256	102.23
324.469	18.26
324.683	59.22
324.896	59.22
325.109	24.4
325.322	116.56
325.535	3.93
325.748	24.4
325.962	1.88
326.175	83.8
326.388	20.31
326.601	38.74
326.814	46.93
327.027	51.03
327.24	-57.51
327.453	16.21
327.666	55.12
327.879	67.41
328.092	114.52
328.305	18.26
328.518	-10.41
328.731	32.6
328.944	118.61
329.157	20.31
329.37	53.08
329.583	51.03
329.796	38.74
330.009	-24.75
330.222	-39.08
330.435	-24.75
330.648	89.94
330.861	77.65
331.073	40.79
331.286	8.02
331.499	20.31
331.712	36.69
331.925	102.23
332.138	-16.55
332.35	81.75
332.563	-18.6
332.776	51.03
332.989	69.46
333.202	28.5
333.414	-57.51
333.627	32.6
333.84	63.32
334.053	26.45
334.265	-37.03
334.478	28.5
334.691	44.88
334.903	38.74
335.116	8.02
335.329	69.46
335.541	38.74
335.754	40.79
335.966	-18.6
336.179	-30.89
336.392	59.22
336.604	79.7
336.817	-32.94
337.029	65.36
337.242	22.36
337.454	81.75
337.667	-0.17
337.88	57.17
338.092	3.93
338.305	55.12
338.517	-16.55
338.729	71.51
338.942	79.7
339.154	94.04
339.367	28.5
339.579	44.88
339.792	18.26
340.004	30.55
340.217	-8.36
340.429	46.93
340.641	57.17
340.854	89.94
341.066	28.5
341.278	42.84
341.491	83.8
341.703	-10.41
341.915	20.31
342.128	-0.17
342.34	-45.23
342.552	53.08
342.764	36.69
342.977	3.93
343.189	34.64
343.401	40.79
343.613	14.17
343.826	94.04
344.038	-30.89
344.25	44.88
344.462	-0.17
344.674	57.17
344.886	44.88
345.099	38.74
345.311	3.93
345.523	40.79
345.735	22.36
345.947	63.32
346.159	42.84
346.371	36.69
346.583	57.17
346.795	79.7
347.007	46.93
347.219	34.64
347.431	44.88
347.643	61.27
347.855	-16.55
348.067	3.93
348.279	32.6
348.491	59.22
348.703	40.79
348.915	48.98
349.127	36.69
349.339	12.12
349.551	98.13
349.763	147.28
349.975	75.6
350.187	-10.41
350.399	71.51
350.61	67.41
350.822	30.55
351.034	57.17
351.246	71.51
351.458	81.75
351.669	57.17
351.881	32.6
352.093	10.07
352.305	44.88
352.517	40.79
352.728	124.76
352.94	51.03
353.152	106.32
353.363	-16.55
353.575	46.93
353.787	69.46
353.999	71.51
354.21	44.88
354.422	61.27
354.633	116.56
354.845	28.5
355.057	102.23
355.268	67.41
355.48	55.12
355.692	108.37
355.903	46.93
356.115	57.17
356.326	-30.89
356.538	118.61
356.749	28.5
356.961	75.6
357.172	71.51
357.384	63.32
357.595	91.99
357.807	16.21
358.018	5.97
358.23	71.51
358.441	44.88
358.653	44.88
358.864	132.95
359.075	87.89
359.287	34.64
359.498	51.03
359.709	65.36
359.921	32.6
360.132	71.51
360.344	85.84
360.555	42.84
360.766	65.36
360.977	28.5
361.189	61.27
361.4	3.93
361.611	-0.17
361.823	124.76
362.034	36.69
362.245	-2.22
362.456	20.31
362.667	71.51
362.879	53.08
363.09	59.22
363.301	102.23
363.512	-12.46
363.723	1.88
363.935	-20.65
364.146	87.89
364.357	55.12
364.568	83.8
364.779	1.88
364.99	83.8
365.201	10.07
365.412	8.02
365.623	5.97
365.834	141.14
366.045	24.4
366.256	77.65
366.467	18.26
366.678	40.79
366.889	106.32
367.1	61.27
367.311	139.09
367.522	63.32
367.733	18.26
367.944	32.6
368.155	-12.46
368.366	51.03
368.577	8.02
368.788	118.61
368.999	24.4
369.209	22.36
369.42	38.74
369.631	147.28
369.842	55.12
370.053	1.88
370.264	69.46
370.474	32.6
370.685	-37.03
370.896	36.69
371.107	69.46
371.317	57.17
371.528	112.47
371.739	81.75
371.95	34.64
372.16	91.99
372.371	116.56
372.582	40.79
372.792	51.03
373.003	38.74
373.214	44.88
373.424	48.98
373.635	40.79
373.846	1.88
374.056	73.56
374.267	98.13
374.477	3.93
374.688	55.12
374.898	-32.94
375.109	38.74
375.319	128.85
375.53	100.18
375.74	16.21
375.951	10.07
376.161	40.79
376.372	59.22
376.582	24.4
376.793	26.45
377.003	83.8
377.214	24.4
377.424	85.84
377.635	36.69
377.845	-2.22
378.055	79.7
378.266	12.12
378.476	32.6
378.686	106.32
378.897	10.07
379.107	14.17
379.317	55.12
379.528	65.36
379.738	-16.55
379.948	28.5
380.158	10.07
380.369	48.98
380.579	63.32
380.789	-6.31
380.999	-6.31
381.21	87.89
381.42	91.99
381.63	22.36
381.84	96.08
382.05	112.47
382.261	-14.51
382.471	57.17
382.681	53.08
382.891	85.84
383.101	102.23
383.311	55.12
383.521	12.12
383.731	20.31
383.941	71.51
384.151	73.56
384.361	61.27
384.571	5.97
384.781	-14.51
384.991	98.13
385.201	77.65
385.411	71.51
385.621	34.64
385.831	34.64
386.041	48.98
386.251	67.41
386.461	85.84
386.671	-4.27
386.881	38.74
387.091	-18.6
387.301	137.04
387.511	57.17
387.72	124.76
387.93	120.66
388.14	51.03
388.35	44.88
388.56	67.41
388.769	59.22
388.979	18.26
389.189	28.5
389.399	3.93
389.609	48.98
389.818	53.08
390.028	65.36
390.238	67.41
390.447	94.04
390.657	51.03
390.867	51.03
391.076	-10.41
391.286	34.64
391.496	28.5
391.705	69.46
391.915	100.18
392.125	75.6
392.334	55.12
392.544	153.43
392.753	94.04
392.963	59.22
393.172	104.28
393.382	48.98
393.591	18.26
393.801	34.64
394.01	190.29
394.22	85.84
394.429	87.89
394.639	28.5
394.848	85.84
395.058	69.46
395.267	57.17
395.477	12.12
395.686	94.04
395.895	65.36
396.105	28.5
396.314	167.76
396.524	10.07
396.733	61.27
396.942	77.65
397.152	14.17
397.361	104.28
397.57	51.03
397.78	139.09
397.989	71.51
398.198	132.95
398.407	102.23
398.617	116.56
398.826	57.17
399.035	59.22
399.244	87.89
399.453	40.79
399.663	94.04
399.872	122.71
400.081	-6.31
400.29	161.62
400.499	104.28
400.708	130.9
400.917	110.42
401.127	126.8
401.336	55.12
401.545	137.04
401.754	65.36
401.963	73.56
402.172	135
402.381	118.61
402.59	108.37
402.799	91.99
403.008	124.76
403.217	77.65
403.426	135
403.635	71.51
403.844	122.71
404.053	112.47
404.262	53.08
404.471	141.14
404.68	118.61
404.888	126.8
405.097	132.95
405.306	167.76
405.515	210.77
405.724	130.9
405.933	132.95
406.142	188.24
406.35	173.91
406.559	188.24
406.768	157.52
406.977	128.85
407.185	141.14
407.394	155.47
407.603	157.52
407.812	245.59
408.02	235.35
408.229	132.95
408.438	110.42
408.646	157.52
408.855	225.11
409.064	210.77
409.272	155.47
409.481	223.06
409.69	278.35
409.898	307.02
410.107	268.11
410.315	317.26
410.524	241.49
410.733	284.5
410.941	354.13
411.15	354.13
411.358	225.11
411.567	335.7
411.775	360.27
411.984	350.03
412.192	431.95
412.401	436.05
412.609	399.18
412.818	399.18
413.026	464.72
413.234	472.91
413.443	442.19
413.651	474.96
413.86	450.38
414.068	513.87
414.276	620.36
414.485	511.82
414.693	595.79
414.901	620.36
415.11	599.88
415.318	560.97
415.526	577.36
415.734	644.94
415.943	581.45
416.151	663.37
416.359	687.95
416.567	790.35
416.776	683.85
416.984	784.2
417.192	802.63
417.4	853.83
417.608	819.02
417.817	808.78
418.025	868.17
418.233	866.12
418.441	991.05
418.649	935.75
418.857	1154.88
419.065	1072.96
419.273	1017.67
419.481	1099.59
419.689	1148.74
419.897	1283.91
420.105	1320.77
420.313	1357.63
420.521	1480.51
420.729	1378.11
420.937	1404.74
421.145	1394.5
421.353	1533.76
421.561	1558.33
421.769	1591.1
421.977	1759.03
422.185	1662.78
422.393	1797.95
422.601	1902.39
422.809	1877.82
423.017	1877.82
423.224	2039.61
423.432	2092.85
423.64	2055.99
423.848	2133.81
424.056	2264.88
424.263	2367.28
424.471	2387.76
424.679	2504.5
424.887	2494.26
425.094	2531.12
425.302	2688.81
425.51	2737.96
425.718	2729.77
425.925	2932.52
426.133	2916.14
426.341	3206.95
426.548	3376.93
426.756	3213.09
426.964	3430.18
427.171	3604.25
427.379	3528.48
427.586	3610.4
427.794	3737.37
428.001	4009.75
428.209	4110.1
428.417	3976.98
428.624	4316.95
428.832	4431.63
429.039	4337.43
429.247	4275.99
429.454	4785.93
429.662	5029.64
429.869	4806.41
430.076	5062.41
430.284	4808.46
430.491	4941.58
430.699	5334.79
430.906	5336.84
431.114	5340.93
431.321	5531.39
431.528	5754.62
431.736	6131.45
431.943	6274.81
432.15	6117.11
432.358	6151.93
432.565	6565.62
432.772	6614.77
432.979	7057.13
433.187	6958.83
433.394	7048.94
433.601	7646.94
433.808	7788.25
434.016	7505.63
434.223	7859.93
434.43	8005.34
434.637	8054.49
434.844	8668.88
435.052	8713.94
435.259	8652.5
435.466	9060.04
435.673	8926.93
435.88	9424.58
436.087	9813.7
436.294	9703.11
436.501	9572.04
436.708	9617.09
436.915	10286.78
437.122	10596.02
437.329	10559.16
437.537	10753.71
437.743	11046.57
437.95	10989.23
438.157	11755.17
438.364	11916.96
438.571	11894.43
438.778	11957.92
438.985	13049.49
439.192	12740.24
439.399	13018.77
439.606	12664.47
439.813	13461.13
440.02	14247.55
440.227	13876.87
440.433	14012.03
440.64	14390.91
440.847	14167.68
441.054	14448.25
441.261	15531.62
441.467	15552.1
441.674	15697.51
441.881	16287.32
442.088	16293.47
442.294	16248.41
442.501	16391.77
442.708	17010.26
442.914	17296.97
443.121	18214.46
443.328	17872.45
443.534	19226.16
443.741	18310.72
443.948	18474.56
444.154	19662.38
444.361	19324.46
444.568	19871.27
444.774	19691.05
444.981	20067.88
445.187	20530.72
445.394	21388.81
445.6	21030.42
445.807	23117.3
446.013	21691.91
446.22	22359.55
446.426	23758.31
446.633	23545.33
446.839	24573.41
447.046	23107.06
447.252	24600.03
447.459	24698.33
447.665	24739.29
447.871	25619.92
448.078	26863.04
448.284	25404.88
448.491	25972.17
448.697	27190.71
448.903	27237.81
449.11	27782.57
449.316	27395.51
449.522	27764.14
449.728	28423.59
449.935	28824.99
450.141	28687.78
450.347	29304.21
450.553	28390.82
450.76	28765.6
450.966	29906.32
451.172	29035.93
451.378	30072.2
451.584	29267.35
451.791	30270.86
451.997	30137.74
452.203	30915.97
452.409	30586.24
452.615	30315.91
452.821	29678.99
453.027	29435.28
453.233	30891.39
453.44	29689.23
453.646	29746.58
453.852	29855.12
454.058	30354.82
454.264	29064.6
454.47	30311.81
454.676	29386.13
454.882	30285.19
455.088	27633.07
455.294	28122.54
455.5	28595.62
455.705	28515.75
455.911	27450.8
456.117	27065.78
456.323	26932.67
456.529	25556.43
456.735	26353.09
456.941	25865.67
457.147	25427.41
457.352	24446.43
457.558	24305.12
457.764	24161.76
457.97	24036.84
458.176	23465.46
458.381	23324.15
458.587	22070.79
458.793	22418.94
458.999	21243.41
459.204	22656.51
459.41	21886.47
459.616	20520.48
459.821	20608.54
460.027	20549.15
460.233	20088.35
460.438	19222.06
460.644	19328.56
460.85	18267.71
461.055	18251.33
461.261	18243.13
461.466	16713.3
461.672	16221.79
461.878	17479.24
462.083	16189.02
462.289	15834.72
462.494	15537.77
462.7	14943.86
462.905	14823.03
463.111	15429.23
463.316	15255.15
463.522	14966.38
463.727	14898.8
463.932	14823.03
464.138	14720.63
464.343	14906.99
464.549	14407.29
464.754	14714.48
464.959	14681.72
465.165	14405.24
465.37	13794.95
465.575	13672.07
465.781	14179.96
465.986	14311.03
466.191	13856.39
466.397	13555.33
466.602	12791.44
466.807	13252.24
467.012	13334.15
467.218	13315.72
467.423	12891.79
467.628	13112.97
467.833	13653.64
468.038	13094.54
