Data from USB4F104151__78__11-52-44-688.txt Node

Date: Fri Mar 14 11:52:44 EDT 2025
User: louis
Spectrometer: USB4F10415
Trigger mode: 4
Integration Time (sec): 2.000000E-2
Scans to average: 1
Electric dark correction enabled: true
Nonlinearity correction enabled: false
Boxcar width: 0
XAxis mode: Wavelengths
Number of Pixels in Spectrum: 3648
>>>>>Begin Spectral Data<<<<<
178.204	-128.51
178.424	-128.51
178.644	-128.51
178.864	-110.08
179.084	-71.17
179.304	-17.92
179.524	45.57
179.744	47.62
179.964	-46.59
180.184	-11.78
180.404	29.18
180.624	4.61
180.844	16.9
181.064	-58.88
181.283	-40.45
181.503	16.9
181.723	14.85
181.943	-46.59
182.163	53.76
182.383	-81.41
182.602	-1.54
182.822	23.04
183.042	12.8
183.262	-32.26
183.482	-9.73
183.701	45.57
183.921	49.66
184.141	-50.69
184.361	25.09
184.58	16.9
184.8	76.29
185.02	-7.68
185.239	20.99
185.459	-5.63
185.679	12.8
185.898	-40.45
186.118	-19.97
186.338	-7.68
186.557	-30.21
186.777	-30.21
186.997	31.23
187.216	-32.26
187.436	8.7
187.655	-1.54
187.875	0.51
188.095	-9.73
188.314	-56.83
188.534	-26.11
188.753	-22.02
188.973	33.28
189.192	45.57
189.412	29.18
189.631	-34.3
189.851	27.14
190.07	-1.54
190.29	20.99
190.509	-1.54
190.729	-13.82
190.948	51.71
191.168	16.9
191.387	68.09
191.607	57.86
191.826	45.57
192.045	-36.35
192.265	18.94
192.484	-36.35
192.704	35.33
192.923	-3.58
193.142	41.47
193.362	27.14
193.581	61.95
193.8	57.86
194.02	31.23
194.239	18.94
194.458	20.99
194.678	35.33
194.897	-24.06
195.116	25.09
195.335	29.18
195.555	10.75
195.774	-38.4
195.993	10.75
196.212	-5.63
196.432	-62.98
196.651	25.09
196.87	8.7
197.089	8.7
197.308	-13.82
197.528	25.09
197.747	-36.35
197.966	18.94
198.185	-24.06
198.404	25.09
198.623	35.33
198.842	-5.63
199.062	27.14
199.281	-7.68
199.5	25.09
199.719	14.85
199.938	8.7
200.157	47.62
200.376	23.04
200.595	12.8
200.814	0.51
201.033	-11.78
201.252	45.57
201.471	29.18
201.69	12.8
201.909	16.9
202.128	0.51
202.347	-58.88
202.566	-22.02
202.785	0.51
203.004	18.94
203.223	6.66
203.442	-67.07
203.661	-7.68
203.879	4.61
204.098	-15.87
204.317	-3.58
204.536	74.24
204.755	-19.97
204.974	14.85
205.193	68.09
205.411	20.99
205.63	-22.02
205.849	41.47
206.068	51.71
206.287	-28.16
206.505	-69.12
206.724	6.66
206.943	-85.5
207.162	-11.78
207.381	-97.79
207.599	-30.21
207.818	12.8
208.037	-7.68
208.255	-62.98
208.474	-62.98
208.693	-15.87
208.911	14.85
209.13	31.23
209.349	2.56
209.567	12.8
209.786	76.29
210.005	-15.87
210.223	-3.58
210.442	-50.69
210.661	8.7
210.879	18.94
211.098	25.09
211.316	57.86
211.535	82.43
211.753	57.86
211.972	0.51
212.191	-28.16
212.409	-11.78
212.628	-28.16
212.846	-26.11
213.065	23.04
213.283	-67.07
213.502	12.8
213.72	-5.63
213.938	59.9
214.157	-1.54
214.375	-1.54
214.594	-1.54
214.812	55.81
215.031	14.85
215.249	-15.87
215.467	-79.36
215.686	-15.87
215.904	100.86
216.122	-9.73
216.341	33.28
216.559	-103.93
216.778	6.66
216.996	-38.4
217.214	43.52
217.432	47.62
217.651	-3.58
217.869	-38.4
218.087	-15.87
218.306	20.99
218.524	33.28
218.742	2.56
218.96	16.9
219.179	6.66
219.397	33.28
219.615	57.86
219.833	64
220.051	-38.4
220.27	47.62
220.488	66.05
220.706	41.47
220.924	-5.63
221.142	33.28
221.36	14.85
221.578	25.09
221.796	20.99
222.015	78.33
222.233	-5.63
222.451	-11.78
222.669	-28.16
222.887	-32.26
223.105	16.9
223.323	-26.11
223.541	23.04
223.759	47.62
223.977	-50.69
224.195	51.71
224.413	16.9
224.631	-5.63
224.849	35.33
225.067	76.29
225.285	0.51
225.503	-40.45
225.721	-3.58
225.939	41.47
226.157	-30.21
226.375	16.9
226.592	-32.26
226.81	-50.69
227.028	-28.16
227.246	78.33
227.464	-48.64
227.682	6.66
227.9	39.42
228.117	59.9
228.335	0.51
228.553	37.38
228.771	-30.21
228.989	31.23
229.206	-36.35
229.424	-54.78
229.642	-69.12
229.86	43.52
230.077	-17.92
230.295	29.18
230.513	43.52
230.731	-46.59
230.948	70.14
231.166	43.52
231.384	-19.97
231.601	-116.22
231.819	14.85
232.037	35.33
232.254	-24.06
232.472	-11.78
232.689	6.66
232.907	4.61
233.125	4.61
233.342	-9.73
233.56	76.29
233.777	0.51
233.995	43.52
234.213	53.76
234.43	-5.63
234.648	14.85
234.865	64
235.083	78.33
235.3	37.38
235.518	129.53
235.735	37.38
235.953	43.52
236.17	-36.35
236.388	0.51
236.605	-24.06
236.822	-7.68
237.04	33.28
237.257	59.9
237.475	-44.54
237.692	-26.11
237.909	4.61
238.127	-42.5
238.344	43.52
238.562	-65.02
238.779	-11.78
238.996	18.94
239.214	57.86
239.431	64
239.648	-3.58
239.865	-46.59
240.083	14.85
240.3	45.57
240.517	14.85
240.735	74.24
240.952	125.44
241.169	23.04
241.386	4.61
241.603	53.76
241.821	45.57
242.038	18.94
242.255	45.57
242.472	-62.98
242.689	31.23
242.907	-5.63
243.124	16.9
243.341	-3.58
243.558	-36.35
243.775	-24.06
243.992	-34.3
244.209	-32.26
244.426	125.44
244.643	12.8
244.86	20.99
245.078	-52.74
245.295	29.18
245.512	59.9
245.729	-36.35
245.946	16.9
246.163	47.62
246.38	-34.3
246.597	4.61
246.814	-22.02
247.031	37.38
247.248	-7.68
247.464	55.81
247.681	45.57
247.898	45.57
248.115	31.23
248.332	6.66
248.549	61.95
248.766	78.33
248.983	145.92
249.2	25.09
249.417	4.61
249.633	-5.63
249.85	-36.35
250.067	0.51
250.284	2.56
250.501	-3.58
250.717	37.38
250.934	-32.26
251.151	39.42
251.368	16.9
251.585	-30.21
251.801	-15.87
252.018	8.7
252.235	-30.21
252.451	-9.73
252.668	31.23
252.885	12.8
253.102	-48.64
253.318	41.47
253.535	-19.97
253.752	-75.26
253.968	-34.3
254.185	41.47
254.401	0.51
254.618	10.75
254.835	14.85
255.051	90.62
255.268	2.56
255.484	55.81
255.701	-46.59
255.917	8.7
256.134	-40.45
256.351	-5.63
256.567	18.94
256.784	35.33
257	-105.98
257.217	8.7
257.433	76.29
257.65	-50.69
257.866	-9.73
258.082	-77.31
258.299	-22.02
258.515	-17.92
258.732	12.8
258.948	18.94
259.165	16.9
259.381	78.33
259.597	-9.73
259.814	-9.73
260.03	33.28
260.246	-9.73
260.463	45.57
260.679	25.09
260.895	51.71
261.112	37.38
261.328	49.66
261.544	-32.26
261.761	39.42
261.977	25.09
262.193	-38.4
262.409	45.57
262.626	33.28
262.842	70.14
263.058	-5.63
263.274	-13.82
263.49	-38.4
263.707	25.09
263.923	53.76
264.139	-7.68
264.355	57.86
264.571	45.57
264.787	-11.78
265.004	92.67
265.22	37.38
265.436	-26.11
265.652	29.18
265.868	59.9
266.084	-32.26
266.3	-38.4
266.516	-26.11
266.732	-9.73
266.948	16.9
267.164	4.61
267.38	-3.58
267.596	49.66
267.812	76.29
268.028	-32.26
268.244	2.56
268.46	-79.36
268.676	16.9
268.892	0.51
269.108	-118.27
269.324	76.29
269.54	-7.68
269.756	78.33
269.972	-5.63
270.188	18.94
270.403	8.7
270.619	23.04
270.835	-42.5
271.051	4.61
271.267	39.42
271.483	-17.92
271.698	4.61
271.914	12.8
272.13	2.56
272.346	-7.68
272.562	-13.82
272.777	51.71
272.993	31.23
273.209	-3.58
273.425	18.94
273.64	4.61
273.856	4.61
274.072	-3.58
274.287	37.38
274.503	25.09
274.719	6.66
274.934	-26.11
275.15	-28.16
275.366	-30.21
275.581	-11.78
275.797	10.75
276.012	-58.88
276.228	16.9
276.444	-11.78
276.659	8.7
276.875	-40.45
277.09	-9.73
277.306	-46.59
277.521	70.14
277.737	33.28
277.952	35.33
278.168	-28.16
278.383	0.51
278.599	66.05
278.814	-5.63
279.03	8.7
279.245	47.62
279.461	29.18
279.676	51.71
279.892	-7.68
280.107	-65.02
280.322	-5.63
280.538	-13.82
280.753	33.28
280.969	31.23
281.184	12.8
281.399	129.53
281.615	64
281.83	4.61
282.045	-44.54
282.26	68.09
282.476	-36.35
282.691	0.51
282.906	-42.5
283.122	47.62
283.337	-60.93
283.552	18.94
283.767	6.66
283.983	70.14
284.198	-11.78
284.413	-32.26
284.628	-54.78
284.843	-42.5
285.058	-7.68
285.274	-9.73
285.489	-28.16
285.704	68.09
285.919	45.57
286.134	70.14
286.349	-1.54
286.564	-13.82
286.779	92.67
286.995	-13.82
287.21	-5.63
287.425	-13.82
287.64	-38.4
287.855	0.51
288.07	-159.23
288.285	43.52
288.5	27.14
288.715	64
288.93	47.62
289.145	-11.78
289.36	74.24
289.575	-9.73
289.79	-7.68
290.004	8.7
290.219	70.14
290.434	55.81
290.649	18.94
290.864	27.14
291.079	10.75
291.294	-1.54
291.509	-32.26
291.724	2.56
291.938	20.99
292.153	61.95
292.368	-48.64
292.583	-15.87
292.798	2.56
293.012	12.8
293.227	27.14
293.442	-22.02
293.657	29.18
293.871	25.09
294.086	-77.31
294.301	-13.82
294.516	45.57
294.73	29.18
294.945	6.66
295.16	31.23
295.374	57.86
295.589	-38.4
295.804	-11.78
296.018	61.95
296.233	43.52
296.447	-15.87
296.662	43.52
296.877	2.56
297.091	12.8
297.306	16.9
297.52	39.42
297.735	6.66
297.949	2.56
298.164	-26.11
298.378	-58.88
298.593	20.99
298.807	-54.78
299.022	92.67
299.236	-24.06
299.451	-87.55
299.665	0.51
299.88	-15.87
300.094	-3.58
300.309	74.24
300.523	-5.63
300.737	39.42
300.952	-75.26
301.166	68.09
301.381	-87.55
301.595	0.51
301.809	-15.87
302.024	-30.21
302.238	-36.35
302.452	37.38
302.667	18.94
302.881	80.38
303.095	12.8
303.309	104.96
303.524	92.67
303.738	-34.3
303.952	-26.11
304.166	88.57
304.381	-5.63
304.595	64
304.809	-26.11
305.023	49.66
305.237	-9.73
305.452	29.18
305.666	23.04
305.88	31.23
306.094	88.57
306.308	-15.87
306.522	45.57
306.736	70.14
306.95	-15.87
307.164	43.52
307.379	33.28
307.593	37.38
307.807	-1.54
308.021	31.23
308.235	-42.5
308.449	51.71
308.663	37.38
308.877	111.1
309.091	90.62
309.305	-28.16
309.519	-3.58
309.733	59.9
309.947	31.23
310.161	2.56
310.374	23.04
310.588	61.95
310.802	29.18
311.016	31.23
311.23	-36.35
311.444	10.75
311.658	-56.83
311.872	0.51
312.085	-48.64
312.299	-11.78
312.513	70.14
312.727	49.66
312.941	-36.35
313.154	14.85
313.368	-3.58
313.582	-28.16
313.796	16.9
314.009	25.09
314.223	80.38
314.437	18.94
314.651	16.9
314.864	82.43
315.078	57.86
315.292	23.04
315.505	35.33
315.719	-22.02
315.933	12.8
316.146	25.09
316.36	-24.06
316.573	45.57
316.787	8.7
317.001	-7.68
317.214	-50.69
317.428	-44.54
317.641	41.47
317.855	-22.02
318.068	10.75
318.282	27.14
318.495	6.66
318.709	31.23
318.922	-11.78
319.136	29.18
319.349	43.52
319.563	33.28
319.776	-26.11
319.99	-36.35
320.203	68.09
320.417	127.49
320.63	0.51
320.843	45.57
321.057	16.9
321.27	-7.68
321.483	39.42
321.697	41.47
321.91	-99.84
322.124	-1.54
322.337	35.33
322.55	-7.68
322.763	57.86
322.977	-9.73
323.19	76.29
323.403	35.33
323.617	27.14
323.83	-30.21
324.043	55.81
324.256	27.14
324.469	16.9
324.683	0.51
324.896	-32.26
325.109	12.8
325.322	16.9
325.535	104.96
325.748	-17.92
325.962	23.04
326.175	-7.68
326.388	-32.26
326.601	10.75
326.814	74.24
327.027	14.85
327.24	12.8
327.453	-3.58
327.666	14.85
327.879	51.71
328.092	-28.16
328.305	57.86
328.518	12.8
328.731	-13.82
328.944	107.01
329.157	64
329.37	31.23
329.583	25.09
329.796	33.28
330.009	25.09
330.222	88.57
330.435	31.23
330.648	-32.26
330.861	45.57
331.073	10.75
331.286	4.61
331.499	27.14
331.712	-69.12
331.925	64
332.138	0.51
332.35	102.91
332.563	-11.78
332.776	29.18
332.989	6.66
333.202	-11.78
333.414	16.9
333.627	64
333.84	31.23
334.053	55.81
334.265	-28.16
334.478	18.94
334.691	-11.78
334.903	55.81
335.116	47.62
335.329	-28.16
335.541	-15.87
335.754	111.1
335.966	-60.93
336.179	4.61
336.392	43.52
336.604	39.42
336.817	94.72
337.029	45.57
337.242	35.33
337.454	39.42
337.667	12.8
337.88	86.53
338.092	31.23
338.305	29.18
338.517	-19.97
338.729	33.28
338.942	35.33
339.154	0.51
339.367	-1.54
339.579	23.04
339.792	27.14
340.004	29.18
340.217	25.09
340.429	-15.87
340.641	-77.31
340.854	31.23
341.066	31.23
341.278	6.66
341.491	61.95
341.703	-3.58
341.915	51.71
342.128	-15.87
342.34	-3.58
342.552	25.09
342.764	8.7
342.977	-1.54
343.189	-11.78
343.401	47.62
343.613	-1.54
343.826	82.43
344.038	-52.74
344.25	96.77
344.462	18.94
344.674	29.18
344.886	-3.58
345.099	37.38
345.311	70.14
345.523	-32.26
345.735	8.7
345.947	16.9
346.159	33.28
346.371	-9.73
346.583	-11.78
346.795	33.28
347.007	33.28
347.219	53.76
347.431	14.85
347.643	72.19
347.855	37.38
348.067	-32.26
348.279	0.51
348.491	33.28
348.703	20.99
348.915	12.8
349.127	-15.87
349.339	29.18
349.551	16.9
349.763	107.01
349.975	-15.87
350.187	88.57
350.399	-3.58
350.61	96.77
350.822	33.28
351.034	80.38
351.246	-15.87
351.458	37.38
351.669	33.28
351.881	-15.87
352.093	35.33
352.305	76.29
352.517	43.52
352.728	33.28
352.94	16.9
353.152	10.75
353.363	-40.45
353.575	25.09
353.787	41.47
353.999	53.76
354.21	-5.63
354.422	10.75
354.633	33.28
354.845	78.33
355.057	68.09
355.268	16.9
355.48	43.52
355.692	39.42
355.903	23.04
356.115	12.8
356.326	-62.98
356.538	96.77
356.749	23.04
356.961	8.7
357.172	55.81
357.384	-60.93
357.595	8.7
357.807	127.49
358.018	23.04
358.23	43.52
358.441	119.29
358.653	-48.64
358.864	129.53
359.075	18.94
359.287	37.38
359.498	37.38
359.709	31.23
359.921	-28.16
360.132	-22.02
360.344	53.76
360.555	98.81
360.766	33.28
360.977	72.19
361.189	-9.73
361.4	-3.58
361.611	-28.16
361.823	45.57
362.034	43.52
362.245	-7.68
362.456	82.43
362.667	47.62
362.879	27.14
363.09	80.38
363.301	-5.63
363.512	43.52
363.723	82.43
363.935	-5.63
364.146	2.56
364.357	12.8
364.568	98.81
364.779	-15.87
364.99	119.29
365.201	41.47
365.412	66.05
365.623	37.38
365.834	80.38
366.045	4.61
366.256	-22.02
366.467	-19.97
366.678	2.56
366.889	53.76
367.1	45.57
367.311	8.7
367.522	-26.11
367.733	-13.82
367.944	25.09
368.155	59.9
368.366	55.81
368.577	61.95
368.788	25.09
368.999	-15.87
369.209	-9.73
369.42	27.14
369.631	16.9
369.842	-5.63
370.053	33.28
370.264	59.9
370.474	-7.68
370.685	-30.21
370.896	-17.92
371.107	-19.97
371.317	27.14
371.528	31.23
371.739	20.99
371.95	-1.54
372.16	-1.54
372.371	-11.78
372.582	-19.97
372.792	-13.82
373.003	20.99
373.214	29.18
373.424	25.09
373.635	-17.92
373.846	143.87
374.056	-44.54
374.267	8.7
374.477	115.2
374.688	47.62
374.898	16.9
375.109	0.51
375.319	-40.45
375.53	20.99
375.74	12.8
375.951	10.75
376.161	-44.54
376.372	166.4
376.582	-75.26
376.793	49.66
377.003	-7.68
377.214	-5.63
377.424	68.09
377.635	33.28
377.845	-7.68
378.055	64
378.266	18.94
378.476	16.9
378.686	31.23
378.897	49.66
379.107	70.14
379.317	33.28
379.528	43.52
379.738	74.24
379.948	-9.73
380.158	-7.68
380.369	0.51
380.579	53.76
380.789	12.8
380.999	123.39
381.21	43.52
381.42	18.94
381.63	55.81
381.84	94.72
382.05	68.09
382.261	43.52
382.471	2.56
382.681	39.42
382.891	57.86
383.101	94.72
383.311	6.66
383.521	-58.88
383.731	74.24
383.941	55.81
384.151	57.86
384.361	-91.65
384.571	-7.68
384.781	51.71
384.991	121.34
385.201	35.33
385.411	-15.87
385.621	-36.35
385.831	47.62
386.041	82.43
386.251	39.42
386.461	104.96
386.671	4.61
386.881	59.9
387.091	39.42
387.301	41.47
387.511	25.09
387.72	94.72
387.93	66.05
388.14	25.09
388.35	25.09
388.56	37.38
388.769	61.95
388.979	45.57
389.189	8.7
389.399	14.85
389.609	37.38
389.818	102.91
390.028	45.57
390.238	8.7
390.447	121.34
390.657	113.15
390.867	29.18
391.076	80.38
391.286	45.57
391.496	102.91
391.705	74.24
391.915	115.2
392.125	51.71
392.334	29.18
392.544	20.99
392.753	94.72
392.963	2.56
393.172	39.42
393.382	82.43
393.591	51.71
393.801	6.66
394.01	66.05
394.22	59.9
394.429	0.51
394.639	64
394.848	59.9
395.058	66.05
395.267	125.44
395.477	14.85
395.686	-15.87
395.895	107.01
396.105	123.39
396.314	39.42
396.524	47.62
396.733	-1.54
396.942	131.58
397.152	154.11
397.361	109.05
397.57	57.86
397.78	66.05
397.989	86.53
398.198	129.53
398.407	55.81
398.617	10.75
398.826	66.05
399.035	16.9
399.244	76.29
399.453	64
399.663	12.8
399.872	51.71
400.081	-15.87
400.29	133.63
400.499	59.9
400.708	70.14
400.917	16.9
401.127	23.04
401.336	109.05
401.545	115.2
401.754	43.52
401.963	80.38
402.172	8.7
402.381	125.44
402.59	72.19
402.799	109.05
403.008	129.53
403.217	111.1
403.426	150.01
403.635	143.87
403.844	145.92
404.053	98.81
404.262	51.71
404.471	94.72
404.68	123.39
404.888	92.67
405.097	168.45
405.306	109.05
405.515	100.86
405.724	121.34
405.933	113.15
406.142	186.88
406.35	170.49
406.559	104.96
406.768	135.68
406.977	201.21
407.185	160.25
407.394	158.21
407.603	186.88
407.812	168.45
408.02	203.26
408.229	186.88
408.438	127.49
408.646	180.73
408.855	188.93
409.064	252.41
409.272	160.25
409.481	158.21
409.69	223.74
409.898	178.69
410.107	184.83
410.315	283.13
410.524	254.46
410.733	354.81
410.941	248.32
411.15	365.05
411.358	270.84
411.567	375.29
411.775	246.27
411.984	375.29
412.192	289.28
412.401	371.19
412.609	320
412.818	342.52
413.026	410.11
413.234	420.35
413.443	461.3
413.651	449.02
413.86	428.54
414.068	465.4
414.276	530.94
414.485	465.4
414.693	541.18
414.901	602.61
415.11	551.42
415.318	606.71
415.526	647.67
415.734	651.77
415.943	594.42
416.151	723.44
416.359	657.91
416.567	743.92
416.776	686.58
416.984	756.21
417.192	737.78
417.4	870.9
417.608	813.56
417.817	905.71
418.025	893.43
418.233	924.15
418.441	866.8
418.649	936.43
418.857	913.91
419.065	1065.46
419.273	1057.26
419.481	1188.33
419.689	1122.8
419.897	1161.71
420.105	1266.16
420.313	1278.44
420.521	1300.97
420.729	1397.23
420.937	1389.03
421.145	1405.42
421.353	1526.25
421.561	1565.16
421.769	1516.01
421.977	1690.09
422.185	1563.11
422.393	1823.2
422.601	1858.02
422.809	1808.87
423.017	1970.66
423.224	1978.85
423.432	2048.48
423.64	2130.4
423.848	2245.09
424.056	2173.41
424.263	2277.85
424.471	2327
424.679	2408.92
424.887	2505.18
425.094	2648.54
425.302	2597.34
425.51	2800.09
425.718	2748.89
425.925	2834.9
426.133	2951.63
426.341	3148.24
426.548	3189.2
426.756	3246.54
426.964	3279.31
427.171	3504.59
427.379	3539.4
427.586	3549.64
427.794	3688.9
428.001	3865.03
428.209	4151.74
428.417	3922.37
428.624	4299.2
428.832	4411.84
429.039	4389.31
429.247	4211.14
429.454	4727.22
429.662	5028.28
429.869	4774.33
430.076	5067.19
430.284	4833.72
430.491	5042.61
430.699	5587.37
430.906	5327.28
431.114	5466.54
431.321	5724.58
431.528	5900.71
431.736	6154.66
431.943	6463.9
432.15	6414.75
432.358	6414.75
432.565	6697.37
432.772	6711.71
432.979	6908.31
433.187	6979.99
433.394	7047.57
433.601	7588.24
433.808	7551.37
434.016	7655.82
434.223	7881.1
434.43	8374.66
434.637	8247.68
434.844	8817.02
435.052	8917.37
435.259	8923.51
435.466	9126.26
435.673	8862.07
435.88	9441.65
436.087	9937.26
436.294	9894.25
436.501	9724.27
436.708	9867.63
436.915	10377.57
437.122	10774.88
437.329	10711.39
437.537	11192.66
437.743	11465.04
437.95	11004.25
438.157	11714.89
438.364	12259.65
438.571	11954.51
438.778	12200.26
438.985	13592.88
439.192	12845.37
439.399	13285.69
439.606	12912.95
439.813	13791.53
440.02	14502.18
440.227	14074.15
440.433	14000.43
440.64	14666.02
440.847	14491.94
441.054	14809.37
441.261	15982.86
441.467	15589.65
441.674	16191.75
441.881	16482.56
442.088	16642.31
442.294	16263.43
442.501	16703.75
442.708	17060.09
442.914	17981.68
443.121	18399.46
443.328	18262.25
443.534	19415.26
443.741	18874.59
443.948	18561.25
444.154	19724.5
444.361	19763.41
444.568	20086.99
444.774	19654.87
444.981	20086.99
445.187	20984
445.394	21971.12
445.6	21481.66
445.807	23437.47
446.013	22507.69
446.22	23173.28
446.426	23814.29
446.633	24301.71
446.839	25194.62
447.046	24166.54
447.252	25526.39
447.459	25231.49
447.665	25376.89
447.871	26554.47
448.078	27488.35
448.284	26136.69
448.491	26554.47
448.697	27977.81
448.903	28457.04
449.11	28454.99
449.316	28160.08
449.522	28684.36
449.728	29071.43
449.935	29753.4
450.141	29640.76
450.347	30165.04
450.553	29372.48
450.76	29782.07
450.966	30832.68
451.172	30171.19
451.378	31125.54
451.584	30887.98
451.791	31617.05
451.997	31307.81
452.203	31639.58
452.409	31705.12
452.615	31438.88
452.821	30857.26
453.027	30212.15
453.233	32028.7
453.44	30357.55
453.646	30795.82
453.852	31037.48
454.058	31428.64
454.264	30736.43
454.47	31545.37
454.676	30400.56
454.882	31787.03
455.088	28725.32
455.294	29511.74
455.5	29806.65
455.705	30324.79
455.911	28719.18
456.117	28473.42
456.323	28049.49
456.529	26577
456.735	27805.78
456.941	27156.58
457.147	26390.64
457.352	25692.28
457.558	25483.39
457.764	25606.27
457.97	25141.38
458.176	24797.32
458.381	24428.68
458.587	23318.68
458.793	23238.81
458.999	22304.94
459.204	23666.84
459.41	23062.69
459.616	21481.66
459.821	21756.08
460.027	21430.46
460.233	21235.9
460.438	19757.27
460.644	20302.03
460.85	19335.38
461.055	19054.81
461.261	18712.8
461.466	17623.28
461.672	16711.94
461.878	18344.17
462.083	17066.24
462.289	16838.91
462.494	16658.69
462.7	15931.66
462.905	15640.85
463.111	15868.17
463.316	15716.62
463.522	15485.2
463.727	15515.92
463.932	15667.47
464.138	15612.18
464.343	15526.16
464.549	14946.59
464.754	15427.86
464.959	15284.5
465.165	15419.67
465.37	14799.13
465.575	14434.6
465.781	14704.93
465.986	14760.22
466.191	14475.56
466.397	14012.71
466.602	13517.11
466.807	13867.31
467.012	14000.43
467.218	13912.36
467.423	13476.15
467.628	13807.92
467.833	14410.02
