Data from USB4F104151__59__11-52-27-784.txt Node

Date: Fri Mar 14 11:52:27 EDT 2025
User: louis
Spectrometer: USB4F10415
Trigger mode: 4
Integration Time (sec): 2.000000E-2
Scans to average: 1
Electric dark correction enabled: true
Nonlinearity correction enabled: false
Boxcar width: 0
XAxis mode: Wavelengths
Number of Pixels in Spectrum: 3648
>>>>>Begin Spectral Data<<<<<
178.204	-126.63
178.424	-126.63
178.644	-126.63
178.864	-48.81
179.084	-18.09
179.304	-26.28
179.524	-83.63
179.744	-18.09
179.964	39.25
180.184	45.4
180.404	-36.52
180.624	18.77
180.844	47.44
181.064	-30.38
181.283	39.25
181.503	-32.43
181.723	37.2
181.943	-28.33
182.163	67.92
182.383	96.6
182.602	14.68
182.822	45.4
183.042	8.53
183.262	-24.23
183.482	0.34
183.701	31.06
183.921	6.49
184.141	-30.38
184.361	-46.76
184.58	6.49
184.8	8.53
185.02	51.54
185.239	110.93
185.459	-13.99
185.679	26.96
185.898	-30.38
186.118	61.78
186.338	31.06
186.557	8.53
186.777	-9.9
186.997	-13.99
187.216	37.2
187.436	74.07
187.655	26.96
187.875	-38.57
188.095	-5.8
188.314	55.64
188.534	20.82
188.753	29.01
188.973	22.87
189.192	51.54
189.412	6.49
189.631	43.35
189.851	110.93
190.07	41.3
190.29	65.88
190.509	26.96
190.729	59.73
190.948	29.01
191.168	57.68
191.387	53.59
191.607	20.82
191.826	53.59
192.045	129.36
192.265	-1.71
192.484	-28.33
192.704	2.39
192.923	-11.95
193.142	121.17
193.362	45.4
193.581	84.31
193.8	-38.57
194.02	55.64
194.239	-11.95
194.458	37.2
194.678	-13.99
194.897	-32.43
195.116	125.27
195.335	63.83
195.555	53.59
195.774	84.31
195.993	37.2
196.212	26.96
196.432	-13.99
196.651	10.58
196.87	2.39
197.089	45.4
197.308	51.54
197.528	14.68
197.747	26.96
197.966	18.77
198.185	35.16
198.404	63.83
198.623	84.31
198.842	78.16
199.062	51.54
199.281	106.84
199.5	10.58
199.719	6.49
199.938	26.96
200.157	43.35
200.376	51.54
200.595	-3.75
200.814	31.06
201.033	59.73
201.252	6.49
201.471	-73.39
201.69	20.82
201.909	31.06
202.128	78.16
202.347	-13.99
202.566	125.27
202.785	-16.04
203.004	-16.04
203.223	45.4
203.442	-22.19
203.661	35.16
203.879	18.77
204.098	69.97
204.317	67.92
204.536	41.3
204.755	67.92
204.974	80.21
205.193	69.97
205.411	-1.71
205.63	67.92
205.849	57.68
206.068	10.58
206.287	-16.04
206.505	51.54
206.724	10.58
206.943	35.16
207.162	74.07
207.381	117.08
207.599	-3.75
207.818	65.88
208.037	39.25
208.255	45.4
208.474	65.88
208.693	72.02
208.911	12.63
209.13	65.88
209.349	16.73
209.567	37.2
209.786	39.25
210.005	57.68
210.223	53.59
210.442	-16.04
210.661	18.77
210.879	22.87
211.098	80.21
211.316	45.4
211.535	76.12
211.753	67.92
211.972	106.84
212.191	-32.43
212.409	86.36
212.628	74.07
212.846	2.39
213.065	22.87
213.283	6.49
213.502	55.64
213.72	24.92
213.938	6.49
214.157	-22.19
214.375	24.92
214.594	18.77
214.812	61.78
215.031	61.78
215.249	26.96
215.467	53.59
215.686	0.34
215.904	69.97
216.122	-5.8
216.341	90.45
216.559	84.31
216.778	51.54
216.996	53.59
217.214	18.77
217.432	12.63
217.651	-7.85
217.869	-36.52
218.087	-34.47
218.306	94.55
218.524	35.16
218.742	37.2
218.96	31.06
219.179	24.92
219.397	51.54
219.615	100.69
219.833	84.31
220.051	43.35
220.27	86.36
220.488	-7.85
220.706	29.01
220.924	80.21
221.142	-3.75
221.36	-3.75
221.578	-34.47
221.796	22.87
222.015	-3.75
222.233	61.78
222.451	24.92
222.669	41.3
222.887	57.68
223.105	-18.09
223.323	74.07
223.541	-38.57
223.759	72.02
223.977	-16.04
224.195	-16.04
224.413	78.16
224.631	41.3
224.849	-32.43
225.067	22.87
225.285	76.12
225.503	112.98
225.721	-7.85
225.939	59.73
226.157	26.96
226.375	39.25
226.592	31.06
226.81	43.35
227.028	96.6
227.246	29.01
227.464	10.58
227.682	90.45
227.9	20.82
228.117	-5.8
228.335	72.02
228.553	8.53
228.771	37.2
228.989	55.64
229.206	65.88
229.424	-18.09
229.642	84.31
229.86	69.97
230.077	-26.28
230.295	53.59
230.513	47.44
230.731	41.3
230.948	47.44
231.166	82.26
231.384	39.25
231.601	92.5
231.819	65.88
232.037	20.82
232.254	76.12
232.472	39.25
232.689	61.78
232.907	47.44
233.125	72.02
233.342	45.4
233.56	-7.85
233.777	14.68
233.995	-26.28
234.213	57.68
234.43	74.07
234.648	-28.33
234.865	41.3
235.083	20.82
235.3	10.58
235.518	47.44
235.735	16.73
235.953	125.27
236.17	14.68
236.388	4.44
236.605	-3.75
236.822	117.08
237.04	57.68
237.257	67.92
237.475	45.4
237.692	67.92
237.909	16.73
238.127	45.4
238.344	49.49
238.562	26.96
238.779	6.49
238.996	76.12
239.214	-9.9
239.431	125.27
239.648	55.64
239.865	112.98
240.083	16.73
240.3	-75.43
240.517	37.2
240.735	53.59
240.952	47.44
241.169	-42.67
241.386	4.44
241.603	20.82
241.821	-50.86
242.038	90.45
242.255	49.49
242.472	-20.14
242.689	84.31
242.907	-9.9
243.124	26.96
243.341	63.83
243.558	45.4
243.775	31.06
243.992	-5.8
244.209	53.59
244.426	80.21
244.643	37.2
244.86	65.88
245.078	57.68
245.295	-9.9
245.512	-18.09
245.729	49.49
245.946	84.31
246.163	53.59
246.38	76.12
246.597	22.87
246.814	16.73
247.031	2.39
247.248	26.96
247.464	26.96
247.681	69.97
247.898	-79.53
248.115	35.16
248.332	-16.04
248.549	76.12
248.766	106.84
248.983	55.64
249.2	37.2
249.417	41.3
249.633	10.58
249.85	31.06
250.067	41.3
250.284	112.98
250.501	96.6
250.717	29.01
250.934	67.92
251.151	84.31
251.368	37.2
251.585	-7.85
251.801	-61.1
252.018	-26.28
252.235	55.64
252.451	12.63
252.668	-26.28
252.885	20.82
253.102	31.06
253.318	45.4
253.535	57.68
253.752	74.07
253.968	69.97
254.185	74.07
254.401	-16.04
254.618	18.77
254.835	-13.99
255.051	35.16
255.268	92.5
255.484	61.78
255.701	88.4
255.917	88.4
256.134	12.63
256.351	65.88
256.567	-3.75
256.784	16.73
257	-26.28
257.217	16.73
257.433	65.88
257.65	92.5
257.866	45.4
258.082	10.58
258.299	41.3
258.515	41.3
258.732	-32.43
258.948	24.92
259.165	84.31
259.381	-9.9
259.597	43.35
259.814	24.92
260.03	80.21
260.246	90.45
260.463	63.83
260.679	112.98
260.895	69.97
261.112	55.64
261.328	59.73
261.544	39.25
261.761	162.13
261.977	4.44
262.193	-7.85
262.409	31.06
262.626	108.88
262.842	-75.43
263.058	-34.47
263.274	125.27
263.49	80.21
263.707	63.83
263.923	45.4
264.139	22.87
264.355	12.63
264.571	117.08
264.787	65.88
265.004	57.68
265.22	80.21
265.436	67.92
265.652	8.53
265.868	92.5
266.084	61.78
266.3	43.35
266.516	14.68
266.732	72.02
266.948	29.01
267.164	57.68
267.38	-61.1
267.596	18.77
267.812	82.26
268.028	49.49
268.244	-16.04
268.46	20.82
268.676	49.49
268.892	74.07
269.108	16.73
269.324	16.73
269.54	16.73
269.756	69.97
269.972	41.3
270.188	49.49
270.403	35.16
270.619	22.87
270.835	43.35
271.051	35.16
271.267	59.73
271.483	65.88
271.698	43.35
271.914	55.64
272.13	35.16
272.346	6.49
272.562	-24.23
272.777	98.64
272.993	61.78
273.209	39.25
273.425	78.16
273.64	39.25
273.856	22.87
274.072	-9.9
274.287	55.64
274.503	49.49
274.719	39.25
274.934	2.39
275.15	43.35
275.366	98.64
275.581	96.6
275.797	115.03
276.012	18.77
276.228	24.92
276.444	43.35
276.659	49.49
276.875	26.96
277.09	47.44
277.306	22.87
277.521	41.3
277.737	92.5
277.952	69.97
278.168	26.96
278.383	-20.14
278.599	6.49
278.814	59.73
279.03	-28.33
279.245	39.25
279.461	35.16
279.676	112.98
279.892	6.49
280.107	104.79
280.322	18.77
280.538	61.78
280.753	37.2
280.969	0.34
281.184	72.02
281.399	61.78
281.615	16.73
281.83	16.73
282.045	16.73
282.26	80.21
282.476	74.07
282.691	31.06
282.906	-34.47
283.122	104.79
283.337	20.82
283.552	47.44
283.767	-69.29
283.983	94.55
284.198	26.96
284.413	86.36
284.628	-38.57
284.843	61.78
285.058	82.26
285.274	84.31
285.489	65.88
285.704	29.01
285.919	61.78
286.134	47.44
286.349	37.2
286.564	53.59
286.779	55.64
286.995	45.4
287.21	33.11
287.425	82.26
287.64	-38.57
287.855	67.92
288.07	-11.95
288.285	2.39
288.5	41.3
288.715	6.49
288.93	31.06
289.145	69.97
289.36	26.96
289.575	63.83
289.79	-26.28
290.004	-34.47
290.219	94.55
290.434	53.59
290.649	-18.09
290.864	55.64
291.079	12.63
291.294	29.01
291.509	-71.34
291.724	4.44
291.938	57.68
292.153	76.12
292.368	18.77
292.583	106.84
292.798	63.83
293.012	26.96
293.227	61.78
293.442	90.45
293.657	63.83
293.871	69.97
294.086	-22.19
294.301	37.2
294.516	53.59
294.73	-44.71
294.945	16.73
295.16	4.44
295.374	53.59
295.589	100.69
295.804	49.49
296.018	41.3
296.233	92.5
296.447	51.54
296.662	-16.04
296.877	18.77
297.091	35.16
297.306	96.6
297.52	39.25
297.735	10.58
297.949	115.03
298.164	98.64
298.378	117.08
298.593	-73.39
298.807	-3.75
299.022	55.64
299.236	67.92
299.451	18.77
299.665	-26.28
299.88	4.44
300.094	-18.09
300.309	90.45
300.523	67.92
300.737	45.4
300.952	49.49
301.166	33.11
301.381	20.82
301.595	63.83
301.809	26.96
302.024	88.4
302.238	24.92
302.452	100.69
302.667	63.83
302.881	-1.71
303.095	51.54
303.309	53.59
303.524	35.16
303.738	51.54
303.952	31.06
304.166	24.92
304.381	-50.86
304.595	45.4
304.809	53.59
305.023	47.44
305.237	53.59
305.452	33.11
305.666	24.92
305.88	100.69
306.094	57.68
306.308	63.83
306.522	35.16
306.736	0.34
306.95	104.79
307.164	45.4
307.379	-48.81
307.593	135.51
307.807	137.56
308.021	80.21
308.235	24.92
308.449	47.44
308.663	57.68
308.877	72.02
309.091	61.78
309.305	88.4
309.519	12.63
309.733	96.6
309.947	-18.09
310.161	12.63
310.374	39.25
310.588	37.2
310.802	31.06
311.016	-5.8
311.23	92.5
311.444	57.68
311.658	82.26
311.872	141.65
312.085	35.16
312.299	49.49
312.513	4.44
312.727	82.26
312.941	94.55
313.154	51.54
313.368	80.21
313.582	-20.14
313.796	55.64
314.009	74.07
314.223	59.73
314.437	59.73
314.651	22.87
314.864	45.4
315.078	51.54
315.292	4.44
315.505	49.49
315.719	106.84
315.933	53.59
316.146	51.54
316.36	18.77
316.573	57.68
316.787	33.11
317.001	74.07
317.214	-46.76
317.428	22.87
317.641	-34.47
317.855	-3.75
318.068	65.88
318.282	90.45
318.495	63.83
318.709	61.78
318.922	18.77
319.136	108.88
319.349	14.68
319.563	-24.23
319.776	6.49
319.99	2.39
320.203	59.73
320.417	90.45
320.63	43.35
320.843	2.39
321.057	84.31
321.27	67.92
321.483	33.11
321.697	119.12
321.91	24.92
322.124	-7.85
322.337	160.08
322.55	12.63
322.763	39.25
322.977	18.77
323.19	37.2
323.403	41.3
323.617	51.54
323.83	78.16
324.043	39.25
324.256	67.92
324.469	8.53
324.683	135.51
324.896	53.59
325.109	92.5
325.322	45.4
325.535	51.54
325.748	80.21
325.962	74.07
326.175	90.45
326.388	102.74
326.601	26.96
326.814	78.16
327.027	63.83
327.24	53.59
327.453	39.25
327.666	61.78
327.879	63.83
328.092	22.87
328.305	41.3
328.518	31.06
328.731	10.58
328.944	59.73
329.157	51.54
329.37	4.44
329.583	47.44
329.796	59.73
330.009	8.53
330.222	18.77
330.435	39.25
330.648	20.82
330.861	31.06
331.073	92.5
331.286	112.98
331.499	61.78
331.712	-36.52
331.925	43.35
332.138	22.87
332.35	76.12
332.563	115.03
332.776	51.54
332.989	39.25
333.202	131.41
333.414	37.2
333.627	18.77
333.84	-1.71
334.053	26.96
334.265	63.83
334.478	88.4
334.691	-26.28
334.903	33.11
335.116	43.35
335.329	47.44
335.541	35.16
335.754	12.63
335.966	6.49
336.179	14.68
336.392	14.68
336.604	43.35
336.817	43.35
337.029	131.41
337.242	4.44
337.454	65.88
337.667	57.68
337.88	88.4
338.092	20.82
338.305	59.73
338.517	10.58
338.729	80.21
338.942	106.84
339.154	49.49
339.367	45.4
339.579	74.07
339.792	117.08
340.004	63.83
340.217	51.54
340.429	61.78
340.641	-1.71
340.854	-22.19
341.066	45.4
341.278	72.02
341.491	76.12
341.703	110.93
341.915	18.77
342.128	41.3
342.34	4.44
342.552	24.92
342.764	100.69
342.977	39.25
343.189	123.22
343.401	72.02
343.613	69.97
343.826	151.89
344.038	-22.19
344.25	98.64
344.462	-22.19
344.674	-16.04
344.886	121.17
345.099	49.49
345.311	63.83
345.523	94.55
345.735	37.2
345.947	18.77
346.159	49.49
346.371	110.93
346.583	100.69
346.795	88.4
347.007	10.58
347.219	37.2
347.431	22.87
347.643	67.92
347.855	74.07
348.067	90.45
348.279	20.82
348.491	39.25
348.703	18.77
348.915	123.22
349.127	57.68
349.339	39.25
349.551	43.35
349.763	102.74
349.975	-3.75
350.187	100.69
350.399	-5.8
350.61	59.73
350.822	78.16
351.034	106.84
351.246	24.92
351.458	86.36
351.669	74.07
351.881	84.31
352.093	125.27
352.305	100.69
352.517	65.88
352.728	45.4
352.94	22.87
353.152	-38.57
353.363	90.45
353.575	14.68
353.787	57.68
353.999	4.44
354.21	18.77
354.422	31.06
354.633	67.92
354.845	-5.8
355.057	76.12
355.268	90.45
355.48	90.45
355.692	16.73
355.903	2.39
356.115	59.73
356.326	-44.71
356.538	135.51
356.749	18.77
356.961	2.39
357.172	96.6
357.384	-13.99
357.595	96.6
357.807	80.21
358.018	47.44
358.23	57.68
358.441	102.74
358.653	88.4
358.864	-24.23
359.075	-30.38
359.287	76.12
359.498	125.27
359.709	35.16
359.921	59.73
360.132	88.4
360.344	6.49
360.555	96.6
360.766	147.8
360.977	-34.47
361.189	153.94
361.4	49.49
361.611	20.82
361.823	117.08
362.034	31.06
362.245	45.4
362.456	80.21
362.667	26.96
362.879	37.2
363.09	12.63
363.301	102.74
363.512	14.68
363.723	80.21
363.935	8.53
364.146	115.03
364.357	96.6
364.568	80.21
364.779	-48.81
364.99	74.07
365.201	98.64
365.412	160.08
365.623	-9.9
365.834	84.31
366.045	29.01
366.256	35.16
366.467	57.68
366.678	84.31
366.889	129.36
367.1	63.83
367.311	-3.75
367.522	63.83
367.733	4.44
367.944	20.82
368.155	-1.71
368.366	57.68
368.577	45.4
368.788	61.78
368.999	41.3
369.209	80.21
369.42	125.27
369.631	92.5
369.842	8.53
370.053	127.32
370.264	14.68
370.474	41.3
370.685	149.84
370.896	14.68
371.107	41.3
371.317	31.06
371.528	106.84
371.739	51.54
371.95	10.58
372.16	51.54
372.371	49.49
372.582	53.59
372.792	-16.04
373.003	4.44
373.214	37.2
373.424	18.77
373.635	59.73
373.846	174.42
374.056	112.98
374.267	88.4
374.477	78.16
374.688	31.06
374.898	88.4
375.109	102.74
375.319	6.49
375.53	14.68
375.74	39.25
375.951	41.3
376.161	94.55
376.372	100.69
376.582	67.92
376.793	63.83
377.003	41.3
377.214	49.49
377.424	108.88
377.635	31.06
377.845	80.21
378.055	119.12
378.266	104.79
378.476	29.01
378.686	82.26
378.897	53.59
379.107	90.45
379.317	119.12
379.528	41.3
379.738	135.51
379.948	59.73
380.158	119.12
380.369	160.08
380.579	39.25
380.789	18.77
380.999	78.16
381.21	96.6
381.42	104.79
381.63	14.68
381.84	80.21
382.05	104.79
382.261	74.07
382.471	43.35
382.681	37.2
382.891	37.2
383.101	31.06
383.311	45.4
383.521	22.87
383.731	51.54
383.941	102.74
384.151	49.49
384.361	63.83
384.571	14.68
384.781	147.8
384.991	119.12
385.201	84.31
385.411	74.07
385.621	94.55
385.831	90.45
386.041	39.25
386.251	12.63
386.461	57.68
386.671	63.83
386.881	41.3
387.091	6.49
387.301	106.84
387.511	53.59
387.72	57.68
387.93	63.83
388.14	26.96
388.35	31.06
388.56	86.36
388.769	131.41
388.979	76.12
389.189	94.55
389.399	16.73
389.609	41.3
389.818	65.88
390.028	51.54
390.238	80.21
390.447	22.87
390.657	53.59
390.867	51.54
391.076	63.83
391.286	57.68
391.496	86.36
391.705	35.16
391.915	-11.95
392.125	0.34
392.334	61.78
392.544	151.89
392.753	112.98
392.963	14.68
393.172	76.12
393.382	0.34
393.591	145.75
393.801	55.64
394.01	74.07
394.22	80.21
394.429	31.06
394.639	72.02
394.848	96.6
395.058	37.2
395.267	149.84
395.477	43.35
395.686	84.31
395.895	63.83
396.105	160.08
396.314	108.88
396.524	96.6
396.733	135.51
396.942	172.37
397.152	59.73
397.361	100.69
397.57	104.79
397.78	119.12
397.989	65.88
398.198	145.75
398.407	170.32
398.617	67.92
398.826	63.83
399.035	121.17
399.244	127.32
399.453	59.73
399.663	137.56
399.872	135.51
400.081	158.03
400.29	135.51
400.499	76.12
400.708	188.75
400.917	119.12
401.127	92.5
401.336	127.32
401.545	119.12
401.754	192.85
401.963	160.08
402.172	112.98
402.381	153.94
402.59	104.79
402.799	115.03
403.008	131.41
403.217	141.65
403.426	72.02
403.635	100.69
403.844	96.6
404.053	174.42
404.262	49.49
404.471	186.71
404.68	121.17
404.888	61.78
405.097	119.12
405.306	133.46
405.515	143.7
405.724	209.23
405.933	190.8
406.142	121.17
406.35	153.94
406.559	205.14
406.768	170.32
406.977	213.33
407.185	153.94
407.394	178.51
407.603	186.71
407.812	225.62
408.02	235.86
408.229	110.93
408.438	147.8
408.646	209.23
408.855	254.29
409.064	311.63
409.272	225.62
409.481	272.72
409.69	274.77
409.898	190.8
410.107	311.63
410.315	338.26
410.524	262.48
410.733	303.44
410.941	301.39
411.15	334.16
411.358	237.91
411.567	375.12
411.775	409.94
411.984	381.26
412.192	395.6
412.401	448.85
412.609	481.61
412.818	440.65
413.026	549.2
413.234	450.89
413.443	467.28
413.651	475.47
413.86	485.71
414.068	592.2
414.276	559.44
414.485	541.01
414.693	493.9
414.901	631.12
415.11	653.64
415.318	588.11
415.526	721.23
415.734	717.13
415.943	612.68
416.151	745.8
416.359	702.79
416.567	725.32
416.776	805.19
416.984	883.02
417.192	966.98
417.4	885.06
417.608	860.49
417.817	1001.8
418.025	1018.18
418.233	983.37
418.441	1069.38
418.649	1093.96
418.857	1065.29
419.065	1159.49
419.273	1120.58
419.481	1259.84
419.689	1319.23
419.897	1349.95
420.105	1368.38
420.313	1478.97
420.521	1364.29
420.729	1601.85
420.937	1485.12
421.145	1554.75
421.353	1622.33
421.561	1775.93
421.769	1820.99
421.977	1765.69
422.185	1802.55
422.393	1917.24
422.601	2105.65
422.809	2076.98
423.017	2048.31
423.224	2234.68
423.432	2232.63
423.64	2230.58
423.848	2466.1
424.056	2361.65
424.263	2513.2
424.471	2627.89
424.679	2494.77
424.887	2722.09
425.094	2898.22
425.302	2847.02
425.51	3000.62
425.718	3057.96
425.925	2926.89
426.133	3248.42
426.341	3348.77
426.548	3436.83
426.756	3512.61
426.964	3580.19
427.171	3854.62
427.379	3793.18
427.586	4040.98
427.794	4090.13
428.001	4247.83
428.209	4430.1
428.417	4444.43
428.624	4661.52
428.832	4698.38
429.039	4610.32
429.247	4692.24
429.454	5110.02
429.662	5368.07
429.869	4993.29
430.076	5304.58
430.284	5386.5
430.491	5505.28
430.699	5785.85
430.906	5675.26
431.114	5964.03
431.321	6142.2
431.528	6291.7
431.736	6553.84
431.943	6699.25
432.15	6742.25
432.358	6813.93
432.565	7151.85
432.772	7086.31
432.979	7569.63
433.187	7487.72
433.394	7577.83
433.601	8122.59
433.808	8212.7
434.016	8321.24
434.223	8689.87
434.43	9162.95
434.637	8870.09
434.844	9507.01
435.052	9474.24
435.259	9613.51
435.466	9605.31
435.673	9523.4
435.88	10221.75
436.087	10588.34
436.294	10629.3
436.501	10260.66
436.708	10703.03
436.915	11065.52
437.122	11440.29
437.329	11501.73
437.537	11833.5
437.743	12099.74
437.95	11911.33
438.157	12345.5
438.364	12978.32
438.571	12779.67
438.778	12949.65
438.985	14397.56
439.192	13580.42
439.399	14252.16
439.606	13891.71
439.813	14456.95
440.02	15628.39
440.227	15202.41
440.433	15106.16
440.64	15337.58
440.847	15353.96
441.054	15923.3
441.261	16914.52
441.467	16466.01
441.674	16939.09
441.881	17715.27
442.088	17598.54
442.294	17332.3
442.501	17893.44
442.708	18063.43
442.914	18884.66
443.121	19976.23
443.328	19220.53
443.534	20465.69
443.741	19894.31
443.948	19810.34
444.154	21112.85
444.361	20924.44
444.568	21000.21
444.774	21268.5
444.981	21450.77
445.187	21889.03
445.394	22609.92
445.6	22990.84
445.807	24803.29
446.013	23859.18
446.22	24424.42
446.426	25130.97
446.633	25325.52
446.839	26337.22
447.046	25014.23
447.252	26601.41
447.459	26820.54
447.665	26380.23
447.871	27322.29
448.078	28751.77
448.284	27326.39
448.491	28080.04
448.697	29548.43
448.903	29894.54
449.11	29708.18
449.316	29431.7
449.522	29908.88
449.728	30832.51
449.935	30713.73
450.141	30814.08
450.347	31616.88
450.553	30472.07
450.76	31303.54
450.966	32243.56
451.172	31575.92
451.378	32421.73
451.584	31551.35
451.791	32716.64
451.997	32505.7
452.203	33019.74
452.409	33179.48
452.615	32608.1
452.821	31797.1
453.027	31481.72
453.233	32880.48
453.44	31991.66
453.646	32094.06
453.852	32280.42
454.058	32980.83
454.264	31704.95
454.47	32073.58
454.676	31551.35
454.882	32724.83
455.088	29876.11
455.294	30414.73
455.5	30988.16
455.705	31215.48
455.911	29616.02
456.117	29237.14
456.323	28985.24
456.529	27695.02
456.735	28311.46
456.941	27922.35
457.147	27320.24
457.352	26431.43
457.558	26357.7
457.764	26537.92
457.97	25831.37
458.176	25325.52
458.381	25554.9
458.587	23990.25
458.793	24338.4
458.999	22824.95
459.204	24270.82
459.41	23527.41
459.616	22255.62
459.821	22345.73
460.027	22077.44
460.233	21721.1
460.438	20625.43
460.644	20592.67
460.85	20076.58
461.055	19509.29
461.261	19415.09
461.466	17776.71
461.672	17608.78
461.878	18745.4
462.083	17750.09
462.289	17193.04
462.494	17035.35
462.7	16277.6
462.905	15876.2
463.111	16386.14
463.316	16406.62
463.522	15972.45
463.727	16097.38
463.932	15820.9
464.138	15939.68
464.343	15855.72
464.549	15429.74
464.754	16050.27
464.959	15689.83
465.165	15706.21
465.37	14981.23
465.575	14622.84
465.781	15325.29
465.986	15343.72
466.191	15032.43
466.397	14624.89
466.602	13807.75
466.807	14485.62
467.012	14504.06
467.218	14239.87
467.423	14377.08
467.628	14243.96
467.833	14821.49
