Data from USB4F104151__71__11-52-39-781.txt Node

Date: Fri Mar 14 11:52:39 EDT 2025
User: louis
Spectrometer: USB4F10415
Trigger mode: 4
Integration Time (sec): 2.000000E-2
Scans to average: 1
Electric dark correction enabled: true
Nonlinearity correction enabled: false
Boxcar width: 0
XAxis mode: Wavelengths
Number of Pixels in Spectrum: 3648
>>>>>Begin Spectral Data<<<<<
178.204	-24.75
178.424	-24.75
178.644	-24.75
178.864	-80.04
179.084	-166.06
179.304	-4.27
179.524	61.27
179.744	-26.79
179.964	44.88
180.184	-61.61
180.404	8.02
180.624	-22.7
180.844	10.07
181.064	-8.36
181.283	-8.36
181.503	14.17
181.723	-6.31
181.943	-10.41
182.163	22.36
182.383	-61.61
182.602	51.03
182.822	36.69
183.042	59.22
183.262	12.12
183.482	-4.27
183.701	3.93
183.921	-69.8
184.141	20.31
184.361	-16.55
184.58	-24.75
184.8	83.8
185.02	18.26
185.239	59.22
185.459	-2.22
185.679	-6.31
185.898	1.88
186.118	-26.79
186.338	79.7
186.557	-32.94
186.777	-47.27
186.997	-14.51
187.216	32.6
187.436	-6.31
187.655	10.07
187.875	69.46
188.095	-30.89
188.314	30.55
188.534	48.98
188.753	-28.84
188.973	40.79
189.192	57.17
189.412	51.03
189.631	-8.36
189.851	5.97
190.07	16.21
190.29	-51.37
190.509	-8.36
190.729	-2.22
190.948	-43.18
191.168	59.22
191.387	89.94
191.607	16.21
191.826	61.27
192.045	16.21
192.265	28.5
192.484	40.79
192.704	-49.32
192.923	-24.75
193.142	-0.17
193.362	75.6
193.581	8.02
193.8	51.03
194.02	1.88
194.239	-8.36
194.458	81.75
194.678	51.03
194.897	-4.27
195.116	12.12
195.335	10.07
195.555	102.23
195.774	28.5
195.993	98.13
196.212	-69.8
196.432	40.79
196.651	10.07
196.87	-49.32
197.089	51.03
197.308	10.07
197.528	-8.36
197.747	-53.42
197.966	-63.66
198.185	73.56
198.404	-6.31
198.623	-22.7
198.842	30.55
199.062	-20.65
199.281	36.69
199.5	14.17
199.719	-20.65
199.938	20.31
200.157	102.23
200.376	87.89
200.595	104.28
200.814	-4.27
201.033	-20.65
201.252	-2.22
201.471	-12.46
201.69	65.36
201.909	-12.46
202.128	-0.17
202.347	18.26
202.566	24.4
202.785	34.64
203.004	10.07
203.223	143.19
203.442	26.45
203.661	-2.22
203.879	-22.7
204.098	53.08
204.317	-2.22
204.536	40.79
204.755	-32.94
204.974	53.08
205.193	26.45
205.411	-10.41
205.63	71.51
205.849	14.17
206.068	-20.65
206.287	-10.41
206.505	77.65
206.724	18.26
206.943	-0.17
207.162	83.8
207.381	-18.6
207.599	-24.75
207.818	-14.51
208.037	48.98
208.255	22.36
208.474	1.88
208.693	3.93
208.911	51.03
209.13	34.64
209.349	55.12
209.567	26.45
209.786	12.12
210.005	-6.31
210.223	42.84
210.442	24.4
210.661	28.5
210.879	-47.27
211.098	42.84
211.316	53.08
211.535	40.79
211.753	71.51
211.972	67.41
212.191	3.93
212.409	48.98
212.628	-6.31
212.846	34.64
213.065	51.03
213.283	67.41
213.502	104.28
213.72	8.02
213.938	5.97
214.157	12.12
214.375	-4.27
214.594	44.88
214.812	10.07
215.031	18.26
215.249	-20.65
215.467	51.03
215.686	14.17
215.904	-8.36
216.122	-16.55
216.341	36.69
216.559	30.55
216.778	69.46
216.996	-14.51
217.214	16.21
217.432	32.6
217.651	40.79
217.869	12.12
218.087	-4.27
218.306	-16.55
218.524	10.07
218.742	34.64
218.96	32.6
219.179	-4.27
219.397	8.02
219.615	3.93
219.833	63.32
220.051	3.93
220.27	1.88
220.488	14.17
220.706	75.6
220.924	16.21
221.142	-28.84
221.36	-34.99
221.578	1.88
221.796	63.32
222.015	75.6
222.233	-53.42
222.451	57.17
222.669	-75.95
222.887	3.93
223.105	10.07
223.323	-20.65
223.541	8.02
223.759	42.84
223.977	8.02
224.195	3.93
224.413	67.41
224.631	34.64
224.849	-57.51
225.067	73.56
225.285	38.74
225.503	34.64
225.721	12.12
225.939	53.08
226.157	135
226.375	51.03
226.592	63.32
226.81	69.46
227.028	28.5
227.246	44.88
227.464	18.26
227.682	36.69
227.9	38.74
228.117	-57.51
228.335	40.79
228.553	20.31
228.771	44.88
228.989	65.36
229.206	26.45
229.424	20.31
229.642	16.21
229.86	55.12
230.077	8.02
230.295	77.65
230.513	42.84
230.731	30.55
230.948	26.45
231.166	-32.94
231.384	-4.27
231.601	-12.46
231.819	32.6
232.037	55.12
232.254	28.5
232.472	-18.6
232.689	-18.6
232.907	-34.99
233.125	-6.31
233.342	26.45
233.56	10.07
233.777	3.93
233.995	36.69
234.213	28.5
234.43	42.84
234.648	-0.17
234.865	24.4
235.083	55.12
235.3	38.74
235.518	32.6
235.735	20.31
235.953	20.31
236.17	10.07
236.388	-10.41
236.605	85.84
236.822	-22.7
237.04	-6.31
237.257	28.5
237.475	-37.03
237.692	-0.17
237.909	24.4
238.127	3.93
238.344	79.7
238.562	42.84
238.779	34.64
238.996	-34.99
239.214	-4.27
239.431	20.31
239.648	10.07
239.865	18.26
240.083	-6.31
240.3	24.4
240.517	-0.17
240.735	42.84
240.952	118.61
241.169	81.75
241.386	48.98
241.603	-16.55
241.821	-37.03
242.038	18.26
242.255	24.4
242.472	-59.56
242.689	65.36
242.907	8.02
243.124	98.13
243.341	34.64
243.558	30.55
243.775	-28.84
243.992	32.6
244.209	-88.23
244.426	57.17
244.643	73.56
244.86	-8.36
245.078	77.65
245.295	18.26
245.512	-22.7
245.729	-59.56
245.946	26.45
246.163	20.31
246.38	44.88
246.597	20.31
246.814	32.6
247.031	36.69
247.248	32.6
247.464	110.42
247.681	53.08
247.898	48.98
248.115	-30.89
248.332	-65.71
248.549	-20.65
248.766	-10.41
248.983	38.74
249.2	-16.55
249.417	77.65
249.633	24.4
249.85	-30.89
250.067	-28.84
250.284	57.17
250.501	38.74
250.717	94.04
250.934	20.31
251.151	38.74
251.368	-16.55
251.585	-10.41
251.801	24.4
252.018	-0.17
252.235	55.12
252.451	-16.55
252.668	-28.84
252.885	71.51
253.102	-18.6
253.318	-28.84
253.535	16.21
253.752	-24.75
253.968	-16.55
254.185	-18.6
254.401	-41.13
254.618	3.93
254.835	-8.36
255.051	128.85
255.268	-4.27
255.484	44.88
255.701	26.45
255.917	59.22
256.134	16.21
256.351	-43.18
256.567	12.12
256.784	20.31
257	-4.27
257.217	-0.17
257.433	46.93
257.65	-6.31
257.866	-6.31
258.082	20.31
258.299	40.79
258.515	59.22
258.732	20.31
258.948	22.36
259.165	42.84
259.381	38.74
259.597	61.27
259.814	28.5
260.03	22.36
260.246	24.4
260.463	61.27
260.679	12.12
260.895	-10.41
261.112	71.51
261.328	36.69
261.544	46.93
261.761	30.55
261.977	32.6
262.193	30.55
262.409	77.65
262.626	46.93
262.842	-22.7
263.058	-37.03
263.274	51.03
263.49	32.6
263.707	-4.27
263.923	57.17
264.139	-8.36
264.355	53.08
264.571	98.13
264.787	57.17
265.004	71.51
265.22	16.21
265.436	-4.27
265.652	-2.22
265.868	20.31
266.084	81.75
266.3	-22.7
266.516	-6.31
266.732	77.65
266.948	-4.27
267.164	96.08
267.38	-0.17
267.596	73.56
267.812	57.17
268.028	59.22
268.244	-32.94
268.46	-18.6
268.676	28.5
268.892	14.17
269.108	10.07
269.324	-8.36
269.54	38.74
269.756	61.27
269.972	-28.84
270.188	63.32
270.403	-37.03
270.619	-6.31
270.835	-2.22
271.051	38.74
271.267	1.88
271.483	-6.31
271.698	44.88
271.914	-57.51
272.13	75.6
272.346	83.8
272.562	48.98
272.777	40.79
272.993	42.84
273.209	65.36
273.425	-24.75
273.64	18.26
273.856	16.21
274.072	55.12
274.287	30.55
274.503	22.36
274.719	42.84
274.934	22.36
275.15	20.31
275.366	63.32
275.581	-51.37
275.797	-34.99
276.012	-0.17
276.228	46.93
276.444	-14.51
276.659	-32.94
276.875	-10.41
277.09	55.12
277.306	12.12
277.521	63.32
277.737	32.6
277.952	36.69
278.168	32.6
278.383	73.56
278.599	57.17
278.814	77.65
279.03	12.12
279.245	91.99
279.461	-10.41
279.676	53.08
279.892	-2.22
280.107	-69.8
280.322	55.12
280.538	-53.42
280.753	-8.36
280.969	77.65
281.184	8.02
281.399	55.12
281.615	-16.55
281.83	34.64
282.045	36.69
282.26	-16.55
282.476	42.84
282.691	53.08
282.906	-6.31
283.122	-2.22
283.337	34.64
283.552	63.32
283.767	14.17
283.983	5.97
284.198	20.31
284.413	-2.22
284.628	-32.94
284.843	59.22
285.058	12.12
285.274	24.4
285.489	87.89
285.704	32.6
285.919	104.28
286.134	30.55
286.349	-2.22
286.564	53.08
286.779	53.08
286.995	32.6
287.21	-61.61
287.425	51.03
287.64	63.32
287.855	-34.99
288.07	-26.79
288.285	24.4
288.5	16.21
288.715	85.84
288.93	71.51
289.145	94.04
289.36	96.08
289.575	-69.8
289.79	67.41
290.004	14.17
290.219	24.4
290.434	40.79
290.649	-16.55
290.864	14.17
291.079	12.12
291.294	14.17
291.509	73.56
291.724	40.79
291.938	51.03
292.153	57.17
292.368	-30.89
292.583	-39.08
292.798	16.21
293.012	-18.6
293.227	44.88
293.442	83.8
293.657	-10.41
293.871	-37.03
294.086	-4.27
294.301	-8.36
294.516	38.74
294.73	44.88
294.945	30.55
295.16	-0.17
295.374	-2.22
295.589	77.65
295.804	-10.41
296.018	30.55
296.233	65.36
296.447	53.08
296.662	-26.79
296.877	91.99
297.091	5.97
297.306	69.46
297.52	20.31
297.735	63.32
297.949	40.79
298.164	55.12
298.378	24.4
298.593	-45.23
298.807	34.64
299.022	81.75
299.236	-0.17
299.451	10.07
299.665	-30.89
299.88	51.03
300.094	-6.31
300.309	57.17
300.523	32.6
300.737	73.56
300.952	91.99
301.166	63.32
301.381	-24.75
301.595	1.88
301.809	110.42
302.024	-30.89
302.238	53.08
302.452	-47.27
302.667	10.07
302.881	71.51
303.095	36.69
303.309	-37.03
303.524	30.55
303.738	63.32
303.952	-28.84
304.166	61.27
304.381	81.75
304.595	40.79
304.809	8.02
305.023	40.79
305.237	-71.85
305.452	-37.03
305.666	40.79
305.88	42.84
306.094	59.22
306.308	110.42
306.522	-14.51
306.736	98.13
306.95	44.88
307.164	-4.27
307.379	5.97
307.593	3.93
307.807	-22.7
308.021	110.42
308.235	10.07
308.449	-2.22
308.663	-2.22
308.877	59.22
309.091	-67.75
309.305	-6.31
309.519	22.36
309.733	69.46
309.947	3.93
310.161	85.84
310.374	-18.6
310.588	122.71
310.802	3.93
311.016	-39.08
311.23	34.64
311.444	-65.71
311.658	26.45
311.872	46.93
312.085	53.08
312.299	100.18
312.513	32.6
312.727	73.56
312.941	69.46
313.154	71.51
313.368	87.89
313.582	22.36
313.796	77.65
314.009	59.22
314.223	22.36
314.437	42.84
314.651	42.84
314.864	53.08
315.078	48.98
315.292	32.6
315.505	-26.79
315.719	44.88
315.933	48.98
316.146	94.04
316.36	48.98
316.573	-22.7
316.787	-4.27
317.001	81.75
317.214	24.4
317.428	14.17
317.641	22.36
317.855	71.51
318.068	20.31
318.282	53.08
318.495	79.7
318.709	38.74
318.922	22.36
319.136	8.02
319.349	81.75
319.563	-4.27
319.776	12.12
319.99	16.21
320.203	77.65
320.417	69.46
320.63	24.4
320.843	16.21
321.057	14.17
321.27	24.4
321.483	-4.27
321.697	89.94
321.91	3.93
322.124	5.97
322.337	10.07
322.55	22.36
322.763	22.36
322.977	24.4
323.19	12.12
323.403	32.6
323.617	8.02
323.83	48.98
324.043	22.36
324.256	10.07
324.469	3.93
324.683	24.4
324.896	-63.66
325.109	48.98
325.322	-69.8
325.535	46.93
325.748	34.64
325.962	14.17
326.175	26.45
326.388	-24.75
326.601	96.08
326.814	63.32
327.027	-12.46
327.24	114.52
327.453	-10.41
327.666	81.75
327.879	32.6
328.092	26.45
328.305	20.31
328.518	26.45
328.731	-43.18
328.944	20.31
329.157	-20.65
329.37	-24.75
329.583	81.75
329.796	73.56
330.009	14.17
330.222	18.26
330.435	46.93
330.648	55.12
330.861	3.93
331.073	26.45
331.286	51.03
331.499	61.27
331.712	-18.6
331.925	36.69
332.138	-71.85
332.35	53.08
332.563	-6.31
332.776	3.93
332.989	-32.94
333.202	53.08
333.414	-43.18
333.627	8.02
333.84	69.46
334.053	77.65
334.265	44.88
334.478	-14.51
334.691	18.26
334.903	1.88
335.116	-16.55
335.329	53.08
335.541	87.89
335.754	16.21
335.966	32.6
336.179	63.32
336.392	-22.7
336.604	61.27
336.817	14.17
337.029	53.08
337.242	-8.36
337.454	20.31
337.667	51.03
337.88	30.55
338.092	110.42
338.305	116.56
338.517	24.4
338.729	-28.84
338.942	5.97
339.154	-26.79
339.367	51.03
339.579	46.93
339.792	81.75
340.004	36.69
340.217	48.98
340.429	34.64
340.641	28.5
340.854	48.98
341.066	59.22
341.278	38.74
341.491	51.03
341.703	79.7
341.915	81.75
342.128	96.08
342.34	-26.79
342.552	24.4
342.764	69.46
342.977	24.4
343.189	8.02
343.401	51.03
343.613	5.97
343.826	46.93
344.038	-16.55
344.25	61.27
344.462	-24.75
344.674	48.98
344.886	14.17
345.099	12.12
345.311	61.27
345.523	36.69
345.735	-6.31
345.947	10.07
346.159	8.02
346.371	22.36
346.583	61.27
346.795	59.22
347.007	5.97
347.219	69.46
347.431	16.21
347.643	-14.51
347.855	40.79
348.067	32.6
348.279	-8.36
348.491	48.98
348.703	28.5
348.915	51.03
349.127	-37.03
349.339	-2.22
349.551	71.51
349.763	42.84
349.975	-12.46
350.187	67.41
350.399	85.84
350.61	-57.51
350.822	38.74
351.034	46.93
351.246	-0.17
351.458	-18.6
351.669	20.31
351.881	24.4
352.093	-59.56
352.305	20.31
352.517	24.4
352.728	40.79
352.94	44.88
353.152	20.31
353.363	-41.13
353.575	16.21
353.787	73.56
353.999	-16.55
354.21	-14.51
354.422	-10.41
354.633	-16.55
354.845	65.36
355.057	3.93
355.268	38.74
355.48	40.79
355.692	42.84
355.903	-2.22
356.115	91.99
356.326	-26.79
356.538	8.02
356.749	77.65
356.961	44.88
357.172	71.51
357.384	44.88
357.595	-4.27
357.807	-22.7
358.018	-14.51
358.23	55.12
358.441	77.65
358.653	1.88
358.864	-14.51
359.075	-32.94
359.287	-47.27
359.498	-8.36
359.709	48.98
359.921	22.36
360.132	18.26
360.344	26.45
360.555	34.64
360.766	40.79
360.977	40.79
361.189	83.8
361.4	87.89
361.611	18.26
361.823	57.17
362.034	22.36
362.245	73.56
362.456	-59.56
362.667	42.84
362.879	69.46
363.09	-0.17
363.301	75.6
363.512	-41.13
363.723	57.17
363.935	-12.46
364.146	102.23
364.357	10.07
364.568	-0.17
364.779	89.94
364.99	67.41
365.201	67.41
365.412	-2.22
365.623	46.93
365.834	10.07
366.045	28.5
366.256	46.93
366.467	-6.31
366.678	-32.94
366.889	55.12
367.1	5.97
367.311	87.89
367.522	-51.37
367.733	48.98
367.944	98.13
368.155	69.46
368.366	83.8
368.577	69.46
368.788	-16.55
368.999	46.93
369.209	-61.61
369.42	71.51
369.631	73.56
369.842	-4.27
370.053	77.65
370.264	73.56
370.474	46.93
370.685	-20.65
370.896	40.79
371.107	-55.47
371.317	8.02
371.528	106.32
371.739	83.8
371.95	32.6
372.16	137.04
372.371	-45.23
372.582	59.22
372.792	8.02
373.003	26.45
373.214	24.4
373.424	48.98
373.635	89.94
373.846	81.75
374.056	122.71
374.267	34.64
374.477	65.36
374.688	65.36
374.898	38.74
375.109	79.7
375.319	116.56
375.53	32.6
375.74	24.4
375.951	122.71
376.161	57.17
376.372	53.08
376.582	28.5
376.793	83.8
377.003	53.08
377.214	-10.41
377.424	89.94
377.635	63.32
377.845	16.21
378.055	18.26
378.266	-18.6
378.476	26.45
378.686	85.84
378.897	51.03
379.107	69.46
379.317	48.98
379.528	24.4
379.738	98.13
379.948	48.98
380.158	71.51
380.369	30.55
380.579	57.17
380.789	48.98
380.999	69.46
381.21	22.36
381.42	71.51
381.63	-37.03
381.84	137.04
382.05	14.17
382.261	81.75
382.471	59.22
382.681	65.36
382.891	149.33
383.101	75.6
383.311	46.93
383.521	63.32
383.731	8.02
383.941	157.52
384.151	24.4
384.361	-2.22
384.571	32.6
384.781	87.89
384.991	51.03
385.201	-8.36
385.411	42.84
385.621	65.36
385.831	55.12
386.041	73.56
386.251	18.26
386.461	20.31
386.671	24.4
386.881	61.27
387.091	87.89
387.301	12.12
387.511	12.12
387.72	94.04
387.93	65.36
388.14	44.88
388.35	59.22
388.56	-6.31
388.769	38.74
388.979	71.51
389.189	-4.27
389.399	32.6
389.609	46.93
389.818	1.88
390.028	85.84
390.238	38.74
390.447	-32.94
390.657	81.75
390.867	51.03
391.076	24.4
391.286	44.88
391.496	61.27
391.705	26.45
391.915	40.79
392.125	30.55
392.334	-4.27
392.544	48.98
392.753	69.46
392.963	57.17
393.172	38.74
393.382	-14.51
393.591	79.7
393.801	-32.94
394.01	67.41
394.22	-0.17
394.429	79.7
394.639	1.88
394.848	69.46
395.058	12.12
395.267	63.32
395.477	5.97
395.686	46.93
395.895	3.93
396.105	94.04
396.314	57.17
396.524	32.6
396.733	51.03
396.942	85.84
397.152	16.21
397.361	44.88
397.57	87.89
397.78	-2.22
397.989	59.22
398.198	110.42
398.407	34.64
398.617	67.41
398.826	71.51
399.035	55.12
399.244	10.07
399.453	51.03
399.663	26.45
399.872	118.61
400.081	112.47
400.29	157.52
400.499	24.4
400.708	75.6
400.917	24.4
401.127	48.98
401.336	44.88
401.545	114.52
401.754	69.46
401.963	102.23
402.172	83.8
402.381	120.66
402.59	81.75
402.799	42.84
403.008	155.47
403.217	22.36
403.426	118.61
403.635	94.04
403.844	126.8
404.053	83.8
404.262	30.55
404.471	114.52
404.68	94.04
404.888	143.19
405.097	104.28
405.306	153.43
405.515	81.75
405.724	94.04
405.933	135
406.142	126.8
406.35	110.42
406.559	120.66
406.768	180.05
406.977	59.22
407.185	63.32
407.394	143.19
407.603	71.51
407.812	104.28
408.02	190.29
408.229	139.09
408.438	147.28
408.646	118.61
408.855	130.9
409.064	112.47
409.272	147.28
409.481	178
409.69	128.85
409.898	196.43
410.107	188.24
410.315	266.07
410.524	143.19
410.733	249.68
410.941	182.1
411.15	270.16
411.358	255.83
411.567	331.6
411.775	169.81
411.984	200.53
412.192	329.55
412.401	354.13
412.609	290.64
412.818	321.36
413.026	221.01
413.234	298.83
413.443	296.78
413.651	388.94
413.86	315.22
414.068	339.79
414.276	423.76
414.485	360.27
414.693	401.23
414.901	507.73
415.11	425.81
415.318	446.29
415.526	356.18
415.734	485.2
415.943	507.73
416.151	606.03
416.359	411.47
416.567	534.35
416.776	544.59
416.984	606.03
417.192	663.37
417.4	560.97
417.608	550.73
417.817	585.55
418.025	636.75
418.233	544.59
418.441	706.38
418.649	687.95
418.857	726.86
419.065	796.49
419.273	794.44
419.481	814.92
419.689	862.02
419.897	911.18
420.105	900.94
420.313	929.61
420.521	974.66
420.729	997.19
420.937	989
421.145	997.19
421.353	1058.63
421.561	1081.16
421.769	1183.56
421.977	1206.08
422.185	1187.65
422.393	1320.77
422.601	1351.49
422.809	1351.49
423.017	1341.25
423.224	1398.59
423.432	1453.89
423.64	1449.79
423.848	1558.33
424.056	1509.18
424.263	1697.6
424.471	1687.36
424.679	1746.75
424.887	1820.47
425.094	1871.67
425.302	1810.23
425.51	1986.36
425.718	2029.37
425.925	1974.07
426.133	2103.09
426.341	2172.72
426.548	2529.07
426.756	2283.31
426.964	2305.84
427.171	2424.62
427.379	2393.9
427.586	2557.74
427.794	2670.38
428.001	2758.44
428.209	2645.8
428.417	2815.79
428.624	2961.19
428.832	3122.98
429.039	3030.82
429.247	2920.23
429.454	3362.59
429.662	3479.33
429.869	3274.53
430.076	3485.47
430.284	3464.99
430.491	3684.13
430.699	3944.22
430.906	3800.86
431.114	3804.96
431.321	3983.13
431.528	4054.81
431.736	4304.66
431.943	4390.67
432.15	4450.07
432.358	4521.74
432.565	4630.29
432.772	4765.45
432.979	5084.94
433.187	5134.09
433.394	5084.94
433.601	5426.95
433.808	5330.69
434.016	5240.58
434.223	5564.16
434.43	6035.19
434.637	5748.48
434.844	6065.91
435.052	6315.76
435.259	6170.36
435.466	6307.57
435.673	6203.13
435.88	6594.29
436.087	7016.17
436.294	6973.16
436.501	6582
436.708	6813.42
436.915	7143.14
437.122	7485.16
437.329	7634.66
437.537	7593.7
437.743	7823.07
437.95	7792.35
438.157	8300.25
438.364	8441.56
438.571	8429.27
438.778	8480.47
438.985	9201.35
439.192	9086.67
439.399	9135.82
439.606	9176.78
439.813	9506.5
440.02	10186.43
440.227	9803.46
440.433	9762.5
440.64	10237.63
440.847	10127.03
441.054	10448.57
441.261	11116.2
441.467	10790.58
441.674	11232.94
441.881	11613.86
442.088	11450.02
442.294	11300.52
442.501	11630.24
442.708	12072.61
442.914	12324.51
443.121	12822.16
443.328	12666.52
443.534	13434.5
443.741	13311.63
443.948	13010.57
444.154	13758.08
444.361	13739.65
444.568	13880.96
444.774	14048.89
444.981	14122.62
445.187	14550.65
445.394	15009.39
445.6	14902.9
445.807	16250.46
446.013	15521.38
446.22	15832.68
446.426	16391.77
446.633	16719.45
446.839	17399.37
447.046	16445.02
447.252	17290.83
447.459	17466.95
447.665	17290.83
447.871	18239.04
448.078	18953.78
448.284	18187.84
448.491	18466.36
448.697	19066.42
448.903	19617.32
449.11	19709.48
449.316	19422.76
449.522	19844.65
449.728	20297.25
449.935	20555.29
450.141	20301.34
450.347	20891.16
450.553	20172.32
450.76	20788.76
450.966	21091.86
451.172	20874.77
451.378	21693.96
451.584	21216.79
451.791	21679.63
451.997	21616.14
452.203	22083.08
452.409	22107.65
452.615	22154.76
452.821	20921.88
453.027	20848.15
453.233	21663.24
453.44	21239.31
453.646	21298.7
453.852	21722.63
454.058	21681.67
454.264	20878.87
454.47	21587.47
454.676	21018.13
454.882	21861.9
455.088	19807.78
455.294	19981.86
455.5	20661.79
455.705	20715.03
455.911	20260.38
456.117	19529.26
456.323	19107.38
456.529	18126.4
456.735	18783.8
456.941	18714.17
457.147	18368.06
457.352	17540.68
457.558	17401.42
457.764	17485.39
457.97	16946.77
458.176	16891.48
458.381	16821.84
458.587	16076.38
458.793	16307.8
458.999	15279.72
459.204	16092.77
459.41	15963.75
459.616	14927.47
459.821	14970.48
460.027	14782.07
460.233	14546.55
460.438	13674.12
460.644	13989.5
460.85	13182.6
461.055	13123.21
461.261	12949.14
461.466	12052.13
461.672	11710.11
461.878	12517.01
462.083	11597.48
462.289	11433.64
462.494	11376.3
462.7	10970.8
462.905	10550.96
463.111	10813.1
463.316	10976.94
463.522	10772.14
463.727	10684.08
463.932	10639.03
464.138	10378.93
464.343	10761.91
464.549	10331.83
464.754	10831.54
464.959	10630.84
465.165	10450.61
465.37	10124.99
465.575	9901.76
465.781	10215.1
465.986	10190.52
466.191	9557.7
466.397	9633.47
466.602	9103.05
466.807	9592.51
467.012	9436.87
467.218	9404.1
467.423	9252.55
467.628	9447.11
467.833	9760.45
468.038	9428.68
468.244	9295.56
468.449	9651.91
468.654	9285.32
