Data from USB4F104151__32__11-30-09-664.txt Node

Date: Fri Mar 14 11:30:09 EDT 2025
User: louis
Spectrometer: USB4F10415
Trigger mode: 4
Integration Time (sec): 5.000000E-2
Scans to average: 1
Electric dark correction enabled: true
Nonlinearity correction enabled: false
Boxcar width: 0
XAxis mode: Wavelengths
Number of Pixels in Spectrum: 3648
>>>>>Begin Spectral Data<<<<<
178.204	-106.84
178.424	-106.84
178.644	-106.84
178.864	-78.16
179.084	-135.51
179.304	30.38
179.524	-31.06
179.744	-4.44
179.964	57
180.184	16.04
180.404	-18.77
180.624	9.9
180.844	-61.78
181.064	-6.49
181.283	20.14
181.503	-47.44
181.723	36.52
181.943	-35.16
182.163	52.91
182.383	-35.16
182.602	87.72
182.822	102.06
183.042	36.52
183.262	-12.63
183.482	71.34
183.701	67.24
183.921	-8.53
184.141	-57.68
184.361	32.43
184.58	89.77
184.8	52.91
185.02	71.34
185.239	85.67
185.459	59.05
185.679	77.48
185.898	-94.55
186.118	89.77
186.338	102.06
186.557	77.48
186.777	44.71
186.997	36.52
187.216	73.39
187.436	57
187.655	57
187.875	118.44
188.095	38.57
188.314	89.77
188.534	69.29
188.753	13.99
188.973	89.77
189.192	69.29
189.412	104.11
189.631	97.96
189.851	52.91
190.07	102.06
190.29	9.9
190.509	11.95
190.729	28.33
190.948	46.76
191.168	220.84
191.387	59.05
191.607	-12.63
191.826	46.76
192.045	16.04
192.265	38.57
192.484	116.39
192.704	61.1
192.923	-12.63
193.142	106.15
193.362	-12.63
193.581	102.06
193.8	77.48
194.02	104.11
194.239	140.97
194.458	26.28
194.678	3.75
194.897	7.85
195.116	36.52
195.335	83.63
195.555	1.71
195.774	44.71
195.993	52.91
196.212	34.47
196.432	3.75
196.651	50.86
196.87	40.62
197.089	136.87
197.308	18.09
197.528	102.06
197.747	-10.58
197.966	-4.44
198.185	91.82
198.404	16.04
198.623	57
198.842	42.67
199.062	59.05
199.281	75.43
199.5	69.29
199.719	110.25
199.938	24.23
200.157	93.87
200.376	36.52
200.595	61.1
200.814	26.28
201.033	48.81
201.252	93.87
201.471	-2.39
201.69	28.33
201.909	69.29
202.128	59.05
202.347	97.96
202.566	73.39
202.785	57
203.004	48.81
203.223	181.93
203.442	81.58
203.661	36.52
203.879	9.9
204.098	91.82
204.317	7.85
204.536	44.71
204.755	30.38
204.974	44.71
205.193	85.67
205.411	114.34
205.63	81.58
205.849	61.1
206.068	57
206.287	52.91
206.505	114.34
206.724	42.67
206.943	75.43
207.162	11.95
207.381	54.95
207.599	24.23
207.818	91.82
208.037	-31.06
208.255	28.33
208.474	67.24
208.693	85.67
208.911	38.57
209.13	159.4
209.349	110.25
209.567	5.8
209.786	50.86
210.005	77.48
210.223	77.48
210.442	-4.44
210.661	38.57
210.879	44.71
211.098	128.68
211.316	79.53
211.535	89.77
211.753	-45.4
211.972	93.87
212.191	63.15
212.409	16.04
212.628	-14.68
212.846	20.14
213.065	28.33
213.283	118.44
213.502	22.19
213.72	61.1
213.938	85.67
214.157	42.67
214.375	36.52
214.594	81.58
214.812	108.2
215.031	81.58
215.249	3.75
215.467	42.67
215.686	20.14
215.904	110.25
216.122	42.67
216.341	63.15
216.559	79.53
216.778	126.63
216.996	75.43
217.214	7.85
217.432	3.75
217.651	52.91
217.869	34.47
218.087	44.71
218.306	36.52
218.524	38.57
218.742	1.71
218.96	81.58
219.179	85.67
219.397	59.05
219.615	61.1
219.833	89.77
220.051	-47.44
220.27	124.58
220.488	67.24
220.706	61.1
220.924	11.95
221.142	63.15
221.36	130.73
221.578	-20.82
221.796	52.91
222.015	61.1
222.233	44.71
222.451	132.78
222.669	-2.39
222.887	20.14
223.105	20.14
223.323	69.29
223.541	18.09
223.759	59.05
223.977	32.43
224.195	52.91
224.413	89.77
224.631	9.9
224.849	36.52
225.067	44.71
225.285	18.09
225.503	30.38
225.721	42.67
225.939	3.75
226.157	95.91
226.375	179.88
226.592	-33.11
226.81	-16.73
227.028	52.91
227.246	77.48
227.464	-29.01
227.682	75.43
227.9	52.91
228.117	20.14
228.335	24.23
228.553	61.1
228.771	69.29
228.989	54.95
229.206	57
229.424	38.57
229.642	26.28
229.86	1.71
230.077	57
230.295	18.09
230.513	40.62
230.731	106.15
230.948	116.39
231.166	32.43
231.384	24.23
231.601	-6.49
231.819	69.29
232.037	-22.87
232.254	7.85
232.472	57
232.689	-49.49
232.907	57
233.125	24.23
233.342	-16.73
233.56	18.09
233.777	1.71
233.995	67.24
234.213	30.38
234.43	81.58
234.648	104.11
234.865	44.71
235.083	110.25
235.3	42.67
235.518	102.06
235.735	65.19
235.953	155.3
236.17	11.95
236.388	36.52
236.605	54.95
236.822	143.02
237.04	118.44
237.257	59.05
237.475	44.71
237.692	120.49
237.909	52.91
238.127	77.48
238.344	65.19
238.562	89.77
238.779	20.14
238.996	61.1
239.214	20.14
239.431	83.63
239.648	91.82
239.865	54.95
240.083	61.1
240.3	36.52
240.517	36.52
240.735	61.1
240.952	-14.68
241.169	140.97
241.386	61.1
241.603	54.95
241.821	36.52
242.038	116.39
242.255	63.15
242.472	16.04
242.689	69.29
242.907	73.39
243.124	83.63
243.341	30.38
243.558	50.86
243.775	69.29
243.992	-18.77
244.209	65.19
244.426	102.06
244.643	18.09
244.86	-29.01
245.078	57
245.295	73.39
245.512	20.14
245.729	-29.01
245.946	73.39
246.163	83.63
246.38	132.78
246.597	48.81
246.814	44.71
247.031	71.34
247.248	63.15
247.464	143.02
247.681	61.1
247.898	-20.82
248.115	28.33
248.332	22.19
248.549	124.58
248.766	102.06
248.983	110.25
249.2	50.86
249.417	102.06
249.633	24.23
249.85	48.81
250.067	38.57
250.284	11.95
250.501	159.4
250.717	100.01
250.934	50.86
251.151	42.67
251.368	26.28
251.585	44.71
251.801	11.95
252.018	7.85
252.235	110.25
252.451	-26.96
252.668	57
252.885	110.25
253.102	20.14
253.318	28.33
253.535	-8.53
253.752	48.81
253.968	50.86
254.185	20.14
254.401	40.62
254.618	20.14
254.835	67.24
255.051	140.97
255.268	134.82
255.484	48.81
255.701	110.25
255.917	57
256.134	-4.44
256.351	24.23
256.567	11.95
256.784	-14.68
257	24.23
257.217	81.58
257.433	95.91
257.65	-12.63
257.866	48.81
258.082	30.38
258.299	-20.82
258.515	52.91
258.732	-22.87
258.948	-20.82
259.165	28.33
259.381	7.85
259.597	52.91
259.814	32.43
260.03	87.72
260.246	18.09
260.463	-4.44
260.679	5.8
260.895	24.23
261.112	9.9
261.328	30.38
261.544	9.9
261.761	134.82
261.977	-29.01
262.193	30.38
262.409	38.57
262.626	77.48
262.842	89.77
263.058	-6.49
263.274	106.15
263.49	28.33
263.707	110.25
263.923	61.1
264.139	-45.4
264.355	106.15
264.571	77.48
264.787	69.29
265.004	145.06
265.22	83.63
265.436	59.05
265.652	71.34
265.868	22.19
266.084	52.91
266.3	67.24
266.516	11.95
266.732	44.71
266.948	18.09
267.164	83.63
267.38	36.52
267.596	32.43
267.812	110.25
268.028	52.91
268.244	48.81
268.46	32.43
268.676	65.19
268.892	57
269.108	11.95
269.324	18.09
269.54	-69.97
269.756	85.67
269.972	52.91
270.188	44.71
270.403	40.62
270.619	42.67
270.835	42.67
271.051	81.58
271.267	13.99
271.483	73.39
271.698	81.58
271.914	69.29
272.13	-2.39
272.346	52.91
272.562	73.39
272.777	69.29
272.993	67.24
273.209	28.33
273.425	93.87
273.64	-12.63
273.856	69.29
274.072	48.81
274.287	11.95
274.503	91.82
274.719	112.3
274.934	36.52
275.15	-20.82
275.366	18.09
275.581	26.28
275.797	18.09
276.012	67.24
276.228	77.48
276.444	28.33
276.659	16.04
276.875	52.91
277.09	9.9
277.306	65.19
277.521	3.75
277.737	22.19
277.952	77.48
278.168	54.95
278.383	100.01
278.599	118.44
278.814	81.58
279.03	-8.53
279.245	147.11
279.461	46.76
279.676	91.82
279.892	5.8
280.107	52.91
280.322	42.67
280.538	61.1
280.753	11.95
280.969	83.63
281.184	38.57
281.399	83.63
281.615	63.15
281.83	28.33
282.045	-22.87
282.26	-14.68
282.476	24.23
282.691	-37.2
282.906	36.52
283.122	67.24
283.337	42.67
283.552	52.91
283.767	-20.82
283.983	20.14
284.198	7.85
284.413	85.67
284.628	50.86
284.843	65.19
285.058	79.53
285.274	50.86
285.489	59.05
285.704	30.38
285.919	28.33
286.134	122.54
286.349	65.19
286.564	3.75
286.779	18.09
286.995	79.53
287.21	-39.25
287.425	124.58
287.64	-10.58
287.855	77.48
288.07	36.52
288.285	42.67
288.5	52.91
288.715	159.4
288.93	18.09
289.145	67.24
289.36	13.99
289.575	97.96
289.79	100.01
290.004	1.71
290.219	87.72
290.434	69.29
290.649	-41.3
290.864	110.25
291.079	9.9
291.294	91.82
291.509	3.75
291.724	50.86
291.938	54.95
292.153	52.91
292.368	11.95
292.583	48.81
292.798	65.19
293.012	-4.44
293.227	42.67
293.442	77.48
293.657	7.85
293.871	24.23
294.086	85.67
294.301	89.77
294.516	93.87
294.73	69.29
294.945	-53.59
295.16	9.9
295.374	75.43
295.589	85.67
295.804	57
296.018	11.95
296.233	114.34
296.447	36.52
296.662	26.28
296.877	108.2
297.091	61.1
297.306	54.95
297.52	16.04
297.735	77.48
297.949	97.96
298.164	44.71
298.378	77.48
298.593	3.75
298.807	36.52
299.022	57
299.236	102.06
299.451	50.86
299.665	54.95
299.88	57
300.094	77.48
300.309	75.43
300.523	89.77
300.737	46.76
300.952	87.72
301.166	63.15
301.381	36.52
301.595	57
301.809	81.58
302.024	11.95
302.238	-51.54
302.452	153.26
302.667	24.23
302.881	110.25
303.095	149.16
303.309	36.52
303.524	16.04
303.738	3.75
303.952	89.77
304.166	100.01
304.381	85.67
304.595	116.39
304.809	18.09
305.023	40.62
305.237	81.58
305.452	32.43
305.666	75.43
305.88	50.86
306.094	9.9
306.308	124.58
306.522	97.96
306.736	9.9
306.95	112.3
307.164	73.39
307.379	91.82
307.593	24.23
307.807	52.91
308.021	61.1
308.235	46.76
308.449	26.28
308.663	44.71
308.877	126.63
309.091	-2.39
309.305	69.29
309.519	42.67
309.733	110.25
309.947	18.09
310.161	73.39
310.374	116.39
310.588	57
310.802	28.33
311.016	65.19
311.23	3.75
311.444	-10.58
311.658	75.43
311.872	36.52
312.085	65.19
312.299	102.06
312.513	151.21
312.727	44.71
312.941	63.15
313.154	18.09
313.368	24.23
313.582	69.29
313.796	95.91
314.009	34.47
314.223	159.4
314.437	48.81
314.651	52.91
314.864	40.62
315.078	69.29
315.292	1.71
315.505	11.95
315.719	110.25
315.933	-4.44
316.146	22.19
316.36	54.95
316.573	83.63
316.787	73.39
317.001	67.24
317.214	18.09
317.428	44.71
317.641	59.05
317.855	61.1
318.068	97.96
318.282	26.28
318.495	85.67
318.709	75.43
318.922	-8.53
319.136	159.4
319.349	151.21
319.563	18.09
319.776	42.67
319.99	46.76
320.203	52.91
320.417	106.15
320.63	50.86
320.843	89.77
321.057	42.67
321.27	57
321.483	18.09
321.697	108.2
321.91	67.24
322.124	65.19
322.337	91.82
322.55	122.54
322.763	16.04
322.977	116.39
323.19	69.29
323.403	48.81
323.617	118.44
323.83	36.52
324.043	69.29
324.256	61.1
324.469	54.95
324.683	110.25
324.896	-29.01
325.109	81.58
325.322	-31.06
325.535	57
325.748	36.52
325.962	-14.68
326.175	-12.63
326.388	38.57
326.601	83.63
326.814	93.87
327.027	52.91
327.24	73.39
327.453	40.62
327.666	75.43
327.879	42.67
328.092	67.24
328.305	69.29
328.518	-22.87
328.731	42.67
328.944	87.72
329.157	-20.82
329.37	18.09
329.583	114.34
329.796	114.34
330.009	-47.44
330.222	28.33
330.435	114.34
330.648	147.11
330.861	77.48
331.073	-6.49
331.286	52.91
331.499	59.05
331.712	34.47
331.925	50.86
332.138	11.95
332.35	59.05
332.563	32.43
332.776	136.87
332.989	-0.34
333.202	34.47
333.414	50.86
333.627	-37.2
333.84	-4.44
334.053	77.48
334.265	83.63
334.478	28.33
334.691	128.68
334.903	114.34
335.116	61.1
335.329	-12.63
335.541	63.15
335.754	93.87
335.966	81.58
336.179	34.47
336.392	69.29
336.604	42.67
336.817	132.78
337.029	108.2
337.242	1.71
337.454	124.58
337.667	13.99
337.88	73.39
338.092	42.67
338.305	69.29
338.517	61.1
338.729	75.43
338.942	85.67
339.154	9.9
339.367	73.39
339.579	77.48
339.792	28.33
340.004	61.1
340.217	50.86
340.429	77.48
340.641	50.86
340.854	50.86
341.066	122.54
341.278	97.96
341.491	93.87
341.703	75.43
341.915	67.24
342.128	57
342.34	65.19
342.552	20.14
342.764	100.01
342.977	28.33
343.189	54.95
343.401	83.63
343.613	-10.58
343.826	48.81
344.038	102.06
344.25	93.87
344.462	38.57
344.674	34.47
344.886	63.15
345.099	54.95
345.311	77.48
345.523	59.05
345.735	3.75
345.947	81.58
346.159	124.58
346.371	48.81
346.583	85.67
346.795	77.48
347.007	67.24
347.219	91.82
347.431	67.24
347.643	61.1
347.855	-4.44
348.067	83.63
348.279	81.58
348.491	-6.49
348.703	48.81
348.915	32.43
349.127	69.29
349.339	85.67
349.551	34.47
349.763	30.38
349.975	71.34
350.187	65.19
350.399	77.48
350.61	36.52
350.822	44.71
351.034	50.86
351.246	46.76
351.458	46.76
351.669	91.82
351.881	54.95
352.093	61.1
352.305	100.01
352.517	110.25
352.728	44.71
352.94	50.86
353.152	100.01
353.363	97.96
353.575	18.09
353.787	110.25
353.999	61.1
354.21	155.3
354.422	153.26
354.633	63.15
354.845	75.43
355.057	26.28
355.268	102.06
355.48	110.25
355.692	93.87
355.903	75.43
356.115	71.34
356.326	40.62
356.538	36.52
356.749	81.58
356.961	73.39
357.172	112.3
357.384	-12.63
357.595	85.67
357.807	16.04
358.018	18.09
358.23	93.87
358.441	163.5
358.653	134.82
358.864	42.67
359.075	69.29
359.287	75.43
359.498	79.53
359.709	9.9
359.921	102.06
360.132	71.34
360.344	28.33
360.555	61.1
360.766	126.63
360.977	57
361.189	67.24
361.4	18.09
361.611	102.06
361.823	24.23
362.034	61.1
362.245	102.06
362.456	126.63
362.667	87.72
362.879	79.53
363.09	97.96
363.301	87.72
363.512	85.67
363.723	34.47
363.935	24.23
364.146	73.39
364.357	65.19
364.568	30.38
364.779	50.86
364.99	126.63
365.201	34.47
365.412	83.63
365.623	57
365.834	16.04
366.045	65.19
366.256	46.76
366.467	67.24
366.678	77.48
366.889	147.11
367.1	61.1
367.311	118.44
367.522	11.95
367.733	79.53
367.944	91.82
368.155	32.43
368.366	102.06
368.577	89.77
368.788	183.98
368.999	18.09
369.209	171.69
369.42	91.82
369.631	69.29
369.842	110.25
370.053	44.71
370.264	79.53
370.474	91.82
370.685	124.58
370.896	57
371.107	138.92
371.317	-6.49
371.528	69.29
371.739	134.82
371.95	65.19
372.16	65.19
372.371	-2.39
372.582	36.52
372.792	75.43
373.003	81.58
373.214	81.58
373.424	83.63
373.635	36.52
373.846	110.25
374.056	-6.49
374.267	114.34
374.477	63.15
374.688	69.29
374.898	46.76
375.109	30.38
375.319	1.71
375.53	52.91
375.74	81.58
375.951	54.95
376.161	93.87
376.372	9.9
376.582	69.29
376.793	81.58
377.003	48.81
377.214	22.19
377.424	108.2
377.635	102.06
377.845	91.82
378.055	120.49
378.266	48.81
378.476	52.91
378.686	106.15
378.897	93.87
379.107	59.05
379.317	106.15
379.528	32.43
379.738	50.86
379.948	20.14
380.158	97.96
380.369	34.47
380.579	143.02
380.789	73.39
380.999	97.96
381.21	93.87
381.42	181.93
381.63	52.91
381.84	48.81
382.05	61.1
382.261	145.06
382.471	61.1
382.681	63.15
382.891	57
383.101	102.06
383.311	67.24
383.521	34.47
383.731	69.29
383.941	102.06
384.151	44.71
384.361	54.95
384.571	52.91
384.781	69.29
384.991	145.06
385.201	171.69
385.411	81.58
385.621	73.39
385.831	83.63
386.041	134.82
386.251	61.1
386.461	81.58
386.671	85.67
386.881	132.78
387.091	79.53
387.301	81.58
387.511	57
387.72	69.29
387.93	118.44
388.14	9.9
388.35	81.58
388.56	132.78
388.769	59.05
388.979	85.67
389.189	54.95
389.399	59.05
389.609	100.01
389.818	67.24
390.028	102.06
390.238	161.45
390.447	36.52
390.657	122.54
390.867	34.47
391.076	50.86
391.286	159.4
391.496	57
391.705	124.58
391.915	134.82
392.125	120.49
392.334	89.77
392.544	77.48
392.753	102.06
392.963	73.39
393.172	134.82
393.382	24.23
393.591	151.21
393.801	44.71
394.01	186.02
394.22	106.15
394.429	24.23
394.639	128.68
394.848	93.87
395.058	124.58
395.267	75.43
395.477	59.05
395.686	106.15
395.895	114.34
396.105	128.68
396.314	188.07
396.524	44.71
396.733	100.01
396.942	122.54
397.152	114.34
397.361	140.97
397.57	73.39
397.78	145.06
397.989	130.73
398.198	186.02
398.407	134.82
398.617	114.34
398.826	134.82
399.035	7.85
399.244	112.3
399.453	147.11
399.663	140.97
399.872	100.01
400.081	124.58
400.29	183.98
400.499	100.01
400.708	143.02
400.917	108.2
401.127	132.78
401.336	130.73
401.545	222.89
401.754	175.78
401.963	147.11
402.172	122.54
402.381	71.34
402.59	186.02
402.799	159.4
403.008	190.12
403.217	186.02
403.426	181.93
403.635	114.34
403.844	257.7
404.053	132.78
404.262	167.59
404.471	216.74
404.68	147.11
404.888	97.96
405.097	132.78
405.306	253.61
405.515	216.74
405.724	208.55
405.933	235.18
406.142	173.74
406.35	208.55
406.559	218.79
406.768	313
406.977	233.13
407.185	206.5
407.394	220.84
407.603	243.37
407.812	263.85
408.02	298.66
408.229	319.14
408.438	229.03
408.646	216.74
408.855	261.8
409.064	319.14
409.272	265.89
409.481	294.57
409.69	272.04
409.898	376.48
410.107	382.63
410.315	319.14
410.524	392.87
410.733	339.62
410.941	388.77
411.15	435.88
411.358	356.01
411.567	452.26
411.775	462.5
411.984	546.47
412.192	456.36
412.401	460.45
412.609	550.56
412.818	523.94
413.026	583.33
413.234	679.58
413.443	536.23
413.651	552.61
413.86	626.34
414.068	751.26
414.276	710.3
414.485	659.1
414.693	800.41
414.901	839.33
415.11	716.45
415.318	704.16
415.526	781.98
415.734	847.52
415.943	870.05
416.151	929.44
416.359	911
416.567	880.29
416.776	978.59
416.984	1035.93
417.192	1187.48
417.4	1005.21
417.608	1109.66
417.817	1142.43
418.025	1142.43
418.233	1441.43
418.441	1248.92
418.649	1224.34
418.857	1494.68
419.065	1412.76
419.273	1433.24
419.481	1457.81
419.689	1728.14
419.897	1658.51
420.105	1625.75
420.313	1754.77
420.521	1715.86
420.729	1918.61
420.937	1934.99
421.145	1853.07
421.353	2051.72
421.561	2135.69
421.769	2227.85
421.977	2137.74
422.185	2215.56
422.393	2315.91
422.601	2506.37
422.809	2549.38
423.017	2438.79
423.224	2614.91
423.432	2807.42
423.64	2770.56
423.848	2991.74
424.056	2852.48
424.263	3133.05
424.471	3059.32
424.679	3083.9
424.887	3253.88
425.094	3395.19
425.302	3454.58
425.51	3604.08
425.718	3657.33
425.925	3784.3
426.133	3956.33
426.341	4017.77
426.548	4204.14
426.756	4116.08
426.964	4402.79
427.171	4540.01
427.379	4871.78
427.586	4793.95
427.794	4912.74
428.001	5109.34
428.209	5467.74
428.417	5385.82
428.624	5672.53
428.832	5717.59
429.039	5672.53
429.247	5580.37
429.454	6094.41
429.662	6557.25
429.869	6194.76
430.076	6590.02
430.284	6436.42
430.491	6803.01
430.699	6958.66
430.906	7056.96
431.114	7241.28
431.321	7425.59
431.528	7667.25
431.736	8037.94
431.943	8427.05
432.15	8087.09
432.358	8273.45
432.565	8728.1
432.772	8879.65
432.979	9190.94
433.187	9201.18
433.394	9416.22
433.601	9891.35
433.808	10227.21
434.016	9954.83
434.223	10384.91
434.43	11034.11
434.637	10892.8
434.844	11519.48
435.052	11718.14
435.259	11613.69
435.466	11849.21
435.673	11593.21
435.88	12389.87
436.087	12994.02
436.294	13006.31
436.501	12684.78
436.708	13106.66
436.915	13491.68
437.122	14122.45
437.329	13931.99
437.537	14507.47
437.743	14869.96
437.95	14470.61
438.157	15285.7
438.364	15920.57
438.571	15852.98
438.778	15967.67
438.985	17481.12
439.192	16768.43
439.399	17153.44
439.606	16909.74
439.813	17986.97
440.02	19023.24
440.227	18552.21
440.433	18525.58
440.64	19367.3
440.847	18963.85
441.054	19406.21
441.261	20442.48
441.467	20354.42
441.674	20794.73
441.881	21683.55
442.088	21605.73
442.294	21222.76
442.501	21896.54
442.708	22400.34
442.914	23184.71
443.121	24227.13
443.328	23844.16
443.534	25318.7
443.741	24657.2
443.948	24192.31
444.154	26176.8
444.361	25574.69
444.568	26002.72
444.774	26021.15
444.981	26131.74
445.187	27194.64
445.394	27981.06
445.6	27909.38
445.807	30502.11
446.013	29072.62
446.22	29517.03
446.426	30747.86
446.633	30737.62
446.839	32330.94
447.046	30584.02
447.252	32509.11
447.459	32298.17
447.665	32023.75
447.871	33801.38
448.078	35198.1
448.284	33674.41
448.491	34380.96
448.697	35820.68
448.903	36236.42
449.11	36707.45
449.316	35900.55
449.522	36756.6
449.728	37401.71
449.935	37270.64
450.141	37289.07
450.347	38732.89
450.553	37094.52
450.76	37588.08
450.966	38929.5
451.172	38276.19
451.378	39351.38
451.584	38718.56
451.791	39320.66
451.997	39634
452.203	40148.04
452.409	40129.61
452.615	39513.17
452.821	38356.07
453.027	37629.04
453.233	39801.93
453.44	38167.65
453.646	38249.57
453.852	38741.08
454.058	39369.81
454.264	38573.15
454.47	38827.1
454.676	37893.22
454.882	39326.8
455.088	35595.4
455.294	36009.09
455.5	37061.75
455.705	37368.94
455.911	35992.71
456.117	34851.99
456.323	34397.34
456.529	32732.34
456.735	34024.61
456.941	33238.19
457.147	32236.73
457.352	31638.73
457.558	30833.88
457.764	31165.65
457.97	30393.56
458.176	30078.18
458.381	29654.25
458.587	28531.96
458.793	28267.77
458.999	26856.72
459.204	28691.7
459.41	27970.82
459.616	26287.39
459.821	26346.78
460.027	26062.11
460.233	25230.63
460.438	24307
460.644	24618.29
460.85	23397.7
461.055	22951.24
461.261	22938.96
461.466	21259.62
461.672	20794.73
461.878	22000.99
462.083	20538.74
462.289	20303.22
462.494	20098.42
462.7	19017.1
462.905	18390.42
463.111	19389.83
463.316	19328.39
463.522	18615.69
463.727	19082.63
463.932	18939.27
464.138	18857.35
464.343	18943.37
464.549	18228.63
464.754	18730.38
464.959	18398.61
465.165	18525.58
465.37	17796.51
465.575	17350.05
465.781	17984.92
465.986	18169.24
466.191	17524.13
466.397	17108.39
466.602	16283.06
466.807	16774.57
467.012	16969.13
467.218	17020.33
467.423	16584.11
