Data from USB4F104151__101__11-32-21-999.txt Node

Date: Fri Mar 14 11:32:21 EDT 2025
User: louis
Spectrometer: USB4F10415
Trigger mode: 4
Integration Time (sec): 5.000000E-2
Scans to average: 1
Electric dark correction enabled: true
Nonlinearity correction enabled: false
Boxcar width: 0
XAxis mode: Wavelengths
Number of Pixels in Spectrum: 3648
>>>>>Begin Spectral Data<<<<<
178.204	-172.2
178.424	-172.2
178.644	-172.2
178.864	-137.38
179.084	-200.87
179.304	-53.42
179.524	-45.23
179.744	-30.89
179.964	55.12
180.184	20.31
180.404	18.26
180.624	-4.27
180.844	75.6
181.064	-41.13
181.283	-22.7
181.503	-0.17
181.723	28.5
181.943	-39.08
182.163	8.02
182.383	12.12
182.602	-37.03
182.822	57.17
183.042	48.98
183.262	28.5
183.482	-28.84
183.701	34.64
183.921	59.22
184.141	32.6
184.361	75.6
184.58	34.64
184.8	-69.8
185.02	22.36
185.239	46.93
185.459	44.88
185.679	42.84
185.898	18.26
186.118	57.17
186.338	12.12
186.557	32.6
186.777	-94.38
186.997	67.41
187.216	48.98
187.436	98.13
187.655	18.26
187.875	28.5
188.095	12.12
188.314	81.75
188.534	46.93
188.753	-30.89
188.973	34.64
189.192	77.65
189.412	3.93
189.631	20.31
189.851	-14.51
190.07	46.93
190.29	55.12
190.509	8.02
190.729	3.93
190.948	67.41
191.168	132.95
191.387	110.42
191.607	3.93
191.826	55.12
192.045	30.55
192.265	-12.46
192.484	-61.61
192.704	26.45
192.923	-8.36
193.142	91.99
193.362	1.88
193.581	32.6
193.8	73.56
194.02	75.6
194.239	20.31
194.458	55.12
194.678	26.45
194.897	42.84
195.116	83.8
195.335	14.17
195.555	75.6
195.774	-8.36
195.993	75.6
196.212	55.12
196.432	-16.55
196.651	26.45
196.87	-28.84
197.089	110.42
197.308	-22.7
197.528	24.4
197.747	28.5
197.966	-6.31
198.185	126.8
198.404	12.12
198.623	51.03
198.842	57.17
199.062	71.51
199.281	38.74
199.5	-41.13
199.719	-12.46
199.938	55.12
200.157	106.32
200.376	53.08
200.595	36.69
200.814	40.79
201.033	16.21
201.252	32.6
201.471	98.13
201.69	79.7
201.909	-8.36
202.128	61.27
202.347	32.6
202.566	61.27
202.785	-24.75
203.004	-8.36
203.223	40.79
203.442	63.32
203.661	-12.46
203.879	40.79
204.098	12.12
204.317	14.17
204.536	26.45
204.755	12.12
204.974	63.32
205.193	44.88
205.411	114.52
205.63	85.84
205.849	24.4
206.068	-32.94
206.287	-20.65
206.505	14.17
206.724	44.88
206.943	28.5
207.162	-2.22
207.381	51.03
207.599	61.27
207.818	-37.03
208.037	22.36
208.255	-4.27
208.474	-28.84
208.693	61.27
208.911	12.12
209.13	118.61
209.349	-6.31
209.567	71.51
209.786	77.65
210.005	63.32
210.223	26.45
210.442	10.07
210.661	20.31
210.879	16.21
211.098	-47.27
211.316	73.56
211.535	63.32
211.753	53.08
211.972	-49.32
212.191	5.97
212.409	-47.27
212.628	38.74
212.846	-26.79
213.065	20.31
213.283	44.88
213.502	12.12
213.72	16.21
213.938	57.17
214.157	48.98
214.375	46.93
214.594	-41.13
214.812	44.88
215.031	1.88
215.249	42.84
215.467	-6.31
215.686	42.84
215.904	51.03
216.122	-57.51
216.341	48.98
216.559	69.46
216.778	57.17
216.996	151.38
217.214	-0.17
217.432	59.22
217.651	34.64
217.869	26.45
218.087	36.69
218.306	-61.61
218.524	75.6
218.742	14.17
218.96	-20.65
219.179	53.08
219.397	75.6
219.615	102.23
219.833	-4.27
220.051	8.02
220.27	26.45
220.488	59.22
220.706	73.56
220.924	-14.51
221.142	36.69
221.36	-4.27
221.578	69.46
221.796	24.4
222.015	28.5
222.233	69.46
222.451	61.27
222.669	-20.65
222.887	73.56
223.105	-6.31
223.323	22.36
223.541	71.51
223.759	-10.41
223.977	38.74
224.195	-2.22
224.413	94.04
224.631	75.6
224.849	22.36
225.067	55.12
225.285	3.93
225.503	14.17
225.721	-16.55
225.939	32.6
226.157	61.27
226.375	118.61
226.592	44.88
226.81	44.88
227.028	67.41
227.246	67.41
227.464	-12.46
227.682	28.5
227.9	16.21
228.117	91.99
228.335	91.99
228.553	12.12
228.771	8.02
228.989	44.88
229.206	79.7
229.424	44.88
229.642	1.88
229.86	3.93
230.077	61.27
230.295	83.8
230.513	28.5
230.731	44.88
230.948	67.41
231.166	61.27
231.384	71.51
231.601	-12.46
231.819	63.32
232.037	55.12
232.254	-98.47
232.472	57.17
232.689	1.88
232.907	79.7
233.125	-67.75
233.342	53.08
233.56	-92.33
233.777	-45.23
233.995	26.45
234.213	42.84
234.43	10.07
234.648	42.84
234.865	69.46
235.083	32.6
235.3	-41.13
235.518	8.02
235.735	108.37
235.953	30.55
236.17	3.93
236.388	24.4
236.605	61.27
236.822	77.65
237.04	59.22
237.257	32.6
237.475	46.93
237.692	67.41
237.909	53.08
238.127	-39.08
238.344	108.37
238.562	-24.75
238.779	-67.75
238.996	-55.47
239.214	26.45
239.431	46.93
239.648	61.27
239.865	-20.65
240.083	83.8
240.3	91.99
240.517	-12.46
240.735	-18.6
240.952	53.08
241.169	81.75
241.386	100.18
241.603	63.32
241.821	-47.27
242.038	100.18
242.255	40.79
242.472	-73.9
242.689	77.65
242.907	5.97
243.124	16.21
243.341	1.88
243.558	-57.51
243.775	-41.13
243.992	-57.51
244.209	44.88
244.426	167.76
244.643	67.41
244.86	59.22
245.078	96.08
245.295	-2.22
245.512	67.41
245.729	-14.51
245.946	-16.55
246.163	-53.42
246.38	100.18
246.597	10.07
246.814	32.6
247.031	30.55
247.248	-22.7
247.464	16.21
247.681	10.07
247.898	14.17
248.115	3.93
248.332	34.64
248.549	96.08
248.766	44.88
248.983	128.85
249.2	42.84
249.417	73.56
249.633	14.17
249.85	26.45
250.067	-24.75
250.284	34.64
250.501	26.45
250.717	118.61
250.934	1.88
251.151	51.03
251.368	-37.03
251.585	118.61
251.801	77.65
252.018	8.02
252.235	110.42
252.451	40.79
252.668	-28.84
252.885	81.75
253.102	1.88
253.318	-16.55
253.535	5.97
253.752	12.12
253.968	3.93
254.185	28.5
254.401	34.64
254.618	36.69
254.835	51.03
255.051	59.22
255.268	36.69
255.484	63.32
255.701	112.47
255.917	26.45
256.134	34.64
256.351	42.84
256.567	-45.23
256.784	-18.6
257	-30.89
257.217	40.79
257.433	22.36
257.65	-24.75
257.866	48.98
258.082	20.31
258.299	-100.52
258.515	34.64
258.732	-55.47
258.948	20.31
259.165	18.26
259.381	-30.89
259.597	44.88
259.814	-20.65
260.03	48.98
260.246	32.6
260.463	61.27
260.679	79.7
260.895	-61.61
261.112	77.65
261.328	-12.46
261.544	18.26
261.761	77.65
261.977	32.6
262.193	-77.99
262.409	128.85
262.626	38.74
262.842	118.61
263.058	40.79
263.274	-0.17
263.49	71.51
263.707	-12.46
263.923	46.93
264.139	-18.6
264.355	46.93
264.571	5.97
264.787	32.6
265.004	106.32
265.22	-0.17
265.436	10.07
265.652	-8.36
265.868	51.03
266.084	20.31
266.3	67.41
266.516	-26.79
266.732	51.03
266.948	-8.36
267.164	-28.84
267.38	30.55
267.596	59.22
267.812	38.74
268.028	-24.75
268.244	1.88
268.46	5.97
268.676	-4.27
268.892	110.42
269.108	36.69
269.324	3.93
269.54	8.02
269.756	-8.36
269.972	-34.99
270.188	75.6
270.403	12.12
270.619	83.8
270.835	-4.27
271.051	34.64
271.267	-39.08
271.483	-69.8
271.698	-14.51
271.914	67.41
272.13	22.36
272.346	8.02
272.562	28.5
272.777	57.17
272.993	30.55
273.209	22.36
273.425	38.74
273.64	-55.47
273.856	12.12
274.072	59.22
274.287	-10.41
274.503	10.07
274.719	-14.51
274.934	85.84
275.15	-2.22
275.366	1.88
275.581	-12.46
275.797	53.08
276.012	-0.17
276.228	59.22
276.444	36.69
276.659	44.88
276.875	34.64
277.09	-37.03
277.306	-16.55
277.521	36.69
277.737	20.31
277.952	65.36
278.168	34.64
278.383	57.17
278.599	44.88
278.814	59.22
279.03	10.07
279.245	106.32
279.461	63.32
279.676	61.27
279.892	46.93
280.107	-6.31
280.322	53.08
280.538	96.08
280.753	-75.95
280.969	3.93
281.184	-12.46
281.399	100.18
281.615	26.45
281.83	48.98
282.045	-24.75
282.26	3.93
282.476	44.88
282.691	100.18
282.906	14.17
283.122	91.99
283.337	28.5
283.552	81.75
283.767	34.64
283.983	42.84
284.198	30.55
284.413	40.79
284.628	-10.41
284.843	61.27
285.058	-6.31
285.274	3.93
285.489	-2.22
285.704	44.88
285.919	8.02
286.134	30.55
286.349	28.5
286.564	36.69
286.779	53.08
286.995	-32.94
287.21	-20.65
287.425	91.99
287.64	-4.27
287.855	14.17
288.07	-37.03
288.285	110.42
288.5	83.8
288.715	42.84
288.93	73.56
289.145	53.08
289.36	24.4
289.575	-73.9
289.79	30.55
290.004	-14.51
290.219	71.51
290.434	-12.46
290.649	-0.17
290.864	-0.17
291.079	38.74
291.294	44.88
291.509	89.94
291.724	57.17
291.938	77.65
292.153	73.56
292.368	-12.46
292.583	44.88
292.798	83.8
293.012	12.12
293.227	65.36
293.442	-6.31
293.657	69.46
293.871	94.04
294.086	85.84
294.301	61.27
294.516	22.36
294.73	59.22
294.945	24.4
295.16	-12.46
295.374	40.79
295.589	40.79
295.804	34.64
296.018	20.31
296.233	91.99
296.447	12.12
296.662	12.12
296.877	-28.84
297.091	108.37
297.306	85.84
297.52	44.88
297.735	3.93
297.949	36.69
298.164	30.55
298.378	18.26
298.593	10.07
298.807	-8.36
299.022	81.75
299.236	44.88
299.451	-16.55
299.665	14.17
299.88	34.64
300.094	12.12
300.309	14.17
300.523	44.88
300.737	-8.36
300.952	67.41
301.166	71.51
301.381	-47.27
301.595	-20.65
301.809	1.88
302.024	3.93
302.238	-26.79
302.452	73.56
302.667	48.98
302.881	83.8
303.095	77.65
303.309	-10.41
303.524	10.07
303.738	51.03
303.952	32.6
304.166	65.36
304.381	-51.37
304.595	110.42
304.809	38.74
305.023	67.41
305.237	-45.23
305.452	73.56
305.666	89.94
305.88	135
306.094	12.12
306.308	36.69
306.522	75.6
306.736	53.08
306.95	-24.75
307.164	42.84
307.379	-4.27
307.593	59.22
307.807	16.21
308.021	46.93
308.235	28.5
308.449	-37.03
308.663	-18.6
308.877	126.8
309.091	40.79
309.305	69.46
309.519	-37.03
309.733	77.65
309.947	-2.22
310.161	51.03
310.374	46.93
310.588	118.61
310.802	-24.75
311.016	40.79
311.23	28.5
311.444	48.98
311.658	79.7
311.872	24.4
312.085	67.41
312.299	81.75
312.513	75.6
312.727	67.41
312.941	-49.32
313.154	-4.27
313.368	44.88
313.582	91.99
313.796	-8.36
314.009	12.12
314.223	94.04
314.437	61.27
314.651	36.69
314.864	-22.7
315.078	-39.08
315.292	-12.46
315.505	48.98
315.719	55.12
315.933	30.55
316.146	44.88
316.36	-51.37
316.573	63.32
316.787	61.27
317.001	20.31
317.214	3.93
317.428	118.61
317.641	-6.31
317.855	48.98
318.068	-6.31
318.282	1.88
318.495	128.85
318.709	30.55
318.922	-45.23
319.136	120.66
319.349	32.6
319.563	3.93
319.776	85.84
319.99	-18.6
320.203	63.32
320.417	126.8
320.63	26.45
320.843	155.47
321.057	104.28
321.27	65.36
321.483	94.04
321.697	12.12
321.91	91.99
322.124	67.41
322.337	-0.17
322.55	-10.41
322.763	-8.36
322.977	48.98
323.19	42.84
323.403	14.17
323.617	48.98
323.83	77.65
324.043	-71.85
324.256	73.56
324.469	3.93
324.683	46.93
324.896	75.6
325.109	34.64
325.322	-63.66
325.535	26.45
325.748	53.08
325.962	12.12
326.175	28.5
326.388	118.61
326.601	85.84
326.814	61.27
327.027	122.71
327.24	87.89
327.453	-0.17
327.666	112.47
327.879	-24.75
328.092	65.36
328.305	71.51
328.518	48.98
328.731	67.41
328.944	32.6
329.157	71.51
329.37	51.03
329.583	118.61
329.796	167.76
330.009	-61.61
330.222	1.88
330.435	53.08
330.648	-39.08
330.861	46.93
331.073	-28.84
331.286	30.55
331.499	-26.79
331.712	-45.23
331.925	48.98
332.138	53.08
332.35	91.99
332.563	-53.42
332.776	36.69
332.989	51.03
333.202	24.4
333.414	46.93
333.627	20.31
333.84	12.12
334.053	51.03
334.265	14.17
334.478	77.65
334.691	-6.31
334.903	-12.46
335.116	40.79
335.329	75.6
335.541	53.08
335.754	53.08
335.966	89.94
336.179	32.6
336.392	36.69
336.604	22.36
336.817	-4.27
337.029	38.74
337.242	3.93
337.454	48.98
337.667	42.84
337.88	63.32
338.092	44.88
338.305	124.76
338.517	-12.46
338.729	12.12
338.942	149.33
339.154	24.4
339.367	28.5
339.579	73.56
339.792	-4.27
340.004	108.37
340.217	3.93
340.429	42.84
340.641	-90.28
340.854	57.17
341.066	26.45
341.278	28.5
341.491	139.09
341.703	63.32
341.915	51.03
342.128	116.56
342.34	116.56
342.552	-73.9
342.764	22.36
342.977	36.69
343.189	69.46
343.401	67.41
343.613	-32.94
343.826	30.55
344.038	-22.7
344.25	71.51
344.462	48.98
344.674	75.6
344.886	53.08
345.099	55.12
345.311	14.17
345.523	36.69
345.735	46.93
345.947	48.98
346.159	34.64
346.371	-6.31
346.583	53.08
346.795	118.61
347.007	46.93
347.219	24.4
347.431	14.17
347.643	100.18
347.855	3.93
348.067	87.89
348.279	-24.75
348.491	48.98
348.703	77.65
348.915	100.18
349.127	-8.36
349.339	12.12
349.551	63.32
349.763	53.08
349.975	98.13
350.187	67.41
350.399	102.23
350.61	102.23
350.822	57.17
351.034	36.69
351.246	-8.36
351.458	81.75
351.669	79.7
351.881	110.42
352.093	53.08
352.305	42.84
352.517	143.19
352.728	71.51
352.94	46.93
353.152	104.28
353.363	42.84
353.575	71.51
353.787	77.65
353.999	69.46
354.21	-0.17
354.422	106.32
354.633	-4.27
354.845	16.21
355.057	14.17
355.268	28.5
355.48	26.45
355.692	16.21
355.903	1.88
356.115	12.12
356.326	-57.51
356.538	44.88
356.749	24.4
356.961	71.51
357.172	-12.46
357.384	61.27
357.595	77.65
357.807	69.46
358.018	3.93
358.23	26.45
358.441	151.38
358.653	32.6
358.864	106.32
359.075	85.84
359.287	65.36
359.498	126.8
359.709	-8.36
359.921	81.75
360.132	67.41
360.344	32.6
360.555	77.65
360.766	48.98
360.977	-8.36
361.189	118.61
361.4	16.21
361.611	57.17
361.823	36.69
362.034	36.69
362.245	-30.89
362.456	8.02
362.667	75.6
362.879	53.08
363.09	18.26
363.301	36.69
363.512	61.27
363.723	91.99
363.935	40.79
364.146	30.55
364.357	-14.51
364.568	81.75
364.779	-61.61
364.99	120.66
365.201	46.93
365.412	87.89
365.623	-47.27
365.834	20.31
366.045	67.41
366.256	122.71
366.467	75.6
366.678	77.65
366.889	20.31
367.1	36.69
367.311	57.17
367.522	16.21
367.733	-39.08
367.944	81.75
368.155	20.31
368.366	32.6
368.577	94.04
368.788	63.32
368.999	44.88
369.209	40.79
369.42	126.8
369.631	132.95
369.842	10.07
370.053	16.21
370.264	108.37
370.474	-16.55
370.685	20.31
370.896	79.7
371.107	130.9
371.317	61.27
371.528	83.8
371.739	106.32
371.95	1.88
372.16	75.6
372.371	-28.84
372.582	110.42
372.792	57.17
373.003	34.64
373.214	57.17
373.424	28.5
373.635	71.51
373.846	48.98
374.056	34.64
374.267	36.69
374.477	59.22
374.688	16.21
374.898	85.84
375.109	122.71
375.319	-4.27
375.53	48.98
375.74	124.76
375.951	85.84
376.161	67.41
376.372	79.7
376.582	-0.17
376.793	48.98
377.003	55.12
377.214	18.26
377.424	65.36
377.635	65.36
377.845	59.22
378.055	132.95
378.266	-69.8
378.476	16.21
378.686	53.08
378.897	53.08
379.107	16.21
379.317	112.47
379.528	3.93
379.738	28.5
379.948	-61.61
380.158	44.88
380.369	28.5
380.579	122.71
380.789	44.88
380.999	32.6
381.21	44.88
381.42	102.23
381.63	46.93
381.84	20.31
382.05	91.99
382.261	67.41
382.471	26.45
382.681	85.84
382.891	141.14
383.101	96.08
383.311	40.79
383.521	5.97
383.731	94.04
383.941	73.56
384.151	32.6
384.361	53.08
384.571	110.42
384.781	73.56
384.991	130.9
385.201	104.28
385.411	42.84
385.621	16.21
385.831	63.32
386.041	28.5
386.251	65.36
386.461	85.84
386.671	65.36
386.881	57.17
387.091	24.4
387.301	139.09
387.511	67.41
387.72	85.84
387.93	77.65
388.14	32.6
388.35	46.93
388.56	96.08
388.769	87.89
388.979	85.84
389.189	67.41
389.399	61.27
389.609	44.88
389.818	36.69
390.028	94.04
390.238	20.31
390.447	-47.27
390.657	89.94
390.867	44.88
391.076	-2.22
391.286	18.26
391.496	20.31
391.705	110.42
391.915	184.15
392.125	10.07
392.334	65.36
392.544	79.7
392.753	75.6
392.963	44.88
393.172	104.28
393.382	-16.55
393.591	149.33
393.801	20.31
394.01	102.23
394.22	69.46
394.429	104.28
394.639	5.97
394.848	51.03
395.058	124.76
395.267	75.6
395.477	114.52
395.686	83.8
395.895	135
396.105	132.95
396.314	67.41
396.524	104.28
396.733	46.93
396.942	69.46
397.152	159.57
397.361	94.04
397.57	106.32
397.78	67.41
397.989	94.04
398.198	151.38
398.407	55.12
398.617	122.71
398.826	126.8
399.035	100.18
399.244	96.08
399.453	57.17
399.663	94.04
399.872	94.04
400.081	32.6
400.29	173.91
400.499	44.88
400.708	106.32
400.917	147.28
401.127	167.76
401.336	87.89
401.545	221.01
401.754	178
401.963	85.84
402.172	87.89
402.381	69.46
402.59	143.19
402.799	96.08
403.008	188.24
403.217	116.56
403.426	202.58
403.635	112.47
403.844	147.28
404.053	116.56
404.262	194.39
404.471	155.47
404.68	130.9
404.888	71.51
405.097	151.38
405.306	145.24
405.515	159.57
405.724	118.61
405.933	159.57
406.142	130.9
406.35	141.14
406.559	118.61
406.768	214.87
406.977	278.35
407.185	163.67
407.394	122.71
407.603	132.95
407.812	243.54
408.02	239.44
408.229	231.25
408.438	237.39
408.646	216.91
408.855	243.54
409.064	276.31
409.272	182.1
409.481	327.5
409.69	294.74
409.898	272.21
410.107	331.6
410.315	370.51
410.524	280.4
410.733	401.23
410.941	397.14
411.15	390.99
411.358	431.95
411.567	446.29
411.775	421.71
411.984	466.77
412.192	315.22
412.401	415.57
412.609	466.77
412.818	472.91
413.026	497.49
413.234	446.29
413.443	503.63
413.651	528.21
413.86	651.08
414.068	620.36
414.276	595.79
414.485	544.59
414.693	556.88
414.901	667.47
415.11	665.42
415.318	700.23
415.526	661.32
415.734	769.87
415.943	749.39
416.151	841.54
416.359	739.15
416.567	839.5
416.776	882.5
416.984	993.09
417.192	976.71
417.4	941.89
417.608	896.84
417.817	952.13
418.025	1134.4
418.233	1109.83
418.441	1032.01
418.649	1115.97
418.857	1064.77
419.065	1275.71
419.273	1193.8
419.481	1158.98
419.689	1240.9
419.897	1392.45
420.105	1437.5
420.313	1482.56
420.521	1609.53
420.729	1587.01
420.937	1564.48
421.145	1705.79
421.353	1746.75
421.561	1797.95
421.769	1896.25
421.977	2068.28
422.185	2008.89
422.393	1988.41
422.601	2246.45
422.809	2203.44
423.017	2076.47
423.224	2375.47
423.432	2330.42
423.64	2271.03
423.848	2600.75
424.056	2570.03
424.263	2615.09
424.471	2666.28
424.679	2637.61
424.887	2858.79
425.094	2957.1
425.302	2959.14
425.51	3141.41
425.718	3163.94
425.925	3217.19
426.133	3338.02
426.341	3487.52
426.548	3624.73
426.756	3720.99
426.964	3645.21
427.171	3845.91
427.379	4083.48
427.586	4044.57
427.794	4280.08
428.001	4400.91
428.209	4566.8
428.417	4468.5
428.624	4722.45
428.832	4982.54
429.039	4941.58
429.247	4787.98
429.454	5349.12
429.662	5598.98
429.869	5261.06
430.076	5603.07
430.284	5400.32
430.491	5611.26
430.699	6014.71
430.906	5934.84
431.114	5965.56
431.321	6283
431.528	6477.55
431.736	6948.59
431.943	7218.92
432.15	7014.12
432.358	7259.88
432.565	7384.8
432.772	7493.35
432.979	7913.18
433.187	7974.62
433.394	8097.5
433.601	8519.38
433.808	8738.51
434.016	8376.02
434.223	8828.62
434.43	9428.68
434.637	9326.28
434.844	9823.94
435.052	9881.28
435.259	10032.83
435.466	9987.77
435.673	9748.16
435.88	10655.41
436.087	11161.26
436.294	11194.03
436.501	10831.54
436.708	11069.1
436.915	11540.13
437.122	12134.04
437.329	12105.37
437.537	12336.79
437.743	12553.88
437.95	12431
438.157	13110.93
438.364	13526.66
438.571	13334.15
438.778	13610.63
438.985	14931.57
439.192	14218.88
439.399	14839.41
439.606	14552.7
439.813	15029.87
440.02	16156.25
440.227	15947.36
440.433	15887.97
440.64	16182.88
440.847	16082.53
441.054	16479.83
441.261	17673.8
441.467	17270.35
441.674	17913.41
441.881	18214.46
442.088	18398.78
442.294	18191.94
442.501	18773.56
442.708	19127.86
442.914	19619.37
443.121	20633.11
443.328	19912.23
443.534	21347.86
443.741	20823.58
443.948	20633.11
444.154	22091.27
444.361	22199.81
444.568	22085.12
444.774	22175.23
444.981	22533.63
445.187	23303.67
445.394	24030.69
445.6	23520.75
445.807	25877.96
446.013	24559.07
446.22	25155.03
446.426	26441.15
446.633	26627.52
446.839	27424.18
447.046	26236.36
447.252	27948.46
447.459	27977.13
447.665	27989.42
447.871	28923.29
448.078	30188.94
448.284	28560.8
448.491	29455.76
448.697	30754.18
448.903	31077.76
449.11	31430.01
449.316	30655.87
449.522	31530.36
449.728	32140.65
449.935	32359.78
450.141	32179.56
450.347	33174.88
450.553	32109.93
450.76	32284.01
450.966	33609.04
451.172	32793.95
451.378	33670.48
451.584	33150.3
451.791	34082.13
451.997	33926.48
452.203	34686.28
452.409	34481.48
452.615	34395.46
452.821	33267.03
453.027	32910.69
453.233	34211.15
453.44	32873.82
453.646	33410.39
453.852	33576.28
454.058	33901.9
454.264	33060.19
454.47	33525.08
454.676	33011.04
454.882	34059.6
455.088	30913.92
455.294	31622.51
455.5	31917.42
455.705	32437.61
455.911	30938.49
456.117	30446.98
456.323	29971.85
456.529	28261.8
456.735	29453.72
456.941	28775.84
457.147	28626.34
457.352	27389.36
457.558	27456.95
457.764	27315.64
457.97	26815.93
458.176	26129.86
458.381	26025.42
458.587	24851.93
458.793	25048.54
458.999	23768.55
459.204	25087.45
459.41	24292.83
459.616	22957.56
459.821	23002.61
460.027	22652.41
460.233	22375.94
460.438	21538.32
460.644	21319.18
460.85	20631.07
461.055	20373.02
461.261	19985.96
461.466	18523.71
461.672	18036.29
461.878	19478.06
462.083	17819.21
462.289	17669.7
462.494	17872.45
462.7	17092.18
462.905	16438.87
463.111	16946.77
463.316	16971.35
463.522	16899.67
463.727	16612.95
463.932	16598.62
464.138	16285.28
464.343	16504.41
464.549	15851.11
464.754	16655.96
464.959	16623.19
465.165	16305.76
465.37	15558.25
465.575	15224.43
465.781	15939.17
465.986	16084.58
466.191	15117.93
466.397	15150.7
466.602	14282.36
466.807	14681.72
467.012	14892.66
467.218	14947.95
