Data from USB4F104151__62__11-30-59-159.txt Node

Date: Fri Mar 14 11:30:59 EDT 2025
User: louis
Spectrometer: USB4F10415
Trigger mode: 4
Integration Time (sec): 5.000000E-2
Scans to average: 1
Electric dark correction enabled: true
Nonlinearity correction enabled: false
Boxcar width: 0
XAxis mode: Wavelengths
Number of Pixels in Spectrum: 3648
>>>>>Begin Spectral Data<<<<<
178.204	-171.52
178.424	-171.52
178.644	-171.52
178.864	-187.9
179.084	-230.91
179.304	37.38
179.524	-7.68
179.744	4.61
179.964	31.23
180.184	-36.35
180.404	61.95
180.624	6.66
180.844	4.61
181.064	-11.78
181.283	-60.93
181.503	-54.78
181.723	25.09
181.943	-71.17
182.163	117.25
182.383	-40.45
182.602	66.05
182.822	66.05
183.042	35.33
183.262	41.47
183.482	-52.74
183.701	-54.78
183.921	-30.21
184.141	-81.41
184.361	57.86
184.58	-60.93
184.8	8.7
185.02	-28.16
185.239	70.14
185.459	107.01
185.679	29.18
185.898	-62.98
186.118	49.66
186.338	-9.73
186.557	37.38
186.777	-38.4
186.997	66.05
187.216	-24.06
187.436	76.29
187.655	72.19
187.875	12.8
188.095	0.51
188.314	-65.02
188.534	37.38
188.753	0.51
188.973	18.94
189.192	-3.58
189.412	47.62
189.631	57.86
189.851	-9.73
190.07	139.77
190.29	-11.78
190.509	12.8
190.729	-40.45
190.948	43.52
191.168	201.21
191.387	25.09
191.607	-7.68
191.826	-11.78
192.045	-11.78
192.265	59.9
192.484	49.66
192.704	35.33
192.923	25.09
193.142	82.43
193.362	57.86
193.581	98.81
193.8	98.81
194.02	64
194.239	53.76
194.458	74.24
194.678	-19.97
194.897	66.05
195.116	57.86
195.335	16.9
195.555	6.66
195.774	-32.26
195.993	-1.54
196.212	25.09
196.432	-17.92
196.651	-7.68
196.87	20.99
197.089	107.01
197.308	53.76
197.528	6.66
197.747	-17.92
197.966	-11.78
198.185	90.62
198.404	-108.03
198.623	64
198.842	4.61
199.062	49.66
199.281	12.8
199.5	-24.06
199.719	-65.02
199.938	-32.26
200.157	33.28
200.376	18.94
200.595	68.09
200.814	8.7
201.033	2.56
201.252	-36.35
201.471	59.9
201.69	39.42
201.909	-42.5
202.128	2.56
202.347	49.66
202.566	8.7
202.785	-42.5
203.004	-26.11
203.223	107.01
203.442	25.09
203.661	-40.45
203.879	53.76
204.098	72.19
204.317	-15.87
204.536	-9.73
204.755	-32.26
204.974	41.47
205.193	59.9
205.411	104.96
205.63	82.43
205.849	78.33
206.068	18.94
206.287	25.09
206.505	-15.87
206.724	-24.06
206.943	12.8
207.162	23.04
207.381	53.76
207.599	-58.88
207.818	39.42
208.037	4.61
208.255	41.47
208.474	18.94
208.693	51.71
208.911	14.85
209.13	49.66
209.349	49.66
209.567	37.38
209.786	72.19
210.005	49.66
210.223	-32.26
210.442	-85.5
210.661	61.95
210.879	74.24
211.098	-19.97
211.316	35.33
211.535	45.57
211.753	6.66
211.972	23.04
212.191	-3.58
212.409	-19.97
212.628	-28.16
212.846	-7.68
213.065	74.24
213.283	74.24
213.502	-38.4
213.72	-22.02
213.938	37.38
214.157	0.51
214.375	45.57
214.594	16.9
214.812	72.19
215.031	23.04
215.249	-42.5
215.467	-3.58
215.686	-15.87
215.904	49.66
216.122	-58.88
216.341	-17.92
216.559	18.94
216.778	-30.21
216.996	39.42
217.214	-3.58
217.432	-112.13
217.651	16.9
217.869	57.86
218.087	8.7
218.306	-56.83
218.524	51.71
218.742	-36.35
218.96	14.85
219.179	2.56
219.397	8.7
219.615	82.43
219.833	78.33
220.051	47.62
220.27	51.71
220.488	29.18
220.706	23.04
220.924	39.42
221.142	-71.17
221.36	8.7
221.578	53.76
221.796	113.15
222.015	29.18
222.233	33.28
222.451	18.94
222.669	-1.54
222.887	64
223.105	-42.5
223.323	-54.78
223.541	6.66
223.759	-52.74
223.977	18.94
224.195	-11.78
224.413	23.04
224.631	20.99
224.849	127.49
225.067	94.72
225.285	-9.73
225.503	-9.73
225.721	-81.41
225.939	31.23
226.157	-93.69
226.375	125.44
226.592	-24.06
226.81	-15.87
227.028	82.43
227.246	82.43
227.464	45.57
227.682	66.05
227.9	0.51
228.117	-11.78
228.335	35.33
228.553	4.61
228.771	-9.73
228.989	41.47
229.206	31.23
229.424	-50.69
229.642	37.38
229.86	6.66
230.077	74.24
230.295	12.8
230.513	72.19
230.731	51.71
230.948	39.42
231.166	12.8
231.384	-11.78
231.601	-26.11
231.819	90.62
232.037	31.23
232.254	-42.5
232.472	29.18
232.689	57.86
232.907	12.8
233.125	6.66
233.342	-13.82
233.56	41.47
233.777	-1.54
233.995	-52.74
234.213	23.04
234.43	-46.59
234.648	39.42
234.865	-9.73
235.083	96.77
235.3	-28.16
235.518	37.38
235.735	8.7
235.953	111.1
236.17	55.81
236.388	-15.87
236.605	33.28
236.822	80.38
237.04	-22.02
237.257	78.33
237.475	6.66
237.692	-34.3
237.909	4.61
238.127	-15.87
238.344	37.38
238.562	0.51
238.779	45.57
238.996	-28.16
239.214	29.18
239.431	-11.78
239.648	-73.21
239.865	-67.07
240.083	57.86
240.3	-3.58
240.517	86.53
240.735	25.09
240.952	61.95
241.169	25.09
241.386	64
241.603	-15.87
241.821	-36.35
242.038	37.38
242.255	8.7
242.472	-48.64
242.689	68.09
242.907	64
243.124	-62.98
243.341	14.85
243.558	-1.54
243.775	-17.92
243.992	-7.68
244.209	10.75
244.426	25.09
244.643	25.09
244.86	-24.06
245.078	74.24
245.295	68.09
245.512	-46.59
245.729	10.75
245.946	25.09
246.163	-5.63
246.38	16.9
246.597	23.04
246.814	10.75
247.031	49.66
247.248	-32.26
247.464	-7.68
247.681	14.85
247.898	-48.64
248.115	53.76
248.332	29.18
248.549	-36.35
248.766	113.15
248.983	84.48
249.2	-24.06
249.417	-1.54
249.633	10.75
249.85	43.52
250.067	-44.54
250.284	39.42
250.501	90.62
250.717	64
250.934	-9.73
251.151	49.66
251.368	6.66
251.585	14.85
251.801	4.61
252.018	-26.11
252.235	131.58
252.451	-112.13
252.668	4.61
252.885	61.95
253.102	25.09
253.318	-30.21
253.535	-42.5
253.752	6.66
253.968	64
254.185	-30.21
254.401	53.76
254.618	70.14
254.835	0.51
255.051	68.09
255.268	41.47
255.484	115.2
255.701	68.09
255.917	-5.63
256.134	-40.45
256.351	-50.69
256.567	8.7
256.784	14.85
257	-36.35
257.217	27.14
257.433	27.14
257.65	-7.68
257.866	82.43
258.082	-38.4
258.299	-54.78
258.515	37.38
258.732	-38.4
258.948	-65.02
259.165	0.51
259.381	14.85
259.597	33.28
259.814	57.86
260.03	70.14
260.246	-7.68
260.463	70.14
260.679	31.23
260.895	-15.87
261.112	-22.02
261.328	-9.73
261.544	37.38
261.761	41.47
261.977	27.14
262.193	-56.83
262.409	0.51
262.626	0.51
262.842	86.53
263.058	45.57
263.274	72.19
263.49	49.66
263.707	64
263.923	-24.06
264.139	29.18
264.355	-40.45
264.571	35.33
264.787	51.71
265.004	49.66
265.22	-40.45
265.436	-26.11
265.652	12.8
265.868	49.66
266.084	-9.73
266.3	53.76
266.516	39.42
266.732	-26.11
266.948	57.86
267.164	-54.78
267.38	-1.54
267.596	70.14
267.812	135.68
268.028	0.51
268.244	-17.92
268.46	33.28
268.676	-7.68
268.892	37.38
269.108	-19.97
269.324	27.14
269.54	33.28
269.756	18.94
269.972	-56.83
270.188	0.51
270.403	8.7
270.619	14.85
270.835	25.09
271.051	45.57
271.267	-1.54
271.483	18.94
271.698	45.57
271.914	-11.78
272.13	31.23
272.346	-48.64
272.562	31.23
272.777	66.05
272.993	0.51
273.209	16.9
273.425	0.51
273.64	-36.35
273.856	25.09
274.072	49.66
274.287	23.04
274.503	86.53
274.719	-30.21
274.934	49.66
275.15	-75.26
275.366	-56.83
275.581	-89.6
275.797	14.85
276.012	14.85
276.228	12.8
276.444	53.76
276.659	31.23
276.875	37.38
277.09	4.61
277.306	-1.54
277.521	33.28
277.737	-13.82
277.952	31.23
278.168	-24.06
278.383	4.61
278.599	-58.88
278.814	23.04
279.03	8.7
279.245	115.2
279.461	8.7
279.676	12.8
279.892	-50.69
280.107	-42.5
280.322	2.56
280.538	4.61
280.753	8.7
280.969	-15.87
281.184	6.66
281.399	51.71
281.615	20.99
281.83	72.19
282.045	-32.26
282.26	-5.63
282.476	-15.87
282.691	-13.82
282.906	10.75
283.122	-26.11
283.337	23.04
283.552	41.47
283.767	61.95
283.983	-52.74
284.198	41.47
284.413	45.57
284.628	-32.26
284.843	25.09
285.058	98.81
285.274	25.09
285.489	-48.64
285.704	74.24
285.919	-28.16
286.134	-99.84
286.349	53.76
286.564	-3.58
286.779	88.57
286.995	10.75
287.21	-69.12
287.425	16.9
287.64	-36.35
287.855	-7.68
288.07	-44.54
288.285	86.53
288.5	70.14
288.715	39.42
288.93	-7.68
289.145	-13.82
289.36	-19.97
289.575	47.62
289.79	33.28
290.004	39.42
290.219	64
290.434	-15.87
290.649	-22.02
290.864	12.8
291.079	10.75
291.294	41.47
291.509	66.05
291.724	-1.54
291.938	57.86
292.153	109.05
292.368	20.99
292.583	12.8
292.798	8.7
293.012	10.75
293.227	64
293.442	59.9
293.657	-56.83
293.871	27.14
294.086	0.51
294.301	82.43
294.516	49.66
294.73	10.75
294.945	-110.08
295.16	53.76
295.374	84.48
295.589	2.56
295.804	-42.5
296.018	10.75
296.233	23.04
296.447	37.38
296.662	-56.83
296.877	-24.06
297.091	64
297.306	0.51
297.52	23.04
297.735	53.76
297.949	12.8
298.164	39.42
298.378	-34.3
298.593	6.66
298.807	-24.06
299.022	-15.87
299.236	33.28
299.451	-19.97
299.665	-15.87
299.88	-44.54
300.094	-32.26
300.309	33.28
300.523	107.01
300.737	29.18
300.952	-7.68
301.166	47.62
301.381	-28.16
301.595	-3.58
301.809	-40.45
302.024	-42.5
302.238	12.8
302.452	8.7
302.667	0.51
302.881	80.38
303.095	6.66
303.309	45.57
303.524	45.57
303.738	29.18
303.952	-114.17
304.166	16.9
304.381	-65.02
304.595	29.18
304.809	27.14
305.023	12.8
305.237	12.8
305.452	0.51
305.666	-58.88
305.88	-77.31
306.094	37.38
306.308	0.51
306.522	16.9
306.736	-3.58
306.95	31.23
307.164	43.52
307.379	4.61
307.593	57.86
307.807	37.38
308.021	12.8
308.235	-24.06
308.449	31.23
308.663	90.62
308.877	121.34
309.091	47.62
309.305	8.7
309.519	-56.83
309.733	29.18
309.947	-11.78
310.161	8.7
310.374	68.09
310.588	61.95
310.802	-9.73
311.016	0.51
311.23	18.94
311.444	-15.87
311.658	-22.02
311.872	66.05
312.085	41.47
312.299	117.25
312.513	49.66
312.727	49.66
312.941	-69.12
313.154	14.85
313.368	18.94
313.582	37.38
313.796	41.47
314.009	57.86
314.223	33.28
314.437	25.09
314.651	-1.54
314.864	25.09
315.078	31.23
315.292	-13.82
315.505	-24.06
315.719	4.61
315.933	16.9
316.146	14.85
316.36	23.04
316.573	47.62
316.787	-3.58
317.001	59.9
317.214	-30.21
317.428	10.75
317.641	6.66
317.855	0.51
318.068	6.66
318.282	-28.16
318.495	119.29
318.709	98.81
318.922	-60.93
319.136	86.53
319.349	-36.35
319.563	31.23
319.776	33.28
319.99	45.57
320.203	66.05
320.417	-48.64
320.63	90.62
320.843	104.96
321.057	47.62
321.27	45.57
321.483	-42.5
321.697	51.71
321.91	107.01
322.124	16.9
322.337	109.05
322.55	8.7
322.763	31.23
322.977	-11.78
323.19	6.66
323.403	49.66
323.617	41.47
323.83	43.52
324.043	8.7
324.256	-67.07
324.469	-32.26
324.683	29.18
324.896	29.18
325.109	-36.35
325.322	-22.02
325.535	-36.35
325.748	27.14
325.962	-3.58
326.175	-58.88
326.388	-7.68
326.601	-19.97
326.814	-19.97
327.027	53.76
327.24	78.33
327.453	-75.26
327.666	-24.06
327.879	102.91
328.092	33.28
328.305	-30.21
328.518	72.19
328.731	-3.58
328.944	33.28
329.157	-40.45
329.37	-3.58
329.583	102.91
329.796	61.95
330.009	-50.69
330.222	-7.68
330.435	64
330.648	49.66
330.861	8.7
331.073	70.14
331.286	64
331.499	-3.58
331.712	-60.93
331.925	37.38
332.138	18.94
332.35	16.9
332.563	-44.54
332.776	31.23
332.989	12.8
333.202	47.62
333.414	-24.06
333.627	72.19
333.84	27.14
334.053	66.05
334.265	96.77
334.478	51.71
334.691	-13.82
334.903	-44.54
335.116	49.66
335.329	66.05
335.541	25.09
335.754	90.62
335.966	-26.11
336.179	86.53
336.392	16.9
336.604	-26.11
336.817	27.14
337.029	37.38
337.242	14.85
337.454	37.38
337.667	53.76
337.88	23.04
338.092	-19.97
338.305	57.86
338.517	8.7
338.729	90.62
338.942	29.18
339.154	-95.74
339.367	-42.5
339.579	41.47
339.792	-7.68
340.004	23.04
340.217	10.75
340.429	57.86
340.641	-69.12
340.854	23.04
341.066	4.61
341.278	64
341.491	90.62
341.703	-42.5
341.915	16.9
342.128	-7.68
342.34	16.9
342.552	0.51
342.764	25.09
342.977	49.66
343.189	-15.87
343.401	-24.06
343.613	-26.11
343.826	47.62
344.038	-34.3
344.25	16.9
344.462	74.24
344.674	16.9
344.886	-44.54
345.099	59.9
345.311	-11.78
345.523	-48.64
345.735	-5.63
345.947	90.62
346.159	4.61
346.371	45.57
346.583	53.76
346.795	90.62
347.007	2.56
347.219	-19.97
347.431	-89.6
347.643	145.92
347.855	-42.5
348.067	12.8
348.279	-1.54
348.491	29.18
348.703	2.56
348.915	66.05
349.127	-71.17
349.339	29.18
349.551	-26.11
349.763	12.8
349.975	20.99
350.187	74.24
350.399	41.47
350.61	61.95
350.822	-50.69
351.034	94.72
351.246	49.66
351.458	12.8
351.669	45.57
351.881	66.05
352.093	117.25
352.305	14.85
352.517	49.66
352.728	90.62
352.94	20.99
353.152	-7.68
353.363	-30.21
353.575	74.24
353.787	119.29
353.999	70.14
354.21	57.86
354.422	57.86
354.633	-46.59
354.845	0.51
355.057	16.9
355.268	12.8
355.48	25.09
355.692	-30.21
355.903	-75.26
356.115	-1.54
356.326	-24.06
356.538	29.18
356.749	72.19
356.961	2.56
357.172	53.76
357.384	-54.78
357.595	90.62
357.807	16.9
358.018	-69.12
358.23	31.23
358.441	49.66
358.653	23.04
358.864	41.47
359.075	-7.68
359.287	45.57
359.498	55.81
359.709	74.24
359.921	49.66
360.132	82.43
360.344	100.86
360.555	-42.5
360.766	-9.73
360.977	39.42
361.189	70.14
361.4	39.42
361.611	61.95
361.823	27.14
362.034	-9.73
362.245	45.57
362.456	90.62
362.667	49.66
362.879	-26.11
363.09	12.8
363.301	119.29
363.512	20.99
363.723	59.9
363.935	-32.26
364.146	25.09
364.357	0.51
364.568	20.99
364.779	33.28
364.99	125.44
365.201	53.76
365.412	25.09
365.623	-19.97
365.834	51.71
366.045	12.8
366.256	70.14
366.467	25.09
366.678	-13.82
366.889	66.05
367.1	8.7
367.311	-46.59
367.522	-81.41
367.733	41.47
367.944	33.28
368.155	23.04
368.366	55.81
368.577	78.33
368.788	90.62
368.999	18.94
369.209	-11.78
369.42	82.43
369.631	115.2
369.842	55.81
370.053	-36.35
370.264	6.66
370.474	-52.74
370.685	41.47
370.896	0.51
371.107	135.68
371.317	20.99
371.528	-9.73
371.739	25.09
371.95	35.33
372.16	6.66
372.371	-34.3
372.582	0.51
372.792	115.2
373.003	27.14
373.214	-34.3
373.424	74.24
373.635	47.62
373.846	72.19
374.056	39.42
374.267	61.95
374.477	100.86
374.688	70.14
374.898	14.85
375.109	70.14
375.319	-17.92
375.53	84.48
375.74	0.51
375.951	-3.58
376.161	39.42
376.372	29.18
376.582	-48.64
376.793	94.72
377.003	-22.02
377.214	-36.35
377.424	66.05
377.635	16.9
377.845	-5.63
378.055	16.9
378.266	-48.64
378.476	72.19
378.686	55.81
378.897	8.7
379.107	43.52
379.317	72.19
379.528	8.7
379.738	45.57
379.948	-93.69
380.158	31.23
380.369	-26.11
380.579	33.28
380.789	29.18
380.999	39.42
381.21	70.14
381.42	80.38
381.63	72.19
381.84	61.95
382.05	47.62
382.261	18.94
382.471	57.86
382.681	2.56
382.891	61.95
383.101	90.62
383.311	2.56
383.521	-17.92
383.731	111.1
383.941	57.86
384.151	-71.17
384.361	29.18
384.571	31.23
384.781	12.8
384.991	84.48
385.201	70.14
385.411	-17.92
385.621	59.9
385.831	41.47
386.041	12.8
386.251	31.23
386.461	55.81
386.671	12.8
386.881	64
387.091	74.24
387.301	66.05
387.511	-3.58
387.72	53.76
387.93	82.43
388.14	16.9
388.35	-9.73
388.56	70.14
388.769	55.81
388.979	100.86
389.189	16.9
389.399	-11.78
389.609	-7.68
389.818	68.09
390.028	-3.58
390.238	16.9
390.447	49.66
390.657	39.42
390.867	25.09
391.076	-9.73
391.286	94.72
391.496	41.47
391.705	12.8
391.915	80.38
392.125	41.47
392.334	8.7
392.544	64
392.753	82.43
392.963	-11.78
393.172	4.61
393.382	18.94
393.591	33.28
393.801	57.86
394.01	92.67
394.22	150.01
394.429	78.33
394.639	25.09
394.848	25.09
395.058	0.51
395.267	0.51
395.477	119.29
395.686	98.81
395.895	115.2
396.105	139.77
396.314	113.15
396.524	72.19
396.733	82.43
396.942	90.62
397.152	64
397.361	64
397.57	90.62
397.78	39.42
397.989	139.77
398.198	90.62
398.407	20.99
398.617	4.61
398.826	49.66
399.035	90.62
399.244	139.77
399.453	84.48
399.663	127.49
399.872	72.19
400.081	74.24
400.29	174.59
400.499	-15.87
400.708	102.91
400.917	-26.11
401.127	104.96
401.336	64
401.545	121.34
401.754	102.91
401.963	111.1
402.172	55.81
402.381	57.86
402.59	55.81
402.799	80.38
403.008	-9.73
403.217	107.01
403.426	102.91
403.635	92.67
403.844	82.43
404.053	107.01
404.262	107.01
404.471	129.53
404.68	74.24
404.888	152.06
405.097	94.72
405.306	143.87
405.515	223.74
405.724	119.29
405.933	168.45
406.142	147.97
406.35	74.24
406.559	104.96
406.768	55.81
406.977	197.12
407.185	135.68
407.394	123.39
407.603	193.02
407.812	145.92
408.02	264.7
408.229	211.45
408.438	111.1
408.646	160.25
408.855	205.31
409.064	215.55
409.272	254.46
409.481	252.41
409.69	225.79
409.898	160.25
410.107	209.4
410.315	229.88
410.524	201.21
410.733	285.18
410.941	258.56
411.15	250.36
411.358	360.95
411.567	336.38
411.775	356.86
411.984	295.42
412.192	324.09
412.401	317.95
412.609	352.76
412.818	326.14
413.026	307.71
413.234	391.67
413.443	397.82
413.651	389.63
413.86	461.3
414.068	406.01
414.276	524.79
414.485	383.48
414.693	551.42
414.901	578.04
415.11	588.28
415.318	459.26
415.526	541.18
415.734	584.18
415.943	727.54
416.151	655.86
416.359	705.01
416.567	723.44
416.776	705.01
416.984	803.32
417.192	817.65
417.4	688.63
417.608	727.54
417.817	743.92
418.025	795.12
418.233	860.66
418.441	821.75
418.649	827.89
418.857	977.39
419.065	967.15
419.273	926.19
419.481	1055.22
419.689	1090.03
419.897	1157.61
420.105	1057.26
420.313	1137.13
420.521	1190.38
420.729	1294.83
420.937	1276.4
421.145	1356.27
421.353	1376.75
421.561	1503.72
421.769	1554.92
421.977	1563.11
422.185	1548.78
422.393	1571.3
422.601	1765.86
422.809	1726.95
423.017	1810.92
423.224	1778.15
423.432	1872.36
423.64	1954.27
423.848	2114.02
424.056	1976.8
424.263	2261.47
424.471	2105.82
424.679	2306.52
424.887	2415.07
425.094	2499.03
425.302	2376.16
425.51	2570.71
425.718	2464.22
425.925	2640.34
426.133	2621.91
426.341	2857.43
426.548	2922.96
426.756	2982.35
426.964	3037.65
427.171	3193.3
427.379	3301.84
427.586	3215.82
427.794	3525.07
428.001	3563.98
428.209	3733.96
428.417	3766.73
428.624	3998.15
428.832	3940.8
429.039	3862.98
429.247	4004.29
429.454	4223.42
429.662	4553.15
429.869	4282.81
430.076	4577.72
430.284	4456.89
430.491	4702.65
430.699	4985.27
430.906	4927.92
431.114	5050.8
431.321	5120.43
431.528	5280.18
431.736	5683.63
431.943	5958.05
432.15	5659.05
432.358	5771.69
432.565	5990.82
432.772	5990.82
432.979	6494.62
433.187	6484.38
433.394	6521.24
433.601	7008.66
433.808	7029.14
434.016	6855.06
434.223	7207.31
434.43	7573.9
434.637	7604.62
434.844	8102.28
435.052	8145.28
435.259	7979.4
435.466	8159.62
435.673	8038.79
435.88	8569.21
436.087	9138.55
436.294	9156.98
436.501	8808.83
436.708	9161.08
436.915	9367.92
437.122	10062.18
437.329	9785.71
437.537	10105.19
437.743	10142.05
437.95	10035.56
438.157	10643.81
438.364	11161.94
438.571	10994.01
438.778	11268.44
438.985	12030.28
439.192	11632.97
439.399	11931.98
439.606	11868.49
439.813	12443.97
440.02	13095.22
440.227	13127.99
440.433	12927.29
440.64	13349.17
440.847	13158.71
441.054	13340.98
441.261	14237.99
441.467	14420.26
441.674	14633.25
441.881	14850.33
442.088	14940.44
442.294	14704.93
442.501	15444.24
442.708	15560.98
442.914	16144.65
443.121	16918.78
443.328	16388.36
443.534	17608.95
443.741	17135.87
443.948	16740.61
444.154	18000.11
444.361	17953.01
444.568	18247.91
444.774	18016.49
444.981	18305.26
445.187	18759.91
445.394	19497.17
445.6	19036.38
445.807	21588.15
446.013	20101.33
446.22	20666.56
446.426	21504.18
446.633	21577.91
446.839	22335.66
447.046	21432.5
447.252	22343.85
447.459	22786.21
447.665	22827.17
447.871	23607.45
448.078	24465.55
448.284	23210.14
448.491	23939.22
448.697	25135.23
448.903	25243.77
449.11	25241.73
449.316	25053.31
449.522	25522.3
449.728	26024.05
449.935	26425.45
450.141	26347.63
450.347	27060.32
450.553	26093.68
450.76	26734.7
450.966	27322.46
451.172	27021.41
451.378	27492.44
451.584	26968.16
451.791	27531.36
451.997	27523.16
452.203	27977.81
452.409	28127.31
452.615	27715.67
452.821	26669.16
453.027	26490.99
453.233	27994.2
453.44	26757.22
453.646	26964.07
453.852	27017.32
454.058	27648.09
454.264	26712.17
454.47	27234.4
454.676	26589.29
454.882	27336.8
455.088	25235.58
455.294	25931.89
455.5	25794.68
455.705	26148.98
455.911	25030.79
456.117	24713.35
456.323	24275.09
456.529	22919.33
456.735	24215.69
456.941	23212.19
457.147	23199.9
457.352	22292.65
457.558	22001.84
457.764	21909.68
457.97	21508.28
458.176	20912.32
458.381	20895.94
458.587	20058.32
458.793	20052.17
458.999	18817.25
459.204	20392.14
459.41	19845.33
459.616	18432.23
459.821	18458.85
460.027	18106.6
460.233	17844.46
460.438	17035.52
460.644	17033.47
460.85	16341.25
461.055	16032.01
461.261	16259.34
461.466	15048.99
461.672	14532.9
461.878	15401.24
462.083	14682.4
462.289	14213.42
462.494	14133.54
462.7	13191.48
462.905	13078.84
463.111	13535.54
463.316	13525.3
463.522	13254.97
463.727	13576.5
463.932	13365.56
464.138	13140.28
464.343	13185.33
464.549	12900.67
464.754	13367.6
464.959	13216.05
465.165	13001.02
465.37	12523.84
465.575	12329.28
465.781	12722.49
465.986	12822.84
466.191	12192.07
466.397	12095.82
466.602	11583.82
466.807	12106.06
467.012	11841.87
467.218	11800.91
467.423	11782.48
467.628	11776.33
467.833	12171.59
