Data from USB4F104151__103__11-32-23-000.txt Node

Date: Fri Mar 14 11:32:23 EDT 2025
User: louis
Spectrometer: USB4F10415
Trigger mode: 4
Integration Time (sec): 5.000000E-2
Scans to average: 1
Electric dark correction enabled: true
Nonlinearity correction enabled: false
Boxcar width: 0
XAxis mode: Wavelengths
Number of Pixels in Spectrum: 3648
>>>>>Begin Spectral Data<<<<<
178.204	-159.91
178.424	-159.91
178.644	-159.91
178.864	-172.2
179.084	-192.68
179.304	44.88
179.524	12.12
179.744	-86.19
179.964	22.36
180.184	14.17
180.404	65.36
180.624	36.69
180.844	-0.17
181.064	-34.99
181.283	-22.7
181.503	-12.46
181.723	-39.08
181.943	-53.42
182.163	8.02
182.383	16.21
182.602	3.93
182.822	28.5
183.042	12.12
183.262	-2.22
183.482	3.93
183.701	-37.03
183.921	18.26
184.141	-51.37
184.361	71.51
184.58	24.4
184.8	10.07
185.02	-16.55
185.239	16.21
185.459	44.88
185.679	36.69
185.898	-8.36
186.118	20.31
186.338	10.07
186.557	73.56
186.777	-8.36
186.997	-28.84
187.216	-8.36
187.436	57.17
187.655	44.88
187.875	63.32
188.095	-18.6
188.314	3.93
188.534	16.21
188.753	-0.17
188.973	59.22
189.192	65.36
189.412	-20.65
189.631	-34.99
189.851	83.8
190.07	3.93
190.29	-12.46
190.509	8.02
190.729	-43.18
190.948	28.5
191.168	196.43
191.387	77.65
191.607	-12.46
191.826	8.02
192.045	20.31
192.265	28.5
192.484	10.07
192.704	63.32
192.923	-55.47
193.142	81.75
193.362	85.84
193.581	118.61
193.8	18.26
194.02	65.36
194.239	36.69
194.458	61.27
194.678	48.98
194.897	3.93
195.116	51.03
195.335	-32.94
195.555	61.27
195.774	28.5
195.993	22.36
196.212	77.65
196.432	-63.66
196.651	-6.31
196.87	-53.42
197.089	122.71
197.308	44.88
197.528	-14.51
197.747	-63.66
197.966	5.97
198.185	48.98
198.404	26.45
198.623	85.84
198.842	53.08
199.062	128.85
199.281	53.08
199.5	-0.17
199.719	36.69
199.938	5.97
200.157	32.6
200.376	36.69
200.595	83.8
200.814	34.64
201.033	-53.42
201.252	12.12
201.471	20.31
201.69	26.45
201.909	-65.71
202.128	-10.41
202.347	36.69
202.566	-6.31
202.785	-28.84
203.004	-69.8
203.223	94.04
203.442	55.12
203.661	-26.79
203.879	32.6
204.098	110.42
204.317	-4.27
204.536	65.36
204.755	87.89
204.974	-49.32
205.193	75.6
205.411	89.94
205.63	36.69
205.849	77.65
206.068	18.26
206.287	10.07
206.505	102.23
206.724	20.31
206.943	-55.47
207.162	12.12
207.381	28.5
207.599	48.98
207.818	24.4
208.037	53.08
208.255	-39.08
208.474	12.12
208.693	3.93
208.911	3.93
209.13	26.45
209.349	106.32
209.567	28.5
209.786	63.32
210.005	-10.41
210.223	10.07
210.442	-67.75
210.661	8.02
210.879	20.31
211.098	-20.65
211.316	38.74
211.535	28.5
211.753	-14.51
211.972	-2.22
212.191	-30.89
212.409	12.12
212.628	40.79
212.846	20.31
213.065	61.27
213.283	26.45
213.502	-14.51
213.72	8.02
213.938	-57.51
214.157	48.98
214.375	83.8
214.594	42.84
214.812	1.88
215.031	22.36
215.249	-37.03
215.467	20.31
215.686	-69.8
215.904	24.4
216.122	36.69
216.341	22.36
216.559	100.18
216.778	18.26
216.996	59.22
217.214	-2.22
217.432	42.84
217.651	16.21
217.869	5.97
218.087	65.36
218.306	24.4
218.524	87.89
218.742	-0.17
218.96	40.79
219.179	73.56
219.397	-73.9
219.615	67.41
219.833	-4.27
220.051	-22.7
220.27	53.08
220.488	-16.55
220.706	40.79
220.924	14.17
221.142	59.22
221.36	48.98
221.578	20.31
221.796	-47.27
222.015	-39.08
222.233	10.07
222.451	83.8
222.669	-51.37
222.887	26.45
223.105	-14.51
223.323	-37.03
223.541	14.17
223.759	65.36
223.977	42.84
224.195	38.74
224.413	75.6
224.631	69.46
224.849	8.02
225.067	38.74
225.285	81.75
225.503	44.88
225.721	-90.28
225.939	114.52
226.157	36.69
226.375	192.34
226.592	1.88
226.81	94.04
227.028	18.26
227.246	124.76
227.464	-20.65
227.682	53.08
227.9	26.45
228.117	3.93
228.335	18.26
228.553	44.88
228.771	65.36
228.989	32.6
229.206	22.36
229.424	53.08
229.642	-24.75
229.86	-86.19
230.077	20.31
230.295	-26.79
230.513	87.89
230.731	77.65
230.948	59.22
231.166	61.27
231.384	57.17
231.601	44.88
231.819	59.22
232.037	48.98
232.254	-10.41
232.472	-12.46
232.689	-24.75
232.907	-32.94
233.125	3.93
233.342	5.97
233.56	-6.31
233.777	-0.17
233.995	26.45
234.213	98.13
234.43	22.36
234.648	3.93
234.865	83.8
235.083	-0.17
235.3	-45.23
235.518	1.88
235.735	135
235.953	32.6
236.17	69.46
236.388	-22.7
236.605	16.21
236.822	34.64
237.04	55.12
237.257	-24.75
237.475	-45.23
237.692	48.98
237.909	-10.41
238.127	12.12
238.344	98.13
238.562	57.17
238.779	-37.03
238.996	-24.75
239.214	46.93
239.431	81.75
239.648	-10.41
239.865	-32.94
240.083	149.33
240.3	-6.31
240.517	-63.66
240.735	-14.51
240.952	46.93
241.169	96.08
241.386	14.17
241.603	34.64
241.821	18.26
242.038	79.7
242.255	65.36
242.472	-47.27
242.689	102.23
242.907	48.98
243.124	-45.23
243.341	-12.46
243.558	28.5
243.775	-4.27
243.992	53.08
244.209	48.98
244.426	114.52
244.643	53.08
244.86	-53.42
245.078	69.46
245.295	18.26
245.512	71.51
245.729	-47.27
245.946	-14.51
246.163	-8.36
246.38	-2.22
246.597	118.61
246.814	53.08
247.031	53.08
247.248	57.17
247.464	57.17
247.681	75.6
247.898	20.31
248.115	51.03
248.332	24.4
248.549	65.36
248.766	85.84
248.983	28.5
249.2	10.07
249.417	143.19
249.633	1.88
249.85	36.69
250.067	69.46
250.284	85.84
250.501	75.6
250.717	3.93
250.934	3.93
251.151	26.45
251.368	-30.89
251.585	34.64
251.801	-30.89
252.018	1.88
252.235	42.84
252.451	-55.47
252.668	-6.31
252.885	124.76
253.102	63.32
253.318	75.6
253.535	-14.51
253.752	-2.22
253.968	38.74
254.185	20.31
254.401	34.64
254.618	32.6
254.835	51.03
255.051	18.26
255.268	100.18
255.484	32.6
255.701	24.4
255.917	-22.7
256.134	-24.75
256.351	-57.51
256.567	-69.8
256.784	-4.27
257	-49.32
257.217	79.7
257.433	12.12
257.65	36.69
257.866	73.56
258.082	-47.27
258.299	12.12
258.515	-30.89
258.732	61.27
258.948	14.17
259.165	-8.36
259.381	-30.89
259.597	44.88
259.814	57.17
260.03	110.42
260.246	24.4
260.463	-0.17
260.679	65.36
260.895	10.07
261.112	53.08
261.328	36.69
261.544	-32.94
261.761	104.28
261.977	10.07
262.193	18.26
262.409	73.56
262.626	51.03
262.842	-28.84
263.058	-4.27
263.274	20.31
263.49	106.32
263.707	48.98
263.923	-0.17
264.139	18.26
264.355	96.08
264.571	28.5
264.787	-39.08
265.004	67.41
265.22	-45.23
265.436	-57.51
265.652	30.55
265.868	-4.27
266.084	10.07
266.3	3.93
266.516	-0.17
266.732	-0.17
266.948	3.93
267.164	-16.55
267.38	3.93
267.596	22.36
267.812	98.13
268.028	26.45
268.244	46.93
268.46	8.02
268.676	75.6
268.892	38.74
269.108	-20.65
269.324	36.69
269.54	16.21
269.756	59.22
269.972	12.12
270.188	-37.03
270.403	-28.84
270.619	-30.89
270.835	42.84
271.051	14.17
271.267	12.12
271.483	-28.84
271.698	24.4
271.914	8.02
272.13	44.88
272.346	-18.6
272.562	-4.27
272.777	38.74
272.993	-55.47
273.209	96.08
273.425	61.27
273.64	-12.46
273.856	34.64
274.072	38.74
274.287	8.02
274.503	-4.27
274.719	16.21
274.934	-4.27
275.15	3.93
275.366	53.08
275.581	3.93
275.797	53.08
276.012	112.47
276.228	3.93
276.444	44.88
276.659	20.31
276.875	-18.6
277.09	-6.31
277.306	91.99
277.521	10.07
277.737	-57.51
277.952	3.93
278.168	44.88
278.383	32.6
278.599	42.84
278.814	-37.03
279.03	-4.27
279.245	10.07
279.461	28.5
279.676	128.85
279.892	-20.65
280.107	-65.71
280.322	-2.22
280.538	51.03
280.753	36.69
280.969	67.41
281.184	-45.23
281.399	77.65
281.615	-0.17
281.83	132.95
282.045	-34.99
282.26	-49.32
282.476	12.12
282.691	67.41
282.906	-12.46
283.122	75.6
283.337	32.6
283.552	112.47
283.767	3.93
283.983	89.94
284.198	44.88
284.413	122.71
284.628	34.64
284.843	53.08
285.058	-10.41
285.274	59.22
285.489	-26.79
285.704	22.36
285.919	-18.6
286.134	30.55
286.349	1.88
286.564	24.4
286.779	-4.27
286.995	34.64
287.21	5.97
287.425	12.12
287.64	18.26
287.855	48.98
288.07	81.75
288.285	75.6
288.5	89.94
288.715	73.56
288.93	-45.23
289.145	8.02
289.36	96.08
289.575	-30.89
289.79	44.88
290.004	-20.65
290.219	87.89
290.434	5.97
290.649	40.79
290.864	-6.31
291.079	-8.36
291.294	59.22
291.509	44.88
291.724	-4.27
291.938	32.6
292.153	67.41
292.368	-34.99
292.583	110.42
292.798	118.61
293.012	-37.03
293.227	24.4
293.442	-4.27
293.657	26.45
293.871	81.75
294.086	14.17
294.301	85.84
294.516	42.84
294.73	10.07
294.945	-20.65
295.16	8.02
295.374	112.47
295.589	102.23
295.804	5.97
296.018	81.75
296.233	114.52
296.447	-37.03
296.662	-61.61
296.877	-4.27
297.091	28.5
297.306	-12.46
297.52	34.64
297.735	89.94
297.949	46.93
298.164	55.12
298.378	24.4
298.593	-16.55
298.807	40.79
299.022	28.5
299.236	28.5
299.451	8.02
299.665	-57.51
299.88	57.17
300.094	85.84
300.309	24.4
300.523	77.65
300.737	40.79
300.952	24.4
301.166	26.45
301.381	73.56
301.595	26.45
301.809	18.26
302.024	16.21
302.238	10.07
302.452	69.46
302.667	24.4
302.881	36.69
303.095	73.56
303.309	5.97
303.524	-59.56
303.738	40.79
303.952	-69.8
304.166	69.46
304.381	75.6
304.595	53.08
304.809	48.98
305.023	46.93
305.237	-16.55
305.452	-16.55
305.666	73.56
305.88	94.04
306.094	83.8
306.308	102.23
306.522	53.08
306.736	96.08
306.95	53.08
307.164	-4.27
307.379	44.88
307.593	77.65
307.807	75.6
308.021	94.04
308.235	16.21
308.449	-4.27
308.663	18.26
308.877	151.38
309.091	42.84
309.305	69.46
309.519	-16.55
309.733	110.42
309.947	-0.17
310.161	16.21
310.374	12.12
310.588	100.18
310.802	-114.86
311.016	40.79
311.23	42.84
311.444	-30.89
311.658	36.69
311.872	18.26
312.085	126.8
312.299	69.46
312.513	61.27
312.727	-12.46
312.941	87.89
313.154	22.36
313.368	-12.46
313.582	69.46
313.796	69.46
314.009	-14.51
314.223	69.46
314.437	26.45
314.651	40.79
314.864	16.21
315.078	28.5
315.292	87.89
315.505	-22.7
315.719	20.31
315.933	-55.47
316.146	65.36
316.36	-4.27
316.573	-0.17
316.787	57.17
317.001	69.46
317.214	-8.36
317.428	18.26
317.641	3.93
317.855	20.31
318.068	10.07
318.282	38.74
318.495	53.08
318.709	28.5
318.922	-77.99
319.136	51.03
319.349	75.6
319.563	77.65
319.776	63.32
319.99	26.45
320.203	61.27
320.417	1.88
320.63	42.84
320.843	139.09
321.057	36.69
321.27	-34.99
321.483	98.13
321.697	32.6
321.91	91.99
322.124	3.93
322.337	44.88
322.55	61.27
322.763	28.5
322.977	55.12
323.19	8.02
323.403	48.98
323.617	-28.84
323.83	63.32
324.043	44.88
324.256	22.36
324.469	-65.71
324.683	48.98
324.896	12.12
325.109	18.26
325.322	-30.89
325.535	40.79
325.748	63.32
325.962	16.21
326.175	28.5
326.388	40.79
326.601	28.5
326.814	-6.31
327.027	32.6
327.24	44.88
327.453	-118.95
327.666	34.64
327.879	8.02
328.092	94.04
328.305	38.74
328.518	69.46
328.731	8.02
328.944	67.41
329.157	36.69
329.37	44.88
329.583	34.64
329.796	87.89
330.009	32.6
330.222	89.94
330.435	118.61
330.648	73.56
330.861	46.93
331.073	65.36
331.286	24.4
331.499	24.4
331.712	53.08
331.925	69.46
332.138	26.45
332.35	71.51
332.563	-20.65
332.776	104.28
332.989	32.6
333.202	-4.27
333.414	94.04
333.627	18.26
333.84	-12.46
334.053	32.6
334.265	-53.42
334.478	67.41
334.691	-2.22
334.903	3.93
335.116	40.79
335.329	-47.27
335.541	16.21
335.754	34.64
335.966	-0.17
336.179	-24.75
336.392	20.31
336.604	83.8
336.817	65.36
337.029	40.79
337.242	46.93
337.454	59.22
337.667	42.84
337.88	53.08
338.092	73.56
338.305	12.12
338.517	-10.41
338.729	57.17
338.942	108.37
339.154	-8.36
339.367	1.88
339.579	1.88
339.792	57.17
340.004	22.36
340.217	34.64
340.429	22.36
340.641	-30.89
340.854	8.02
341.066	12.12
341.278	94.04
341.491	30.55
341.703	57.17
341.915	16.21
342.128	61.27
342.34	14.17
342.552	8.02
342.764	59.22
342.977	36.69
343.189	26.45
343.401	44.88
343.613	-47.27
343.826	34.64
344.038	-30.89
344.25	-4.27
344.462	10.07
344.674	87.89
344.886	38.74
345.099	53.08
345.311	30.55
345.523	-20.65
345.735	-12.46
345.947	38.74
346.159	32.6
346.371	20.31
346.583	-45.23
346.795	61.27
347.007	-22.7
347.219	122.71
347.431	12.12
347.643	28.5
347.855	12.12
348.067	85.84
348.279	-22.7
348.491	32.6
348.703	87.89
348.915	61.27
349.127	10.07
349.339	46.93
349.551	5.97
349.763	36.69
349.975	-10.41
350.187	77.65
350.399	-22.7
350.61	46.93
350.822	-6.31
351.034	83.8
351.246	3.93
351.458	65.36
351.669	46.93
351.881	79.7
352.093	69.46
352.305	87.89
352.517	-18.6
352.728	116.56
352.94	118.61
353.152	38.74
353.363	-10.41
353.575	-41.13
353.787	94.04
353.999	26.45
354.21	102.23
354.422	44.88
354.633	108.37
354.845	8.02
355.057	53.08
355.268	48.98
355.48	98.13
355.692	3.93
355.903	-41.13
356.115	-28.84
356.326	30.55
356.538	34.64
356.749	20.31
356.961	120.66
357.172	20.31
357.384	-4.27
357.595	85.84
357.807	44.88
358.018	-6.31
358.23	1.88
358.441	110.42
358.653	55.12
358.864	40.79
359.075	18.26
359.287	63.32
359.498	1.88
359.709	59.22
359.921	55.12
360.132	34.64
360.344	32.6
360.555	24.4
360.766	77.65
360.977	-41.13
361.189	53.08
361.4	104.28
361.611	61.27
361.823	48.98
362.034	48.98
362.245	61.27
362.456	-26.79
362.667	79.7
362.879	53.08
363.09	44.88
363.301	65.36
363.512	10.07
363.723	-8.36
363.935	-20.65
364.146	26.45
364.357	98.13
364.568	77.65
364.779	3.93
364.99	59.22
365.201	-55.47
365.412	44.88
365.623	-32.94
365.834	44.88
366.045	61.27
366.256	32.6
366.467	53.08
366.678	53.08
366.889	59.22
367.1	-22.7
367.311	10.07
367.522	-65.71
367.733	132.95
367.944	106.32
368.155	8.02
368.366	83.8
368.577	12.12
368.788	28.5
368.999	-30.89
369.209	57.17
369.42	94.04
369.631	69.46
369.842	100.18
370.053	69.46
370.264	116.56
370.474	24.4
370.685	91.99
370.896	94.04
371.107	44.88
371.317	22.36
371.528	-14.51
371.739	87.89
371.95	100.18
372.16	3.93
372.371	-59.56
372.582	63.32
372.792	20.31
373.003	36.69
373.214	85.84
373.424	40.79
373.635	3.93
373.846	51.03
374.056	65.36
374.267	83.8
374.477	-4.27
374.688	26.45
374.898	77.65
375.109	-6.31
375.319	16.21
375.53	87.89
375.74	198.48
375.951	77.65
376.161	67.41
376.372	110.42
376.582	26.45
376.793	77.65
377.003	28.5
377.214	22.36
377.424	24.4
377.635	-47.27
377.845	32.6
378.055	53.08
378.266	20.31
378.476	24.4
378.686	83.8
378.897	32.6
379.107	69.46
379.317	44.88
379.528	-6.31
379.738	20.31
379.948	-37.03
380.158	85.84
380.369	10.07
380.579	57.17
380.789	65.36
380.999	36.69
381.21	53.08
381.42	122.71
381.63	73.56
381.84	8.02
382.05	28.5
382.261	112.47
382.471	61.27
382.681	57.17
382.891	79.7
383.101	63.32
383.311	-8.36
383.521	-8.36
383.731	91.99
383.941	3.93
384.151	98.13
384.361	40.79
384.571	30.55
384.781	34.64
384.991	98.13
385.201	73.56
385.411	24.4
385.621	114.52
385.831	1.88
386.041	65.36
386.251	83.8
386.461	75.6
386.671	91.99
386.881	-14.51
387.091	18.26
387.301	63.32
387.511	59.22
387.72	12.12
387.93	143.19
388.14	24.4
388.35	-10.41
388.56	40.79
388.769	53.08
388.979	24.4
389.189	-14.51
389.399	67.41
389.609	44.88
389.818	59.22
390.028	83.8
390.238	-6.31
390.447	8.02
390.657	69.46
390.867	53.08
391.076	-12.46
391.286	79.7
391.496	-22.7
391.705	75.6
391.915	75.6
392.125	85.84
392.334	79.7
392.544	24.4
392.753	110.42
392.963	30.55
393.172	69.46
393.382	-14.51
393.591	149.33
393.801	81.75
394.01	126.8
394.22	151.38
394.429	32.6
394.639	16.21
394.848	98.13
395.058	94.04
395.267	-20.65
395.477	116.56
395.686	53.08
395.895	159.57
396.105	157.52
396.314	81.75
396.524	106.32
396.733	46.93
396.942	79.7
397.152	100.18
397.361	98.13
397.57	71.51
397.78	73.56
397.989	114.52
398.198	87.89
398.407	110.42
398.617	132.95
398.826	63.32
399.035	112.47
399.244	126.8
399.453	116.56
399.663	100.18
399.872	53.08
400.081	139.09
400.29	139.09
400.499	20.31
400.708	108.37
400.917	100.18
401.127	94.04
401.336	118.61
401.545	157.52
401.754	116.56
401.963	73.56
402.172	71.51
402.381	24.4
402.59	96.08
402.799	116.56
403.008	130.9
403.217	147.28
403.426	155.47
403.635	124.76
403.844	147.28
404.053	118.61
404.262	135
404.471	102.23
404.68	139.09
404.888	147.28
405.097	139.09
405.306	214.87
405.515	196.43
405.724	135
405.933	96.08
406.142	221.01
406.35	216.91
406.559	178
406.768	206.67
406.977	229.2
407.185	192.34
407.394	241.49
407.603	167.76
407.812	171.86
408.02	173.91
408.229	178
408.438	206.67
408.646	180.05
408.855	264.02
409.064	233.3
409.272	249.68
409.481	317.26
409.69	298.83
409.898	182.1
410.107	333.65
410.315	296.78
410.524	290.64
410.733	307.02
410.941	264.02
411.15	442.19
411.358	405.33
411.567	438.09
411.775	370.51
411.984	393.04
412.192	425.81
412.401	462.67
412.609	444.24
412.818	470.86
413.026	487.25
413.234	468.81
413.443	513.87
413.651	468.81
413.86	499.53
414.068	585.55
414.276	640.84
414.485	583.5
414.693	657.23
414.901	710.47
415.11	624.46
415.318	626.51
415.526	677.71
415.734	636.75
415.943	702.28
416.151	753.48
416.359	698.19
416.567	786.25
416.776	843.59
416.984	872.26
417.192	878.41
417.4	823.11
417.608	925.51
417.817	876.36
418.025	1025.86
418.233	1060.68
418.441	1068.87
418.649	1089.35
418.857	1161.03
419.065	1263.43
419.273	1204.03
419.481	1189.7
419.689	1267.52
419.897	1371.97
420.105	1339.2
420.313	1437.5
420.521	1574.72
420.729	1535.81
420.937	1503.04
421.145	1625.92
421.353	1693.5
421.561	1865.53
421.769	1806.14
421.977	1988.41
422.185	1883.96
422.393	1941.3
422.601	2060.09
422.809	2139.96
423.017	2246.45
423.224	2174.77
423.432	2295.6
423.64	2436.91
423.848	2514.73
424.056	2539.31
424.263	2701.1
424.471	2688.81
424.679	2740.01
424.887	2801.45
425.094	3133.22
425.302	3022.63
425.51	3073.83
425.718	3182.37
425.925	3110.69
426.133	3309.35
426.341	3469.09
426.548	3518.24
426.756	3782.43
426.964	3657.5
427.171	4005.66
427.379	3952.41
427.586	4114.2
427.794	4208.41
428.001	4476.69
428.209	4665.1
428.417	4499.22
428.624	4878.09
428.832	4851.47
429.039	4777.74
429.247	4779.79
429.454	5279.49
429.662	5566.21
429.869	5277.44
430.076	5611.26
430.284	5523.2
430.491	5869.31
430.699	6031.1
430.906	6039.29
431.114	6078.2
431.321	6358.77
431.528	6344.44
431.736	6831.85
431.943	7255.78
432.15	6893.29
432.358	6989.55
432.565	7562.98
432.772	7335.65
432.979	7775.97
433.187	7749.34
433.394	8015.58
433.601	8507.09
433.808	8558.29
434.016	8605.39
434.223	8845.01
434.43	9230.02
434.637	9162.44
434.844	9703.11
435.052	9936.57
435.259	9692.87
435.466	9940.67
435.673	9840.32
435.88	10561.2
436.087	11206.31
436.294	11157.16
436.501	10981.04
436.708	11216.55
436.915	11501.22
437.122	12218.01
437.329	11968.16
437.537	12291.74
437.743	12551.83
437.95	12433.05
438.157	13031.05
438.364	13450.89
438.571	13411.98
438.778	13567.62
438.985	14880.37
439.192	14167.68
439.399	14569.08
439.606	14435.96
439.813	15292.01
440.02	16113.25
440.227	15994.47
440.433	15650.41
440.64	16168.54
440.847	15941.22
441.054	16514.65
441.261	17712.71
441.467	17352.27
441.674	17802.82
441.881	18484.8
442.088	18378.3
442.294	18214.46
442.501	18636.34
442.708	18964.02
442.914	19707.43
443.121	20348.45
443.328	20137.51
443.534	21675.53
443.741	20911.64
443.948	20385.31
444.154	22271.49
444.361	22050.31
444.568	21999.11
444.774	22208
444.981	22484.48
445.187	23117.3
445.394	24088.04
445.6	23664.11
445.807	26183.11
446.013	24743.39
446.22	25431.51
446.426	26230.21
446.633	26451.39
446.839	27342.26
447.046	26056.14
447.252	27835.82
447.459	27837.87
447.665	27475.38
447.871	28745.12
448.078	29617.55
448.284	28745.12
448.491	29672.85
448.697	30530.95
448.903	31022.46
449.11	31192.44
449.316	30694.78
449.522	31296.89
449.728	31991.15
449.935	32542.05
450.141	32066.92
450.347	32695.65
450.553	31692.15
450.76	32376.17
450.966	33523.03
451.172	33074.52
451.378	33529.17
451.584	33281.37
451.791	33695.06
451.997	33875.28
452.203	34577.73
452.409	34295.11
452.615	34135.37
452.821	32879.97
453.027	32681.31
453.233	34409.8
453.44	33138.01
453.646	33537.37
453.852	33527.13
454.058	33903.95
454.264	32978.27
454.47	33420.63
454.676	32746.85
454.882	33797.46
455.088	31143.29
455.294	31452.53
455.5	31851.89
455.705	32216.43
455.911	31237.5
456.117	30727.55
456.323	29851.02
456.529	28071.34
456.735	29398.42
456.941	28911
457.147	28382.63
457.352	27530.67
457.558	27178.42
457.764	27125.18
457.97	26381.76
458.176	26109.38
458.381	26176.97
458.587	24882.65
458.793	24917.47
458.999	23365.1
459.204	25159.13
459.41	24419.81
459.616	23023.09
459.821	23047.67
460.027	22722.04
460.233	22310.4
460.438	21536.27
460.644	21702.15
460.85	20616.73
461.055	20041.25
461.261	20084.26
461.466	18681.4
461.672	18136.64
461.878	19359.28
462.083	18208.32
462.289	17876.55
462.494	17526.35
462.7	17045.07
462.905	16285.28
463.111	16977.49
463.316	16907.86
463.522	16774.74
463.727	16713.3
463.932	16574.04
464.138	16690.77
464.343	16438.87
464.549	15910.5
464.754	16479.83
464.959	16309.85
465.165	16133.73
465.37	15738.47
465.575	15273.58
465.781	15900.26
465.986	15904.35
466.191	15275.63
466.397	14802.55
466.602	13889.15
466.807	14902.9
467.012	14786.16
467.218	14909.04
467.423	14722.68
