Data from USB4F104151__6__11-29-35-568.txt Node

Date: Fri Mar 14 11:29:35 EDT 2025
User: louis
Spectrometer: USB4F10415
Trigger mode: 4
Integration Time (sec): 5.000000E-2
Scans to average: 1
Electric dark correction enabled: true
Nonlinearity correction enabled: false
Boxcar width: 0
XAxis mode: Wavelengths
Number of Pixels in Spectrum: 3648
>>>>>Begin Spectral Data<<<<<
178.204	-162.47
178.424	-162.47
178.644	-162.47
178.864	-129.7
179.084	-180.9
179.304	19.8
179.524	-47.79
179.744	-37.55
179.964	1.37
180.184	27.99
180.404	91.48
180.624	9.56
180.844	32.08
181.064	-51.88
181.283	-64.17
181.503	-29.35
181.723	48.47
181.943	-35.5
182.163	79.19
182.383	23.89
182.602	87.38
182.822	9.56
183.042	17.75
183.262	1.37
183.482	17.75
183.701	66.9
183.921	3.41
184.141	5.46
184.361	73.04
184.58	50.52
184.8	56.66
185.02	95.57
185.239	77.14
185.459	-19.11
185.679	66.9
185.898	21.85
186.118	-15.02
186.338	-17.07
186.557	17.75
186.777	-47.79
186.997	-15.02
187.216	34.13
187.436	64.85
187.655	23.89
187.875	89.43
188.095	60.76
188.314	15.7
188.534	58.71
188.753	-21.16
188.973	75.09
189.192	97.62
189.412	1.37
189.631	99.67
189.851	58.71
190.07	52.56
190.29	-15.02
190.509	48.47
190.729	71
190.948	25.94
191.168	165.2
191.387	48.47
191.607	-19.11
191.826	34.13
192.045	19.8
192.265	1.37
192.484	7.51
192.704	77.14
192.923	-64.17
193.142	89.43
193.362	50.52
193.581	87.38
193.8	-35.5
194.02	120.15
194.239	34.13
194.458	25.94
194.678	1.37
194.897	13.65
195.116	23.89
195.335	9.56
195.555	50.52
195.774	5.46
195.993	-17.07
196.212	32.08
196.432	54.61
196.651	85.33
196.87	42.32
197.089	140.63
197.308	-55.98
197.528	75.09
197.747	15.7
197.966	-19.11
198.185	62.8
198.404	79.19
198.623	-15.02
198.842	-19.11
199.062	25.94
199.281	1.37
199.5	-19.11
199.719	13.65
199.938	-33.45
200.157	93.52
200.376	132.44
200.595	15.7
200.814	3.41
201.033	9.56
201.252	-2.73
201.471	-0.68
201.69	79.19
201.909	89.43
202.128	-8.87
202.347	-6.83
202.566	15.7
202.785	-6.83
203.004	15.7
203.223	46.42
203.442	7.51
203.661	-21.16
203.879	38.23
204.098	165.2
204.317	19.8
204.536	58.71
204.755	48.47
204.974	42.32
205.193	40.28
205.411	109.91
205.63	32.08
205.849	30.04
206.068	5.46
206.287	9.56
206.505	5.46
206.724	103.76
206.943	32.08
207.162	19.8
207.381	54.61
207.599	5.46
207.818	38.23
208.037	-15.02
208.255	32.08
208.474	97.62
208.693	13.65
208.911	25.94
209.13	54.61
209.349	95.57
209.567	38.23
209.786	50.52
210.005	40.28
210.223	42.32
210.442	-58.03
210.661	-15.02
210.879	58.71
211.098	-8.87
211.316	-4.78
211.535	114
211.753	48.47
211.972	-10.92
212.191	42.32
212.409	-15.02
212.628	89.43
212.846	-6.83
213.065	42.32
213.283	66.9
213.502	42.32
213.72	-6.83
213.938	66.9
214.157	34.13
214.375	15.7
214.594	-0.68
214.812	-4.78
215.031	1.37
215.249	-23.21
215.467	116.05
215.686	-15.02
215.904	-6.83
216.122	58.71
216.341	95.57
216.559	-8.87
216.778	64.85
216.996	60.76
217.214	3.41
217.432	-60.07
217.651	5.46
217.869	13.65
218.087	103.76
218.306	42.32
218.524	124.24
218.742	62.8
218.96	103.76
219.179	21.85
219.397	17.75
219.615	114
219.833	56.66
220.051	1.37
220.27	27.99
220.488	5.46
220.706	17.75
220.924	91.48
221.142	-53.93
221.36	38.23
221.578	-27.31
221.796	-8.87
222.015	30.04
222.233	-19.11
222.451	161.11
222.669	11.61
222.887	56.66
223.105	75.09
223.323	1.37
223.541	38.23
223.759	114
223.977	128.34
224.195	95.57
224.413	30.04
224.631	50.52
224.849	25.94
225.067	103.76
225.285	-55.98
225.503	-12.97
225.721	-55.98
225.939	50.52
226.157	87.38
226.375	157.01
226.592	-55.98
226.81	17.75
227.028	71
227.246	60.76
227.464	44.37
227.682	-43.69
227.9	-23.21
228.117	13.65
228.335	30.04
228.553	15.7
228.771	19.8
228.989	34.13
229.206	25.94
229.424	-21.16
229.642	27.99
229.86	-27.31
230.077	23.89
230.295	15.7
230.513	5.46
230.731	42.32
230.948	7.51
231.166	42.32
231.384	-17.07
231.601	36.18
231.819	107.86
232.037	25.94
232.254	-19.11
232.472	15.7
232.689	-47.79
232.907	73.04
233.125	23.89
233.342	-84.65
233.56	17.75
233.777	32.08
233.995	-2.73
234.213	-4.78
234.43	116.05
234.648	-17.07
234.865	54.61
235.083	68.95
235.3	32.08
235.518	23.89
235.735	103.76
235.953	38.23
236.17	-6.83
236.388	-6.83
236.605	75.09
236.822	54.61
237.04	30.04
237.257	9.56
237.475	54.61
237.692	-15.02
237.909	-66.22
238.127	15.7
238.344	9.56
238.562	40.28
238.779	34.13
238.996	15.7
239.214	58.71
239.431	89.43
239.648	13.65
239.865	66.9
240.083	75.09
240.3	71
240.517	15.7
240.735	38.23
240.952	13.65
241.169	54.61
241.386	66.9
241.603	-15.02
241.821	-39.59
242.038	64.85
242.255	48.47
242.472	60.76
242.689	9.56
242.907	66.9
243.124	79.19
243.341	-10.92
243.558	-66.22
243.775	44.37
243.992	48.47
244.209	-23.21
244.426	83.28
244.643	5.46
244.86	-2.73
245.078	30.04
245.295	17.75
245.512	32.08
245.729	5.46
245.946	99.67
246.163	46.42
246.38	136.53
246.597	-25.26
246.814	75.09
247.031	25.94
247.248	36.18
247.464	30.04
247.681	-33.45
247.898	13.65
248.115	44.37
248.332	25.94
248.549	83.28
248.766	120.15
248.983	-8.87
249.2	40.28
249.417	93.52
249.633	-2.73
249.85	126.29
250.067	-27.31
250.284	30.04
250.501	62.8
250.717	44.37
250.934	-101.03
251.151	50.52
251.368	-12.97
251.585	62.8
251.801	85.33
252.018	-2.73
252.235	46.42
252.451	-25.26
252.668	17.75
252.885	9.56
253.102	91.48
253.318	38.23
253.535	48.47
253.752	3.41
253.968	58.71
254.185	-12.97
254.401	42.32
254.618	66.9
254.835	7.51
255.051	87.38
255.268	34.13
255.484	15.7
255.701	17.75
255.917	81.24
256.134	40.28
256.351	7.51
256.567	-17.07
256.784	27.99
257	27.99
257.217	64.85
257.433	83.28
257.65	46.42
257.866	17.75
258.082	-23.21
258.299	52.56
258.515	56.66
258.732	9.56
258.948	15.7
259.165	68.95
259.381	-29.35
259.597	54.61
259.814	34.13
260.03	7.51
260.246	42.32
260.463	101.72
260.679	62.8
260.895	-39.59
261.112	64.85
261.328	75.09
261.544	19.8
261.761	42.32
261.977	-31.4
262.193	13.65
262.409	42.32
262.626	56.66
262.842	87.38
263.058	62.8
263.274	71
263.49	1.37
263.707	54.61
263.923	50.52
264.139	-29.35
264.355	23.89
264.571	87.38
264.787	46.42
265.004	38.23
265.22	60.76
265.436	11.61
265.652	-23.21
265.868	73.04
266.084	-39.59
266.3	-29.35
266.516	-17.07
266.732	30.04
266.948	-8.87
267.164	85.33
267.38	83.28
267.596	9.56
267.812	58.71
268.028	97.62
268.244	-25.26
268.46	34.13
268.676	-21.16
268.892	-23.21
269.108	-15.02
269.324	-0.68
269.54	-10.92
269.756	-6.83
269.972	11.61
270.188	19.8
270.403	1.37
270.619	7.51
270.835	23.89
271.051	64.85
271.267	34.13
271.483	-4.78
271.698	54.61
271.914	103.76
272.13	73.04
272.346	-25.26
272.562	48.47
272.777	-17.07
272.993	-25.26
273.209	-6.83
273.425	68.95
273.64	-33.45
273.856	56.66
274.072	-0.68
274.287	-64.17
274.503	58.71
274.719	-8.87
274.934	-53.93
275.15	48.47
275.366	34.13
275.581	21.85
275.797	75.09
276.012	5.46
276.228	-23.21
276.444	38.23
276.659	99.67
276.875	5.46
277.09	32.08
277.306	-6.83
277.521	91.48
277.737	38.23
277.952	105.81
278.168	32.08
278.383	19.8
278.599	116.05
278.814	48.47
279.03	60.76
279.245	40.28
279.461	30.04
279.676	34.13
279.892	34.13
280.107	34.13
280.322	-31.4
280.538	21.85
280.753	17.75
280.969	21.85
281.184	38.23
281.399	122.2
281.615	-51.88
281.83	54.61
282.045	3.41
282.26	-78.51
282.476	68.95
282.691	114
282.906	23.89
283.122	42.32
283.337	17.75
283.552	42.32
283.767	-4.78
283.983	-33.45
284.198	-15.02
284.413	17.75
284.628	-15.02
284.843	9.56
285.058	50.52
285.274	42.32
285.489	3.41
285.704	71
285.919	23.89
286.134	25.94
286.349	-15.02
286.564	15.7
286.779	62.8
286.995	9.56
287.21	-0.68
287.425	-10.92
287.64	38.23
287.855	-29.35
288.07	-76.46
288.285	77.14
288.5	5.46
288.715	-39.59
288.93	38.23
289.145	1.37
289.36	-15.02
289.575	32.08
289.79	21.85
290.004	7.51
290.219	9.56
290.434	25.94
290.649	-15.02
290.864	40.28
291.079	1.37
291.294	91.48
291.509	58.71
291.724	62.8
291.938	-27.31
292.153	58.71
292.368	30.04
292.583	111.96
292.798	75.09
293.012	32.08
293.227	25.94
293.442	40.28
293.657	50.52
293.871	103.76
294.086	9.56
294.301	81.24
294.516	21.85
294.73	23.89
294.945	-2.73
295.16	58.71
295.374	58.71
295.589	-15.02
295.804	54.61
296.018	46.42
296.233	38.23
296.447	15.7
296.662	1.37
296.877	9.56
297.091	13.65
297.306	38.23
297.52	15.7
297.735	46.42
297.949	17.75
298.164	79.19
298.378	91.48
298.593	58.71
298.807	13.65
299.022	38.23
299.236	97.62
299.451	30.04
299.665	15.7
299.88	64.85
300.094	42.32
300.309	23.89
300.523	25.94
300.737	34.13
300.952	91.48
301.166	42.32
301.381	1.37
301.595	-17.07
301.809	32.08
302.024	23.89
302.238	87.38
302.452	38.23
302.667	38.23
302.881	107.86
303.095	-8.87
303.309	-17.07
303.524	42.32
303.738	89.43
303.952	-31.4
304.166	34.13
304.381	-4.78
304.595	50.52
304.809	-27.31
305.023	17.75
305.237	32.08
305.452	34.13
305.666	68.95
305.88	99.67
306.094	42.32
306.308	38.23
306.522	40.28
306.736	5.46
306.95	66.9
307.164	17.75
307.379	58.71
307.593	81.24
307.807	157.01
308.021	30.04
308.235	73.04
308.449	-4.78
308.663	32.08
308.877	136.53
309.091	48.47
309.305	-37.55
309.519	34.13
309.733	93.52
309.947	-78.51
310.161	105.81
310.374	50.52
310.588	138.58
310.802	-2.73
311.016	-84.65
311.23	83.28
311.444	79.19
311.658	9.56
311.872	-2.73
312.085	-15.02
312.299	81.24
312.513	50.52
312.727	30.04
312.941	30.04
313.154	25.94
313.368	54.61
313.582	58.71
313.796	-31.4
314.009	68.95
314.223	146.77
314.437	79.19
314.651	52.56
314.864	1.37
315.078	21.85
315.292	-51.88
315.505	-0.68
315.719	36.18
315.933	9.56
316.146	75.09
316.36	9.56
316.573	13.65
316.787	17.75
317.001	58.71
317.214	-33.45
317.428	107.86
317.641	-2.73
317.855	58.71
318.068	34.13
318.282	-10.92
318.495	85.33
318.709	30.04
318.922	54.61
319.136	-33.45
319.349	62.8
319.563	56.66
319.776	17.75
319.99	-35.5
320.203	42.32
320.417	7.51
320.63	60.76
320.843	68.95
321.057	34.13
321.27	30.04
321.483	56.66
321.697	83.28
321.91	71
322.124	11.61
322.337	9.56
322.55	-2.73
322.763	42.32
322.977	32.08
323.19	23.89
323.403	107.86
323.617	73.04
323.83	64.85
324.043	60.76
324.256	25.94
324.469	-10.92
324.683	56.66
324.896	30.04
325.109	11.61
325.322	-23.21
325.535	73.04
325.748	-4.78
325.962	-4.78
326.175	-31.4
326.388	25.94
326.601	75.09
326.814	9.56
327.027	-31.4
327.24	75.09
327.453	48.47
327.666	32.08
327.879	48.47
328.092	159.06
328.305	83.28
328.518	19.8
328.731	42.32
328.944	64.85
329.157	13.65
329.37	-53.93
329.583	58.71
329.796	32.08
330.009	-12.97
330.222	-6.83
330.435	19.8
330.648	17.75
330.861	27.99
331.073	30.04
331.286	116.05
331.499	85.33
331.712	-43.69
331.925	-0.68
332.138	50.52
332.35	40.28
332.563	-6.83
332.776	32.08
332.989	-55.98
333.202	27.99
333.414	83.28
333.627	103.76
333.84	9.56
334.053	54.61
334.265	-47.79
334.478	-25.26
334.691	-27.31
334.903	42.32
335.116	34.13
335.329	27.99
335.541	25.94
335.754	107.86
335.966	19.8
336.179	17.75
336.392	32.08
336.604	64.85
336.817	48.47
337.029	19.8
337.242	58.71
337.454	42.32
337.667	-33.45
337.88	5.46
338.092	42.32
338.305	34.13
338.517	23.89
338.729	34.13
338.942	68.95
339.154	11.61
339.367	-6.83
339.579	46.42
339.792	75.09
340.004	36.18
340.217	-41.64
340.429	21.85
340.641	1.37
340.854	38.23
341.066	75.09
341.278	1.37
341.491	144.72
341.703	25.94
341.915	30.04
342.128	58.71
342.34	15.7
342.552	50.52
342.764	25.94
342.977	-15.02
343.189	71
343.401	27.99
343.613	1.37
343.826	75.09
344.038	9.56
344.25	66.9
344.462	23.89
344.674	17.75
344.886	-2.73
345.099	38.23
345.311	79.19
345.523	21.85
345.735	27.99
345.947	85.33
346.159	50.52
346.371	-35.5
346.583	-43.69
346.795	17.75
347.007	17.75
347.219	17.75
347.431	5.46
347.643	116.05
347.855	34.13
348.067	91.48
348.279	1.37
348.491	34.13
348.703	17.75
348.915	13.65
349.127	-0.68
349.339	36.18
349.551	62.8
349.763	99.67
349.975	42.32
350.187	9.56
350.399	46.42
350.61	7.51
350.822	-27.31
351.034	23.89
351.246	30.04
351.458	38.23
351.669	-2.73
351.881	54.61
352.093	93.52
352.305	50.52
352.517	23.89
352.728	34.13
352.94	52.56
353.152	50.52
353.363	-6.83
353.575	66.9
353.787	124.24
353.999	40.28
354.21	148.82
354.422	85.33
354.633	-33.45
354.845	3.41
355.057	89.43
355.268	40.28
355.48	15.7
355.692	13.65
355.903	17.75
356.115	13.65
356.326	54.61
356.538	169.3
356.749	42.32
356.961	19.8
357.172	99.67
357.384	-33.45
357.595	38.23
357.807	42.32
358.018	66.9
358.23	62.8
358.441	56.66
358.653	52.56
358.864	54.61
359.075	-15.02
359.287	56.66
359.498	89.43
359.709	52.56
359.921	-2.73
360.132	99.67
360.344	-8.87
360.555	17.75
360.766	56.66
360.977	-33.45
361.189	81.24
361.4	-31.4
361.611	107.86
361.823	50.52
362.034	52.56
362.245	-17.07
362.456	54.61
362.667	99.67
362.879	40.28
363.09	-15.02
363.301	54.61
363.512	15.7
363.723	30.04
363.935	79.19
364.146	103.76
364.357	21.85
364.568	36.18
364.779	-47.79
364.99	52.56
365.201	19.8
365.412	15.7
365.623	-35.5
365.834	83.28
366.045	71
366.256	46.42
366.467	27.99
366.678	34.13
366.889	36.18
367.1	34.13
367.311	40.28
367.522	-17.07
367.733	66.9
367.944	44.37
368.155	34.13
368.366	73.04
368.577	27.99
368.788	103.76
368.999	66.9
369.209	19.8
369.42	140.63
369.631	58.71
369.842	91.48
370.053	56.66
370.264	87.38
370.474	83.28
370.685	11.61
370.896	77.14
371.107	97.62
371.317	91.48
371.528	25.94
371.739	71
371.95	40.28
372.16	136.53
372.371	-2.73
372.582	-23.21
372.792	91.48
373.003	17.75
373.214	9.56
373.424	85.33
373.635	-23.21
373.846	38.23
374.056	38.23
374.267	116.05
374.477	75.09
374.688	34.13
374.898	21.85
375.109	5.46
375.319	105.81
375.53	75.09
375.74	101.72
375.951	30.04
376.161	50.52
376.372	103.76
376.582	-6.83
376.793	1.37
377.003	23.89
377.214	50.52
377.424	114
377.635	116.05
377.845	30.04
378.055	138.58
378.266	21.85
378.476	68.95
378.686	-2.73
378.897	5.46
379.107	1.37
379.317	-58.03
379.528	46.42
379.738	66.9
379.948	1.37
380.158	46.42
380.369	91.48
380.579	71
380.789	38.23
380.999	40.28
381.21	81.24
381.42	83.28
381.63	87.38
381.84	159.06
382.05	134.48
382.261	42.32
382.471	19.8
382.681	13.65
382.891	97.62
383.101	66.9
383.311	-15.02
383.521	17.75
383.731	5.46
383.941	66.9
384.151	1.37
384.361	42.32
384.571	154.96
384.781	99.67
384.991	36.18
385.201	83.28
385.411	48.47
385.621	99.67
385.831	91.48
386.041	58.71
386.251	1.37
386.461	116.05
386.671	64.85
386.881	-25.26
387.091	23.89
387.301	68.95
387.511	17.75
387.72	89.43
387.93	64.85
388.14	56.66
388.35	42.32
388.56	56.66
388.769	46.42
388.979	9.56
389.189	-35.5
389.399	-6.83
389.609	54.61
389.818	27.99
390.028	62.8
390.238	64.85
390.447	146.77
390.657	136.53
390.867	81.24
391.076	-53.93
391.286	17.75
391.496	-15.02
391.705	25.94
391.915	157.01
392.125	75.09
392.334	40.28
392.544	34.13
392.753	79.19
392.963	-31.4
393.172	3.41
393.382	34.13
393.591	93.52
393.801	58.71
394.01	202.07
394.22	83.28
394.429	81.24
394.639	64.85
394.848	3.41
395.058	17.75
395.267	79.19
395.477	56.66
395.686	165.2
395.895	146.77
396.105	75.09
396.314	95.57
396.524	19.8
396.733	27.99
396.942	116.05
397.152	95.57
397.361	134.48
397.57	40.28
397.78	25.94
397.989	132.44
398.198	75.09
398.407	99.67
398.617	99.67
398.826	66.9
399.035	73.04
399.244	101.72
399.453	97.62
399.663	128.34
399.872	116.05
400.081	75.09
400.29	85.33
400.499	75.09
400.708	105.81
400.917	81.24
401.127	163.15
401.336	58.71
401.545	99.67
401.754	114
401.963	185.68
402.172	152.91
402.381	-15.02
402.59	111.96
402.799	85.33
403.008	107.86
403.217	111.96
403.426	66.9
403.635	9.56
403.844	95.57
404.053	99.67
404.262	118.1
404.471	193.87
404.68	146.77
404.888	116.05
405.097	77.14
405.306	34.13
405.515	157.01
405.724	97.62
405.933	124.24
406.142	195.92
406.35	132.44
406.559	99.67
406.768	124.24
406.977	159.06
407.185	75.09
407.394	210.26
407.603	159.06
407.812	148.82
408.02	204.11
408.229	269.65
408.438	206.16
408.646	185.68
408.855	167.25
409.064	240.98
409.272	251.22
409.481	259.41
409.69	247.12
409.898	259.41
410.107	290.13
410.315	331.09
410.524	249.17
410.733	247.12
410.941	279.89
411.15	333.14
411.358	329.04
411.567	361.81
411.775	361.81
411.984	392.53
412.192	304.46
412.401	281.94
412.609	402.77
412.818	372.05
413.026	521.55
413.234	419.15
413.443	378.19
413.651	492.88
413.86	537.93
414.068	558.41
414.276	537.93
414.485	591.18
414.693	621.9
414.901	621.9
415.11	640.33
415.318	630.09
415.526	652.62
415.734	714.06
415.943	695.63
416.151	757.07
416.359	761.16
416.567	916.81
416.776	877.9
416.984	841.03
417.192	916.81
417.4	785.74
417.608	841.03
417.817	908.62
418.025	1000.77
418.233	1002.82
418.441	908.62
418.649	1004.87
418.857	1074.5
419.065	1142.08
419.273	1172.8
419.481	1254.72
419.689	1332.54
419.897	1217.86
420.105	1398.08
420.313	1473.85
420.521	1543.49
420.729	1574.21
420.937	1615.16
421.145	1647.93
421.353	1735.99
421.561	1795.39
421.769	1733.95
421.977	1934.65
422.185	1787.19
422.393	2006.33
422.601	2059.57
422.809	2045.24
423.017	2123.06
423.224	2192.69
423.432	2313.52
423.64	2262.32
423.848	2635.05
424.056	2340.15
424.263	2555.18
424.471	2530.61
424.679	2784.55
424.887	2868.52
425.094	2917.67
425.302	2852.14
425.51	3020.07
425.718	3138.85
425.925	3077.41
426.133	3108.13
426.341	3450.14
426.548	3376.42
426.756	3474.72
426.964	3659.04
427.171	3779.87
427.379	3925.27
427.586	3958.04
427.794	4177.17
428.001	4316.44
428.209	4437.27
428.417	4424.98
428.624	4683.02
428.832	4775.18
429.039	4664.59
429.247	4726.03
429.454	5184.77
429.662	5494.02
429.869	5133.57
430.076	5577.98
430.284	5399.81
430.491	5764.35
430.699	5842.17
430.906	5934.33
431.114	5924.09
431.321	6102.26
431.528	6302.97
431.736	6726.89
431.943	6974.7
432.15	6782.19
432.358	6900.97
432.565	7558.37
432.772	7195.88
432.979	7705.82
433.187	7851.23
433.394	7791.84
433.601	8297.69
433.808	8451.28
434.016	8486.1
434.223	8680.66
434.43	9145.55
434.637	9106.63
434.844	9827.52
435.052	9700.55
435.259	9757.89
435.466	9741.5
435.673	9723.07
435.88	10542.26
436.087	10724.53
436.294	10958
436.501	10681.52
436.708	10781.87
436.915	11220.14
437.122	11740.32
437.329	11781.28
437.537	12166.3
437.743	12336.28
437.95	12246.17
438.157	12991.63
438.364	13145.23
438.571	13329.55
438.778	13536.39
438.985	14589.05
439.192	14054.53
439.399	14615.67
439.606	13796.48
439.813	14877.81
440.02	16024.67
440.227	15662.18
440.433	15479.91
440.64	15760.48
440.847	15930.47
441.054	16313.44
441.261	17312.85
441.467	16921.68
441.674	17245.26
441.881	17980.48
442.088	18015.3
442.294	17878.08
442.501	18711.61
442.708	18500.67
442.914	19471.4
443.121	20120.61
443.328	19610.67
443.534	21279.76
443.741	20509.72
443.948	20182.05
444.154	21718.03
444.361	21656.59
444.568	21871.62
444.774	21910.53
444.981	22041.6
445.187	22565.88
445.394	23575.53
445.6	23464.94
445.807	25916.36
446.013	24368.1
446.22	24890.33
446.426	25940.94
446.633	26297.28
446.839	26928.06
447.046	26076.1
447.252	27268.02
447.459	27274.17
447.665	27087.8
447.871	28580.77
448.078	29803.41
448.284	28128.17
448.491	29318.04
448.697	29997.96
448.903	30595.97
449.11	30690.18
449.316	30020.49
449.522	30532.48
449.728	31673.2
449.935	31857.52
450.141	32224.11
450.347	32467.81
450.553	31112.06
450.76	31566.71
450.966	32701.28
451.172	32433
451.378	33125.21
451.584	32725.86
451.791	33323.86
451.997	33465.17
452.203	34018.13
452.409	33512.28
452.615	33626.96
452.821	32199.53
453.027	31501.17
453.233	33649.49
453.44	32250.73
453.646	32686.95
453.852	32654.18
454.058	33348.44
454.264	31966.06
454.47	32721.76
454.676	31724.4
454.882	32852.83
455.088	30223.24
455.294	30446.47
455.5	30475.14
455.705	31417.21
455.911	29811.6
456.117	29291.41
456.323	29131.67
456.529	27562.93
456.735	28375.97
456.941	27796.4
457.147	27419.57
457.352	26399.68
457.558	26215.37
457.764	26139.59
457.97	25672.65
458.176	24814.55
458.381	25183.19
458.587	24069.09
458.793	23747.56
458.999	22551.55
459.204	24271.84
459.41	23593.97
459.616	21974.02
459.821	21840.9
460.027	21867.53
460.233	21586.96
460.438	20321.31
460.644	20337.69
460.85	19571.75
461.055	19481.64
461.261	19246.13
461.466	17798.21
461.672	17374.28
461.878	18273.34
462.083	17585.22
462.289	17040.47
462.494	16704.6
462.7	16192.61
462.905	15713.38
463.111	16284.76
463.316	16268.38
463.522	15961.19
463.727	16057.44
463.932	15850.6
464.138	15643.75
464.343	15807.59
464.549	15408.23
464.754	15838.31
464.959	15905.89
465.165	15602.79
465.37	14937.2
465.575	14492.79
465.781	15060.08
465.986	15053.94
466.191	14677.11
466.397	14425.21
466.602	13651.08
466.807	14107.77
467.012	14173.31
467.218	14017.66
467.423	14107.77
467.628	14152.83
467.833	14707.83
468.038	14146.69
