Data from USB4F104151__5__11-29-31-268.txt Node

Date: Fri Mar 14 11:29:31 EDT 2025
User: louis
Spectrometer: USB4F10415
Trigger mode: 4
Integration Time (sec): 5.000000E-2
Scans to average: 1
Electric dark correction enabled: true
Nonlinearity correction enabled: false
Boxcar width: 0
XAxis mode: Wavelengths
Number of Pixels in Spectrum: 3648
>>>>>Begin Spectral Data<<<<<
178.204	-197.29
178.424	-197.29
178.644	-197.29
178.864	-172.71
179.084	-164.52
179.304	17.75
179.524	54.61
179.744	-49.83
179.964	77.14
180.184	-15.02
180.404	-8.87
180.624	-15.02
180.844	-6.83
181.064	34.13
181.283	-41.64
181.503	-31.4
181.723	-15.02
181.943	-4.78
182.163	48.47
182.383	25.94
182.602	73.04
182.822	73.04
183.042	-39.59
183.262	58.71
183.482	21.85
183.701	42.32
183.921	9.56
184.141	36.18
184.361	46.42
184.58	21.85
184.8	42.32
185.02	-43.69
185.239	79.19
185.459	1.37
185.679	36.18
185.898	-15.02
186.118	27.99
186.338	46.42
186.557	-10.92
186.777	15.7
186.997	1.37
187.216	-12.97
187.436	30.04
187.655	42.32
187.875	89.43
188.095	-53.93
188.314	40.28
188.534	30.04
188.753	-0.68
188.973	93.52
189.192	138.58
189.412	32.08
189.631	23.89
189.851	-66.22
190.07	116.05
190.29	-17.07
190.509	-8.87
190.729	-17.07
190.948	87.38
191.168	171.35
191.387	46.42
191.607	11.61
191.826	-27.31
192.045	19.8
192.265	-41.64
192.484	-15.02
192.704	66.9
192.923	-74.41
193.142	99.67
193.362	25.94
193.581	-8.87
193.8	25.94
194.02	91.48
194.239	-8.87
194.458	-27.31
194.678	42.32
194.897	44.37
195.116	7.51
195.335	27.99
195.555	42.32
195.774	-27.31
195.993	27.99
196.212	11.61
196.432	15.7
196.651	-33.45
196.87	25.94
197.089	83.28
197.308	38.23
197.528	95.57
197.747	17.75
197.966	73.04
198.185	148.82
198.404	25.94
198.623	-15.02
198.842	25.94
199.062	-8.87
199.281	54.61
199.5	19.8
199.719	46.42
199.938	89.43
200.157	87.38
200.376	34.13
200.595	75.09
200.814	85.33
201.033	-39.59
201.252	99.67
201.471	13.65
201.69	34.13
201.909	9.56
202.128	34.13
202.347	-31.4
202.566	58.71
202.785	23.89
203.004	-49.83
203.223	66.9
203.442	25.94
203.661	-39.59
203.879	-17.07
204.098	97.62
204.317	-39.59
204.536	62.8
204.755	68.95
204.974	-33.45
205.193	40.28
205.411	114
205.63	15.7
205.849	-17.07
206.068	48.47
206.287	-12.97
206.505	46.42
206.724	1.37
206.943	-31.4
207.162	-19.11
207.381	-41.64
207.599	13.65
207.818	60.76
208.037	-31.4
208.255	5.46
208.474	23.89
208.693	34.13
208.911	1.37
209.13	46.42
209.349	89.43
209.567	83.28
209.786	48.47
210.005	46.42
210.223	15.7
210.442	-31.4
210.661	-6.83
210.879	-23.21
211.098	-8.87
211.316	56.66
211.535	44.37
211.753	21.85
211.972	23.89
212.191	-6.83
212.409	81.24
212.628	17.75
212.846	75.09
213.065	13.65
213.283	101.72
213.502	64.85
213.72	-29.35
213.938	23.89
214.157	19.8
214.375	87.38
214.594	-10.92
214.812	15.7
215.031	36.18
215.249	9.56
215.467	34.13
215.686	5.46
215.904	68.95
216.122	93.52
216.341	73.04
216.559	32.08
216.778	103.76
216.996	34.13
217.214	42.32
217.432	-47.79
217.651	-25.26
217.869	77.14
218.087	13.65
218.306	77.14
218.524	27.99
218.742	1.37
218.96	60.76
219.179	-25.26
219.397	48.47
219.615	64.85
219.833	-6.83
220.051	25.94
220.27	-0.68
220.488	105.81
220.706	9.56
220.924	34.13
221.142	5.46
221.36	1.37
221.578	103.76
221.796	83.28
222.015	54.61
222.233	23.89
222.451	58.71
222.669	-47.79
222.887	42.32
223.105	-74.41
223.323	46.42
223.541	-10.92
223.759	54.61
223.977	17.75
224.195	75.09
224.413	56.66
224.631	44.37
224.849	48.47
225.067	15.7
225.285	66.9
225.503	54.61
225.721	34.13
225.939	25.94
226.157	-8.87
226.375	95.57
226.592	-4.78
226.81	19.8
227.028	75.09
227.246	99.67
227.464	-27.31
227.682	25.94
227.9	-6.83
228.117	25.94
228.335	-17.07
228.553	38.23
228.771	-27.31
228.989	-15.02
229.206	42.32
229.424	13.65
229.642	25.94
229.86	30.04
230.077	15.7
230.295	13.65
230.513	66.9
230.731	42.32
230.948	17.75
231.166	-0.68
231.384	32.08
231.601	48.47
231.819	85.33
232.037	17.75
232.254	-6.83
232.472	23.89
232.689	58.71
232.907	42.32
233.125	34.13
233.342	-6.83
233.56	19.8
233.777	44.37
233.995	34.13
234.213	66.9
234.43	77.14
234.648	1.37
234.865	11.61
235.083	50.52
235.3	75.09
235.518	17.75
235.735	17.75
235.953	11.61
236.17	97.62
236.388	-58.03
236.605	34.13
236.822	-15.02
237.04	64.85
237.257	42.32
237.475	44.37
237.692	54.61
237.909	42.32
238.127	-23.21
238.344	1.37
238.562	21.85
238.779	-0.68
238.996	-15.02
239.214	-17.07
239.431	-2.73
239.648	58.71
239.865	62.8
240.083	107.86
240.3	25.94
240.517	17.75
240.735	27.99
240.952	73.04
241.169	144.72
241.386	46.42
241.603	79.19
241.821	1.37
242.038	-6.83
242.255	38.23
242.472	13.65
242.689	71
242.907	23.89
243.124	32.08
243.341	-2.73
243.558	-47.79
243.775	9.56
243.992	9.56
244.209	75.09
244.426	79.19
244.643	38.23
244.86	-29.35
245.078	89.43
245.295	17.75
245.512	42.32
245.729	-64.17
245.946	46.42
246.163	23.89
246.38	23.89
246.597	54.61
246.814	-8.87
247.031	-23.21
247.248	38.23
247.464	40.28
247.681	50.52
247.898	17.75
248.115	66.9
248.332	-23.21
248.549	64.85
248.766	38.23
248.983	95.57
249.2	83.28
249.417	11.61
249.633	64.85
249.85	46.42
250.067	-0.68
250.284	-15.02
250.501	58.71
250.717	-2.73
250.934	60.76
251.151	-17.07
251.368	25.94
251.585	-0.68
251.801	-35.5
252.018	79.19
252.235	66.9
252.451	-10.92
252.668	-62.12
252.885	23.89
253.102	95.57
253.318	46.42
253.535	-39.59
253.752	44.37
253.968	-33.45
254.185	-23.21
254.401	-47.79
254.618	17.75
254.835	81.24
255.051	36.18
255.268	132.44
255.484	34.13
255.701	-47.79
255.917	9.56
256.134	-6.83
256.351	38.23
256.567	-35.5
256.784	36.18
257	-15.02
257.217	54.61
257.433	11.61
257.65	91.48
257.866	87.38
258.082	15.7
258.299	40.28
258.515	83.28
258.732	17.75
258.948	-10.92
259.165	48.47
259.381	9.56
259.597	48.47
259.814	13.65
260.03	-39.59
260.246	71
260.463	-88.75
260.679	91.48
260.895	56.66
261.112	42.32
261.328	52.56
261.544	-82.6
261.761	58.71
261.977	-31.4
262.193	-6.83
262.409	75.09
262.626	81.24
262.842	73.04
263.058	42.32
263.274	36.18
263.49	25.94
263.707	-31.4
263.923	36.18
264.139	17.75
264.355	-15.02
264.571	85.33
264.787	38.23
265.004	11.61
265.22	30.04
265.436	56.66
265.652	40.28
265.868	36.18
266.084	-6.83
266.3	50.52
266.516	-47.79
266.732	73.04
266.948	75.09
267.164	56.66
267.38	75.09
267.596	25.94
267.812	99.67
268.028	-8.87
268.244	50.52
268.46	7.51
268.676	48.47
268.892	32.08
269.108	-33.45
269.324	38.23
269.54	1.37
269.756	193.87
269.972	-53.93
270.188	-43.69
270.403	-0.68
270.619	-37.55
270.835	17.75
271.051	48.47
271.267	-2.73
271.483	9.56
271.698	9.56
271.914	32.08
272.13	19.8
272.346	109.91
272.562	32.08
272.777	30.04
272.993	25.94
273.209	50.52
273.425	87.38
273.64	46.42
273.856	38.23
274.072	34.13
274.287	7.51
274.503	75.09
274.719	66.9
274.934	50.52
275.15	-78.51
275.366	34.13
275.581	-31.4
275.797	-8.87
276.012	46.42
276.228	15.7
276.444	50.52
276.659	64.85
276.875	50.52
277.09	-23.21
277.306	25.94
277.521	17.75
277.737	-19.11
277.952	-25.26
278.168	83.28
278.383	-0.68
278.599	30.04
278.814	64.85
279.03	50.52
279.245	50.52
279.461	34.13
279.676	58.71
279.892	-41.64
280.107	42.32
280.322	-19.11
280.538	54.61
280.753	15.7
280.969	122.2
281.184	32.08
281.399	-15.02
281.615	21.85
281.83	-2.73
282.045	-82.6
282.26	-15.02
282.476	25.94
282.691	77.14
282.906	25.94
283.122	-31.4
283.337	32.08
283.552	73.04
283.767	-41.64
283.983	62.8
284.198	83.28
284.413	50.52
284.628	-27.31
284.843	17.75
285.058	66.9
285.274	-10.92
285.489	9.56
285.704	75.09
285.919	34.13
286.134	44.37
286.349	-33.45
286.564	40.28
286.779	54.61
286.995	11.61
287.21	-25.26
287.425	62.8
287.64	-6.83
287.855	46.42
288.07	-4.78
288.285	126.29
288.5	128.34
288.715	9.56
288.93	23.89
289.145	-31.4
289.36	99.67
289.575	-23.21
289.79	56.66
290.004	-19.11
290.219	58.71
290.434	19.8
290.649	5.46
290.864	38.23
291.079	-27.31
291.294	132.44
291.509	23.89
291.724	62.8
291.938	-35.5
292.153	5.46
292.368	66.9
292.583	34.13
292.798	-8.87
293.012	95.57
293.227	-39.59
293.442	-6.83
293.657	34.13
293.871	83.28
294.086	105.81
294.301	71
294.516	134.48
294.73	64.85
294.945	-21.16
295.16	9.56
295.374	-0.68
295.589	83.28
295.804	-12.97
296.018	54.61
296.233	58.71
296.447	42.32
296.662	-10.92
296.877	83.28
297.091	21.85
297.306	17.75
297.52	5.46
297.735	-12.97
297.949	25.94
298.164	66.9
298.378	7.51
298.593	23.89
298.807	-0.68
299.022	1.37
299.236	44.37
299.451	34.13
299.665	50.52
299.88	64.85
300.094	66.9
300.309	11.61
300.523	15.7
300.737	27.99
300.952	73.04
301.166	89.43
301.381	56.66
301.595	27.99
301.809	56.66
302.024	-10.92
302.238	48.47
302.452	46.42
302.667	54.61
302.881	75.09
303.095	83.28
303.309	48.47
303.524	46.42
303.738	-15.02
303.952	27.99
304.166	-4.78
304.381	-31.4
304.595	68.95
304.809	54.61
305.023	25.94
305.237	15.7
305.452	66.9
305.666	-47.79
305.88	46.42
306.094	21.85
306.308	122.2
306.522	75.09
306.736	71
306.95	58.71
307.164	32.08
307.379	21.85
307.593	111.96
307.807	101.72
308.021	40.28
308.235	34.13
308.449	-10.92
308.663	58.71
308.877	146.77
309.091	34.13
309.305	23.89
309.519	9.56
309.733	75.09
309.947	-23.21
310.161	103.76
310.374	81.24
310.588	34.13
310.802	-8.87
311.016	17.75
311.23	-0.68
311.444	46.42
311.658	25.94
311.872	32.08
312.085	21.85
312.299	30.04
312.513	62.8
312.727	-0.68
312.941	40.28
313.154	48.47
313.368	34.13
313.582	15.7
313.796	-0.68
314.009	48.47
314.223	-6.83
314.437	13.65
314.651	34.13
314.864	-41.64
315.078	34.13
315.292	42.32
315.505	1.37
315.719	1.37
315.933	75.09
316.146	40.28
316.36	25.94
316.573	111.96
316.787	-2.73
317.001	71
317.214	-39.59
317.428	36.18
317.641	-6.83
317.855	42.32
318.068	11.61
318.282	91.48
318.495	105.81
318.709	1.37
318.922	-2.73
319.136	83.28
319.349	54.61
319.563	42.32
319.776	-58.03
319.99	46.42
320.203	3.41
320.417	5.46
320.63	25.94
320.843	81.24
321.057	1.37
321.27	-12.97
321.483	9.56
321.697	85.33
321.91	17.75
322.124	71
322.337	1.37
322.55	71
322.763	38.23
322.977	-8.87
323.19	42.32
323.403	46.42
323.617	21.85
323.83	50.52
324.043	75.09
324.256	60.76
324.469	89.43
324.683	13.65
324.896	68.95
325.109	64.85
325.322	42.32
325.535	91.48
325.748	46.42
325.962	15.7
326.175	-27.31
326.388	75.09
326.601	32.08
326.814	85.33
327.027	107.86
327.24	101.72
327.453	-10.92
327.666	83.28
327.879	122.2
328.092	91.48
328.305	-2.73
328.518	48.47
328.731	-49.83
328.944	50.52
329.157	73.04
329.37	-0.68
329.583	64.85
329.796	75.09
330.009	-25.26
330.222	13.65
330.435	34.13
330.648	56.66
330.861	17.75
331.073	58.71
331.286	71
331.499	58.71
331.712	75.09
331.925	60.76
332.138	124.24
332.35	93.52
332.563	-17.07
332.776	25.94
332.989	-23.21
333.202	-15.02
333.414	-2.73
333.627	64.85
333.84	38.23
334.053	54.61
334.265	38.23
334.478	21.85
334.691	21.85
334.903	32.08
335.116	19.8
335.329	-43.69
335.541	9.56
335.754	-4.78
335.966	-15.02
336.179	32.08
336.392	-23.21
336.604	17.75
336.817	48.47
337.029	15.7
337.242	5.46
337.454	64.85
337.667	56.66
337.88	126.29
338.092	122.2
338.305	77.14
338.517	13.65
338.729	64.85
338.942	132.44
339.154	34.13
339.367	66.9
339.579	73.04
339.792	25.94
340.004	148.82
340.217	21.85
340.429	64.85
340.641	9.56
340.854	71
341.066	42.32
341.278	27.99
341.491	81.24
341.703	56.66
341.915	-35.5
342.128	56.66
342.34	7.51
342.552	-0.68
342.764	58.71
342.977	95.57
343.189	17.75
343.401	91.48
343.613	36.18
343.826	79.19
344.038	32.08
344.25	58.71
344.462	-82.6
344.674	-6.83
344.886	73.04
345.099	46.42
345.311	46.42
345.523	-64.17
345.735	3.41
345.947	60.76
346.159	-80.55
346.371	21.85
346.583	58.71
346.795	58.71
347.007	81.24
347.219	62.8
347.431	34.13
347.643	48.47
347.855	42.32
348.067	99.67
348.279	9.56
348.491	-41.64
348.703	-6.83
348.915	48.47
349.127	9.56
349.339	-0.68
349.551	44.37
349.763	36.18
349.975	-21.16
350.187	54.61
350.399	44.37
350.61	9.56
350.822	-33.45
351.034	-23.21
351.246	83.28
351.458	34.13
351.669	81.24
351.881	42.32
352.093	107.86
352.305	157.01
352.517	13.65
352.728	126.29
352.94	34.13
353.152	17.75
353.363	-27.31
353.575	79.19
353.787	105.81
353.999	25.94
354.21	122.2
354.422	5.46
354.633	21.85
354.845	-0.68
355.057	-6.83
355.268	56.66
355.48	73.04
355.692	30.04
355.903	75.09
356.115	7.51
356.326	5.46
356.538	42.32
356.749	19.8
356.961	15.7
357.172	21.85
357.384	5.46
357.595	128.34
357.807	50.52
358.018	11.61
358.23	38.23
358.441	99.67
358.653	97.62
358.864	66.9
359.075	73.04
359.287	-31.4
359.498	11.61
359.709	89.43
359.921	54.61
360.132	5.46
360.344	77.14
360.555	15.7
360.766	79.19
360.977	9.56
361.189	56.66
361.4	19.8
361.611	83.28
361.823	50.52
362.034	46.42
362.245	-43.69
362.456	30.04
362.667	66.9
362.879	-76.46
363.09	38.23
363.301	42.32
363.512	120.15
363.723	7.51
363.935	17.75
364.146	-0.68
364.357	-10.92
364.568	50.52
364.779	83.28
364.99	-4.78
365.201	7.51
365.412	48.47
365.623	-31.4
365.834	89.43
366.045	27.99
366.256	38.23
366.467	95.57
366.678	30.04
366.889	-25.26
367.1	142.68
367.311	9.56
367.522	58.71
367.733	34.13
367.944	71
368.155	52.56
368.366	34.13
368.577	-10.92
368.788	83.28
368.999	44.37
369.209	56.66
369.42	148.82
369.631	150.87
369.842	17.75
370.053	83.28
370.264	25.94
370.474	23.89
370.685	5.46
370.896	56.66
371.107	34.13
371.317	99.67
371.528	-19.11
371.739	48.47
371.95	52.56
372.16	50.52
372.371	15.7
372.582	17.75
372.792	54.61
373.003	89.43
373.214	-0.68
373.424	89.43
373.635	13.65
373.846	107.86
374.056	36.18
374.267	21.85
374.477	-31.4
374.688	-15.02
374.898	58.71
375.109	99.67
375.319	73.04
375.53	124.24
375.74	15.7
375.951	50.52
376.161	56.66
376.372	34.13
376.582	40.28
376.793	68.95
377.003	25.94
377.214	-35.5
377.424	-6.83
377.635	87.38
377.845	52.56
378.055	38.23
378.266	-64.17
378.476	75.09
378.686	62.8
378.897	79.19
379.107	50.52
379.317	77.14
379.528	-17.07
379.738	38.23
379.948	-12.97
380.158	89.43
380.369	60.76
380.579	79.19
380.789	30.04
380.999	23.89
381.21	146.77
381.42	62.8
381.63	40.28
381.84	77.14
382.05	34.13
382.261	5.46
382.471	111.96
382.681	73.04
382.891	124.24
383.101	9.56
383.311	89.43
383.521	40.28
383.731	91.48
383.941	116.05
384.151	-27.31
384.361	75.09
384.571	105.81
384.781	17.75
384.991	68.95
385.201	44.37
385.411	15.7
385.621	75.09
385.831	87.38
386.041	64.85
386.251	99.67
386.461	89.43
386.671	71
386.881	-21.16
387.091	21.85
387.301	36.18
387.511	50.52
387.72	34.13
387.93	107.86
388.14	21.85
388.35	34.13
388.56	71
388.769	87.38
388.979	79.19
389.189	46.42
389.399	85.33
389.609	46.42
389.818	48.47
390.028	17.75
390.238	103.76
390.447	34.13
390.657	71
390.867	99.67
391.076	9.56
391.286	32.08
391.496	13.65
391.705	77.14
391.915	50.52
392.125	71
392.334	34.13
392.544	107.86
392.753	114
392.963	73.04
393.172	75.09
393.382	1.37
393.591	105.81
393.801	118.1
394.01	148.82
394.22	124.24
394.429	75.09
394.639	54.61
394.848	54.61
395.058	83.28
395.267	97.62
395.477	89.43
395.686	58.71
395.895	95.57
396.105	75.09
396.314	73.04
396.524	132.44
396.733	38.23
396.942	132.44
397.152	107.86
397.361	75.09
397.57	116.05
397.78	30.04
397.989	87.38
398.198	148.82
398.407	95.57
398.617	79.19
398.826	75.09
399.035	107.86
399.244	120.15
399.453	99.67
399.663	83.28
399.872	81.24
400.081	126.29
400.29	85.33
400.499	34.13
400.708	124.24
400.917	97.62
401.127	54.61
401.336	62.8
401.545	128.34
401.754	71
401.963	181.59
402.172	5.46
402.381	75.09
402.59	52.56
402.799	91.48
403.008	130.39
403.217	122.2
403.426	140.63
403.635	146.77
403.844	107.86
404.053	87.38
404.262	142.68
404.471	177.49
404.68	118.1
404.888	124.24
405.097	58.71
405.306	179.54
405.515	154.96
405.724	140.63
405.933	173.39
406.142	165.2
406.35	144.72
406.559	197.97
406.768	130.39
406.977	181.59
407.185	146.77
407.394	255.31
407.603	165.2
407.812	206.16
408.02	228.69
408.229	230.74
408.438	116.05
408.646	200.02
408.855	216.4
409.064	263.51
409.272	253.27
409.481	304.46
409.69	210.26
409.898	251.22
410.107	275.79
410.315	283.99
410.524	279.89
410.733	257.36
410.941	353.62
411.15	189.78
411.358	304.46
411.567	349.52
411.775	292.18
411.984	365.9
412.192	402.77
412.401	427.34
412.609	476.49
412.818	400.72
413.026	460.11
413.234	511.31
413.443	415.06
413.651	490.83
413.86	558.41
414.068	529.74
414.276	599.37
414.485	482.64
414.693	648.52
414.901	699.72
415.11	615.76
415.318	632.14
415.526	619.85
415.734	705.87
415.943	619.85
416.151	787.79
416.359	683.34
416.567	771.4
416.776	886.09
416.984	853.32
417.192	898.38
417.4	886.09
417.608	918.86
417.817	908.62
418.025	980.29
418.233	1123.65
418.441	1000.77
418.649	1105.22
418.857	1113.41
419.065	1199.43
419.273	1168.71
419.481	1213.76
419.689	1226.05
419.897	1310.02
420.105	1367.36
420.313	1484.09
420.521	1477.95
420.729	1471.81
420.937	1475.9
421.145	1568.06
421.353	1629.5
421.561	1760.57
421.769	1807.67
421.977	1873.21
422.185	1822.01
422.393	1998.13
422.601	2012.47
422.809	1951.03
423.017	2110.77
423.224	2196.79
423.432	2254.13
423.64	2262.32
423.848	2577.71
424.056	2372.91
424.263	2501.94
424.471	2508.08
424.679	2596.14
424.887	2770.22
425.094	2868.52
425.302	2944.3
425.51	2979.11
425.718	2970.92
425.925	3052.84
426.133	3474.72
426.341	3392.8
426.548	3626.27
426.756	3624.22
426.964	3618.08
427.171	3724.57
427.379	4171.03
427.586	3921.18
427.794	4046.1
428.001	4416.79
428.209	4416.79
428.417	4480.27
428.624	4777.23
428.832	4855.05
429.039	4822.28
429.247	4816.14
429.454	5109
429.662	5586.18
429.869	5268.74
430.076	5625.09
430.284	5420.29
430.491	5586.18
430.699	6028.54
430.906	6040.83
431.114	6157.56
431.321	6300.92
431.528	6352.12
431.736	6640.88
431.943	7128.3
432.15	7003.37
432.358	7111.91
432.565	7304.42
432.772	7202.02
432.979	7767.26
433.187	7812.32
433.394	7736.54
433.601	8379.61
433.808	8389.85
434.016	8281.3
434.223	8791.25
434.43	9379.01
434.637	9104.59
434.844	9471.17
435.052	9979.07
435.259	9716.93
435.466	9905.34
435.673	9829.57
435.88	10316.98
436.087	11134.12
436.294	11019.44
436.501	10620.08
436.708	11121.84
436.915	11351.21
437.122	11938.98
437.329	11818.15
437.537	12172.44
437.743	12600.47
437.95	12317.85
438.157	12952.72
438.364	13345.93
438.571	13382.79
438.778	13556.87
438.985	14644.34
439.192	14169.21
439.399	14285.95
439.606	14253.18
439.813	15117.42
440.02	15979.62
440.227	15883.36
440.433	15432.81
440.64	16063.58
440.847	16024.67
441.054	16630.87
441.261	17353.8
441.467	17009.75
441.674	17634.38
441.881	18203.71
442.088	18326.59
442.294	17714.25
442.501	18207.81
442.708	18631.74
442.914	19837.99
443.121	20646.94
443.328	20036.64
443.534	21296.14
443.741	20859.93
443.948	20225.06
444.154	21871.62
444.361	21832.71
444.568	21865.48
444.774	21830.66
444.981	22092.8
445.187	23098.36
445.394	23835.63
445.6	23624.68
445.807	25742.28
446.013	24757.21
446.22	25318.35
446.426	26153.93
446.633	26375.11
446.839	27368.37
447.046	25992.14
447.252	27407.28
447.459	27478.96
447.665	27501.49
447.871	28558.24
448.078	29715.34
448.284	28353.44
448.491	29404.05
448.697	30391.17
448.903	31169.4
449.11	30804.86
449.316	30299.01
449.522	30995.32
449.728	31511.41
449.935	32013.16
450.141	31863.66
450.347	32447.33
450.553	31648.63
450.76	32123.76
450.966	32930.65
451.172	32723.81
451.378	33166.17
451.584	32975.71
451.791	33774.42
451.997	33645.4
452.203	34034.51
452.409	33848.14
452.615	33821.52
452.821	32435.05
453.027	32222.06
453.233	33975.12
453.44	32492.39
453.646	32668.51
453.852	32838.5
454.058	33586
454.264	31912.81
454.47	32811.87
454.676	32263.02
454.882	33309.53
455.088	29901.71
455.294	30622.59
455.5	31128.44
455.705	31681.39
455.911	30444.42
456.117	29842.32
456.323	29297.56
456.529	27927.47
456.735	28631.97
456.941	28081.06
457.147	27667.38
457.352	26782.65
457.558	26389.44
457.764	26303.43
457.97	25875.4
458.176	25377.75
458.381	25314.26
458.587	23929.83
458.793	24267.75
458.999	22633.47
459.204	24679.39
459.41	23884.78
459.616	22189.06
459.821	22166.53
460.027	22318.08
460.233	21351.44
460.438	20323.36
460.644	20814.87
460.85	19852.33
461.055	19502.12
461.261	19330.09
461.466	18207.81
461.672	17302.61
461.878	18592.83
462.083	17450.06
462.289	17089.62
462.494	17030.23
462.7	16333.92
462.905	16014.43
463.111	16442.46
463.316	16364.64
463.522	15785.06
463.727	15971.43
463.932	16139.36
464.138	15836.26
464.343	15658.09
464.549	15529.06
464.754	15950.95
464.959	15570.02
465.165	15834.21
465.37	14953.59
465.575	14576.76
465.781	15283.31
465.986	15350.89
466.191	14789.75
466.397	14496.89
466.602	13763.72
466.807	14394.49
467.012	14066.81
467.218	14296.19
467.423	14199.93
467.628	14312.57
467.833	14765.17
