Data from USB4F104151__3__11-29-30-069.txt Node

Date: Fri Mar 14 11:29:30 EDT 2025
User: louis
Spectrometer: USB4F10415
Trigger mode: 4
Integration Time (sec): 5.000000E-2
Scans to average: 1
Electric dark correction enabled: true
Nonlinearity correction enabled: false
Boxcar width: 0
XAxis mode: Wavelengths
Number of Pixels in Spectrum: 3648
>>>>>Begin Spectral Data<<<<<
178.204	-138.58
178.424	-138.58
178.644	-138.58
178.864	-93.52
179.084	-146.77
179.304	-1.37
179.524	12.97
179.744	8.87
179.964	6.83
180.184	-13.65
180.404	37.55
180.624	37.55
180.844	29.35
181.064	-58.71
181.283	-68.95
181.503	-11.61
181.723	21.16
181.943	-54.61
182.163	45.74
182.383	94.89
182.602	76.46
182.822	4.78
183.042	-11.61
183.262	37.55
183.482	23.21
183.701	17.07
183.921	12.97
184.141	8.87
184.361	53.93
184.58	-19.8
184.8	47.79
185.02	45.74
185.239	88.75
185.459	25.26
185.679	103.08
185.898	-68.95
186.118	53.93
186.338	39.59
186.557	82.6
186.777	23.21
186.997	-60.76
187.216	51.88
187.436	103.08
187.655	10.92
187.875	21.16
188.095	86.7
188.314	12.97
188.534	45.74
188.753	-3.41
188.973	15.02
189.192	105.13
189.412	-25.94
189.631	78.51
189.851	12.97
190.07	86.7
190.29	-5.46
190.509	78.51
190.729	27.31
190.948	119.46
191.168	115.37
191.387	51.88
191.607	-66.9
191.826	90.79
192.045	70.31
192.265	-21.85
192.484	0.68
192.704	72.36
192.923	41.64
193.142	113.32
193.362	53.93
193.581	43.69
193.8	62.12
194.02	6.83
194.239	37.55
194.458	35.5
194.678	53.93
194.897	84.65
195.116	37.55
195.335	12.97
195.555	19.11
195.774	25.26
195.993	41.64
196.212	66.22
196.432	0.68
196.651	19.11
196.87	4.78
197.089	176.81
197.308	53.93
197.528	37.55
197.747	-36.18
197.966	21.16
198.185	127.66
198.404	6.83
198.623	27.31
198.842	86.7
199.062	41.64
199.281	58.03
199.5	23.21
199.719	103.08
199.938	70.31
200.157	27.31
200.376	123.56
200.595	-36.18
200.814	37.55
201.033	43.69
201.252	94.89
201.471	-19.8
201.69	123.56
201.909	43.69
202.128	51.88
202.347	45.74
202.566	68.27
202.785	-11.61
203.004	2.73
203.223	127.66
203.442	68.27
203.661	86.7
203.879	-19.8
204.098	103.08
204.317	33.45
204.536	101.03
204.755	-15.7
204.974	41.64
205.193	37.55
205.411	113.32
205.63	103.08
205.849	33.45
206.068	-5.46
206.287	86.7
206.505	21.16
206.724	86.7
206.943	2.73
207.162	76.46
207.381	45.74
207.599	-13.65
207.818	84.65
208.037	-71
208.255	-13.65
208.474	37.55
208.693	74.41
208.911	74.41
209.13	25.26
209.349	-32.08
209.567	-60.76
209.786	55.98
210.005	4.78
210.223	-15.7
210.442	-21.85
210.661	33.45
210.879	53.93
211.098	2.73
211.316	37.55
211.535	107.18
211.753	29.35
211.972	62.12
212.191	-79.19
212.409	60.07
212.628	72.36
212.846	-11.61
213.065	64.17
213.283	109.22
213.502	-32.08
213.72	49.83
213.938	-36.18
214.157	60.07
214.375	29.35
214.594	45.74
214.812	78.51
215.031	53.93
215.249	12.97
215.467	45.74
215.686	15.02
215.904	121.51
216.122	62.12
216.341	129.7
216.559	55.98
216.778	49.83
216.996	70.31
217.214	15.02
217.432	-1.37
217.651	-60.76
217.869	92.84
218.087	-11.61
218.306	8.87
218.524	27.31
218.742	84.65
218.96	58.03
219.179	6.83
219.397	68.27
219.615	78.51
219.833	45.74
220.051	-5.46
220.27	45.74
220.488	49.83
220.706	-3.41
220.924	17.07
221.142	29.35
221.36	66.22
221.578	80.55
221.796	62.12
222.015	-7.51
222.233	-13.65
222.451	84.65
222.669	-17.75
222.887	86.7
223.105	47.79
223.323	35.5
223.541	0.68
223.759	78.51
223.977	117.42
224.195	37.55
224.413	68.27
224.631	66.22
224.849	10.92
225.067	119.46
225.285	-34.13
225.503	33.45
225.721	-36.18
225.939	-23.89
226.157	135.85
226.375	103.08
226.592	47.79
226.81	43.69
227.028	86.7
227.246	37.55
227.464	37.55
227.682	68.27
227.9	0.68
228.117	-13.65
228.335	78.51
228.553	45.74
228.771	2.73
228.989	105.13
229.206	8.87
229.424	-5.46
229.642	41.64
229.86	-52.56
230.077	4.78
230.295	25.26
230.513	53.93
230.731	25.26
230.948	39.59
231.166	131.75
231.384	-19.8
231.601	4.78
231.819	53.93
232.037	-42.32
232.254	39.59
232.472	-19.8
232.689	33.45
232.907	78.51
233.125	72.36
233.342	53.93
233.56	19.11
233.777	62.12
233.995	78.51
234.213	82.6
234.43	70.31
234.648	31.4
234.865	-15.7
235.083	45.74
235.3	43.69
235.518	86.7
235.735	41.64
235.953	84.65
236.17	82.6
236.388	45.74
236.605	111.27
236.822	76.46
237.04	19.11
237.257	43.69
237.475	-62.8
237.692	62.12
237.909	135.85
238.127	4.78
238.344	-7.51
238.562	33.45
238.779	37.55
238.996	-17.75
239.214	12.97
239.431	86.7
239.648	-36.18
239.865	39.59
240.083	66.22
240.3	21.16
240.517	62.12
240.735	19.11
240.952	62.12
241.169	133.8
241.386	-5.46
241.603	51.88
241.821	-27.99
242.038	133.8
242.255	10.92
242.472	4.78
242.689	43.69
242.907	58.03
243.124	-32.08
243.341	78.51
243.558	33.45
243.775	76.46
243.992	35.5
244.209	68.27
244.426	135.85
244.643	47.79
244.86	37.55
245.078	53.93
245.295	45.74
245.512	60.07
245.729	-5.46
245.946	127.66
246.163	33.45
246.38	17.07
246.597	45.74
246.814	47.79
247.031	53.93
247.248	27.31
247.464	74.41
247.681	-19.8
247.898	45.74
248.115	76.46
248.332	-105.81
248.549	12.97
248.766	76.46
248.983	70.31
249.2	0.68
249.417	66.22
249.633	74.41
249.85	58.03
250.067	39.59
250.284	37.55
250.501	66.22
250.717	78.51
250.934	-3.41
251.151	19.11
251.368	-11.61
251.585	148.14
251.801	66.22
252.018	-3.41
252.235	29.35
252.451	43.69
252.668	4.78
252.885	103.08
253.102	96.94
253.318	86.7
253.535	25.26
253.752	51.88
253.968	33.45
254.185	62.12
254.401	53.93
254.618	98.99
254.835	-85.33
255.051	94.89
255.268	70.31
255.484	15.02
255.701	41.64
255.917	29.35
256.134	21.16
256.351	19.11
256.567	-36.18
256.784	23.21
257	-32.08
257.217	51.88
257.433	45.74
257.65	-3.41
257.866	76.46
258.082	6.83
258.299	-5.46
258.515	33.45
258.732	39.59
258.948	-19.8
259.165	-7.51
259.381	45.74
259.597	127.66
259.814	37.55
260.03	62.12
260.246	76.46
260.463	60.07
260.679	101.03
260.895	64.17
261.112	115.37
261.328	-15.7
261.544	-3.41
261.761	125.61
261.977	-48.47
262.193	4.78
262.409	43.69
262.626	-9.56
262.842	92.84
263.058	43.69
263.274	107.18
263.49	33.45
263.707	94.89
263.923	37.55
264.139	-27.99
264.355	45.74
264.571	144.04
264.787	19.11
265.004	76.46
265.22	-1.37
265.436	92.84
265.652	43.69
265.868	72.36
266.084	-50.52
266.3	-21.85
266.516	-36.18
266.732	-23.89
266.948	60.07
267.164	58.03
267.38	96.94
267.596	29.35
267.812	78.51
268.028	37.55
268.244	-64.85
268.46	21.16
268.676	45.74
268.892	17.07
269.108	35.5
269.324	94.89
269.54	10.92
269.756	146.09
269.972	25.26
270.188	92.84
270.403	8.87
270.619	19.11
270.835	94.89
271.051	51.88
271.267	2.73
271.483	72.36
271.698	33.45
271.914	27.31
272.13	76.46
272.346	60.07
272.562	25.26
272.777	90.79
272.993	62.12
273.209	43.69
273.425	92.84
273.64	-38.23
273.856	45.74
274.072	4.78
274.287	25.26
274.503	86.7
274.719	68.27
274.934	51.88
275.15	-5.46
275.366	111.27
275.581	41.64
275.797	-13.65
276.012	98.99
276.228	133.8
276.444	51.88
276.659	76.46
276.875	-30.04
277.09	27.31
277.306	25.26
277.521	70.31
277.737	4.78
277.952	64.17
278.168	139.94
278.383	37.55
278.599	70.31
278.814	43.69
279.03	17.07
279.245	92.84
279.461	78.51
279.676	162.47
279.892	-30.04
280.107	53.93
280.322	76.46
280.538	10.92
280.753	-38.23
280.969	78.51
281.184	17.07
281.399	158.38
281.615	37.55
281.83	64.17
282.045	17.07
282.26	10.92
282.476	98.99
282.691	66.22
282.906	70.31
283.122	60.07
283.337	-9.56
283.552	103.08
283.767	10.92
283.983	23.21
284.198	45.74
284.413	103.08
284.628	-71
284.843	-3.41
285.058	68.27
285.274	90.79
285.489	66.22
285.704	29.35
285.919	21.16
286.134	17.07
286.349	-1.37
286.564	82.6
286.779	103.08
286.995	80.55
287.21	-27.99
287.425	45.74
287.64	6.83
287.855	117.42
288.07	-21.85
288.285	123.56
288.5	-3.41
288.715	45.74
288.93	27.31
289.145	-17.75
289.36	84.65
289.575	84.65
289.79	119.46
290.004	43.69
290.219	-21.85
290.434	37.55
290.649	35.5
290.864	41.64
291.079	-25.94
291.294	51.88
291.509	92.84
291.724	-15.7
291.938	74.41
292.153	45.74
292.368	35.5
292.583	62.12
292.798	62.12
293.012	45.74
293.227	49.83
293.442	19.11
293.657	86.7
293.871	74.41
294.086	-11.61
294.301	139.94
294.516	62.12
294.73	4.78
294.945	25.26
295.16	62.12
295.374	-7.51
295.589	109.22
295.804	-68.95
296.018	27.31
296.233	111.27
296.447	115.37
296.662	8.87
296.877	78.51
297.091	19.11
297.306	55.98
297.52	121.51
297.735	2.73
297.949	6.83
298.164	33.45
298.378	21.16
298.593	-44.37
298.807	17.07
299.022	49.83
299.236	70.31
299.451	60.07
299.665	17.07
299.88	4.78
300.094	33.45
300.309	12.97
300.523	55.98
300.737	-13.65
300.952	43.69
301.166	70.31
301.381	21.16
301.595	-23.89
301.809	141.99
302.024	29.35
302.238	10.92
302.452	43.69
302.667	62.12
302.881	127.66
303.095	45.74
303.309	12.97
303.524	51.88
303.738	-27.99
303.952	37.55
304.166	127.66
304.381	-19.8
304.595	103.08
304.809	-30.04
305.023	109.22
305.237	78.51
305.452	4.78
305.666	45.74
305.88	66.22
306.094	35.5
306.308	70.31
306.522	68.27
306.736	29.35
306.95	64.17
307.164	37.55
307.379	31.4
307.593	33.45
307.807	53.93
308.021	66.22
308.235	68.27
308.449	-44.37
308.663	45.74
308.877	152.23
309.091	94.89
309.305	70.31
309.519	19.11
309.733	49.83
309.947	82.6
310.161	60.07
310.374	49.83
310.588	58.03
310.802	64.17
311.016	53.93
311.23	72.36
311.444	4.78
311.658	68.27
311.872	70.31
312.085	92.84
312.299	86.7
312.513	53.93
312.727	70.31
312.941	29.35
313.154	86.7
313.368	35.5
313.582	58.03
313.796	66.22
314.009	74.41
314.223	94.89
314.437	55.98
314.651	92.84
314.864	-1.37
315.078	29.35
315.292	66.22
315.505	-44.37
315.719	111.27
315.933	119.46
316.146	-15.7
316.36	27.31
316.573	117.42
316.787	84.65
317.001	49.83
317.214	53.93
317.428	76.46
317.641	19.11
317.855	15.02
318.068	53.93
318.282	10.92
318.495	96.94
318.709	35.5
318.922	-7.51
319.136	35.5
319.349	49.83
319.563	25.26
319.776	15.02
319.99	53.93
320.203	45.74
320.417	37.55
320.63	10.92
320.843	141.99
321.057	88.75
321.27	41.64
321.483	43.69
321.697	62.12
321.91	27.31
322.124	74.41
322.337	66.22
322.55	-7.51
322.763	29.35
322.977	101.03
323.19	12.97
323.403	74.41
323.617	76.46
323.83	31.4
324.043	101.03
324.256	58.03
324.469	8.87
324.683	43.69
324.896	35.5
325.109	66.22
325.322	-46.42
325.535	92.84
325.748	8.87
325.962	-3.41
326.175	90.79
326.388	76.46
326.601	29.35
326.814	-13.65
327.027	17.07
327.24	123.56
327.453	-19.8
327.666	62.12
327.879	141.99
328.092	39.59
328.305	33.45
328.518	51.88
328.731	-3.41
328.944	-7.51
329.157	121.51
329.37	-32.08
329.583	84.65
329.796	62.12
330.009	12.97
330.222	45.74
330.435	60.07
330.648	135.85
330.861	98.99
331.073	37.55
331.286	15.02
331.499	70.31
331.712	23.21
331.925	-7.51
332.138	53.93
332.35	96.94
332.563	62.12
332.776	-19.8
332.989	47.79
333.202	12.97
333.414	33.45
333.627	21.16
333.84	33.45
334.053	45.74
334.265	53.93
334.478	33.45
334.691	-19.8
334.903	98.99
335.116	-3.41
335.329	19.11
335.541	15.02
335.754	109.22
335.966	-3.41
336.179	51.88
336.392	-13.65
336.604	10.92
336.817	53.93
337.029	94.89
337.242	88.75
337.454	119.46
337.667	37.55
337.88	29.35
338.092	68.27
338.305	119.46
338.517	27.31
338.729	82.6
338.942	25.26
339.154	10.92
339.367	8.87
339.579	144.04
339.792	-3.41
340.004	86.7
340.217	60.07
340.429	31.4
340.641	25.26
340.854	-3.41
341.066	58.03
341.278	70.31
341.491	86.7
341.703	76.46
341.915	-54.61
342.128	90.79
342.34	70.31
342.552	29.35
342.764	41.64
342.977	8.87
343.189	96.94
343.401	10.92
343.613	-23.89
343.826	35.5
344.038	4.78
344.25	66.22
344.462	53.93
344.674	70.31
344.886	60.07
345.099	-3.41
345.311	66.22
345.523	-19.8
345.735	29.35
345.947	101.03
346.159	68.27
346.371	19.11
346.583	80.55
346.795	115.37
347.007	21.16
347.219	74.41
347.431	74.41
347.643	10.92
347.855	-1.37
348.067	55.98
348.279	-7.51
348.491	86.7
348.703	84.65
348.915	51.88
349.127	12.97
349.339	94.89
349.551	-11.61
349.763	55.98
349.975	78.51
350.187	94.89
350.399	60.07
350.61	103.08
350.822	35.5
351.034	0.68
351.246	51.88
351.458	35.5
351.669	66.22
351.881	66.22
352.093	94.89
352.305	92.84
352.517	-19.8
352.728	121.51
352.94	-3.41
353.152	96.94
353.363	37.55
353.575	103.08
353.787	96.94
353.999	21.16
354.21	133.8
354.422	-42.32
354.633	49.83
354.845	49.83
355.057	21.16
355.268	31.4
355.48	148.14
355.692	27.31
355.903	111.27
356.115	62.12
356.326	-3.41
356.538	103.08
356.749	-11.61
356.961	55.98
357.172	45.74
357.384	37.55
357.595	133.8
357.807	-15.7
358.018	4.78
358.23	62.12
358.441	119.46
358.653	123.56
358.864	-3.41
359.075	-1.37
359.287	133.8
359.498	144.04
359.709	-32.08
359.921	-21.85
360.132	41.64
360.344	49.83
360.555	111.27
360.766	4.78
360.977	53.93
361.189	103.08
361.4	117.42
361.611	29.35
361.823	27.31
362.034	78.51
362.245	41.64
362.456	43.69
362.667	53.93
362.879	-21.85
363.09	68.27
363.301	125.61
363.512	-13.65
363.723	60.07
363.935	27.31
364.146	45.74
364.357	66.22
364.568	98.99
364.779	-3.41
364.99	62.12
365.201	62.12
365.412	60.07
365.623	-5.46
365.834	39.59
366.045	53.93
366.256	37.55
366.467	66.22
366.678	60.07
366.889	62.12
367.1	78.51
367.311	101.03
367.522	29.35
367.733	64.17
367.944	-25.94
368.155	29.35
368.366	74.41
368.577	66.22
368.788	119.46
368.999	107.18
369.209	103.08
369.42	96.94
369.631	137.9
369.842	86.7
370.053	84.65
370.264	41.64
370.474	43.69
370.685	53.93
370.896	84.65
371.107	78.51
371.317	78.51
371.528	70.31
371.739	78.51
371.95	55.98
372.16	125.61
372.371	4.78
372.582	12.97
372.792	78.51
373.003	82.6
373.214	37.55
373.424	45.74
373.635	105.13
373.846	60.07
374.056	25.26
374.267	41.64
374.477	55.98
374.688	43.69
374.898	8.87
375.109	94.89
375.319	76.46
375.53	98.99
375.74	78.51
375.951	111.27
376.161	60.07
376.372	72.36
376.582	-19.8
376.793	86.7
377.003	-7.51
377.214	-3.41
377.424	76.46
377.635	119.46
377.845	4.78
378.055	58.03
378.266	10.92
378.476	127.66
378.686	2.73
378.897	51.88
379.107	111.27
379.317	25.26
379.528	12.97
379.738	101.03
379.948	35.5
380.158	70.31
380.369	84.65
380.579	76.46
380.789	2.73
380.999	68.27
381.21	92.84
381.42	139.94
381.63	-46.42
381.84	105.13
382.05	127.66
382.261	62.12
382.471	174.76
382.681	86.7
382.891	101.03
383.101	76.46
383.311	62.12
383.521	29.35
383.731	78.51
383.941	68.27
384.151	-38.23
384.361	-3.41
384.571	58.03
384.781	53.93
384.991	123.56
385.201	117.42
385.411	78.51
385.621	-15.7
385.831	78.51
386.041	10.92
386.251	51.88
386.461	76.46
386.671	37.55
386.881	92.84
387.091	135.85
387.301	90.79
387.511	10.92
387.72	98.99
387.93	4.78
388.14	10.92
388.35	21.16
388.56	111.27
388.769	103.08
388.979	78.51
389.189	17.07
389.399	58.03
389.609	105.13
389.818	8.87
390.028	53.93
390.238	37.55
390.447	29.35
390.657	6.83
390.867	12.97
391.076	27.31
391.286	33.45
391.496	27.31
391.705	86.7
391.915	33.45
392.125	62.12
392.334	27.31
392.544	135.85
392.753	2.73
392.963	4.78
393.172	29.35
393.382	29.35
393.591	107.18
393.801	43.69
394.01	168.62
394.22	119.46
394.429	58.03
394.639	78.51
394.848	62.12
395.058	84.65
395.267	8.87
395.477	109.22
395.686	90.79
395.895	137.9
396.105	62.12
396.314	70.31
396.524	70.31
396.733	86.7
396.942	107.18
397.152	55.98
397.361	109.22
397.57	82.6
397.78	27.31
397.989	37.55
398.198	156.33
398.407	103.08
398.617	103.08
398.826	121.51
399.035	101.03
399.244	135.85
399.453	185
399.663	111.27
399.872	144.04
400.081	64.17
400.29	166.57
400.499	168.62
400.708	164.52
400.917	94.89
401.127	144.04
401.336	123.56
401.545	178.86
401.754	164.52
401.963	123.56
402.172	135.85
402.381	68.27
402.59	96.94
402.799	119.46
403.008	174.76
403.217	72.36
403.426	125.61
403.635	66.22
403.844	111.27
404.053	172.71
404.262	172.71
404.471	217.77
404.68	74.41
404.888	168.62
405.097	111.27
405.306	172.71
405.515	182.95
405.724	152.23
405.933	148.14
406.142	193.19
406.35	191.14
406.559	144.04
406.768	193.19
406.977	260.77
407.185	250.53
407.394	176.81
407.603	197.29
407.812	199.34
408.02	303.78
408.229	158.38
408.438	162.47
408.646	277.16
408.855	246.44
409.064	209.58
409.272	238.25
409.481	299.69
409.69	256.68
409.898	213.67
410.107	332.45
410.315	332.45
410.524	250.53
410.733	340.65
410.941	271.01
411.15	348.84
411.358	357.03
411.567	459.43
411.775	330.41
411.984	352.93
412.192	377.51
412.401	422.56
412.609	430.76
412.818	461.48
413.026	518.82
413.234	500.39
413.443	408.23
413.651	504.48
413.86	467.62
414.068	537.25
414.276	635.55
414.485	567.97
414.693	619.17
414.901	635.55
415.11	656.03
415.318	696.99
415.526	629.41
415.734	627.36
415.943	795.29
416.151	852.64
416.359	832.16
416.567	787.1
416.776	797.34
416.984	918.17
417.192	950.94
417.4	844.45
417.608	903.84
417.817	912.03
418.025	952.99
418.233	1065.63
418.441	996
418.649	1051.29
418.857	1163.93
419.065	1159.83
419.273	1165.98
419.481	1192.6
419.689	1362.58
419.897	1393.3
420.105	1368.73
420.313	1381.01
420.521	1438.36
420.729	1491.6
420.937	1487.51
421.145	1512.08
421.353	1641.11
421.561	1755.79
421.769	1837.71
421.977	1753.74
422.185	1864.33
422.393	1976.97
422.601	2073.23
422.809	2200.2
423.017	2048.65
423.224	2091.66
423.432	2347.65
423.64	2224.78
423.848	2443.91
424.056	2382.47
424.263	2503.3
424.471	2609.79
424.679	2699.91
424.887	2704
425.094	2902.65
425.302	2853.5
425.51	2994.81
425.718	3160.7
425.925	3140.22
426.133	3326.58
426.341	3543.67
426.548	3617.4
426.756	3560.05
426.964	3697.27
427.171	3814
427.379	3871.34
427.586	4051.56
427.794	4072.04
428.001	4242.03
428.209	4395.62
428.417	4330.09
428.624	4874.85
428.832	4747.87
429.039	4809.31
429.247	4784.74
429.454	5100.12
429.662	5558.87
429.869	5063.26
430.076	5605.97
430.284	5433.94
430.491	5663.32
430.699	5923.41
430.906	5915.22
431.114	5976.66
431.321	6167.12
431.528	6292.04
431.736	6892.1
431.943	7129.66
432.15	6795.84
432.358	7180.86
432.565	7356.99
432.772	7285.31
432.979	7606.84
433.187	7883.31
433.394	7840.31
433.601	8192.56
433.808	8358.44
434.016	8235.57
434.223	8858.15
434.43	9181.73
434.637	9142.82
434.844	9622.04
435.052	9900.56
435.259	9585.18
435.466	9923.09
435.673	9800.21
435.88	10271.25
436.087	10961.41
436.294	10996.23
436.501	10660.36
436.708	10928.64
436.915	11217.41
437.122	11682.3
437.329	11768.31
437.537	12093.94
437.743	12319.21
437.95	12341.74
438.157	12917.22
438.364	13234.66
438.571	13201.89
438.778	13191.65
438.985	14488.01
439.192	14129.62
439.399	14227.92
439.606	14062.04
439.813	14959.05
440.02	15993.27
440.227	15962.55
440.433	15485.37
440.64	15821.24
440.847	15802.81
441.054	16378.29
441.261	17344.93
441.467	17228.2
441.674	17346.98
441.881	18022.81
442.088	18069.91
442.294	17938.84
442.501	18694.54
442.708	19052.94
442.914	19585.41
443.121	20083.06
443.328	19786.11
443.534	21061.99
443.741	20654.45
443.948	20296.05
444.154	21786.97
444.361	21766.49
444.568	22045.02
444.774	21840.22
444.981	22137.18
445.187	22706.51
445.394	23667.01
445.6	23195.98
445.807	25889.06
446.013	24592.69
446.22	25278.76
446.426	26259.74
446.633	26079.52
446.839	27308.3
447.046	26118.43
447.252	27289.87
447.459	27336.97
447.665	27150.6
447.871	28645.62
448.078	29575.4
448.284	28324.09
448.491	28909.81
448.697	30443.74
448.903	30734.55
449.11	30427.35
449.316	30197.98
449.522	31006.93
449.728	31314.12
449.935	31824.07
450.141	31660.23
450.347	32358.59
450.553	31283.41
450.76	31946.95
450.966	32938.16
451.172	32409.79
451.378	33573.03
451.584	32483.51
451.791	33704.1
451.997	33089.71
452.203	33695.91
452.409	33446.06
452.615	33982.63
452.821	32204.99
453.027	31940.8
453.233	33667.24
453.44	32454.84
453.646	32248
453.852	32706.74
454.058	33536.17
454.264	32174.27
454.47	32770.23
454.676	31977.67
454.882	33296.56
455.088	30269.66
455.294	30587.1
455.5	31250.64
455.705	31181.01
455.911	29780.2
456.117	29325.55
456.323	28872.95
456.529	27396.36
456.735	28862.71
456.941	27851.01
457.147	27521.29
457.352	26521.88
457.558	26179.87
457.764	26376.47
457.97	25995.55
458.176	25014.57
458.381	25108.78
458.587	23992.64
458.793	24021.31
458.999	22493.52
459.204	24138.04
459.41	23494.98
459.616	21936.48
459.821	22104.41
460.027	21885.28
460.233	21496.16
460.438	20380.02
460.644	20642.16
460.85	19734.91
461.055	19423.62
461.261	19313.03
461.466	17648.03
461.672	17250.72
461.878	18342.29
462.083	17559.97
462.289	16783.79
462.494	16853.42
462.7	16042.42
462.905	15548.86
463.111	16060.85
463.316	16243.12
463.522	15897.02
463.727	16079.29
463.932	15972.79
464.138	15808.95
464.343	15854.01
464.549	15479.23
464.754	15761.85
464.959	15813.05
465.165	15823.29
465.37	14991.81
465.575	14690.76
465.781	15012.29
465.986	15102.4
466.191	14445.01
466.397	14279.12
466.602	13705.69
466.807	14412.24
467.012	14377.42
