Data from USB4F104151__60__11-30-48-360.txt Node

Date: Fri Mar 14 11:30:48 EDT 2025
User: louis
Spectrometer: USB4F10415
Trigger mode: 4
Integration Time (sec): 5.000000E-2
Scans to average: 1
Electric dark correction enabled: true
Nonlinearity correction enabled: false
Boxcar width: 0
XAxis mode: Wavelengths
Number of Pixels in Spectrum: 3648
>>>>>Begin Spectral Data<<<<<
178.204	-87.89
178.424	-87.89
178.644	-87.89
178.864	-169.81
179.084	-147.28
179.304	6.31
179.524	-30.55
179.744	14.51
179.964	86.19
180.184	-14.17
180.404	24.75
180.624	10.41
180.844	30.89
181.064	-100.18
181.283	10.41
181.503	-61.27
181.723	22.7
181.943	-44.88
182.163	45.23
182.383	10.41
182.602	26.79
182.822	4.27
183.042	2.22
183.262	51.37
183.482	28.84
183.701	-8.02
183.921	59.56
184.141	51.37
184.361	98.47
184.58	34.99
184.8	41.13
185.02	2.22
185.239	63.66
185.459	28.84
185.679	14.51
185.898	6.31
186.118	69.8
186.338	67.75
186.557	63.66
186.777	-8.02
186.997	12.46
187.216	61.61
187.436	69.8
187.655	8.36
187.875	67.75
188.095	32.94
188.314	77.99
188.534	98.47
188.753	-14.17
188.973	10.41
189.192	26.79
189.412	34.99
189.631	-1.88
189.851	-8.02
190.07	86.19
190.29	-3.93
190.509	-8.02
190.729	100.52
190.948	-5.97
191.168	96.43
191.387	106.67
191.607	2.22
191.826	-8.02
192.045	28.84
192.265	12.46
192.484	20.65
192.704	-42.84
192.923	-20.31
193.142	75.95
193.362	57.51
193.581	-5.97
193.8	45.23
194.02	67.75
194.239	26.79
194.458	125.1
194.678	55.47
194.897	12.46
195.116	39.08
195.335	61.61
195.555	53.42
195.774	12.46
195.993	-8.02
196.212	61.61
196.432	4.27
196.651	45.23
196.87	24.75
197.089	69.8
197.308	114.86
197.528	-8.02
197.747	77.99
197.966	-28.5
198.185	28.84
198.404	-36.69
198.623	67.75
198.842	71.85
199.062	45.23
199.281	139.43
199.5	-44.88
199.719	118.95
199.938	41.13
200.157	69.8
200.376	63.66
200.595	10.41
200.814	10.41
201.033	-1.88
201.252	67.75
201.471	4.27
201.69	57.51
201.909	-28.5
202.128	45.23
202.347	69.8
202.566	32.94
202.785	12.46
203.004	-24.4
203.223	96.43
203.442	41.13
203.661	45.23
203.879	61.61
204.098	24.75
204.317	-12.12
204.536	77.99
204.755	65.71
204.974	100.52
205.193	10.41
205.411	77.99
205.63	67.75
205.849	20.65
206.068	4.27
206.287	8.36
206.505	106.67
206.724	-12.12
206.943	26.79
207.162	-34.64
207.381	55.47
207.599	24.75
207.818	57.51
208.037	-40.79
208.255	125.1
208.474	-46.93
208.693	77.99
208.911	-14.17
209.13	69.8
209.349	-3.93
209.567	41.13
209.786	37.03
210.005	59.56
210.223	53.42
210.442	49.32
210.661	45.23
210.879	43.18
211.098	59.56
211.316	24.75
211.535	51.37
211.753	39.08
211.972	67.75
212.191	-65.36
212.409	32.94
212.628	73.9
212.846	32.94
213.065	55.47
213.283	69.8
213.502	37.03
213.72	37.03
213.938	61.61
214.157	-5.97
214.375	69.8
214.594	4.27
214.812	51.37
215.031	-5.97
215.249	53.42
215.467	-36.69
215.686	-8.02
215.904	57.51
216.122	51.37
216.341	14.51
216.559	-55.12
216.778	-28.5
216.996	67.75
217.214	24.75
217.432	-16.21
217.651	59.56
217.869	84.14
218.087	108.71
218.306	24.75
218.524	59.56
218.742	28.84
218.96	41.13
219.179	43.18
219.397	82.09
219.615	143.53
219.833	8.36
220.051	53.42
220.27	75.95
220.488	69.8
220.706	80.04
220.924	-12.12
221.142	16.55
221.36	43.18
221.578	4.27
221.796	4.27
222.015	22.7
222.233	45.23
222.451	51.37
222.669	53.42
222.887	65.71
223.105	-28.5
223.323	61.61
223.541	-5.97
223.759	6.31
223.977	10.41
224.195	77.99
224.413	63.66
224.631	45.23
224.849	65.71
225.067	123.05
225.285	-12.12
225.503	10.41
225.721	-26.45
225.939	61.61
226.157	37.03
226.375	86.19
226.592	51.37
226.81	12.46
227.028	18.6
227.246	26.79
227.464	67.75
227.682	108.71
227.9	67.75
228.117	-1.88
228.335	-3.93
228.553	37.03
228.771	67.75
228.989	37.03
229.206	51.37
229.424	-3.93
229.642	-3.93
229.86	4.27
230.077	53.42
230.295	26.79
230.513	45.23
230.731	-16.21
230.948	28.84
231.166	61.61
231.384	51.37
231.601	57.51
231.819	100.52
232.037	-20.31
232.254	2.22
232.472	69.8
232.689	37.03
232.907	69.8
233.125	59.56
233.342	41.13
233.56	4.27
233.777	0.17
233.995	18.6
234.213	45.23
234.43	47.27
234.648	-20.31
234.865	-28.5
235.083	69.8
235.3	-1.88
235.518	90.28
235.735	69.8
235.953	55.47
236.17	65.71
236.388	47.27
236.605	-20.31
236.822	96.43
237.04	61.61
237.257	82.09
237.475	24.75
237.692	24.75
237.909	20.65
238.127	26.79
238.344	57.51
238.562	45.23
238.779	-55.12
238.996	-28.5
239.214	43.18
239.431	102.57
239.648	-53.08
239.865	102.57
240.083	26.79
240.3	43.18
240.517	26.79
240.735	53.42
240.952	98.47
241.169	157.86
241.386	39.08
241.603	26.79
241.821	0.17
242.038	4.27
242.255	98.47
242.472	26.79
242.689	71.85
242.907	41.13
243.124	55.47
243.341	61.61
243.558	-5.97
243.775	2.22
243.992	-44.88
244.209	67.75
244.426	45.23
244.643	63.66
244.86	-40.79
245.078	77.99
245.295	77.99
245.512	41.13
245.729	34.99
245.946	59.56
246.163	51.37
246.38	-38.74
246.597	10.41
246.814	26.79
247.031	-42.84
247.248	37.03
247.464	102.57
247.681	-69.46
247.898	41.13
248.115	127.14
248.332	-22.36
248.549	94.38
248.766	118.95
248.983	121
249.2	125.1
249.417	32.94
249.633	12.46
249.85	43.18
250.067	12.46
250.284	8.36
250.501	57.51
250.717	16.55
250.934	28.84
251.151	59.56
251.368	-34.64
251.585	77.99
251.801	69.8
252.018	28.84
252.235	92.33
252.451	45.23
252.668	67.75
252.885	110.76
253.102	16.55
253.318	53.42
253.535	47.27
253.752	6.31
253.968	-3.93
254.185	24.75
254.401	84.14
254.618	94.38
254.835	16.55
255.051	123.05
255.268	118.95
255.484	67.75
255.701	10.41
255.917	43.18
256.134	4.27
256.351	0.17
256.567	43.18
256.784	10.41
257	-28.5
257.217	108.71
257.433	16.55
257.65	61.61
257.866	32.94
258.082	22.7
258.299	2.22
258.515	45.23
258.732	20.65
258.948	14.51
259.165	59.56
259.381	20.65
259.597	-3.93
259.814	63.66
260.03	-28.5
260.246	61.61
260.463	77.99
260.679	59.56
260.895	26.79
261.112	-20.31
261.328	92.33
261.544	73.9
261.761	118.95
261.977	26.79
262.193	-14.17
262.409	-44.88
262.626	51.37
262.842	49.32
263.058	53.42
263.274	20.65
263.49	12.46
263.707	43.18
263.923	30.89
264.139	6.31
264.355	51.37
264.571	77.99
264.787	39.08
265.004	45.23
265.22	4.27
265.436	86.19
265.652	47.27
265.868	73.9
266.084	4.27
266.3	45.23
266.516	18.6
266.732	73.9
266.948	53.42
267.164	49.32
267.38	24.75
267.596	14.51
267.812	88.23
268.028	16.55
268.244	4.27
268.46	77.99
268.676	-5.97
268.892	63.66
269.108	86.19
269.324	26.79
269.54	-12.12
269.756	102.57
269.972	73.9
270.188	12.46
270.403	-14.17
270.619	73.9
270.835	65.71
271.051	86.19
271.267	-28.5
271.483	108.71
271.698	-3.93
271.914	-8.02
272.13	82.09
272.346	10.41
272.562	-12.12
272.777	94.38
272.993	10.41
273.209	67.75
273.425	69.8
273.64	39.08
273.856	51.37
274.072	-22.36
274.287	69.8
274.503	26.79
274.719	69.8
274.934	-30.55
275.15	32.94
275.366	92.33
275.581	20.65
275.797	4.27
276.012	8.36
276.228	28.84
276.444	57.51
276.659	55.47
276.875	-3.93
277.09	24.75
277.306	45.23
277.521	47.27
277.737	34.99
277.952	145.58
278.168	49.32
278.383	34.99
278.599	37.03
278.814	57.51
279.03	53.42
279.245	108.71
279.461	32.94
279.676	73.9
279.892	20.65
280.107	-67.41
280.322	20.65
280.538	94.38
280.753	32.94
280.969	86.19
281.184	69.8
281.399	98.47
281.615	86.19
281.83	47.27
282.045	28.84
282.26	14.51
282.476	69.8
282.691	41.13
282.906	26.79
283.122	37.03
283.337	71.85
283.552	-5.97
283.767	-53.08
283.983	112.81
284.198	6.31
284.413	59.56
284.628	24.75
284.843	45.23
285.058	98.47
285.274	75.95
285.489	43.18
285.704	32.94
285.919	12.46
286.134	53.42
286.349	51.37
286.564	51.37
286.779	26.79
286.995	57.51
287.21	45.23
287.425	63.66
287.64	37.03
287.855	12.46
288.07	-34.64
288.285	59.56
288.5	86.19
288.715	139.43
288.93	20.65
289.145	12.46
289.36	114.86
289.575	59.56
289.79	53.42
290.004	-18.26
290.219	147.62
290.434	12.46
290.649	14.51
290.864	47.27
291.079	45.23
291.294	-44.88
291.509	90.28
291.724	41.13
291.938	-12.12
292.153	0.17
292.368	-3.93
292.583	67.75
292.798	86.19
293.012	102.57
293.227	43.18
293.442	-3.93
293.657	55.47
293.871	86.19
294.086	20.65
294.301	28.84
294.516	20.65
294.73	4.27
294.945	-55.12
295.16	51.37
295.374	18.6
295.589	57.51
295.804	32.94
296.018	47.27
296.233	84.14
296.447	-30.55
296.662	-53.08
296.877	28.84
297.091	73.9
297.306	77.99
297.52	12.46
297.735	127.14
297.949	28.84
298.164	39.08
298.378	51.37
298.593	37.03
298.807	65.71
299.022	26.79
299.236	100.52
299.451	32.94
299.665	20.65
299.88	-5.97
300.094	6.31
300.309	4.27
300.523	41.13
300.737	37.03
300.952	84.14
301.166	-3.93
301.381	53.42
301.595	49.32
301.809	94.38
302.024	59.56
302.238	18.6
302.452	16.55
302.667	-3.93
302.881	118.95
303.095	75.95
303.309	18.6
303.524	-16.21
303.738	-14.17
303.952	8.36
304.166	69.8
304.381	-18.26
304.595	131.24
304.809	18.6
305.023	92.33
305.237	16.55
305.452	53.42
305.666	57.51
305.88	51.37
306.094	92.33
306.308	102.57
306.522	123.05
306.736	94.38
306.95	51.37
307.164	28.84
307.379	12.46
307.593	123.05
307.807	51.37
308.021	73.9
308.235	73.9
308.449	-73.56
308.663	37.03
308.877	67.75
309.091	57.51
309.305	26.79
309.519	-10.07
309.733	84.14
309.947	-14.17
310.161	12.46
310.374	94.38
310.588	96.43
310.802	-34.64
311.016	45.23
311.23	-20.31
311.444	14.51
311.658	10.41
311.872	51.37
312.085	51.37
312.299	77.99
312.513	45.23
312.727	100.52
312.941	-5.97
313.154	10.41
313.368	57.51
313.582	77.99
313.796	43.18
314.009	16.55
314.223	94.38
314.437	16.55
314.651	108.71
314.864	37.03
315.078	10.41
315.292	16.55
315.505	-12.12
315.719	110.76
315.933	28.84
316.146	37.03
316.36	30.89
316.573	94.38
316.787	20.65
317.001	4.27
317.214	4.27
317.428	-16.21
317.641	12.46
317.855	69.8
318.068	73.9
318.282	-1.88
318.495	-1.88
318.709	92.33
318.922	16.55
319.136	139.43
319.349	2.22
319.563	32.94
319.776	12.46
319.99	77.99
320.203	24.75
320.417	24.75
320.63	114.86
320.843	110.76
321.057	84.14
321.27	69.8
321.483	51.37
321.697	96.43
321.91	59.56
322.124	57.51
322.337	51.37
322.55	43.18
322.763	28.84
322.977	20.65
323.19	77.99
323.403	-8.02
323.617	43.18
323.83	12.46
324.043	-12.12
324.256	47.27
324.469	47.27
324.683	57.51
324.896	8.36
325.109	32.94
325.322	10.41
325.535	164.01
325.748	114.86
325.962	94.38
326.175	75.95
326.388	4.27
326.601	55.47
326.814	-36.69
327.027	94.38
327.24	116.9
327.453	-20.31
327.666	20.65
327.879	45.23
328.092	39.08
328.305	51.37
328.518	2.22
328.731	4.27
328.944	61.61
329.157	20.65
329.37	-61.27
329.583	135.34
329.796	61.61
330.009	16.55
330.222	80.04
330.435	100.52
330.648	135.34
330.861	69.8
331.073	34.99
331.286	57.51
331.499	75.95
331.712	84.14
331.925	65.71
332.138	118.95
332.35	53.42
332.563	-46.93
332.776	51.37
332.989	-18.26
333.202	-8.02
333.414	53.42
333.627	43.18
333.84	37.03
334.053	43.18
334.265	6.31
334.478	4.27
334.691	63.66
334.903	39.08
335.116	-16.21
335.329	37.03
335.541	18.6
335.754	86.19
335.966	26.79
336.179	18.6
336.392	51.37
336.604	90.28
336.817	57.51
337.029	65.71
337.242	86.19
337.454	51.37
337.667	-20.31
337.88	61.61
338.092	32.94
338.305	127.14
338.517	110.76
338.729	53.42
338.942	108.71
339.154	-14.17
339.367	45.23
339.579	16.55
339.792	2.22
340.004	90.28
340.217	24.75
340.429	90.28
340.641	73.9
340.854	-44.88
341.066	-30.55
341.278	86.19
341.491	159.91
341.703	20.65
341.915	65.71
342.128	51.37
342.34	112.81
342.552	82.09
342.764	16.55
342.977	49.32
343.189	106.67
343.401	69.8
343.613	-14.17
343.826	-14.17
344.038	-73.56
344.25	26.79
344.462	12.46
344.674	51.37
344.886	71.85
345.099	12.46
345.311	86.19
345.523	24.75
345.735	-32.6
345.947	110.76
346.159	49.32
346.371	65.71
346.583	37.03
346.795	118.95
347.007	30.89
347.219	-38.74
347.431	69.8
347.643	80.04
347.855	84.14
348.067	20.65
348.279	34.99
348.491	45.23
348.703	67.75
348.915	34.99
349.127	2.22
349.339	73.9
349.551	59.56
349.763	71.85
349.975	14.51
350.187	100.52
350.399	55.47
350.61	80.04
350.822	16.55
351.034	106.67
351.246	69.8
351.458	41.13
351.669	61.61
351.881	102.57
352.093	28.84
352.305	92.33
352.517	118.95
352.728	61.61
352.94	20.65
353.152	28.84
353.363	-10.07
353.575	57.51
353.787	110.76
353.999	12.46
354.21	123.05
354.422	49.32
354.633	34.99
354.845	41.13
355.057	20.65
355.268	28.84
355.48	57.51
355.692	82.09
355.903	26.79
356.115	-16.21
356.326	20.65
356.538	84.14
356.749	90.28
356.961	82.09
357.172	41.13
357.384	2.22
357.595	135.34
357.807	32.94
358.018	59.56
358.23	59.56
358.441	37.03
358.653	157.86
358.864	180.39
359.075	37.03
359.287	125.1
359.498	39.08
359.709	123.05
359.921	-5.97
360.132	37.03
360.344	69.8
360.555	4.27
360.766	-36.69
360.977	94.38
361.189	-3.93
361.4	10.41
361.611	84.14
361.823	84.14
362.034	43.18
362.245	-26.45
362.456	61.61
362.667	69.8
362.879	2.22
363.09	30.89
363.301	90.28
363.512	47.27
363.723	67.75
363.935	86.19
364.146	24.75
364.357	-38.74
364.568	164.01
364.779	-22.36
364.99	114.86
365.201	55.47
365.412	77.99
365.623	53.42
365.834	75.95
366.045	82.09
366.256	0.17
366.467	39.08
366.678	8.36
366.889	65.71
367.1	69.8
367.311	102.57
367.522	22.7
367.733	94.38
367.944	118.95
368.155	51.37
368.366	8.36
368.577	49.32
368.788	45.23
368.999	32.94
369.209	102.57
369.42	45.23
369.631	90.28
369.842	53.42
370.053	12.46
370.264	67.75
370.474	86.19
370.685	69.8
370.896	34.99
371.107	88.23
371.317	57.51
371.528	86.19
371.739	-20.31
371.95	24.75
372.16	164.01
372.371	32.94
372.582	57.51
372.792	157.86
373.003	104.62
373.214	43.18
373.424	106.67
373.635	102.57
373.846	127.14
374.056	24.75
374.267	30.89
374.477	34.99
374.688	37.03
374.898	-10.07
375.109	100.52
375.319	37.03
375.53	155.82
375.74	86.19
375.951	43.18
376.161	118.95
376.372	80.04
376.582	39.08
376.793	59.56
377.003	116.9
377.214	32.94
377.424	129.19
377.635	71.85
377.845	32.94
378.055	94.38
378.266	28.84
378.476	73.9
378.686	84.14
378.897	71.85
379.107	53.42
379.317	96.43
379.528	104.62
379.738	41.13
379.948	73.9
380.158	55.47
380.369	61.61
380.579	157.86
380.789	108.71
380.999	77.99
381.21	86.19
381.42	139.43
381.63	2.22
381.84	133.29
382.05	94.38
382.261	133.29
382.471	131.24
382.681	121
382.891	92.33
383.101	37.03
383.311	-12.12
383.521	63.66
383.731	102.57
383.941	82.09
384.151	77.99
384.361	61.61
384.571	20.65
384.781	57.51
384.991	188.58
385.201	149.67
385.411	108.71
385.621	6.31
385.831	102.57
386.041	6.31
386.251	77.99
386.461	143.53
386.671	49.32
386.881	73.9
387.091	102.57
387.301	94.38
387.511	135.34
387.72	32.94
387.93	34.99
388.14	34.99
388.35	37.03
388.56	180.39
388.769	110.76
388.979	16.55
389.189	84.14
389.399	37.03
389.609	135.34
389.818	94.38
390.028	51.37
390.238	127.14
390.447	26.79
390.657	145.58
390.867	86.19
391.076	55.47
391.286	155.82
391.496	61.61
391.705	45.23
391.915	98.47
392.125	90.28
392.334	125.1
392.544	69.8
392.753	110.76
392.963	-28.5
393.172	86.19
393.382	28.84
393.591	39.08
393.801	53.42
394.01	118.95
394.22	188.58
394.429	61.61
394.639	69.8
394.848	90.28
395.058	45.23
395.267	82.09
395.477	176.3
395.686	43.18
395.895	159.91
396.105	192.68
396.314	94.38
396.524	20.65
396.733	88.23
396.942	100.52
397.152	151.72
397.361	100.52
397.57	147.62
397.78	145.58
397.989	80.04
398.198	170.15
398.407	133.29
398.617	151.72
398.826	94.38
399.035	194.73
399.244	114.86
399.453	127.14
399.663	143.53
399.872	49.32
400.081	92.33
400.29	121
400.499	116.9
400.708	166.06
400.917	145.58
401.127	57.51
401.336	73.9
401.545	172.2
401.754	153.77
401.963	168.1
402.172	116.9
402.381	82.09
402.59	94.38
402.799	135.34
403.008	200.87
403.217	131.24
403.426	100.52
403.635	168.1
403.844	188.58
404.053	141.48
404.262	116.9
404.471	307.37
404.68	153.77
404.888	127.14
405.097	94.38
405.306	188.58
405.515	225.45
405.724	159.91
405.933	241.83
406.142	209.06
406.35	209.06
406.559	258.21
406.768	215.21
406.977	290.98
407.185	196.78
407.394	350.37
407.603	239.78
407.812	274.6
408.02	264.36
408.229	196.78
408.438	256.17
408.646	235.69
408.855	233.64
409.064	223.4
409.272	252.07
409.481	344.23
409.69	303.27
409.898	288.93
410.107	395.43
410.315	348.33
410.524	315.56
410.733	430.24
410.941	336.04
411.15	393.38
411.358	364.71
411.567	469.16
411.775	444.58
411.984	438.44
412.192	450.72
412.401	493.73
412.609	524.45
412.818	506.02
413.026	520.35
413.234	573.6
413.443	559.27
413.651	573.6
413.86	542.88
414.068	678.05
414.276	710.82
414.485	589.99
414.693	823.45
414.901	716.96
415.11	731.3
415.318	745.63
415.526	796.83
415.734	839.84
415.943	860.32
416.151	923.8
416.359	850.08
416.567	907.42
416.776	927.9
416.984	985.24
417.192	1011.87
417.4	921.76
417.608	999.58
417.817	1077.4
418.025	1104.03
418.233	1296.53
418.441	1165.46
418.649	1298.58
418.857	1405.08
419.065	1417.37
419.273	1368.21
419.481	1425.56
419.689	1546.39
419.897	1484.95
420.105	1640.59
420.313	1699.98
420.521	1738.9
420.729	1738.9
420.937	1714.32
421.145	1849.49
421.353	1876.11
421.561	2062.48
421.769	2078.86
421.977	2097.29
422.185	2152.59
422.393	2207.88
422.601	2381.96
422.809	2312.33
423.017	2437.25
423.224	2619.52
423.432	2648.19
423.64	2666.63
423.848	2957.44
424.056	2861.18
424.263	3108.99
424.471	2994.3
424.679	3090.56
424.887	3215.48
425.094	3301.5
425.302	3264.63
425.51	3557.49
425.718	3592.31
425.925	3694.71
426.133	3674.23
426.341	4071.53
426.548	4237.42
426.756	4145.26
426.964	4290.67
427.171	4542.57
427.379	4581.48
427.586	4501.61
427.794	4780.13
428.001	4872.29
428.209	5169.24
428.417	5195.87
428.624	5560.41
428.832	5584.98
429.039	5550.17
429.247	5709.91
429.454	6031.44
429.662	6303.82
429.869	5986.38
430.076	6479.94
430.284	6160.46
430.491	6606.92
430.699	6907.97
430.906	7000.13
431.114	6981.7
431.321	7032.9
431.528	7407.67
431.736	7796.79
431.943	8106.03
432.15	7944.24
432.358	8036.4
432.565	8456.23
432.772	8542.25
432.979	8892.45
433.187	9289.76
433.394	9158.69
433.601	9721.88
433.808	9760.79
434.016	9670.68
434.223	10000.4
434.43	10747.91
434.637	10616.84
434.844	11149.31
435.052	11438.08
435.259	11198.46
435.466	11452.41
435.673	11405.31
435.88	12177.39
436.087	12675.05
436.294	12529.64
436.501	12212.21
436.708	12834.79
436.915	13086.69
437.122	13848.54
437.329	13486.04
437.537	13893.59
437.743	14075.86
437.95	14327.76
438.157	14872.52
438.364	15527.87
438.571	15622.08
438.778	15538.11
438.985	17059.75
439.192	16306.1
439.399	16897.96
439.606	16543.66
439.813	17055.65
440.02	18642.83
440.227	18065.3
440.433	17690.52
440.64	18503.57
440.847	18388.88
441.054	18778
441.261	20279.16
441.467	19732.35
441.674	20270.97
441.881	21159.78
442.088	21137.26
442.294	20662.13
442.501	21266.28
442.708	21759.84
442.914	22812.49
443.121	23650.11
443.328	22865.74
443.534	24414.01
443.741	24004.41
443.948	23400.26
444.154	25333.54
444.361	25589.54
444.568	25378.6
444.774	25155.37
444.981	25716.51
445.187	26347.29
445.394	27236.11
445.6	27037.45
445.807	29716.2
446.013	28415.74
446.22	28944.11
446.426	29941.47
446.633	30170.85
446.839	31303.37
447.046	30389.98
447.252	31563.47
447.459	31422.16
447.665	31360.72
447.871	32800.44
448.078	34463.39
448.284	32849.59
448.491	33545.9
448.697	34795.16
448.903	35432.08
449.11	35643.02
449.316	34899.61
449.522	35681.93
449.728	36501.12
449.935	36386.43
450.141	36605.56
450.347	37713.52
450.553	36599.42
450.76	37074.55
450.966	38327.91
451.172	37545.58
451.378	38544.99
451.584	37805.67
451.791	38708.83
451.997	38332
452.203	39093.85
452.409	39063.13
452.615	39433.81
452.821	37717.61
453.027	37410.42
453.233	39376.47
453.44	37449.33
453.646	37953.13
453.852	38057.57
454.058	38590.05
454.264	37023.35
454.47	38004.33
454.676	37326.45
454.882	38235.75
455.088	35192.47
455.294	35716.75
455.5	36251.27
455.705	36202.11
455.911	34813.59
456.117	34154.15
456.323	33838.76
456.529	32016.07
456.735	33255.09
456.941	32384.7
457.147	31979.2
457.352	30985.94
457.558	30584.54
457.764	30525.14
457.97	30054.11
458.176	29527.78
458.381	29581.03
458.587	27920.13
458.793	27862.79
458.999	26267.42
459.204	28493.56
459.41	27744
459.616	25775.91
459.821	25526.05
460.027	25628.45
460.233	25173.8
460.438	23783.23
460.644	23951.17
460.85	23109.45
461.055	22681.42
461.261	22802.25
461.466	21180.26
461.672	20256.63
461.878	21876.57
462.083	20553.59
462.289	19912.57
462.494	19822.46
462.7	18929.55
462.905	18509.71
463.111	19070.86
463.316	19353.48
463.522	18577.3
463.727	18870.15
463.932	18573.2
464.138	18177.94
464.343	18593.68
464.549	18143.13
464.754	18509.71
464.959	18798.48
465.165	18255.76
465.37	17440.67
465.575	17219.49
465.781	17696.67
465.986	17880.99
466.191	17366.95
466.397	16873.39
466.602	16093.11
466.807	16746.41
467.012	16779.18
