Data from USB4F104151__84__11-31-49-303.txt Node

Date: Fri Mar 14 11:31:49 EDT 2025
User: louis
Spectrometer: USB4F10415
Trigger mode: 4
Integration Time (sec): 5.000000E-2
Scans to average: 1
Electric dark correction enabled: true
Nonlinearity correction enabled: false
Boxcar width: 0
XAxis mode: Wavelengths
Number of Pixels in Spectrum: 3648
>>>>>Begin Spectral Data<<<<<
178.204	-169.98
178.424	-169.98
178.644	-169.98
178.864	-192.51
179.084	-110.59
179.304	-36.86
179.524	36.86
179.744	8.19
179.964	55.3
180.184	20.48
180.404	-88.06
180.624	-45.06
180.844	43.01
181.064	-32.77
181.283	26.62
181.503	-8.19
181.723	20.48
181.943	-20.48
182.163	12.29
182.383	-28.67
182.602	96.25
182.822	114.69
183.042	40.96
183.262	16.38
183.482	-28.67
183.701	2.05
183.921	18.43
184.141	-63.49
184.361	34.82
184.58	45.06
184.8	-24.58
185.02	-2.05
185.239	6.14
185.459	38.91
185.679	38.91
185.898	-110.59
186.118	38.91
186.338	-10.24
186.557	32.77
186.777	-16.38
186.997	65.54
187.216	-38.91
187.436	83.97
187.655	53.25
187.875	18.43
188.095	16.38
188.314	104.45
188.534	116.73
188.753	10.24
188.973	26.62
189.192	51.2
189.412	24.58
189.631	53.25
189.851	59.39
190.07	20.48
190.29	-71.68
190.509	40.96
190.729	8.19
190.948	116.73
191.168	143.36
191.387	51.2
191.607	-38.91
191.826	18.43
192.045	34.82
192.265	26.62
192.484	110.59
192.704	51.2
192.923	-22.53
193.142	75.77
193.362	43.01
193.581	75.77
193.8	53.25
194.02	38.91
194.239	59.39
194.458	12.29
194.678	43.01
194.897	-8.19
195.116	12.29
195.335	0
195.555	8.19
195.774	26.62
195.993	6.14
196.212	-16.38
196.432	-61.44
196.651	51.2
196.87	-4.1
197.089	120.83
197.308	38.91
197.528	-24.58
197.747	-6.14
197.966	-14.34
198.185	122.88
198.404	-32.77
198.623	-4.1
198.842	75.77
199.062	30.72
199.281	67.58
199.5	-10.24
199.719	-8.19
199.938	16.38
200.157	73.73
200.376	32.77
200.595	16.38
200.814	-18.43
201.033	-2.05
201.252	47.1
201.471	53.25
201.69	83.97
201.909	69.63
202.128	131.07
202.347	63.49
202.566	2.05
202.785	10.24
203.004	-51.2
203.223	86.01
203.442	-40.96
203.661	4.1
203.879	96.25
204.098	83.97
204.317	-22.53
204.536	47.1
204.755	40.96
204.974	28.67
205.193	24.58
205.411	34.82
205.63	47.1
205.849	22.53
206.068	2.05
206.287	30.72
206.505	53.25
206.724	-30.72
206.943	20.48
207.162	47.1
207.381	-28.67
207.599	26.62
207.818	59.39
208.037	2.05
208.255	-18.43
208.474	28.67
208.693	40.96
208.911	-14.34
209.13	43.01
209.349	100.35
209.567	20.48
209.786	63.49
210.005	10.24
210.223	-16.38
210.442	-49.15
210.661	14.34
210.879	79.87
211.098	81.92
211.316	-24.58
211.535	57.34
211.753	43.01
211.972	6.14
212.191	69.63
212.409	34.82
212.628	10.24
212.846	32.77
213.065	8.19
213.283	88.06
213.502	20.48
213.72	59.39
213.938	-8.19
214.157	12.29
214.375	53.25
214.594	-14.34
214.812	20.48
215.031	18.43
215.249	81.92
215.467	22.53
215.686	59.39
215.904	126.97
216.122	2.05
216.341	63.49
216.559	14.34
216.778	92.16
216.996	83.97
217.214	20.48
217.432	-24.58
217.651	22.53
217.869	8.19
218.087	-14.34
218.306	10.24
218.524	53.25
218.742	6.14
218.96	98.3
219.179	6.14
219.397	6.14
219.615	90.11
219.833	32.77
220.051	26.62
220.27	63.49
220.488	6.14
220.706	-30.72
220.924	32.77
221.142	16.38
221.36	-6.14
221.578	10.24
221.796	34.82
222.015	-47.1
222.233	20.48
222.451	59.39
222.669	-47.1
222.887	20.48
223.105	45.06
223.323	53.25
223.541	-36.86
223.759	73.73
223.977	-6.14
224.195	49.15
224.413	30.72
224.631	92.16
224.849	45.06
225.067	92.16
225.285	-26.62
225.503	30.72
225.721	-57.34
225.939	30.72
226.157	-36.86
226.375	71.68
226.592	55.3
226.81	14.34
227.028	51.2
227.246	-10.24
227.464	18.43
227.682	-6.14
227.9	75.77
228.117	65.54
228.335	-24.58
228.553	-8.19
228.771	47.1
228.989	-10.24
229.206	36.86
229.424	-18.43
229.642	38.91
229.86	18.43
230.077	51.2
230.295	2.05
230.513	34.82
230.731	40.96
230.948	129.02
231.166	49.15
231.384	75.77
231.601	-14.34
231.819	108.54
232.037	30.72
232.254	2.05
232.472	51.2
232.689	-47.1
232.907	36.86
233.125	-6.14
233.342	-57.34
233.56	-36.86
233.777	67.58
233.995	75.77
234.213	45.06
234.43	55.3
234.648	49.15
234.865	-22.53
235.083	59.39
235.3	34.82
235.518	51.2
235.735	28.67
235.953	153.6
236.17	6.14
236.388	-2.05
236.605	0
236.822	67.58
237.04	36.86
237.257	14.34
237.475	81.92
237.692	-55.3
237.909	20.48
238.127	-45.06
238.344	45.06
238.562	63.49
238.779	-14.34
238.996	40.96
239.214	6.14
239.431	73.73
239.648	-32.77
239.865	69.63
240.083	114.69
240.3	-2.05
240.517	-14.34
240.735	73.73
240.952	10.24
241.169	10.24
241.386	16.38
241.603	-43.01
241.821	-18.43
242.038	14.34
242.255	51.2
242.472	-57.34
242.689	51.2
242.907	18.43
243.124	6.14
243.341	32.77
243.558	-67.58
243.775	-14.34
243.992	47.1
244.209	2.05
244.426	55.3
244.643	30.72
244.86	-16.38
245.078	8.19
245.295	38.91
245.512	22.53
245.729	-34.82
245.946	20.48
246.163	63.49
246.38	73.73
246.597	47.1
246.814	40.96
247.031	-32.77
247.248	67.58
247.464	16.38
247.681	49.15
247.898	-6.14
248.115	71.68
248.332	2.05
248.549	55.3
248.766	26.62
248.983	57.34
249.2	34.82
249.417	92.16
249.633	-24.58
249.85	92.16
250.067	10.24
250.284	-47.1
250.501	45.06
250.717	67.58
250.934	22.53
251.151	14.34
251.368	-14.34
251.585	47.1
251.801	26.62
252.018	38.91
252.235	88.06
252.451	-6.14
252.668	-6.14
252.885	92.16
253.102	63.49
253.318	-40.96
253.535	34.82
253.752	51.2
253.968	-43.01
254.185	-24.58
254.401	75.77
254.618	-22.53
254.835	22.53
255.051	59.39
255.268	43.01
255.484	36.86
255.701	18.43
255.917	38.91
256.134	30.72
256.351	67.58
256.567	34.82
256.784	-6.14
257	8.19
257.217	67.58
257.433	61.44
257.65	63.49
257.866	53.25
258.082	12.29
258.299	71.68
258.515	-10.24
258.732	-2.05
258.948	-40.96
259.165	67.58
259.381	10.24
259.597	10.24
259.814	-2.05
260.03	16.38
260.246	61.44
260.463	129.02
260.679	63.49
260.895	102.4
261.112	61.44
261.328	40.96
261.544	-63.49
261.761	186.37
261.977	43.01
262.193	-14.34
262.409	-18.43
262.626	67.58
262.842	34.82
263.058	26.62
263.274	67.58
263.49	24.58
263.707	57.34
263.923	34.82
264.139	-16.38
264.355	16.38
264.571	77.82
264.787	10.24
265.004	2.05
265.22	73.73
265.436	-10.24
265.652	6.14
265.868	-22.53
266.084	0
266.3	18.43
266.516	26.62
266.732	14.34
266.948	22.53
267.164	-6.14
267.38	16.38
267.596	-14.34
267.812	61.44
268.028	32.77
268.244	-24.58
268.46	51.2
268.676	0
268.892	16.38
269.108	36.86
269.324	-30.72
269.54	22.53
269.756	34.82
269.972	8.19
270.188	2.05
270.403	-30.72
270.619	59.39
270.835	26.62
271.051	8.19
271.267	-30.72
271.483	-4.1
271.698	26.62
271.914	59.39
272.13	40.96
272.346	71.68
272.562	188.41
272.777	79.87
272.993	-4.1
273.209	61.44
273.425	16.38
273.64	10.24
273.856	59.39
274.072	-24.58
274.287	-2.05
274.503	71.68
274.719	71.68
274.934	53.25
275.15	-63.49
275.366	-47.1
275.581	6.14
275.797	8.19
276.012	10.24
276.228	-8.19
276.444	-18.43
276.659	10.24
276.875	-16.38
277.09	18.43
277.306	-43.01
277.521	40.96
277.737	57.34
277.952	43.01
278.168	0
278.383	59.39
278.599	51.2
278.814	-6.14
279.03	63.49
279.245	108.54
279.461	49.15
279.676	-22.53
279.892	28.67
280.107	49.15
280.322	26.62
280.538	-34.82
280.753	57.34
280.969	43.01
281.184	47.1
281.399	98.3
281.615	26.62
281.83	57.34
282.045	-6.14
282.26	16.38
282.476	45.06
282.691	24.58
282.906	67.58
283.122	59.39
283.337	18.43
283.552	36.86
283.767	40.96
283.983	49.15
284.198	-6.14
284.413	26.62
284.628	-104.45
284.843	2.05
285.058	10.24
285.274	51.2
285.489	6.14
285.704	43.01
285.919	59.39
286.134	18.43
286.349	-8.19
286.564	83.97
286.779	40.96
286.995	-96.25
287.21	-10.24
287.425	120.83
287.64	43.01
287.855	59.39
288.07	-20.48
288.285	77.82
288.5	-49.15
288.715	26.62
288.93	55.3
289.145	40.96
289.36	18.43
289.575	34.82
289.79	24.58
290.004	8.19
290.219	18.43
290.434	34.82
290.649	10.24
290.864	-6.14
291.079	38.91
291.294	81.92
291.509	-38.91
291.724	55.3
291.938	-34.82
292.153	-14.34
292.368	34.82
292.583	26.62
292.798	63.49
293.012	0
293.227	18.43
293.442	-14.34
293.657	90.11
293.871	88.06
294.086	26.62
294.301	49.15
294.516	51.2
294.73	-16.38
294.945	-34.82
295.16	-2.05
295.374	34.82
295.589	2.05
295.804	-6.14
296.018	57.34
296.233	129.02
296.447	83.97
296.662	57.34
296.877	45.06
297.091	73.73
297.306	-2.05
297.52	34.82
297.735	-20.48
297.949	10.24
298.164	38.91
298.378	20.48
298.593	-22.53
298.807	67.58
299.022	24.58
299.236	-18.43
299.451	40.96
299.665	14.34
299.88	88.06
300.094	-8.19
300.309	-8.19
300.523	8.19
300.737	32.77
300.952	61.44
301.166	53.25
301.381	-59.39
301.595	-49.15
301.809	-10.24
302.024	-4.1
302.238	-16.38
302.452	77.82
302.667	18.43
302.881	34.82
303.095	94.21
303.309	30.72
303.524	28.67
303.738	-16.38
303.952	-30.72
304.166	57.34
304.381	-34.82
304.595	30.72
304.809	0
305.023	61.44
305.237	-22.53
305.452	-8.19
305.666	43.01
305.88	59.39
306.094	53.25
306.308	139.26
306.522	34.82
306.736	38.91
306.95	51.2
307.164	0
307.379	59.39
307.593	63.49
307.807	59.39
308.021	53.25
308.235	86.01
308.449	36.86
308.663	26.62
308.877	122.88
309.091	10.24
309.305	8.19
309.519	-59.39
309.733	51.2
309.947	-38.91
310.161	-4.1
310.374	10.24
310.588	98.3
310.802	-65.53
311.016	71.68
311.23	34.82
311.444	-73.73
311.658	10.24
311.872	104.45
312.085	81.92
312.299	53.25
312.513	90.11
312.727	43.01
312.941	-55.3
313.154	-10.24
313.368	2.05
313.582	43.01
313.796	65.54
314.009	67.58
314.223	67.58
314.437	63.49
314.651	79.87
314.864	8.19
315.078	26.62
315.292	14.34
315.505	-71.68
315.719	22.53
315.933	110.59
316.146	-12.29
316.36	-61.44
316.573	135.17
316.787	24.58
317.001	30.72
317.214	0
317.428	22.53
317.641	32.77
317.855	43.01
318.068	10.24
318.282	38.91
318.495	71.68
318.709	61.44
318.922	40.96
319.136	81.92
319.349	43.01
319.563	38.91
319.776	34.82
319.99	-6.14
320.203	0
320.417	59.39
320.63	-16.38
320.843	79.87
321.057	-8.19
321.27	92.16
321.483	67.58
321.697	65.54
321.91	55.3
322.124	34.82
322.337	34.82
322.55	10.24
322.763	49.15
322.977	-14.34
323.19	-30.72
323.403	36.86
323.617	106.49
323.83	30.72
324.043	-45.06
324.256	30.72
324.469	14.34
324.683	36.86
324.896	6.14
325.109	-22.53
325.322	30.72
325.535	75.77
325.748	26.62
325.962	26.62
326.175	65.54
326.388	71.68
326.601	59.39
326.814	24.58
327.027	40.96
327.24	55.3
327.453	-43.01
327.666	108.54
327.879	43.01
328.092	24.58
328.305	16.38
328.518	-12.29
328.731	-32.77
328.944	53.25
329.157	40.96
329.37	30.72
329.583	67.58
329.796	88.06
330.009	-59.39
330.222	32.77
330.435	77.82
330.648	94.21
330.861	-18.43
331.073	2.05
331.286	79.87
331.499	40.96
331.712	47.1
331.925	8.19
332.138	18.43
332.35	49.15
332.563	34.82
332.776	57.34
332.989	16.38
333.202	-14.34
333.414	-30.72
333.627	55.3
333.84	24.58
334.053	81.92
334.265	-26.62
334.478	49.15
334.691	28.67
334.903	43.01
335.116	-6.14
335.329	32.77
335.541	43.01
335.754	133.12
335.966	16.38
336.179	73.73
336.392	26.62
336.604	-20.48
336.817	40.96
337.029	122.88
337.242	81.92
337.454	61.44
337.667	92.16
337.88	92.16
338.092	40.96
338.305	83.97
338.517	-10.24
338.729	43.01
338.942	137.21
339.154	-63.49
339.367	-55.3
339.579	16.38
339.792	-24.58
340.004	102.4
340.217	10.24
340.429	30.72
340.641	-22.53
340.854	-59.39
341.066	-57.34
341.278	75.77
341.491	47.1
341.703	16.38
341.915	-14.34
342.128	59.39
342.34	-26.62
342.552	32.77
342.764	81.92
342.977	63.49
343.189	53.25
343.401	67.58
343.613	-40.96
343.826	30.72
344.038	10.24
344.25	55.3
344.462	-57.34
344.674	40.96
344.886	38.91
345.099	-12.29
345.311	96.25
345.523	-36.86
345.735	-36.86
345.947	-16.38
346.159	104.45
346.371	83.97
346.583	40.96
346.795	90.11
347.007	20.48
347.219	22.53
347.431	-75.77
347.643	100.35
347.855	83.97
348.067	83.97
348.279	-30.72
348.491	45.06
348.703	34.82
348.915	-10.24
349.127	-28.67
349.339	30.72
349.551	-30.72
349.763	96.25
349.975	8.19
350.187	129.02
350.399	53.25
350.61	6.14
350.822	83.97
351.034	43.01
351.246	43.01
351.458	71.68
351.669	-10.24
351.881	88.06
352.093	143.36
352.305	94.21
352.517	32.77
352.728	92.16
352.94	36.86
353.152	65.54
353.363	30.72
353.575	59.39
353.787	79.87
353.999	26.62
354.21	55.3
354.422	28.67
354.633	14.34
354.845	71.68
355.057	6.14
355.268	116.73
355.48	47.1
355.692	69.63
355.903	-12.29
356.115	51.2
356.326	43.01
356.538	69.63
356.749	120.83
356.961	108.54
357.172	30.72
357.384	81.92
357.595	139.26
357.807	26.62
358.018	40.96
358.23	81.92
358.441	153.6
358.653	120.83
358.864	90.11
359.075	59.39
359.287	53.25
359.498	-43.01
359.709	94.21
359.921	77.82
360.132	-16.38
360.344	-30.72
360.555	67.58
360.766	32.77
360.977	75.77
361.189	75.77
361.4	18.43
361.611	0
361.823	120.83
362.034	10.24
362.245	65.54
362.456	65.54
362.667	90.11
362.879	26.62
363.09	131.07
363.301	55.3
363.512	14.34
363.723	12.29
363.935	32.77
364.146	40.96
364.357	14.34
364.568	32.77
364.779	-30.72
364.99	92.16
365.201	10.24
365.412	90.11
365.623	-40.96
365.834	24.58
366.045	2.05
366.256	2.05
366.467	38.91
366.678	63.49
366.889	38.91
367.1	-10.24
367.311	57.34
367.522	49.15
367.733	67.58
367.944	40.96
368.155	14.34
368.366	47.1
368.577	-43.01
368.788	4.1
368.999	-8.19
369.209	-10.24
369.42	157.69
369.631	104.45
369.842	36.86
370.053	-14.34
370.264	79.87
370.474	67.58
370.685	36.86
370.896	88.06
371.107	-2.05
371.317	75.77
371.528	0
371.739	131.07
371.95	73.73
372.16	65.54
372.371	-40.96
372.582	30.72
372.792	53.25
373.003	118.78
373.214	14.34
373.424	2.05
373.635	6.14
373.846	135.17
374.056	-6.14
374.267	59.39
374.477	98.3
374.688	-10.24
374.898	55.3
375.109	6.14
375.319	96.25
375.53	47.1
375.74	81.92
375.951	47.1
376.161	67.58
376.372	65.54
376.582	18.43
376.793	77.82
377.003	24.58
377.214	51.2
377.424	96.25
377.635	96.25
377.845	-8.19
378.055	43.01
378.266	38.91
378.476	83.97
378.686	34.82
378.897	73.73
379.107	26.62
379.317	-4.1
379.528	18.43
379.738	100.35
379.948	18.43
380.158	79.87
380.369	32.77
380.579	24.58
380.789	14.34
380.999	75.77
381.21	-43.01
381.42	120.83
381.63	92.16
381.84	38.91
382.05	59.39
382.261	131.07
382.471	108.54
382.681	12.29
382.891	126.97
383.101	32.77
383.311	10.24
383.521	26.62
383.731	47.1
383.941	63.49
384.151	26.62
384.361	16.38
384.571	75.77
384.781	32.77
384.991	133.12
385.201	59.39
385.411	75.77
385.621	-14.34
385.831	-10.24
386.041	88.06
386.251	18.43
386.461	61.44
386.671	-47.1
386.881	73.73
387.091	10.24
387.301	92.16
387.511	96.25
387.72	-10.24
387.93	49.15
388.14	71.68
388.35	71.68
388.56	96.25
388.769	143.36
388.979	90.11
389.189	34.82
389.399	98.3
389.609	110.59
389.818	-6.14
390.028	98.3
390.238	98.3
390.447	22.53
390.657	114.69
390.867	53.25
391.076	67.58
391.286	124.93
391.496	-12.29
391.705	2.05
391.915	104.45
392.125	131.07
392.334	92.16
392.544	79.87
392.753	32.77
392.963	-2.05
393.172	40.96
393.382	51.2
393.591	73.73
393.801	96.25
394.01	100.35
394.22	36.86
394.429	59.39
394.639	63.49
394.848	49.15
395.058	67.58
395.267	149.5
395.477	96.25
395.686	26.62
395.895	98.3
396.105	88.06
396.314	116.73
396.524	18.43
396.733	51.2
396.942	116.73
397.152	51.2
397.361	75.77
397.57	43.01
397.78	63.49
397.989	75.77
398.198	231.42
398.407	57.34
398.617	172.03
398.826	174.08
399.035	81.92
399.244	137.21
399.453	59.39
399.663	108.54
399.872	63.49
400.081	71.68
400.29	114.69
400.499	83.97
400.708	139.26
400.917	122.88
401.127	75.77
401.336	145.41
401.545	198.65
401.754	143.36
401.963	141.31
402.172	26.62
402.381	98.3
402.59	139.26
402.799	88.06
403.008	57.34
403.217	75.77
403.426	36.86
403.635	94.21
403.844	110.59
404.053	45.06
404.262	90.11
404.471	172.03
404.68	133.12
404.888	122.88
405.097	114.69
405.306	143.36
405.515	145.41
405.724	124.93
405.933	155.65
406.142	165.89
406.35	174.08
406.559	163.84
406.768	190.46
406.977	227.32
407.185	180.22
407.394	219.13
407.603	143.36
407.812	196.61
408.02	272.38
408.229	163.84
408.438	256
408.646	169.98
408.855	159.74
409.064	247.8
409.272	262.14
409.481	247.8
409.69	272.38
409.898	139.26
410.107	305.15
410.315	296.96
410.524	231.42
410.733	419.83
410.941	315.39
411.15	321.53
411.358	247.8
411.567	362.49
411.775	331.77
411.984	342.01
412.192	348.15
412.401	395.26
412.609	446.46
412.818	382.97
413.026	419.83
413.234	419.83
413.443	468.98
413.651	501.75
413.86	438.27
414.068	571.38
414.276	542.71
414.485	499.7
414.693	561.14
414.901	661.49
415.11	575.48
415.318	618.49
415.526	595.96
415.734	663.54
415.943	663.54
416.151	702.45
416.359	780.28
416.567	823.28
416.776	747.51
416.984	839.67
417.192	894.96
417.4	915.44
417.608	823.28
417.817	849.91
418.025	952.31
418.233	1007.6
418.441	903.15
418.649	962.55
418.857	1044.46
419.065	1189.87
419.273	1048.56
419.481	1202.16
419.689	1239.02
419.897	1316.84
420.105	1206.25
420.313	1353.71
420.521	1298.41
420.729	1372.14
420.937	1390.57
421.145	1464.3
421.353	1501.16
421.561	1593.32
421.769	1652.71
421.977	1650.66
422.185	1726.44
422.393	1757.16
422.601	1931.23
422.809	1828.84
423.017	1943.52
423.224	2037.73
423.432	2060.26
423.64	2074.59
423.848	2283.49
424.056	2228.19
424.263	2359.26
424.471	2400.22
424.679	2459.61
424.887	2527.19
425.094	2627.54
425.302	2717.65
425.51	2775
425.718	2869.2
425.925	2928.6
426.133	3063.76
426.341	3186.64
426.548	3241.93
426.756	3246.03
426.964	3409.87
427.171	3581.9
427.379	3712.97
427.586	3635.14
427.794	3825.61
428.001	3966.92
428.209	4077.51
428.417	4073.41
428.624	4290.49
428.832	4378.56
429.039	4378.56
429.247	4321.21
429.454	4726.71
429.662	5023.67
429.869	4892.6
430.076	5064.63
430.284	5097.39
430.491	5244.85
430.699	5466.03
430.906	5433.26
431.114	5431.21
431.321	5674.92
431.528	5939.11
431.736	6145.95
431.943	6709.15
432.15	6307.74
432.358	6334.37
432.565	6709.15
432.772	6614.94
432.979	7004.05
433.187	7167.89
433.394	7278.48
433.601	7626.64
433.808	7849.86
434.016	7862.15
434.223	8034.18
434.43	8411.01
434.637	8114.05
434.844	8861.56
435.052	8935.29
435.259	8830.84
435.466	9074.55
435.673	8841.08
435.88	9643.88
436.087	10178.4
436.294	10149.73
436.501	9723.76
436.708	10026.85
436.915	10372.96
437.122	10749.79
437.329	10714.97
437.537	11272.02
437.743	11138.9
437.95	11190.1
438.157	11865.93
438.364	12066.63
438.571	12195.65
438.778	12271.43
438.985	13344.56
439.192	12834.62
439.399	13354.8
439.606	12996.41
439.813	13549.36
440.02	14632.74
440.227	14378.79
440.433	14305.06
440.64	14538.53
440.847	14683.94
441.054	14907.16
441.261	15742.74
441.467	15603.47
441.674	15841.04
441.881	16553.73
442.088	16277.26
442.294	16357.13
442.501	16787.2
442.708	16893.69
442.914	17841.9
443.121	18429.67
443.328	18179.82
443.534	19402.46
443.741	18767.59
443.948	18345.7
444.154	19988.17
444.361	19662.55
444.568	20051.66
444.774	20000.46
444.981	20078.29
445.187	20569.8
445.394	21313.21
445.6	21425.85
445.807	23281.31
446.013	22322.86
446.22	22714.02
446.426	23764.63
446.633	23885.46
446.839	24784.52
447.046	23819.92
447.252	24891.01
447.459	24622.73
447.665	24757.89
447.871	26451.56
448.078	27127.39
448.284	25822.84
448.491	26300.01
448.697	27569.76
448.903	27883.09
449.11	28268.11
449.316	27616.86
449.522	28249.68
449.728	28886.6
449.935	29044.29
450.141	29120.07
450.347	29748.79
450.553	28878.41
450.76	28948.04
450.966	29756.99
451.172	29634.11
451.378	30361.14
451.584	30099
451.791	30594.61
451.997	30639.66
452.203	30813.74
452.409	30957.1
452.615	30594.61
452.821	29718.07
453.027	29333.06
453.233	30438.96
453.44	29410.88
453.646	29709.88
453.852	30254.64
454.058	30649.9
454.264	29476.41
454.47	30103.09
454.676	29511.23
454.882	30637.61
455.088	27653.72
455.294	28683.85
455.5	28569.16
455.705	29275.71
455.911	27586.14
456.117	27313.76
456.323	26625.64
456.529	25214.59
456.735	26396.27
456.941	25935.48
457.147	25470.59
457.352	24618.63
457.558	24080.02
457.764	24317.58
457.97	24088.21
458.176	23453.34
458.381	23428.76
458.587	22290.09
458.793	22273.71
458.999	20825.79
459.204	22460.07
459.41	21853.87
459.616	20567.75
459.821	20606.66
460.027	20477.64
460.233	20137.68
460.438	19009.25
460.644	18925.28
460.85	18394.86
461.055	17833.71
461.261	17757.94
461.466	16676.61
461.672	16238.34
461.878	17213.18
462.083	16211.72
462.289	15894.29
462.494	15884.05
462.7	15208.22
462.905	14599.97
463.111	15017.75
463.316	15154.97
463.522	14835.49
463.727	14980.89
463.932	14784.29
464.138	14528.29
464.343	14704.42
464.549	14268.2
464.754	14804.77
464.959	14563.11
465.165	14413.6
465.37	13680.43
465.575	13662
465.781	14350.12
465.986	14247.72
466.191	13737.77
466.397	13328.18
466.602	12717.89
466.807	13346.61
467.012	13322.04
467.218	12977.98
467.423	13033.27
