Data from USB4F104151__97__11-32-15-301.txt Node

Date: Fri Mar 14 11:32:15 EDT 2025
User: louis
Spectrometer: USB4F10415
Trigger mode: 4
Integration Time (sec): 5.000000E-2
Scans to average: 1
Electric dark correction enabled: true
Nonlinearity correction enabled: false
Boxcar width: 0
XAxis mode: Wavelengths
Number of Pixels in Spectrum: 3648
>>>>>Begin Spectral Data<<<<<
178.204	-182.61
178.424	-182.61
178.644	-182.61
178.864	-153.94
179.084	-207.19
179.304	-14.68
179.524	-0.34
179.744	18.09
179.964	54.95
180.184	-45.4
180.404	11.95
180.624	-6.49
180.844	-16.73
181.064	-12.63
181.283	-18.77
181.503	-22.87
181.723	52.91
181.943	-92.5
182.163	91.82
182.383	-78.16
182.602	20.14
182.822	44.71
183.042	5.8
183.262	-45.4
183.482	-72.02
183.701	34.47
183.921	-39.25
184.141	-86.36
184.361	26.28
184.58	20.14
184.8	-35.16
185.02	-47.44
185.239	40.62
185.459	22.19
185.679	95.91
185.898	-94.55
186.118	44.71
186.338	63.15
186.557	-18.77
186.777	26.28
186.997	-16.73
187.216	-37.2
187.436	71.34
187.655	-14.68
187.875	20.14
188.095	-82.26
188.314	54.95
188.534	67.24
188.753	-39.25
188.973	59.05
189.192	89.77
189.412	-26.96
189.631	52.91
189.851	110.25
190.07	93.87
190.29	-20.82
190.509	38.57
190.729	1.71
190.948	-20.82
191.168	128.68
191.387	26.28
191.607	-35.16
191.826	30.38
192.045	-39.25
192.265	46.76
192.484	-10.58
192.704	-61.78
192.923	-14.68
193.142	44.71
193.362	5.8
193.581	-0.34
193.8	85.67
194.02	-10.58
194.239	-16.73
194.458	22.19
194.678	22.19
194.897	34.47
195.116	-76.12
195.335	42.67
195.555	18.09
195.774	28.33
195.993	102.06
196.212	-16.73
196.432	-4.44
196.651	32.43
196.87	20.14
197.089	81.58
197.308	1.71
197.528	11.95
197.747	-43.35
197.966	32.43
198.185	38.57
198.404	-4.44
198.623	-26.96
198.842	61.1
199.062	57
199.281	42.67
199.5	34.47
199.719	71.34
199.938	44.71
200.157	46.76
200.376	-39.25
200.595	-14.68
200.814	95.91
201.033	9.9
201.252	57
201.471	26.28
201.69	69.29
201.909	52.91
202.128	52.91
202.347	16.04
202.566	-37.2
202.785	-37.2
203.004	-35.16
203.223	91.82
203.442	59.05
203.661	-53.59
203.879	38.57
204.098	13.99
204.317	-43.35
204.536	38.57
204.755	-26.96
204.974	26.28
205.193	-20.82
205.411	36.52
205.63	-35.16
205.849	-12.63
206.068	-6.49
206.287	46.76
206.505	-2.39
206.724	42.67
206.943	-0.34
207.162	36.52
207.381	-10.58
207.599	28.33
207.818	-72.02
208.037	-2.39
208.255	-31.06
208.474	38.57
208.693	38.57
208.911	28.33
209.13	42.67
209.349	-26.96
209.567	-18.77
209.786	116.39
210.005	46.76
210.223	-35.16
210.442	-10.58
210.661	-14.68
210.879	22.19
211.098	-110.93
211.316	-31.06
211.535	63.15
211.753	-12.63
211.972	-31.06
212.191	-20.82
212.409	-33.11
212.628	30.38
212.846	-6.49
213.065	38.57
213.283	34.47
213.502	11.95
213.72	-12.63
213.938	-18.77
214.157	16.04
214.375	-12.63
214.594	5.8
214.812	-31.06
215.031	-33.11
215.249	26.28
215.467	36.52
215.686	-31.06
215.904	50.86
216.122	-20.82
216.341	44.71
216.559	-6.49
216.778	83.63
216.996	18.09
217.214	-45.4
217.432	3.75
217.651	-29.01
217.869	-10.58
218.087	26.28
218.306	7.85
218.524	54.95
218.742	22.19
218.96	5.8
219.179	20.14
219.397	-35.16
219.615	46.76
219.833	77.48
220.051	-26.96
220.27	71.34
220.488	7.85
220.706	36.52
220.924	42.67
221.142	-37.2
221.36	40.62
221.578	38.57
221.796	42.67
222.015	30.38
222.233	-47.44
222.451	30.38
222.669	9.9
222.887	20.14
223.105	-86.36
223.323	40.62
223.541	-69.97
223.759	30.38
223.977	7.85
224.195	1.71
224.413	57
224.631	30.38
224.849	22.19
225.067	50.86
225.285	-72.02
225.503	-18.77
225.721	-43.35
225.939	-0.34
226.157	-26.96
226.375	140.97
226.592	-4.44
226.81	3.75
227.028	-29.01
227.246	120.49
227.464	-12.63
227.682	32.43
227.9	30.38
228.117	-29.01
228.335	104.11
228.553	-6.49
228.771	32.43
228.989	20.14
229.206	-4.44
229.424	-10.58
229.642	-10.58
229.86	-55.64
230.077	112.3
230.295	-12.63
230.513	79.53
230.731	16.04
230.948	71.34
231.166	13.99
231.384	-39.25
231.601	42.67
231.819	34.47
232.037	-14.68
232.254	-55.64
232.472	18.09
232.689	44.71
232.907	54.95
233.125	-94.55
233.342	-6.49
233.56	69.29
233.777	-67.92
233.995	-14.68
234.213	13.99
234.43	42.67
234.648	-26.96
234.865	28.33
235.083	9.9
235.3	-8.53
235.518	22.19
235.735	59.05
235.953	36.52
236.17	13.99
236.388	-10.58
236.605	7.85
236.822	44.71
237.04	30.38
237.257	-29.01
237.475	1.71
237.692	7.85
237.909	44.71
238.127	-6.49
238.344	11.95
238.562	75.43
238.779	-51.54
238.996	-41.3
239.214	-45.4
239.431	83.63
239.648	11.95
239.865	-14.68
240.083	22.19
240.3	46.76
240.517	18.09
240.735	9.9
240.952	9.9
241.169	34.47
241.386	11.95
241.603	-16.73
241.821	-33.11
242.038	-49.49
242.255	42.67
242.472	-24.92
242.689	54.95
242.907	61.1
243.124	-4.44
243.341	-4.44
243.558	13.99
243.775	-4.44
243.992	-24.92
244.209	-37.2
244.426	61.1
244.643	34.47
244.86	18.09
245.078	-2.39
245.295	-45.4
245.512	-2.39
245.729	-12.63
245.946	40.62
246.163	-12.63
246.38	22.19
246.597	-12.63
246.814	-35.16
247.031	3.75
247.248	22.19
247.464	-35.16
247.681	9.9
247.898	59.05
248.115	42.67
248.332	-49.49
248.549	91.82
248.766	30.38
248.983	42.67
249.2	26.28
249.417	52.91
249.633	3.75
249.85	-59.73
250.067	54.95
250.284	-31.06
250.501	22.19
250.717	-6.49
250.934	-69.97
251.151	-45.4
251.368	26.28
251.585	-18.77
251.801	-53.59
252.018	-67.92
252.235	1.71
252.451	11.95
252.668	-39.25
252.885	-45.4
253.102	-39.25
253.318	-4.44
253.535	-14.68
253.752	-82.26
253.968	42.67
254.185	-133.46
254.401	-4.44
254.618	91.82
254.835	-35.16
255.051	73.39
255.268	-31.06
255.484	-29.01
255.701	20.14
255.917	81.58
256.134	-18.77
256.351	-55.64
256.567	-53.59
256.784	24.23
257	-47.44
257.217	48.81
257.433	61.1
257.65	44.71
257.866	22.19
258.082	26.28
258.299	30.38
258.515	73.39
258.732	83.63
258.948	-8.53
259.165	1.71
259.381	-63.83
259.597	71.34
259.814	-2.39
260.03	-51.54
260.246	-26.96
260.463	18.09
260.679	-10.58
260.895	95.91
261.112	77.48
261.328	-45.4
261.544	-100.69
261.761	52.91
261.977	-100.69
262.193	-88.4
262.409	54.95
262.626	91.82
262.842	-20.82
263.058	22.19
263.274	34.47
263.49	22.19
263.707	36.52
263.923	-10.58
264.139	-18.77
264.355	-14.68
264.571	59.05
264.787	3.75
265.004	3.75
265.22	13.99
265.436	-35.16
265.652	-26.96
265.868	-26.96
266.084	-26.96
266.3	-12.63
266.516	-8.53
266.732	30.38
266.948	85.67
267.164	-39.25
267.38	65.19
267.596	-12.63
267.812	87.72
268.028	71.34
268.244	-14.68
268.46	-29.01
268.676	-10.58
268.892	20.14
269.108	-33.11
269.324	3.75
269.54	-2.39
269.756	-10.58
269.972	36.52
270.188	-22.87
270.403	-10.58
270.619	-18.77
270.835	52.91
271.051	-37.2
271.267	-2.39
271.483	38.57
271.698	-10.58
271.914	-2.39
272.13	1.71
272.346	67.24
272.562	13.99
272.777	61.1
272.993	32.43
273.209	46.76
273.425	-6.49
273.64	-80.21
273.856	5.8
274.072	75.43
274.287	-35.16
274.503	26.28
274.719	71.34
274.934	-90.45
275.15	-82.26
275.366	38.57
275.581	-69.97
275.797	-20.82
276.012	-43.35
276.228	9.9
276.444	-0.34
276.659	46.76
276.875	-51.54
277.09	9.9
277.306	-106.84
277.521	42.67
277.737	-16.73
277.952	59.05
278.168	52.91
278.383	1.71
278.599	-4.44
278.814	26.28
279.03	-14.68
279.245	57
279.461	-39.25
279.676	1.71
279.892	-47.44
280.107	30.38
280.322	52.91
280.538	83.63
280.753	-37.2
280.969	-8.53
281.184	16.04
281.399	52.91
281.615	-35.16
281.83	42.67
282.045	-6.49
282.26	85.67
282.476	13.99
282.691	42.67
282.906	-10.58
283.122	-45.4
283.337	-2.39
283.552	71.34
283.767	-2.39
283.983	28.33
284.198	-10.58
284.413	75.43
284.628	-4.44
284.843	61.1
285.058	18.09
285.274	-37.2
285.489	-43.35
285.704	36.52
285.919	7.85
286.134	-63.83
286.349	91.82
286.564	-26.96
286.779	44.71
286.995	52.91
287.21	-6.49
287.425	-6.49
287.64	-26.96
287.855	7.85
288.07	-80.21
288.285	11.95
288.5	46.76
288.715	13.99
288.93	-49.49
289.145	61.1
289.36	-14.68
289.575	38.57
289.79	3.75
290.004	3.75
290.219	34.47
290.434	50.86
290.649	26.28
290.864	26.28
291.079	79.53
291.294	-2.39
291.509	13.99
291.724	91.82
291.938	-26.96
292.153	36.52
292.368	44.71
292.583	-12.63
292.798	5.8
293.012	24.23
293.227	11.95
293.442	30.38
293.657	5.8
293.871	69.29
294.086	83.63
294.301	110.25
294.516	3.75
294.73	40.62
294.945	-35.16
295.16	24.23
295.374	9.9
295.589	67.24
295.804	-10.58
296.018	1.71
296.233	-10.58
296.447	3.75
296.662	9.9
296.877	9.9
297.091	46.76
297.306	-49.49
297.52	44.71
297.735	32.43
297.949	95.91
298.164	-18.77
298.378	32.43
298.593	13.99
298.807	5.8
299.022	13.99
299.236	-14.68
299.451	18.09
299.665	22.19
299.88	16.04
300.094	-43.35
300.309	-29.01
300.523	-29.01
300.737	7.85
300.952	3.75
301.166	71.34
301.381	-16.73
301.595	-6.49
301.809	-2.39
302.024	-4.44
302.238	-4.44
302.452	97.96
302.667	24.23
302.881	48.81
303.095	38.57
303.309	-10.58
303.524	63.15
303.738	-0.34
303.952	38.57
304.166	26.28
304.381	-29.01
304.595	-45.4
304.809	-69.97
305.023	-55.64
305.237	32.43
305.452	5.8
305.666	11.95
305.88	1.71
306.094	108.2
306.308	5.8
306.522	36.52
306.736	5.8
306.95	71.34
307.164	20.14
307.379	-2.39
307.593	57
307.807	5.8
308.021	38.57
308.235	48.81
308.449	52.91
308.663	-20.82
308.877	57
309.091	-8.53
309.305	95.91
309.519	-123.22
309.733	30.38
309.947	-106.84
310.161	18.09
310.374	48.81
310.588	69.29
310.802	-31.06
311.016	9.9
311.23	18.09
311.444	-16.73
311.658	20.14
311.872	59.05
312.085	63.15
312.299	24.23
312.513	104.11
312.727	22.19
312.941	13.99
313.154	28.33
313.368	11.95
313.582	-14.68
313.796	-57.68
314.009	20.14
314.223	3.75
314.437	-59.73
314.651	-6.49
314.864	42.67
315.078	-67.92
315.292	-2.39
315.505	-45.4
315.719	48.81
315.933	-61.78
316.146	93.87
316.36	-18.77
316.573	57
316.787	44.71
317.001	59.05
317.214	-35.16
317.428	48.81
317.641	-65.88
317.855	91.82
318.068	-41.3
318.282	59.05
318.495	112.3
318.709	79.53
318.922	-2.39
319.136	13.99
319.349	16.04
319.563	1.71
319.776	22.19
319.99	-29.01
320.203	81.58
320.417	67.24
320.63	89.77
320.843	24.23
321.057	30.38
321.27	-37.2
321.483	-6.49
321.697	91.82
321.91	26.28
322.124	24.23
322.337	42.67
322.55	-31.06
322.763	-39.25
322.977	-6.49
323.19	-10.58
323.403	32.43
323.617	-10.58
323.83	22.19
324.043	42.67
324.256	30.38
324.469	-20.82
324.683	36.52
324.896	-35.16
325.109	13.99
325.322	-39.25
325.535	-6.49
325.748	18.09
325.962	-53.59
326.175	57
326.388	18.09
326.601	54.95
326.814	13.99
327.027	24.23
327.24	79.53
327.453	42.67
327.666	52.91
327.879	13.99
328.092	38.57
328.305	73.39
328.518	-41.3
328.731	-31.06
328.944	30.38
329.157	5.8
329.37	5.8
329.583	-2.39
329.796	63.15
330.009	-18.77
330.222	13.99
330.435	44.71
330.648	22.19
330.861	13.99
331.073	-57.68
331.286	24.23
331.499	22.19
331.712	-78.16
331.925	-108.88
332.138	-29.01
332.35	85.67
332.563	3.75
332.776	20.14
332.989	-63.83
333.202	-14.68
333.414	-12.63
333.627	5.8
333.84	-20.82
334.053	26.28
334.265	-26.96
334.478	13.99
334.691	-69.97
334.903	-2.39
335.116	-2.39
335.329	3.75
335.541	-10.58
335.754	145.06
335.966	54.95
336.179	-24.92
336.392	-18.77
336.604	81.58
336.817	54.95
337.029	22.19
337.242	36.52
337.454	59.05
337.667	-33.11
337.88	100.01
338.092	52.91
338.305	-6.49
338.517	-4.44
338.729	71.34
338.942	59.05
339.154	-16.73
339.367	-45.4
339.579	-37.2
339.792	-22.87
340.004	26.28
340.217	-20.82
340.429	-20.82
340.641	-29.01
340.854	13.99
341.066	-55.64
341.278	44.71
341.491	54.95
341.703	20.14
341.915	1.71
342.128	7.85
342.34	77.48
342.552	-6.49
342.764	-10.58
342.977	132.78
343.189	36.52
343.401	-18.77
343.613	-33.11
343.826	44.71
344.038	-84.31
344.25	38.57
344.462	-10.58
344.674	59.05
344.886	-22.87
345.099	42.67
345.311	42.67
345.523	18.09
345.735	-67.92
345.947	22.19
346.159	7.85
346.371	30.38
346.583	-2.39
346.795	69.29
347.007	20.14
347.219	5.8
347.431	-4.44
347.643	42.67
347.855	-29.01
348.067	97.96
348.279	-20.82
348.491	38.57
348.703	-16.73
348.915	16.04
349.127	1.71
349.339	79.53
349.551	7.85
349.763	54.95
349.975	-18.77
350.187	42.67
350.399	48.81
350.61	-74.07
350.822	-10.58
351.034	-4.44
351.246	50.86
351.458	34.47
351.669	13.99
351.881	69.29
352.093	34.47
352.305	87.72
352.517	22.19
352.728	46.76
352.94	13.99
353.152	1.71
353.363	42.67
353.575	77.48
353.787	61.1
353.999	46.76
354.21	110.25
354.422	-39.25
354.633	67.24
354.845	-35.16
355.057	38.57
355.268	13.99
355.48	46.76
355.692	5.8
355.903	-6.49
356.115	-12.63
356.326	-55.64
356.538	63.15
356.749	71.34
356.961	73.39
357.172	-65.88
357.384	28.33
357.595	102.06
357.807	-22.87
358.018	-41.3
358.23	-12.63
358.441	75.43
358.653	11.95
358.864	-59.73
359.075	-14.68
359.287	3.75
359.498	44.71
359.709	18.09
359.921	28.33
360.132	-29.01
360.344	52.91
360.555	32.43
360.766	44.71
360.977	32.43
361.189	71.34
361.4	42.67
361.611	57
361.823	83.63
362.034	83.63
362.245	-41.3
362.456	-43.35
362.667	75.43
362.879	34.47
363.09	26.28
363.301	93.87
363.512	75.43
363.723	54.95
363.935	-2.39
364.146	34.47
364.357	16.04
364.568	28.33
364.779	-29.01
364.99	30.38
365.201	-2.39
365.412	28.33
365.623	-10.58
365.834	11.95
366.045	-2.39
366.256	48.81
366.467	77.48
366.678	-10.58
366.889	13.99
367.1	36.52
367.311	69.29
367.522	5.8
367.733	13.99
367.944	102.06
368.155	20.14
368.366	-24.92
368.577	134.82
368.788	136.87
368.999	-35.16
369.209	26.28
369.42	81.58
369.631	71.34
369.842	42.67
370.053	-24.92
370.264	59.05
370.474	-14.68
370.685	-53.59
370.896	20.14
371.107	3.75
371.317	9.9
371.528	26.28
371.739	7.85
371.95	-18.77
372.16	46.76
372.371	24.23
372.582	1.71
372.792	7.85
373.003	-20.82
373.214	32.43
373.424	-2.39
373.635	11.95
373.846	-20.82
374.056	-43.35
374.267	46.76
374.477	26.28
374.688	1.71
374.898	30.38
375.109	46.76
375.319	16.04
375.53	85.67
375.74	5.8
375.951	22.19
376.161	-4.44
376.372	-0.34
376.582	-35.16
376.793	-8.53
377.003	-22.87
377.214	-37.2
377.424	87.72
377.635	106.15
377.845	-12.63
378.055	59.05
378.266	-2.39
378.476	18.09
378.686	73.39
378.897	57
379.107	36.52
379.317	30.38
379.528	34.47
379.738	26.28
379.948	-53.59
380.158	26.28
380.369	-29.01
380.579	11.95
380.789	-2.39
380.999	-22.87
381.21	-24.92
381.42	71.34
381.63	30.38
381.84	75.43
382.05	30.38
382.261	54.95
382.471	77.48
382.681	-55.64
382.891	5.8
383.101	13.99
383.311	-22.87
383.521	-6.49
383.731	79.53
383.941	95.91
384.151	22.19
384.361	59.05
384.571	18.09
384.781	59.05
384.991	71.34
385.201	38.57
385.411	-26.96
385.621	67.24
385.831	5.8
386.041	48.81
386.251	61.1
386.461	61.1
386.671	-2.39
386.881	18.09
387.091	36.52
387.301	130.73
387.511	-20.82
387.72	18.09
387.93	32.43
388.14	-16.73
388.35	-39.25
388.56	26.28
388.769	132.78
388.979	20.14
389.189	18.09
389.399	42.67
389.609	38.57
389.818	42.67
390.028	22.19
390.238	44.71
390.447	-24.92
390.657	61.1
390.867	46.76
391.076	102.06
391.286	44.71
391.496	75.43
391.705	59.05
391.915	171.69
392.125	63.15
392.334	46.76
392.544	81.58
392.753	83.63
392.963	-26.96
393.172	69.29
393.382	26.28
393.591	63.15
393.801	30.38
394.01	102.06
394.22	38.57
394.429	52.91
394.639	16.04
394.848	22.19
395.058	42.67
395.267	28.33
395.477	79.53
395.686	11.95
395.895	167.59
396.105	79.53
396.314	54.95
396.524	-4.44
396.733	9.9
396.942	85.67
397.152	36.52
397.361	69.29
397.57	59.05
397.78	83.63
397.989	65.19
398.198	128.68
398.407	32.43
398.617	-6.49
398.826	61.1
399.035	102.06
399.244	104.11
399.453	65.19
399.663	132.78
399.872	126.63
400.081	50.86
400.29	136.87
400.499	13.99
400.708	38.57
400.917	-14.68
401.127	95.91
401.336	50.86
401.545	153.26
401.754	30.38
401.963	81.58
402.172	38.57
402.381	42.67
402.59	95.91
402.799	22.19
403.008	71.34
403.217	97.96
403.426	102.06
403.635	79.53
403.844	136.87
404.053	34.47
404.262	65.19
404.471	194.22
404.68	1.71
404.888	102.06
405.097	167.59
405.306	79.53
405.515	118.44
405.724	-2.39
405.933	106.15
406.142	85.67
406.35	165.54
406.559	-14.68
406.768	190.12
406.977	102.06
407.185	136.87
407.394	128.68
407.603	95.91
407.812	165.54
408.02	159.4
408.229	128.68
408.438	104.11
408.646	93.87
408.855	218.79
409.064	190.12
409.272	226.98
409.481	239.27
409.69	183.98
409.898	140.97
410.107	202.41
410.315	229.03
410.524	179.88
410.733	173.74
410.941	280.23
411.15	310.95
411.358	280.23
411.567	401.06
411.775	216.74
411.984	329.38
412.192	251.56
412.401	345.77
412.609	284.33
412.818	294.57
413.026	347.81
413.234	296.61
413.443	390.82
413.651	349.86
413.86	437.92
414.068	384.68
414.276	466.6
414.485	403.11
414.693	462.5
414.901	579.23
415.11	480.93
415.318	505.51
415.526	497.32
415.734	669.34
415.943	568.99
416.151	640.67
416.359	525.99
416.567	577.19
416.776	640.67
416.984	659.1
417.192	628.39
417.4	636.58
417.608	677.54
417.817	663.2
418.025	773.79
418.233	849.57
418.441	728.74
418.649	810.65
418.857	954.01
419.065	972.44
419.273	865.95
419.481	1009.31
419.689	978.59
419.897	1080.99
420.105	1042.07
420.313	1095.32
420.521	1201.82
420.729	1160.86
420.937	1105.56
421.145	1216.15
421.353	1285.78
421.561	1377.94
421.769	1291.93
421.977	1453.72
422.185	1328.79
422.393	1482.39
422.601	1513.11
422.809	1537.68
423.017	1617.55
423.224	1672.85
423.432	1832.59
423.64	1701.52
423.848	1832.59
424.056	1885.84
424.263	1914.51
424.471	1963.66
424.679	2070.16
424.887	2164.36
425.094	2262.66
425.302	2186.89
425.51	2299.53
425.718	2326.15
425.925	2434.69
426.133	2371.21
426.341	2545.28
426.548	2760.32
426.756	2760.32
426.964	2741.89
427.171	2889.34
427.379	2958.97
427.586	3061.37
427.794	3124.86
428.001	3360.38
428.209	3405.43
428.417	3399.29
428.624	3724.91
428.832	3559.03
429.039	3614.32
429.247	3532.4
429.454	4017.77
429.662	4238.95
429.869	3847.79
430.076	4163.18
430.284	4089.45
430.491	4386.41
430.699	4466.28
430.906	4462.18
431.114	4558.44
431.321	4886.11
431.528	4826.72
431.736	5101.15
431.943	5285.47
432.15	5248.6
432.358	5355.1
432.565	5555.8
432.772	5570.13
432.979	6026.83
433.187	6024.78
433.394	5865.04
433.601	6387.27
433.808	6458.95
434.016	6264.4
434.223	6645.32
434.43	7079.49
434.637	7069.25
434.844	7325.24
435.052	7398.97
435.259	7429.69
435.466	7439.93
435.673	7401.02
435.88	7814.71
436.087	8281.64
436.294	8271.4
436.501	8160.81
436.708	8441.39
436.915	8519.21
437.122	8986.15
437.329	8930.85
437.537	9260.57
437.743	9586.2
437.95	9322.01
438.157	9762.33
438.364	10184.21
438.571	9930.26
438.778	10196.5
438.985	10905.09
439.192	10792.45
439.399	11046.4
439.606	10851.85
439.813	11318.78
440.02	11980.28
440.227	12043.76
440.433	11695.61
440.64	11961.84
440.847	12254.7
441.054	12527.08
441.261	13172.19
441.467	13172.19
441.674	13231.58
441.881	13770.2
442.088	13569.5
442.294	13706.71
442.501	13970.9
442.708	14257.62
442.914	14665.16
443.121	15308.23
443.328	14779.85
443.534	16201.14
443.741	15697.34
443.948	15392.19
444.154	16389.55
444.361	16381.36
444.568	16553.39
444.774	16725.42
444.981	16813.48
445.187	17311.14
445.394	18023.83
445.6	17773.98
445.807	19289.48
446.013	18582.93
446.22	18726.28
446.426	19438.98
446.633	19873.15
446.839	20424.05
447.046	19752.32
447.252	20925.8
447.459	20997.48
447.665	20620.66
447.871	21575.01
448.078	22609.23
448.284	21384.55
448.491	22017.37
448.697	22893.9
448.903	23151.95
449.11	23215.43
449.316	22871.37
449.522	23594.31
449.728	24048.96
449.935	23993.66
450.141	23854.4
450.347	24554.8
450.553	23858.49
450.76	24315.19
450.966	25019.69
451.172	24700.21
451.378	25419.05
451.584	24438.07
451.791	25238.83
451.997	25236.78
452.203	25687.33
452.409	25556.26
452.615	25726.24
452.821	24606
453.027	24417.59
453.233	25672.99
453.44	24616.24
453.646	24868.14
453.852	24761.65
454.058	25267.5
454.264	24493.36
454.47	25130.28
454.676	24513.84
454.882	25230.63
455.088	23082.31
455.294	23244.1
455.5	23602.5
455.705	23901.5
455.911	22922.57
456.117	22652.24
456.323	22064.47
456.529	21024.11
456.735	22068.57
456.941	21331.3
457.147	21149.03
457.352	20387.19
457.558	20270.45
457.764	20333.94
457.97	19770.75
458.176	19373.44
458.381	19273.09
458.587	18275.73
458.793	18511.25
458.999	17397.15
459.204	18533.78
459.41	18234.77
459.616	16821.67
459.821	17190.31
460.027	16897.45
460.233	16551.34
460.438	15758.78
460.644	15947.19
460.85	15177.16
461.055	15017.41
461.261	14904.78
461.466	13620.7
461.672	13417.95
461.878	14458.32
462.083	13401.57
462.289	13077.99
462.494	13010.4
462.7	12426.73
462.905	12187.12
463.111	12486.12
463.316	12334.57
463.522	12170.74
463.727	12262.9
463.932	12439.02
464.138	12221.94
464.343	12318.19
464.549	11873.78
464.754	12361.2
464.959	12023.28
465.165	11974.13
465.37	11599.35
465.575	11148.8
465.781	11755
465.986	11884.02
466.191	11449.85
466.397	11105.79
466.602	10565.13
