Data from USB4F104151__63__11-30-59-659.txt Node

Date: Fri Mar 14 11:30:59 EDT 2025
User: louis
Spectrometer: USB4F10415
Trigger mode: 4
Integration Time (sec): 5.000000E-2
Scans to average: 1
Electric dark correction enabled: true
Nonlinearity correction enabled: false
Boxcar width: 0
XAxis mode: Wavelengths
Number of Pixels in Spectrum: 3648
>>>>>Begin Spectral Data<<<<<
178.204	-168.62
178.424	-168.62
178.644	-168.62
178.864	-146.09
179.084	-144.04
179.304	50.52
179.524	-37.55
179.744	-43.69
179.964	25.94
180.184	-21.16
180.404	19.8
180.624	32.08
180.844	5.46
181.064	-41.64
181.283	36.18
181.503	-41.64
181.723	15.7
181.943	-90.79
182.163	62.8
182.383	21.85
182.602	11.61
182.822	40.28
183.042	21.85
183.262	-51.88
183.482	38.23
183.701	58.71
183.921	48.47
184.141	-23.21
184.361	56.66
184.58	-41.64
184.8	-35.5
185.02	-21.16
185.239	-0.68
185.459	38.23
185.679	50.52
185.898	-115.37
186.118	42.32
186.338	-68.27
186.557	-6.83
186.777	-49.83
186.997	-35.5
187.216	-12.97
187.436	23.89
187.655	30.04
187.875	42.32
188.095	52.56
188.314	-21.16
188.534	40.28
188.753	-70.31
188.973	46.42
189.192	-27.31
189.412	-8.87
189.631	93.52
189.851	64.85
190.07	25.94
190.29	-90.79
190.509	32.08
190.729	64.85
190.948	25.94
191.168	193.87
191.387	73.04
191.607	25.94
191.826	81.24
192.045	103.76
192.265	-23.21
192.484	15.7
192.704	50.52
192.923	-19.11
193.142	126.29
193.362	73.04
193.581	15.7
193.8	19.8
194.02	64.85
194.239	-41.64
194.458	-4.78
194.678	60.76
194.897	93.52
195.116	-17.07
195.335	-17.07
195.555	71
195.774	-10.92
195.993	71
196.212	-41.64
196.432	-12.97
196.651	-29.35
196.87	-49.83
197.089	68.95
197.308	5.46
197.528	54.61
197.747	21.85
197.966	36.18
198.185	85.33
198.404	-27.31
198.623	32.08
198.842	54.61
199.062	81.24
199.281	77.14
199.5	13.65
199.719	40.28
199.938	3.41
200.157	27.99
200.376	21.85
200.595	97.62
200.814	27.99
201.033	9.56
201.252	7.51
201.471	-12.97
201.69	60.76
201.909	-33.45
202.128	9.56
202.347	124.24
202.566	23.89
202.785	-43.69
203.004	11.61
203.223	50.52
203.442	-21.16
203.661	21.85
203.879	-27.31
204.098	11.61
204.317	-60.07
204.536	52.56
204.755	-17.07
204.974	97.62
205.193	34.13
205.411	118.1
205.63	-25.26
205.849	-17.07
206.068	21.85
206.287	1.37
206.505	23.89
206.724	-17.07
206.943	42.32
207.162	-19.11
207.381	23.89
207.599	-29.35
207.818	-53.93
208.037	-43.69
208.255	15.7
208.474	-19.11
208.693	32.08
208.911	66.9
209.13	7.51
209.349	21.85
209.567	-15.02
209.786	34.13
210.005	-8.87
210.223	15.7
210.442	-51.88
210.661	23.89
210.879	60.76
211.098	25.94
211.316	5.46
211.535	114
211.753	32.08
211.972	48.47
212.191	56.66
212.409	21.85
212.628	25.94
212.846	54.61
213.065	36.18
213.283	21.85
213.502	-8.87
213.72	23.89
213.938	38.23
214.157	62.8
214.375	87.38
214.594	15.7
214.812	44.37
215.031	56.66
215.249	7.51
215.467	-6.83
215.686	-41.64
215.904	42.32
216.122	87.38
216.341	105.81
216.559	44.37
216.778	81.24
216.996	64.85
217.214	23.89
217.432	-2.73
217.651	-74.41
217.869	-45.74
218.087	40.28
218.306	36.18
218.524	46.42
218.742	-4.78
218.96	1.37
219.179	64.85
219.397	-25.26
219.615	-10.92
219.833	19.8
220.051	-41.64
220.27	-49.83
220.488	101.72
220.706	54.61
220.924	-43.69
221.142	-12.97
221.36	19.8
221.578	73.04
221.796	-60.07
222.015	58.71
222.233	-2.73
222.451	56.66
222.669	19.8
222.887	38.23
223.105	-2.73
223.323	-10.92
223.541	-51.88
223.759	79.19
223.977	13.65
224.195	77.14
224.413	50.52
224.631	73.04
224.849	34.13
225.067	66.9
225.285	-33.45
225.503	-17.07
225.721	-45.74
225.939	-58.03
226.157	75.09
226.375	77.14
226.592	-23.21
226.81	-17.07
227.028	27.99
227.246	52.56
227.464	-33.45
227.682	79.19
227.9	-49.83
228.117	91.48
228.335	30.04
228.553	60.76
228.771	-4.78
228.989	54.61
229.206	7.51
229.424	-21.16
229.642	-12.97
229.86	15.7
230.077	48.47
230.295	7.51
230.513	68.95
230.731	109.91
230.948	48.47
231.166	44.37
231.384	-12.97
231.601	42.32
231.819	50.52
232.037	-49.83
232.254	7.51
232.472	13.65
232.689	-10.92
232.907	83.28
233.125	36.18
233.342	-17.07
233.56	-17.07
233.777	7.51
233.995	15.7
234.213	9.56
234.43	-33.45
234.648	-8.87
234.865	-23.21
235.083	-17.07
235.3	-41.64
235.518	11.61
235.735	52.56
235.953	60.76
236.17	-90.79
236.388	15.7
236.605	-8.87
236.822	46.42
237.04	52.56
237.257	-21.16
237.475	34.13
237.692	44.37
237.909	7.51
238.127	48.47
238.344	-25.26
238.562	38.23
238.779	-19.11
238.996	7.51
239.214	-10.92
239.431	32.08
239.648	-41.64
239.865	-74.41
240.083	48.47
240.3	23.89
240.517	-8.87
240.735	27.99
240.952	-0.68
241.169	-25.26
241.386	27.99
241.603	7.51
241.821	-4.78
242.038	11.61
242.255	30.04
242.472	-25.26
242.689	-19.11
242.907	13.65
243.124	-29.35
243.341	-55.98
243.558	-0.68
243.775	-47.79
243.992	34.13
244.209	73.04
244.426	118.1
244.643	25.94
244.86	32.08
245.078	36.18
245.295	-49.83
245.512	13.65
245.729	36.18
245.946	9.56
246.163	36.18
246.38	13.65
246.597	-2.73
246.814	-33.45
247.031	-23.21
247.248	56.66
247.464	15.7
247.681	23.89
247.898	21.85
248.115	54.61
248.332	-19.11
248.549	30.04
248.766	52.56
248.983	-0.68
249.2	19.8
249.417	13.65
249.633	-0.68
249.85	32.08
250.067	48.47
250.284	32.08
250.501	42.32
250.717	48.47
250.934	-41.64
251.151	9.56
251.368	-33.45
251.585	-41.64
251.801	-80.55
252.018	-45.74
252.235	17.75
252.451	-109.23
252.668	30.04
252.885	79.19
253.102	30.04
253.318	95.57
253.535	-0.68
253.752	-31.4
253.968	36.18
254.185	-8.87
254.401	-68.27
254.618	-74.41
254.835	-70.31
255.051	44.37
255.268	13.65
255.484	3.41
255.701	73.04
255.917	60.76
256.134	27.99
256.351	87.38
256.567	89.43
256.784	73.04
257	-0.68
257.217	5.46
257.433	60.76
257.65	111.96
257.866	60.76
258.082	5.46
258.299	-96.94
258.515	38.23
258.732	-17.07
258.948	-2.73
259.165	23.89
259.381	-2.73
259.597	21.85
259.814	-8.87
260.03	-68.27
260.246	21.85
260.463	17.75
260.679	95.57
260.895	89.43
261.112	7.51
261.328	46.42
261.544	-58.03
261.761	105.81
261.977	13.65
262.193	27.99
262.409	87.38
262.626	73.04
262.842	15.7
263.058	9.56
263.274	44.37
263.49	5.46
263.707	32.08
263.923	38.23
264.139	15.7
264.355	46.42
264.571	34.13
264.787	48.47
265.004	23.89
265.22	19.8
265.436	32.08
265.652	-49.83
265.868	-10.92
266.084	-0.68
266.3	-70.31
266.516	-8.87
266.732	-33.45
266.948	-0.68
267.164	27.99
267.38	9.56
267.596	15.7
267.812	17.75
268.028	40.28
268.244	107.86
268.46	-31.4
268.676	-12.97
268.892	-0.68
269.108	15.7
269.324	9.56
269.54	5.46
269.756	60.76
269.972	-74.41
270.188	1.37
270.403	40.28
270.619	19.8
270.835	-15.02
271.051	19.8
271.267	34.13
271.483	32.08
271.698	-2.73
271.914	60.76
272.13	5.46
272.346	15.7
272.562	11.61
272.777	48.47
272.993	-43.69
273.209	-0.68
273.425	40.28
273.64	-25.26
273.856	-4.78
274.072	48.47
274.287	44.37
274.503	71
274.719	15.7
274.934	-25.26
275.15	27.99
275.366	-78.51
275.581	42.32
275.797	13.65
276.012	23.89
276.228	81.24
276.444	-8.87
276.659	32.08
276.875	-12.97
277.09	23.89
277.306	30.04
277.521	38.23
277.737	-23.21
277.952	66.9
278.168	32.08
278.383	50.52
278.599	32.08
278.814	71
279.03	-8.87
279.245	-8.87
279.461	-51.88
279.676	91.48
279.892	-43.69
280.107	-31.4
280.322	-49.83
280.538	23.89
280.753	1.37
280.969	7.51
281.184	-49.83
281.399	-17.07
281.615	56.66
281.83	-4.78
282.045	-51.88
282.26	-27.31
282.476	-76.46
282.691	13.65
282.906	50.52
283.122	19.8
283.337	-27.31
283.552	32.08
283.767	32.08
283.983	54.61
284.198	-29.35
284.413	-12.97
284.628	-101.03
284.843	-8.87
285.058	-19.11
285.274	27.99
285.489	-0.68
285.704	93.52
285.919	3.41
286.134	48.47
286.349	46.42
286.564	32.08
286.779	122.2
286.995	-12.97
287.21	-107.18
287.425	95.57
287.64	-8.87
287.855	42.32
288.07	-41.64
288.285	58.71
288.5	40.28
288.715	73.04
288.93	7.51
289.145	-49.83
289.36	17.75
289.575	-10.92
289.79	46.42
290.004	-62.12
290.219	50.52
290.434	-29.35
290.649	3.41
290.864	5.46
291.079	5.46
291.294	73.04
291.509	48.47
291.724	40.28
291.938	-4.78
292.153	7.51
292.368	15.7
292.583	-4.78
292.798	114
293.012	56.66
293.227	27.99
293.442	-4.78
293.657	44.37
293.871	23.89
294.086	-8.87
294.301	79.19
294.516	25.94
294.73	-27.31
294.945	-41.64
295.16	21.85
295.374	15.7
295.589	-0.68
295.804	-72.36
296.018	-2.73
296.233	5.46
296.447	-2.73
296.662	15.7
296.877	40.28
297.091	19.8
297.306	23.89
297.52	40.28
297.735	66.9
297.949	-35.5
298.164	44.37
298.378	-10.92
298.593	19.8
298.807	-35.5
299.022	-4.78
299.236	54.61
299.451	15.7
299.665	-2.73
299.88	54.61
300.094	5.46
300.309	46.42
300.523	-12.97
300.737	-17.07
300.952	44.37
301.166	-17.07
301.381	3.41
301.595	-74.41
301.809	21.85
302.024	-10.92
302.238	-17.07
302.452	32.08
302.667	-17.07
302.881	48.47
303.095	52.56
303.309	11.61
303.524	27.99
303.738	56.66
303.952	-25.26
304.166	81.24
304.381	-51.88
304.595	32.08
304.809	-21.16
305.023	101.72
305.237	19.8
305.452	32.08
305.666	66.9
305.88	54.61
306.094	73.04
306.308	21.85
306.522	-21.16
306.736	7.51
306.95	52.56
307.164	-27.31
307.379	-12.97
307.593	77.14
307.807	-6.83
308.021	11.61
308.235	30.04
308.449	-19.11
308.663	-0.68
308.877	93.52
309.091	23.89
309.305	66.9
309.519	-0.68
309.733	46.42
309.947	5.46
310.161	13.65
310.374	-17.07
310.588	-2.73
310.802	21.85
311.016	-12.97
311.23	-60.07
311.444	36.18
311.658	-37.55
311.872	97.62
312.085	38.23
312.299	40.28
312.513	71
312.727	38.23
312.941	-31.4
313.154	-25.26
313.368	64.85
313.582	23.89
313.796	-4.78
314.009	44.37
314.223	54.61
314.437	40.28
314.651	46.42
314.864	-2.73
315.078	64.85
315.292	-25.26
315.505	56.66
315.719	85.33
315.933	52.56
316.146	-45.74
316.36	-41.64
316.573	79.19
316.787	23.89
317.001	3.41
317.214	56.66
317.428	30.04
317.641	73.04
317.855	-33.45
318.068	48.47
318.282	54.61
318.495	48.47
318.709	-0.68
318.922	9.56
319.136	48.47
319.349	105.81
319.563	-4.78
319.776	-2.73
319.99	3.41
320.203	62.8
320.417	-70.31
320.63	11.61
320.843	27.99
321.057	-17.07
321.27	-70.31
321.483	-0.68
321.697	95.57
321.91	-21.16
322.124	75.09
322.337	52.56
322.55	17.75
322.763	11.61
322.977	44.37
323.19	13.65
323.403	1.37
323.617	-43.69
323.83	64.85
324.043	-0.68
324.256	36.18
324.469	-82.6
324.683	68.95
324.896	91.48
325.109	-12.97
325.322	-17.07
325.535	68.95
325.748	38.23
325.962	5.46
326.175	30.04
326.388	62.8
326.601	81.24
326.814	13.65
327.027	11.61
327.24	38.23
327.453	-78.51
327.666	21.85
327.879	-21.16
328.092	46.42
328.305	27.99
328.518	-4.78
328.731	-66.22
328.944	1.37
329.157	32.08
329.37	38.23
329.583	120.15
329.796	42.32
330.009	-23.21
330.222	48.47
330.435	62.8
330.648	56.66
330.861	-10.92
331.073	11.61
331.286	15.7
331.499	-35.5
331.712	-53.93
331.925	15.7
332.138	-10.92
332.35	17.75
332.563	60.76
332.776	11.61
332.989	-0.68
333.202	36.18
333.414	-37.55
333.627	58.71
333.84	13.65
334.053	30.04
334.265	-23.21
334.478	23.89
334.691	-15.02
334.903	68.95
335.116	-37.55
335.329	1.37
335.541	56.66
335.754	130.39
335.966	-2.73
336.179	30.04
336.392	56.66
336.604	-0.68
336.817	-8.87
337.029	-0.68
337.242	23.89
337.454	-8.87
337.667	21.85
337.88	7.51
338.092	73.04
338.305	48.47
338.517	-2.73
338.729	19.8
338.942	36.18
339.154	30.04
339.367	-25.26
339.579	-41.64
339.792	21.85
340.004	91.48
340.217	-74.41
340.429	32.08
340.641	-33.45
340.854	56.66
341.066	-78.51
341.278	91.48
341.491	71
341.703	60.76
341.915	-80.55
342.128	89.43
342.34	44.37
342.552	-27.31
342.764	-41.64
342.977	-10.92
343.189	54.61
343.401	81.24
343.613	-27.31
343.826	7.51
344.038	36.18
344.25	30.04
344.462	40.28
344.674	15.7
344.886	68.95
345.099	42.32
345.311	-29.35
345.523	-49.83
345.735	-41.64
345.947	64.85
346.159	46.42
346.371	9.56
346.583	68.95
346.795	85.33
347.007	56.66
347.219	11.61
347.431	-23.21
347.643	101.72
347.855	-15.02
348.067	77.14
348.279	40.28
348.491	5.46
348.703	23.89
348.915	68.95
349.127	38.23
349.339	81.24
349.551	-86.7
349.763	38.23
349.975	-25.26
350.187	7.51
350.399	71
350.61	34.13
350.822	60.76
351.034	60.76
351.246	64.85
351.458	83.28
351.669	7.51
351.881	101.72
352.093	107.86
352.305	13.65
352.517	-35.5
352.728	50.52
352.94	15.7
353.152	23.89
353.363	-27.31
353.575	36.18
353.787	40.28
353.999	54.61
354.21	15.7
354.422	54.61
354.633	77.14
354.845	54.61
355.057	64.85
355.268	60.76
355.48	62.8
355.692	-8.87
355.903	44.37
356.115	-86.7
356.326	-4.78
356.538	27.99
356.749	15.7
356.961	91.48
357.172	-51.88
357.384	5.46
357.595	77.14
357.807	-8.87
358.018	79.19
358.23	48.47
358.441	56.66
358.653	107.86
358.864	-41.64
359.075	81.24
359.287	64.85
359.498	105.81
359.709	32.08
359.921	64.85
360.132	64.85
360.344	56.66
360.555	-39.59
360.766	3.41
360.977	21.85
361.189	99.67
361.4	-27.31
361.611	25.94
361.823	54.61
362.034	-12.97
362.245	-29.35
362.456	11.61
362.667	40.28
362.879	-0.68
363.09	48.47
363.301	15.7
363.512	-21.16
363.723	60.76
363.935	-6.83
364.146	19.8
364.357	48.47
364.568	81.24
364.779	-25.26
364.99	-33.45
365.201	56.66
365.412	60.76
365.623	-66.22
365.834	44.37
366.045	-4.78
366.256	34.13
366.467	17.75
366.678	60.76
366.889	-19.11
367.1	27.99
367.311	7.51
367.522	60.76
367.733	77.14
367.944	95.57
368.155	60.76
368.366	107.86
368.577	19.8
368.788	73.04
368.999	17.75
369.209	-10.92
369.42	81.24
369.631	19.8
369.842	64.85
370.053	27.99
370.264	9.56
370.474	-0.68
370.685	60.76
370.896	11.61
371.107	-4.78
371.317	17.75
371.528	-12.97
371.739	23.89
371.95	79.19
372.16	56.66
372.371	-53.93
372.582	-29.35
372.792	101.72
373.003	79.19
373.214	32.08
373.424	32.08
373.635	17.75
373.846	75.09
374.056	44.37
374.267	54.61
374.477	7.51
374.688	56.66
374.898	79.19
375.109	23.89
375.319	23.89
375.53	11.61
375.74	25.94
375.951	87.38
376.161	3.41
376.372	66.9
376.582	-25.26
376.793	46.42
377.003	73.04
377.214	-17.07
377.424	-2.73
377.635	-47.79
377.845	-12.97
378.055	122.2
378.266	-29.35
378.476	46.42
378.686	77.14
378.897	42.32
379.107	85.33
379.317	52.56
379.528	3.41
379.738	-29.35
379.948	73.04
380.158	48.47
380.369	15.7
380.579	62.8
380.789	73.04
380.999	81.24
381.21	44.37
381.42	122.2
381.63	21.85
381.84	3.41
382.05	83.28
382.261	48.47
382.471	71
382.681	-8.87
382.891	122.2
383.101	-8.87
383.311	-17.07
383.521	17.75
383.731	136.53
383.941	114
384.151	62.8
384.361	103.76
384.571	-17.07
384.781	-58.03
384.991	83.28
385.201	83.28
385.411	48.47
385.621	40.28
385.831	81.24
386.041	7.51
386.251	30.04
386.461	44.37
386.671	79.19
386.881	71
387.091	73.04
387.301	23.89
387.511	-2.73
387.72	71
387.93	118.1
388.14	-41.64
388.35	44.37
388.56	32.08
388.769	81.24
388.979	27.99
389.189	5.46
389.399	30.04
389.609	42.32
389.818	75.09
390.028	83.28
390.238	42.32
390.447	48.47
390.657	79.19
390.867	7.51
391.076	13.65
391.286	1.37
391.496	56.66
391.705	15.7
391.915	142.68
392.125	27.99
392.334	60.76
392.544	81.24
392.753	-66.22
392.963	38.23
393.172	5.46
393.382	60.76
393.591	68.95
393.801	-0.68
394.01	89.43
394.22	73.04
394.429	52.56
394.639	-4.78
394.848	60.76
395.058	56.66
395.267	62.8
395.477	40.28
395.686	73.04
395.895	97.62
396.105	130.39
396.314	32.08
396.524	40.28
396.733	48.47
396.942	77.14
397.152	138.58
397.361	48.47
397.57	134.48
397.78	48.47
397.989	122.2
398.198	97.62
398.407	56.66
398.617	77.14
398.826	11.61
399.035	9.56
399.244	130.39
399.453	50.52
399.663	48.47
399.872	105.81
400.081	56.66
400.29	152.91
400.499	56.66
400.708	122.2
400.917	89.43
401.127	38.23
401.336	56.66
401.545	95.57
401.754	17.75
401.963	87.38
402.172	103.76
402.381	40.28
402.59	40.28
402.799	50.52
403.008	81.24
403.217	122.2
403.426	122.2
403.635	85.33
403.844	89.43
404.053	64.85
404.262	83.28
404.471	154.96
404.68	122.2
404.888	13.65
405.097	64.85
405.306	105.81
405.515	89.43
405.724	128.34
405.933	163.15
406.142	154.96
406.35	126.29
406.559	128.34
406.768	136.53
406.977	179.54
407.185	154.96
407.394	95.57
407.603	144.72
407.812	226.64
408.02	202.07
408.229	105.81
408.438	114
408.646	138.58
408.855	159.06
409.064	220.5
409.272	150.87
409.481	216.4
409.69	173.39
409.898	261.46
410.107	292.18
410.315	279.89
410.524	159.06
410.733	216.4
410.941	302.42
411.15	234.83
411.358	312.66
411.567	314.7
411.775	314.7
411.984	275.79
412.192	288.08
412.401	341.33
412.609	423.25
412.818	310.61
413.026	376.14
413.234	435.53
413.443	449.87
413.651	431.44
413.86	386.38
414.068	421.2
414.276	519.5
414.485	458.06
414.693	474.45
414.901	572.75
415.11	466.25
415.318	519.5
415.526	433.49
415.734	568.65
415.943	601.42
416.151	666.96
416.359	539.98
416.567	656.72
416.776	677.19
416.984	722.25
417.192	709.96
417.4	652.62
417.608	709.96
417.817	748.87
418.025	810.31
418.233	908.62
418.441	896.33
418.649	896.33
418.857	974.15
419.065	996.68
419.273	943.43
419.481	922.95
419.689	1148.23
419.897	1168.71
420.105	1172.8
420.313	1203.52
420.521	1312.07
420.729	1267.01
420.937	1217.86
421.145	1260.87
421.353	1404.22
421.561	1391.94
421.769	1490.24
421.977	1639.74
422.185	1633.6
422.393	1674.56
422.601	1764.67
422.809	1701.18
423.017	1725.75
423.224	1813.82
423.432	1963.32
423.64	1842.49
423.848	2086.2
424.056	1959.22
424.263	2243.89
424.471	2178.36
424.679	2254.13
424.887	2233.65
425.094	2415.92
425.302	2346.29
425.51	2434.35
425.718	2497.84
425.925	2637.1
426.133	2759.98
426.341	2872.62
426.548	2979.11
426.756	3005.74
426.964	2891.05
427.171	3192.1
427.379	3145
427.586	3259.68
427.794	3427.62
428.001	3530.02
428.209	3779.87
428.417	3710.24
428.624	4183.32
428.832	3931.42
429.039	3982.62
429.247	3992.86
429.454	4369.68
429.662	4586.77
429.869	4246.8
430.076	4637.97
430.284	4420.88
430.491	4656.4
430.699	5072.14
430.906	4941.07
431.114	4975.88
431.321	5113.1
431.528	5338.37
431.736	5596.42
431.943	5897.47
432.15	5664
432.358	5659.9
432.565	6155.51
432.772	6249.72
432.979	6511.86
433.187	6380.79
433.394	6448.37
433.601	6884.59
433.808	6972.65
434.016	6888.68
434.223	7240.93
434.43	7716.06
434.637	7519.46
434.844	8010.97
435.052	8023.26
435.259	8002.78
435.466	8262.87
435.673	8250.58
435.88	8658.13
436.087	9059.53
436.294	8994
436.501	8920.27
436.708	9071.82
436.915	9428.17
437.122	9706.69
437.329	9575.62
437.537	10085.56
437.743	10380.47
437.95	10314.94
438.157	10775.73
438.364	11011.25
438.571	10962.09
438.778	11044.01
438.985	12197.02
439.192	11580.58
439.399	11910.3
439.606	11738.27
439.813	12547.22
440.02	13153.42
440.227	12993.68
440.433	12776.59
440.64	13227.15
440.847	13163.66
441.054	13483.14
441.261	14382.2
441.467	14267.52
441.674	14369.91
441.881	15058.03
442.088	14910.58
442.294	14804.08
442.501	15357.03
442.708	15469.67
442.914	16133.22
443.121	16716.89
443.328	16229.47
443.534	17534.03
443.741	17042.51
443.948	16757.85
444.154	17949.76
444.361	17937.48
444.568	17925.19
444.774	18132.03
444.981	18367.55
445.187	18594.87
445.394	19620.91
445.6	19225.65
445.807	21210.13
446.013	20286.5
446.22	20585.5
446.426	21373.97
446.633	21748.75
446.839	22502.4
447.046	21531.66
447.252	22371.33
447.459	22717.43
447.665	22592.51
447.871	23553.01
448.078	24681.44
448.284	23636.97
448.491	24097.77
448.697	25002.97
448.903	25115.61
449.11	25246.68
449.316	25121.75
449.522	25619.41
449.728	25793.48
449.935	26164.17
450.141	26268.61
450.347	26901.43
450.553	25994.18
450.76	26119.11
450.966	27149.24
451.172	26764.22
451.378	27739.05
451.584	26837.95
451.791	28003.24
451.997	27444.15
452.203	28263.33
452.409	28261.29
452.615	27843.5
452.821	26807.23
453.027	26375.11
453.233	28162.98
453.44	26842.04
453.646	27085.75
453.852	27304.88
454.058	27583.41
454.264	26534.85
454.47	27290.55
454.676	26321.86
454.882	27427.76
455.088	25177.05
455.294	25605.07
455.5	26053.58
455.705	25852.87
455.911	24622.05
456.117	24196.07
456.323	24280.03
456.529	22725.63
456.735	23862.25
456.941	23325.68
457.147	22760.44
457.352	22023.17
457.558	21771.27
457.764	22088.71
457.97	21380.11
458.176	20847.64
458.381	21019.67
458.587	19979.3
458.793	19850.28
458.999	18975.8
459.204	20216.86
459.41	19952.68
459.616	18396.22
459.821	18203.71
460.027	18127.94
460.233	17919.04
460.438	17085.52
460.644	17226.83
460.85	16542.81
461.055	16338.01
461.261	16229.47
461.466	15041.65
461.672	14503.03
461.878	15484.01
462.083	14546.04
462.289	14169.21
462.494	14007.42
462.7	13477
462.905	13034.64
463.111	13771.91
463.316	13821.06
463.522	13319.31
463.727	13208.72
463.932	13395.08
464.138	13190.28
464.343	13284.49
464.549	12897.42
464.754	13415.56
464.959	13098.13
465.165	12924.05
465.37	12512.41
465.575	12139.68
465.781	12702.87
465.986	12526.74
466.191	12297.37
466.397	12192.92
466.602	11457.7
466.807	11986.08
467.012	12014.75
467.218	11842.72
467.423	11734.18
