Data from USB4F104151__42__11-30-24-313.txt Node

Date: Fri Mar 14 11:30:24 EDT 2025
User: louis
Spectrometer: USB4F10415
Trigger mode: 4
Integration Time (sec): 5.000000E-2
Scans to average: 1
Electric dark correction enabled: true
Nonlinearity correction enabled: false
Boxcar width: 0
XAxis mode: Wavelengths
Number of Pixels in Spectrum: 3648
>>>>>Begin Spectral Data<<<<<
178.204	-144.21
178.424	-144.21
178.644	-144.21
178.864	-111.44
179.084	-181.07
179.304	3.24
179.524	11.43
179.744	52.39
179.964	27.82
180.184	27.82
180.404	-4.95
180.624	-97.11
180.844	7.34
181.064	3.24
181.283	91.31
181.503	-103.25
181.723	-19.29
181.943	19.63
182.163	85.16
182.383	-9.05
182.602	23.72
182.822	101.55
183.042	19.63
183.262	-33.62
183.482	31.91
183.701	19.63
183.921	50.35
184.141	-29.52
184.361	-21.33
184.58	54.44
184.8	54.44
185.02	17.58
185.239	72.87
185.459	87.21
185.679	66.73
185.898	-66.39
186.118	-21.33
186.338	38.06
186.557	48.3
186.777	-62.29
186.997	-68.44
187.216	33.96
187.436	52.39
187.655	11.43
187.875	66.73
188.095	1.19
188.314	40.11
188.534	64.68
188.753	36.01
188.973	-4.95
189.192	68.78
189.412	27.82
189.631	38.06
189.851	-23.38
190.07	93.35
190.29	9.39
190.509	-23.38
190.729	25.77
190.948	27.82
191.168	132.26
191.387	46.25
191.607	83.11
191.826	3.24
192.045	-2.9
192.265	54.44
192.484	60.59
192.704	19.63
192.923	33.96
193.142	52.39
193.362	27.82
193.581	140.46
193.8	52.39
194.02	64.68
194.239	-0.85
194.458	-7
194.678	27.82
194.897	31.91
195.116	15.53
195.335	19.63
195.555	99.5
195.774	56.49
195.993	19.63
196.212	3.24
196.432	93.35
196.651	-64.34
196.87	-15.19
197.089	101.55
197.308	7.34
197.528	-4.95
197.747	11.43
197.966	58.54
198.185	140.46
198.404	58.54
198.623	42.15
198.842	25.77
199.062	105.64
199.281	-4.95
199.5	42.15
199.719	46.25
199.938	50.35
200.157	-11.09
200.376	25.77
200.595	99.5
200.814	33.96
201.033	-19.29
201.252	48.3
201.471	117.93
201.69	97.45
201.909	40.11
202.128	-54.1
202.347	-29.52
202.566	66.73
202.785	-45.91
203.004	-4.95
203.223	150.7
203.442	-9.05
203.661	1.19
203.879	3.24
204.098	109.74
204.317	-0.85
204.536	70.83
204.755	52.39
204.974	83.11
205.193	60.59
205.411	68.78
205.63	19.63
205.849	50.35
206.068	-2.9
206.287	-7
206.505	62.63
206.724	7.34
206.943	3.24
207.162	17.58
207.381	72.87
207.599	60.59
207.818	60.59
208.037	-17.24
208.255	17.58
208.474	101.55
208.693	36.01
208.911	60.59
209.13	29.87
209.349	-15.19
209.567	64.68
209.786	60.59
210.005	15.53
210.223	66.73
210.442	-0.85
210.661	72.87
210.879	79.02
211.098	68.78
211.316	25.77
211.535	93.35
211.753	3.24
211.972	36.01
212.191	11.43
212.409	-64.34
212.628	130.22
212.846	42.15
213.065	64.68
213.283	95.4
213.502	50.35
213.72	17.58
213.938	48.3
214.157	-50
214.375	93.35
214.594	36.01
214.812	-4.95
215.031	85.16
215.249	11.43
215.467	19.63
215.686	3.24
215.904	105.64
216.122	23.72
216.341	97.45
216.559	36.01
216.778	101.55
216.996	91.31
217.214	3.24
217.432	-23.38
217.651	9.39
217.869	29.87
218.087	40.11
218.306	36.01
218.524	81.07
218.742	11.43
218.96	83.11
219.179	54.44
219.397	17.58
219.615	36.01
219.833	-72.53
220.051	-21.33
220.27	56.49
220.488	81.07
220.706	60.59
220.924	-25.43
221.142	-37.72
221.36	93.35
221.578	23.72
221.796	-2.9
222.015	-9.05
222.233	-9.05
222.451	40.11
222.669	46.25
222.887	109.74
223.105	-37.72
223.323	76.97
223.541	23.72
223.759	25.77
223.977	3.24
224.195	93.35
224.413	42.15
224.631	44.2
224.849	68.78
225.067	132.26
225.285	-11.09
225.503	52.39
225.721	5.29
225.939	42.15
226.157	29.87
226.375	124.07
226.592	56.49
226.81	36.01
227.028	33.96
227.246	138.41
227.464	-13.14
227.682	76.97
227.9	38.06
228.117	50.35
228.335	1.19
228.553	-23.38
228.771	48.3
228.989	11.43
229.206	81.07
229.424	-62.29
229.642	-15.19
229.86	11.43
230.077	44.2
230.295	87.21
230.513	11.43
230.731	50.35
230.948	109.74
231.166	165.03
231.384	-13.14
231.601	-7
231.819	50.35
232.037	46.25
232.254	5.29
232.472	21.67
232.689	-17.24
232.907	85.16
233.125	40.11
233.342	31.91
233.56	33.96
233.777	11.43
233.995	21.67
234.213	107.69
234.43	9.39
234.648	-29.52
234.865	1.19
235.083	17.58
235.3	27.82
235.518	40.11
235.735	19.63
235.953	101.55
236.17	3.24
236.388	-62.29
236.605	27.82
236.822	64.68
237.04	-9.05
237.257	60.59
237.475	-41.81
237.692	9.39
237.909	36.01
238.127	36.01
238.344	81.07
238.562	-39.76
238.779	-19.29
238.996	1.19
239.214	19.63
239.431	148.65
239.648	-47.96
239.865	13.48
240.083	115.88
240.3	1.19
240.517	3.24
240.735	54.44
240.952	89.26
241.169	19.63
241.386	81.07
241.603	68.78
241.821	27.82
242.038	19.63
242.255	36.01
242.472	36.01
242.689	27.82
242.907	62.63
243.124	31.91
243.341	36.01
243.558	19.63
243.775	-2.9
243.992	-41.81
244.209	60.59
244.426	89.26
244.643	31.91
244.86	74.92
245.078	40.11
245.295	79.02
245.512	-9.05
245.729	-4.95
245.946	-13.14
246.163	42.15
246.38	50.35
246.597	-23.38
246.814	-21.33
247.031	27.82
247.248	29.87
247.464	72.87
247.681	97.45
247.898	1.19
248.115	79.02
248.332	-11.09
248.549	56.49
248.766	126.12
248.983	48.3
249.2	19.63
249.417	101.55
249.633	40.11
249.85	105.64
250.067	19.63
250.284	13.48
250.501	62.63
250.717	44.2
250.934	-37.72
251.151	33.96
251.368	36.01
251.585	70.83
251.801	17.58
252.018	38.06
252.235	85.16
252.451	3.24
252.668	-7
252.885	93.35
253.102	66.73
253.318	-19.29
253.535	-78.68
253.752	27.82
253.968	40.11
254.185	-64.34
254.401	68.78
254.618	23.72
254.835	-17.24
255.051	91.31
255.268	48.3
255.484	33.96
255.701	66.73
255.917	52.39
256.134	40.11
256.351	3.24
256.567	23.72
256.784	46.25
257	52.39
257.217	40.11
257.433	40.11
257.65	89.26
257.866	83.11
258.082	11.43
258.299	25.77
258.515	72.87
258.732	-37.72
258.948	3.24
259.165	-2.9
259.381	42.15
259.597	-7
259.814	19.63
260.03	11.43
260.246	50.35
260.463	85.16
260.679	40.11
260.895	-4.95
261.112	-17.24
261.328	1.19
261.544	11.43
261.761	68.78
261.977	9.39
262.193	17.58
262.409	85.16
262.626	23.72
262.842	23.72
263.058	-4.95
263.274	62.63
263.49	-4.95
263.707	64.68
263.923	97.45
264.139	27.82
264.355	11.43
264.571	58.54
264.787	33.96
265.004	11.43
265.22	36.01
265.436	-70.48
265.652	76.97
265.868	60.59
266.084	50.35
266.3	21.67
266.516	7.34
266.732	29.87
266.948	97.45
267.164	-13.14
267.38	52.39
267.596	27.82
267.812	44.2
268.028	-29.52
268.244	17.58
268.46	-23.38
268.676	19.63
268.892	44.2
269.108	91.31
269.324	60.59
269.54	23.72
269.756	19.63
269.972	15.53
270.188	48.3
270.403	9.39
270.619	68.78
270.835	25.77
271.051	1.19
271.267	1.19
271.483	-41.81
271.698	56.49
271.914	107.69
272.13	40.11
272.346	-19.29
272.562	-13.14
272.777	-4.95
272.993	48.3
273.209	-11.09
273.425	29.87
273.64	76.97
273.856	52.39
274.072	44.2
274.287	-11.09
274.503	44.2
274.719	44.2
274.934	70.83
275.15	31.91
275.366	66.73
275.581	7.34
275.797	33.96
276.012	36.01
276.228	68.78
276.444	-43.86
276.659	81.07
276.875	11.43
277.09	-19.29
277.306	-29.52
277.521	31.91
277.737	60.59
277.952	27.82
278.168	23.72
278.383	46.25
278.599	36.01
278.814	72.87
279.03	-13.14
279.245	44.2
279.461	40.11
279.676	130.22
279.892	-62.29
280.107	-35.67
280.322	11.43
280.538	56.49
280.753	74.92
280.969	62.63
281.184	-15.19
281.399	91.31
281.615	44.2
281.83	-25.43
282.045	-41.81
282.26	44.2
282.476	83.11
282.691	85.16
282.906	70.83
283.122	33.96
283.337	-4.95
283.552	76.97
283.767	23.72
283.983	48.3
284.198	13.48
284.413	11.43
284.628	17.58
284.843	-4.95
285.058	-56.15
285.274	9.39
285.489	-41.81
285.704	25.77
285.919	-4.95
286.134	17.58
286.349	-56.15
286.564	-23.38
286.779	60.59
286.995	19.63
287.21	52.39
287.425	25.77
287.64	19.63
287.855	27.82
288.07	33.96
288.285	79.02
288.5	50.35
288.715	62.63
288.93	-21.33
289.145	19.63
289.36	81.07
289.575	58.54
289.79	79.02
290.004	50.35
290.219	60.59
290.434	-17.24
290.649	19.63
290.864	52.39
291.079	44.2
291.294	72.87
291.509	-7
291.724	33.96
291.938	-13.14
292.153	64.68
292.368	-13.14
292.583	62.63
292.798	25.77
293.012	-43.86
293.227	-19.29
293.442	83.11
293.657	19.63
293.871	44.2
294.086	-7
294.301	33.96
294.516	50.35
294.73	19.63
294.945	-15.19
295.16	52.39
295.374	76.97
295.589	74.92
295.804	81.07
296.018	50.35
296.233	68.78
296.447	31.91
296.662	1.19
296.877	99.5
297.091	11.43
297.306	-15.19
297.52	-33.62
297.735	89.26
297.949	101.55
298.164	-13.14
298.378	81.07
298.593	-4.95
298.807	23.72
299.022	56.49
299.236	76.97
299.451	-17.24
299.665	33.96
299.88	48.3
300.094	23.72
300.309	40.11
300.523	91.31
300.737	-23.38
300.952	68.78
301.166	33.96
301.381	-31.57
301.595	13.48
301.809	3.24
302.024	23.72
302.238	48.3
302.452	97.45
302.667	66.73
302.881	107.69
303.095	25.77
303.309	-50
303.524	-31.57
303.738	-33.62
303.952	13.48
304.166	64.68
304.381	1.19
304.595	83.11
304.809	19.63
305.023	40.11
305.237	89.26
305.452	17.58
305.666	76.97
305.88	56.49
306.094	19.63
306.308	1.19
306.522	128.17
306.736	56.49
306.95	66.73
307.164	62.63
307.379	-4.95
307.593	36.01
307.807	117.93
308.021	19.63
308.235	33.96
308.449	3.24
308.663	-2.9
308.877	50.35
309.091	27.82
309.305	58.54
309.519	-15.19
309.733	115.88
309.947	-60.24
310.161	27.82
310.374	42.15
310.588	44.2
310.802	-19.29
311.016	1.19
311.23	60.59
311.444	1.19
311.658	44.2
311.872	60.59
312.085	19.63
312.299	64.68
312.513	-4.95
312.727	58.54
312.941	58.54
313.154	7.34
313.368	19.63
313.582	122.02
313.796	-50
314.009	89.26
314.223	36.01
314.437	23.72
314.651	31.91
314.864	-19.29
315.078	68.78
315.292	25.77
315.505	-29.52
315.719	21.67
315.933	54.44
316.146	48.3
316.36	85.16
316.573	87.21
316.787	60.59
317.001	72.87
317.214	66.73
317.428	50.35
317.641	-37.72
317.855	11.43
318.068	-11.09
318.282	27.82
318.495	54.44
318.709	21.67
318.922	44.2
319.136	36.01
319.349	44.2
319.563	19.63
319.776	38.06
319.99	44.2
320.203	72.87
320.417	-25.43
320.63	27.82
320.843	105.64
321.057	72.87
321.27	66.73
321.483	74.92
321.697	91.31
321.91	25.77
322.124	23.72
322.337	-29.52
322.55	31.91
322.763	-70.48
322.977	15.53
323.19	60.59
323.403	9.39
323.617	-0.85
323.83	76.97
324.043	-37.72
324.256	81.07
324.469	19.63
324.683	62.63
324.896	-4.95
325.109	11.43
325.322	-25.43
325.535	58.54
325.748	60.59
325.962	60.59
326.175	52.39
326.388	60.59
326.601	83.11
326.814	-19.29
327.027	44.2
327.24	52.39
327.453	-56.15
327.666	76.97
327.879	44.2
328.092	36.01
328.305	44.2
328.518	60.59
328.731	33.96
328.944	11.43
329.157	11.43
329.37	-62.29
329.583	36.01
329.796	-2.9
330.009	-54.1
330.222	-13.14
330.435	52.39
330.648	-45.91
330.861	60.59
331.073	68.78
331.286	-13.14
331.499	31.91
331.712	44.2
331.925	36.01
332.138	-4.95
332.35	44.2
332.563	40.11
332.776	23.72
332.989	-13.14
333.202	-33.62
333.414	52.39
333.627	76.97
333.84	1.19
334.053	89.26
334.265	-62.29
334.478	-0.85
334.691	31.91
334.903	50.35
335.116	-33.62
335.329	-0.85
335.541	101.55
335.754	103.59
335.966	-31.57
336.179	5.29
336.392	21.67
336.604	-9.05
336.817	17.58
337.029	62.63
337.242	-21.33
337.454	81.07
337.667	33.96
337.88	169.13
338.092	40.11
338.305	48.3
338.517	9.39
338.729	7.34
338.942	48.3
339.154	-37.72
339.367	-56.15
339.579	-4.95
339.792	46.25
340.004	50.35
340.217	44.2
340.429	31.91
340.641	-2.9
340.854	-0.85
341.066	-23.38
341.278	76.97
341.491	76.97
341.703	83.11
341.915	48.3
342.128	93.35
342.34	44.2
342.552	25.77
342.764	48.3
342.977	11.43
343.189	40.11
343.401	91.31
343.613	36.01
343.826	21.67
344.038	-25.43
344.25	72.87
344.462	-4.95
344.674	11.43
344.886	56.49
345.099	101.55
345.311	25.77
345.523	56.49
345.735	33.96
345.947	109.74
346.159	23.72
346.371	25.77
346.583	9.39
346.795	117.93
347.007	-25.43
347.219	40.11
347.431	15.53
347.643	25.77
347.855	-13.14
348.067	126.12
348.279	-35.67
348.491	48.3
348.703	23.72
348.915	52.39
349.127	-27.48
349.339	85.16
349.551	-25.43
349.763	111.78
349.975	7.34
350.187	85.16
350.399	19.63
350.61	11.43
350.822	-4.95
351.034	-7
351.246	44.2
351.458	29.87
351.669	44.2
351.881	117.93
352.093	50.35
352.305	117.93
352.517	15.53
352.728	76.97
352.94	-0.85
353.152	130.22
353.363	-4.95
353.575	36.01
353.787	52.39
353.999	19.63
354.21	162.98
354.422	58.54
354.633	74.92
354.845	60.59
355.057	74.92
355.268	1.19
355.48	76.97
355.692	31.91
355.903	31.91
356.115	-41.81
356.326	-15.19
356.538	7.34
356.749	31.91
356.961	3.24
357.172	52.39
357.384	3.24
357.595	105.64
357.807	13.48
358.018	-4.95
358.23	25.77
358.441	124.07
358.653	48.3
358.864	-21.33
359.075	-4.95
359.287	74.92
359.498	9.39
359.709	25.77
359.921	85.16
360.132	-17.24
360.344	23.72
360.555	38.06
360.766	48.3
360.977	44.2
361.189	68.78
361.4	19.63
361.611	144.55
361.823	1.19
362.034	72.87
362.245	-17.24
362.456	-2.9
362.667	76.97
362.879	48.3
363.09	27.82
363.301	-0.85
363.512	91.31
363.723	56.49
363.935	1.19
364.146	46.25
364.357	95.4
364.568	72.87
364.779	-54.1
364.99	31.91
365.201	-11.09
365.412	42.15
365.623	-13.14
365.834	79.02
366.045	93.35
366.256	44.2
366.467	48.3
366.678	72.87
366.889	76.97
367.1	17.58
367.311	11.43
367.522	21.67
367.733	52.39
367.944	52.39
368.155	-31.57
368.366	1.19
368.577	76.97
368.788	19.63
368.999	-29.52
369.209	25.77
369.42	89.26
369.631	52.39
369.842	113.83
370.053	64.68
370.264	126.12
370.474	-29.52
370.685	3.24
370.896	3.24
371.107	72.87
371.317	85.16
371.528	36.01
371.739	107.69
371.95	87.21
372.16	42.15
372.371	60.59
372.582	52.39
372.792	-7
373.003	-27.48
373.214	46.25
373.424	72.87
373.635	50.35
373.846	52.39
374.056	9.39
374.267	21.67
374.477	68.78
374.688	85.16
374.898	50.35
375.109	36.01
375.319	19.63
375.53	29.87
375.74	-72.53
375.951	-29.52
376.161	-29.52
376.372	81.07
376.582	66.73
376.793	64.68
377.003	-4.95
377.214	19.63
377.424	70.83
377.635	79.02
377.845	-21.33
378.055	109.74
378.266	3.24
378.476	33.96
378.686	111.78
378.897	-21.33
379.107	91.31
379.317	25.77
379.528	-7
379.738	91.31
379.948	36.01
380.158	68.78
380.369	130.22
380.579	7.34
380.789	66.73
380.999	46.25
381.21	115.88
381.42	117.93
381.63	103.59
381.84	99.5
382.05	103.59
382.261	33.96
382.471	52.39
382.681	87.21
382.891	160.94
383.101	58.54
383.311	74.92
383.521	93.35
383.731	107.69
383.941	76.97
384.151	31.91
384.361	60.59
384.571	-4.95
384.781	36.01
384.991	148.65
385.201	148.65
385.411	36.01
385.621	54.44
385.831	36.01
386.041	36.01
386.251	25.77
386.461	25.77
386.671	60.59
386.881	33.96
387.091	-17.24
387.301	130.22
387.511	29.87
387.72	93.35
387.93	109.74
388.14	44.2
388.35	-9.05
388.56	105.64
388.769	50.35
388.979	44.2
389.189	17.58
389.399	93.35
389.609	148.65
389.818	44.2
390.028	91.31
390.238	56.49
390.447	23.72
390.657	52.39
390.867	9.39
391.076	-29.52
391.286	113.83
391.496	52.39
391.705	33.96
391.915	85.16
392.125	54.44
392.334	48.3
392.544	109.74
392.753	11.43
392.963	1.19
393.172	70.83
393.382	81.07
393.591	138.41
393.801	70.83
394.01	122.02
394.22	117.93
394.429	113.83
394.639	50.35
394.848	40.11
395.058	52.39
395.267	122.02
395.477	54.44
395.686	23.72
395.895	136.36
396.105	175.27
396.314	74.92
396.524	44.2
396.733	52.39
396.942	111.78
397.152	113.83
397.361	150.7
397.57	27.82
397.78	68.78
397.989	56.49
398.198	134.31
398.407	66.73
398.617	31.91
398.826	17.58
399.035	27.82
399.244	101.55
399.453	109.74
399.663	54.44
399.872	91.31
400.081	33.96
400.29	107.69
400.499	9.39
400.708	142.5
400.917	97.45
401.127	87.21
401.336	11.43
401.545	236.71
401.754	66.73
401.963	42.15
402.172	60.59
402.381	171.18
402.59	58.54
402.799	85.16
403.008	205.99
403.217	48.3
403.426	99.5
403.635	117.93
403.844	115.88
404.053	150.7
404.262	44.2
404.471	175.27
404.68	124.07
404.888	85.16
405.097	99.5
405.306	109.74
405.515	66.73
405.724	148.65
405.933	140.46
406.142	173.22
406.35	150.7
406.559	134.31
406.768	150.7
406.977	249
407.185	228.52
407.394	134.31
407.603	76.97
407.812	238.76
408.02	175.27
408.229	226.47
408.438	173.22
408.646	185.51
408.855	167.08
409.064	191.66
409.272	199.85
409.481	253.09
409.69	173.22
409.898	236.71
410.107	197.8
410.315	294.05
410.524	246.95
410.733	251.05
410.941	246.95
411.15	308.39
411.358	310.44
411.567	335.01
411.775	304.29
411.984	380.07
412.192	347.3
412.401	226.47
412.609	371.88
412.818	322.73
413.026	345.25
413.234	296.1
413.443	369.83
413.651	384.16
413.86	414.88
414.068	500.9
414.276	502.95
414.485	427.17
414.693	552.1
414.901	591.01
415.11	525.47
415.318	595.11
415.526	509.09
415.734	533.67
415.943	570.53
416.151	599.2
416.359	617.63
416.567	699.55
416.776	689.31
416.984	679.07
417.192	748.7
417.4	758.94
417.608	748.7
417.817	810.14
418.025	863.39
418.233	879.77
418.441	887.97
418.649	867.49
418.857	961.69
419.065	971.93
419.273	1059.99
419.481	1000.6
419.689	1066.14
419.897	1125.53
420.105	1170.58
420.313	1154.2
420.521	1256.6
420.729	1182.87
420.937	1287.32
421.145	1301.65
421.353	1428.63
421.561	1467.54
421.769	1424.53
421.977	1498.26
422.185	1502.36
422.393	1633.43
422.601	1776.78
422.809	1711.25
423.017	1703.06
423.224	1819.79
423.432	1809.55
423.64	1856.65
423.848	2030.73
424.056	2043.02
424.263	2217.1
424.471	2034.83
424.679	2133.13
424.887	2292.87
425.094	2362.5
425.302	2305.16
425.51	2477.19
425.718	2442.37
425.925	2657.41
426.133	2724.99
426.341	2909.31
426.548	3040.38
426.756	2860.16
426.964	2968.7
427.171	3230.84
427.379	3318.9
427.586	3302.52
427.794	3402.87
428.001	3531.89
428.209	3730.55
428.417	3658.87
428.624	3742.83
428.832	3810.42
429.039	3769.46
429.247	3902.58
429.454	4254.83
429.662	4498.53
429.869	4166.76
430.076	4375.66
430.284	4402.28
430.491	4621.41
430.699	4834.4
430.906	4762.72
431.114	4897.89
431.321	5268.57
431.528	5305.43
431.736	5514.33
431.943	5805.14
432.15	5536.85
432.358	5459.03
432.565	6065.23
432.772	5837.91
432.979	6313.03
433.187	6276.17
433.394	6284.36
433.601	6831.17
433.808	6845.51
434.016	6691.91
434.223	6997.06
434.43	7547.96
434.637	7380.03
434.844	7826.48
435.052	7994.42
435.259	7998.51
435.466	8098.86
435.673	8029.23
435.88	8350.76
436.087	8942.63
436.294	8782.88
436.501	8743.97
436.708	9042.98
436.915	9284.64
437.122	9493.53
437.329	9712.66
437.537	9782.29
437.743	9976.85
437.95	10028.05
438.157	10484.75
438.364	10796.04
438.571	10773.51
438.778	10722.31
438.985	11940.85
439.192	11521.02
439.399	11852.79
439.606	11502.59
439.813	11809.78
440.02	12610.54
440.227	12626.92
440.433	12530.67
440.64	13126.63
440.847	12985.32
441.054	13233.12
441.261	14060.5
441.467	13892.57
441.674	14044.12
441.881	14736.33
442.088	14842.82
442.294	14648.27
442.501	14805.96
442.708	15236.03
442.914	15633.34
443.121	16362.42
443.328	16030.65
443.534	17040.29
443.741	16655.28
443.948	16307.12
444.154	17681.31
444.361	17572.77
444.568	17558.43
444.774	17720.22
444.981	17912.73
445.187	18437.01
445.394	19153.8
445.6	18779.02
445.807	20501.36
446.013	20032.38
446.22	20177.78
446.426	20925.29
446.633	21185.38
446.839	22147.93
447.046	20816.75
447.252	22123.35
447.459	22250.33
447.665	21924.7
447.871	22530.9
448.078	23921.47
448.284	23184.2
448.491	23589.7
448.697	24499
448.903	24697.65
449.11	24861.49
449.316	24275.77
449.522	24996.65
449.728	25676.58
449.935	25592.61
450.141	25774.88
450.347	26360.6
450.553	25418.53
450.76	25805.6
450.966	26770.19
451.172	26127.13
451.378	26891.02
451.584	26245.91
451.791	27202.32
451.997	26997.52
452.203	27187.98
452.409	27609.86
452.615	27011.85
452.821	26049.31
453.027	26108.7
453.233	27306.76
453.44	26084.12
453.646	26497.81
453.852	26581.78
454.058	27038.48
454.264	26274.59
454.47	26530.58
454.676	25424.68
454.882	26618.64
455.088	24574.77
455.294	24806.19
455.5	25146.15
455.705	25396.01
455.911	24251.19
456.117	23888.7
456.323	23389
456.529	22336.34
456.735	23456.58
456.941	22608.72
457.147	22461.27
457.352	21631.84
457.558	21326.69
457.764	21425
457.97	21224.29
458.176	20441.97
458.381	20614
458.587	19325.83
458.793	19856.25
458.999	18688.91
459.204	19499.91
459.41	19262.34
459.616	17922.97
459.821	18092.95
460.027	18019.22
460.233	17374.11
460.438	16718.76
460.644	16925.61
460.85	16161.72
461.055	15932.34
461.261	15590.33
461.466	14586.83
461.672	14152.66
461.878	15182.79
462.083	14095.32
462.289	14015.44
462.494	13544.41
462.7	13124.58
462.905	12919.78
463.111	13241.31
463.316	13118.43
463.522	13151.2
463.727	12682.22
463.932	12975.08
464.138	13046.76
464.343	12993.51
464.549	12616.68
464.754	12905.45
464.959	12833.77
465.165	12741.61
465.37	12225.52
465.575	11895.8
465.781	12266.48
465.986	12487.66
466.191	11826.17
466.397	11684.86
466.602	11125.76
466.807	11418.62
467.012	11572.22
467.218	11545.59
467.423	11394.04
467.628	11451.39
467.833	11797.49
468.038	11557.88
