Data from USB4F104151__25__11-29-56-366.txt Node

Date: Fri Mar 14 11:29:56 EDT 2025
User: louis
Spectrometer: USB4F10415
Trigger mode: 4
Integration Time (sec): 5.000000E-2
Scans to average: 1
Electric dark correction enabled: true
Nonlinearity correction enabled: false
Boxcar width: 0
XAxis mode: Wavelengths
Number of Pixels in Spectrum: 3648
>>>>>Begin Spectral Data<<<<<
178.204	-172.54
178.424	-172.54
178.644	-172.54
178.864	-190.97
179.084	-205.31
179.304	-20.99
179.524	46.59
179.744	5.63
179.964	-12.8
180.184	40.45
180.404	1.54
180.624	67.07
180.844	65.02
181.064	-70.14
181.283	-70.14
181.503	-41.47
181.723	-10.75
181.943	-14.85
182.163	7.68
182.383	-10.75
182.602	32.26
182.822	56.83
183.042	30.21
183.262	-25.09
183.482	93.69
183.701	11.78
183.921	-0.51
184.141	-41.47
184.361	71.17
184.58	-2.56
184.8	5.63
185.02	-8.7
185.239	89.6
185.459	-41.47
185.679	-16.9
185.898	13.82
186.118	13.82
186.338	77.31
186.557	38.4
186.777	-18.94
186.997	54.78
187.216	-49.66
187.436	128.51
187.655	99.84
187.875	19.97
188.095	-2.56
188.314	15.87
188.534	56.83
188.753	24.06
188.973	-35.33
189.192	81.41
189.412	54.78
189.631	42.5
189.851	77.31
190.07	36.35
190.29	-23.04
190.509	36.35
190.729	-33.28
190.948	30.21
191.168	155.13
191.387	89.6
191.607	-43.52
191.826	-8.7
192.045	32.26
192.265	22.02
192.484	28.16
192.704	71.17
192.923	-10.75
193.142	105.98
193.362	28.16
193.581	44.54
193.8	38.4
194.02	44.54
194.239	40.45
194.458	62.98
194.678	-2.56
194.897	-6.66
195.116	-0.51
195.335	-8.7
195.555	-6.66
195.774	58.88
195.993	44.54
196.212	36.35
196.432	62.98
196.651	15.87
196.87	38.4
197.089	81.41
197.308	3.58
197.528	101.89
197.747	-10.75
197.966	-12.8
198.185	65.02
198.404	36.35
198.623	-16.9
198.842	81.41
199.062	-0.51
199.281	17.92
199.5	65.02
199.719	62.98
199.938	40.45
200.157	138.75
200.376	7.68
200.595	56.83
200.814	-4.61
201.033	-16.9
201.252	40.45
201.471	44.54
201.69	65.02
201.909	122.37
202.128	67.07
202.347	28.16
202.566	7.68
202.785	-104.96
203.004	101.89
203.223	77.31
203.442	19.97
203.661	36.35
203.879	54.78
204.098	60.93
204.317	-8.7
204.536	24.06
204.755	153.09
204.974	-10.75
205.193	-0.51
205.411	101.89
205.63	13.82
205.849	114.17
206.068	-18.94
206.287	54.78
206.505	38.4
206.724	7.68
206.943	9.73
207.162	5.63
207.381	11.78
207.599	22.02
207.818	46.59
208.037	52.74
208.255	-25.09
208.474	32.26
208.693	9.73
208.911	-8.7
209.13	40.45
209.349	56.83
209.567	79.36
209.786	87.55
210.005	30.21
210.223	-49.66
210.442	-8.7
210.661	3.58
210.879	87.55
211.098	81.41
211.316	62.98
211.535	48.64
211.753	-0.51
211.972	19.97
212.191	-20.99
212.409	38.4
212.628	5.63
212.846	-12.8
213.065	44.54
213.283	89.6
213.502	73.21
213.72	-16.9
213.938	24.06
214.157	44.54
214.375	48.64
214.594	24.06
214.812	-35.33
215.031	-8.7
215.249	44.54
215.467	-4.61
215.686	-2.56
215.904	65.02
216.122	44.54
216.341	77.31
216.559	93.69
216.778	112.13
216.996	60.93
217.214	58.88
217.432	-49.66
217.651	24.06
217.869	7.68
218.087	62.98
218.306	105.98
218.524	5.63
218.742	-8.7
218.96	-2.56
219.179	-23.04
219.397	30.21
219.615	103.93
219.833	52.74
220.051	-0.51
220.27	105.98
220.488	-8.7
220.706	7.68
220.924	3.58
221.142	77.31
221.36	48.64
221.578	52.74
221.796	19.97
222.015	1.54
222.233	-37.38
222.451	118.27
222.669	-41.47
222.887	52.74
223.105	-18.94
223.323	-6.66
223.541	-16.9
223.759	32.26
223.977	28.16
224.195	97.79
224.413	105.98
224.631	60.93
224.849	40.45
225.067	77.31
225.285	-2.56
225.503	24.06
225.721	-6.66
225.939	-2.56
226.157	9.73
226.375	77.31
226.592	3.58
226.81	54.78
227.028	7.68
227.246	136.7
227.464	30.21
227.682	-10.75
227.9	44.54
228.117	28.16
228.335	-2.56
228.553	30.21
228.771	34.3
228.989	54.78
229.206	13.82
229.424	54.78
229.642	7.68
229.86	44.54
230.077	-8.7
230.295	11.78
230.513	46.59
230.731	46.59
230.948	97.79
231.166	122.37
231.384	19.97
231.601	-8.7
231.819	81.41
232.037	48.64
232.254	-57.86
232.472	-18.94
232.689	56.83
232.907	71.17
233.125	22.02
233.342	15.87
233.56	17.92
233.777	28.16
233.995	105.98
234.213	1.54
234.43	22.02
234.648	24.06
234.865	24.06
235.083	-12.8
235.3	54.78
235.518	32.26
235.735	48.64
235.953	38.4
236.17	-33.28
236.388	9.73
236.605	32.26
236.822	60.93
237.04	79.36
237.257	65.02
237.475	24.06
237.692	60.93
237.909	60.93
238.127	81.41
238.344	81.41
238.562	89.6
238.779	-16.9
238.996	1.54
239.214	-12.8
239.431	65.02
239.648	22.02
239.865	142.85
240.083	19.97
240.3	-16.9
240.517	-45.57
240.735	89.6
240.952	50.69
241.169	114.17
241.386	56.83
241.603	22.02
241.821	30.21
242.038	30.21
242.255	60.93
242.472	-27.14
242.689	48.64
242.907	52.74
243.124	-37.38
243.341	46.59
243.558	24.06
243.775	15.87
243.992	22.02
244.209	32.26
244.426	62.98
244.643	36.35
244.86	7.68
245.078	56.83
245.295	28.16
245.512	28.16
245.729	95.74
245.946	46.59
246.163	42.5
246.38	87.55
246.597	-16.9
246.814	69.12
247.031	-8.7
247.248	46.59
247.464	54.78
247.681	34.3
247.898	85.5
248.115	62.98
248.332	40.45
248.549	148.99
248.766	97.79
248.983	52.74
249.2	24.06
249.417	38.4
249.633	73.21
249.85	11.78
250.067	-4.61
250.284	30.21
250.501	48.64
250.717	36.35
250.934	-18.94
251.151	-4.61
251.368	38.4
251.585	44.54
251.801	52.74
252.018	15.87
252.235	26.11
252.451	3.58
252.668	-35.33
252.885	81.41
253.102	93.69
253.318	93.69
253.535	17.92
253.752	15.87
253.968	-0.51
254.185	-6.66
254.401	19.97
254.618	71.17
254.835	-27.14
255.051	91.65
255.268	32.26
255.484	-41.47
255.701	32.26
255.917	75.26
256.134	5.63
256.351	-14.85
256.567	-16.9
256.784	50.69
257	54.78
257.217	79.36
257.433	-35.33
257.65	38.4
257.866	89.6
258.082	13.82
258.299	11.78
258.515	30.21
258.732	81.41
258.948	32.26
259.165	28.16
259.381	5.63
259.597	114.17
259.814	46.59
260.03	-8.7
260.246	3.58
260.463	-16.9
260.679	44.54
260.895	54.78
261.112	3.58
261.328	40.45
261.544	36.35
261.761	79.36
261.977	89.6
262.193	89.6
262.409	-16.9
262.626	5.63
262.842	38.4
263.058	48.64
263.274	58.88
263.49	89.6
263.707	54.78
263.923	44.54
264.139	54.78
264.355	65.02
264.571	38.4
264.787	13.82
265.004	48.64
265.22	58.88
265.436	15.87
265.652	77.31
265.868	22.02
266.084	-47.62
266.3	58.88
266.516	-57.86
266.732	24.06
266.948	-6.66
267.164	56.83
267.38	105.98
267.596	-14.85
267.812	105.98
268.028	124.41
268.244	15.87
268.46	75.26
268.676	34.3
268.892	-33.28
269.108	-6.66
269.324	-51.71
269.54	48.64
269.756	60.93
269.972	-10.75
270.188	62.98
270.403	44.54
270.619	54.78
270.835	38.4
271.051	42.5
271.267	32.26
271.483	48.64
271.698	58.88
271.914	-0.51
272.13	13.82
272.346	22.02
272.562	42.5
272.777	-8.7
272.993	7.68
273.209	-8.7
273.425	42.5
273.64	24.06
273.856	73.21
274.072	13.82
274.287	7.68
274.503	52.74
274.719	19.97
274.934	30.21
275.15	32.26
275.366	48.64
275.581	-18.94
275.797	65.02
276.012	36.35
276.228	34.3
276.444	32.26
276.659	89.6
276.875	50.69
277.09	-10.75
277.306	56.83
277.521	-25.09
277.737	11.78
277.952	56.83
278.168	32.26
278.383	46.59
278.599	17.92
278.814	-0.51
279.03	-4.61
279.245	30.21
279.461	62.98
279.676	105.98
279.892	-33.28
280.107	28.16
280.322	24.06
280.538	65.02
280.753	24.06
280.969	9.73
281.184	24.06
281.399	48.64
281.615	38.4
281.83	19.97
282.045	-51.71
282.26	58.88
282.476	62.98
282.691	89.6
282.906	81.41
283.122	9.73
283.337	30.21
283.552	7.68
283.767	-10.75
283.983	22.02
284.198	-2.56
284.413	167.42
284.628	-18.94
284.843	11.78
285.058	54.78
285.274	22.02
285.489	-8.7
285.704	3.58
285.919	-33.28
286.134	32.26
286.349	-16.9
286.564	-4.61
286.779	161.28
286.995	-16.9
287.21	50.69
287.425	50.69
287.64	15.87
287.855	54.78
288.07	71.17
288.285	7.68
288.5	9.73
288.715	26.11
288.93	30.21
289.145	22.02
289.36	81.41
289.575	40.45
289.79	85.5
290.004	81.41
290.219	19.97
290.434	-6.66
290.649	34.3
290.864	77.31
291.079	-2.56
291.294	134.65
291.509	-0.51
291.724	97.79
291.938	15.87
292.153	85.5
292.368	11.78
292.583	-25.09
292.798	48.64
293.012	-33.28
293.227	-4.61
293.442	-8.7
293.657	-16.9
293.871	32.26
294.086	40.45
294.301	140.8
294.516	-6.66
294.73	60.93
294.945	-6.66
295.16	52.74
295.374	54.78
295.589	46.59
295.804	79.36
296.018	54.78
296.233	22.02
296.447	44.54
296.662	28.16
296.877	144.89
297.091	83.45
297.306	56.83
297.52	-27.14
297.735	15.87
297.949	7.68
298.164	52.74
298.378	22.02
298.593	19.97
298.807	46.59
299.022	56.83
299.236	99.84
299.451	44.54
299.665	22.02
299.88	-35.33
300.094	65.02
300.309	19.97
300.523	38.4
300.737	56.83
300.952	15.87
301.166	54.78
301.381	-33.28
301.595	7.68
301.809	-4.61
302.024	-10.75
302.238	30.21
302.452	56.83
302.667	-0.51
302.881	87.55
303.095	62.98
303.309	44.54
303.524	30.21
303.738	28.16
303.952	7.68
304.166	-16.9
304.381	28.16
304.595	58.88
304.809	-25.09
305.023	65.02
305.237	40.45
305.452	15.87
305.666	30.21
305.88	62.98
306.094	73.21
306.308	32.26
306.522	91.65
306.736	93.69
306.95	34.3
307.164	58.88
307.379	30.21
307.593	110.08
307.807	46.59
308.021	7.68
308.235	71.17
308.449	-45.57
308.663	56.83
308.877	89.6
309.091	54.78
309.305	-4.61
309.519	-47.62
309.733	77.31
309.947	-33.28
310.161	30.21
310.374	58.88
310.588	42.5
310.802	5.63
311.016	36.35
311.23	11.78
311.444	-70.14
311.658	48.64
311.872	62.98
312.085	62.98
312.299	44.54
312.513	-25.09
312.727	79.36
312.941	-49.66
313.154	85.5
313.368	50.69
313.582	56.83
313.796	-4.61
314.009	24.06
314.223	46.59
314.437	58.88
314.651	69.12
314.864	44.54
315.078	73.21
315.292	-18.94
315.505	-8.7
315.719	48.64
315.933	81.41
316.146	-45.57
316.36	44.54
316.573	122.37
316.787	40.45
317.001	85.5
317.214	-37.38
317.428	48.64
317.641	3.58
317.855	114.17
318.068	73.21
318.282	56.83
318.495	81.41
318.709	30.21
318.922	77.31
319.136	81.41
319.349	24.06
319.563	7.68
319.776	85.5
319.99	36.35
320.203	73.21
320.417	-18.94
320.63	62.98
320.843	114.17
321.057	73.21
321.27	-14.85
321.483	52.74
321.697	87.55
321.91	40.45
322.124	128.51
322.337	19.97
322.55	-10.75
322.763	40.45
322.977	52.74
323.19	15.87
323.403	75.26
323.617	67.07
323.83	46.59
324.043	5.63
324.256	28.16
324.469	44.54
324.683	9.73
324.896	5.63
325.109	19.97
325.322	-12.8
325.535	19.97
325.748	97.79
325.962	85.5
326.175	24.06
326.388	-14.85
326.601	89.6
326.814	71.17
327.027	-0.51
327.24	65.02
327.453	19.97
327.666	50.69
327.879	77.31
328.092	79.36
328.305	62.98
328.518	40.45
328.731	56.83
328.944	22.02
329.157	19.97
329.37	19.97
329.583	108.03
329.796	142.85
330.009	3.58
330.222	7.68
330.435	54.78
330.648	5.63
330.861	32.26
331.073	-57.86
331.286	136.7
331.499	54.78
331.712	17.92
331.925	-33.28
332.138	-41.47
332.35	-10.75
332.563	5.63
332.776	40.45
332.989	-41.47
333.202	46.59
333.414	15.87
333.627	42.5
333.84	36.35
334.053	28.16
334.265	122.37
334.478	-8.7
334.691	52.74
334.903	36.35
335.116	-0.51
335.329	11.78
335.541	67.07
335.754	97.79
335.966	73.21
336.179	15.87
336.392	-8.7
336.604	15.87
336.817	71.17
337.029	-8.7
337.242	71.17
337.454	79.36
337.667	71.17
337.88	89.6
338.092	73.21
338.305	52.74
338.517	30.21
338.729	-8.7
338.942	146.94
339.154	81.41
339.367	-39.42
339.579	56.83
339.792	-10.75
340.004	46.59
340.217	24.06
340.429	155.13
340.641	-25.09
340.854	67.07
341.066	11.78
341.278	30.21
341.491	91.65
341.703	24.06
341.915	-4.61
342.128	42.5
342.34	81.41
342.552	46.59
342.764	48.64
342.977	56.83
343.189	32.26
343.401	32.26
343.613	-74.24
343.826	138.75
344.038	-18.94
344.25	15.87
344.462	91.65
344.674	-4.61
344.886	-18.94
345.099	62.98
345.311	71.17
345.523	22.02
345.735	-0.51
345.947	-23.04
346.159	36.35
346.371	7.68
346.583	42.5
346.795	110.08
347.007	46.59
347.219	32.26
347.431	81.41
347.643	22.02
347.855	36.35
348.067	99.84
348.279	-20.99
348.491	40.45
348.703	-49.66
348.915	-61.95
349.127	-25.09
349.339	52.74
349.551	54.78
349.763	36.35
349.975	56.83
350.187	44.54
350.399	56.83
350.61	46.59
350.822	7.68
351.034	28.16
351.246	28.16
351.458	118.27
351.669	71.17
351.881	58.88
352.093	24.06
352.305	3.58
352.517	5.63
352.728	89.6
352.94	24.06
353.152	24.06
353.363	105.98
353.575	114.17
353.787	40.45
353.999	79.36
354.21	146.94
354.422	24.06
354.633	9.73
354.845	50.69
355.057	36.35
355.268	71.17
355.48	24.06
355.692	-2.56
355.903	36.35
356.115	-20.99
356.326	3.58
356.538	97.79
356.749	60.93
356.961	58.88
357.172	-4.61
357.384	44.54
357.595	118.27
357.807	24.06
358.018	40.45
358.23	83.45
358.441	54.78
358.653	54.78
358.864	120.32
359.075	101.89
359.287	48.64
359.498	56.83
359.709	75.26
359.921	60.93
360.132	48.64
360.344	60.93
360.555	5.63
360.766	15.87
360.977	-8.7
361.189	-27.14
361.4	1.54
361.611	69.12
361.823	56.83
362.034	44.54
362.245	-41.47
362.456	48.64
362.667	75.26
362.879	-14.85
363.09	9.73
363.301	-10.75
363.512	71.17
363.723	1.54
363.935	56.83
364.146	44.54
364.357	11.78
364.568	65.02
364.779	3.58
364.99	144.89
365.201	-2.56
365.412	38.4
365.623	22.02
365.834	54.78
366.045	71.17
366.256	71.17
366.467	118.27
366.678	38.4
366.889	28.16
367.1	93.69
367.311	71.17
367.522	114.17
367.733	46.59
367.944	44.54
368.155	81.41
368.366	24.06
368.577	34.3
368.788	122.37
368.999	-41.47
369.209	24.06
369.42	208.38
369.631	126.46
369.842	91.65
370.053	-23.04
370.264	97.79
370.474	13.82
370.685	28.16
370.896	17.92
371.107	71.17
371.317	44.54
371.528	15.87
371.739	81.41
371.95	101.89
372.16	73.21
372.371	-12.8
372.582	30.21
372.792	91.65
373.003	26.11
373.214	24.06
373.424	7.68
373.635	58.88
373.846	101.89
374.056	36.35
374.267	50.69
374.477	40.45
374.688	65.02
374.898	7.68
375.109	65.02
375.319	24.06
375.53	93.69
375.74	110.08
375.951	48.64
376.161	15.87
376.372	93.69
376.582	5.63
376.793	7.68
377.003	22.02
377.214	65.02
377.424	110.08
377.635	-8.7
377.845	-18.94
378.055	101.89
378.266	19.97
378.476	101.89
378.686	60.93
378.897	136.7
379.107	128.51
379.317	65.02
379.528	-27.14
379.738	-33.28
379.948	44.54
380.158	38.4
380.369	62.98
380.579	34.3
380.789	17.92
380.999	60.93
381.21	60.93
381.42	60.93
381.63	60.93
381.84	44.54
382.05	128.51
382.261	99.84
382.471	52.74
382.681	-12.8
382.891	65.02
383.101	105.98
383.311	32.26
383.521	7.68
383.731	30.21
383.941	19.97
384.151	65.02
384.361	-2.56
384.571	105.98
384.781	48.64
384.991	155.13
385.201	77.31
385.411	69.12
385.621	22.02
385.831	11.78
386.041	73.21
386.251	7.68
386.461	126.46
386.671	11.78
386.881	50.69
387.091	73.21
387.301	67.07
387.511	7.68
387.72	89.6
387.93	89.6
388.14	-53.76
388.35	40.45
388.56	-0.51
388.769	71.17
388.979	15.87
389.189	-57.86
389.399	60.93
389.609	81.41
389.818	101.89
390.028	-27.14
390.238	128.51
390.447	11.78
390.657	81.41
390.867	15.87
391.076	1.54
391.286	87.55
391.496	89.6
391.705	56.83
391.915	17.92
392.125	44.54
392.334	9.73
392.544	122.37
392.753	54.78
392.963	50.69
393.172	56.83
393.382	138.75
393.591	103.93
393.801	73.21
394.01	69.12
394.22	28.16
394.429	85.5
394.639	54.78
394.848	142.85
395.058	134.65
395.267	73.21
395.477	89.6
395.686	140.8
395.895	85.5
396.105	99.84
396.314	151.04
396.524	128.51
396.733	112.13
396.942	169.47
397.152	163.33
397.361	144.89
397.57	130.56
397.78	44.54
397.989	116.22
398.198	138.75
398.407	81.41
398.617	32.26
398.826	75.26
399.035	120.32
399.244	60.93
399.453	50.69
399.663	79.36
399.872	114.17
400.081	42.5
400.29	167.42
400.499	56.83
400.708	118.27
400.917	126.46
401.127	71.17
401.336	77.31
401.545	105.98
401.754	187.9
401.963	97.79
402.172	97.79
402.381	65.02
402.59	142.85
402.799	56.83
403.008	138.75
403.217	120.32
403.426	122.37
403.635	97.79
403.844	179.71
404.053	185.85
404.262	69.12
404.471	146.94
404.68	196.09
404.888	110.08
405.097	138.75
405.306	132.61
405.515	241.15
405.724	196.09
405.933	163.33
406.142	134.65
406.35	151.04
406.559	81.41
406.768	91.65
406.977	159.23
407.185	210.43
407.394	218.62
407.603	114.17
407.812	220.67
408.02	196.09
408.229	202.24
408.438	294.4
408.646	232.96
408.855	230.91
409.064	255.48
409.272	228.86
409.481	312.83
409.69	294.4
409.898	243.2
410.107	284.16
410.315	331.26
410.524	282.11
410.733	357.88
410.941	304.64
411.15	269.82
411.358	382.46
411.567	357.88
411.775	372.22
411.984	337.4
412.192	392.7
412.401	501.24
412.609	503.29
412.818	513.53
413.026	478.71
413.234	491
413.443	521.72
413.651	470.52
413.86	531.96
414.068	654.84
414.276	628.21
414.485	585.21
414.693	671.22
414.901	773.62
415.11	683.51
415.318	630.26
415.526	726.52
415.734	734.71
415.943	824.82
416.151	851.44
416.359	833.01
416.567	888.31
416.776	916.98
416.984	957.94
417.192	939.51
417.4	900.59
417.608	939.51
417.817	1066.48
418.025	1054.19
418.233	1232.37
418.441	1091.06
418.649	1099.25
418.857	1195.5
419.065	1265.13
419.273	1275.37
419.481	1316.33
419.689	1396.2
419.897	1418.73
420.105	1496.55
420.313	1553.9
420.521	1625.58
420.729	1660.39
420.937	1627.62
421.145	1629.67
421.353	1818.08
421.561	1834.47
421.769	1865.19
421.977	1971.68
422.185	2022.88
422.393	2190.81
422.601	2282.97
422.809	2176.48
423.017	2219.49
423.224	2442.71
423.432	2536.92
423.64	2502.11
423.848	2665.94
424.056	2563.54
424.263	2751.96
424.471	2782.68
424.679	2932.18
424.887	3091.92
425.094	3100.11
425.302	3255.76
425.51	3339.73
425.718	3222.99
425.925	3440.08
426.133	3548.62
426.341	3673.54
426.548	3984.84
426.756	3833.29
426.964	3872.2
427.171	4292.03
427.379	4208.06
427.586	4341.18
427.794	4451.77
428.001	4611.51
428.209	4865.46
428.417	4881.85
428.624	5072.31
428.832	4961.72
429.039	5158.32
429.247	5078.45
429.454	5684.65
429.662	5983.65
429.869	5637.55
430.076	5905.83
430.284	5658.03
430.491	6059.43
430.699	6460.83
430.906	6321.57
431.114	6462.88
431.321	6825.37
431.528	6876.57
431.736	7372.18
431.943	7527.82
432.15	7400.85
432.358	7564.68
432.565	7802.25
432.772	7959.94
432.979	8332.67
433.187	8312.19
433.394	8383.87
433.601	8959.35
433.808	8902.01
434.016	8856.95
434.223	9241.97
434.43	9899.37
434.637	9692.52
434.844	10147.17
435.052	10650.97
435.259	10452.32
435.466	10689.88
435.673	10474.85
435.88	11275.6
436.087	11660.62
436.294	11777.36
436.501	11408.72
436.708	11826.51
436.915	12221.77
437.122	12580.16
437.329	12823.87
437.537	12975.42
437.743	13165.88
437.95	13229.37
438.157	13909.29
438.364	14515.49
438.571	13991.21
438.778	14355.75
438.985	15691.02
439.192	15101.21
439.399	15418.64
439.606	15123.74
439.813	15965.45
440.02	16889.09
440.227	16397.57
440.433	16286.98
440.64	17102.08
440.847	16891.13
441.054	17491.19
441.261	18937.06
441.467	18418.92
441.674	18846.94
441.881	19465.43
442.088	19483.86
442.294	19215.58
442.501	19477.72
442.708	20339.91
442.914	21083.33
443.121	21853.36
443.328	21171.39
443.534	22938.79
443.741	21824.69
443.948	21613.75
444.154	23534.74
444.361	23219.36
444.568	23305.37
444.774	23428.25
444.981	23659.67
445.187	24530.06
445.394	25242.75
445.6	25226.37
445.807	27579.48
446.013	26133.62
446.22	26625.13
446.426	27675.74
446.633	28091.48
446.839	29254.72
447.046	27913.3
447.252	29410.37
447.459	29490.24
447.665	29514.81
447.871	30508.08
448.078	31482.91
448.284	30442.54
448.491	31325.22
448.697	32384.02
448.903	33057.8
449.11	33098.76
449.316	32252.95
449.522	33268.74
449.728	33784.83
449.935	33778.68
450.141	34290.68
450.347	35124.2
450.553	33620.99
450.76	34239.48
450.966	35083.24
451.172	34718.7
451.378	35671.01
451.584	34708.46
451.791	35736.54
451.997	35529.7
452.203	36228.06
452.409	36404.18
452.615	35761.12
452.821	34653.17
453.027	34186.23
453.233	36197.34
453.44	34587.63
453.646	35021.8
453.852	35331.04
454.058	35681.25
454.264	34333.68
454.47	35230.69
454.676	34188.28
454.882	35615.71
455.088	32193.56
455.294	32914.44
455.5	33403.91
455.705	33620.99
455.911	32328.72
456.117	31683.61
456.323	31394.85
456.529	29623.36
456.735	30827.56
456.941	30012.47
457.147	29465.66
457.352	28689.48
457.558	28138.58
457.764	28523.6
457.97	27862.1
458.176	26946.66
458.381	27100.26
458.587	25758.84
458.793	25584.76
458.999	24442
459.204	26207.34
459.41	25322.62
459.616	23893.14
459.821	23782.55
460.027	23798.93
460.233	23078.05
460.438	22062.26
460.644	22359.21
460.85	21517.5
461.055	20956.35
461.261	20806.85
461.466	19272.92
461.672	18818.27
461.878	20098.25
462.083	18924.77
462.289	18435.3
462.494	18038
462.7	17593.59
462.905	16923.9
463.111	17405.17
463.316	17437.94
463.522	17194.23
463.727	17145.08
463.932	16995.58
464.138	17052.92
464.343	17202.43
464.549	16606.47
464.754	16915.71
464.959	17095.93
465.165	16874.75
465.37	16139.53
465.575	15699.22
465.781	16164.11
465.986	16399.62
466.191	15983.88
466.397	15455.51
466.602	14738.72
466.807	15435.03
467.012	15508.76
467.218	15228.18
467.423	14927.13
467.628	15269.14
