Data from USB4F104151__106__11-35-17-275.txt Node

Date: Fri Mar 14 11:35:17 EDT 2025
User: louis
Spectrometer: USB4F10415
Trigger mode: 4
Integration Time (sec): 2.000000E-2
Scans to average: 1
Electric dark correction enabled: true
Nonlinearity correction enabled: false
Boxcar width: 0
XAxis mode: Wavelengths
Number of Pixels in Spectrum: 3648
>>>>>Begin Spectral Data<<<<<
178.204	-100.52
178.424	-100.52
178.644	-100.52
178.864	-39.08
179.084	-59.56
179.304	34.64
179.524	-18.6
179.744	18.26
179.964	73.56
180.184	-47.27
180.404	12.12
180.624	24.4
180.844	-63.66
181.064	16.21
181.283	8.02
181.503	-37.03
181.723	-20.65
181.943	-34.99
182.163	102.23
182.383	8.02
182.602	3.93
182.822	57.17
183.042	79.7
183.262	12.12
183.482	5.97
183.701	20.31
183.921	79.7
184.141	48.98
184.361	51.03
184.58	44.88
184.8	26.45
185.02	1.88
185.239	-8.36
185.459	55.12
185.679	79.7
185.898	-41.13
186.118	16.21
186.338	-34.99
186.557	-24.75
186.777	5.97
186.997	-14.51
187.216	34.64
187.436	20.31
187.655	55.12
187.875	34.64
188.095	24.4
188.314	26.45
188.534	81.75
188.753	81.75
188.973	69.46
189.192	130.9
189.412	-32.94
189.631	53.08
189.851	-16.55
190.07	51.03
190.29	-45.23
190.509	69.46
190.729	-20.65
190.948	55.12
191.168	102.23
191.387	100.18
191.607	42.84
191.826	24.4
192.045	10.07
192.265	73.56
192.484	36.69
192.704	65.36
192.923	53.08
193.142	22.36
193.362	12.12
193.581	112.47
193.8	53.08
194.02	48.98
194.239	34.64
194.458	57.17
194.678	-49.32
194.897	-18.6
195.116	-2.22
195.335	61.27
195.555	-6.31
195.774	5.97
195.993	71.51
196.212	28.5
196.432	38.74
196.651	91.99
196.87	108.37
197.089	124.76
197.308	79.7
197.528	-6.31
197.747	1.88
197.966	-20.65
198.185	28.5
198.404	42.84
198.623	44.88
198.842	124.76
199.062	36.69
199.281	32.6
199.5	104.28
199.719	63.32
199.938	67.41
200.157	51.03
200.376	87.89
200.595	16.21
200.814	-8.36
201.033	3.93
201.252	32.6
201.471	18.26
201.69	-22.7
201.909	77.65
202.128	-32.94
202.347	61.27
202.566	46.93
202.785	83.8
203.004	-39.08
203.223	18.26
203.442	34.64
203.661	42.84
203.879	10.07
204.098	12.12
204.317	3.93
204.536	81.75
204.755	-0.17
204.974	30.55
205.193	22.36
205.411	38.74
205.63	73.56
205.849	10.07
206.068	71.51
206.287	63.32
206.505	46.93
206.724	1.88
206.943	20.31
207.162	-26.79
207.381	-26.79
207.599	38.74
207.818	-30.89
208.037	-12.46
208.255	20.31
208.474	96.08
208.693	51.03
208.911	8.02
209.13	79.7
209.349	-0.17
209.567	96.08
209.786	12.12
210.005	77.65
210.223	-22.7
210.442	12.12
210.661	53.08
210.879	63.32
211.098	38.74
211.316	77.65
211.535	55.12
211.753	48.98
211.972	-22.7
212.191	94.04
212.409	61.27
212.628	79.7
212.846	10.07
213.065	-61.61
213.283	87.89
213.502	22.36
213.72	71.51
213.938	5.97
214.157	30.55
214.375	75.6
214.594	-26.79
214.812	10.07
215.031	57.17
215.249	10.07
215.467	-0.17
215.686	-26.79
215.904	55.12
216.122	26.45
216.341	77.65
216.559	38.74
216.778	30.55
216.996	32.6
217.214	55.12
217.432	-32.94
217.651	14.17
217.869	44.88
218.087	8.02
218.306	-18.6
218.524	-2.22
218.742	98.13
218.96	-2.22
219.179	-2.22
219.397	20.31
219.615	55.12
219.833	42.84
220.051	44.88
220.27	-43.18
220.488	10.07
220.706	104.28
220.924	57.17
221.142	10.07
221.36	34.64
221.578	61.27
221.796	44.88
222.015	30.55
222.233	46.93
222.451	112.47
222.669	104.28
222.887	59.22
223.105	10.07
223.323	-18.6
223.541	-2.22
223.759	100.18
223.977	-30.89
224.195	16.21
224.413	91.99
224.631	118.61
224.849	83.8
225.067	69.46
225.285	-57.51
225.503	102.23
225.721	10.07
225.939	-2.22
226.157	73.56
226.375	46.93
226.592	-20.65
226.81	-4.27
227.028	67.41
227.246	14.17
227.464	79.7
227.682	14.17
227.9	14.17
228.117	67.41
228.335	30.55
228.553	34.64
228.771	46.93
228.989	63.32
229.206	32.6
229.424	53.08
229.642	38.74
229.86	48.98
230.077	28.5
230.295	30.55
230.513	67.41
230.731	14.17
230.948	-6.31
231.166	22.36
231.384	63.32
231.601	-12.46
231.819	36.69
232.037	20.31
232.254	-30.89
232.472	-28.84
232.689	-43.18
232.907	71.51
233.125	65.36
233.342	14.17
233.56	-16.55
233.777	57.17
233.995	10.07
234.213	59.22
234.43	26.45
234.648	-26.79
234.865	28.5
235.083	65.36
235.3	-65.71
235.518	36.69
235.735	69.46
235.953	63.32
236.17	1.88
236.388	96.08
236.605	46.93
236.822	32.6
237.04	28.5
237.257	38.74
237.475	-10.41
237.692	-26.79
237.909	71.51
238.127	28.5
238.344	-2.22
238.562	42.84
238.779	30.55
238.996	-4.27
239.214	14.17
239.431	100.18
239.648	30.55
239.865	36.69
240.083	94.04
240.3	1.88
240.517	-6.31
240.735	30.55
240.952	85.84
241.169	55.12
241.386	20.31
241.603	36.69
241.821	14.17
242.038	8.02
242.255	28.5
242.472	46.93
242.689	34.64
242.907	1.88
243.124	10.07
243.341	3.93
243.558	59.22
243.775	73.56
243.992	22.36
244.209	16.21
244.426	5.97
244.643	110.42
244.86	-0.17
245.078	22.36
245.295	108.37
245.512	69.46
245.729	75.6
245.946	-34.99
246.163	14.17
246.38	8.02
246.597	-28.84
246.814	89.94
247.031	22.36
247.248	22.36
247.464	14.17
247.681	71.51
247.898	63.32
248.115	94.04
248.332	48.98
248.549	69.46
248.766	46.93
248.983	28.5
249.2	85.84
249.417	83.8
249.633	118.61
249.85	-24.75
250.067	73.56
250.284	8.02
250.501	22.36
250.717	44.88
250.934	26.45
251.151	98.13
251.368	-10.41
251.585	-12.46
251.801	12.12
252.018	-39.08
252.235	3.93
252.451	26.45
252.668	28.5
252.885	106.32
253.102	36.69
253.318	-59.56
253.535	63.32
253.752	75.6
253.968	55.12
254.185	36.69
254.401	100.18
254.618	-4.27
254.835	1.88
255.051	40.79
255.268	-18.6
255.484	-34.99
255.701	18.26
255.917	1.88
256.134	12.12
256.351	42.84
256.567	34.64
256.784	-18.6
257	30.55
257.217	55.12
257.433	20.31
257.65	77.65
257.866	-18.6
258.082	46.93
258.299	-24.75
258.515	130.9
258.732	5.97
258.948	51.03
259.165	69.46
259.381	-30.89
259.597	26.45
259.814	42.84
260.03	10.07
260.246	3.93
260.463	79.7
260.679	-2.22
260.895	36.69
261.112	26.45
261.328	12.12
261.544	18.26
261.761	114.52
261.977	40.79
262.193	1.88
262.409	51.03
262.626	63.32
262.842	75.6
263.058	26.45
263.274	69.46
263.49	40.79
263.707	55.12
263.923	12.12
264.139	8.02
264.355	55.12
264.571	24.4
264.787	83.8
265.004	32.6
265.22	87.89
265.436	87.89
265.652	44.88
265.868	36.69
266.084	8.02
266.3	71.51
266.516	12.12
266.732	-6.31
266.948	46.93
267.164	-34.99
267.38	61.27
267.596	26.45
267.812	53.08
268.028	22.36
268.244	77.65
268.46	26.45
268.676	-28.84
268.892	42.84
269.108	14.17
269.324	-0.17
269.54	-20.65
269.756	61.27
269.972	1.88
270.188	98.13
270.403	65.36
270.619	112.47
270.835	36.69
271.051	69.46
271.267	38.74
271.483	36.69
271.698	71.51
271.914	73.56
272.13	24.4
272.346	48.98
272.562	-0.17
272.777	87.89
272.993	24.4
273.209	3.93
273.425	114.52
273.64	24.4
273.856	71.51
274.072	122.71
274.287	-6.31
274.503	63.32
274.719	-12.46
274.934	73.56
275.15	51.03
275.366	46.93
275.581	65.36
275.797	108.37
276.012	46.93
276.228	8.02
276.444	44.88
276.659	-4.27
276.875	-14.51
277.09	87.89
277.306	36.69
277.521	100.18
277.737	1.88
277.952	1.88
278.168	42.84
278.383	114.52
278.599	1.88
278.814	28.5
279.03	71.51
279.245	75.6
279.461	-24.75
279.676	46.93
279.892	-16.55
280.107	26.45
280.322	28.5
280.538	65.36
280.753	12.12
280.969	-22.7
281.184	65.36
281.399	34.64
281.615	100.18
281.83	44.88
282.045	40.79
282.26	-67.75
282.476	89.94
282.691	34.64
282.906	77.65
283.122	104.28
283.337	79.7
283.552	94.04
283.767	5.97
283.983	38.74
284.198	14.17
284.413	73.56
284.628	-6.31
284.843	55.12
285.058	51.03
285.274	8.02
285.489	48.98
285.704	40.79
285.919	40.79
286.134	16.21
286.349	-10.41
286.564	75.6
286.779	18.26
286.995	106.32
287.21	24.4
287.425	-26.79
287.64	3.93
287.855	55.12
288.07	-14.51
288.285	55.12
288.5	34.64
288.715	18.26
288.93	59.22
289.145	61.27
289.36	5.97
289.575	30.55
289.79	81.75
290.004	16.21
290.219	28.5
290.434	79.7
290.649	40.79
290.864	-51.37
291.079	1.88
291.294	63.32
291.509	112.47
291.724	48.98
291.938	77.65
292.153	53.08
292.368	-32.94
292.583	-2.22
292.798	30.55
293.012	28.5
293.227	71.51
293.442	28.5
293.657	-28.84
293.871	73.56
294.086	122.71
294.301	51.03
294.516	1.88
294.73	51.03
294.945	30.55
295.16	-16.55
295.374	46.93
295.589	30.55
295.804	46.93
296.018	22.36
296.233	59.22
296.447	22.36
296.662	-4.27
296.877	53.08
297.091	42.84
297.306	18.26
297.52	-26.79
297.735	10.07
297.949	51.03
298.164	65.36
298.378	-4.27
298.593	10.07
298.807	-16.55
299.022	77.65
299.236	5.97
299.451	75.6
299.665	-0.17
299.88	10.07
300.094	24.4
300.309	51.03
300.523	-18.6
300.737	91.99
300.952	30.55
301.166	83.8
301.381	55.12
301.595	28.5
301.809	42.84
302.024	-4.27
302.238	38.74
302.452	53.08
302.667	20.31
302.881	3.93
303.095	20.31
303.309	59.22
303.524	5.97
303.738	94.04
303.952	38.74
304.166	46.93
304.381	-2.22
304.595	100.18
304.809	5.97
305.023	83.8
305.237	14.17
305.452	40.79
305.666	53.08
305.88	85.84
306.094	65.36
306.308	57.17
306.522	46.93
306.736	77.65
306.95	1.88
307.164	-34.99
307.379	16.21
307.593	36.69
307.807	-2.22
308.021	10.07
308.235	34.64
308.449	-24.75
308.663	53.08
308.877	28.5
309.091	55.12
309.305	32.6
309.519	8.02
309.733	-12.46
309.947	18.26
310.161	61.27
310.374	69.46
310.588	104.28
310.802	14.17
311.016	63.32
311.23	-18.6
311.444	46.93
311.658	-16.55
311.872	48.98
312.085	18.26
312.299	89.94
312.513	18.26
312.727	-28.84
312.941	36.69
313.154	28.5
313.368	36.69
313.582	69.46
313.796	22.36
314.009	28.5
314.223	46.93
314.437	89.94
314.651	48.98
314.864	40.79
315.078	48.98
315.292	20.31
315.505	-6.31
315.719	38.74
315.933	22.36
316.146	-34.99
316.36	32.6
316.573	28.5
316.787	32.6
317.001	42.84
317.214	18.26
317.428	-28.84
317.641	-61.61
317.855	67.41
318.068	24.4
318.282	55.12
318.495	-2.22
318.709	-6.31
318.922	10.07
319.136	42.84
319.349	30.55
319.563	-0.17
319.776	8.02
319.99	3.93
320.203	40.79
320.417	36.69
320.63	14.17
320.843	77.65
321.057	63.32
321.27	-28.84
321.483	44.88
321.697	75.6
321.91	89.94
322.124	67.41
322.337	53.08
322.55	79.7
322.763	-8.36
322.977	89.94
323.19	-2.22
323.403	81.75
323.617	8.02
323.83	79.7
324.043	32.6
324.256	53.08
324.469	75.6
324.683	46.93
324.896	30.55
325.109	44.88
325.322	3.93
325.535	106.32
325.748	22.36
325.962	46.93
326.175	98.13
326.388	112.47
326.601	8.02
326.814	22.36
327.027	38.74
327.24	132.95
327.453	91.99
327.666	16.21
327.879	73.56
328.092	53.08
328.305	89.94
328.518	63.32
328.731	96.08
328.944	65.36
329.157	77.65
329.37	112.47
329.583	106.32
329.796	57.17
330.009	34.64
330.222	14.17
330.435	34.64
330.648	22.36
330.861	-12.46
331.073	61.27
331.286	151.38
331.499	108.37
331.712	-2.22
331.925	55.12
332.138	5.97
332.35	55.12
332.563	-4.27
332.776	53.08
332.989	-26.79
333.202	20.31
333.414	38.74
333.627	81.75
333.84	57.17
334.053	87.89
334.265	32.6
334.478	8.02
334.691	128.85
334.903	1.88
335.116	18.26
335.329	59.22
335.541	10.07
335.754	91.99
335.966	40.79
336.179	-22.7
336.392	28.5
336.604	63.32
336.817	12.12
337.029	26.45
337.242	-2.22
337.454	40.79
337.667	-20.65
337.88	40.79
338.092	91.99
338.305	36.69
338.517	3.93
338.729	-16.55
338.942	3.93
339.154	26.45
339.367	55.12
339.579	12.12
339.792	30.55
340.004	44.88
340.217	79.7
340.429	38.74
340.641	-41.13
340.854	59.22
341.066	53.08
341.278	67.41
341.491	55.12
341.703	75.6
341.915	26.45
342.128	94.04
342.34	44.88
342.552	69.46
342.764	16.21
342.977	65.36
343.189	36.69
343.401	30.55
343.613	79.7
343.826	46.93
344.038	44.88
344.25	63.32
344.462	-30.89
344.674	22.36
344.886	53.08
345.099	79.7
345.311	24.4
345.523	-8.36
345.735	26.45
345.947	46.93
346.159	38.74
346.371	14.17
346.583	1.88
346.795	57.17
347.007	-26.79
347.219	59.22
347.431	59.22
347.643	20.31
347.855	32.6
348.067	12.12
348.279	16.21
348.491	55.12
348.703	59.22
348.915	79.7
349.127	83.8
349.339	102.23
349.551	3.93
349.763	34.64
349.975	12.12
350.187	44.88
350.399	81.75
350.61	61.27
350.822	53.08
351.034	1.88
351.246	28.5
351.458	100.18
351.669	5.97
351.881	67.41
352.093	28.5
352.305	42.84
352.517	30.55
352.728	63.32
352.94	40.79
353.152	137.04
353.363	22.36
353.575	-20.65
353.787	55.12
353.999	114.52
354.21	5.97
354.422	1.88
354.633	77.65
354.845	16.21
355.057	87.89
355.268	85.84
355.48	102.23
355.692	53.08
355.903	-39.08
356.115	77.65
356.326	26.45
356.538	55.12
356.749	14.17
356.961	118.61
357.172	38.74
357.384	63.32
357.595	112.47
357.807	65.36
358.018	-43.18
358.23	-18.6
358.441	112.47
358.653	53.08
358.864	61.27
359.075	79.7
359.287	44.88
359.498	1.88
359.709	40.79
359.921	108.37
360.132	5.97
360.344	69.46
360.555	53.08
360.766	83.8
360.977	38.74
361.189	30.55
361.4	96.08
361.611	94.04
361.823	26.45
362.034	34.64
362.245	61.27
362.456	61.27
362.667	96.08
362.879	34.64
363.09	-4.27
363.301	77.65
363.512	55.12
363.723	59.22
363.935	71.51
364.146	77.65
364.357	-8.36
364.568	44.88
364.779	24.4
364.99	104.28
365.201	53.08
365.412	34.64
365.623	59.22
365.834	10.07
366.045	34.64
366.256	63.32
366.467	89.94
366.678	14.17
366.889	18.26
367.1	5.97
367.311	71.51
367.522	32.6
367.733	77.65
367.944	-24.75
368.155	42.84
368.366	34.64
368.577	112.47
368.788	42.84
368.999	48.98
369.209	30.55
369.42	77.65
369.631	159.57
369.842	-0.17
370.053	36.69
370.264	73.56
370.474	104.28
370.685	81.75
370.896	81.75
371.107	85.84
371.317	96.08
371.528	153.43
371.739	28.5
371.95	110.42
372.16	65.36
372.371	61.27
372.582	67.41
372.792	20.31
373.003	96.08
373.214	63.32
373.424	12.12
373.635	8.02
373.846	106.32
374.056	46.93
374.267	-22.7
374.477	61.27
374.688	5.97
374.898	-4.27
375.109	61.27
375.319	75.6
375.53	3.93
375.74	46.93
375.951	14.17
376.161	22.36
376.372	59.22
376.582	114.52
376.793	30.55
377.003	116.56
377.214	-57.51
377.424	87.89
377.635	77.65
377.845	51.03
378.055	81.75
378.266	22.36
378.476	100.18
378.686	81.75
378.897	59.22
379.107	57.17
379.317	-2.22
379.528	5.97
379.738	91.99
379.948	22.36
380.158	108.37
380.369	34.64
380.579	38.74
380.789	63.32
380.999	20.31
381.21	96.08
381.42	75.6
381.63	53.08
381.84	79.7
382.05	18.26
382.261	132.95
382.471	65.36
382.681	63.32
382.891	14.17
383.101	69.46
383.311	3.93
383.521	30.55
383.731	30.55
383.941	3.93
384.151	36.69
384.361	55.12
384.571	55.12
384.781	65.36
384.991	32.6
385.201	104.28
385.411	51.03
385.621	102.23
385.831	18.26
386.041	94.04
386.251	-2.22
386.461	18.26
386.671	53.08
386.881	46.93
387.091	12.12
387.301	8.02
387.511	46.93
387.72	14.17
387.93	87.89
388.14	73.56
388.35	59.22
388.56	98.13
388.769	20.31
388.979	81.75
389.189	30.55
389.399	53.08
389.609	14.17
389.818	59.22
390.028	32.6
390.238	132.95
390.447	53.08
390.657	87.89
390.867	87.89
391.076	143.19
391.286	104.28
391.496	79.7
391.705	65.36
391.915	165.71
392.125	26.45
392.334	30.55
392.544	108.37
392.753	18.26
392.963	59.22
393.172	91.99
393.382	32.6
393.591	137.04
393.801	79.7
394.01	104.28
394.22	85.84
394.429	44.88
394.639	112.47
394.848	77.65
395.058	75.6
395.267	139.09
395.477	30.55
395.686	96.08
395.895	151.38
396.105	122.71
396.314	61.27
396.524	83.8
396.733	32.6
396.942	63.32
397.152	157.52
397.361	137.04
397.57	55.12
397.78	108.37
397.989	22.36
398.198	79.7
398.407	79.7
398.617	137.04
398.826	51.03
399.035	87.89
399.244	85.84
399.453	63.32
399.663	14.17
399.872	108.37
400.081	40.79
400.29	161.62
400.499	71.51
400.708	147.28
400.917	83.8
401.127	167.76
401.336	71.51
401.545	75.6
401.754	85.84
401.963	71.51
402.172	122.71
402.381	87.89
402.59	128.85
402.799	178
403.008	153.43
403.217	118.61
403.426	89.94
403.635	108.37
403.844	118.61
404.053	100.18
404.262	175.95
404.471	137.04
404.68	157.52
404.888	153.43
405.097	87.89
405.306	130.9
405.515	124.76
405.724	169.81
405.933	135
406.142	126.8
406.35	210.77
406.559	190.29
406.768	161.62
406.977	208.72
407.185	233.3
407.394	194.39
407.603	149.33
407.812	153.43
408.02	221.01
408.229	190.29
408.438	245.59
408.646	157.52
408.855	180.05
409.064	261.97
409.272	251.73
409.481	253.78
409.69	311.12
409.898	235.35
410.107	302.93
410.315	329.55
410.524	292.69
410.733	354.13
410.941	296.78
411.15	284.5
411.358	362.32
411.567	257.87
411.775	370.51
411.984	386.9
412.192	309.07
412.401	413.52
412.609	460.62
412.818	395.09
413.026	491.34
413.234	454.48
413.443	464.72
413.651	454.48
413.86	503.63
414.068	560.97
414.276	585.55
414.485	511.82
414.693	595.79
414.901	583.5
415.11	632.65
415.318	542.54
415.526	595.79
415.734	689.99
415.943	624.46
416.151	720.71
416.359	792.39
416.567	694.09
416.776	847.69
416.984	913.22
417.192	890.7
417.4	890.7
417.608	900.94
417.817	948.04
418.025	1032.01
418.233	989
418.441	943.94
418.649	1085.25
418.857	1128.26
419.065	1169.22
419.273	1070.92
419.481	1201.99
419.689	1253.19
419.897	1314.63
420.105	1316.67
420.313	1394.5
420.521	1429.31
420.729	1388.35
420.937	1525.57
421.145	1476.41
421.353	1681.21
421.561	1713.98
421.769	1752.89
421.977	1828.67
422.185	1765.18
422.393	1814.33
422.601	2027.32
422.809	1965.88
423.017	2012.98
423.224	2086.71
423.432	2066.23
423.64	2180.92
423.848	2379.57
424.056	2289.46
424.263	2633.52
424.471	2492.21
424.679	2543.41
424.887	2740.01
425.094	2783.02
425.302	2746.16
425.51	2881.32
425.718	3036.97
425.925	3041.06
426.133	3082.02
426.341	3352.35
426.548	3360.55
426.756	3372.83
426.964	3600.16
427.171	3690.27
427.379	3831.58
427.586	3778.33
427.794	3929.88
428.001	4052.76
428.209	4427.54
428.417	4142.87
428.624	4560.66
428.832	4482.83
429.039	4566.8
429.247	4503.31
429.454	5091.08
429.662	5216.01
429.869	4970.25
430.076	5330.69
430.284	5273.35
430.491	5379.84
430.699	5750.53
430.906	5793.53
431.114	5777.15
431.321	5910.27
431.528	6016.76
431.736	6387.44
431.943	6616.82
432.15	6571.76
432.358	6647.54
432.565	7048.94
432.772	7028.46
432.979	7333.61
433.187	7497.44
433.394	7411.43
433.601	7993.05
433.808	8093.4
434.016	7937.76
434.223	8247
434.43	8857.29
434.637	8953.55
434.844	9184.97
435.052	9363.14
435.259	9217.74
435.466	9496.26
435.673	9199.3
435.88	9971.39
436.087	10344.12
436.294	10497.72
436.501	10114.75
436.708	10581.68
436.915	10858.16
437.122	11257.51
437.329	11353.77
437.537	11458.21
437.743	11753.12
437.95	11564.71
438.157	12256.92
438.364	12461.72
438.571	12840.59
438.778	12867.22
438.985	13866.63
439.192	13465.22
439.399	13827.71
439.606	13532.81
439.813	14177.92
440.02	15124.08
440.227	14710.39
440.433	14812.79
440.64	15126.13
440.847	15087.22
441.054	15699.56
441.261	16678.49
441.467	16426.59
441.674	16844.37
441.881	17378.89
442.088	17223.25
442.294	17141.33
442.501	17452.62
442.708	17993.28
442.914	18572.86
443.121	19516.97
443.328	18720.31
443.534	20145.7
443.741	19854.89
443.948	19338.8
444.154	20891.16
444.361	20725.27
444.568	20819.48
444.774	20536.86
444.981	21229.07
445.187	21911.05
445.394	22404.61
445.6	22617.6
445.807	24448.48
446.013	23653.87
446.22	23893.48
446.426	25019.86
446.633	25261.52
446.839	25998.79
447.046	24894.94
447.252	26170.82
447.459	26258.88
447.665	26166.73
447.871	27346.36
448.078	28358.05
448.284	27145.66
448.491	27923.88
448.697	29005.21
448.903	29509.01
449.11	29355.41
449.316	29181.34
449.522	29511.06
449.728	30096.78
449.935	30795.14
450.141	30522.76
450.347	31227.26
450.553	30533
450.76	30406.02
450.966	31550.84
451.172	31348.09
451.378	32152.94
451.584	31520.12
451.791	31942
451.997	32107.88
452.203	32400.74
452.409	32464.23
452.615	32824.67
452.821	31004.03
453.027	30899.58
453.233	32212.33
453.44	31194.49
453.646	31640.95
453.852	31898.99
454.058	32177.51
454.264	31223.16
454.47	31831.41
454.676	30844.29
454.882	32255.34
455.088	29275.54
455.294	29511.06
455.5	29965.71
455.705	30385.54
455.911	29298.07
456.117	28675.49
456.323	28315.05
456.529	26729.92
456.735	27878.83
456.941	27069.88
457.147	26615.23
457.352	25841.1
457.558	25918.92
457.764	25437.65
457.97	24956.38
458.176	24464.86
458.381	24520.16
458.587	23512.56
458.793	23215.6
458.999	22107.65
459.204	23901.67
459.41	22908.41
459.616	21782.02
459.821	21564.94
460.027	21464.59
460.233	21265.94
460.438	20147.75
460.644	20330.02
460.85	19236.4
461.055	19033.65
461.261	19162.67
461.466	17704.52
461.672	17014.35
461.878	18622.01
462.083	17104.46
462.289	16727.64
462.494	16705.11
462.7	16092.77
462.905	15421.03
463.111	16158.3
463.316	16158.3
463.522	15617.64
463.727	15681.13
463.932	15584.87
464.138	15382.12
464.343	15701.61
464.549	15103.6
464.754	15556.2
464.959	15326.83
465.165	15666.79
465.37	14745.2
465.575	14421.63
465.781	14960.24
465.986	14843.51
466.191	14593.65
466.397	14259.84
466.602	13561.48
466.807	14096
467.012	14020.22
467.218	13751.94
467.423	13780.61
467.628	13973.12
467.833	14474.87
468.038	13577.86
468.244	13522.57
