Data from USB4F104151__19__11-29-50-217.txt Node

Date: Fri Mar 14 11:29:50 EDT 2025
User: louis
Spectrometer: USB4F10415
Trigger mode: 4
Integration Time (sec): 5.000000E-2
Scans to average: 1
Electric dark correction enabled: true
Nonlinearity correction enabled: false
Boxcar width: 0
XAxis mode: Wavelengths
Number of Pixels in Spectrum: 3648
>>>>>Begin Spectral Data<<<<<
178.204	-94.55
178.424	-94.55
178.644	-94.55
178.864	-119.12
179.084	-90.45
179.304	-20.82
179.524	-53.59
179.744	-2.39
179.964	63.15
180.184	13.99
180.404	5.8
180.624	26.28
180.844	3.75
181.064	-31.06
181.283	1.71
181.503	-16.73
181.723	9.9
181.943	-35.16
182.163	126.63
182.383	28.33
182.602	24.23
182.822	44.71
183.042	104.11
183.262	18.09
183.482	-2.39
183.701	79.53
183.921	30.38
184.141	38.57
184.361	95.91
184.58	-2.39
184.8	85.67
185.02	36.52
185.239	79.53
185.459	24.23
185.679	118.44
185.898	-18.77
186.118	81.58
186.338	77.48
186.557	50.86
186.777	32.43
186.997	50.86
187.216	34.47
187.436	95.91
187.655	114.34
187.875	34.47
188.095	5.8
188.314	95.91
188.534	120.49
188.753	5.8
188.973	26.28
189.192	95.91
189.412	28.33
189.631	63.15
189.851	-35.16
190.07	95.91
190.29	-26.96
190.509	87.72
190.729	30.38
190.948	63.15
191.168	126.63
191.387	1.71
191.607	5.8
191.826	20.14
192.045	38.57
192.265	38.57
192.484	-12.63
192.704	71.34
192.923	18.09
193.142	143.02
193.362	32.43
193.581	50.86
193.8	140.97
194.02	95.91
194.239	44.71
194.458	22.19
194.678	26.28
194.897	16.04
195.116	20.14
195.335	30.38
195.555	63.15
195.774	26.28
195.993	104.11
196.212	44.71
196.432	20.14
196.651	1.71
196.87	34.47
197.089	44.71
197.308	97.96
197.528	38.57
197.747	-10.58
197.966	71.34
198.185	63.15
198.404	59.05
198.623	59.05
198.842	59.05
199.062	42.67
199.281	79.53
199.5	52.91
199.719	65.19
199.938	50.86
200.157	54.95
200.376	5.8
200.595	42.67
200.814	54.95
201.033	120.49
201.252	22.19
201.471	112.3
201.69	38.57
201.909	87.72
202.128	-10.58
202.347	48.81
202.566	3.75
202.785	34.47
203.004	38.57
203.223	104.11
203.442	-10.58
203.661	-18.77
203.879	36.52
204.098	143.02
204.317	-29.01
204.536	52.91
204.755	54.95
204.974	3.75
205.193	102.06
205.411	79.53
205.63	46.76
205.849	26.28
206.068	9.9
206.287	-4.44
206.505	69.29
206.724	-10.58
206.943	11.95
207.162	67.24
207.381	28.33
207.599	104.11
207.818	-29.01
208.037	46.76
208.255	36.52
208.474	38.57
208.693	100.01
208.911	59.05
209.13	-18.77
209.349	95.91
209.567	26.28
209.786	3.75
210.005	63.15
210.223	-26.96
210.442	16.04
210.661	50.86
210.879	-10.58
211.098	38.57
211.316	75.43
211.535	30.38
211.753	59.05
211.972	85.67
212.191	54.95
212.409	5.8
212.628	54.95
212.846	69.29
213.065	32.43
213.283	65.19
213.502	-6.49
213.72	-10.58
213.938	100.01
214.157	38.57
214.375	54.95
214.594	28.33
214.812	30.38
215.031	40.62
215.249	52.91
215.467	11.95
215.686	52.91
215.904	71.34
216.122	67.24
216.341	38.57
216.559	-76.12
216.778	140.97
216.996	-4.44
217.214	52.91
217.432	22.19
217.651	-43.35
217.869	20.14
218.087	42.67
218.306	44.71
218.524	-2.39
218.742	77.48
218.96	110.25
219.179	40.62
219.397	83.63
219.615	13.99
219.833	91.82
220.051	63.15
220.27	71.34
220.488	126.63
220.706	9.9
220.924	9.9
221.142	-16.73
221.36	42.67
221.578	130.73
221.796	20.14
222.015	-53.59
222.233	54.95
222.451	116.39
222.669	42.67
222.887	50.86
223.105	-6.49
223.323	-10.58
223.541	44.71
223.759	7.85
223.977	34.47
224.195	79.53
224.413	128.68
224.631	110.25
224.849	-2.39
225.067	59.05
225.285	46.76
225.503	22.19
225.721	-84.31
225.939	3.75
226.157	1.71
226.375	93.87
226.592	-53.59
226.81	-10.58
227.028	75.43
227.246	128.68
227.464	32.43
227.682	-18.77
227.9	108.2
228.117	52.91
228.335	104.11
228.553	36.52
228.771	18.09
228.989	61.1
229.206	71.34
229.424	9.9
229.642	102.06
229.86	5.8
230.077	89.77
230.295	-4.44
230.513	59.05
230.731	16.04
230.948	38.57
231.166	34.47
231.384	22.19
231.601	59.05
231.819	89.77
232.037	120.49
232.254	18.09
232.472	38.57
232.689	30.38
232.907	85.67
233.125	5.8
233.342	52.91
233.56	63.15
233.777	5.8
233.995	5.8
234.213	7.85
234.43	46.76
234.648	16.04
234.865	87.72
235.083	95.91
235.3	44.71
235.518	67.24
235.735	79.53
235.953	40.62
236.17	-37.2
236.388	30.38
236.605	-2.39
236.822	28.33
237.04	-6.49
237.257	116.39
237.475	-51.54
237.692	110.25
237.909	83.63
238.127	18.09
238.344	26.28
238.562	30.38
238.779	-8.53
238.996	-84.31
239.214	22.19
239.431	30.38
239.648	85.67
239.865	79.53
240.083	128.68
240.3	34.47
240.517	52.91
240.735	63.15
240.952	36.52
241.169	46.76
241.386	13.99
241.603	63.15
241.821	-45.4
242.038	106.15
242.255	85.67
242.472	26.28
242.689	91.82
242.907	110.25
243.124	59.05
243.341	16.04
243.558	28.33
243.775	32.43
243.992	20.14
244.209	122.54
244.426	87.72
244.643	71.34
244.86	20.14
245.078	97.96
245.295	38.57
245.512	9.9
245.729	30.38
245.946	132.78
246.163	32.43
246.38	67.24
246.597	28.33
246.814	59.05
247.031	50.86
247.248	97.96
247.464	-6.49
247.681	18.09
247.898	73.39
248.115	87.72
248.332	-26.96
248.549	83.63
248.766	126.63
248.983	81.58
249.2	-0.34
249.417	26.28
249.633	77.48
249.85	61.1
250.067	36.52
250.284	32.43
250.501	67.24
250.717	44.71
250.934	16.04
251.151	69.29
251.368	36.52
251.585	61.1
251.801	26.28
252.018	-35.16
252.235	57
252.451	57
252.668	59.05
252.885	93.87
253.102	46.76
253.318	16.04
253.535	-43.35
253.752	54.95
253.968	36.52
254.185	-29.01
254.401	59.05
254.618	102.06
254.835	46.76
255.051	-6.49
255.268	116.39
255.484	173.74
255.701	32.43
255.917	149.16
256.134	30.38
256.351	140.97
256.567	-82.26
256.784	-2.39
257	22.19
257.217	79.53
257.433	71.34
257.65	48.81
257.866	44.71
258.082	-4.44
258.299	97.96
258.515	20.14
258.732	114.34
258.948	-6.49
259.165	32.43
259.381	-18.77
259.597	24.23
259.814	34.47
260.03	-10.58
260.246	11.95
260.463	48.81
260.679	69.29
260.895	24.23
261.112	57
261.328	-31.06
261.544	22.19
261.761	77.48
261.977	30.38
262.193	32.43
262.409	42.67
262.626	85.67
262.842	-2.39
263.058	42.67
263.274	38.57
263.49	116.39
263.707	26.28
263.923	87.72
264.139	-53.59
264.355	30.38
264.571	169.64
264.787	44.71
265.004	52.91
265.22	69.29
265.436	28.33
265.652	77.48
265.868	63.15
266.084	1.71
266.3	7.85
266.516	-31.06
266.732	79.53
266.948	28.33
267.164	50.86
267.38	-10.58
267.596	50.86
267.812	120.49
268.028	30.38
268.244	32.43
268.46	-35.16
268.676	-35.16
268.892	13.99
269.108	-14.68
269.324	-26.96
269.54	63.15
269.756	69.29
269.972	-18.77
270.188	93.87
270.403	63.15
270.619	81.58
270.835	77.48
271.051	67.24
271.267	22.19
271.483	65.19
271.698	59.05
271.914	36.52
272.13	91.82
272.346	3.75
272.562	63.15
272.777	36.52
272.993	28.33
273.209	22.19
273.425	67.24
273.64	9.9
273.856	97.96
274.072	-2.39
274.287	28.33
274.503	61.1
274.719	75.43
274.934	20.14
275.15	5.8
275.366	77.48
275.581	38.57
275.797	48.81
276.012	-12.63
276.228	28.33
276.444	52.91
276.659	71.34
276.875	3.75
277.09	-31.06
277.306	75.43
277.521	73.39
277.737	91.82
277.952	67.24
278.168	61.1
278.383	128.68
278.599	-4.44
278.814	54.95
279.03	36.52
279.245	104.11
279.461	61.1
279.676	42.67
279.892	-76.12
280.107	9.9
280.322	-10.58
280.538	83.63
280.753	59.05
280.969	71.34
281.184	81.58
281.399	59.05
281.615	30.38
281.83	79.53
282.045	-22.87
282.26	-37.2
282.476	69.29
282.691	83.63
282.906	3.75
283.122	30.38
283.337	5.8
283.552	-29.01
283.767	-6.49
283.983	50.86
284.198	-10.58
284.413	95.91
284.628	-51.54
284.843	36.52
285.058	38.57
285.274	83.63
285.489	28.33
285.704	22.19
285.919	20.14
286.134	79.53
286.349	38.57
286.564	-0.34
286.779	93.87
286.995	71.34
287.21	11.95
287.425	52.91
287.64	52.91
287.855	52.91
288.07	44.71
288.285	24.23
288.5	11.95
288.715	-2.39
288.93	34.47
289.145	54.95
289.36	59.05
289.575	46.76
289.79	85.67
290.004	36.52
290.219	75.43
290.434	11.95
290.649	30.38
290.864	44.71
291.079	-2.39
291.294	89.77
291.509	28.33
291.724	52.91
291.938	7.85
292.153	65.19
292.368	13.99
292.583	73.39
292.798	50.86
293.012	42.67
293.227	28.33
293.442	79.53
293.657	24.23
293.871	85.67
294.086	77.48
294.301	71.34
294.516	30.38
294.73	20.14
294.945	-10.58
295.16	3.75
295.374	5.8
295.589	69.29
295.804	24.23
296.018	59.05
296.233	112.3
296.447	50.86
296.662	22.19
296.877	57
297.091	81.58
297.306	67.24
297.52	36.52
297.735	57
297.949	-4.44
298.164	79.53
298.378	-12.63
298.593	-14.68
298.807	-26.96
299.022	42.67
299.236	-2.39
299.451	59.05
299.665	-10.58
299.88	-31.06
300.094	63.15
300.309	22.19
300.523	30.38
300.737	69.29
300.952	28.33
301.166	104.11
301.381	-18.77
301.595	57
301.809	-10.58
302.024	26.28
302.238	36.52
302.452	83.63
302.667	85.67
302.881	120.49
303.095	46.76
303.309	95.91
303.524	5.8
303.738	89.77
303.952	-6.49
304.166	52.91
304.381	110.25
304.595	136.87
304.809	13.99
305.023	61.1
305.237	36.52
305.452	50.86
305.666	54.95
305.88	87.72
306.094	126.63
306.308	75.43
306.522	30.38
306.736	63.15
306.95	38.57
307.164	-6.49
307.379	-22.87
307.593	71.34
307.807	5.8
308.021	22.19
308.235	104.11
308.449	5.8
308.663	42.67
308.877	104.11
309.091	9.9
309.305	95.91
309.519	95.91
309.733	1.71
309.947	34.47
310.161	100.01
310.374	-16.73
310.588	106.15
310.802	22.19
311.016	-24.92
311.23	3.75
311.444	-6.49
311.658	44.71
311.872	44.71
312.085	61.1
312.299	13.99
312.513	13.99
312.727	128.68
312.941	93.87
313.154	79.53
313.368	54.95
313.582	-35.16
313.796	85.67
314.009	46.76
314.223	83.63
314.437	71.34
314.651	26.28
314.864	42.67
315.078	-72.02
315.292	-33.11
315.505	30.38
315.719	52.91
315.933	-59.73
316.146	20.14
316.36	5.8
316.573	87.72
316.787	57
317.001	42.67
317.214	11.95
317.428	36.52
317.641	5.8
317.855	67.24
318.068	20.14
318.282	83.63
318.495	91.82
318.709	52.91
318.922	93.87
319.136	83.63
319.349	-2.39
319.563	38.57
319.776	9.9
319.99	-59.73
320.203	67.24
320.417	40.62
320.63	52.91
320.843	114.34
321.057	95.91
321.27	34.47
321.483	63.15
321.697	95.91
321.91	7.85
322.124	65.19
322.337	32.43
322.55	-29.01
322.763	136.87
322.977	38.57
323.19	116.39
323.403	32.43
323.617	52.91
323.83	93.87
324.043	5.8
324.256	104.11
324.469	-47.44
324.683	50.86
324.896	79.53
325.109	79.53
325.322	30.38
325.535	87.72
325.748	91.82
325.962	38.57
326.175	13.99
326.388	75.43
326.601	102.06
326.814	48.81
327.027	52.91
327.24	93.87
327.453	-24.92
327.666	52.91
327.879	38.57
328.092	63.15
328.305	7.85
328.518	46.76
328.731	54.95
328.944	65.19
329.157	26.28
329.37	18.09
329.583	54.95
329.796	104.11
330.009	7.85
330.222	42.67
330.435	95.91
330.648	69.29
330.861	57
331.073	95.91
331.286	73.39
331.499	30.38
331.712	34.47
331.925	-33.11
332.138	13.99
332.35	108.2
332.563	36.52
332.776	59.05
332.989	-22.87
333.202	24.23
333.414	71.34
333.627	85.67
333.84	87.72
334.053	50.86
334.265	71.34
334.478	59.05
334.691	32.43
334.903	44.71
335.116	3.75
335.329	46.76
335.541	110.25
335.754	87.72
335.966	54.95
336.179	52.91
336.392	13.99
336.604	50.86
336.817	59.05
337.029	24.23
337.242	87.72
337.454	71.34
337.667	46.76
337.88	59.05
338.092	48.81
338.305	26.28
338.517	-33.11
338.729	40.62
338.942	93.87
339.154	59.05
339.367	32.43
339.579	75.43
339.792	77.48
340.004	38.57
340.217	102.06
340.429	-10.58
340.641	46.76
340.854	71.34
341.066	69.29
341.278	79.53
341.491	85.67
341.703	128.68
341.915	18.09
342.128	95.91
342.34	71.34
342.552	20.14
342.764	85.67
342.977	71.34
343.189	46.76
343.401	20.14
343.613	-20.82
343.826	-12.63
344.038	40.62
344.25	59.05
344.462	11.95
344.674	30.38
344.886	36.52
345.099	16.04
345.311	75.43
345.523	18.09
345.735	-18.77
345.947	122.54
346.159	102.06
346.371	59.05
346.583	24.23
346.795	155.3
347.007	16.04
347.219	65.19
347.431	44.71
347.643	126.63
347.855	16.04
348.067	173.74
348.279	24.23
348.491	57
348.703	71.34
348.915	22.19
349.127	-31.06
349.339	13.99
349.551	18.09
349.763	20.14
349.975	-18.77
350.187	91.82
350.399	59.05
350.61	110.25
350.822	-37.2
351.034	42.67
351.246	36.52
351.458	83.63
351.669	44.71
351.881	54.95
352.093	54.95
352.305	77.48
352.517	26.28
352.728	75.43
352.94	63.15
353.152	28.33
353.363	26.28
353.575	38.57
353.787	112.3
353.999	100.01
354.21	147.11
354.422	-0.34
354.633	34.47
354.845	71.34
355.057	100.01
355.268	104.11
355.48	147.11
355.692	65.19
355.903	59.05
356.115	24.23
356.326	26.28
356.538	71.34
356.749	83.63
356.961	95.91
357.172	57
357.384	28.33
357.595	77.48
357.807	16.04
358.018	28.33
358.23	116.39
358.441	114.34
358.653	75.43
358.864	32.43
359.075	11.95
359.287	30.38
359.498	38.57
359.709	77.48
359.921	63.15
360.132	-22.87
360.344	1.71
360.555	50.86
360.766	54.95
360.977	7.85
361.189	104.11
361.4	28.33
361.611	52.91
361.823	30.38
362.034	20.14
362.245	-14.68
362.456	100.01
362.667	13.99
362.879	20.14
363.09	20.14
363.301	61.1
363.512	46.76
363.723	30.38
363.935	63.15
364.146	24.23
364.357	44.71
364.568	126.63
364.779	1.71
364.99	122.54
365.201	54.95
365.412	46.76
365.623	67.24
365.834	50.86
366.045	114.34
366.256	145.06
366.467	77.48
366.678	24.23
366.889	116.39
367.1	36.52
367.311	85.67
367.522	28.33
367.733	79.53
367.944	126.63
368.155	48.81
368.366	145.06
368.577	-10.58
368.788	95.91
368.999	3.75
369.209	30.38
369.42	118.44
369.631	134.82
369.842	59.05
370.053	48.81
370.264	120.49
370.474	44.71
370.685	13.99
370.896	42.67
371.107	214.7
371.317	114.34
371.528	77.48
371.739	89.77
371.95	28.33
372.16	128.68
372.371	48.81
372.582	69.29
372.792	38.57
373.003	44.71
373.214	71.34
373.424	95.91
373.635	79.53
373.846	85.67
374.056	3.75
374.267	48.81
374.477	42.67
374.688	65.19
374.898	79.53
375.109	95.91
375.319	67.24
375.53	100.01
375.74	46.76
375.951	89.77
376.161	106.15
376.372	134.82
376.582	-35.16
376.793	65.19
377.003	9.9
377.214	50.86
377.424	71.34
377.635	83.63
377.845	71.34
378.055	112.3
378.266	44.71
378.476	89.77
378.686	24.23
378.897	48.81
379.107	87.72
379.317	69.29
379.528	75.43
379.738	102.06
379.948	52.91
380.158	85.67
380.369	32.43
380.579	83.63
380.789	-2.39
380.999	67.24
381.21	65.19
381.42	147.11
381.63	161.45
381.84	71.34
382.05	42.67
382.261	87.72
382.471	83.63
382.681	-35.16
382.891	120.49
383.101	11.95
383.311	3.75
383.521	54.95
383.731	112.3
383.941	128.68
384.151	50.86
384.361	61.1
384.571	91.82
384.781	77.48
384.991	145.06
385.201	134.82
385.411	18.09
385.621	65.19
385.831	11.95
386.041	100.01
386.251	61.1
386.461	54.95
386.671	1.71
386.881	11.95
387.091	48.81
387.301	83.63
387.511	3.75
387.72	69.29
387.93	134.82
388.14	3.75
388.35	52.91
388.56	120.49
388.769	69.29
388.979	50.86
389.189	-4.44
389.399	120.49
389.609	67.24
389.818	89.77
390.028	28.33
390.238	93.87
390.447	20.14
390.657	100.01
390.867	-18.77
391.076	75.43
391.286	157.35
391.496	28.33
391.705	91.82
391.915	108.2
392.125	110.25
392.334	40.62
392.544	50.86
392.753	106.15
392.963	120.49
393.172	5.8
393.382	18.09
393.591	85.67
393.801	116.39
394.01	183.98
394.22	44.71
394.429	42.67
394.639	122.54
394.848	145.06
395.058	54.95
395.267	36.52
395.477	87.72
395.686	112.3
395.895	124.58
396.105	214.7
396.314	81.58
396.524	196.26
396.733	149.16
396.942	186.02
397.152	149.16
397.361	153.26
397.57	132.78
397.78	112.3
397.989	116.39
398.198	204.46
398.407	128.68
398.617	13.99
398.826	126.63
399.035	75.43
399.244	81.58
399.453	116.39
399.663	79.53
399.872	190.12
400.081	28.33
400.29	153.26
400.499	122.54
400.708	167.59
400.917	140.97
401.127	136.87
401.336	110.25
401.545	149.16
401.754	186.02
401.963	87.72
402.172	153.26
402.381	104.11
402.59	95.91
402.799	71.34
403.008	143.02
403.217	192.17
403.426	136.87
403.635	118.44
403.844	173.74
404.053	128.68
404.262	112.3
404.471	204.46
404.68	143.02
404.888	161.45
405.097	110.25
405.306	140.97
405.515	128.68
405.724	151.21
405.933	190.12
406.142	188.07
406.35	167.59
406.559	192.17
406.768	181.93
406.977	198.31
407.185	216.74
407.394	280.23
407.603	126.63
407.812	247.46
408.02	202.41
408.229	298.66
408.438	210.6
408.646	249.51
408.855	204.46
409.064	290.47
409.272	263.85
409.481	278.18
409.69	245.41
409.898	308.9
410.107	366.25
410.315	341.67
410.524	378.53
410.733	370.34
410.941	366.25
411.15	419.49
411.358	388.77
411.567	476.84
411.775	333.48
411.984	433.83
412.192	429.73
412.401	480.93
412.609	472.74
412.818	505.51
413.026	452.26
413.234	437.92
413.443	505.51
413.651	534.18
413.86	632.48
414.068	585.38
414.276	593.57
414.485	609.95
414.693	669.34
414.901	695.97
415.11	677.54
415.318	730.78
415.526	743.07
415.734	847.52
415.943	784.03
416.151	915.1
416.359	814.75
416.567	865.95
416.776	915.1
416.984	982.68
417.192	1019.55
417.4	951.96
417.608	974.49
417.817	1029.79
418.025	1087.13
418.233	1091.23
418.441	1160.86
418.649	1171.1
418.857	1259.16
419.065	1398.42
419.273	1275.54
419.481	1306.26
419.689	1517.2
419.897	1504.92
420.105	1580.69
420.313	1578.64
420.521	1658.51
420.729	1646.23
420.937	1666.71
421.145	1633.94
421.353	1797.78
421.561	1967.76
421.769	1947.28
421.977	1994.38
422.185	2000.52
422.393	2147.98
422.601	2143.88
422.809	2299.53
423.017	2264.71
423.224	2354.82
423.432	2494.08
423.64	2567.81
423.848	2844.29
424.056	2614.91
424.263	2920.06
424.471	2832
424.679	2879.1
424.887	2983.55
425.094	3206.78
425.302	3171.96
425.51	3296.89
425.718	3452.53
425.925	3397.24
426.133	3585.65
426.341	3786.35
426.548	3962.48
426.756	3970.67
426.964	4019.82
427.171	4085.36
427.379	4349.54
427.586	4433.51
427.794	4517.48
428.001	4546.15
428.209	4925.02
428.417	4836.96
428.624	5256.79
428.832	5193.31
429.039	5133.92
429.247	5181.02
429.454	5674.58
429.662	6053.45
429.869	5647.96
430.076	6102.61
430.284	5729.88
430.491	6278.73
430.699	6512.2
430.906	6415.94
431.114	6469.19
431.321	6811.2
431.528	6856.26
431.736	7482.94
431.943	7829.04
432.15	7519.8
432.358	7558.71
432.565	7945.78
432.772	7988.78
432.979	8298.03
433.187	8433.19
433.394	8525.35
433.601	8959.52
433.808	9102.88
434.016	9180.7
434.223	9500.19
434.43	9903.64
434.637	9860.63
434.844	10561.03
435.052	10647.05
435.259	10743.3
435.466	10782.21
435.673	10702.34
435.88	11372.03
436.087	11802.1
436.294	12135.92
436.501	11630.07
436.708	11937.27
436.915	12310
437.122	12821.99
437.329	12797.42
437.537	13202.91
437.743	13477.34
437.95	13424.09
438.157	13999.57
438.364	14511.57
438.571	14575.05
438.778	14552.52
438.985	16092.6
439.192	15388.1
439.399	15705.53
439.606	15531.45
439.813	16473.52
440.02	17345.95
440.227	17135.01
440.433	17120.68
440.64	17370.53
440.847	17264.04
441.054	17534.37
441.261	18916.75
441.467	18568.59
441.674	18965.9
441.881	19867
442.088	19740.03
442.294	19713.41
442.501	20202.87
442.708	20180.34
442.914	21249.38
443.121	22373.72
443.328	21714.27
443.534	22773.07
443.741	22226.26
443.948	22027.61
444.154	23737.66
444.361	23502.15
444.568	23821.63
444.774	23512.39
444.981	23872.83
445.187	25218.35
445.394	25759.01
445.6	25730.34
445.807	27921.66
446.013	26914.06
446.22	27022.61
446.426	28538.1
446.633	28493.05
446.839	29412.59
447.046	28245.24
447.252	29891.81
447.459	29807.84
447.665	29613.29
447.871	30854.36
448.078	32054.47
448.284	30631.13
448.491	31737.03
448.697	33098.93
448.903	33492.14
449.11	33449.13
449.316	32943.28
449.522	33547.43
449.728	34315.42
449.935	34526.36
450.141	34401.44
450.347	35576.97
450.553	34307.23
450.76	34749.59
450.966	35724.43
451.172	35085.46
451.378	36273.28
451.584	35452.05
451.791	36732.03
451.997	36117.64
452.203	36449.41
452.409	36707.45
452.615	36686.97
452.821	35085.46
453.027	34698.39
453.233	36684.92
453.44	35259.54
453.646	35363.98
453.852	35835.02
454.058	36207.75
454.264	34827.42
454.47	35558.54
454.676	35245.2
454.882	36412.54
455.088	32711.86
455.294	33438.89
455.5	33770.66
455.705	34258.08
455.911	32912.56
456.117	31786.18
456.323	31675.59
456.529	29695.21
456.735	31284.43
456.941	30487.77
457.147	29674.73
457.352	29226.22
457.558	28837.11
457.764	28589.3
457.97	28380.41
458.176	27385.1
458.381	27452.68
458.587	25931.04
458.793	25904.42
458.999	24749.36
459.204	26486.04
459.41	25769.25
459.616	23919.93
459.821	24073.53
460.027	24018.24
460.233	23188.81
460.438	22191.45
460.644	22639.95
460.85	21521.76
461.055	21345.64
461.261	21069.16
461.466	19377.54
461.672	19230.09
461.878	20217.21
462.083	18974.09
462.289	18597.26
462.494	18435.47
462.7	17767.84
462.905	17493.41
463.111	17644.96
463.316	17913.24
463.522	17479.07
463.727	17440.16
463.932	17517.98
464.138	17085.86
464.343	17405.35
464.549	16567.73
464.754	17298.85
464.959	17243.56
465.165	16819.63
465.37	16340.4
465.575	15803.83
465.781	16704.94
465.986	16737.71
466.191	16367.02
466.397	15820.22
466.602	15054.28
466.807	15435.2
467.012	15564.22
