Data from USB4F104151__36__11-30-18-014.txt Node

Date: Fri Mar 14 11:30:18 EDT 2025
User: louis
Spectrometer: USB4F10415
Trigger mode: 4
Integration Time (sec): 5.000000E-2
Scans to average: 1
Electric dark correction enabled: true
Nonlinearity correction enabled: false
Boxcar width: 0
XAxis mode: Wavelengths
Number of Pixels in Spectrum: 3648
>>>>>Begin Spectral Data<<<<<
178.204	-158.89
178.424	-158.89
178.644	-158.89
178.864	-142.5
179.084	-197.8
179.304	4.95
179.524	-1.19
179.744	-31.91
179.964	-7.34
180.184	-19.63
180.404	-42.15
180.624	-15.53
180.844	29.52
181.064	37.72
181.283	-31.91
181.503	54.1
181.723	23.38
181.943	-46.25
182.163	58.2
182.383	-21.67
182.602	62.29
182.822	97.11
183.042	27.48
183.262	37.72
183.482	-21.67
183.701	37.72
183.921	-27.82
184.141	-60.59
184.361	70.48
184.58	-27.82
184.8	37.72
185.02	-36.01
185.239	29.52
185.459	27.48
185.679	-36.01
185.898	-46.25
186.118	17.24
186.338	-11.43
186.557	68.44
186.777	-33.96
186.997	-11.43
187.216	52.05
187.436	52.05
187.655	58.2
187.875	37.72
188.095	17.24
188.314	90.96
188.534	37.72
188.753	-25.77
188.973	70.48
189.192	50
189.412	7
189.631	21.33
189.851	66.39
190.07	70.48
190.29	-5.29
190.509	62.29
190.729	-38.06
190.948	39.76
191.168	193.36
191.387	25.43
191.607	25.43
191.826	17.24
192.045	54.1
192.265	-19.63
192.484	-1.19
192.704	2.9
192.923	-7.34
193.142	70.48
193.362	4.95
193.581	13.14
193.8	70.48
194.02	21.33
194.239	37.72
194.458	-3.24
194.678	4.95
194.897	29.52
195.116	17.24
195.335	17.24
195.555	21.33
195.774	-21.67
195.993	62.29
196.212	4.95
196.432	-9.39
196.651	50
196.87	35.67
197.089	70.48
197.308	74.58
197.528	54.1
197.747	-29.87
197.966	74.58
198.185	41.81
198.404	-36.01
198.623	33.62
198.842	72.53
199.062	33.62
199.281	25.43
199.5	29.52
199.719	84.82
199.938	68.44
200.157	84.82
200.376	60.24
200.595	68.44
200.814	56.15
201.033	-21.67
201.252	62.29
201.471	74.58
201.69	54.1
201.909	84.82
202.128	-31.91
202.347	-48.3
202.566	-29.87
202.785	-85.16
203.004	0.85
203.223	109.4
203.442	-29.87
203.661	-21.67
203.879	45.91
204.098	60.24
204.317	0.85
204.536	31.57
204.755	41.81
204.974	43.86
205.193	-3.24
205.411	43.86
205.63	74.58
205.849	37.72
206.068	-19.63
206.287	17.24
206.505	37.72
206.724	72.53
206.943	29.52
207.162	58.2
207.381	-79.02
207.599	-21.67
207.818	13.14
208.037	43.86
208.255	-15.53
208.474	17.24
208.693	-46.25
208.911	-19.63
209.13	29.52
209.349	58.2
209.567	37.72
209.786	33.62
210.005	43.86
210.223	-33.96
210.442	0.85
210.661	-42.15
210.879	-3.24
211.098	7
211.316	52.05
211.535	17.24
211.753	-70.83
211.972	27.48
212.191	43.86
212.409	52.05
212.628	43.86
212.846	60.24
213.065	2.9
213.283	84.82
213.502	21.33
213.72	33.62
213.938	-9.39
214.157	47.96
214.375	76.63
214.594	35.67
214.812	27.48
215.031	-19.63
215.249	-11.43
215.467	25.43
215.686	64.34
215.904	25.43
216.122	4.95
216.341	35.67
216.559	2.9
216.778	66.39
216.996	-54.44
217.214	-9.39
217.432	29.52
217.651	4.95
217.869	-27.82
218.087	-40.11
218.306	37.72
218.524	103.25
218.742	25.43
218.96	11.09
219.179	-27.82
219.397	37.72
219.615	37.72
219.833	29.52
220.051	-31.91
220.27	19.29
220.488	60.24
220.706	119.64
220.924	-21.67
221.142	13.14
221.36	21.33
221.578	19.29
221.796	13.14
222.015	-3.24
222.233	-3.24
222.451	21.33
222.669	43.86
222.887	-29.87
223.105	-11.43
223.323	23.38
223.541	45.91
223.759	68.44
223.977	52.05
224.195	23.38
224.413	56.15
224.631	41.81
224.849	17.24
225.067	70.48
225.285	2.9
225.503	0.85
225.721	-44.2
225.939	-19.63
226.157	27.48
226.375	80.72
226.592	-134.31
226.81	17.24
227.028	45.91
227.246	125.78
227.464	-11.43
227.682	54.1
227.9	2.9
228.117	23.38
228.335	-19.63
228.553	39.76
228.771	-5.29
228.989	29.52
229.206	54.1
229.424	19.29
229.642	-101.55
229.86	68.44
230.077	45.91
230.295	-36.01
230.513	95.06
230.731	82.77
230.948	99.16
231.166	76.63
231.384	-9.39
231.601	62.29
231.819	9.05
232.037	9.05
232.254	-7.34
232.472	11.09
232.689	-52.39
232.907	-48.3
233.125	25.43
233.342	52.05
233.56	-3.24
233.777	-5.29
233.995	-23.72
234.213	66.39
234.43	54.1
234.648	17.24
234.865	-44.2
235.083	25.43
235.3	70.48
235.518	13.14
235.735	99.16
235.953	90.96
236.17	-36.01
236.388	-23.72
236.605	45.91
236.822	107.35
237.04	103.25
237.257	-33.96
237.475	-23.72
237.692	47.96
237.909	60.24
238.127	-48.3
238.344	45.91
238.562	-13.48
238.779	-15.53
238.996	19.29
239.214	21.33
239.431	74.58
239.648	-7.34
239.865	7
240.083	52.05
240.3	-68.78
240.517	-54.44
240.735	37.72
240.952	101.2
241.169	52.05
241.386	76.63
241.603	19.29
241.821	68.44
242.038	21.33
242.255	13.14
242.472	-27.82
242.689	50
242.907	25.43
243.124	76.63
243.341	-60.59
243.558	45.91
243.775	-97.45
243.992	-44.2
244.209	68.44
244.426	115.54
244.643	56.15
244.86	45.91
245.078	54.1
245.295	45.91
245.512	21.33
245.729	-68.78
245.946	29.52
246.163	13.14
246.38	13.14
246.597	29.52
246.814	-40.11
247.031	-7.34
247.248	31.57
247.464	52.05
247.681	56.15
247.898	-19.63
248.115	74.58
248.332	-76.97
248.549	82.77
248.766	41.81
248.983	-23.72
249.2	15.19
249.417	45.91
249.633	17.24
249.85	45.91
250.067	-3.24
250.284	136.02
250.501	13.14
250.717	70.48
250.934	2.9
251.151	64.34
251.368	-7.34
251.585	-11.43
251.801	-15.53
252.018	-79.02
252.235	70.48
252.451	-13.48
252.668	-46.25
252.885	60.24
253.102	60.24
253.318	33.62
253.535	-5.29
253.752	-7.34
253.968	37.72
254.185	-46.25
254.401	9.05
254.618	37.72
254.835	-72.87
255.051	144.21
255.268	-11.43
255.484	21.33
255.701	68.44
255.917	33.62
256.134	4.95
256.351	9.05
256.567	21.33
256.784	7
257	-76.97
257.217	-3.24
257.433	19.29
257.65	121.68
257.866	27.48
258.082	-44.2
258.299	35.67
258.515	47.96
258.732	-27.82
258.948	-44.2
259.165	68.44
259.381	29.52
259.597	35.67
259.814	-29.87
260.03	15.19
260.246	7
260.463	31.57
260.679	56.15
260.895	11.09
261.112	113.49
261.328	-68.78
261.544	-29.87
261.761	19.29
261.977	-5.29
262.193	-9.39
262.409	54.1
262.626	62.29
262.842	25.43
263.058	-11.43
263.274	-5.29
263.49	54.1
263.707	35.67
263.923	-7.34
264.139	29.52
264.355	39.76
264.571	86.87
264.787	35.67
265.004	76.63
265.22	-3.24
265.436	27.48
265.652	0.85
265.868	4.95
266.084	68.44
266.3	-1.19
266.516	50
266.732	39.76
266.948	29.52
267.164	-76.97
267.38	70.48
267.596	-58.54
267.812	119.64
268.028	19.29
268.244	-56.49
268.46	11.09
268.676	13.14
268.892	2.9
269.108	27.48
269.324	-21.67
269.54	-72.87
269.756	125.78
269.972	-38.06
270.188	-3.24
270.403	-60.59
270.619	-3.24
270.835	25.43
271.051	-25.77
271.267	0.85
271.483	-19.63
271.698	66.39
271.914	76.63
272.13	17.24
272.346	7
272.562	-36.01
272.777	72.53
272.993	-7.34
273.209	103.25
273.425	-15.53
273.64	27.48
273.856	-7.34
274.072	-5.29
274.287	-9.39
274.503	17.24
274.719	35.67
274.934	-21.67
275.15	-36.01
275.366	43.86
275.581	33.62
275.797	29.52
276.012	45.91
276.228	15.19
276.444	21.33
276.659	58.2
276.875	-109.74
277.09	-19.63
277.306	27.48
277.521	62.29
277.737	29.52
277.952	29.52
278.168	78.68
278.383	-7.34
278.599	7
278.814	-11.43
279.03	-3.24
279.245	23.38
279.461	27.48
279.676	11.09
279.892	41.81
280.107	9.05
280.322	-27.82
280.538	-11.43
280.753	9.05
280.969	72.53
281.184	-29.87
281.399	58.2
281.615	19.29
281.83	33.62
282.045	-9.39
282.26	17.24
282.476	17.24
282.691	136.02
282.906	58.2
283.122	19.29
283.337	-19.63
283.552	39.76
283.767	13.14
283.983	27.48
284.198	56.15
284.413	0.85
284.628	17.24
284.843	-23.72
285.058	-3.24
285.274	31.57
285.489	-7.34
285.704	60.24
285.919	19.29
286.134	-44.2
286.349	11.09
286.564	-11.43
286.779	25.43
286.995	-46.25
287.21	-36.01
287.425	54.1
287.64	-54.44
287.855	13.14
288.07	-58.54
288.285	52.05
288.5	90.96
288.715	21.33
288.93	-54.44
289.145	-19.63
289.36	144.21
289.575	37.72
289.79	74.58
290.004	-17.58
290.219	15.19
290.434	2.9
290.649	2.9
290.864	-38.06
291.079	60.24
291.294	31.57
291.509	-36.01
291.724	33.62
291.938	-11.43
292.153	54.1
292.368	-29.87
292.583	2.9
292.798	19.29
293.012	27.48
293.227	-21.67
293.442	-3.24
293.657	0.85
293.871	84.82
294.086	4.95
294.301	76.63
294.516	60.24
294.73	45.91
294.945	-58.54
295.16	2.9
295.374	88.92
295.589	74.58
295.804	-60.59
296.018	2.9
296.233	86.87
296.447	23.38
296.662	-3.24
296.877	21.33
297.091	82.77
297.306	-27.82
297.52	111.44
297.735	68.44
297.949	-44.2
298.164	4.95
298.378	9.05
298.593	78.68
298.807	-17.58
299.022	7
299.236	185.17
299.451	-38.06
299.665	-31.91
299.88	50
300.094	27.48
300.309	31.57
300.523	-7.34
300.737	25.43
300.952	117.59
301.166	27.48
301.381	-48.3
301.595	45.91
301.809	23.38
302.024	4.95
302.238	-11.43
302.452	39.76
302.667	-11.43
302.881	72.53
303.095	41.81
303.309	17.24
303.524	-74.92
303.738	-21.67
303.952	25.43
304.166	-33.96
304.381	-56.49
304.595	78.68
304.809	-68.78
305.023	13.14
305.237	60.24
305.452	27.48
305.666	21.33
305.88	86.87
306.094	27.48
306.308	33.62
306.522	41.81
306.736	74.58
306.95	72.53
307.164	0.85
307.379	33.62
307.593	13.14
307.807	37.72
308.021	9.05
308.235	-15.53
308.449	-76.97
308.663	33.62
308.877	133.97
309.091	29.52
309.305	33.62
309.519	-19.63
309.733	43.86
309.947	-46.25
310.161	19.29
310.374	-5.29
310.588	29.52
310.802	-46.25
311.016	35.67
311.23	60.24
311.444	17.24
311.658	64.34
311.872	66.39
312.085	15.19
312.299	68.44
312.513	21.33
312.727	17.24
312.941	-50.35
313.154	60.24
313.368	43.86
313.582	68.44
313.796	-5.29
314.009	-5.29
314.223	58.2
314.437	13.14
314.651	76.63
314.864	29.52
315.078	37.72
315.292	11.09
315.505	-72.87
315.719	7
315.933	54.1
316.146	-11.43
316.36	9.05
316.573	37.72
316.787	0.85
317.001	74.58
317.214	-3.24
317.428	58.2
317.641	21.33
317.855	21.33
318.068	27.48
318.282	-29.87
318.495	95.06
318.709	45.91
318.922	-27.82
319.136	117.59
319.349	45.91
319.563	-5.29
319.776	11.09
319.99	4.95
320.203	60.24
320.417	95.06
320.63	-29.87
320.843	123.73
321.057	78.68
321.27	39.76
321.483	13.14
321.697	62.29
321.91	-50.35
322.124	-27.82
322.337	9.05
322.55	-60.59
322.763	23.38
322.977	-19.63
323.19	-76.97
323.403	7
323.617	35.67
323.83	86.87
324.043	27.48
324.256	21.33
324.469	109.4
324.683	21.33
324.896	29.52
325.109	-66.73
325.322	-64.68
325.535	-21.67
325.748	41.81
325.962	2.9
326.175	0.85
326.388	-42.15
326.601	84.82
326.814	-13.48
327.027	54.1
327.24	21.33
327.453	-15.53
327.666	70.48
327.879	70.48
328.092	-27.82
328.305	11.09
328.518	119.64
328.731	-5.29
328.944	58.2
329.157	29.52
329.37	-5.29
329.583	27.48
329.796	127.83
330.009	35.67
330.222	62.29
330.435	-48.3
330.648	-7.34
330.861	45.91
331.073	-31.91
331.286	78.68
331.499	52.05
331.712	45.91
331.925	-5.29
332.138	-9.39
332.35	43.86
332.563	-15.53
332.776	29.52
332.989	-52.39
333.202	45.91
333.414	33.62
333.627	88.92
333.84	37.72
334.053	68.44
334.265	27.48
334.478	84.82
334.691	-31.91
334.903	62.29
335.116	50
335.329	52.05
335.541	58.2
335.754	23.38
335.966	-9.39
336.179	62.29
336.392	21.33
336.604	74.58
336.817	-1.19
337.029	-15.53
337.242	-5.29
337.454	62.29
337.667	2.9
337.88	50
338.092	-44.2
338.305	17.24
338.517	-60.59
338.729	13.14
338.942	15.19
339.154	-29.87
339.367	43.86
339.579	4.95
339.792	-23.72
340.004	64.34
340.217	-11.43
340.429	-36.01
340.641	-27.82
340.854	45.91
341.066	9.05
341.278	45.91
341.491	97.11
341.703	15.19
341.915	-70.83
342.128	133.97
342.34	70.48
342.552	50
342.764	62.29
342.977	-60.59
343.189	101.2
343.401	29.52
343.613	-21.67
343.826	-38.06
344.038	-13.48
344.25	80.72
344.462	-19.63
344.674	33.62
344.886	-36.01
345.099	41.81
345.311	29.52
345.523	33.62
345.735	13.14
345.947	105.3
346.159	-13.48
346.371	-23.72
346.583	9.05
346.795	115.54
347.007	-40.11
347.219	52.05
347.431	23.38
347.643	21.33
347.855	-5.29
348.067	80.72
348.279	-3.24
348.491	-62.63
348.703	43.86
348.915	33.62
349.127	37.72
349.339	-50.35
349.551	0.85
349.763	-3.24
349.975	37.72
350.187	50
350.399	62.29
350.61	127.83
350.822	54.1
351.034	101.2
351.246	33.62
351.458	-48.3
351.669	19.29
351.881	45.91
352.093	90.96
352.305	-21.67
352.517	-5.29
352.728	50
352.94	-38.06
353.152	35.67
353.363	11.09
353.575	21.33
353.787	115.54
353.999	47.96
354.21	52.05
354.422	68.44
354.633	-23.72
354.845	-46.25
355.057	13.14
355.268	52.05
355.48	37.72
355.692	27.48
355.903	37.72
356.115	-52.39
356.326	-76.97
356.538	86.87
356.749	-11.43
356.961	4.95
357.172	-29.87
357.384	-5.29
357.595	158.55
357.807	-38.06
358.018	-33.96
358.23	-44.2
358.441	70.48
358.653	37.72
358.864	13.14
359.075	27.48
359.287	-15.53
359.498	37.72
359.709	82.77
359.921	-42.15
360.132	70.48
360.344	-29.87
360.555	9.05
360.766	-9.39
360.977	37.72
361.189	52.05
361.4	21.33
361.611	0.85
361.823	50
362.034	-5.29
362.245	27.48
362.456	-3.24
362.667	54.1
362.879	45.91
363.09	13.14
363.301	50
363.512	21.33
363.723	-9.39
363.935	43.86
364.146	82.77
364.357	45.91
364.568	2.9
364.779	17.24
364.99	45.91
365.201	-50.35
365.412	-7.34
365.623	21.33
365.834	13.14
366.045	-56.49
366.256	72.53
366.467	52.05
366.678	23.38
366.889	29.52
367.1	-9.39
367.311	37.72
367.522	15.19
367.733	86.87
367.944	82.77
368.155	21.33
368.366	72.53
368.577	52.05
368.788	23.38
368.999	-13.48
369.209	50
369.42	138.07
369.631	41.81
369.842	2.9
370.053	0.85
370.264	119.64
370.474	-3.24
370.685	35.67
370.896	101.2
371.107	50
371.317	56.15
371.528	-17.58
371.739	45.91
371.95	-15.53
372.16	62.29
372.371	82.77
372.582	107.35
372.792	21.33
373.003	111.44
373.214	25.43
373.424	-44.2
373.635	33.62
373.846	29.52
374.056	4.95
374.267	-11.43
374.477	66.39
374.688	-21.67
374.898	21.33
375.109	-15.53
375.319	-50.35
375.53	-11.43
375.74	62.29
375.951	4.95
376.161	-15.53
376.372	70.48
376.582	62.29
376.793	78.68
377.003	15.19
377.214	52.05
377.424	-52.39
377.635	4.95
377.845	19.29
378.055	9.05
378.266	-27.82
378.476	0.85
378.686	2.9
378.897	82.77
379.107	-27.82
379.317	74.58
379.528	-13.48
379.738	45.91
379.948	-60.59
380.158	60.24
380.369	-15.53
380.579	31.57
380.789	-54.44
380.999	47.96
381.21	86.87
381.42	93.01
381.63	33.62
381.84	29.52
382.05	31.57
382.261	17.24
382.471	60.24
382.681	-31.91
382.891	86.87
383.101	11.09
383.311	11.09
383.521	-5.29
383.731	35.67
383.941	43.86
384.151	86.87
384.361	-27.82
384.571	-31.91
384.781	-27.82
384.991	103.25
385.201	90.96
385.411	-15.53
385.621	19.29
385.831	103.25
386.041	39.76
386.251	60.24
386.461	95.06
386.671	21.33
386.881	45.91
387.091	29.52
387.301	111.44
387.511	35.67
387.72	37.72
387.93	50
388.14	11.09
388.35	74.58
388.56	103.25
388.769	17.24
388.979	21.33
389.189	-95.4
389.399	37.72
389.609	82.77
389.818	-15.53
390.028	25.43
390.238	74.58
390.447	45.91
390.657	90.96
390.867	0.85
391.076	-27.82
391.286	131.92
391.496	29.52
391.705	27.48
391.915	2.9
392.125	37.72
392.334	45.91
392.544	37.72
392.753	70.48
392.963	45.91
393.172	54.1
393.382	35.67
393.591	84.82
393.801	9.05
394.01	107.35
394.22	99.16
394.429	43.86
394.639	70.48
394.848	86.87
395.058	25.43
395.267	2.9
395.477	93.01
395.686	93.01
395.895	97.11
396.105	144.21
396.314	50
396.524	43.86
396.733	62.29
396.942	68.44
397.152	21.33
397.361	99.16
397.57	0.85
397.78	86.87
397.989	78.68
398.198	133.97
398.407	-36.01
398.617	27.48
398.826	54.1
399.035	72.53
399.244	105.3
399.453	70.48
399.663	115.54
399.872	111.44
400.081	17.24
400.29	119.64
400.499	35.67
400.708	131.92
400.917	158.55
401.127	11.09
401.336	54.1
401.545	129.88
401.754	-19.63
401.963	109.4
402.172	58.2
402.381	45.91
402.59	76.63
402.799	86.87
403.008	66.39
403.217	86.87
403.426	13.14
403.635	54.1
403.844	78.68
404.053	23.38
404.262	41.81
404.471	140.12
404.68	144.21
404.888	101.2
405.097	90.96
405.306	70.48
405.515	127.83
405.724	39.76
405.933	160.59
406.142	72.53
406.35	60.24
406.559	66.39
406.768	109.4
406.977	176.98
407.185	133.97
407.394	230.23
407.603	84.82
407.812	185.17
408.02	148.31
408.229	142.16
408.438	136.02
408.646	88.92
408.855	142.16
409.064	125.78
409.272	205.65
409.481	217.94
409.69	144.21
409.898	185.17
410.107	191.31
410.315	160.59
410.524	207.7
410.733	176.98
410.941	232.27
411.15	316.24
411.358	322.38
411.567	291.66
411.775	267.09
411.984	318.29
412.192	291.66
412.401	308.05
412.609	363.34
412.818	387.92
413.026	340.82
413.234	332.62
413.443	338.77
413.651	324.43
413.86	418.64
414.068	404.3
414.276	422.73
414.485	412.5
414.693	506.7
414.901	562
415.11	480.08
415.318	533.33
415.526	521.04
415.734	566.09
415.943	500.56
416.151	566.09
416.359	496.46
416.567	611.15
416.776	607.05
416.984	676.68
417.192	715.59
417.4	658.25
417.608	635.72
417.817	748.36
418.025	682.83
418.233	848.71
418.441	742.22
418.649	781.13
418.857	863.05
419.065	914.25
419.273	738.12
419.481	928.58
419.689	947.01
419.897	1002.31
420.105	1071.94
420.313	1102.66
420.521	1125.19
420.729	1180.48
420.937	1147.72
421.145	1209.15
421.353	1184.58
421.561	1266.5
421.769	1291.07
421.977	1299.27
422.185	1350.46
422.393	1438.53
422.601	1481.53
422.809	1536.83
423.017	1553.21
423.224	1635.13
423.432	1696.57
423.64	1733.43
423.848	1913.66
424.056	1841.98
424.263	1934.14
424.471	1971
424.679	2024.25
424.887	2085.69
425.094	2075.45
425.302	2106.17
425.51	2149.17
425.718	2302.77
425.925	2327.35
426.133	2448.18
426.341	2599.73
426.548	2638.64
426.756	2652.97
426.964	2614.06
427.171	2716.46
427.379	2962.22
427.586	2757.42
427.794	3046.18
428.001	3152.68
428.209	3386.15
428.417	3349.28
428.624	3439.39
428.832	3564.32
429.039	3580.7
429.247	3357.47
429.454	3617.57
429.662	4090.65
429.869	3746.59
430.076	4039.45
430.284	4035.35
430.491	4174.61
430.699	4451.09
430.906	4375.31
431.114	4229.91
431.321	4590.35
431.528	4516.62
431.736	5024.52
431.943	5208.84
432.15	5100.3
432.358	5157.64
432.565	5413.63
432.772	5278.47
432.979	5608.19
433.187	5718.78
433.394	5796.6
433.601	6140.66
433.808	6140.66
434.016	6111.99
434.223	6419.19
434.43	6810.35
434.637	6767.34
434.844	7058.15
435.052	7226.09
435.259	7131.88
435.466	7277.29
435.673	7195.37
435.88	7625.44
436.087	8078.04
436.294	7946.97
436.501	7793.37
436.708	8055.51
436.915	8180.44
437.122	8549.07
437.329	8581.84
437.537	8798.93
437.743	8950.48
437.95	8854.22
438.157	9511.62
438.364	9753.28
438.571	9712.32
438.778	9792.19
438.985	10457.78
439.192	10101.44
439.399	10678.96
439.606	10015.42
439.813	10881.71
440.02	11582.12
440.227	11608.74
440.433	11270.83
440.64	11647.65
440.847	11424.42
441.054	11899.55
441.261	12786.32
441.467	12559
441.674	12446.36
441.881	13163.15
442.088	13177.48
442.294	12962.45
442.501	13505.16
442.708	13777.54
442.914	14430.84
443.121	14828.15
443.328	14412.41
443.534	15598.18
443.741	15000.18
443.948	14740.08
444.154	16200.29
444.361	15837.8
444.568	15893.09
444.774	16013.92
444.981	16093.79
445.187	16669.27
445.394	17351.24
445.6	17046.1
445.807	18590.27
446.013	17756.74
446.22	18420.28
446.426	18936.37
446.633	19384.88
446.839	19583.53
447.046	18934.32
447.252	20124.19
447.459	20273.7
447.665	19841.57
447.871	20707.87
448.078	21887.5
448.284	20642.33
448.491	21467.66
448.697	22016.52
448.903	22589.95
449.11	22391.3
449.316	21662.22
449.522	22465.02
449.728	23099.89
449.935	23185.91
450.141	23065.08
450.347	23558.64
450.553	22880.76
450.76	23265.78
450.966	23998.95
451.172	23454.19
451.378	24621.53
451.584	23943.66
451.791	24318.43
451.997	24551.9
452.203	24332.77
452.409	24695.26
452.615	24887.77
452.821	23495.15
453.027	23294.45
453.233	24869.34
453.44	23642.6
453.646	23906.79
453.852	24150.5
454.058	24193.51
454.264	23572.97
454.47	23843.31
454.676	23773.67
454.882	24347.11
455.088	22209.03
455.294	22495.74
455.5	22583.8
455.705	22950.39
455.911	22010.37
456.117	21443.09
456.323	21262.86
456.529	20167.2
456.735	20765.21
456.941	20294.18
457.147	20171.3
457.352	19538.48
457.558	19151.41
457.764	19288.62
457.97	18956.85
458.176	18707
458.381	18432.57
458.587	17594.95
458.793	17613.38
458.999	16636.5
459.204	17963.59
459.41	17175.12
459.616	16253.53
459.821	16181.85
460.027	16087.65
460.233	15577.7
460.438	15170.16
460.644	15186.54
460.85	14549.62
461.055	14113.41
461.261	14023.3
461.466	13128.33
461.672	12614.29
461.878	13394.57
462.083	12913.3
462.289	12548.76
462.494	12472.98
462.7	12071.58
462.905	11616.93
463.111	12014.24
463.316	12067.49
463.522	11842.21
463.727	11516.58
463.932	11645.6
464.138	11553.45
464.343	11563.68
464.549	11055.79
464.754	11672.23
464.959	11674.28
465.165	11469.48
465.37	10973.87
465.575	10625.72
465.781	11162.28
465.986	11274.92
466.191	10840.75
466.397	10551.99
466.602	10367.67
466.807	10560.18
467.012	10422.97
467.218	10433.21
467.423	10087.1
467.628	10390.2
467.833	10807.98
