Data from USB4F104151__53__11-30-35-912.txt Node

Date: Fri Mar 14 11:30:35 EDT 2025
User: louis
Spectrometer: USB4F10415
Trigger mode: 4
Integration Time (sec): 5.000000E-2
Scans to average: 1
Electric dark correction enabled: true
Nonlinearity correction enabled: false
Boxcar width: 0
XAxis mode: Wavelengths
Number of Pixels in Spectrum: 3648
>>>>>Begin Spectral Data<<<<<
178.204	-155.99
178.424	-155.99
178.644	-155.99
178.864	-237.91
179.084	-115.03
179.304	-39.25
179.524	24.23
179.744	42.67
179.964	18.09
180.184	24.23
180.404	18.09
180.624	9.9
180.844	-8.53
181.064	-76.12
181.283	-31.06
181.503	-26.96
181.723	44.71
181.943	-39.25
182.163	83.63
182.383	38.57
182.602	95.91
182.822	87.72
183.042	38.57
183.262	30.38
183.482	32.43
183.701	18.09
183.921	48.81
184.141	-22.87
184.361	77.48
184.58	48.81
184.8	73.39
185.02	-0.34
185.239	32.43
185.459	22.19
185.679	67.24
185.898	3.75
186.118	34.47
186.338	22.19
186.557	124.58
186.777	-6.49
186.997	-0.34
187.216	20.14
187.436	83.63
187.655	42.67
187.875	79.53
188.095	38.57
188.314	9.9
188.534	38.57
188.753	34.47
188.973	83.63
189.192	-18.77
189.412	-2.39
189.631	34.47
189.851	52.91
190.07	89.77
190.29	5.8
190.509	32.43
190.729	30.38
190.948	28.33
191.168	179.88
191.387	112.3
191.607	16.04
191.826	104.11
192.045	22.19
192.265	24.23
192.484	18.09
192.704	9.9
192.923	-29.01
193.142	114.34
193.362	153.26
193.581	104.11
193.8	81.58
194.02	18.09
194.239	28.33
194.458	9.9
194.678	57
194.897	-4.44
195.116	-0.34
195.335	100.01
195.555	65.19
195.774	83.63
195.993	110.25
196.212	-14.68
196.432	-31.06
196.651	22.19
196.87	24.23
197.089	149.16
197.308	71.34
197.528	-4.44
197.747	50.86
197.966	71.34
198.185	81.58
198.404	-0.34
198.623	26.28
198.842	132.78
199.062	73.39
199.281	26.28
199.5	7.85
199.719	97.96
199.938	26.28
200.157	34.47
200.376	48.81
200.595	67.24
200.814	16.04
201.033	9.9
201.252	130.73
201.471	100.01
201.69	71.34
201.909	104.11
202.128	75.43
202.347	-2.39
202.566	57
202.785	-49.49
203.004	-18.77
203.223	179.88
203.442	26.28
203.661	36.52
203.879	28.33
204.098	81.58
204.317	7.85
204.536	93.87
204.755	38.57
204.974	85.67
205.193	38.57
205.411	100.01
205.63	48.81
205.849	-39.25
206.068	38.57
206.287	-18.77
206.505	95.91
206.724	26.28
206.943	-6.49
207.162	38.57
207.381	24.23
207.599	34.47
207.818	34.47
208.037	67.24
208.255	5.8
208.474	46.76
208.693	81.58
208.911	100.01
209.13	75.43
209.349	28.33
209.567	30.38
209.786	34.47
210.005	61.1
210.223	1.71
210.442	69.29
210.661	67.24
210.879	65.19
211.098	20.14
211.316	-6.49
211.535	34.47
211.753	26.28
211.972	67.24
212.191	-10.58
212.409	-45.4
212.628	22.19
212.846	3.75
213.065	36.52
213.283	63.15
213.502	-2.39
213.72	24.23
213.938	46.76
214.157	-8.53
214.375	65.19
214.594	5.8
214.812	93.87
215.031	71.34
215.249	46.76
215.467	34.47
215.686	81.58
215.904	38.57
216.122	50.86
216.341	50.86
216.559	-4.44
216.778	83.63
216.996	71.34
217.214	-16.73
217.432	1.71
217.651	1.71
217.869	36.52
218.087	1.71
218.306	63.15
218.524	-8.53
218.742	9.9
218.96	75.43
219.179	18.09
219.397	24.23
219.615	95.91
219.833	57
220.051	46.76
220.27	120.49
220.488	28.33
220.706	30.38
220.924	46.76
221.142	9.9
221.36	44.71
221.578	32.43
221.796	63.15
222.015	63.15
222.233	26.28
222.451	95.91
222.669	-0.34
222.887	48.81
223.105	-0.34
223.323	28.33
223.541	-33.11
223.759	30.38
223.977	-8.53
224.195	9.9
224.413	46.76
224.631	63.15
224.849	57
225.067	106.15
225.285	9.9
225.503	83.63
225.721	-47.44
225.939	22.19
226.157	38.57
226.375	108.2
226.592	26.28
226.81	-10.58
227.028	124.58
227.246	59.05
227.464	73.39
227.682	-37.2
227.9	42.67
228.117	32.43
228.335	104.11
228.553	54.95
228.771	7.85
228.989	9.9
229.206	91.82
229.424	-29.01
229.642	46.76
229.86	-47.44
230.077	54.95
230.295	87.72
230.513	89.77
230.731	69.29
230.948	104.11
231.166	57
231.384	13.99
231.601	46.76
231.819	87.72
232.037	-0.34
232.254	-22.87
232.472	48.81
232.689	-8.53
232.907	7.85
233.125	48.81
233.342	-22.87
233.56	61.1
233.777	50.86
233.995	9.9
234.213	52.91
234.43	89.77
234.648	48.81
234.865	-63.83
235.083	18.09
235.3	40.62
235.518	16.04
235.735	77.48
235.953	106.15
236.17	18.09
236.388	97.96
236.605	-10.58
236.822	73.39
237.04	24.23
237.257	16.04
237.475	-49.49
237.692	44.71
237.909	79.53
238.127	20.14
238.344	9.9
238.562	24.23
238.779	16.04
238.996	48.81
239.214	22.19
239.431	7.85
239.648	26.28
239.865	61.1
240.083	24.23
240.3	-20.82
240.517	83.63
240.735	26.28
240.952	75.43
241.169	42.67
241.386	67.24
241.603	18.09
241.821	18.09
242.038	40.62
242.255	67.24
242.472	52.91
242.689	-20.82
242.907	50.86
243.124	138.92
243.341	26.28
243.558	-6.49
243.775	46.76
243.992	18.09
244.209	73.39
244.426	102.06
244.643	-41.3
244.86	26.28
245.078	22.19
245.295	75.43
245.512	106.15
245.729	9.9
245.946	63.15
246.163	1.71
246.38	32.43
246.597	59.05
246.814	5.8
247.031	7.85
247.248	85.67
247.464	28.33
247.681	42.67
247.898	63.15
248.115	22.19
248.332	42.67
248.549	77.48
248.766	83.63
248.983	26.28
249.2	149.16
249.417	50.86
249.633	65.19
249.85	26.28
250.067	40.62
250.284	100.01
250.501	16.04
250.717	63.15
250.934	-6.49
251.151	-26.96
251.368	57
251.585	59.05
251.801	59.05
252.018	-33.11
252.235	108.2
252.451	3.75
252.668	-37.2
252.885	20.14
253.102	13.99
253.318	26.28
253.535	-6.49
253.752	26.28
253.968	50.86
254.185	77.48
254.401	5.8
254.618	48.81
254.835	16.04
255.051	87.72
255.268	32.43
255.484	11.95
255.701	36.52
255.917	18.09
256.134	34.47
256.351	1.71
256.567	9.9
256.784	140.97
257	13.99
257.217	13.99
257.433	38.57
257.65	1.71
257.866	-18.77
258.082	34.47
258.299	18.09
258.515	116.39
258.732	-6.49
258.948	1.71
259.165	40.62
259.381	-26.96
259.597	83.63
259.814	-18.77
260.03	1.71
260.246	69.29
260.463	63.15
260.679	24.23
260.895	46.76
261.112	57
261.328	63.15
261.544	18.09
261.761	112.3
261.977	145.06
262.193	22.19
262.409	54.95
262.626	-16.73
262.842	32.43
263.058	-72.02
263.274	32.43
263.49	83.63
263.707	42.67
263.923	75.43
264.139	-4.44
264.355	63.15
264.571	36.52
264.787	-16.73
265.004	18.09
265.22	48.81
265.436	16.04
265.652	9.9
265.868	50.86
266.084	-33.11
266.3	28.33
266.516	-26.96
266.732	59.05
266.948	42.67
267.164	-14.68
267.38	67.24
267.596	79.53
267.812	159.4
268.028	24.23
268.244	54.95
268.46	24.23
268.676	44.71
268.892	57
269.108	-26.96
269.324	26.28
269.54	40.62
269.756	63.15
269.972	-14.68
270.188	-33.11
270.403	-0.34
270.619	-57.68
270.835	24.23
271.051	132.78
271.267	38.57
271.483	67.24
271.698	73.39
271.914	22.19
272.13	-6.49
272.346	5.8
272.562	5.8
272.777	81.58
272.993	7.85
273.209	34.47
273.425	24.23
273.64	-14.68
273.856	54.95
274.072	71.34
274.287	69.29
274.503	65.19
274.719	63.15
274.934	9.9
275.15	24.23
275.366	7.85
275.581	18.09
275.797	110.25
276.012	61.1
276.228	42.67
276.444	13.99
276.659	42.67
276.875	-76.12
277.09	106.15
277.306	54.95
277.521	93.87
277.737	71.34
277.952	54.95
278.168	71.34
278.383	95.91
278.599	65.19
278.814	71.34
279.03	-35.16
279.245	46.76
279.461	3.75
279.676	108.2
279.892	-24.92
280.107	18.09
280.322	1.71
280.538	13.99
280.753	46.76
280.969	9.9
281.184	16.04
281.399	157.35
281.615	-8.53
281.83	24.23
282.045	7.85
282.26	-2.39
282.476	42.67
282.691	42.67
282.906	-16.73
283.122	52.91
283.337	59.05
283.552	46.76
283.767	-14.68
283.983	71.34
284.198	67.24
284.413	81.58
284.628	-18.77
284.843	69.29
285.058	83.63
285.274	65.19
285.489	11.95
285.704	-26.96
285.919	46.76
286.134	34.47
286.349	1.71
286.564	9.9
286.779	106.15
286.995	100.01
287.21	26.28
287.425	34.47
287.64	-6.49
287.855	7.85
288.07	1.71
288.285	-26.96
288.5	140.97
288.715	48.81
288.93	63.15
289.145	18.09
289.36	36.52
289.575	61.1
289.79	16.04
290.004	-14.68
290.219	18.09
290.434	63.15
290.649	26.28
290.864	30.38
291.079	106.15
291.294	89.77
291.509	28.33
291.724	24.23
291.938	-14.68
292.153	91.82
292.368	-14.68
292.583	-6.49
292.798	130.73
293.012	11.95
293.227	59.05
293.442	108.2
293.657	26.28
293.871	48.81
294.086	50.86
294.301	108.2
294.516	13.99
294.73	48.81
294.945	30.38
295.16	91.82
295.374	118.44
295.589	57
295.804	59.05
296.018	26.28
296.233	48.81
296.447	18.09
296.662	50.86
296.877	83.63
297.091	26.28
297.306	34.47
297.52	26.28
297.735	48.81
297.949	67.24
298.164	16.04
298.378	50.86
298.593	65.19
298.807	132.78
299.022	69.29
299.236	52.91
299.451	104.11
299.665	-33.11
299.88	1.71
300.094	50.86
300.309	30.38
300.523	20.14
300.737	120.49
300.952	50.86
301.166	13.99
301.381	-20.82
301.595	9.9
301.809	24.23
302.024	34.47
302.238	26.28
302.452	75.43
302.667	67.24
302.881	61.1
303.095	67.24
303.309	104.11
303.524	65.19
303.738	114.34
303.952	54.95
304.166	-26.96
304.381	-31.06
304.595	75.43
304.809	54.95
305.023	32.43
305.237	63.15
305.452	-47.44
305.666	13.99
305.88	102.06
306.094	75.43
306.308	93.87
306.522	1.71
306.736	67.24
306.95	102.06
307.164	50.86
307.379	-24.92
307.593	83.63
307.807	104.11
308.021	97.96
308.235	65.19
308.449	-2.39
308.663	34.47
308.877	104.11
309.091	48.81
309.305	93.87
309.519	26.28
309.733	61.1
309.947	-6.49
310.161	59.05
310.374	118.44
310.588	124.58
310.802	32.43
311.016	7.85
311.23	34.47
311.444	-26.96
311.658	48.81
311.872	42.67
312.085	48.81
312.299	50.86
312.513	77.48
312.727	71.34
312.941	-0.34
313.154	77.48
313.368	54.95
313.582	46.76
313.796	67.24
314.009	20.14
314.223	81.58
314.437	40.62
314.651	83.63
314.864	50.86
315.078	63.15
315.292	50.86
315.505	-57.68
315.719	26.28
315.933	42.67
316.146	9.9
316.36	65.19
316.573	100.01
316.787	54.95
317.001	18.09
317.214	71.34
317.428	59.05
317.641	18.09
317.855	71.34
318.068	30.38
318.282	-22.87
318.495	132.78
318.709	26.28
318.922	36.52
319.136	95.91
319.349	91.82
319.563	-10.58
319.776	54.95
319.99	13.99
320.203	73.39
320.417	61.1
320.63	120.49
320.843	59.05
321.057	44.71
321.27	124.58
321.483	65.19
321.697	50.86
321.91	87.72
322.124	44.71
322.337	38.57
322.55	9.9
322.763	9.9
322.977	65.19
323.19	-37.2
323.403	36.52
323.617	46.76
323.83	91.82
324.043	18.09
324.256	77.48
324.469	26.28
324.683	132.78
324.896	34.47
325.109	100.01
325.322	-33.11
325.535	-41.3
325.748	59.05
325.962	32.43
326.175	9.9
326.388	106.15
326.601	71.34
326.814	97.96
327.027	18.09
327.24	71.34
327.453	7.85
327.666	40.62
327.879	59.05
328.092	91.82
328.305	67.24
328.518	7.85
328.731	46.76
328.944	13.99
329.157	59.05
329.37	34.47
329.583	59.05
329.796	9.9
330.009	18.09
330.222	130.73
330.435	-18.77
330.648	75.43
330.861	59.05
331.073	100.01
331.286	89.77
331.499	38.57
331.712	48.81
331.925	54.95
332.138	89.77
332.35	81.58
332.563	-14.68
332.776	34.47
332.989	38.57
333.202	69.29
333.414	7.85
333.627	52.91
333.84	38.57
334.053	-18.77
334.265	34.47
334.478	83.63
334.691	7.85
334.903	44.71
335.116	-16.73
335.329	122.54
335.541	57
335.754	38.57
335.966	48.81
336.179	18.09
336.392	26.28
336.604	79.53
336.817	59.05
337.029	18.09
337.242	32.43
337.454	34.47
337.667	22.19
337.88	40.62
338.092	24.23
338.305	79.53
338.517	18.09
338.729	97.96
338.942	95.91
339.154	-37.2
339.367	-31.06
339.579	50.86
339.792	22.19
340.004	3.75
340.217	83.63
340.429	75.43
340.641	7.85
340.854	32.43
341.066	69.29
341.278	97.96
341.491	83.63
341.703	18.09
341.915	-41.3
342.128	95.91
342.34	61.1
342.552	-31.06
342.764	40.62
342.977	40.62
343.189	132.78
343.401	79.53
343.613	71.34
343.826	50.86
344.038	42.67
344.25	110.25
344.462	26.28
344.674	5.8
344.886	9.9
345.099	18.09
345.311	48.81
345.523	30.38
345.735	-16.73
345.947	30.38
346.159	83.63
346.371	-16.73
346.583	-18.77
346.795	112.3
347.007	-14.68
347.219	81.58
347.431	-0.34
347.643	83.63
347.855	18.09
348.067	100.01
348.279	-80.21
348.491	24.23
348.703	-4.44
348.915	16.04
349.127	-39.25
349.339	32.43
349.551	-55.64
349.763	38.57
349.975	59.05
350.187	104.11
350.399	18.09
350.61	40.62
350.822	52.91
351.034	57
351.246	63.15
351.458	85.67
351.669	61.1
351.881	67.24
352.093	42.67
352.305	34.47
352.517	-20.82
352.728	116.39
352.94	73.39
353.152	50.86
353.363	81.58
353.575	30.38
353.787	7.85
353.999	67.24
354.21	114.34
354.422	67.24
354.633	108.2
354.845	73.39
355.057	83.63
355.268	38.57
355.48	65.19
355.692	42.67
355.903	40.62
356.115	67.24
356.326	26.28
356.538	87.72
356.749	54.95
356.961	104.11
357.172	-39.25
357.384	-26.96
357.595	34.47
357.807	34.47
358.018	-12.63
358.23	7.85
358.441	97.96
358.653	93.87
358.864	24.23
359.075	42.67
359.287	59.05
359.498	32.43
359.709	-6.49
359.921	63.15
360.132	134.82
360.344	108.2
360.555	38.57
360.766	34.47
360.977	63.15
361.189	69.29
361.4	50.86
361.611	128.68
361.823	65.19
362.034	44.71
362.245	-55.64
362.456	61.1
362.667	100.01
362.879	100.01
363.09	36.52
363.301	34.47
363.512	59.05
363.723	5.8
363.935	32.43
364.146	63.15
364.357	-12.63
364.568	34.47
364.779	38.57
364.99	83.63
365.201	69.29
365.412	48.81
365.623	1.71
365.834	24.23
366.045	-14.68
366.256	28.33
366.467	100.01
366.678	77.48
366.889	50.86
367.1	65.19
367.311	104.11
367.522	9.9
367.733	100.01
367.944	93.87
368.155	38.57
368.366	1.71
368.577	112.3
368.788	24.23
368.999	63.15
369.209	46.76
369.42	108.2
369.631	54.95
369.842	106.15
370.053	69.29
370.264	85.67
370.474	1.71
370.685	67.24
370.896	48.81
371.107	42.67
371.317	52.91
371.528	59.05
371.739	44.71
371.95	112.3
372.16	73.39
372.371	16.04
372.582	18.09
372.792	63.15
373.003	22.19
373.214	63.15
373.424	81.58
373.635	50.86
373.846	116.39
374.056	71.34
374.267	22.19
374.477	44.71
374.688	-0.34
374.898	57
375.109	122.54
375.319	38.57
375.53	124.58
375.74	36.52
375.951	30.38
376.161	85.67
376.372	63.15
376.582	3.75
376.793	83.63
377.003	67.24
377.214	-39.25
377.424	50.86
377.635	97.96
377.845	63.15
378.055	11.95
378.266	22.19
378.476	71.34
378.686	59.05
378.897	28.33
379.107	81.58
379.317	34.47
379.528	34.47
379.738	93.87
379.948	3.75
380.158	81.58
380.369	54.95
380.579	128.68
380.789	-35.16
380.999	52.91
381.21	11.95
381.42	165.54
381.63	-31.06
381.84	114.34
382.05	97.96
382.261	118.44
382.471	157.35
382.681	5.8
382.891	124.58
383.101	18.09
383.311	13.99
383.521	65.19
383.731	54.95
383.941	83.63
384.151	69.29
384.361	116.39
384.571	32.43
384.781	75.43
384.991	104.11
385.201	132.78
385.411	67.24
385.621	30.38
385.831	26.28
386.041	50.86
386.251	67.24
386.461	59.05
386.671	26.28
386.881	95.91
387.091	50.86
387.301	34.47
387.511	75.43
387.72	24.23
387.93	34.47
388.14	-2.39
388.35	75.43
388.56	91.82
388.769	140.97
388.979	46.76
389.189	42.67
389.399	73.39
389.609	122.54
389.818	7.85
390.028	67.24
390.238	73.39
390.447	81.58
390.657	138.92
390.867	-26.96
391.076	18.09
391.286	91.82
391.496	46.76
391.705	75.43
391.915	30.38
392.125	106.15
392.334	40.62
392.544	151.21
392.753	97.96
392.963	18.09
393.172	69.29
393.382	42.67
393.591	91.82
393.801	81.58
394.01	132.78
394.22	73.39
394.429	26.28
394.639	1.71
394.848	112.3
395.058	130.73
395.267	65.19
395.477	75.43
395.686	75.43
395.895	104.11
396.105	71.34
396.314	134.82
396.524	114.34
396.733	-4.44
396.942	91.82
397.152	108.2
397.361	91.82
397.57	42.67
397.78	126.63
397.989	108.2
398.198	118.44
398.407	116.39
398.617	132.78
398.826	26.28
399.035	65.19
399.244	116.39
399.453	100.01
399.663	102.06
399.872	165.54
400.081	85.67
400.29	106.15
400.499	26.28
400.708	67.24
400.917	79.53
401.127	153.26
401.336	108.2
401.545	200.36
401.754	116.39
401.963	89.77
402.172	120.49
402.381	89.77
402.59	114.34
402.799	83.63
403.008	188.07
403.217	165.54
403.426	143.02
403.635	132.78
403.844	130.73
404.053	130.73
404.262	147.11
404.471	188.07
404.68	83.63
404.888	136.87
405.097	124.58
405.306	130.73
405.515	163.5
405.724	155.3
405.933	198.31
406.142	153.26
406.35	149.16
406.559	153.26
406.768	126.63
406.977	247.46
407.185	186.02
407.394	206.5
407.603	124.58
407.812	163.5
408.02	181.93
408.229	280.23
408.438	208.55
408.646	196.26
408.855	190.12
409.064	210.6
409.272	245.41
409.481	278.18
409.69	231.08
409.898	204.46
410.107	251.56
410.315	222.89
410.524	202.41
410.733	288.42
410.941	282.28
411.15	323.24
411.358	300.71
411.567	345.77
411.775	380.58
411.984	304.81
412.192	368.29
412.401	313
412.609	358.05
412.818	480.93
413.026	399.01
413.234	343.72
413.443	399.01
413.651	423.59
413.86	464.55
414.068	460.45
414.276	589.47
414.485	425.64
414.693	581.28
414.901	503.46
415.11	505.51
415.318	511.65
415.526	591.52
415.734	620.19
415.943	655.01
416.151	702.11
416.359	644.77
416.567	673.44
416.776	743.07
416.984	714.4
417.192	730.78
417.4	843.42
417.608	714.4
417.817	853.66
418.025	908.96
418.233	939.68
418.441	796.32
418.649	986.78
418.857	992.92
419.065	917.15
419.273	992.92
419.481	1097.37
419.689	1136.28
419.897	1232.54
420.105	1132.19
420.313	1181.34
420.521	1220.25
420.729	1189.53
420.937	1257.11
421.145	1359.51
421.353	1390.23
421.561	1433.24
421.769	1539.73
421.977	1648.27
422.185	1574.55
422.393	1619.6
422.601	1646.23
422.809	1670.8
423.017	1754.77
423.224	1801.87
423.432	1980.04
423.64	2012.81
423.848	2049.68
424.056	2023.05
424.263	2236.04
424.471	2221.7
424.679	2317.96
424.887	2277
425.094	2371.21
425.302	2487.94
425.51	2496.13
425.718	2612.87
425.925	2647.68
426.133	2713.22
426.341	2875.01
426.548	3012.22
426.756	2897.53
426.964	3024.51
427.171	3223.16
427.379	3298.94
427.586	3333.75
427.794	3550.84
428.001	3571.32
428.209	3683.95
428.417	3673.71
428.624	3925.61
428.832	3937.9
429.039	3909.23
429.247	3812.98
429.454	4261.48
429.662	4671.08
429.869	4202.09
430.076	4695.65
430.284	4361.83
430.491	4580.96
430.699	4832.86
430.906	4882.02
431.114	5047.9
431.321	5277.27
431.528	5275.23
431.736	5559.89
431.943	5873.23
432.15	5457.5
432.358	5889.62
432.565	6184.52
432.772	6045.26
432.979	6325.83
433.187	6483.53
433.394	6383.18
433.601	6966.85
433.808	6891.07
434.016	6938.18
434.223	7274.04
434.43	7495.22
434.637	7593.53
434.844	7853.62
435.052	7956.02
435.259	7886.39
435.466	7999.02
435.673	7992.88
435.88	8545.83
436.087	8982.05
436.294	9121.31
436.501	8713.77
436.708	9010.72
436.915	9274.91
437.122	9590.3
437.329	9719.32
437.537	9858.58
437.743	10247.69
437.95	10069.52
438.157	10536.46
438.364	10884.61
438.571	10870.28
438.778	10952.2
438.985	11935.22
439.192	11515.39
439.399	11871.73
439.606	11599.35
439.813	12520.94
440.02	13010.4
440.227	12619.24
440.433	12760.55
440.64	13022.69
440.847	13129.19
441.054	13129.19
441.261	14179.79
441.467	13999.57
441.674	14280.14
441.881	14732.75
442.088	14779.85
442.294	14654.92
442.501	15193.54
442.708	15175.11
442.914	16065.97
443.121	16547.25
443.328	16166.32
443.534	17321.38
443.741	16737.71
443.948	16635.31
444.154	18023.83
444.361	17573.28
444.568	17978.78
444.774	18048.41
444.981	17956.25
445.187	18705.81
445.394	19250.56
445.6	18992.52
445.807	20899.18
446.013	19754.37
446.22	20493.68
446.426	21290.34
446.633	21437.8
446.839	21941.6
447.046	21343.59
447.252	22316.37
447.459	22461.78
447.665	22314.33
447.871	23266.63
448.078	24194.36
448.284	23348.55
448.491	23655.75
448.697	24692.02
448.903	25224.49
449.11	25292.07
449.316	25058.6
449.522	25244.97
449.728	26178.84
449.935	26383.64
450.141	26045.73
450.347	26869.01
450.553	25515.3
450.76	26354.97
450.966	26944.78
451.172	26729.75
451.378	27370.76
451.584	26844.43
451.791	27553.03
451.997	27426.06
452.203	27647.24
452.409	27837.7
452.615	27733.25
452.821	26653.97
453.027	26246.43
453.233	27849.99
453.44	26813.71
453.646	26723.6
453.852	27325.71
454.058	27362.57
454.264	26629.4
454.47	27491.59
454.676	26408.22
454.882	27438.34
455.088	25064.75
455.294	25367.85
455.5	25767.2
455.705	25986.33
455.911	24839.47
456.117	24583.48
456.323	24057.15
456.529	22758.74
456.735	23940.41
456.941	23217.48
457.147	22709.58
457.352	22066.52
457.558	21767.52
457.764	21851.49
457.97	21476.71
458.176	21065.07
458.381	20841.84
458.587	19840.38
458.793	19836.28
458.999	18670.99
459.204	20153.72
459.41	19529.09
459.616	18480.53
459.821	18566.54
460.027	18412.95
460.233	17630.62
460.438	17153.44
460.644	17210.79
460.85	16598.45
461.055	16289.2
461.261	16309.68
461.466	14779.85
461.672	14632.4
461.878	15398.34
462.083	14548.43
462.289	14147.03
462.494	13960.66
462.7	13514.2
462.905	13020.64
463.111	13544.92
463.316	13731.29
463.522	13307.36
463.727	13364.7
463.932	13192.67
464.138	13018.6
464.343	13315.55
464.549	12707.3
464.754	12994.02
464.959	13268.45
465.165	12983.78
465.37	12471.79
465.575	12125.68
465.781	12697.06
465.986	12707.3
466.191	12203.5
466.397	12039.67
466.602	11472.38
466.807	11904.5
467.012	11822.58
467.218	11707.9
467.423	11562.49
467.628	11585.02
467.833	12271.09
