Data from USB4F104151__89__11-32-02-652.txt Node

Date: Fri Mar 14 11:32:02 EDT 2025
User: louis
Spectrometer: USB4F10415
Trigger mode: 4
Integration Time (sec): 5.000000E-2
Scans to average: 1
Electric dark correction enabled: true
Nonlinearity correction enabled: false
Boxcar width: 0
XAxis mode: Wavelengths
Number of Pixels in Spectrum: 3648
>>>>>Begin Spectral Data<<<<<
178.204	-157.01
178.424	-157.01
178.644	-157.01
178.864	-175.44
179.084	-146.77
179.304	25.26
179.524	-36.18
179.744	-40.28
179.964	55.98
180.184	4.78
180.404	-36.18
180.624	53.93
180.844	-19.8
181.064	-32.08
181.283	-23.89
181.503	39.59
181.723	8.87
181.943	-3.41
182.163	88.75
182.383	-56.66
182.602	64.17
182.822	-7.51
183.042	43.69
183.262	17.07
183.482	-11.61
183.701	37.55
183.921	80.55
184.141	33.45
184.361	94.89
184.58	-48.47
184.8	55.98
185.02	60.07
185.239	37.55
185.459	6.83
185.679	25.26
185.898	-42.32
186.118	64.17
186.338	62.12
186.557	82.6
186.777	12.97
186.997	-19.8
187.216	49.83
187.436	98.99
187.655	41.64
187.875	58.03
188.095	29.35
188.314	4.78
188.534	129.7
188.753	-48.47
188.973	47.79
189.192	86.7
189.412	25.26
189.631	29.35
189.851	17.07
190.07	12.97
190.29	-60.76
190.509	12.97
190.729	2.73
190.948	121.51
191.168	170.66
191.387	47.79
191.607	6.83
191.826	105.13
192.045	39.59
192.265	109.23
192.484	55.98
192.704	45.74
192.923	-40.28
193.142	37.55
193.362	66.22
193.581	82.6
193.8	53.93
194.02	88.75
194.239	39.59
194.458	-25.94
194.678	-23.89
194.897	21.16
195.116	29.35
195.335	45.74
195.555	103.08
195.774	39.59
195.993	2.73
196.212	-68.95
196.432	-1.37
196.651	53.93
196.87	0.68
197.089	119.46
197.308	33.45
197.528	49.83
197.747	8.87
197.966	19.11
198.185	121.51
198.404	-11.61
198.623	90.79
198.842	-54.61
199.062	62.12
199.281	17.07
199.5	17.07
199.719	82.6
199.938	25.26
200.157	90.79
200.376	80.55
200.595	96.94
200.814	82.6
201.033	12.97
201.252	105.13
201.471	41.64
201.69	80.55
201.909	92.84
202.128	-27.99
202.347	35.5
202.566	74.41
202.785	12.97
203.004	58.03
203.223	107.18
203.442	41.64
203.661	60.07
203.879	51.88
204.098	29.35
204.317	0.68
204.536	-27.99
204.755	-7.51
204.974	80.55
205.193	78.51
205.411	146.09
205.63	45.74
205.849	-23.89
206.068	-15.7
206.287	55.98
206.505	41.64
206.724	8.87
206.943	-56.66
207.162	8.87
207.381	-9.56
207.599	12.97
207.818	33.45
208.037	17.07
208.255	-5.46
208.474	17.07
208.693	78.51
208.911	49.83
209.13	53.93
209.349	80.55
209.567	80.55
209.786	23.21
210.005	37.55
210.223	31.4
210.442	-27.99
210.661	74.41
210.879	47.79
211.098	60.07
211.316	-15.7
211.535	49.83
211.753	19.11
211.972	25.26
212.191	-21.85
212.409	-5.46
212.628	31.4
212.846	53.93
213.065	-5.46
213.283	84.65
213.502	2.73
213.72	49.83
213.938	25.26
214.157	-1.37
214.375	31.4
214.594	27.31
214.812	-1.37
215.031	55.98
215.249	25.26
215.467	-27.99
215.686	29.35
215.904	49.83
216.122	-25.94
216.341	12.97
216.559	12.97
216.778	-5.46
216.996	58.03
217.214	4.78
217.432	8.87
217.651	49.83
217.869	31.4
218.087	-3.41
218.306	47.79
218.524	70.31
218.742	37.55
218.96	47.79
219.179	-21.85
219.397	33.45
219.615	82.6
219.833	47.79
220.051	-30.04
220.27	-36.18
220.488	10.92
220.706	53.93
220.924	12.97
221.142	23.21
221.36	0.68
221.578	23.21
221.796	41.64
222.015	58.03
222.233	17.07
222.451	119.46
222.669	-17.75
222.887	8.87
223.105	35.5
223.323	33.45
223.541	-25.94
223.759	88.75
223.977	-13.65
224.195	131.75
224.413	23.21
224.631	29.35
224.849	-15.7
225.067	107.18
225.285	-27.99
225.503	25.26
225.721	-40.28
225.939	21.16
226.157	19.11
226.375	148.14
226.592	29.35
226.81	78.51
227.028	98.99
227.246	70.31
227.464	19.11
227.682	0.68
227.9	55.98
228.117	39.59
228.335	0.68
228.553	12.97
228.771	-17.75
228.989	113.32
229.206	43.69
229.424	-3.41
229.642	49.83
229.86	8.87
230.077	66.22
230.295	27.31
230.513	37.55
230.731	68.27
230.948	31.4
231.166	8.87
231.384	-25.94
231.601	27.31
231.819	82.6
232.037	37.55
232.254	4.78
232.472	21.16
232.689	-19.8
232.907	-1.37
233.125	53.93
233.342	10.92
233.56	-25.94
233.777	58.03
233.995	37.55
234.213	74.41
234.43	64.17
234.648	53.93
234.865	33.45
235.083	51.88
235.3	43.69
235.518	80.55
235.735	41.64
235.953	78.51
236.17	8.87
236.388	49.83
236.605	55.98
236.822	45.74
237.04	37.55
237.257	8.87
237.475	-40.28
237.692	25.26
237.909	41.64
238.127	-34.13
238.344	58.03
238.562	-15.7
238.779	15.02
238.996	-5.46
239.214	90.79
239.431	58.03
239.648	-1.37
239.865	131.75
240.083	78.51
240.3	41.64
240.517	-52.56
240.735	-17.75
240.952	113.32
241.169	51.88
241.386	33.45
241.603	55.98
241.821	-73.04
242.038	86.7
242.255	-38.23
242.472	-1.37
242.689	25.26
242.907	96.94
243.124	53.93
243.341	55.98
243.558	23.21
243.775	23.21
243.992	-5.46
244.209	0.68
244.426	131.75
244.643	12.97
244.86	-1.37
245.078	35.5
245.295	17.07
245.512	76.46
245.729	4.78
245.946	31.4
246.163	-32.08
246.38	17.07
246.597	19.11
246.814	70.31
247.031	0.68
247.248	-5.46
247.464	94.89
247.681	51.88
247.898	39.59
248.115	53.93
248.332	37.55
248.549	103.08
248.766	58.03
248.983	82.6
249.2	72.36
249.417	39.59
249.633	17.07
249.85	39.59
250.067	-9.56
250.284	4.78
250.501	86.7
250.717	144.04
250.934	15.02
251.151	53.93
251.368	33.45
251.585	96.94
251.801	47.79
252.018	-21.85
252.235	49.83
252.451	-52.56
252.668	55.98
252.885	62.12
253.102	35.5
253.318	15.02
253.535	4.78
253.752	12.97
253.968	70.31
254.185	15.02
254.401	41.64
254.618	66.22
254.835	-44.37
255.051	55.98
255.268	51.88
255.484	64.17
255.701	41.64
255.917	47.79
256.134	47.79
256.351	15.02
256.567	8.87
256.784	-32.08
257	0.68
257.217	47.79
257.433	43.69
257.65	58.03
257.866	25.26
258.082	33.45
258.299	6.83
258.515	78.51
258.732	-9.56
258.948	33.45
259.165	98.99
259.381	-34.13
259.597	17.07
259.814	-23.89
260.03	8.87
260.246	15.02
260.463	80.55
260.679	123.56
260.895	33.45
261.112	41.64
261.328	62.12
261.544	39.59
261.761	98.99
261.977	74.41
262.193	-36.18
262.409	58.03
262.626	72.36
262.842	15.02
263.058	41.64
263.274	72.36
263.49	-11.61
263.707	43.69
263.923	25.26
264.139	-23.89
264.355	72.36
264.571	66.22
264.787	-19.8
265.004	60.07
265.22	47.79
265.436	-48.47
265.652	29.35
265.868	66.22
266.084	-40.28
266.3	-27.99
266.516	-25.94
266.732	68.27
266.948	29.35
267.164	127.66
267.38	82.6
267.596	51.88
267.812	82.6
268.028	53.93
268.244	35.5
268.46	-3.41
268.676	-5.46
268.892	-5.46
269.108	23.21
269.324	4.78
269.54	-32.08
269.756	80.55
269.972	-77.14
270.188	6.83
270.403	-75.09
270.619	-1.37
270.835	49.83
271.051	55.98
271.267	-7.51
271.483	-32.08
271.698	82.6
271.914	0.68
272.13	-9.56
272.346	10.92
272.562	10.92
272.777	90.79
272.993	41.64
273.209	15.02
273.425	25.26
273.64	-58.71
273.856	72.36
274.072	-3.41
274.287	-36.18
274.503	45.74
274.719	96.94
274.934	-19.8
275.15	-7.51
275.366	90.79
275.581	-50.52
275.797	37.55
276.012	51.88
276.228	88.75
276.444	41.64
276.659	35.5
276.875	-23.89
277.09	25.26
277.306	0.68
277.521	0.68
277.737	156.33
277.952	37.55
278.168	15.02
278.383	68.27
278.599	64.17
278.814	53.93
279.03	60.07
279.245	-27.99
279.461	101.03
279.676	64.17
279.892	-13.65
280.107	-71
280.322	-13.65
280.538	25.26
280.753	-11.61
280.969	49.83
281.184	64.17
281.399	103.08
281.615	29.35
281.83	35.5
282.045	-15.7
282.26	-17.75
282.476	82.6
282.691	109.23
282.906	66.22
283.122	49.83
283.337	-15.7
283.552	33.45
283.767	-1.37
283.983	74.41
284.198	76.46
284.413	33.45
284.628	-7.51
284.843	49.83
285.058	17.07
285.274	88.75
285.489	58.03
285.704	17.07
285.919	-50.52
286.134	33.45
286.349	62.12
286.564	-1.37
286.779	76.46
286.995	17.07
287.21	-15.7
287.425	74.41
287.64	74.41
287.855	39.59
288.07	-38.23
288.285	41.64
288.5	39.59
288.715	15.02
288.93	-17.75
289.145	86.7
289.36	19.11
289.575	21.16
289.79	4.78
290.004	-1.37
290.219	25.26
290.434	33.45
290.649	49.83
290.864	-32.08
291.079	-1.37
291.294	12.97
291.509	31.4
291.724	66.22
291.938	-7.51
292.153	8.87
292.368	-13.65
292.583	10.92
292.798	6.83
293.012	45.74
293.227	-44.37
293.442	8.87
293.657	115.37
293.871	98.99
294.086	55.98
294.301	115.37
294.516	98.99
294.73	82.6
294.945	64.17
295.16	49.83
295.374	62.12
295.589	33.45
295.804	25.26
296.018	33.45
296.233	103.08
296.447	37.55
296.662	-9.56
296.877	49.83
297.091	-11.61
297.306	78.51
297.52	49.83
297.735	33.45
297.949	43.69
298.164	92.84
298.378	25.26
298.593	-58.71
298.807	-15.7
299.022	17.07
299.236	94.89
299.451	-36.18
299.665	-1.37
299.88	29.35
300.094	90.79
300.309	53.93
300.523	-25.94
300.737	82.6
300.952	29.35
301.166	39.59
301.381	-11.61
301.595	62.12
301.809	-17.75
302.024	86.7
302.238	-7.51
302.452	80.55
302.667	-1.37
302.881	47.79
303.095	78.51
303.309	23.21
303.524	121.51
303.738	107.18
303.952	0.68
304.166	25.26
304.381	-40.28
304.595	51.88
304.809	-58.71
305.023	139.94
305.237	43.69
305.452	53.93
305.666	31.4
305.88	49.83
306.094	-3.41
306.308	23.21
306.522	80.55
306.736	37.55
306.95	35.5
307.164	41.64
307.379	64.17
307.593	62.12
307.807	10.92
308.021	70.31
308.235	0.68
308.449	-7.51
308.663	37.55
308.877	107.18
309.091	41.64
309.305	94.89
309.519	-56.66
309.733	53.93
309.947	-60.76
310.161	37.55
310.374	78.51
310.588	127.66
310.802	33.45
311.016	0.68
311.23	10.92
311.444	33.45
311.658	-36.18
311.872	135.85
312.085	41.64
312.299	88.75
312.513	66.22
312.727	49.83
312.941	-9.56
313.154	62.12
313.368	70.31
313.582	58.03
313.796	-9.56
314.009	90.79
314.223	58.03
314.437	105.13
314.651	-11.61
314.864	0.68
315.078	-60.76
315.292	-48.47
315.505	-7.51
315.719	98.99
315.933	39.59
316.146	-58.71
316.36	-7.51
316.573	29.35
316.787	35.5
317.001	45.74
317.214	27.31
317.428	103.08
317.641	-77.14
317.855	-3.41
318.068	43.69
318.282	21.16
318.495	148.14
318.709	53.93
318.922	6.83
319.136	70.31
319.349	2.73
319.563	23.21
319.776	55.98
319.99	88.75
320.203	-15.7
320.417	41.64
320.63	164.52
320.843	84.65
321.057	66.22
321.27	19.11
321.483	31.4
321.697	41.64
321.91	25.26
322.124	19.11
322.337	-27.99
322.55	-58.71
322.763	10.92
322.977	-3.41
323.19	-38.23
323.403	29.35
323.617	15.02
323.83	98.99
324.043	98.99
324.256	66.22
324.469	0.68
324.683	96.94
324.896	107.18
325.109	49.83
325.322	6.83
325.535	60.07
325.748	23.21
325.962	-17.75
326.175	39.59
326.388	41.64
326.601	70.31
326.814	60.07
327.027	74.41
327.24	55.98
327.453	-38.23
327.666	53.93
327.879	60.07
328.092	33.45
328.305	41.64
328.518	-48.47
328.731	51.88
328.944	113.32
329.157	60.07
329.37	70.31
329.583	131.75
329.796	35.5
330.009	-32.08
330.222	37.55
330.435	64.17
330.648	80.55
330.861	37.55
331.073	66.22
331.286	90.79
331.499	68.27
331.712	-15.7
331.925	15.02
332.138	86.7
332.35	117.42
332.563	15.02
332.776	70.31
332.989	66.22
333.202	45.74
333.414	68.27
333.627	55.98
333.84	66.22
334.053	74.41
334.265	17.07
334.478	17.07
334.691	37.55
334.903	47.79
335.116	17.07
335.329	76.46
335.541	4.78
335.754	31.4
335.966	82.6
336.179	98.99
336.392	-3.41
336.604	96.94
336.817	60.07
337.029	53.93
337.242	-15.7
337.454	21.16
337.667	45.74
337.88	76.46
338.092	23.21
338.305	74.41
338.517	66.22
338.729	45.74
338.942	45.74
339.154	-42.32
339.367	12.97
339.579	53.93
339.792	72.36
340.004	127.66
340.217	98.99
340.429	74.41
340.641	4.78
340.854	-40.28
341.066	19.11
341.278	123.56
341.491	107.18
341.703	66.22
341.915	-15.7
342.128	47.79
342.34	68.27
342.552	27.31
342.764	74.41
342.977	82.6
343.189	17.07
343.401	64.17
343.613	-50.52
343.826	25.26
344.038	25.26
344.25	49.83
344.462	2.73
344.674	33.45
344.886	-3.41
345.099	37.55
345.311	60.07
345.523	-25.94
345.735	-42.32
345.947	12.97
346.159	25.26
346.371	72.36
346.583	15.02
346.795	107.18
347.007	21.16
347.219	115.37
347.431	-11.61
347.643	80.55
347.855	-9.56
348.067	148.14
348.279	60.07
348.491	25.26
348.703	39.59
348.915	-9.56
349.127	39.59
349.339	115.37
349.551	-34.13
349.763	94.89
349.975	-25.94
350.187	80.55
350.399	107.18
350.61	82.6
350.822	41.64
351.034	74.41
351.246	-17.75
351.458	53.93
351.669	94.89
351.881	47.79
352.093	123.56
352.305	74.41
352.517	64.17
352.728	68.27
352.94	-48.47
353.152	41.64
353.363	33.45
353.575	25.26
353.787	10.92
353.999	62.12
354.21	45.74
354.422	-36.18
354.633	72.36
354.845	6.83
355.057	25.26
355.268	47.79
355.48	92.84
355.692	68.27
355.903	86.7
356.115	115.37
356.326	15.02
356.538	66.22
356.749	49.83
356.961	6.83
357.172	45.74
357.384	-25.94
357.595	74.41
357.807	41.64
358.018	78.51
358.23	55.98
358.441	111.27
358.653	23.21
358.864	25.26
359.075	62.12
359.287	58.03
359.498	25.26
359.709	58.03
359.921	37.55
360.132	-7.51
360.344	47.79
360.555	43.69
360.766	94.89
360.977	45.74
361.189	72.36
361.4	82.6
361.611	45.74
361.823	66.22
362.034	8.87
362.245	-7.51
362.456	6.83
362.667	82.6
362.879	41.64
363.09	70.31
363.301	12.97
363.512	72.36
363.723	-7.51
363.935	-1.37
364.146	39.59
364.357	-36.18
364.568	37.55
364.779	-25.94
364.99	25.26
365.201	12.97
365.412	105.13
365.623	8.87
365.834	15.02
366.045	55.98
366.256	92.84
366.467	121.51
366.678	43.69
366.889	66.22
367.1	72.36
367.311	66.22
367.522	23.21
367.733	0.68
367.944	41.64
368.155	25.26
368.366	58.03
368.577	78.51
368.788	33.45
368.999	8.87
369.209	66.22
369.42	88.75
369.631	148.14
369.842	39.59
370.053	68.27
370.264	29.35
370.474	-34.13
370.685	60.07
370.896	43.69
371.107	47.79
371.317	78.51
371.528	72.36
371.739	78.51
371.95	47.79
372.16	17.07
372.371	60.07
372.582	49.83
372.792	148.14
373.003	117.42
373.214	80.55
373.424	25.26
373.635	-68.95
373.846	90.79
374.056	88.75
374.267	113.32
374.477	60.07
374.688	23.21
374.898	94.89
375.109	4.78
375.319	101.03
375.53	119.46
375.74	82.6
375.951	111.27
376.161	2.73
376.372	41.64
376.582	80.55
376.793	47.79
377.003	60.07
377.214	123.56
377.424	25.26
377.635	-11.61
377.845	49.83
378.055	148.14
378.266	35.5
378.476	94.89
378.686	98.99
378.897	15.02
379.107	31.4
379.317	10.92
379.528	-7.51
379.738	115.37
379.948	-15.7
380.158	115.37
380.369	88.75
380.579	58.03
380.789	12.97
380.999	127.66
381.21	107.18
381.42	144.04
381.63	55.98
381.84	129.7
382.05	45.74
382.261	62.12
382.471	86.7
382.681	2.73
382.891	135.85
383.101	49.83
383.311	-27.99
383.521	-23.89
383.731	96.94
383.941	123.56
384.151	72.36
384.361	53.93
384.571	49.83
384.781	-3.41
384.991	156.33
385.201	103.08
385.411	35.5
385.621	49.83
385.831	43.69
386.041	17.07
386.251	80.55
386.461	25.26
386.671	25.26
386.881	66.22
387.091	-23.89
387.301	105.13
387.511	47.79
387.72	86.7
387.93	98.99
388.14	-36.18
388.35	4.78
388.56	139.94
388.769	101.03
388.979	58.03
389.189	64.17
389.399	90.79
389.609	82.6
389.818	82.6
390.028	72.36
390.238	129.7
390.447	92.84
390.657	82.6
390.867	41.64
391.076	-32.08
391.286	74.41
391.496	72.36
391.705	74.41
391.915	86.7
392.125	45.74
392.334	84.65
392.544	74.41
392.753	55.98
392.963	17.07
393.172	45.74
393.382	98.99
393.591	119.46
393.801	154.28
394.01	160.42
394.22	17.07
394.429	92.84
394.639	47.79
394.848	74.41
395.058	17.07
395.267	72.36
395.477	139.94
395.686	90.79
395.895	164.52
396.105	148.14
396.314	115.37
396.524	123.56
396.733	43.69
396.942	86.7
397.152	156.33
397.361	107.18
397.57	113.32
397.78	164.52
397.989	107.18
398.198	191.14
398.407	86.7
398.617	101.03
398.826	84.65
399.035	105.13
399.244	66.22
399.453	115.37
399.663	72.36
399.872	146.09
400.081	101.03
400.29	111.27
400.499	78.51
400.708	162.47
400.917	92.84
401.127	84.65
401.336	121.51
401.545	201.38
401.754	94.89
401.963	133.8
402.172	31.4
402.381	33.45
402.59	82.6
402.799	53.93
403.008	90.79
403.217	215.72
403.426	152.23
403.635	64.17
403.844	-1.37
404.053	90.79
404.262	168.62
404.471	172.71
404.68	172.71
404.888	137.9
405.097	203.43
405.306	141.99
405.515	162.47
405.724	209.58
405.933	160.42
406.142	154.28
406.35	131.75
406.559	187.05
406.768	129.7
406.977	225.96
407.185	189.1
407.394	166.57
407.603	148.14
407.812	197.29
408.02	271.01
408.229	164.52
408.438	205.48
408.646	238.25
408.855	228.01
409.064	266.92
409.272	189.1
409.481	285.35
409.69	174.76
409.898	285.35
410.107	260.77
410.315	361.13
410.524	273.06
410.733	293.54
410.941	285.35
411.15	354.98
411.358	328.36
411.567	344.74
411.775	410.28
411.984	385.7
412.192	432.8
412.401	344.74
412.609	459.43
412.818	475.81
413.026	422.56
413.234	459.43
413.443	441
413.651	459.43
413.86	531.11
414.068	559.78
414.276	570.02
414.485	578.21
414.693	621.22
414.901	676.51
415.11	680.61
415.318	637.6
415.526	694.94
415.734	735.9
415.943	711.33
416.151	770.72
416.359	733.86
416.567	752.29
416.776	789.15
416.984	996
417.192	930.46
417.4	885.41
417.608	889.5
417.817	983.71
418.025	942.75
418.233	1065.63
418.441	1006.24
418.649	1084.06
418.857	1262.23
419.065	1198.74
419.273	1147.55
419.481	1237.66
419.689	1274.52
419.897	1286.81
420.105	1440.4
420.313	1462.93
420.521	1497.75
420.729	1565.33
420.937	1532.56
421.145	1602.19
421.353	1583.76
421.561	1763.98
421.769	1835.66
421.977	1778.32
422.185	1868.43
422.393	1987.21
422.601	2112.14
422.809	1972.88
423.017	2200.2
423.224	2200.2
423.432	2245.26
423.64	2310.79
423.848	2570.88
424.056	2558.6
424.263	2652.8
424.471	2601.6
424.679	2781.82
424.887	2767.49
425.094	2962.05
425.302	2902.65
425.51	3005.05
425.718	3027.58
425.925	3093.12
426.133	3218.04
426.341	3400.31
426.548	3611.25
426.756	3568.24
426.964	3601.01
427.171	3713.65
427.379	3930.73
427.586	4080.24
427.794	4162.16
428.001	4457.06
428.209	4459.11
428.417	4506.21
428.624	4711.01
428.832	4743.78
429.039	4747.87
429.247	4903.52
429.454	5233.24
429.662	5378.65
429.869	5198.43
430.076	5481.05
430.284	5435.99
430.491	5554.77
430.699	5997.14
430.906	5952.08
431.114	6017.61
431.321	6203.98
431.528	6400.59
431.736	6603.33
431.943	7068.22
432.15	6701.64
432.358	6998.59
432.565	7406.14
432.772	7225.92
432.979	7664.18
433.187	7864.88
433.394	7854.64
433.601	8399.4
433.808	8223.28
434.016	8131.12
434.223	8655.4
434.43	9124.38
434.637	8913.44
434.844	9693.72
435.052	9816.6
435.259	9658.9
435.466	9769.49
435.673	9626.14
435.88	10416.65
436.087	10785.29
436.294	10945.03
436.501	10568.2
436.708	10713.61
436.915	11293.18
437.122	11639.29
437.329	11821.56
437.537	12009.97
437.743	12356.08
437.95	12261.87
438.157	12818.92
438.364	13324.77
438.571	13091.3
438.778	13054.44
438.985	14404.05
439.192	13726.17
439.399	14350.8
439.606	14023.12
439.813	14854.6
440.02	15856.06
440.227	15727.03
440.433	15348.16
440.64	15706.55
440.847	15565.25
441.054	16159.16
441.261	17193.38
441.467	16974.25
441.674	17297.83
441.881	17904.03
442.088	17949.08
442.294	17729.95
442.501	18485.65
442.708	18700.69
442.914	19257.73
443.121	20187.51
443.328	19716.48
443.534	20664.69
443.741	20664.69
443.948	19997.05
444.154	21399.91
444.361	21588.32
444.568	21449.06
444.774	21877.08
444.981	21803.36
445.187	22518.1
445.394	23292.23
445.6	23011.66
445.807	25370.92
446.013	24301.88
446.22	24641.84
446.426	25504.04
446.633	25792.8
446.839	26874.13
447.046	25346.34
447.252	27076.88
447.459	26786.07
447.665	27087.12
447.871	28199.16
448.078	29706.47
448.284	28107.01
448.491	28627.19
448.697	29780.2
448.903	30343.39
449.11	30191.84
449.316	29444.33
449.522	30187.74
449.728	31070.42
449.935	31295.69
450.141	31252.69
450.347	32274.62
450.553	31197.39
450.76	31414.48
450.966	32725.18
451.172	32288.96
451.378	32911.54
451.584	32098.5
451.791	33310.89
451.997	33128.63
452.203	33231.02
452.409	33202.35
452.615	33282.22
452.821	31752.39
453.027	31955.14
453.233	33417.39
453.44	32360.64
453.646	31983.81
453.852	32780.47
454.058	32991.41
454.264	31815.88
454.47	32782.52
454.676	32264.38
454.882	32960.69
455.088	30064.86
455.294	30701.78
455.5	30929.11
455.705	31221.97
455.911	29724.9
456.117	29425.9
456.323	29227.24
456.529	27443.46
456.735	28659.96
456.941	27977.98
457.147	27363.59
457.352	26683.67
457.558	26052.89
457.764	26401.05
457.97	25919.78
458.176	25289
458.381	25200.94
458.587	23904.57
458.793	23896.38
458.999	22896.97
459.204	24369.46
459.41	23728.45
459.616	22298.97
459.821	22202.71
460.027	21772.64
460.233	21502.31
460.438	20603.25
460.644	20627.82
460.85	20031.86
461.055	19276.16
461.261	19421.57
461.466	17844.63
461.672	17564.06
461.878	18649.49
462.083	17508.77
462.289	16843.18
462.494	17265.06
462.7	16153.01
462.905	15751.61
463.111	16640.43
463.316	16347.57
463.522	15917.5
463.727	16048.57
463.932	15751.61
464.138	16038.33
464.343	15720.89
464.549	15229.38
464.754	15866.3
464.959	15872.44
465.165	15819.19
465.37	15329.73
465.575	14696.91
465.781	15331.78
465.986	15157.7
466.191	14760.39
466.397	14457.29
466.602	13611.48
466.807	14326.22
467.012	14143.95
