Data from USB4F104151__70__11-31-05-958.txt Node

Date: Fri Mar 14 11:31:05 EDT 2025
User: louis
Spectrometer: USB4F10415
Trigger mode: 4
Integration Time (sec): 5.000000E-2
Scans to average: 1
Electric dark correction enabled: true
Nonlinearity correction enabled: false
Boxcar width: 0
XAxis mode: Wavelengths
Number of Pixels in Spectrum: 3648
>>>>>Begin Spectral Data<<<<<
178.204	-121.34
178.424	-121.34
178.644	-121.34
178.864	-137.73
179.084	-76.29
179.304	-4.61
179.524	9.73
179.744	-31.23
179.964	36.35
180.184	9.73
180.404	-12.8
180.624	81.41
180.844	7.68
181.064	-121.34
181.283	56.83
181.503	-49.66
181.723	17.92
181.943	-55.81
182.163	99.84
182.383	34.3
182.602	58.88
182.822	54.78
183.042	97.79
183.262	-14.85
183.482	15.87
183.701	17.92
183.921	26.11
184.141	13.82
184.361	83.45
184.58	120.32
184.8	67.07
185.02	24.06
185.239	67.07
185.459	44.54
185.679	95.74
185.898	-27.14
186.118	108.03
186.338	75.26
186.557	99.84
186.777	24.06
186.997	32.26
187.216	13.82
187.436	62.98
187.655	77.31
187.875	73.21
188.095	-23.04
188.314	60.93
188.534	120.32
188.753	60.93
188.973	71.17
189.192	69.12
189.412	85.5
189.631	95.74
189.851	38.4
190.07	79.36
190.29	-57.86
190.509	75.26
190.729	38.4
190.948	114.17
191.168	155.13
191.387	67.07
191.607	9.73
191.826	-14.85
192.045	22.02
192.265	65.02
192.484	48.64
192.704	67.07
192.923	54.78
193.142	87.55
193.362	126.46
193.581	99.84
193.8	46.59
194.02	52.74
194.239	75.26
194.458	146.94
194.678	32.26
194.897	65.02
195.116	38.4
195.335	65.02
195.555	54.78
195.774	60.93
195.993	65.02
196.212	40.45
196.432	-47.62
196.651	1.54
196.87	19.97
197.089	157.18
197.308	91.65
197.528	75.26
197.747	44.54
197.966	13.82
198.185	99.84
198.404	75.26
198.623	110.08
198.842	30.21
199.062	81.41
199.281	89.6
199.5	32.26
199.719	122.37
199.938	-2.56
200.157	73.21
200.376	7.68
200.595	87.55
200.814	34.3
201.033	5.63
201.252	56.83
201.471	146.94
201.69	75.26
201.909	89.6
202.128	112.13
202.347	99.84
202.566	116.22
202.785	67.07
203.004	24.06
203.223	62.98
203.442	54.78
203.661	40.45
203.879	13.82
204.098	85.5
204.317	-6.66
204.536	83.45
204.755	73.21
204.974	73.21
205.193	26.11
205.411	118.27
205.63	99.84
205.849	15.87
206.068	26.11
206.287	101.89
206.505	48.64
206.724	62.98
206.943	-27.14
207.162	-20.99
207.381	48.64
207.599	-72.19
207.818	101.89
208.037	85.5
208.255	58.88
208.474	77.31
208.693	56.83
208.911	24.06
209.13	136.7
209.349	112.13
209.567	81.41
209.786	116.22
210.005	-25.09
210.223	-14.85
210.442	15.87
210.661	87.55
210.879	-27.14
211.098	9.73
211.316	67.07
211.535	118.27
211.753	73.21
211.972	-20.99
212.191	9.73
212.409	-51.71
212.628	9.73
212.846	-2.56
213.065	40.45
213.283	171.52
213.502	65.02
213.72	30.21
213.938	17.92
214.157	-66.05
214.375	65.02
214.594	-14.85
214.812	30.21
215.031	99.84
215.249	-41.47
215.467	56.83
215.686	32.26
215.904	40.45
216.122	50.69
216.341	126.46
216.559	5.63
216.778	140.8
216.996	77.31
217.214	1.54
217.432	36.35
217.651	56.83
217.869	34.3
218.087	103.93
218.306	40.45
218.524	73.21
218.742	13.82
218.96	-6.66
219.179	1.54
219.397	69.12
219.615	67.07
219.833	56.83
220.051	-31.23
220.27	73.21
220.488	48.64
220.706	103.93
220.924	-6.66
221.142	50.69
221.36	9.73
221.578	56.83
221.796	34.3
222.015	38.4
222.233	67.07
222.451	95.74
222.669	81.41
222.887	30.21
223.105	17.92
223.323	-25.09
223.541	5.63
223.759	103.93
223.977	9.73
224.195	89.6
224.413	48.64
224.631	42.5
224.849	9.73
225.067	97.79
225.285	-6.66
225.503	22.02
225.721	3.58
225.939	50.69
226.157	38.4
226.375	185.85
226.592	-39.42
226.81	132.61
227.028	67.07
227.246	122.37
227.464	81.41
227.682	69.12
227.9	34.3
228.117	-14.85
228.335	89.6
228.553	50.69
228.771	79.36
228.989	48.64
229.206	56.83
229.424	17.92
229.642	122.37
229.86	40.45
230.077	3.58
230.295	26.11
230.513	32.26
230.731	-0.51
230.948	11.78
231.166	44.54
231.384	60.93
231.601	13.82
231.819	75.26
232.037	9.73
232.254	-18.94
232.472	24.06
232.689	17.92
232.907	95.74
233.125	3.58
233.342	30.21
233.56	-39.42
233.777	24.06
233.995	112.13
234.213	32.26
234.43	-25.09
234.648	62.98
234.865	30.21
235.083	81.41
235.3	69.12
235.518	114.17
235.735	93.69
235.953	67.07
236.17	42.5
236.388	-14.85
236.605	44.54
236.822	58.88
237.04	75.26
237.257	42.5
237.475	3.58
237.692	50.69
237.909	19.97
238.127	87.55
238.344	13.82
238.562	50.69
238.779	73.21
238.996	34.3
239.214	24.06
239.431	67.07
239.648	7.68
239.865	116.22
240.083	40.45
240.3	108.03
240.517	-0.51
240.735	116.22
240.952	71.17
241.169	34.3
241.386	38.4
241.603	-18.94
241.821	-0.51
242.038	30.21
242.255	-18.94
242.472	110.08
242.689	93.69
242.907	60.93
243.124	79.36
243.341	91.65
243.558	-23.04
243.775	26.11
243.992	153.09
244.209	120.32
244.426	177.66
244.643	81.41
244.86	30.21
245.078	1.54
245.295	67.07
245.512	116.22
245.729	-18.94
245.946	9.73
246.163	83.45
246.38	40.45
246.597	9.73
246.814	62.98
247.031	52.74
247.248	3.58
247.464	30.21
247.681	42.5
247.898	5.63
248.115	75.26
248.332	-6.66
248.549	105.98
248.766	124.41
248.983	40.45
249.2	79.36
249.417	103.93
249.633	22.02
249.85	36.35
250.067	65.02
250.284	148.99
250.501	77.31
250.717	69.12
250.934	7.68
251.151	75.26
251.368	67.07
251.585	128.51
251.801	132.61
252.018	-68.09
252.235	67.07
252.451	50.69
252.668	-14.85
252.885	-6.66
253.102	42.5
253.318	-18.94
253.535	58.88
253.752	50.69
253.968	73.21
254.185	79.36
254.401	67.07
254.618	-0.51
254.835	-18.94
255.051	99.84
255.268	17.92
255.484	75.26
255.701	62.98
255.917	87.55
256.134	19.97
256.351	44.54
256.567	-0.51
256.784	44.54
257	-12.8
257.217	79.36
257.433	-25.09
257.65	48.64
257.866	153.09
258.082	50.69
258.299	67.07
258.515	42.5
258.732	9.73
258.948	24.06
259.165	13.82
259.381	50.69
259.597	32.26
259.814	50.69
260.03	73.21
260.246	15.87
260.463	122.37
260.679	65.02
260.895	71.17
261.112	69.12
261.328	-0.51
261.544	54.78
261.761	71.17
261.977	34.3
262.193	-27.14
262.409	54.78
262.626	79.36
262.842	83.45
263.058	17.92
263.274	97.79
263.49	89.6
263.707	22.02
263.923	50.69
264.139	11.78
264.355	85.5
264.571	165.37
264.787	1.54
265.004	83.45
265.22	46.59
265.436	89.6
265.652	26.11
265.868	65.02
266.084	32.26
266.3	36.35
266.516	124.41
266.732	42.5
266.948	22.02
267.164	67.07
267.38	30.21
267.596	-2.56
267.812	22.02
268.028	-2.56
268.244	42.5
268.46	85.5
268.676	17.92
268.892	71.17
269.108	62.98
269.324	-10.75
269.54	-25.09
269.756	46.59
269.972	42.5
270.188	15.87
270.403	19.97
270.619	79.36
270.835	58.88
271.051	105.98
271.267	19.97
271.483	73.21
271.698	17.92
271.914	75.26
272.13	-18.94
272.346	7.68
272.562	40.45
272.777	93.69
272.993	42.5
273.209	58.88
273.425	110.08
273.64	3.58
273.856	67.07
274.072	-16.9
274.287	40.45
274.503	81.41
274.719	108.03
274.934	-16.9
275.15	42.5
275.366	58.88
275.581	89.6
275.797	7.68
276.012	118.27
276.228	75.26
276.444	81.41
276.659	75.26
276.875	17.92
277.09	13.82
277.306	17.92
277.521	124.41
277.737	60.93
277.952	71.17
278.168	-4.61
278.383	105.98
278.599	40.45
278.814	77.31
279.03	58.88
279.245	42.5
279.461	3.58
279.676	56.83
279.892	24.06
280.107	67.07
280.322	-51.71
280.538	62.98
280.753	-6.66
280.969	38.4
281.184	50.69
281.399	40.45
281.615	52.74
281.83	52.74
282.045	22.02
282.26	5.63
282.476	108.03
282.691	87.55
282.906	87.55
283.122	73.21
283.337	5.63
283.552	40.45
283.767	-0.51
283.983	157.18
284.198	30.21
284.413	95.74
284.628	-6.66
284.843	26.11
285.058	108.03
285.274	83.45
285.489	-31.23
285.704	-23.04
285.919	101.89
286.134	-0.51
286.349	50.69
286.564	24.06
286.779	101.89
286.995	-84.48
287.21	48.64
287.425	26.11
287.64	26.11
287.855	91.65
288.07	22.02
288.285	99.84
288.5	50.69
288.715	46.59
288.93	79.36
289.145	36.35
289.36	9.73
289.575	87.55
289.79	81.41
290.004	-4.61
290.219	95.74
290.434	-20.99
290.649	15.87
290.864	-14.85
291.079	-8.7
291.294	36.35
291.509	44.54
291.724	62.98
291.938	56.83
292.153	75.26
292.368	-8.7
292.583	65.02
292.798	91.65
293.012	65.02
293.227	26.11
293.442	122.37
293.657	50.69
293.871	34.3
294.086	65.02
294.301	132.61
294.516	99.84
294.73	50.69
294.945	24.06
295.16	24.06
295.374	73.21
295.589	95.74
295.804	73.21
296.018	65.02
296.233	99.84
296.447	60.93
296.662	-14.85
296.877	50.69
297.091	26.11
297.306	38.4
297.52	40.45
297.735	15.87
297.949	32.26
298.164	54.78
298.378	46.59
298.593	-2.56
298.807	13.82
299.022	22.02
299.236	122.37
299.451	62.98
299.665	42.5
299.88	71.17
300.094	83.45
300.309	32.26
300.523	54.78
300.737	34.3
300.952	65.02
301.166	30.21
301.381	91.65
301.595	46.59
301.809	28.16
302.024	46.59
302.238	26.11
302.452	91.65
302.667	71.17
302.881	108.03
303.095	120.32
303.309	71.17
303.524	13.82
303.738	56.83
303.952	-6.66
304.166	38.4
304.381	28.16
304.595	136.7
304.809	17.92
305.023	62.98
305.237	50.69
305.452	32.26
305.666	105.98
305.88	65.02
306.094	91.65
306.308	105.98
306.522	99.84
306.736	-18.94
306.95	19.97
307.164	42.5
307.379	-16.9
307.593	50.69
307.807	46.59
308.021	81.41
308.235	52.74
308.449	-2.56
308.663	24.06
308.877	144.89
309.091	99.84
309.305	-66.05
309.519	-6.66
309.733	91.65
309.947	46.59
310.161	67.07
310.374	144.89
310.588	112.13
310.802	42.5
311.016	101.89
311.23	75.26
311.444	28.16
311.658	62.98
311.872	79.36
312.085	73.21
312.299	32.26
312.513	122.37
312.727	30.21
312.941	71.17
313.154	19.97
313.368	56.83
313.582	87.55
313.796	34.3
314.009	71.17
314.223	81.41
314.437	40.45
314.651	48.64
314.864	24.06
315.078	-35.33
315.292	56.83
315.505	87.55
315.719	17.92
315.933	58.88
316.146	-12.8
316.36	-43.52
316.573	71.17
316.787	54.78
317.001	48.64
317.214	65.02
317.428	65.02
317.641	-6.66
317.855	75.26
318.068	42.5
318.282	114.17
318.495	97.79
318.709	81.41
318.922	110.08
319.136	83.45
319.349	65.02
319.563	26.11
319.776	19.97
319.99	108.03
320.203	97.79
320.417	58.88
320.63	108.03
320.843	44.54
321.057	67.07
321.27	73.21
321.483	124.41
321.697	116.22
321.91	124.41
322.124	89.6
322.337	-20.99
322.55	126.46
322.763	32.26
322.977	24.06
323.19	-2.56
323.403	5.63
323.617	71.17
323.83	95.74
324.043	105.98
324.256	126.46
324.469	-16.9
324.683	128.51
324.896	65.02
325.109	75.26
325.322	-47.62
325.535	62.98
325.748	103.93
325.962	75.26
326.175	71.17
326.388	112.13
326.601	95.74
326.814	75.26
327.027	65.02
327.24	144.89
327.453	-49.66
327.666	11.78
327.879	54.78
328.092	79.36
328.305	46.59
328.518	-2.56
328.731	118.27
328.944	7.68
329.157	46.59
329.37	-6.66
329.583	75.26
329.796	138.75
330.009	56.83
330.222	97.79
330.435	97.79
330.648	13.82
330.861	136.7
331.073	136.7
331.286	163.33
331.499	81.41
331.712	26.11
331.925	24.06
332.138	62.98
332.35	75.26
332.563	17.92
332.776	75.26
332.989	-23.04
333.202	67.07
333.414	34.3
333.627	77.31
333.84	13.82
334.053	44.54
334.265	26.11
334.478	71.17
334.691	-12.8
334.903	71.17
335.116	48.64
335.329	67.07
335.541	17.92
335.754	28.16
335.966	38.4
336.179	67.07
336.392	19.97
336.604	65.02
336.817	83.45
337.029	73.21
337.242	77.31
337.454	17.92
337.667	15.87
337.88	19.97
338.092	83.45
338.305	79.36
338.517	19.97
338.729	15.87
338.942	34.3
339.154	-29.18
339.367	28.16
339.579	52.74
339.792	1.54
340.004	97.79
340.217	81.41
340.429	91.65
340.641	-18.94
340.854	71.17
341.066	50.69
341.278	9.73
341.491	67.07
341.703	42.5
341.915	73.21
342.128	165.37
342.34	13.82
342.552	56.83
342.764	-14.85
342.977	30.21
343.189	52.74
343.401	67.07
343.613	54.78
343.826	34.3
344.038	-16.9
344.25	28.16
344.462	99.84
344.674	58.88
344.886	-49.66
345.099	15.87
345.311	40.45
345.523	48.64
345.735	-39.42
345.947	151.04
346.159	62.98
346.371	142.85
346.583	130.56
346.795	-31.23
347.007	9.73
347.219	62.98
347.431	95.74
347.643	22.02
347.855	-2.56
348.067	69.12
348.279	9.73
348.491	105.98
348.703	114.17
348.915	97.79
349.127	30.21
349.339	93.69
349.551	50.69
349.763	105.98
349.975	46.59
350.187	26.11
350.399	81.41
350.61	99.84
350.822	58.88
351.034	77.31
351.246	95.74
351.458	69.12
351.669	138.75
351.881	42.5
352.093	105.98
352.305	26.11
352.517	151.04
352.728	54.78
352.94	-2.56
353.152	124.41
353.363	1.54
353.575	73.21
353.787	103.93
353.999	83.45
354.21	171.52
354.422	1.54
354.633	99.84
354.845	19.97
355.057	79.36
355.268	9.73
355.48	65.02
355.692	-41.47
355.903	79.36
356.115	-6.66
356.326	83.45
356.538	83.45
356.749	9.73
356.961	155.13
357.172	40.45
357.384	1.54
357.595	83.45
357.807	17.92
358.018	5.63
358.23	7.68
358.441	83.45
358.653	75.26
358.864	-18.94
359.075	69.12
359.287	32.26
359.498	99.84
359.709	85.5
359.921	-14.85
360.132	54.78
360.344	38.4
360.555	83.45
360.766	42.5
360.977	75.26
361.189	58.88
361.4	-0.51
361.611	112.13
361.823	97.79
362.034	56.83
362.245	38.4
362.456	-70.14
362.667	128.51
362.879	46.59
363.09	65.02
363.301	81.41
363.512	95.74
363.723	73.21
363.935	1.54
364.146	42.5
364.357	87.55
364.568	62.98
364.779	17.92
364.99	122.37
365.201	91.65
365.412	114.17
365.623	26.11
365.834	116.22
366.045	71.17
366.256	62.98
366.467	48.64
366.678	9.73
366.889	67.07
367.1	26.11
367.311	60.93
367.522	26.11
367.733	132.61
367.944	48.64
368.155	3.58
368.366	116.22
368.577	91.65
368.788	50.69
368.999	65.02
369.209	30.21
369.42	157.18
369.631	118.27
369.842	103.93
370.053	69.12
370.264	165.37
370.474	58.88
370.685	56.83
370.896	48.64
371.107	108.03
371.317	83.45
371.528	93.69
371.739	155.13
371.95	83.45
372.16	118.27
372.371	40.45
372.582	75.26
372.792	99.84
373.003	89.6
373.214	15.87
373.424	99.84
373.635	26.11
373.846	108.03
374.056	32.26
374.267	65.02
374.477	1.54
374.688	-6.66
374.898	-20.99
375.109	58.88
375.319	130.56
375.53	58.88
375.74	50.69
375.951	50.69
376.161	91.65
376.372	140.8
376.582	81.41
376.793	112.13
377.003	1.54
377.214	9.73
377.424	42.5
377.635	69.12
377.845	-8.7
378.055	15.87
378.266	60.93
378.476	120.32
378.686	67.07
378.897	118.27
379.107	46.59
379.317	91.65
379.528	36.35
379.738	99.84
379.948	15.87
380.158	50.69
380.369	-6.66
380.579	81.41
380.789	146.94
380.999	38.4
381.21	75.26
381.42	93.69
381.63	91.65
381.84	91.65
382.05	9.73
382.261	38.4
382.471	1.54
382.681	9.73
382.891	54.78
383.101	83.45
383.311	-10.75
383.521	-31.23
383.731	54.78
383.941	146.94
384.151	60.93
384.361	71.17
384.571	30.21
384.781	75.26
384.991	58.88
385.201	202.24
385.411	83.45
385.621	146.94
385.831	97.79
386.041	48.64
386.251	38.4
386.461	89.6
386.671	91.65
386.881	105.98
387.091	103.93
387.301	56.83
387.511	89.6
387.72	163.33
387.93	105.98
388.14	38.4
388.35	67.07
388.56	128.51
388.769	38.4
388.979	56.83
389.189	75.26
389.399	54.78
389.609	65.02
389.818	75.26
390.028	24.06
390.238	11.78
390.447	9.73
390.657	108.03
390.867	83.45
391.076	-8.7
391.286	42.5
391.496	48.64
391.705	157.18
391.915	79.36
392.125	91.65
392.334	85.5
392.544	132.61
392.753	36.35
392.963	42.5
393.172	5.63
393.382	62.98
393.591	124.41
393.801	-14.85
394.01	157.18
394.22	56.83
394.429	9.73
394.639	97.79
394.848	91.65
395.058	22.02
395.267	179.71
395.477	110.08
395.686	140.8
395.895	151.04
396.105	124.41
396.314	138.75
396.524	105.98
396.733	75.26
396.942	165.37
397.152	132.61
397.361	97.79
397.57	112.13
397.78	87.55
397.989	103.93
398.198	112.13
398.407	75.26
398.617	112.13
398.826	48.64
399.035	118.27
399.244	91.65
399.453	157.18
399.663	214.52
399.872	173.57
400.081	46.59
400.29	163.33
400.499	93.69
400.708	189.95
400.917	97.79
401.127	71.17
401.336	97.79
401.545	169.47
401.754	75.26
401.963	118.27
402.172	136.7
402.381	93.69
402.59	189.95
402.799	161.28
403.008	163.33
403.217	124.41
403.426	212.48
403.635	132.61
403.844	140.8
404.053	163.33
404.262	122.37
404.471	202.24
404.68	173.57
404.888	187.9
405.097	67.07
405.306	155.13
405.515	157.18
405.724	189.95
405.933	157.18
406.142	228.86
406.35	155.13
406.559	171.52
406.768	148.99
406.977	181.76
407.185	118.27
407.394	189.95
407.603	263.68
407.812	189.95
408.02	185.85
408.229	263.68
408.438	177.66
408.646	206.33
408.855	226.81
409.064	261.63
409.272	263.68
409.481	271.87
409.69	241.15
409.898	237.05
410.107	280.06
410.315	288.25
410.524	290.3
410.733	312.83
410.941	300.54
411.15	314.88
411.358	329.21
411.567	415.23
411.775	431.61
411.984	298.49
412.192	417.27
412.401	388.6
412.609	423.42
412.818	615.93
413.026	491
413.234	441.85
413.443	484.86
413.651	441.85
413.86	486.9
414.068	534.01
414.276	644.6
414.485	564.73
414.693	548.34
414.901	663.03
415.11	658.93
415.318	615.93
415.526	605.69
415.734	644.6
415.943	671.22
416.151	701.94
416.359	712.18
416.567	759.28
416.776	841.2
416.984	931.31
417.192	873.97
417.4	878.07
417.608	853.49
417.817	921.07
418.025	1007.09
418.233	1005.04
418.441	1046
418.649	1048.05
418.857	1025.52
419.065	1099.25
419.273	1218.03
419.481	1209.84
419.689	1193.45
419.897	1230.32
420.105	1187.31
420.313	1254.89
420.521	1394.15
420.729	1465.83
420.937	1478.12
421.145	1525.22
421.353	1660.39
421.561	1660.39
421.769	1678.82
421.977	1693.16
422.185	1689.06
422.393	1826.28
422.601	1943.01
422.809	1926.63
423.017	1934.82
423.224	2098.66
423.432	2186.72
423.64	2151.9
423.848	2258.4
424.056	2338.27
424.263	2418.14
424.471	2387.42
424.679	2508.25
424.887	2631.13
425.094	2766.29
425.302	2723.29
425.51	2874.84
425.718	2835.92
425.925	2921.94
426.133	2946.52
426.341	3263.95
426.548	3372.49
426.756	3388.88
426.964	3317.2
427.171	3577.29
427.379	3784.13
427.586	3737.03
427.794	3833.29
428.001	3982.79
428.209	4130.24
428.417	4261.31
428.624	4447.68
428.832	4472.25
429.039	4292.03
429.247	4515.26
429.454	4787.64
429.662	5035.44
429.869	4924.85
430.076	4963.76
430.284	5072.31
430.491	5391.79
430.699	5402.03
430.906	5543.34
431.114	5483.95
431.321	5852.58
431.528	5883.3
431.736	6376.86
431.943	6514.08
432.15	6284.7
432.358	6507.93
432.565	6960.53
432.772	6735.26
432.979	7038.36
433.187	7054.74
433.394	7243.15
433.601	7757.19
433.808	7878.02
434.016	7789.96
434.223	8174.98
434.43	8500.61
434.637	8396.16
434.844	8955.26
435.052	9182.58
435.259	8959.35
435.466	8942.97
435.673	8992.12
435.88	9559.41
436.087	10175.84
436.294	9991.53
436.501	9946.47
436.708	10059.11
436.915	10642.78
437.122	10794.33
437.329	10884.44
437.537	11279.7
437.743	11642.19
437.95	11359.57
438.157	12182.85
438.364	12391.75
438.571	12330.31
438.778	12399.94
438.985	13632.82
439.192	13073.72
439.399	13235.51
439.606	12881.21
439.813	13690.16
440.02	14742.82
440.227	14402.85
440.433	14198.06
440.64	15004.96
440.847	14630.18
441.054	15090.97
441.261	16000.27
441.467	15809.81
441.674	16055.56
441.881	16581.89
442.088	16323.85
442.294	16428.29
442.501	16983.29
442.708	17315.06
442.914	18099.44
443.121	18601.19
443.328	18281.71
443.534	19625.17
443.741	18826.46
443.948	18699.49
444.154	20221.13
444.361	19864.78
444.568	20188.36
444.774	20118.73
444.981	20550.85
445.187	20866.24
445.394	21638.33
445.6	21378.23
445.807	23790.74
446.013	22568.1
446.22	23282.84
446.426	24050.83
446.633	24220.81
446.839	24738.95
447.046	24042.64
447.252	25197.7
447.459	25361.53
447.665	25027.71
447.871	26512.49
448.078	27327.58
448.284	26354.8
448.491	26588.27
448.697	27708.51
448.903	28400.72
449.11	28339.28
449.316	27913.3
449.522	28535.88
449.728	29496.38
449.935	29379.65
450.141	29611.07
450.347	30100.53
450.553	28544.08
450.76	29447.23
450.966	30538.8
451.172	29903.93
451.378	30747.69
451.584	30129.2
451.791	30809.13
451.997	30682.16
452.203	31050.79
452.409	30952.49
452.615	30919.72
452.821	29660.22
453.027	29672.51
453.233	31185.96
453.44	29758.52
453.646	30149.68
453.852	30225.46
454.058	30659.63
454.264	29803.58
454.47	30694.44
454.676	29785.15
454.882	30950.44
455.088	28103.76
455.294	28259.41
455.5	29254.72
455.705	29310.02
455.911	27958.36
456.117	27503.71
456.323	27216.99
456.529	25633.91
456.735	26539.12
456.941	25863.29
457.147	25496.7
457.352	24908.93
457.558	24480.91
457.764	24599.69
457.97	24069.26
458.176	23557.27
458.381	23497.88
458.587	22103.21
458.793	22381.74
458.999	21099.71
459.204	22641.83
459.41	22041.78
459.616	20325.58
459.821	20321.48
460.027	20524.23
460.233	20092.11
460.438	18953.44
460.644	19408.09
460.85	18599.14
461.055	18074.86
461.261	18081
461.466	16909.57
461.672	16180.49
461.878	17485.05
462.083	16248.07
462.289	15942.92
462.494	15916.3
462.7	15246.62
462.905	14814.49
463.111	15369.49
463.316	15064.35
463.522	14949.66
463.727	15043.87
463.932	14902.56
464.138	14861.6
464.343	14865.69
464.549	14236.97
464.754	14943.52
464.959	14644.51
465.165	14509.35
465.37	14083.37
465.575	13557.04
465.781	14249.25
465.986	14441.76
466.191	13989.16
466.397	13452.59
466.602	12805.44
466.807	13389.11
467.012	13417.78
