Data from USB4F104151__68__11-31-04-908.txt Node

Date: Fri Mar 14 11:31:04 EDT 2025
User: louis
Spectrometer: USB4F10415
Trigger mode: 4
Integration Time (sec): 5.000000E-2
Scans to average: 1
Electric dark correction enabled: true
Nonlinearity correction enabled: false
Boxcar width: 0
XAxis mode: Wavelengths
Number of Pixels in Spectrum: 3648
>>>>>Begin Spectral Data<<<<<
178.204	-187.05
178.424	-187.05
178.644	-187.05
178.864	-94.89
179.084	-152.23
179.304	-10.92
179.524	3.41
179.744	40.28
179.964	66.9
180.184	-10.92
180.404	75.09
180.624	-6.83
180.844	-82.6
181.064	-117.42
181.283	7.51
181.503	-19.11
181.723	54.61
181.943	-111.27
182.163	58.71
182.383	38.23
182.602	146.77
182.822	54.61
183.042	75.09
183.262	62.8
183.482	120.15
183.701	52.56
183.921	48.47
184.141	5.46
184.361	27.99
184.58	85.33
184.8	62.8
185.02	27.99
185.239	114
185.459	15.7
185.679	71
185.898	-33.45
186.118	85.33
186.338	-6.83
186.557	42.32
186.777	5.46
186.997	46.42
187.216	13.65
187.436	85.33
187.655	19.8
187.875	50.52
188.095	71
188.314	118.1
188.534	124.24
188.753	1.37
188.973	46.42
189.192	42.32
189.412	36.18
189.631	83.28
189.851	27.99
190.07	120.15
190.29	44.37
190.509	38.23
190.729	62.8
190.948	60.76
191.168	210.26
191.387	111.96
191.607	-17.07
191.826	25.94
192.045	60.76
192.265	62.8
192.484	52.56
192.704	36.18
192.923	50.52
193.142	101.72
193.362	116.05
193.581	120.15
193.8	15.7
194.02	161.11
194.239	54.61
194.458	62.8
194.678	105.81
194.897	21.85
195.116	71
195.335	93.52
195.555	36.18
195.774	40.28
195.993	120.15
196.212	19.8
196.432	36.18
196.651	83.28
196.87	87.38
197.089	107.86
197.308	83.28
197.528	19.8
197.747	19.8
197.966	21.85
198.185	19.8
198.404	58.71
198.623	38.23
198.842	118.1
199.062	58.71
199.281	64.85
199.5	30.04
199.719	101.72
199.938	91.48
200.157	120.15
200.376	83.28
200.595	118.1
200.814	66.9
201.033	64.85
201.252	150.87
201.471	77.14
201.69	124.24
201.909	75.09
202.128	9.56
202.347	101.72
202.566	27.99
202.785	91.48
203.004	54.61
203.223	128.34
203.442	44.37
203.661	21.85
203.879	58.71
204.098	44.37
204.317	54.61
204.536	50.52
204.755	44.37
204.974	99.67
205.193	46.42
205.411	136.53
205.63	46.42
205.849	75.09
206.068	-4.78
206.287	13.65
206.505	118.1
206.724	-4.78
206.943	36.18
207.162	54.61
207.381	48.47
207.599	-10.92
207.818	77.14
208.037	17.75
208.255	79.19
208.474	17.75
208.693	60.76
208.911	-10.92
209.13	25.94
209.349	5.46
209.567	71
209.786	161.11
210.005	36.18
210.223	73.04
210.442	-15.02
210.661	103.76
210.879	93.52
211.098	19.8
211.316	1.37
211.535	71
211.753	3.41
211.972	38.23
212.191	19.8
212.409	30.04
212.628	73.04
212.846	1.37
213.065	38.23
213.283	107.86
213.502	71
213.72	62.8
213.938	73.04
214.157	-4.78
214.375	101.72
214.594	13.65
214.812	46.42
215.031	81.24
215.249	13.65
215.467	21.85
215.686	-15.02
215.904	42.32
216.122	36.18
216.341	77.14
216.559	68.95
216.778	66.9
216.996	-10.92
217.214	-0.68
217.432	58.71
217.651	-96.94
217.869	11.61
218.087	95.57
218.306	38.23
218.524	15.7
218.742	-10.92
218.96	50.52
219.179	60.76
219.397	66.9
219.615	89.43
219.833	15.7
220.051	3.41
220.27	87.38
220.488	89.43
220.706	36.18
220.924	9.56
221.142	-12.97
221.36	68.95
221.578	75.09
221.796	-47.79
222.015	77.14
222.233	-23.21
222.451	85.33
222.669	27.99
222.887	32.08
223.105	19.8
223.323	62.8
223.541	66.9
223.759	85.33
223.977	21.85
224.195	144.72
224.413	52.56
224.631	34.13
224.849	48.47
225.067	60.76
225.285	11.61
225.503	99.67
225.721	-19.11
225.939	89.43
226.157	-19.11
226.375	134.48
226.592	-23.21
226.81	34.13
227.028	27.99
227.246	64.85
227.464	71
227.682	62.8
227.9	75.09
228.117	44.37
228.335	54.61
228.553	85.33
228.771	89.43
228.989	-0.68
229.206	71
229.424	71
229.642	95.57
229.86	38.23
230.077	32.08
230.295	38.23
230.513	77.14
230.731	75.09
230.948	107.86
231.166	101.72
231.384	1.37
231.601	97.62
231.819	134.48
232.037	34.13
232.254	19.8
232.472	32.08
232.689	77.14
232.907	101.72
233.125	21.85
233.342	-23.21
233.56	-8.87
233.777	68.95
233.995	5.46
234.213	75.09
234.43	95.57
234.648	38.23
234.865	13.65
235.083	101.72
235.3	17.75
235.518	120.15
235.735	73.04
235.953	27.99
236.17	23.89
236.388	54.61
236.605	71
236.822	107.86
237.04	1.37
237.257	54.61
237.475	-60.07
237.692	83.28
237.909	11.61
238.127	27.99
238.344	58.71
238.562	5.46
238.779	46.42
238.996	40.28
239.214	44.37
239.431	116.05
239.648	46.42
239.865	66.9
240.083	81.24
240.3	56.66
240.517	85.33
240.735	111.96
240.952	58.71
241.169	66.9
241.386	66.9
241.603	23.89
241.821	-21.16
242.038	140.63
242.255	95.57
242.472	-27.31
242.689	54.61
242.907	50.52
243.124	3.41
243.341	23.89
243.558	38.23
243.775	42.32
243.992	40.28
244.209	81.24
244.426	185.68
244.643	38.23
244.86	-17.07
245.078	111.96
245.295	81.24
245.512	73.04
245.729	38.23
245.946	32.08
246.163	52.56
246.38	62.8
246.597	66.9
246.814	40.28
247.031	71
247.248	103.76
247.464	21.85
247.681	71
247.898	13.65
248.115	103.76
248.332	5.46
248.549	27.99
248.766	122.2
248.983	101.72
249.2	95.57
249.417	79.19
249.633	19.8
249.85	124.24
250.067	-12.97
250.284	144.72
250.501	42.32
250.717	79.19
250.934	13.65
251.151	81.24
251.368	13.65
251.585	44.37
251.801	3.41
252.018	-12.97
252.235	99.67
252.451	32.08
252.668	42.32
252.885	83.28
253.102	52.56
253.318	36.18
253.535	95.57
253.752	-37.55
253.968	42.32
254.185	-10.92
254.401	38.23
254.618	38.23
254.835	42.32
255.051	103.76
255.268	19.8
255.484	-37.55
255.701	-0.68
255.917	93.52
256.134	44.37
256.351	68.95
256.567	5.46
256.784	-47.79
257	-31.4
257.217	58.71
257.433	58.71
257.65	30.04
257.866	52.56
258.082	-39.59
258.299	-10.92
258.515	130.39
258.732	7.51
258.948	38.23
259.165	54.61
259.381	1.37
259.597	56.66
259.814	-17.07
260.03	11.61
260.246	13.65
260.463	85.33
260.679	52.56
260.895	87.38
261.112	48.47
261.328	46.42
261.544	19.8
261.761	126.29
261.977	75.09
262.193	42.32
262.409	73.04
262.626	1.37
262.842	25.94
263.058	44.37
263.274	54.61
263.49	38.23
263.707	75.09
263.923	27.99
264.139	-19.11
264.355	-35.5
264.571	75.09
264.787	44.37
265.004	75.09
265.22	13.65
265.436	25.94
265.652	-12.97
265.868	58.71
266.084	32.08
266.3	60.76
266.516	60.76
266.732	124.24
266.948	38.23
267.164	32.08
267.38	23.89
267.596	36.18
267.812	128.34
268.028	107.86
268.244	38.23
268.46	60.76
268.676	79.19
268.892	11.61
269.108	-19.11
269.324	19.8
269.54	9.56
269.756	118.1
269.972	30.04
270.188	19.8
270.403	11.61
270.619	75.09
270.835	-10.92
271.051	77.14
271.267	9.56
271.483	89.43
271.698	114
271.914	36.18
272.13	111.96
272.346	30.04
272.562	93.52
272.777	124.24
272.993	58.71
273.209	56.66
273.425	1.37
273.64	44.37
273.856	11.61
274.072	66.9
274.287	-2.73
274.503	116.05
274.719	44.37
274.934	-17.07
275.15	68.95
275.366	79.19
275.581	-43.69
275.797	79.19
276.012	38.23
276.228	38.23
276.444	44.37
276.659	134.48
276.875	46.42
277.09	52.56
277.306	27.99
277.521	58.71
277.737	71
277.952	118.1
278.168	36.18
278.383	-2.73
278.599	42.32
278.814	46.42
279.03	95.57
279.245	91.48
279.461	79.19
279.676	52.56
279.892	21.85
280.107	-39.59
280.322	9.56
280.538	46.42
280.753	-10.92
280.969	42.32
281.184	-4.78
281.399	71
281.615	-17.07
281.83	32.08
282.045	30.04
282.26	19.8
282.476	38.23
282.691	81.24
282.906	34.13
283.122	79.19
283.337	-29.35
283.552	83.28
283.767	13.65
283.983	75.09
284.198	85.33
284.413	99.67
284.628	66.9
284.843	56.66
285.058	54.61
285.274	54.61
285.489	17.75
285.704	25.94
285.919	101.72
286.134	62.8
286.349	30.04
286.564	25.94
286.779	83.28
286.995	66.9
287.21	87.38
287.425	87.38
287.64	27.99
287.855	36.18
288.07	30.04
288.285	54.61
288.5	85.33
288.715	71
288.93	15.7
289.145	11.61
289.36	99.67
289.575	11.61
289.79	87.38
290.004	73.04
290.219	99.67
290.434	87.38
290.649	-27.31
290.864	-10.92
291.079	85.33
291.294	83.28
291.509	99.67
291.724	27.99
291.938	89.43
292.153	58.71
292.368	54.61
292.583	52.56
292.798	52.56
293.012	27.99
293.227	42.32
293.442	116.05
293.657	64.85
293.871	134.48
294.086	15.7
294.301	79.19
294.516	52.56
294.73	136.53
294.945	21.85
295.16	85.33
295.374	60.76
295.589	13.65
295.804	36.18
296.018	-2.73
296.233	101.72
296.447	38.23
296.662	5.46
296.877	85.33
297.091	111.96
297.306	87.38
297.52	54.61
297.735	73.04
297.949	-19.11
298.164	87.38
298.378	52.56
298.593	11.61
298.807	54.61
299.022	9.56
299.236	38.23
299.451	36.18
299.665	21.85
299.88	34.13
300.094	5.46
300.309	23.89
300.523	62.8
300.737	36.18
300.952	58.71
301.166	50.52
301.381	-47.79
301.595	23.89
301.809	48.47
302.024	62.8
302.238	42.32
302.452	38.23
302.667	52.56
302.881	142.68
303.095	71
303.309	30.04
303.524	9.56
303.738	132.44
303.952	50.52
304.166	68.95
304.381	-41.64
304.595	60.76
304.809	50.52
305.023	50.52
305.237	62.8
305.452	27.99
305.666	62.8
305.88	116.05
306.094	9.56
306.308	66.9
306.522	124.24
306.736	118.1
306.95	77.14
307.164	130.39
307.379	42.32
307.593	161.11
307.807	109.91
308.021	77.14
308.235	-4.78
308.449	3.41
308.663	66.9
308.877	71
309.091	54.61
309.305	42.32
309.519	23.89
309.733	79.19
309.947	25.94
310.161	118.1
310.374	32.08
310.588	54.61
310.802	-2.73
311.016	46.42
311.23	-43.69
311.444	95.57
311.658	64.85
311.872	150.87
312.085	71
312.299	87.38
312.513	105.81
312.727	-4.78
312.941	91.48
313.154	73.04
313.368	34.13
313.582	5.46
313.796	13.65
314.009	38.23
314.223	118.1
314.437	79.19
314.651	56.66
314.864	9.56
315.078	5.46
315.292	19.8
315.505	36.18
315.719	93.52
315.933	19.8
316.146	44.37
316.36	77.14
316.573	107.86
316.787	103.76
317.001	91.48
317.214	-2.73
317.428	36.18
317.641	17.75
317.855	54.61
318.068	79.19
318.282	79.19
318.495	122.2
318.709	38.23
318.922	71
319.136	95.57
319.349	62.8
319.563	58.71
319.776	132.44
319.99	-51.88
320.203	50.52
320.417	48.47
320.63	120.15
320.843	175.44
321.057	40.28
321.27	95.57
321.483	118.1
321.697	85.33
321.91	46.42
322.124	77.14
322.337	73.04
322.55	-2.73
322.763	25.94
322.977	21.85
323.19	-37.55
323.403	7.51
323.617	-19.11
323.83	30.04
324.043	73.04
324.256	-10.92
324.469	44.37
324.683	95.57
324.896	3.41
325.109	5.46
325.322	75.09
325.535	75.09
325.748	87.38
325.962	81.24
326.175	87.38
326.388	-2.73
326.601	136.53
326.814	11.61
327.027	54.61
327.24	134.48
327.453	-51.88
327.666	62.8
327.879	120.15
328.092	140.63
328.305	27.99
328.518	54.61
328.731	11.61
328.944	40.28
329.157	95.57
329.37	118.1
329.583	116.05
329.796	140.63
330.009	77.14
330.222	50.52
330.435	103.76
330.648	114
330.861	120.15
331.073	79.19
331.286	91.48
331.499	77.14
331.712	42.32
331.925	46.42
332.138	116.05
332.35	109.91
332.563	95.57
332.776	62.8
332.989	-4.78
333.202	62.8
333.414	21.85
333.627	81.24
333.84	50.52
334.053	46.42
334.265	85.33
334.478	68.95
334.691	21.85
334.903	21.85
335.116	30.04
335.329	77.14
335.541	13.65
335.754	148.82
335.966	-19.11
336.179	87.38
336.392	23.89
336.604	38.23
336.817	-2.73
337.029	87.38
337.242	23.89
337.454	101.72
337.667	-6.83
337.88	50.52
338.092	71
338.305	142.68
338.517	-4.78
338.729	97.62
338.942	114
339.154	46.42
339.367	19.8
339.579	19.8
339.792	-80.55
340.004	46.42
340.217	107.86
340.429	77.14
340.641	34.13
340.854	77.14
341.066	42.32
341.278	111.96
341.491	83.28
341.703	68.95
341.915	17.75
342.128	95.57
342.34	116.05
342.552	40.28
342.764	81.24
342.977	66.9
343.189	95.57
343.401	64.85
343.613	9.56
343.826	27.99
344.038	3.41
344.25	85.33
344.462	46.42
344.674	126.29
344.886	54.61
345.099	83.28
345.311	118.1
345.523	95.57
345.735	60.76
345.947	38.23
346.159	71
346.371	34.13
346.583	66.9
346.795	140.63
347.007	48.47
347.219	83.28
347.431	-19.11
347.643	75.09
347.855	124.24
348.067	144.72
348.279	54.61
348.491	109.91
348.703	85.33
348.915	30.04
349.127	44.37
349.339	36.18
349.551	-25.26
349.763	46.42
349.975	54.61
350.187	83.28
350.399	95.57
350.61	120.15
350.822	85.33
351.034	107.86
351.246	19.8
351.458	3.41
351.669	36.18
351.881	83.28
352.093	66.9
352.305	87.38
352.517	93.52
352.728	48.47
352.94	46.42
353.152	60.76
353.363	32.08
353.575	83.28
353.787	161.11
353.999	40.28
354.21	111.96
354.422	7.51
354.633	-12.97
354.845	66.9
355.057	73.04
355.268	62.8
355.48	-39.59
355.692	42.32
355.903	126.29
356.115	38.23
356.326	34.13
356.538	93.52
356.749	42.32
356.961	87.38
357.172	-10.92
357.384	48.47
357.595	95.57
357.807	23.89
358.018	75.09
358.23	66.9
358.441	146.77
358.653	83.28
358.864	62.8
359.075	87.38
359.287	83.28
359.498	19.8
359.709	66.9
359.921	19.8
360.132	79.19
360.344	103.76
360.555	42.32
360.766	19.8
360.977	27.99
361.189	107.86
361.4	87.38
361.611	91.48
361.823	77.14
362.034	56.66
362.245	-8.87
362.456	87.38
362.667	107.86
362.879	21.85
363.09	62.8
363.301	73.04
363.512	68.95
363.723	107.86
363.935	-12.97
364.146	101.72
364.357	9.56
364.568	42.32
364.779	-2.73
364.99	109.91
365.201	21.85
365.412	136.53
365.623	38.23
365.834	11.61
366.045	136.53
366.256	103.76
366.467	95.57
366.678	71
366.889	128.34
367.1	54.61
367.311	23.89
367.522	54.61
367.733	36.18
367.944	83.28
368.155	30.04
368.366	52.56
368.577	95.57
368.788	-33.45
368.999	44.37
369.209	34.13
369.42	132.44
369.631	71
369.842	83.28
370.053	75.09
370.264	46.42
370.474	27.99
370.685	89.43
370.896	58.71
371.107	52.56
371.317	19.8
371.528	62.8
371.739	32.08
371.95	62.8
372.16	95.57
372.371	46.42
372.582	83.28
372.792	103.76
373.003	77.14
373.214	46.42
373.424	114
373.635	7.51
373.846	120.15
374.056	103.76
374.267	46.42
374.477	152.91
374.688	30.04
374.898	34.13
375.109	62.8
375.319	44.37
375.53	62.8
375.74	177.49
375.951	15.7
376.161	68.95
376.372	48.47
376.582	46.42
376.793	21.85
377.003	9.56
377.214	91.48
377.424	54.61
377.635	34.13
377.845	73.04
378.055	144.72
378.266	13.65
378.476	-15.02
378.686	68.95
378.897	85.33
379.107	91.48
379.317	120.15
379.528	107.86
379.738	167.25
379.948	30.04
380.158	116.05
380.369	97.62
380.579	124.24
380.789	32.08
380.999	46.42
381.21	79.19
381.42	126.29
381.63	85.33
381.84	36.18
382.05	9.56
382.261	144.72
382.471	46.42
382.681	66.9
382.891	91.48
383.101	83.28
383.311	1.37
383.521	27.99
383.731	54.61
383.941	87.38
384.151	58.71
384.361	111.96
384.571	116.05
384.781	71
384.991	93.52
385.201	173.39
385.411	85.33
385.621	91.48
385.831	62.8
386.041	109.91
386.251	136.53
386.461	157.01
386.671	122.2
386.881	25.94
387.091	114
387.301	85.33
387.511	83.28
387.72	111.96
387.93	161.11
388.14	30.04
388.35	42.32
388.56	101.72
388.769	89.43
388.979	62.8
389.189	64.85
389.399	87.38
389.609	95.57
389.818	93.52
390.028	83.28
390.238	52.56
390.447	7.51
390.657	152.91
390.867	48.47
391.076	46.42
391.286	58.71
391.496	42.32
391.705	62.8
391.915	146.77
392.125	85.33
392.334	124.24
392.544	30.04
392.753	30.04
392.963	38.23
393.172	62.8
393.382	-55.98
393.591	116.05
393.801	40.28
394.01	132.44
394.22	-21.16
394.429	99.67
394.639	77.14
394.848	142.68
395.058	62.8
395.267	103.76
395.477	134.48
395.686	27.99
395.895	111.96
396.105	161.11
396.314	87.38
396.524	91.48
396.733	46.42
396.942	107.86
397.152	191.83
397.361	83.28
397.57	54.61
397.78	46.42
397.989	177.49
398.198	161.11
398.407	99.67
398.617	79.19
398.826	85.33
399.035	144.72
399.244	42.32
399.453	169.3
399.663	50.52
399.872	54.61
400.081	103.76
400.29	128.34
400.499	66.9
400.708	83.28
400.917	126.29
401.127	97.62
401.336	77.14
401.545	202.07
401.754	144.72
401.963	144.72
402.172	103.76
402.381	91.48
402.59	150.87
402.799	91.48
403.008	68.95
403.217	165.2
403.426	167.25
403.635	99.67
403.844	144.72
404.053	58.71
404.262	111.96
404.471	142.68
404.68	93.52
404.888	132.44
405.097	157.01
405.306	181.59
405.515	157.01
405.724	134.48
405.933	136.53
406.142	142.68
406.35	200.02
406.559	79.19
406.768	204.11
406.977	122.2
407.185	146.77
407.394	218.45
407.603	140.63
407.812	202.07
408.02	226.64
408.229	226.64
408.438	185.68
408.646	193.87
408.855	126.29
409.064	249.17
409.272	243.03
409.481	290.13
409.69	263.51
409.898	273.75
410.107	275.79
410.315	316.75
410.524	302.42
410.733	288.08
410.941	345.42
411.15	361.81
411.358	353.62
411.567	386.38
411.775	308.56
411.984	300.37
412.192	423.25
412.401	363.86
412.609	470.35
412.818	423.25
413.026	415.06
413.234	431.44
413.443	472.4
413.651	533.84
413.86	523.6
414.068	537.93
414.276	511.31
414.485	535.89
414.693	623.95
414.901	615.76
415.11	642.38
415.318	615.76
415.526	564.56
415.734	669
415.943	644.43
416.151	757.07
416.359	769.35
416.567	791.88
416.776	781.64
416.984	873.8
417.192	904.52
417.4	857.42
417.608	843.08
417.817	890.18
418.025	986.44
418.233	1127.75
418.441	972.1
418.649	1054.02
418.857	1045.83
419.065	1193.28
419.273	1094.98
419.481	1193.28
419.689	1324.35
419.897	1269.06
420.105	1271.11
420.313	1441.09
420.521	1459.52
420.729	1363.26
420.937	1447.23
421.145	1586.49
421.353	1557.82
421.561	1697.08
421.769	1725.76
421.977	1703.23
422.185	1598.78
422.393	1901.88
422.601	1951.03
422.809	1856.82
423.017	1969.46
423.224	2075.96
423.432	2151.73
423.64	2231.6
423.848	2323.76
424.056	2420.02
424.263	2510.13
424.471	2489.65
424.679	2432.3
424.887	2733.36
425.094	2790.7
425.302	2667.82
425.51	2807.08
425.718	2938.15
425.925	3022.12
426.133	3028.26
426.341	3198.24
426.548	3333.41
426.756	3175.72
426.964	3525.92
427.171	3482.91
427.379	3732.76
427.586	3826.97
427.794	3790.11
428.001	4101.4
428.209	4177.17
428.417	4070.68
428.624	4537.62
428.832	4427.03
429.039	4390.16
429.247	4418.83
429.454	4885.77
429.662	5213.45
429.869	4773.13
430.076	5072.14
430.284	5072.14
430.491	5152.01
430.699	5498.11
430.906	5571.84
431.114	5577.98
431.321	5874.94
431.528	5950.71
431.736	6259.96
431.943	6503.67
432.15	6524.15
432.358	6583.54
432.565	6857.96
432.772	6819.05
432.979	7148.78
433.187	7335.14
433.394	7306.47
433.601	7673.06
433.808	7873.76
434.016	7726.3
434.223	8129.75
434.43	8625.36
434.637	8328.41
434.844	9094.35
435.052	8924.37
435.259	8916.17
435.466	9014.48
435.673	9170.12
435.88	9757.89
436.087	10106.04
436.294	10228.92
436.501	9579.72
436.708	10235.07
436.915	10384.57
437.122	10865.84
437.329	10794.16
437.537	11177.13
437.743	11152.56
437.95	11340.97
438.157	12113.05
438.364	12213.4
438.571	12274.84
438.778	12545.17
438.985	13481.1
439.192	13104.27
439.399	13374.6
439.606	13268.11
439.813	14003.33
440.02	14599.29
440.227	14607.48
440.433	14181.5
440.64	14777.46
440.847	14658.68
441.054	15189.1
441.261	16147.55
441.467	15877.22
441.674	16137.31
441.881	16778.33
442.088	16841.81
442.294	16630.87
442.501	17165.39
442.708	17282.13
442.914	17994.82
443.121	18670.65
443.328	18211.9
443.534	19557.42
443.741	19215.41
443.948	18684.98
444.154	20343.84
444.361	19926.05
444.568	20632.6
444.774	20061.22
444.981	20526.11
445.187	21046.29
445.394	21945.35
445.6	21679.11
445.807	23542.77
446.013	22703.1
446.22	22817.79
446.426	24099.81
446.633	24228.84
446.839	24746.97
447.046	24009.7
447.252	25379.79
447.459	25357.27
447.665	25381.84
447.871	26303.43
448.078	27397.04
448.284	26174.41
448.491	26647.49
448.697	27847.6
448.903	28375.97
449.11	28285.86
449.316	27741.1
449.522	28392.36
449.728	29518.74
449.935	29614.99
450.141	29580.18
450.347	29920.14
450.553	28828.57
450.76	29666.19
450.966	30315.4
451.172	30057.35
451.378	30864.25
451.584	30188.42
451.791	30870.4
451.997	30788.48
452.203	31075.2
452.409	31368.05
452.615	31181.69
452.821	29805.45
453.027	29789.07
453.233	31204.22
453.44	29973.39
453.646	30309.25
453.852	30208.9
454.058	30817.15
454.264	29664.14
454.47	30561.15
454.676	29719.44
454.882	30555.01
455.088	28105.64
455.294	28038.06
455.5	29080.47
455.705	29303.7
455.911	28162.98
456.117	27679.66
456.323	27249.59
456.529	25643.98
456.735	26715.07
456.941	25828.3
457.147	25652.17
457.352	24591.33
457.558	24208.36
457.764	24396.77
457.97	24239.08
458.176	23020.53
458.381	23452.66
458.587	22287.36
458.793	22565.89
458.999	21191.7
459.204	22510.59
459.41	22068.23
459.616	20423.71
459.821	20757.53
460.027	20413.47
460.233	19940.39
460.438	19074.1
460.644	19358.77
460.85	18478.14
461.055	18039.87
461.261	18218.05
461.466	16749.65
461.672	16182.37
461.878	17523.79
462.083	16276.57
462.289	15828.07
462.494	15776.87
462.7	14986.35
462.905	14392.44
463.111	15166.57
463.316	15109.23
463.522	14957.68
463.727	14824.56
463.932	14877.81
464.138	14857.33
464.343	14744.69
464.549	14464.12
464.754	14828.66
464.959	14756.98
465.165	14636.15
465.37	14038.14
465.575	13640.84
465.781	14163.07
465.986	14386.3
466.191	13833.35
466.397	13505.67
466.602	12608.66
466.807	13296.78
467.012	13333.64
467.218	13343.88
467.423	12962.96
467.628	13134.99
467.833	13995.14
468.038	12985.49
