Data from USB4F104151__54__11-30-36-461.txt Node

Date: Fri Mar 14 11:30:36 EDT 2025
User: louis
Spectrometer: USB4F10415
Trigger mode: 4
Integration Time (sec): 5.000000E-2
Scans to average: 1
Electric dark correction enabled: true
Nonlinearity correction enabled: false
Boxcar width: 0
XAxis mode: Wavelengths
Number of Pixels in Spectrum: 3648
>>>>>Begin Spectral Data<<<<<
178.204	-83.45
178.424	-83.45
178.644	-83.45
178.864	-93.69
179.084	-155.13
179.304	86.53
179.524	-58.88
179.744	14.85
179.964	29.18
180.184	-44.54
180.404	0.51
180.624	-3.58
180.844	2.56
181.064	0.51
181.283	-7.68
181.503	-24.06
181.723	4.61
181.943	35.33
182.163	39.42
182.383	-44.54
182.602	10.75
182.822	78.33
183.042	18.94
183.262	-5.63
183.482	31.23
183.701	-24.06
183.921	0.51
184.141	6.66
184.361	80.38
184.58	41.47
184.8	-32.26
185.02	37.38
185.239	27.14
185.459	-52.74
185.679	18.94
185.898	-89.6
186.118	0.51
186.338	-15.87
186.557	23.04
186.777	47.62
186.997	-65.02
187.216	-3.58
187.436	135.68
187.655	23.04
187.875	64
188.095	68.09
188.314	102.91
188.534	29.18
188.753	14.85
188.973	64
189.192	29.18
189.412	90.62
189.631	47.62
189.851	57.86
190.07	12.8
190.29	-26.11
190.509	27.14
190.729	25.09
190.948	74.24
191.168	113.15
191.387	90.62
191.607	8.7
191.826	49.66
192.045	53.76
192.265	-11.78
192.484	-1.54
192.704	25.09
192.923	4.61
193.142	123.39
193.362	57.86
193.581	41.47
193.8	47.62
194.02	10.75
194.239	27.14
194.458	20.99
194.678	16.9
194.897	49.66
195.116	66.05
195.335	-24.06
195.555	90.62
195.774	-44.54
195.993	16.9
196.212	96.77
196.432	-3.58
196.651	29.18
196.87	61.95
197.089	76.29
197.308	8.7
197.528	0.51
197.747	-28.16
197.966	49.66
198.185	37.38
198.404	-56.83
198.623	51.71
198.842	53.76
199.062	102.91
199.281	55.81
199.5	20.99
199.719	55.81
199.938	45.57
200.157	45.57
200.376	23.04
200.595	57.86
200.814	76.29
201.033	66.05
201.252	45.57
201.471	10.75
201.69	96.77
201.909	41.47
202.128	102.91
202.347	41.47
202.566	66.05
202.785	82.43
203.004	8.7
203.223	129.53
203.442	25.09
203.661	16.9
203.879	-3.58
204.098	72.19
204.317	-11.78
204.536	61.95
204.755	74.24
204.974	16.9
205.193	-1.54
205.411	113.15
205.63	4.61
205.849	0.51
206.068	16.9
206.287	-3.58
206.505	94.72
206.724	47.62
206.943	90.62
207.162	-9.73
207.381	82.43
207.599	23.04
207.818	27.14
208.037	45.57
208.255	-15.87
208.474	-1.54
208.693	53.76
208.911	47.62
209.13	145.92
209.349	41.47
209.567	41.47
209.786	55.81
210.005	86.53
210.223	25.09
210.442	-26.11
210.661	94.72
210.879	107.01
211.098	-50.69
211.316	-24.06
211.535	70.14
211.753	0.51
211.972	12.8
212.191	2.56
212.409	-15.87
212.628	18.94
212.846	-44.54
213.065	33.28
213.283	90.62
213.502	18.94
213.72	-42.5
213.938	-32.26
214.157	39.42
214.375	23.04
214.594	12.8
214.812	-19.97
215.031	64
215.249	41.47
215.467	39.42
215.686	10.75
215.904	125.44
216.122	90.62
216.341	-26.11
216.559	20.99
216.778	70.14
216.996	61.95
217.214	-5.63
217.432	-17.92
217.651	-7.68
217.869	49.66
218.087	35.33
218.306	57.86
218.524	23.04
218.742	-30.21
218.96	29.18
219.179	51.71
219.397	27.14
219.615	66.05
219.833	49.66
220.051	-52.74
220.27	39.42
220.488	33.28
220.706	33.28
220.924	33.28
221.142	-42.5
221.36	74.24
221.578	-40.45
221.796	31.23
222.015	-19.97
222.233	59.9
222.451	20.99
222.669	-3.58
222.887	66.05
223.105	37.38
223.323	-56.83
223.541	55.81
223.759	-19.97
223.977	23.04
224.195	70.14
224.413	33.28
224.631	41.47
224.849	16.9
225.067	125.44
225.285	45.57
225.503	27.14
225.721	25.09
225.939	-9.73
226.157	49.66
226.375	133.63
226.592	23.04
226.81	8.7
227.028	-7.68
227.246	160.25
227.464	47.62
227.682	61.95
227.9	70.14
228.117	49.66
228.335	47.62
228.553	14.85
228.771	39.42
228.989	-5.63
229.206	72.19
229.424	20.99
229.642	6.66
229.86	-42.5
230.077	80.38
230.295	-1.54
230.513	16.9
230.731	-1.54
230.948	123.39
231.166	47.62
231.384	14.85
231.601	16.9
231.819	45.57
232.037	53.76
232.254	-17.92
232.472	49.66
232.689	-48.64
232.907	86.53
233.125	72.19
233.342	64
233.56	0.51
233.777	61.95
233.995	-15.87
234.213	39.42
234.43	74.24
234.648	-7.68
234.865	-32.26
235.083	49.66
235.3	-40.45
235.518	0.51
235.735	23.04
235.953	78.33
236.17	41.47
236.388	27.14
236.605	47.62
236.822	59.9
237.04	-17.92
237.257	39.42
237.475	-19.97
237.692	16.9
237.909	23.04
238.127	57.86
238.344	74.24
238.562	20.99
238.779	-1.54
238.996	12.8
239.214	45.57
239.431	100.86
239.648	-11.78
239.865	102.91
240.083	8.7
240.3	102.91
240.517	51.71
240.735	33.28
240.952	57.86
241.169	41.47
241.386	66.05
241.603	49.66
241.821	-65.02
242.038	137.73
242.255	76.29
242.472	-13.82
242.689	33.28
242.907	-32.26
243.124	16.9
243.341	20.99
243.558	-11.78
243.775	25.09
243.992	-19.97
244.209	8.7
244.426	209.4
244.643	12.8
244.86	-81.41
245.078	25.09
245.295	16.9
245.512	-19.97
245.729	35.33
245.946	43.52
246.163	12.8
246.38	-11.78
246.597	25.09
246.814	33.28
247.031	41.47
247.248	41.47
247.464	-17.92
247.681	68.09
247.898	12.8
248.115	2.56
248.332	20.99
248.549	78.33
248.766	76.29
248.983	61.95
249.2	-36.35
249.417	37.38
249.633	107.01
249.85	27.14
250.067	-19.97
250.284	29.18
250.501	23.04
250.717	8.7
250.934	-30.21
251.151	49.66
251.368	25.09
251.585	109.05
251.801	-15.87
252.018	78.33
252.235	23.04
252.451	12.8
252.668	0.51
252.885	104.96
253.102	90.62
253.318	78.33
253.535	70.14
253.752	2.56
253.968	23.04
254.185	-32.26
254.401	-7.68
254.618	45.57
254.835	-11.78
255.051	72.19
255.268	-1.54
255.484	29.18
255.701	72.19
255.917	41.47
256.134	14.85
256.351	-11.78
256.567	20.99
256.784	41.47
257	-48.64
257.217	57.86
257.433	8.7
257.65	8.7
257.866	123.39
258.082	-34.3
258.299	-28.16
258.515	57.86
258.732	6.66
258.948	39.42
259.165	35.33
259.381	125.44
259.597	-7.68
259.814	6.66
260.03	70.14
260.246	-19.97
260.463	-81.41
260.679	41.47
260.895	100.86
261.112	45.57
261.328	57.86
261.544	-9.73
261.761	127.49
261.977	25.09
262.193	-44.54
262.409	47.62
262.626	49.66
262.842	96.77
263.058	23.04
263.274	23.04
263.49	20.99
263.707	90.62
263.923	-7.68
264.139	25.09
264.355	16.9
264.571	-1.54
264.787	115.2
265.004	14.85
265.22	31.23
265.436	-71.17
265.652	14.85
265.868	96.77
266.084	4.61
266.3	-24.06
266.516	-19.97
266.732	0.51
266.948	51.71
267.164	-3.58
267.38	61.95
267.596	2.56
267.812	201.21
268.028	-7.68
268.244	-62.98
268.46	25.09
268.676	2.56
268.892	-24.06
269.108	-7.68
269.324	37.38
269.54	-28.16
269.756	123.39
269.972	-15.87
270.188	-7.68
270.403	31.23
270.619	33.28
270.835	41.47
271.051	-36.35
271.267	-7.68
271.483	25.09
271.698	25.09
271.914	8.7
272.13	-17.92
272.346	0.51
272.562	-28.16
272.777	74.24
272.993	37.38
273.209	-52.74
273.425	41.47
273.64	-9.73
273.856	41.47
274.072	72.19
274.287	10.75
274.503	82.43
274.719	55.81
274.934	8.7
275.15	57.86
275.366	18.94
275.581	-7.68
275.797	20.99
276.012	-32.26
276.228	57.86
276.444	64
276.659	33.28
276.875	-7.68
277.09	29.18
277.306	53.76
277.521	41.47
277.737	14.85
277.952	20.99
278.168	-48.64
278.383	59.9
278.599	49.66
278.814	88.57
279.03	37.38
279.245	47.62
279.461	8.7
279.676	86.53
279.892	18.94
280.107	0.51
280.322	0.51
280.538	31.23
280.753	39.42
280.969	98.81
281.184	-3.58
281.399	117.25
281.615	0.51
281.83	74.24
282.045	8.7
282.26	8.7
282.476	31.23
282.691	113.15
282.906	8.7
283.122	23.04
283.337	35.33
283.552	18.94
283.767	6.66
283.983	33.28
284.198	33.28
284.413	47.62
284.628	-40.45
284.843	49.66
285.058	61.95
285.274	10.75
285.489	14.85
285.704	47.62
285.919	-24.06
286.134	-7.68
286.349	88.57
286.564	33.28
286.779	45.57
286.995	8.7
287.21	76.29
287.425	45.57
287.64	-34.3
287.855	-71.17
288.07	-32.26
288.285	90.62
288.5	127.49
288.715	-56.83
288.93	4.61
289.145	25.09
289.36	109.05
289.575	14.85
289.79	33.28
290.004	35.33
290.219	70.14
290.434	27.14
290.649	31.23
290.864	0.51
291.079	12.8
291.294	88.57
291.509	61.95
291.724	-24.06
291.938	115.2
292.153	88.57
292.368	6.66
292.583	0.51
292.798	33.28
293.012	8.7
293.227	39.42
293.442	29.18
293.657	55.81
293.871	98.81
294.086	10.75
294.301	64
294.516	66.05
294.73	-1.54
294.945	-52.74
295.16	25.09
295.374	-7.68
295.589	43.52
295.804	-54.78
296.018	-11.78
296.233	94.72
296.447	31.23
296.662	49.66
296.877	88.57
297.091	10.75
297.306	-9.73
297.52	-40.45
297.735	-5.63
297.949	57.86
298.164	104.96
298.378	82.43
298.593	-7.68
298.807	86.53
299.022	25.09
299.236	49.66
299.451	49.66
299.665	18.94
299.88	-24.06
300.094	2.56
300.309	-11.78
300.523	20.99
300.737	25.09
300.952	16.9
301.166	53.76
301.381	12.8
301.595	41.47
301.809	14.85
302.024	-44.54
302.238	-26.11
302.452	53.76
302.667	84.48
302.881	12.8
303.095	47.62
303.309	49.66
303.524	4.61
303.738	47.62
303.952	8.7
304.166	53.76
304.381	-44.54
304.595	152.06
304.809	39.42
305.023	16.9
305.237	14.85
305.452	33.28
305.666	57.86
305.88	-19.97
306.094	35.33
306.308	25.09
306.522	57.86
306.736	86.53
306.95	49.66
307.164	55.81
307.379	49.66
307.593	64
307.807	-26.11
308.021	-17.92
308.235	-3.58
308.449	35.33
308.663	41.47
308.877	119.29
309.091	12.8
309.305	10.75
309.519	14.85
309.733	94.72
309.947	-26.11
310.161	64
310.374	31.23
310.588	90.62
310.802	78.33
311.016	12.8
311.23	0.51
311.444	16.9
311.658	78.33
311.872	64
312.085	82.43
312.299	98.81
312.513	33.28
312.727	96.77
312.941	-73.21
313.154	8.7
313.368	45.57
313.582	39.42
313.796	35.33
314.009	25.09
314.223	37.38
314.437	74.24
314.651	82.43
314.864	-1.54
315.078	20.99
315.292	29.18
315.505	41.47
315.719	-9.73
315.933	98.81
316.146	55.81
316.36	16.9
316.573	96.77
316.787	47.62
317.001	53.76
317.214	31.23
317.428	78.33
317.641	70.14
317.855	61.95
318.068	4.61
318.282	-24.06
318.495	84.48
318.709	41.47
318.922	72.19
319.136	47.62
319.349	72.19
319.563	10.75
319.776	-17.92
319.99	-7.68
320.203	14.85
320.417	70.14
320.63	14.85
320.843	98.81
321.057	64
321.27	55.81
321.483	76.29
321.697	49.66
321.91	47.62
322.124	35.33
322.337	-73.21
322.55	41.47
322.763	70.14
322.977	20.99
323.19	33.28
323.403	37.38
323.617	53.76
323.83	90.62
324.043	80.38
324.256	57.86
324.469	-26.11
324.683	82.43
324.896	49.66
325.109	94.72
325.322	43.52
325.535	66.05
325.748	84.48
325.962	-15.87
326.175	-3.58
326.388	57.86
326.601	20.99
326.814	68.09
327.027	37.38
327.24	43.52
327.453	18.94
327.666	0.51
327.879	57.86
328.092	12.8
328.305	72.19
328.518	64
328.731	20.99
328.944	-3.58
329.157	41.47
329.37	-26.11
329.583	45.57
329.796	117.25
330.009	31.23
330.222	39.42
330.435	8.7
330.648	37.38
330.861	18.94
331.073	96.77
331.286	12.8
331.499	107.01
331.712	29.18
331.925	41.47
332.138	49.66
332.35	20.99
332.563	45.57
332.776	64
332.989	16.9
333.202	61.95
333.414	6.66
333.627	33.28
333.84	88.57
334.053	23.04
334.265	4.61
334.478	53.76
334.691	39.42
334.903	59.9
335.116	6.66
335.329	25.09
335.541	-62.98
335.754	29.18
335.966	-60.93
336.179	16.9
336.392	43.52
336.604	41.47
336.817	8.7
337.029	53.76
337.242	66.05
337.454	37.38
337.667	-32.26
337.88	66.05
338.092	33.28
338.305	59.9
338.517	-32.26
338.729	82.43
338.942	27.14
339.154	16.9
339.367	39.42
339.579	20.99
339.792	29.18
340.004	43.52
340.217	4.61
340.429	74.24
340.641	-11.78
340.854	29.18
341.066	-58.88
341.278	29.18
341.491	121.34
341.703	6.66
341.915	57.86
342.128	78.33
342.34	78.33
342.552	33.28
342.764	12.8
342.977	16.9
343.189	-17.92
343.401	47.62
343.613	-3.58
343.826	66.05
344.038	45.57
344.25	80.38
344.462	31.23
344.674	-32.26
344.886	57.86
345.099	43.52
345.311	33.28
345.523	-34.3
345.735	-36.35
345.947	-22.02
346.159	33.28
346.371	25.09
346.583	29.18
346.795	61.95
347.007	-17.92
347.219	94.72
347.431	29.18
347.643	74.24
347.855	41.47
348.067	86.53
348.279	80.38
348.491	29.18
348.703	84.48
348.915	57.86
349.127	-7.68
349.339	55.81
349.551	-15.87
349.763	55.81
349.975	14.85
350.187	88.57
350.399	-42.5
350.61	111.1
350.822	29.18
351.034	82.43
351.246	86.53
351.458	61.95
351.669	51.71
351.881	-5.63
352.093	-3.58
352.305	86.53
352.517	16.9
352.728	82.43
352.94	49.66
353.152	66.05
353.363	64
353.575	125.44
353.787	143.87
353.999	25.09
354.21	123.39
354.422	14.85
354.633	45.57
354.845	-56.83
355.057	74.24
355.268	-15.87
355.48	-15.87
355.692	16.9
355.903	-1.54
356.115	-32.26
356.326	-24.06
356.538	82.43
356.749	39.42
356.961	80.38
357.172	43.52
357.384	-15.87
357.595	98.81
357.807	29.18
358.018	20.99
358.23	-7.68
358.441	23.04
358.653	51.71
358.864	41.47
359.075	39.42
359.287	90.62
359.498	39.42
359.709	72.19
359.921	45.57
360.132	23.04
360.344	8.7
360.555	55.81
360.766	74.24
360.977	0.51
361.189	80.38
361.4	80.38
361.611	64
361.823	57.86
362.034	41.47
362.245	8.7
362.456	6.66
362.667	98.81
362.879	53.76
363.09	31.23
363.301	59.9
363.512	45.57
363.723	61.95
363.935	-24.06
364.146	4.61
364.357	100.86
364.568	70.14
364.779	6.66
364.99	80.38
365.201	-38.4
365.412	31.23
365.623	-1.54
365.834	12.8
366.045	31.23
366.256	31.23
366.467	102.91
366.678	90.62
366.889	76.29
367.1	-17.92
367.311	25.09
367.522	27.14
367.733	66.05
367.944	16.9
368.155	68.09
368.366	37.38
368.577	96.77
368.788	90.62
368.999	0.51
369.209	47.62
369.42	164.35
369.631	143.87
369.842	107.01
370.053	-22.02
370.264	49.66
370.474	6.66
370.685	-7.68
370.896	-3.58
371.107	107.01
371.317	8.7
371.528	39.42
371.739	104.96
371.95	39.42
372.16	90.62
372.371	-19.97
372.582	76.29
372.792	104.96
373.003	53.76
373.214	55.81
373.424	84.48
373.635	-28.16
373.846	98.81
374.056	104.96
374.267	-15.87
374.477	4.61
374.688	33.28
374.898	12.8
375.109	-13.82
375.319	-5.63
375.53	74.24
375.74	-5.63
375.951	14.85
376.161	98.81
376.372	139.77
376.582	-26.11
376.793	57.86
377.003	-26.11
377.214	41.47
377.424	53.76
377.635	66.05
377.845	12.8
378.055	162.3
378.266	41.47
378.476	8.7
378.686	51.71
378.897	123.39
379.107	61.95
379.317	76.29
379.528	16.9
379.738	78.33
379.948	8.7
380.158	41.47
380.369	49.66
380.579	66.05
380.789	98.81
380.999	74.24
381.21	20.99
381.42	143.87
381.63	57.86
381.84	147.97
382.05	57.86
382.261	49.66
382.471	82.43
382.681	53.76
382.891	113.15
383.101	14.85
383.311	80.38
383.521	25.09
383.731	104.96
383.941	43.52
384.151	49.66
384.361	129.53
384.571	104.96
384.781	74.24
384.991	111.1
385.201	107.01
385.411	49.66
385.621	45.57
385.831	61.95
386.041	10.75
386.251	49.66
386.461	64
386.671	68.09
386.881	66.05
387.091	55.81
387.301	102.91
387.511	123.39
387.72	57.86
387.93	127.49
388.14	0.51
388.35	49.66
388.56	78.33
388.769	152.06
388.979	59.9
389.189	-32.26
389.399	59.9
389.609	66.05
389.818	39.42
390.028	82.43
390.238	86.53
390.447	74.24
390.657	74.24
390.867	47.62
391.076	-93.69
391.286	68.09
391.496	33.28
391.705	94.72
391.915	154.11
392.125	23.04
392.334	0.51
392.544	57.86
392.753	47.62
392.963	6.66
393.172	53.76
393.382	14.85
393.591	94.72
393.801	72.19
394.01	143.87
394.22	29.18
394.429	152.06
394.639	0.51
394.848	72.19
395.058	115.2
395.267	68.09
395.477	37.38
395.686	20.99
395.895	74.24
396.105	100.86
396.314	20.99
396.524	66.05
396.733	82.43
396.942	23.04
397.152	90.62
397.361	104.96
397.57	59.9
397.78	53.76
397.989	168.45
398.198	123.39
398.407	82.43
398.617	80.38
398.826	129.53
399.035	66.05
399.244	33.28
399.453	102.91
399.663	102.91
399.872	129.53
400.081	25.09
400.29	127.49
400.499	78.33
400.708	98.81
400.917	78.33
401.127	88.57
401.336	119.29
401.545	176.64
401.754	125.44
401.963	96.77
402.172	94.72
402.381	61.95
402.59	154.11
402.799	147.97
403.008	111.1
403.217	45.57
403.426	127.49
403.635	127.49
403.844	127.49
404.053	90.62
404.262	49.66
404.471	119.29
404.68	86.53
404.888	61.95
405.097	78.33
405.306	121.34
405.515	82.43
405.724	98.81
405.933	188.93
406.142	154.11
406.35	180.73
406.559	137.73
406.768	172.54
406.977	223.74
407.185	158.21
407.394	154.11
407.603	115.2
407.812	143.87
408.02	246.27
408.229	135.68
408.438	137.73
408.646	188.93
408.855	205.31
409.064	233.98
409.272	211.45
409.481	260.6
409.69	279.04
409.898	217.6
410.107	246.27
410.315	219.64
410.524	252.41
410.733	262.65
410.941	203.26
411.15	283.13
411.358	246.27
411.567	348.67
411.775	332.28
411.984	401.91
412.192	328.19
412.401	309.76
412.609	391.67
412.818	358.91
413.026	360.95
413.234	385.53
413.443	397.82
413.651	336.38
413.86	483.83
414.068	537.08
414.276	432.63
414.485	410.11
414.693	545.27
414.901	590.33
415.11	492.02
415.318	516.6
415.526	565.75
415.734	651.77
415.943	678.39
416.151	639.48
416.359	592.37
416.567	647.67
416.776	623.09
416.984	758.26
417.192	702.97
417.4	713.21
417.608	643.57
417.817	770.55
418.025	827.89
418.233	893.43
418.441	807.41
418.649	903.67
418.857	932.34
419.065	1030.64
419.273	928.24
419.481	1063.41
419.689	1090.03
419.897	1059.31
420.105	1163.76
420.313	1264.11
420.521	1176.05
420.729	1192.43
420.937	1229.29
421.145	1317.36
421.353	1360.36
421.561	1446.38
421.769	1401.32
421.977	1559.02
422.185	1450.47
422.393	1569.26
422.601	1696.23
422.809	1657.32
423.017	1788.39
423.224	1741.29
423.432	1989.09
423.64	1868.26
423.848	2114.02
424.056	1966.56
424.263	2017.76
424.471	2099.68
424.679	2236.89
424.887	2234.85
425.094	2470.36
425.302	2435.55
425.51	2580.95
425.718	2701.78
425.925	2607.58
426.133	2742.74
426.341	2820.56
426.548	2916.82
426.756	2986.45
426.964	2996.69
427.171	3080.66
427.379	3234.25
427.586	3332.56
427.794	3389.9
428.001	3664.33
428.209	3772.87
428.417	3561.93
428.624	3981.76
428.832	3817.93
429.039	3903.94
429.247	3840.45
429.454	4243.9
429.662	4542.91
429.869	4325.82
430.076	4549.05
430.284	4438.46
430.491	4649.4
430.699	4921.78
430.906	4866.49
431.114	4966.84
431.321	5226.93
431.528	5231.02
431.736	5540.27
431.943	5689.77
432.15	5755.3
432.358	5822.89
432.565	6123.94
432.772	6173.09
432.979	6168.99
433.187	6384.03
433.394	6369.69
433.601	6914.45
433.808	6955.41
434.016	6912.41
434.223	7297.42
434.43	7553.42
434.637	7393.68
434.844	7870.86
435.052	8003.97
435.259	7928.2
435.466	8065.41
435.673	8073.6
435.88	8563.07
436.087	9036.15
436.294	9058.68
436.501	8782.2
436.708	8882.55
436.915	9316.72
437.122	9779.56
437.329	9507.18
437.537	9918.82
437.743	10150.25
437.95	10017.13
438.157	10479.97
438.364	10772.83
438.571	10764.64
438.778	10973.53
438.985	11796.81
439.192	11661.65
439.399	11827.53
439.606	11653.45
439.813	12435.78
440.02	13058.36
440.227	12736.83
440.433	12945.72
440.64	13125.94
440.847	12990.78
441.054	13441.33
441.261	14242.09
441.467	13932.84
441.674	14049.58
441.881	14999.84
442.088	14754.08
442.294	14633.25
442.501	14928.16
442.708	15313.17
442.914	16097.55
443.121	16732.42
443.328	16261.38
443.534	17314.04
443.741	16965.89
443.948	16550.15
444.154	18116.84
444.361	17858.8
444.568	17717.49
444.774	17895.66
444.981	18419.94
445.187	18286.82
445.394	19425.5
445.6	19171.55
445.807	21096.64
446.013	20048.08
446.22	20836.55
446.426	21115.07
446.633	21192.89
446.839	22151.34
447.046	21297.34
447.252	22436.01
447.459	22290.6
447.665	22388.91
447.871	23367.84
448.078	24428.68
448.284	23107.74
448.491	23658.65
448.697	24969.35
448.903	25409.66
449.11	25075.84
449.316	24742.02
449.522	25329.79
449.728	25632.89
449.935	25784.44
450.141	26329.2
450.347	27062.37
450.553	26032.24
450.76	26144.88
450.966	27222.11
451.172	26726.5
451.378	27363.42
451.584	26847.33
451.791	27582.56
451.997	27443.29
452.203	27822.17
452.409	27816.02
452.615	27672.67
452.821	26835.05
453.027	26222.7
453.233	27723.86
453.44	26867.81
453.646	26716.26
453.852	27277.41
454.058	27826.26
454.264	26691.69
454.47	27058.28
454.676	26540.14
454.882	27560.03
455.088	24887.43
455.294	25577.59
455.5	25725.05
455.705	26189.94
455.911	24696.97
456.117	24475.79
456.323	24047.76
456.529	22780.07
456.735	23974.03
456.941	23142.56
457.147	23042.21
457.352	22118.57
457.558	21907.63
457.764	22214.83
457.97	21700.79
458.176	21121.21
458.381	20850.88
458.587	20072.65
458.793	20136.14
458.999	19118.3
459.204	20459.72
459.41	19685.59
459.616	18342.12
459.821	18264.3
460.027	18200.81
460.233	18116.84
460.438	17197.31
460.644	17240.31
460.85	16431.37
461.055	16247.05
461.261	15958.28
461.466	14973.21
461.672	14293.29
461.878	15556.88
462.083	14536.99
462.289	14123.3
462.494	13981.99
462.7	13328.69
462.905	13175.09
463.111	13574.45
463.316	13629.74
463.522	13398.32
463.727	13048.12
463.932	13123.9
464.138	13269.3
464.343	12892.48
464.549	12863.8
464.754	13187.38
464.959	12937.53
465.165	13084.98
465.37	12360
465.575	12048.71
465.781	12710.21
465.986	12730.69
466.191	12067.14
466.397	12128.58
466.602	11438.42
466.807	11886.92
467.012	11903.31
467.218	11794.76
467.423	11534.67
467.628	11825.48
467.833	12101.96
468.038	11678.03
468.244	11428.18
