Data from USB4F104151__31__11-30-09-165.txt Node

Date: Fri Mar 14 11:30:09 EDT 2025
User: louis
Spectrometer: USB4F10415
Trigger mode: 4
Integration Time (sec): 5.000000E-2
Scans to average: 1
Electric dark correction enabled: true
Nonlinearity correction enabled: false
Boxcar width: 0
XAxis mode: Wavelengths
Number of Pixels in Spectrum: 3648
>>>>>Begin Spectral Data<<<<<
178.204	-144.38
178.424	-144.38
178.644	-144.38
178.864	-160.77
179.084	-123.9
179.304	76.8
179.524	-82.94
179.744	-37.89
179.964	19.46
180.184	39.94
180.404	3.07
180.624	7.17
180.844	31.74
181.064	-62.46
181.283	11.26
181.503	-64.51
181.723	58.37
181.943	11.26
182.163	89.09
182.383	82.94
182.602	109.57
182.822	27.65
183.042	25.6
183.262	-13.31
183.482	31.74
183.701	27.65
183.921	-21.5
184.141	-37.89
184.361	80.89
184.58	31.74
184.8	19.46
185.02	44.03
185.239	41.98
185.459	64.51
185.679	74.75
185.898	-1.02
186.118	72.7
186.338	35.84
186.557	-21.5
186.777	-58.37
186.997	-3.07
187.216	-1.02
187.436	195.58
187.655	52.22
187.875	58.37
188.095	-23.55
188.314	70.65
188.534	91.13
188.753	-48.13
188.973	93.18
189.192	156.67
189.412	52.22
189.631	72.7
189.851	72.7
190.07	19.46
190.29	-17.41
190.509	76.8
190.729	93.18
190.948	64.51
191.168	183.29
191.387	-41.98
191.607	-23.55
191.826	60.42
192.045	23.55
192.265	101.37
192.484	27.65
192.704	68.61
192.923	5.12
193.142	99.33
193.362	84.99
193.581	107.52
193.8	31.74
194.02	121.85
194.239	84.99
194.458	-21.5
194.678	17.41
194.897	31.74
195.116	56.32
195.335	74.75
195.555	142.33
195.774	101.37
195.993	35.84
196.212	-21.5
196.432	60.42
196.651	82.94
196.87	-17.41
197.089	140.29
197.308	111.61
197.528	78.85
197.747	35.84
197.966	82.94
198.185	130.05
198.404	39.94
198.623	68.61
198.842	84.99
199.062	37.89
199.281	95.23
199.5	87.04
199.719	46.08
199.938	66.56
200.157	33.79
200.376	128
200.595	117.76
200.814	50.18
201.033	25.6
201.252	52.22
201.471	15.36
201.69	76.8
201.909	72.7
202.128	39.94
202.347	23.55
202.566	-1.02
202.785	91.13
203.004	-5.12
203.223	103.42
203.442	-37.89
203.661	-31.74
203.879	117.76
204.098	101.37
204.317	-62.46
204.536	76.8
204.755	58.37
204.974	21.5
205.193	121.85
205.411	154.62
205.63	52.22
205.849	130.05
206.068	60.42
206.287	39.94
206.505	82.94
206.724	35.84
206.943	50.18
207.162	-11.26
207.381	-21.5
207.599	128
207.818	27.65
208.037	101.37
208.255	23.55
208.474	76.8
208.693	113.66
208.911	27.65
209.13	9.22
209.349	39.94
209.567	134.14
209.786	64.51
210.005	72.7
210.223	62.46
210.442	-17.41
210.661	27.65
210.879	82.94
211.098	44.03
211.316	101.37
211.535	23.55
211.753	37.89
211.972	101.37
212.191	58.37
212.409	64.51
212.628	87.04
212.846	-27.65
213.065	-13.31
213.283	68.61
213.502	25.6
213.72	48.13
213.938	23.55
214.157	72.7
214.375	82.94
214.594	130.05
214.812	119.81
215.031	13.31
215.249	21.5
215.467	44.03
215.686	21.5
215.904	105.47
216.122	46.08
216.341	99.33
216.559	-3.07
216.778	76.8
216.996	80.89
217.214	-66.56
217.432	-13.31
217.651	41.98
217.869	27.65
218.087	64.51
218.306	-19.46
218.524	31.74
218.742	60.42
218.96	60.42
219.179	-29.7
219.397	19.46
219.615	44.03
219.833	56.32
220.051	7.17
220.27	80.89
220.488	68.61
220.706	66.56
220.924	56.32
221.142	84.99
221.36	97.28
221.578	95.23
221.796	99.33
222.015	56.32
222.233	31.74
222.451	-19.46
222.669	41.98
222.887	113.66
223.105	41.98
223.323	52.22
223.541	60.42
223.759	74.75
223.977	66.56
224.195	41.98
224.413	93.18
224.631	39.94
224.849	39.94
225.067	158.72
225.285	66.56
225.503	33.79
225.721	52.22
225.939	33.79
226.157	101.37
226.375	56.32
226.592	-5.12
226.81	-7.17
227.028	93.18
227.246	154.62
227.464	3.07
227.682	48.13
227.9	60.42
228.117	87.04
228.335	80.89
228.553	84.99
228.771	31.74
228.989	132.09
229.206	76.8
229.424	35.84
229.642	27.65
229.86	15.36
230.077	89.09
230.295	41.98
230.513	52.22
230.731	74.75
230.948	84.99
231.166	82.94
231.384	-1.02
231.601	25.6
231.819	68.61
232.037	-50.18
232.254	3.07
232.472	35.84
232.689	7.17
232.907	13.31
233.125	68.61
233.342	48.13
233.56	-56.32
233.777	7.17
233.995	48.13
234.213	93.18
234.43	70.65
234.648	13.31
234.865	-13.31
235.083	72.7
235.3	-5.12
235.518	35.84
235.735	62.46
235.953	9.22
236.17	27.65
236.388	60.42
236.605	68.61
236.822	84.99
237.04	7.17
237.257	35.84
237.475	52.22
237.692	95.23
237.909	95.23
238.127	84.99
238.344	76.8
238.562	15.36
238.779	23.55
238.996	37.89
239.214	41.98
239.431	46.08
239.648	60.42
239.865	74.75
240.083	109.57
240.3	68.61
240.517	66.56
240.735	68.61
240.952	105.47
241.169	125.95
241.386	-17.41
241.603	82.94
241.821	41.98
242.038	39.94
242.255	60.42
242.472	-9.22
242.689	60.42
242.907	91.13
243.124	91.13
243.341	25.6
243.558	5.12
243.775	52.22
243.992	29.7
244.209	101.37
244.426	68.61
244.643	107.52
244.86	7.17
245.078	50.18
245.295	119.81
245.512	84.99
245.729	27.65
245.946	1.02
246.163	64.51
246.38	11.26
246.597	66.56
246.814	41.98
247.031	-9.22
247.248	48.13
247.464	3.07
247.681	60.42
247.898	29.7
248.115	23.55
248.332	84.99
248.549	89.09
248.766	109.57
248.983	111.61
249.2	76.8
249.417	3.07
249.633	17.41
249.85	91.13
250.067	25.6
250.284	107.52
250.501	99.33
250.717	-37.89
250.934	-13.31
251.151	117.76
251.368	44.03
251.585	93.18
251.801	58.37
252.018	-25.6
252.235	15.36
252.451	13.31
252.668	52.22
252.885	39.94
253.102	70.65
253.318	101.37
253.535	33.79
253.752	76.8
253.968	23.55
254.185	11.26
254.401	48.13
254.618	54.27
254.835	-13.31
255.051	87.04
255.268	84.99
255.484	60.42
255.701	117.76
255.917	37.89
256.134	52.22
256.351	66.56
256.567	-46.08
256.784	39.94
257	-3.07
257.217	52.22
257.433	82.94
257.65	46.08
257.866	25.6
258.082	9.22
258.299	91.13
258.515	-9.22
258.732	52.22
258.948	52.22
259.165	105.47
259.381	-1.02
259.597	29.7
259.814	33.79
260.03	68.61
260.246	39.94
260.463	1.02
260.679	113.66
260.895	11.26
261.112	76.8
261.328	56.32
261.544	48.13
261.761	101.37
261.977	11.26
262.193	11.26
262.409	121.85
262.626	105.47
262.842	76.8
263.058	17.41
263.274	33.79
263.49	41.98
263.707	64.51
263.923	76.8
264.139	-3.07
264.355	76.8
264.571	132.09
264.787	39.94
265.004	138.24
265.22	-62.46
265.436	56.32
265.652	27.65
265.868	93.18
266.084	-5.12
266.3	74.75
266.516	11.26
266.732	95.23
266.948	105.47
267.164	62.46
267.38	68.61
267.596	19.46
267.812	68.61
268.028	117.76
268.244	44.03
268.46	19.46
268.676	54.27
268.892	91.13
269.108	39.94
269.324	113.66
269.54	-13.31
269.756	52.22
269.972	-37.89
270.188	128
270.403	27.65
270.619	44.03
270.835	23.55
271.051	48.13
271.267	-25.6
271.483	19.46
271.698	9.22
271.914	82.94
272.13	101.37
272.346	25.6
272.562	142.33
272.777	50.18
272.993	68.61
273.209	-1.02
273.425	117.76
273.64	56.32
273.856	52.22
274.072	-37.89
274.287	15.36
274.503	97.28
274.719	11.26
274.934	3.07
275.15	35.84
275.366	93.18
275.581	74.75
275.797	17.41
276.012	27.65
276.228	41.98
276.444	13.31
276.659	117.76
276.875	35.84
277.09	48.13
277.306	64.51
277.521	60.42
277.737	3.07
277.952	117.76
278.168	-7.17
278.383	56.32
278.599	-11.26
278.814	52.22
279.03	72.7
279.245	68.61
279.461	50.18
279.676	66.56
279.892	25.6
280.107	-37.89
280.322	-5.12
280.538	33.79
280.753	54.27
280.969	64.51
281.184	50.18
281.399	132.09
281.615	101.37
281.83	70.65
282.045	-21.5
282.26	70.65
282.476	31.74
282.691	3.07
282.906	89.09
283.122	15.36
283.337	41.98
283.552	76.8
283.767	97.28
283.983	25.6
284.198	27.65
284.413	48.13
284.628	-84.99
284.843	-17.41
285.058	56.32
285.274	39.94
285.489	50.18
285.704	134.14
285.919	-5.12
286.134	58.37
286.349	-13.31
286.564	11.26
286.779	50.18
286.995	25.6
287.21	13.31
287.425	21.5
287.64	15.36
287.855	74.75
288.07	-66.56
288.285	84.99
288.5	123.9
288.715	58.37
288.93	19.46
289.145	-31.74
289.36	134.14
289.575	-7.17
289.79	107.52
290.004	23.55
290.219	142.33
290.434	-27.65
290.649	37.89
290.864	33.79
291.079	-33.79
291.294	54.27
291.509	74.75
291.724	33.79
291.938	19.46
292.153	5.12
292.368	15.36
292.583	52.22
292.798	46.08
293.012	119.81
293.227	72.7
293.442	35.84
293.657	64.51
293.871	60.42
294.086	23.55
294.301	66.56
294.516	121.85
294.73	41.98
294.945	76.8
295.16	33.79
295.374	97.28
295.589	68.61
295.804	-23.55
296.018	66.56
296.233	115.71
296.447	-21.5
296.662	64.51
296.877	66.56
297.091	27.65
297.306	66.56
297.52	35.84
297.735	44.03
297.949	97.28
298.164	33.79
298.378	41.98
298.593	52.22
298.807	35.84
299.022	84.99
299.236	50.18
299.451	31.74
299.665	39.94
299.88	41.98
300.094	-9.22
300.309	101.37
300.523	31.74
300.737	35.84
300.952	93.18
301.166	41.98
301.381	-1.02
301.595	35.84
301.809	54.27
302.024	39.94
302.238	17.41
302.452	52.22
302.667	48.13
302.881	52.22
303.095	56.32
303.309	70.65
303.524	68.61
303.738	48.13
303.952	13.31
304.166	134.14
304.381	-66.56
304.595	119.81
304.809	15.36
305.023	27.65
305.237	-7.17
305.452	3.07
305.666	117.76
305.88	93.18
306.094	103.42
306.308	95.23
306.522	52.22
306.736	11.26
306.95	62.46
307.164	15.36
307.379	78.85
307.593	68.61
307.807	97.28
308.021	93.18
308.235	64.51
308.449	58.37
308.663	25.6
308.877	123.9
309.091	19.46
309.305	87.04
309.519	-7.17
309.733	13.31
309.947	-15.36
310.161	70.65
310.374	117.76
310.588	3.07
310.802	-17.41
311.016	33.79
311.23	56.32
311.444	56.32
311.658	-44.03
311.872	17.41
312.085	-17.41
312.299	111.61
312.513	27.65
312.727	113.66
312.941	33.79
313.154	37.89
313.368	95.23
313.582	46.08
313.796	64.51
314.009	107.52
314.223	115.71
314.437	23.55
314.651	113.66
314.864	50.18
315.078	93.18
315.292	37.89
315.505	15.36
315.719	-5.12
315.933	113.66
316.146	41.98
316.36	74.75
316.573	60.42
316.787	39.94
317.001	91.13
317.214	-11.26
317.428	56.32
317.641	17.41
317.855	72.7
318.068	74.75
318.282	93.18
318.495	148.48
318.709	58.37
318.922	68.61
319.136	103.42
319.349	58.37
319.563	3.07
319.776	17.41
319.99	-1.02
320.203	68.61
320.417	144.38
320.63	64.51
320.843	132.09
321.057	78.85
321.27	27.65
321.483	44.03
321.697	58.37
321.91	72.7
322.124	84.99
322.337	93.18
322.55	-21.5
322.763	33.79
322.977	-9.22
323.19	125.95
323.403	76.8
323.617	95.23
323.83	48.13
324.043	93.18
324.256	58.37
324.469	13.31
324.683	113.66
324.896	19.46
325.109	15.36
325.322	27.65
325.535	93.18
325.748	62.46
325.962	84.99
326.175	74.75
326.388	23.55
326.601	78.85
326.814	5.12
327.027	44.03
327.24	119.81
327.453	7.17
327.666	95.23
327.879	78.85
328.092	56.32
328.305	54.27
328.518	52.22
328.731	41.98
328.944	58.37
329.157	58.37
329.37	87.04
329.583	89.09
329.796	66.56
330.009	-56.32
330.222	11.26
330.435	52.22
330.648	97.28
330.861	33.79
331.073	66.56
331.286	35.84
331.499	-5.12
331.712	-9.22
331.925	171.01
332.138	17.41
332.35	76.8
332.563	-29.7
332.776	123.9
332.989	21.5
333.202	41.98
333.414	58.37
333.627	-3.07
333.84	48.13
334.053	66.56
334.265	60.42
334.478	109.57
334.691	3.07
334.903	101.37
335.116	56.32
335.329	68.61
335.541	66.56
335.754	109.57
335.966	31.74
336.179	3.07
336.392	64.51
336.604	103.42
336.817	68.61
337.029	74.75
337.242	56.32
337.454	35.84
337.667	23.55
337.88	48.13
338.092	68.61
338.305	105.47
338.517	11.26
338.729	123.9
338.942	144.38
339.154	-13.31
339.367	46.08
339.579	80.89
339.792	66.56
340.004	72.7
340.217	66.56
340.429	99.33
340.641	-29.7
340.854	7.17
341.066	56.32
341.278	39.94
341.491	134.14
341.703	87.04
341.915	15.36
342.128	23.55
342.34	-11.26
342.552	-31.74
342.764	15.36
342.977	58.37
343.189	93.18
343.401	78.85
343.613	-23.55
343.826	5.12
344.038	13.31
344.25	50.18
344.462	50.18
344.674	68.61
344.886	33.79
345.099	84.99
345.311	84.99
345.523	123.9
345.735	-3.07
345.947	-5.12
346.159	123.9
346.371	39.94
346.583	56.32
346.795	84.99
347.007	39.94
347.219	91.13
347.431	35.84
347.643	66.56
347.855	35.84
348.067	84.99
348.279	91.13
348.491	17.41
348.703	107.52
348.915	72.7
349.127	58.37
349.339	68.61
349.551	78.85
349.763	91.13
349.975	21.5
350.187	82.94
350.399	154.62
350.61	52.22
350.822	31.74
351.034	35.84
351.246	50.18
351.458	52.22
351.669	15.36
351.881	132.09
352.093	119.81
352.305	60.42
352.517	97.28
352.728	74.75
352.94	23.55
353.152	-9.22
353.363	41.98
353.575	76.8
353.787	84.99
353.999	60.42
354.21	125.95
354.422	52.22
354.633	84.99
354.845	64.51
355.057	7.17
355.268	52.22
355.48	29.7
355.692	46.08
355.903	25.6
356.115	1.02
356.326	48.13
356.538	66.56
356.749	50.18
356.961	117.76
357.172	50.18
357.384	-29.7
357.595	123.9
357.807	105.47
358.018	105.47
358.23	136.19
358.441	140.29
358.653	82.94
358.864	82.94
359.075	68.61
359.287	107.52
359.498	62.46
359.709	76.8
359.921	60.42
360.132	82.94
360.344	48.13
360.555	74.75
360.766	105.47
360.977	-9.22
361.189	35.84
361.4	97.28
361.611	158.72
361.823	82.94
362.034	68.61
362.245	50.18
362.456	52.22
362.667	134.14
362.879	21.5
363.09	3.07
363.301	93.18
363.512	50.18
363.723	15.36
363.935	48.13
364.146	74.75
364.357	37.89
364.568	52.22
364.779	39.94
364.99	142.33
365.201	35.84
365.412	50.18
365.623	13.31
365.834	-13.31
366.045	134.14
366.256	113.66
366.467	72.7
366.678	62.46
366.889	35.84
367.1	56.32
367.311	101.37
367.522	54.27
367.733	140.29
367.944	35.84
368.155	91.13
368.366	78.85
368.577	52.22
368.788	128
368.999	1.02
369.209	105.47
369.42	134.14
369.631	105.47
369.842	56.32
370.053	93.18
370.264	58.37
370.474	66.56
370.685	125.95
370.896	33.79
371.107	148.48
371.317	58.37
371.528	-17.41
371.739	93.18
371.95	7.17
372.16	107.52
372.371	17.41
372.582	19.46
372.792	50.18
373.003	150.53
373.214	138.24
373.424	80.89
373.635	44.03
373.846	125.95
374.056	11.26
374.267	142.33
374.477	19.46
374.688	76.8
374.898	84.99
375.109	113.66
375.319	74.75
375.53	142.33
375.74	142.33
375.951	1.02
376.161	68.61
376.372	60.42
376.582	15.36
376.793	146.43
377.003	-15.36
377.214	48.13
377.424	136.19
377.635	-13.31
377.845	105.47
378.055	84.99
378.266	-13.31
378.476	33.79
378.686	101.37
378.897	54.27
379.107	95.23
379.317	113.66
379.528	44.03
379.738	138.24
379.948	52.22
380.158	115.71
380.369	72.7
380.579	144.38
380.789	44.03
380.999	39.94
381.21	68.61
381.42	87.04
381.63	3.07
381.84	97.28
382.05	60.42
382.261	60.42
382.471	101.37
382.681	117.76
382.891	130.05
383.101	99.33
383.311	109.57
383.521	-50.18
383.731	91.13
383.941	123.9
384.151	68.61
384.361	99.33
384.571	107.52
384.781	113.66
384.991	158.72
385.201	132.09
385.411	125.95
385.621	11.26
385.831	52.22
386.041	64.51
386.251	136.19
386.461	105.47
386.671	134.14
386.881	39.94
387.091	121.85
387.301	66.56
387.511	138.24
387.72	119.81
387.93	109.57
388.14	76.8
388.35	140.29
388.56	125.95
388.769	140.29
388.979	31.74
389.189	46.08
389.399	123.9
389.609	166.91
389.818	136.19
390.028	46.08
390.238	60.42
390.447	39.94
390.657	125.95
390.867	97.28
391.076	105.47
391.286	93.18
391.496	105.47
391.705	-5.12
391.915	117.76
392.125	117.76
392.334	181.25
392.544	125.95
392.753	117.76
392.963	109.57
393.172	72.7
393.382	87.04
393.591	158.72
393.801	128
394.01	187.39
394.22	68.61
394.429	166.91
394.639	99.33
394.848	138.24
395.058	93.18
395.267	117.76
395.477	144.38
395.686	132.09
395.895	224.25
396.105	99.33
396.314	101.37
396.524	66.56
396.733	99.33
396.942	99.33
397.152	187.39
397.361	123.9
397.57	74.75
397.78	68.61
397.989	132.09
398.198	138.24
398.407	109.57
398.617	105.47
398.826	158.72
399.035	89.09
399.244	166.91
399.453	162.81
399.663	76.8
399.872	185.34
400.081	52.22
400.29	80.89
400.499	68.61
400.708	50.18
400.917	89.09
401.127	103.42
401.336	130.05
401.545	123.9
401.754	72.7
401.963	97.28
402.172	123.9
402.381	93.18
402.59	207.87
402.799	173.05
403.008	162.81
403.217	199.68
403.426	136.19
403.635	113.66
403.844	97.28
404.053	164.86
404.262	162.81
404.471	156.67
404.68	123.9
404.888	199.68
405.097	132.09
405.306	60.42
405.515	265.21
405.724	166.91
405.933	175.1
406.142	191.49
406.35	314.36
406.559	246.78
406.768	189.44
406.977	240.64
407.185	205.82
407.394	265.21
407.603	197.63
407.812	271.36
408.02	248.83
408.229	273.4
408.438	310.27
408.646	140.29
408.855	265.21
409.064	357.37
409.272	273.4
409.481	334.84
409.69	285.69
409.898	332.79
410.107	261.12
410.315	445.43
410.524	316.41
410.733	320.51
410.941	363.51
411.15	375.8
411.358	420.86
411.567	406.52
411.775	424.95
411.984	541.69
412.192	482.3
412.401	478.2
412.609	545.78
412.818	564.22
413.026	556.02
413.234	459.77
413.443	627.7
413.651	510.97
413.86	650.23
414.068	732.15
414.276	687.09
414.485	558.07
414.693	695.29
414.901	777.2
415.11	748.53
415.318	789.49
415.526	832.5
415.734	861.17
415.943	795.64
416.151	922.61
416.359	883.7
416.567	949.23
416.776	1014.77
416.984	1119.21
417.192	1031.15
417.4	1100.78
417.608	1065.97
417.817	1156.08
418.025	1297.39
418.233	1250.28
418.441	1201.13
418.649	1211.37
418.857	1350.64
419.065	1502.19
419.273	1367.02
419.481	1551.34
419.689	1561.58
419.897	1592.3
420.105	1541.1
420.313	1764.33
420.521	1762.28
420.729	1719.27
420.937	1756.13
421.145	1965.03
421.353	2010.08
421.561	2178.01
421.769	2108.38
421.977	2321.37
422.185	2165.73
422.393	2391
422.601	2497.5
422.809	2501.59
423.017	2493.4
423.224	2651.1
423.432	2622.42
423.64	2753.49
423.848	3009.49
424.056	2896.85
424.263	3083.22
424.471	2989.01
424.679	3345.36
424.887	3265.49
425.094	3435.47
425.302	3371.98
425.51	3763.14
425.718	3691.46
425.925	3875.78
426.133	3998.66
426.341	3949.51
426.548	4352.96
426.756	4352.96
426.964	4271.04
427.171	4551.61
427.379	4735.93
427.586	5002.16
427.794	5000.12
428.001	4965.3
428.209	5397.42
428.417	5206.96
428.624	5602.22
428.832	5643.18
429.039	5602.22
429.247	5540.78
429.454	6308.77
429.662	6540.19
429.869	6241.18
430.076	6507.42
430.284	6267.81
430.491	6757.27
430.699	7015.32
430.906	7091.09
431.114	7039.89
431.321	7523.21
431.528	7625.61
431.736	7986.05
431.943	8440.7
432.15	8149.89
432.358	8291.2
432.565	8842.11
432.772	8835.96
432.979	9290.61
433.187	9208.69
433.394	9489.26
433.601	9995.11
433.808	10003.3
434.016	9890.67
434.223	10349.41
434.43	11012.95
434.637	10832.73
434.844	11639.63
435.052	11651.92
435.259	11340.63
435.466	11608.91
435.673	11539.28
435.88	12528.45
436.087	12895.04
436.294	12983.1
436.501	12802.88
436.708	12870.46
436.915	13376.31
437.122	14023.47
437.329	13941.55
437.537	14512.93
437.743	14525.22
437.95	14271.27
438.157	15055.64
438.364	15952.65
438.571	15803.15
438.778	15794.96
438.985	17490.68
439.192	16644.87
439.399	17244.92
439.606	16708.35
439.813	17906.41
440.02	18846.43
440.227	18627.3
440.433	18123.5
440.64	19014.37
440.847	18795.23
441.054	19380.95
441.261	20431.56
441.467	20472.52
441.674	20759.24
441.881	21334.71
442.088	21439.16
442.294	21084.86
442.501	21920.43
442.708	22364.84
442.914	23358.11
443.121	24337.04
443.328	23354.01
443.534	24765.06
443.741	24130.19
443.948	24066.7
444.154	26016.37
444.361	25725.56
444.568	25801.33
444.774	25791.09
444.981	26006.13
445.187	26692.2
445.394	28107.35
445.6	27669.08
445.807	30433.84
446.013	29006.41
446.22	29637.18
446.426	30577.2
446.633	31121.96
446.839	31920.66
447.046	30915.11
447.252	32236.05
447.459	32731.66
447.665	32117.27
447.871	33839.61
448.078	35197.41
448.284	33516.03
448.491	34517.49
448.697	36098.52
448.903	36444.63
449.11	36108.76
449.316	35789.28
449.522	36602.32
449.728	37366.21
449.935	37327.3
450.141	37722.56
450.347	38551.99
450.553	37042.63
450.76	37945.79
450.966	38787.5
451.172	38523.32
451.378	39002.54
451.584	38361.53
451.791	39629.22
451.997	39068.08
452.203	39928.22
452.409	39858.59
452.615	39813.54
452.821	38263.22
453.027	37757.38
453.233	39817.63
453.44	38111.67
453.646	38736.3
453.852	38826.42
454.058	39039.4
454.264	37900.73
454.47	39008.68
454.676	37822.91
454.882	39070.12
455.088	35688.93
455.294	36073.95
455.5	36841.93
455.705	37147.08
455.911	35662.3
456.117	34726.38
456.323	34361.84
456.529	32168.47
456.735	34077.18
456.941	33102.34
457.147	32334.35
457.352	31576.61
457.558	30806.57
457.764	30921.26
457.97	30474.8
458.176	29508.16
458.381	29434.43
458.587	28512.84
458.793	28602.96
458.999	26991.2
459.204	28645.96
459.41	27912.79
459.616	26077.81
459.821	25963.12
460.027	26020.47
460.233	25541.24
460.438	24392.33
460.644	24525.45
460.85	23151.26
461.055	23143.07
461.261	22682.28
461.466	21256.89
461.672	20683.46
461.878	21971.63
462.083	20546.25
462.289	20150.99
462.494	19944.14
462.7	19045.09
462.905	18500.33
463.111	19135.2
463.316	19229.4
463.522	18903.78
463.727	19167.96
463.932	18778.85
464.138	18674.4
464.343	18879.2
464.549	18264.81
464.754	18873.06
464.959	18537.19
465.165	18631.4
465.37	17724.15
465.575	17259.26
465.781	17857.26
465.986	18014.96
466.191	17464.05
466.397	17242.87
