Data from USB4F104151__20__11-29-50-716.txt Node

Date: Fri Mar 14 11:29:50 EDT 2025
User: louis
Spectrometer: USB4F10415
Trigger mode: 4
Integration Time (sec): 5.000000E-2
Scans to average: 1
Electric dark correction enabled: true
Nonlinearity correction enabled: false
Boxcar width: 0
XAxis mode: Wavelengths
Number of Pixels in Spectrum: 3648
>>>>>Begin Spectral Data<<<<<
178.204	-160.77
178.424	-160.77
178.644	-160.77
178.864	-134.14
179.084	-166.91
179.304	-78.85
179.524	17.41
179.744	-21.5
179.964	15.36
180.184	58.37
180.404	35.84
180.624	-25.6
180.844	-13.31
181.064	-37.89
181.283	23.55
181.503	-64.51
181.723	91.13
181.943	-99.33
182.163	91.13
182.383	27.65
182.602	9.22
182.822	142.33
183.042	50.18
183.262	-84.99
183.482	25.6
183.701	25.6
183.921	5.12
184.141	46.08
184.361	48.13
184.58	74.75
184.8	52.22
185.02	33.79
185.239	13.31
185.459	41.98
185.679	31.74
185.898	-1.02
186.118	56.32
186.338	29.7
186.557	-5.12
186.777	-3.07
186.997	1.02
187.216	-7.17
187.436	93.18
187.655	11.26
187.875	44.03
188.095	74.75
188.314	13.31
188.534	3.07
188.753	52.22
188.973	31.74
189.192	91.13
189.412	17.41
189.631	3.07
189.851	54.27
190.07	64.51
190.29	-54.27
190.509	1.02
190.729	-23.55
190.948	-17.41
191.168	134.14
191.387	70.65
191.607	-9.22
191.826	89.09
192.045	-62.46
192.265	-5.12
192.484	-27.65
192.704	9.22
192.923	-37.89
193.142	128
193.362	93.18
193.581	-37.89
193.8	132.09
194.02	19.46
194.239	-5.12
194.458	41.98
194.678	11.26
194.897	101.37
195.116	-21.5
195.335	9.22
195.555	76.8
195.774	11.26
195.993	52.22
196.212	29.7
196.432	19.46
196.651	39.94
196.87	44.03
197.089	82.94
197.308	35.84
197.528	56.32
197.747	-37.89
197.966	54.27
198.185	56.32
198.404	-48.13
198.623	109.57
198.842	91.13
199.062	-50.18
199.281	66.56
199.5	-15.36
199.719	44.03
199.938	-13.31
200.157	35.84
200.376	31.74
200.595	105.47
200.814	35.84
201.033	-25.6
201.252	27.65
201.471	-33.79
201.69	15.36
201.909	58.37
202.128	13.31
202.347	11.26
202.566	27.65
202.785	-35.84
203.004	1.02
203.223	121.85
203.442	35.84
203.661	-39.94
203.879	-13.31
204.098	46.08
204.317	-54.27
204.536	115.71
204.755	35.84
204.974	97.28
205.193	31.74
205.411	82.94
205.63	58.37
205.849	44.03
206.068	9.22
206.287	17.41
206.505	56.32
206.724	-17.41
206.943	15.36
207.162	19.46
207.381	44.03
207.599	33.79
207.818	103.42
208.037	-21.5
208.255	101.37
208.474	9.22
208.693	3.07
208.911	-7.17
209.13	105.47
209.349	48.13
209.567	-7.17
209.786	111.61
210.005	-1.02
210.223	82.94
210.442	13.31
210.661	3.07
210.879	1.02
211.098	31.74
211.316	44.03
211.535	60.42
211.753	76.8
211.972	52.22
212.191	3.07
212.409	25.6
212.628	-46.08
212.846	-17.41
213.065	46.08
213.283	17.41
213.502	23.55
213.72	9.22
213.938	15.36
214.157	35.84
214.375	68.61
214.594	-52.22
214.812	25.6
215.031	33.79
215.249	1.02
215.467	-15.36
215.686	33.79
215.904	113.66
216.122	13.31
216.341	72.7
216.559	35.84
216.778	84.99
216.996	58.37
217.214	-25.6
217.432	17.41
217.651	3.07
217.869	41.98
218.087	74.75
218.306	-27.65
218.524	31.74
218.742	25.6
218.96	37.89
219.179	44.03
219.397	7.17
219.615	99.33
219.833	82.94
220.051	17.41
220.27	19.46
220.488	7.17
220.706	52.22
220.924	29.7
221.142	9.22
221.36	-64.51
221.578	84.99
221.796	80.89
222.015	9.22
222.233	44.03
222.451	76.8
222.669	7.17
222.887	11.26
223.105	-54.27
223.323	74.75
223.541	89.09
223.759	-13.31
223.977	48.13
224.195	23.55
224.413	41.98
224.631	64.51
224.849	44.03
225.067	33.79
225.285	19.46
225.503	15.36
225.721	5.12
225.939	-41.98
226.157	-7.17
226.375	82.94
226.592	66.56
226.81	15.36
227.028	82.94
227.246	58.37
227.464	-5.12
227.682	66.56
227.9	25.6
228.117	-1.02
228.335	27.65
228.553	35.84
228.771	-37.89
228.989	-23.55
229.206	56.32
229.424	74.75
229.642	7.17
229.86	-21.5
230.077	27.65
230.295	64.51
230.513	82.94
230.731	76.8
230.948	50.18
231.166	84.99
231.384	27.65
231.601	54.27
231.819	62.46
232.037	3.07
232.254	50.18
232.472	7.17
232.689	15.36
232.907	72.7
233.125	93.18
233.342	23.55
233.56	-9.22
233.777	27.65
233.995	97.28
234.213	107.52
234.43	-5.12
234.648	-50.18
234.865	58.37
235.083	56.32
235.3	3.07
235.518	56.32
235.735	119.81
235.953	23.55
236.17	33.79
236.388	23.55
236.605	117.76
236.822	95.23
237.04	70.65
237.257	44.03
237.475	64.51
237.692	74.75
237.909	23.55
238.127	-13.31
238.344	84.99
238.562	21.5
238.779	-17.41
238.996	54.27
239.214	80.89
239.431	3.07
239.648	-33.79
239.865	89.09
240.083	74.75
240.3	-5.12
240.517	44.03
240.735	7.17
240.952	58.37
241.169	-19.46
241.386	1.02
241.603	-33.79
241.821	35.84
242.038	9.22
242.255	44.03
242.472	11.26
242.689	60.42
242.907	25.6
243.124	-13.31
243.341	54.27
243.558	25.6
243.775	31.74
243.992	-31.74
244.209	130.05
244.426	66.56
244.643	101.37
244.86	-35.84
245.078	-27.65
245.295	84.99
245.512	58.37
245.729	17.41
245.946	-3.07
246.163	15.36
246.38	117.76
246.597	-41.98
246.814	1.02
247.031	-29.7
247.248	115.71
247.464	99.33
247.681	54.27
247.898	52.22
248.115	105.47
248.332	17.41
248.549	84.99
248.766	142.33
248.983	41.98
249.2	52.22
249.417	27.65
249.633	35.84
249.85	11.26
250.067	54.27
250.284	50.18
250.501	66.56
250.717	64.51
250.934	15.36
251.151	97.28
251.368	84.99
251.585	99.33
251.801	37.89
252.018	7.17
252.235	64.51
252.451	-11.26
252.668	-3.07
252.885	27.65
253.102	60.42
253.318	35.84
253.535	17.41
253.752	-9.22
253.968	-1.02
254.185	-5.12
254.401	27.65
254.618	35.84
254.835	66.56
255.051	132.09
255.268	82.94
255.484	103.42
255.701	27.65
255.917	62.46
256.134	-103.42
256.351	105.47
256.567	25.6
256.784	123.9
257	52.22
257.217	15.36
257.433	31.74
257.65	103.42
257.866	113.66
258.082	39.94
258.299	-9.22
258.515	70.65
258.732	97.28
258.948	-3.07
259.165	58.37
259.381	3.07
259.597	78.85
259.814	95.23
260.03	31.74
260.246	35.84
260.463	68.61
260.679	31.74
260.895	27.65
261.112	93.18
261.328	-33.79
261.544	13.31
261.761	93.18
261.977	70.65
262.193	-7.17
262.409	17.41
262.626	-27.65
262.842	37.89
263.058	11.26
263.274	64.51
263.49	25.6
263.707	91.13
263.923	5.12
264.139	11.26
264.355	41.98
264.571	66.56
264.787	50.18
265.004	72.7
265.22	5.12
265.436	27.65
265.652	-5.12
265.868	54.27
266.084	-25.6
266.3	48.13
266.516	-21.5
266.732	138.24
266.948	101.37
267.164	35.84
267.38	15.36
267.596	62.46
267.812	84.99
268.028	-27.65
268.244	3.07
268.46	-7.17
268.676	-13.31
268.892	23.55
269.108	19.46
269.324	31.74
269.54	-33.79
269.756	74.75
269.972	1.02
270.188	27.65
270.403	-37.89
270.619	84.99
270.835	72.7
271.051	64.51
271.267	-11.26
271.483	9.22
271.698	33.79
271.914	76.8
272.13	52.22
272.346	27.65
272.562	93.18
272.777	68.61
272.993	23.55
273.209	44.03
273.425	41.98
273.64	7.17
273.856	91.13
274.072	7.17
274.287	21.5
274.503	17.41
274.719	64.51
274.934	19.46
275.15	-33.79
275.366	44.03
275.581	21.5
275.797	-9.22
276.012	29.7
276.228	-9.22
276.444	29.7
276.659	125.95
276.875	27.65
277.09	35.84
277.306	76.8
277.521	39.94
277.737	11.26
277.952	105.47
278.168	-7.17
278.383	19.46
278.599	39.94
278.814	-74.75
279.03	80.89
279.245	11.26
279.461	52.22
279.676	-25.6
279.892	-41.98
280.107	23.55
280.322	-60.42
280.538	-31.74
280.753	23.55
280.969	78.85
281.184	9.22
281.399	60.42
281.615	37.89
281.83	29.7
282.045	-31.74
282.26	52.22
282.476	44.03
282.691	52.22
282.906	76.8
283.122	11.26
283.337	-21.5
283.552	68.61
283.767	35.84
283.983	82.94
284.198	-50.18
284.413	-13.31
284.628	-33.79
284.843	39.94
285.058	68.61
285.274	5.12
285.489	21.5
285.704	84.99
285.919	-5.12
286.134	3.07
286.349	60.42
286.564	35.84
286.779	35.84
286.995	27.65
287.21	19.46
287.425	3.07
287.64	-13.31
287.855	9.22
288.07	-29.7
288.285	11.26
288.5	41.98
288.715	66.56
288.93	35.84
289.145	-9.22
289.36	87.04
289.575	41.98
289.79	140.29
290.004	9.22
290.219	44.03
290.434	27.65
290.649	58.37
290.864	11.26
291.079	25.6
291.294	27.65
291.509	76.8
291.724	39.94
291.938	1.02
292.153	27.65
292.368	48.13
292.583	31.74
292.798	46.08
293.012	74.75
293.227	-9.22
293.442	-74.75
293.657	3.07
293.871	74.75
294.086	50.18
294.301	123.9
294.516	68.61
294.73	54.27
294.945	-5.12
295.16	99.33
295.374	125.95
295.589	17.41
295.804	35.84
296.018	99.33
296.233	125.95
296.447	27.65
296.662	3.07
296.877	105.47
297.091	52.22
297.306	-13.31
297.52	44.03
297.735	44.03
297.949	9.22
298.164	132.09
298.378	13.31
298.593	-37.89
298.807	-11.26
299.022	50.18
299.236	76.8
299.451	44.03
299.665	11.26
299.88	3.07
300.094	19.46
300.309	11.26
300.523	3.07
300.737	-23.55
300.952	52.22
301.166	76.8
301.381	-37.89
301.595	64.51
301.809	41.98
302.024	13.31
302.238	-37.89
302.452	3.07
302.667	19.46
302.881	11.26
303.095	72.7
303.309	27.65
303.524	60.42
303.738	-17.41
303.952	54.27
304.166	136.19
304.381	48.13
304.595	125.95
304.809	35.84
305.023	56.32
305.237	-23.55
305.452	97.28
305.666	82.94
305.88	128
306.094	99.33
306.308	74.75
306.522	17.41
306.736	72.7
306.95	101.37
307.164	9.22
307.379	-13.31
307.593	19.46
307.807	117.76
308.021	-39.94
308.235	101.37
308.449	-27.65
308.663	-27.65
308.877	76.8
309.091	-17.41
309.305	35.84
309.519	-56.32
309.733	52.22
309.947	-37.89
310.161	-1.02
310.374	27.65
310.588	44.03
310.802	3.07
311.016	-27.65
311.23	101.37
311.444	46.08
311.658	11.26
311.872	82.94
312.085	5.12
312.299	27.65
312.513	33.79
312.727	3.07
312.941	1.02
313.154	-11.26
313.368	41.98
313.582	84.99
313.796	33.79
314.009	-15.36
314.223	56.32
314.437	76.8
314.651	52.22
314.864	17.41
315.078	-62.46
315.292	-11.26
315.505	54.27
315.719	66.56
315.933	35.84
316.146	76.8
316.36	-23.55
316.573	68.61
316.787	91.13
317.001	78.85
317.214	52.22
317.428	60.42
317.641	50.18
317.855	87.04
318.068	9.22
318.282	39.94
318.495	123.9
318.709	27.65
318.922	29.7
319.136	130.05
319.349	23.55
319.563	5.12
319.776	72.7
319.99	52.22
320.203	80.89
320.417	39.94
320.63	23.55
320.843	89.09
321.057	35.84
321.27	62.46
321.483	97.28
321.697	29.7
321.91	11.26
322.124	76.8
322.337	52.22
322.55	21.5
322.763	50.18
322.977	19.46
323.19	-21.5
323.403	-17.41
323.617	48.13
323.83	66.56
324.043	33.79
324.256	134.14
324.469	-21.5
324.683	93.18
324.896	13.31
325.109	76.8
325.322	-35.84
325.535	72.7
325.748	39.94
325.962	-23.55
326.175	7.17
326.388	-3.07
326.601	39.94
326.814	29.7
327.027	99.33
327.24	113.66
327.453	15.36
327.666	11.26
327.879	150.53
328.092	121.85
328.305	58.37
328.518	44.03
328.731	19.46
328.944	87.04
329.157	56.32
329.37	41.98
329.583	56.32
329.796	142.33
330.009	-64.51
330.222	19.46
330.435	23.55
330.648	52.22
330.861	64.51
331.073	93.18
331.286	78.85
331.499	3.07
331.712	7.17
331.925	64.51
332.138	15.36
332.35	76.8
332.563	-5.12
332.776	23.55
332.989	-29.7
333.202	66.56
333.414	-3.07
333.627	58.37
333.84	101.37
334.053	54.27
334.265	5.12
334.478	58.37
334.691	31.74
334.903	39.94
335.116	-13.31
335.329	99.33
335.541	-29.7
335.754	105.47
335.966	33.79
336.179	11.26
336.392	35.84
336.604	78.85
336.817	-29.7
337.029	27.65
337.242	-7.17
337.454	33.79
337.667	19.46
337.88	123.9
338.092	80.89
338.305	-1.02
338.517	41.98
338.729	15.36
338.942	97.28
339.154	-11.26
339.367	76.8
339.579	-9.22
339.792	60.42
340.004	132.09
340.217	-21.5
340.429	56.32
340.641	9.22
340.854	60.42
341.066	21.5
341.278	44.03
341.491	109.57
341.703	48.13
341.915	15.36
342.128	46.08
342.34	68.61
342.552	9.22
342.764	50.18
342.977	62.46
343.189	76.8
343.401	48.13
343.613	13.31
343.826	76.8
344.038	50.18
344.25	23.55
344.462	23.55
344.674	89.09
344.886	13.31
345.099	-3.07
345.311	62.46
345.523	11.26
345.735	1.02
345.947	64.51
346.159	105.47
346.371	-21.5
346.583	-11.26
346.795	144.38
347.007	-29.7
347.219	46.08
347.431	76.8
347.643	117.76
347.855	68.61
348.067	93.18
348.279	-15.36
348.491	25.6
348.703	41.98
348.915	95.23
349.127	7.17
349.339	60.42
349.551	7.17
349.763	89.09
349.975	23.55
350.187	-27.65
350.399	39.94
350.61	52.22
350.822	-29.7
351.034	33.79
351.246	3.07
351.458	27.65
351.669	23.55
351.881	23.55
352.093	60.42
352.305	62.46
352.517	15.36
352.728	99.33
352.94	27.65
353.152	33.79
353.363	37.89
353.575	105.47
353.787	93.18
353.999	48.13
354.21	82.94
354.422	-1.02
354.633	21.5
354.845	-33.79
355.057	125.95
355.268	105.47
355.48	25.6
355.692	11.26
355.903	60.42
356.115	-46.08
356.326	15.36
356.538	60.42
356.749	15.36
356.961	68.61
357.172	-15.36
357.384	13.31
357.595	117.76
357.807	-15.36
358.018	68.61
358.23	84.99
358.441	115.71
358.653	56.32
358.864	11.26
359.075	9.22
359.287	91.13
359.498	52.22
359.709	60.42
359.921	58.37
360.132	9.22
360.344	60.42
360.555	-17.41
360.766	58.37
360.977	50.18
361.189	19.46
361.4	23.55
361.611	-31.74
361.823	64.51
362.034	44.03
362.245	-13.31
362.456	25.6
362.667	13.31
362.879	-19.46
363.09	-27.65
363.301	76.8
363.512	64.51
363.723	27.65
363.935	1.02
364.146	44.03
364.357	-11.26
364.568	68.61
364.779	-9.22
364.99	9.22
365.201	21.5
365.412	66.56
365.623	1.02
365.834	117.76
366.045	-15.36
366.256	76.8
366.467	3.07
366.678	44.03
366.889	62.46
367.1	-13.31
367.311	7.17
367.522	27.65
367.733	37.89
367.944	82.94
368.155	3.07
368.366	35.84
368.577	74.75
368.788	109.57
368.999	11.26
369.209	-9.22
369.42	89.09
369.631	97.28
369.842	48.13
370.053	17.41
370.264	72.7
370.474	-37.89
370.685	99.33
370.896	52.22
371.107	62.46
371.317	58.37
371.528	84.99
371.739	52.22
371.95	74.75
372.16	35.84
372.371	109.57
372.582	31.74
372.792	21.5
373.003	21.5
373.214	27.65
373.424	68.61
373.635	72.7
373.846	91.13
374.056	19.46
374.267	115.71
374.477	27.65
374.688	33.79
374.898	89.09
375.109	103.42
375.319	-25.6
375.53	52.22
375.74	99.33
375.951	117.76
376.161	72.7
376.372	74.75
376.582	76.8
376.793	21.5
377.003	3.07
377.214	-11.26
377.424	84.99
377.635	44.03
377.845	109.57
378.055	107.52
378.266	44.03
378.476	80.89
378.686	19.46
378.897	50.18
379.107	15.36
379.317	35.84
379.528	13.31
379.738	19.46
379.948	60.42
380.158	109.57
380.369	19.46
380.579	19.46
380.789	-15.36
380.999	31.74
381.21	72.7
381.42	107.52
381.63	66.56
381.84	76.8
382.05	64.51
382.261	64.51
382.471	72.7
382.681	17.41
382.891	66.56
383.101	50.18
383.311	39.94
383.521	101.37
383.731	64.51
383.941	35.84
384.151	-17.41
384.361	25.6
384.571	101.37
384.781	50.18
384.991	76.8
385.201	72.7
385.411	158.72
385.621	-29.7
385.831	44.03
386.041	80.89
386.251	72.7
386.461	50.18
386.671	66.56
386.881	82.94
387.091	-15.36
387.301	109.57
387.511	72.7
387.72	78.85
387.93	35.84
388.14	-5.12
388.35	101.37
388.56	80.89
388.769	5.12
388.979	48.13
389.189	60.42
389.399	39.94
389.609	62.46
389.818	123.9
390.028	117.76
390.238	136.19
390.447	29.7
390.657	64.51
390.867	35.84
391.076	35.84
391.286	115.71
391.496	68.61
391.705	37.89
391.915	113.66
392.125	97.28
392.334	3.07
392.544	125.95
392.753	35.84
392.963	-21.5
393.172	80.89
393.382	35.84
393.591	152.57
393.801	19.46
394.01	134.14
394.22	76.8
394.429	68.61
394.639	72.7
394.848	121.85
395.058	23.55
395.267	93.18
395.477	148.48
395.686	181.25
395.895	109.57
396.105	138.24
396.314	119.81
396.524	93.18
396.733	109.57
396.942	134.14
397.152	46.08
397.361	109.57
397.57	50.18
397.78	68.61
397.989	101.37
398.198	162.81
398.407	7.17
398.617	117.76
398.826	146.43
399.035	31.74
399.244	142.33
399.453	168.96
399.663	125.95
399.872	101.37
400.081	117.76
400.29	132.09
400.499	48.13
400.708	82.94
400.917	93.18
401.127	130.05
401.336	66.56
401.545	101.37
401.754	183.29
401.963	125.95
402.172	84.99
402.381	89.09
402.59	105.47
402.799	101.37
403.008	240.64
403.217	117.76
403.426	191.49
403.635	93.18
403.844	166.91
404.053	60.42
404.262	158.72
404.471	150.53
404.68	166.91
404.888	164.86
405.097	44.03
405.306	150.53
405.515	166.91
405.724	166.91
405.933	134.14
406.142	175.1
406.35	181.25
406.559	181.25
406.768	173.05
406.977	162.81
407.185	191.49
407.394	232.44
407.603	138.24
407.812	191.49
408.02	248.83
408.229	191.49
408.438	277.5
408.646	232.44
408.855	240.64
409.064	322.56
409.272	214.01
409.481	289.79
409.69	265.21
409.898	320.51
410.107	297.98
410.315	386.04
410.524	232.44
410.733	353.27
410.941	328.7
411.15	418.81
411.358	416.76
411.567	408.57
411.775	363.51
411.984	406.52
412.192	478.2
412.401	435.19
412.609	453.63
412.818	531.45
413.026	420.86
413.234	510.97
413.443	570.36
413.651	553.98
413.86	543.74
414.068	668.66
414.276	629.75
414.485	560.12
414.693	668.66
414.901	715.77
415.11	629.75
415.318	699.38
415.526	607.22
415.734	748.53
415.943	822.26
416.151	732.15
416.359	740.34
416.567	893.94
416.776	803.83
416.984	887.79
417.192	1027.06
417.4	949.23
417.608	973.81
417.817	969.71
418.025	1108.98
418.233	1170.41
418.441	1137.65
418.649	1194.99
418.857	1305.58
419.065	1215.47
419.273	1334.25
419.481	1332.2
419.689	1326.06
419.897	1473.51
420.105	1584.1
420.313	1549.29
420.521	1537
420.729	1788.9
420.937	1706.98
421.145	1696.74
421.353	1833.96
421.561	2022.37
421.769	1997.79
421.977	2038.75
422.185	2089.95
422.393	2194.4
422.601	2171.87
422.809	2198.49
423.017	2200.54
423.224	2411.48
423.432	2427.87
423.64	2477.02
423.848	2741.21
424.056	2698.2
424.263	2841.56
424.471	2763.73
424.679	3034.07
424.887	3152.85
425.094	3150.8
425.302	3179.47
425.51	3306.45
425.718	3435.47
425.925	3376.08
426.133	3630.02
426.341	3818.44
426.548	3869.64
426.756	3818.44
426.964	3941.32
427.171	4178.88
427.379	4211.65
427.586	4422.59
427.794	4432.83
428.001	4613.05
428.209	4930.48
428.417	4750.26
428.624	5219.25
428.832	5262.26
429.039	5280.69
429.247	5225.39
429.454	5706.66
429.662	5893.03
429.869	5540.78
430.076	6138.79
430.284	5925.8
430.491	6120.35
430.699	6593.44
430.906	6544.28
431.114	6679.45
431.321	6814.62
431.528	6781.85
431.736	7310.22
431.943	7736.2
432.15	7416.72
432.358	7541.64
432.565	7863.18
432.772	7836.55
432.979	8240
433.187	8334.21
433.394	8618.88
433.601	9290.61
433.808	9055.09
434.016	9204.6
434.223	9505.65
434.43	10136.42
434.637	9694.06
434.844	10584.93
435.052	10869.59
435.259	10613.6
435.466	10681.18
435.673	10697.56
435.88	11361.11
436.087	11850.57
436.294	12024.65
436.501	11692.88
436.708	11821.9
436.915	12350.28
437.122	13013.82
437.329	12870.46
437.537	13224.76
437.743	13546.29
437.95	13316.92
438.157	14117.67
438.364	14447.4
438.571	14388
438.778	14621.47
438.985	15811.34
439.192	15465.24
439.399	15713.04
439.606	15381.27
439.813	16335.62
440.02	17203.96
440.227	17011.45
440.433	16724.74
440.64	17289.98
440.847	17138.43
441.054	17623.8
441.261	19120.86
441.467	18666.21
441.674	18946.78
441.881	19983.06
442.088	19210.97
442.294	19647.19
442.501	20228.81
442.708	20343.5
442.914	21230.27
443.121	22375.08
443.328	21570.23
443.534	22923.94
443.741	22348.46
443.948	22325.93
444.154	23782.04
444.361	23605.91
444.568	23562.9
444.774	23974.55
444.981	23845.52
445.187	24728.2
445.394	25830.01
445.6	25227.9
445.807	27859.54
446.013	26600.04
446.22	27255.39
446.426	28332.62
446.633	28713.55
446.839	29700.67
447.046	28430.93
447.252	29733.43
447.459	30018.1
447.665	29938.23
447.871	30702.12
448.078	32070.17
448.284	30442.03
448.491	31820.31
448.697	32922.12
448.903	33167.88
449.11	33671.68
449.316	32928.27
449.522	33624.57
449.728	34609.65
449.935	34769.39
450.141	34566.64
450.347	35602.91
450.553	34011.64
450.76	34660.85
450.966	35715.55
451.172	35289.57
451.378	36030.94
451.584	35752.41
451.791	36073.95
451.997	35992.03
452.203	36899.28
452.409	36352.47
452.615	36622.8
452.821	35119.59
453.027	34968.04
453.233	36698.58
453.44	35191.27
453.646	35750.37
453.852	35729.89
454.058	36151.77
454.264	34935.27
454.47	35766.75
454.676	35058.15
454.882	36223.45
455.088	32723.47
455.294	33397.25
455.5	33757.69
455.705	34040.31
455.911	32780.81
456.117	32082.45
456.323	31511.07
456.529	29921.85
456.735	31234.6
456.941	30519.85
457.147	29794.87
457.352	28865.1
457.558	28641.87
457.764	28713.55
457.97	28201.55
458.176	27603.55
458.381	27308.64
458.587	26323.57
458.793	26106.48
458.999	24851.08
459.204	26389.1
459.41	25602.68
459.616	24130.19
459.821	23980.69
460.027	23995.03
460.233	23405.21
460.438	22217.39
460.644	22506.15
460.85	21545.66
461.055	21121.73
461.261	20996.8
461.466	19827.41
461.672	18823.9
461.878	20499.14
462.083	19110.62
462.289	18780.9
462.494	18338.54
462.7	17801.97
462.905	17314.55
463.111	17742.58
463.316	17713.91
463.522	17408.76
463.727	17548.02
463.932	17502.96
464.138	17246.97
464.343	17339.13
464.549	16966.4
464.754	17550.07
464.959	17253.11
465.165	16800.51
465.37	16315.14
465.575	15827.73
465.781	16399.11
465.986	16685.83
466.191	16022.28
466.397	15596.31
466.602	15043.35
466.807	15498
467.012	15622.93
467.218	15567.63
467.423	15266.58
