Data from USB4F104151__16__11-29-48-417.txt Node

Date: Fri Mar 14 11:29:48 EDT 2025
User: louis
Spectrometer: USB4F10415
Trigger mode: 4
Integration Time (sec): 5.000000E-2
Scans to average: 1
Electric dark correction enabled: true
Nonlinearity correction enabled: false
Boxcar width: 0
XAxis mode: Wavelengths
Number of Pixels in Spectrum: 3648
>>>>>Begin Spectral Data<<<<<
178.204	-122.37
178.424	-122.37
178.644	-122.37
178.864	-194.05
179.084	-134.65
179.304	61.95
179.524	4.61
179.744	6.66
179.964	6.66
180.184	31.23
180.404	-42.5
180.624	-13.82
180.844	-26.11
181.064	-36.35
181.283	23.04
181.503	-5.63
181.723	-9.73
181.943	-26.11
182.163	78.33
182.383	-36.35
182.602	88.57
182.822	-1.54
183.042	61.95
183.262	8.7
183.482	43.52
183.701	39.42
183.921	-9.73
184.141	6.66
184.361	102.91
184.58	94.72
184.8	53.76
185.02	-38.4
185.239	43.52
185.459	-5.63
185.679	23.04
185.898	31.23
186.118	72.19
186.338	35.33
186.557	61.95
186.777	45.57
186.997	31.23
187.216	4.61
187.436	117.25
187.655	39.42
187.875	-32.26
188.095	-32.26
188.314	-11.78
188.534	117.25
188.753	16.9
188.973	-34.3
189.192	115.2
189.412	27.14
189.631	41.47
189.851	-34.3
190.07	78.33
190.29	14.85
190.509	-9.73
190.729	12.8
190.948	78.33
191.168	127.49
191.387	51.71
191.607	39.42
191.826	45.57
192.045	-17.92
192.265	45.57
192.484	-17.92
192.704	23.04
192.923	2.56
193.142	123.39
193.362	115.2
193.581	70.14
193.8	37.38
194.02	84.48
194.239	102.91
194.458	61.95
194.678	45.57
194.897	80.38
195.116	0.51
195.335	6.66
195.555	47.62
195.774	35.33
195.993	61.95
196.212	23.04
196.432	29.18
196.651	59.9
196.87	39.42
197.089	141.82
197.308	47.62
197.528	39.42
197.747	-38.4
197.966	18.94
198.185	47.62
198.404	-1.54
198.623	43.52
198.842	59.9
199.062	78.33
199.281	92.67
199.5	-1.54
199.719	61.95
199.938	-1.54
200.157	88.57
200.376	84.48
200.595	141.82
200.814	31.23
201.033	6.66
201.252	68.09
201.471	49.66
201.69	59.9
201.909	68.09
202.128	49.66
202.347	84.48
202.566	59.9
202.785	-67.07
203.004	4.61
203.223	109.05
203.442	18.94
203.661	16.9
203.879	61.95
204.098	76.29
204.317	-3.58
204.536	135.68
204.755	61.95
204.974	84.48
205.193	-42.5
205.411	94.72
205.63	6.66
205.849	39.42
206.068	86.53
206.287	-30.21
206.505	64
206.724	-34.3
206.943	59.9
207.162	-26.11
207.381	88.57
207.599	18.94
207.818	100.86
208.037	92.67
208.255	25.09
208.474	111.1
208.693	47.62
208.911	47.62
209.13	2.56
209.349	31.23
209.567	68.09
209.786	111.1
210.005	57.86
210.223	88.57
210.442	51.71
210.661	2.56
210.879	4.61
211.098	2.56
211.316	-42.5
211.535	39.42
211.753	-3.58
211.972	-3.58
212.191	49.66
212.409	70.14
212.628	-9.73
212.846	8.7
213.065	29.18
213.283	47.62
213.502	64
213.72	18.94
213.938	53.76
214.157	33.28
214.375	37.38
214.594	51.71
214.812	96.77
215.031	68.09
215.249	47.62
215.467	27.14
215.686	111.1
215.904	72.19
216.122	-7.68
216.341	84.48
216.559	-34.3
216.778	23.04
216.996	88.57
217.214	-9.73
217.432	-26.11
217.651	14.85
217.869	55.81
218.087	86.53
218.306	104.96
218.524	102.91
218.742	64
218.96	57.86
219.179	-34.3
219.397	-3.58
219.615	121.34
219.833	43.52
220.051	80.38
220.27	72.19
220.488	96.77
220.706	-34.3
220.924	-1.54
221.142	-17.92
221.36	45.57
221.578	59.9
221.796	41.47
222.015	88.57
222.233	14.85
222.451	109.05
222.669	-26.11
222.887	37.38
223.105	47.62
223.323	39.42
223.541	2.56
223.759	66.05
223.977	-3.58
224.195	102.91
224.413	76.29
224.631	76.29
224.849	53.76
225.067	125.44
225.285	-13.82
225.503	-9.73
225.721	-60.93
225.939	-42.5
226.157	33.28
226.375	184.83
226.592	-5.63
226.81	23.04
227.028	4.61
227.246	55.81
227.464	78.33
227.682	47.62
227.9	59.9
228.117	70.14
228.335	43.52
228.553	59.9
228.771	33.28
228.989	61.95
229.206	-17.92
229.424	10.75
229.642	37.38
229.86	23.04
230.077	35.33
230.295	64
230.513	39.42
230.731	90.62
230.948	55.81
231.166	-17.92
231.384	31.23
231.601	27.14
231.819	88.57
232.037	10.75
232.254	-17.92
232.472	6.66
232.689	16.9
232.907	72.19
233.125	20.99
233.342	51.71
233.56	27.14
233.777	4.61
233.995	31.23
234.213	80.38
234.43	53.76
234.648	23.04
234.865	100.86
235.083	96.77
235.3	23.04
235.518	96.77
235.735	18.94
235.953	86.53
236.17	100.86
236.388	76.29
236.605	-40.45
236.822	133.63
237.04	10.75
237.257	45.57
237.475	-3.58
237.692	100.86
237.909	47.62
238.127	57.86
238.344	64
238.562	-44.54
238.779	-26.11
238.996	29.18
239.214	86.53
239.431	-11.78
239.648	18.94
239.865	64
240.083	27.14
240.3	29.18
240.517	-3.58
240.735	14.85
240.952	61.95
241.169	76.29
241.386	55.81
241.603	41.47
241.821	47.62
242.038	29.18
242.255	88.57
242.472	-22.02
242.689	55.81
242.907	53.76
243.124	68.09
243.341	-3.58
243.558	23.04
243.775	12.8
243.992	-3.58
244.209	41.47
244.426	94.72
244.643	61.95
244.86	-50.69
245.078	12.8
245.295	53.76
245.512	70.14
245.729	68.09
245.946	117.25
246.163	-13.82
246.38	6.66
246.597	31.23
246.814	84.48
247.031	45.57
247.248	72.19
247.464	96.77
247.681	39.42
247.898	4.61
248.115	41.47
248.332	10.75
248.549	113.15
248.766	64
248.983	127.49
249.2	16.9
249.417	88.57
249.633	14.85
249.85	41.47
250.067	53.76
250.284	84.48
250.501	41.47
250.717	35.33
250.934	-7.68
251.151	47.62
251.368	29.18
251.585	78.33
251.801	47.62
252.018	-71.17
252.235	18.94
252.451	16.9
252.668	64
252.885	70.14
253.102	-9.73
253.318	51.71
253.535	45.57
253.752	-30.21
253.968	14.85
254.185	-11.78
254.401	-7.68
254.618	51.71
254.835	-9.73
255.051	86.53
255.268	72.19
255.484	37.38
255.701	-11.78
255.917	74.24
256.134	23.04
256.351	39.42
256.567	29.18
256.784	53.76
257	-3.58
257.217	59.9
257.433	-17.92
257.65	45.57
257.866	53.76
258.082	18.94
258.299	31.23
258.515	10.75
258.732	31.23
258.948	14.85
259.165	92.67
259.381	31.23
259.597	76.29
259.814	6.66
260.03	55.81
260.246	-30.21
260.463	86.53
260.679	51.71
260.895	-1.54
261.112	88.57
261.328	84.48
261.544	59.9
261.761	131.58
261.977	18.94
262.193	33.28
262.409	70.14
262.626	-3.58
262.842	-42.5
263.058	23.04
263.274	72.19
263.49	-17.92
263.707	78.33
263.923	117.25
264.139	74.24
264.355	23.04
264.571	16.9
264.787	25.09
265.004	96.77
265.22	-56.83
265.436	-32.26
265.652	45.57
265.868	39.42
266.084	12.8
266.3	23.04
266.516	10.75
266.732	-15.87
266.948	64
267.164	-1.54
267.38	68.09
267.596	72.19
267.812	152.06
268.028	6.66
268.244	39.42
268.46	12.8
268.676	113.15
268.892	84.48
269.108	51.71
269.324	72.19
269.54	27.14
269.756	88.57
269.972	6.66
270.188	10.75
270.403	-40.45
270.619	51.71
270.835	2.56
271.051	31.23
271.267	-11.78
271.483	35.33
271.698	94.72
271.914	-52.74
272.13	33.28
272.346	43.52
272.562	119.29
272.777	18.94
272.993	59.9
273.209	92.67
273.425	86.53
273.64	6.66
273.856	109.05
274.072	78.33
274.287	-28.16
274.503	55.81
274.719	154.11
274.934	39.42
275.15	20.99
275.366	111.1
275.581	14.85
275.797	53.76
276.012	29.18
276.228	41.47
276.444	64
276.659	23.04
276.875	-3.58
277.09	-24.06
277.306	92.67
277.521	53.76
277.737	4.61
277.952	33.28
278.168	70.14
278.383	57.86
278.599	-11.78
278.814	104.96
279.03	31.23
279.245	55.81
279.461	47.62
279.676	92.67
279.892	14.85
280.107	47.62
280.322	31.23
280.538	72.19
280.753	-44.54
280.969	-42.5
281.184	94.72
281.399	25.09
281.615	37.38
281.83	-7.68
282.045	53.76
282.26	-26.11
282.476	70.14
282.691	16.9
282.906	31.23
283.122	20.99
283.337	20.99
283.552	12.8
283.767	94.72
283.983	4.61
284.198	27.14
284.413	76.29
284.628	12.8
284.843	31.23
285.058	127.49
285.274	39.42
285.489	76.29
285.704	72.19
285.919	43.52
286.134	84.48
286.349	29.18
286.564	55.81
286.779	119.29
286.995	80.38
287.21	53.76
287.425	39.42
287.64	-26.11
287.855	137.73
288.07	-5.63
288.285	37.38
288.5	64
288.715	33.28
288.93	66.05
289.145	41.47
289.36	27.14
289.575	47.62
289.79	41.47
290.004	10.75
290.219	68.09
290.434	39.42
290.649	55.81
290.864	70.14
291.079	31.23
291.294	70.14
291.509	-1.54
291.724	16.9
291.938	18.94
292.153	-26.11
292.368	14.85
292.583	76.29
292.798	27.14
293.012	76.29
293.227	53.76
293.442	74.24
293.657	23.04
293.871	109.05
294.086	39.42
294.301	107.01
294.516	31.23
294.73	74.24
294.945	41.47
295.16	35.33
295.374	92.67
295.589	43.52
295.804	8.7
296.018	70.14
296.233	127.49
296.447	-1.54
296.662	31.23
296.877	61.95
297.091	96.77
297.306	70.14
297.52	64
297.735	25.09
297.949	72.19
298.164	39.42
298.378	18.94
298.593	6.66
298.807	10.75
299.022	59.9
299.236	88.57
299.451	31.23
299.665	49.66
299.88	6.66
300.094	66.05
300.309	6.66
300.523	31.23
300.737	53.76
300.952	12.8
301.166	88.57
301.381	18.94
301.595	92.67
301.809	-19.97
302.024	27.14
302.238	25.09
302.452	109.05
302.667	-28.16
302.881	102.91
303.095	74.24
303.309	53.76
303.524	70.14
303.738	61.95
303.952	-34.3
304.166	80.38
304.381	-1.54
304.595	137.73
304.809	31.23
305.023	-26.11
305.237	-9.73
305.452	-50.69
305.666	27.14
305.88	92.67
306.094	102.91
306.308	104.96
306.522	80.38
306.736	-15.87
306.95	64
307.164	6.66
307.379	-30.21
307.593	37.38
307.807	55.81
308.021	59.9
308.235	31.23
308.449	-60.93
308.663	31.23
308.877	80.38
309.091	29.18
309.305	27.14
309.519	-17.92
309.733	72.19
309.947	-30.21
310.161	20.99
310.374	94.72
310.588	123.39
310.802	61.95
311.016	39.42
311.23	59.9
311.444	35.33
311.658	-34.3
311.872	137.73
312.085	72.19
312.299	12.8
312.513	33.28
312.727	-11.78
312.941	-54.78
313.154	37.38
313.368	176.64
313.582	64
313.796	76.29
314.009	31.23
314.223	104.96
314.437	27.14
314.651	23.04
314.864	2.56
315.078	14.85
315.292	39.42
315.505	96.77
315.719	64
315.933	2.56
316.146	94.72
316.36	68.09
316.573	92.67
316.787	-15.87
317.001	88.57
317.214	10.75
317.428	147.97
317.641	23.04
317.855	6.66
318.068	18.94
318.282	94.72
318.495	64
318.709	121.34
318.922	0.51
319.136	64
319.349	121.34
319.563	64
319.776	61.95
319.99	-89.6
320.203	0.51
320.417	-19.97
320.63	80.38
320.843	129.53
321.057	-17.92
321.27	-5.63
321.483	20.99
321.697	102.91
321.91	25.09
322.124	135.68
322.337	72.19
322.55	88.57
322.763	4.61
322.977	59.9
323.19	102.91
323.403	45.57
323.617	76.29
323.83	59.9
324.043	72.19
324.256	61.95
324.469	39.42
324.683	35.33
324.896	18.94
325.109	29.18
325.322	-46.59
325.535	10.75
325.748	-58.88
325.962	23.04
326.175	45.57
326.388	37.38
326.601	61.95
326.814	12.8
327.027	23.04
327.24	135.68
327.453	51.71
327.666	59.9
327.879	170.49
328.092	70.14
328.305	6.66
328.518	51.71
328.731	51.71
328.944	31.23
329.157	72.19
329.37	68.09
329.583	33.28
329.796	107.01
330.009	12.8
330.222	47.62
330.435	61.95
330.648	78.33
330.861	53.76
331.073	45.57
331.286	74.24
331.499	8.7
331.712	-5.63
331.925	51.71
332.138	33.28
332.35	102.91
332.563	-36.35
332.776	64
332.989	16.9
333.202	43.52
333.414	8.7
333.627	66.05
333.84	88.57
334.053	45.57
334.265	41.47
334.478	27.14
334.691	6.66
334.903	88.57
335.116	53.76
335.329	57.86
335.541	37.38
335.754	64
335.966	-28.16
336.179	78.33
336.392	35.33
336.604	47.62
336.817	117.25
337.029	88.57
337.242	-5.63
337.454	64
337.667	90.62
337.88	96.77
338.092	47.62
338.305	145.92
338.517	80.38
338.729	70.14
338.942	96.77
339.154	-9.73
339.367	29.18
339.579	88.57
339.792	20.99
340.004	78.33
340.217	47.62
340.429	39.42
340.641	49.66
340.854	37.38
341.066	66.05
341.278	6.66
341.491	92.67
341.703	-11.78
341.915	64
342.128	6.66
342.34	35.33
342.552	51.71
342.764	104.96
342.977	64
343.189	31.23
343.401	113.15
343.613	-19.97
343.826	76.29
344.038	-28.16
344.25	33.28
344.462	59.9
344.674	18.94
344.886	37.38
345.099	-28.16
345.311	37.38
345.523	53.76
345.735	-58.88
345.947	64
346.159	37.38
346.371	29.18
346.583	6.66
346.795	141.82
347.007	-17.92
347.219	86.53
347.431	53.76
347.643	43.52
347.855	16.9
348.067	35.33
348.279	6.66
348.491	4.61
348.703	88.57
348.915	31.23
349.127	27.14
349.339	23.04
349.551	80.38
349.763	23.04
349.975	25.09
350.187	47.62
350.399	94.72
350.61	109.05
350.822	70.14
351.034	117.25
351.246	53.76
351.458	16.9
351.669	-7.68
351.881	72.19
352.093	72.19
352.305	125.44
352.517	61.95
352.728	-11.78
352.94	39.42
353.152	18.94
353.363	6.66
353.575	55.81
353.787	96.77
353.999	70.14
354.21	0.51
354.422	39.42
354.633	39.42
354.845	59.9
355.057	145.92
355.268	37.38
355.48	76.29
355.692	-9.73
355.903	-17.92
356.115	10.75
356.326	31.23
356.538	119.29
356.749	18.94
356.961	111.1
357.172	45.57
357.384	14.85
357.595	162.3
357.807	70.14
358.018	39.42
358.23	-9.73
358.441	129.53
358.653	176.64
358.864	86.53
359.075	51.71
359.287	45.57
359.498	53.76
359.709	12.8
359.921	102.91
360.132	72.19
360.344	109.05
360.555	-5.63
360.766	-9.73
360.977	18.94
361.189	96.77
361.4	23.04
361.611	37.38
361.823	0.51
362.034	55.81
362.245	39.42
362.456	39.42
362.667	72.19
362.879	12.8
363.09	70.14
363.301	43.52
363.512	68.09
363.723	45.57
363.935	-3.58
364.146	64
364.357	137.73
364.568	53.76
364.779	-11.78
364.99	94.72
365.201	43.52
365.412	53.76
365.623	84.48
365.834	47.62
366.045	-5.63
366.256	86.53
366.467	72.19
366.678	82.43
366.889	23.04
367.1	-9.73
367.311	82.43
367.522	152.06
367.733	29.18
367.944	104.96
368.155	59.9
368.366	66.05
368.577	109.05
368.788	39.42
368.999	18.94
369.209	29.18
369.42	47.62
369.631	158.21
369.842	96.77
370.053	72.19
370.264	51.71
370.474	55.81
370.685	49.66
370.896	20.99
371.107	94.72
371.317	135.68
371.528	33.28
371.739	145.92
371.95	68.09
372.16	90.62
372.371	-7.68
372.582	-9.73
372.792	66.05
373.003	43.52
373.214	29.18
373.424	23.04
373.635	31.23
373.846	68.09
374.056	94.72
374.267	119.29
374.477	86.53
374.688	39.42
374.898	29.18
375.109	61.95
375.319	143.87
375.53	92.67
375.74	100.86
375.951	4.61
376.161	72.19
376.372	104.96
376.582	2.56
376.793	53.76
377.003	16.9
377.214	31.23
377.424	51.71
377.635	23.04
377.845	20.99
378.055	90.62
378.266	66.05
378.476	-17.92
378.686	150.01
378.897	37.38
379.107	78.33
379.317	55.81
379.528	53.76
379.738	0.51
379.948	-22.02
380.158	137.73
380.369	-38.4
380.579	31.23
380.789	4.61
380.999	-1.54
381.21	78.33
381.42	174.59
381.63	10.75
381.84	41.47
382.05	117.25
382.261	102.91
382.471	68.09
382.681	0.51
382.891	86.53
383.101	92.67
383.311	57.86
383.521	4.61
383.731	129.53
383.941	143.87
384.151	20.99
384.361	115.2
384.571	78.33
384.781	37.38
384.991	64
385.201	121.34
385.411	55.81
385.621	39.42
385.831	129.53
386.041	10.75
386.251	18.94
386.461	109.05
386.671	55.81
386.881	45.57
387.091	68.09
387.301	74.24
387.511	76.29
387.72	43.52
387.93	129.53
388.14	29.18
388.35	113.15
388.56	92.67
388.769	70.14
388.979	82.43
389.189	23.04
389.399	35.33
389.609	55.81
389.818	80.38
390.028	92.67
390.238	51.71
390.447	64
390.657	35.33
390.867	121.34
391.076	31.23
391.286	76.29
391.496	41.47
391.705	43.52
391.915	117.25
392.125	92.67
392.334	55.81
392.544	125.44
392.753	121.34
392.963	72.19
393.172	51.71
393.382	23.04
393.591	113.15
393.801	-9.73
394.01	184.83
394.22	96.77
394.429	109.05
394.639	84.48
394.848	113.15
395.058	80.38
395.267	96.77
395.477	49.66
395.686	111.1
395.895	104.96
396.105	121.34
396.314	135.68
396.524	43.52
396.733	78.33
396.942	14.85
397.152	154.11
397.361	53.76
397.57	121.34
397.78	61.95
397.989	137.73
398.198	170.49
398.407	127.49
398.617	150.01
398.826	137.73
399.035	129.53
399.244	100.86
399.453	98.81
399.663	129.53
399.872	127.49
400.081	113.15
400.29	129.53
400.499	76.29
400.708	178.69
400.917	113.15
401.127	57.86
401.336	84.48
401.545	178.69
401.754	131.58
401.963	104.96
402.172	186.88
402.381	90.62
402.59	135.68
402.799	125.44
403.008	219.64
403.217	211.45
403.426	104.96
403.635	72.19
403.844	154.11
404.053	176.64
404.262	145.92
404.471	217.6
404.68	131.58
404.888	203.26
405.097	137.73
405.306	178.69
405.515	219.64
405.724	193.02
405.933	217.6
406.142	145.92
406.35	213.5
406.559	127.49
406.768	201.21
406.977	186.88
407.185	324.09
407.394	190.97
407.603	219.64
407.812	244.22
408.02	145.92
408.229	240.12
408.438	233.98
408.646	174.59
408.855	272.89
409.064	274.94
409.272	248.32
409.481	309.76
409.69	291.32
409.898	252.41
410.107	270.84
410.315	399.87
410.524	315.9
410.733	315.9
410.941	354.81
411.15	346.62
411.358	320
411.567	461.3
411.775	438.78
411.984	449.02
412.192	440.83
412.401	424.44
412.609	424.44
412.818	547.32
413.026	377.34
413.234	545.27
413.443	520.7
413.651	596.47
413.86	518.65
414.068	649.72
414.276	623.09
414.485	678.39
414.693	702.97
414.901	743.92
415.11	776.69
415.318	723.44
415.526	739.83
415.734	727.54
415.943	803.32
416.151	903.67
416.359	801.27
416.567	850.42
416.776	858.61
416.984	891.38
417.192	1030.64
417.4	1073.65
417.608	1096.18
417.817	1044.98
418.025	1087.98
418.233	1266.16
418.441	1122.8
418.649	1167.85
418.857	1325.55
419.065	1309.16
419.273	1266.16
419.481	1389.03
419.689	1448.43
419.897	1468.91
420.105	1526.25
420.313	1659.37
420.521	1659.37
420.729	1618.41
420.937	1706.47
421.145	1688.04
421.353	1841.64
421.561	1905.12
421.769	1976.8
421.977	2068.96
422.185	1976.8
422.393	2222.56
422.601	2228.7
422.809	2232.8
423.017	2269.66
423.224	2349.53
423.432	2447.83
423.64	2464.22
423.848	2755.03
424.056	2755.03
424.263	2781.65
424.471	2916.82
424.679	2906.58
424.887	2931.16
425.094	3115.47
425.302	3193.3
425.51	3207.63
425.718	3379.66
425.925	3424.72
426.133	3520.97
426.341	3885.51
426.548	3992
426.756	3953.09
426.964	4078.02
427.171	4258.24
427.379	4225.47
427.586	4409.79
427.794	4544.95
428.001	4676.02
428.209	4921.78
428.417	4854.2
428.624	5120.43
428.832	5290.42
429.039	5140.91
429.247	5124.53
429.454	5663.15
429.662	6085.03
429.869	5736.87
430.076	6029.73
430.284	6019.49
430.491	6281.63
430.699	6674.84
430.906	6637.98
431.114	6572.44
431.321	6703.51
431.528	6955.41
431.736	7389.58
431.943	7895.43
432.15	7399.82
432.358	7633.29
432.565	7971.21
432.772	8038.79
432.979	8319.36
433.187	8493.44
433.394	8462.72
433.601	9273.71
433.808	9210.23
434.016	9044.34
434.223	9523.57
434.43	10123.62
434.637	9890.15
434.844	10414.43
435.052	10768.73
435.259	10897.75
435.466	10729.82
435.673	10578.27
435.88	11446.61
436.087	11856.2
436.294	12011.85
436.501	11524.43
436.708	11913.55
436.915	12409.15
437.122	12828.99
437.329	12718.4
437.537	13273.4
437.743	13433.14
437.95	13273.4
438.157	14115.11
438.364	14256.42
438.571	14469.41
438.778	14360.87
438.985	15929.61
439.192	15343.89
439.399	15683.86
439.606	15278.36
439.813	16208.14
440.02	17242.36
440.227	17000.7
440.433	16922.88
440.64	17617.14
440.847	17314.04
441.054	17944.81
441.261	18792.67
441.467	18817.25
441.674	19208.41
441.881	19919.06
442.088	19912.91
442.294	19620.05
442.501	20187.34
442.708	20723.91
442.914	21385.4
443.121	22145.2
443.328	21706.93
443.534	23281.82
443.741	22552.74
443.948	22300.84
444.154	23806.1
444.361	23546.01
444.568	23904.4
444.774	23931.03
444.981	24174.74
445.187	24533.13
445.394	25632.89
445.6	25397.37
445.807	27891.8
446.013	26912.87
446.22	26996.84
446.426	28461.13
446.633	28819.53
446.839	29505.6
447.046	28352.59
447.252	29894.71
447.459	30062.65
447.665	30132.28
447.871	31309.86
448.078	32403.47
448.284	30847.02
448.491	31836.19
448.697	32825.36
448.903	33472.51
449.11	33460.23
449.316	32786.44
449.522	33449.99
449.728	34285.56
449.935	34420.72
450.141	34308.08
450.347	35500
450.553	34299.89
450.76	34652.14
450.966	35727.33
451.172	35416.04
451.378	36106.2
451.584	35573.73
451.791	36333.53
451.997	36351.96
452.203	36675.54
452.409	36702.16
452.615	36722.64
452.821	35358.69
453.027	34985.96
453.233	36581.33
453.44	35080.17
453.646	35407.84
453.852	35676.13
454.058	36354.01
454.264	35151.85
454.47	36001.75
454.676	34709.49
454.882	36095.96
455.088	33054.73
455.294	33204.23
455.5	34199.54
455.705	34177.01
455.911	32944.14
456.117	32290.84
456.323	31633.44
456.529	29945.91
456.735	31256.61
456.941	30521.39
457.147	29995.06
457.352	29241.41
457.558	28545.1
457.764	28745.8
457.97	28117.07
458.176	27306.08
458.381	27402.33
458.587	26312.81
458.793	26124.4
458.999	25018.5
459.204	26609.77
459.41	25583.74
459.616	23951.51
459.821	24195.21
460.027	23931.03
460.233	23642.26
460.438	22241.45
460.644	22610.09
460.85	21569.72
461.055	21151.93
461.261	21186.75
461.466	19658.96
461.672	19142.88
461.878	20318.41
462.083	19146.97
462.289	18968.8
462.494	18575.59
462.7	17719.54
462.905	17406.2
463.111	17854.7
463.316	17899.76
463.522	17336.57
463.727	17461.49
463.932	17588.47
464.138	17142.01
464.343	17596.66
464.549	16707.84
464.754	17219.83
464.959	17125.63
465.165	17217.79
465.37	16245
465.575	16034.06
465.781	16480.52
465.986	16713.98
466.191	16038.16
466.397	15528.21
466.602	14924.06
466.807	15579.41
467.012	15540.5
467.218	15554.83
467.423	15130.91
467.628	15520.02
467.833	15862.03
468.038	15358.23
