Data from USB4F104151__47__11-30-30-162.txt Node

Date: Fri Mar 14 11:30:30 EDT 2025
User: louis
Spectrometer: USB4F10415
Trigger mode: 4
Integration Time (sec): 5.000000E-2
Scans to average: 1
Electric dark correction enabled: true
Nonlinearity correction enabled: false
Boxcar width: 0
XAxis mode: Wavelengths
Number of Pixels in Spectrum: 3648
>>>>>Begin Spectral Data<<<<<
178.204	-125.1
178.424	-125.1
178.644	-125.1
178.864	-127.14
179.084	-110.76
179.304	3.93
179.524	-53.42
179.744	-49.32
179.964	-22.7
180.184	26.45
180.404	10.07
180.624	-4.27
180.844	69.46
181.064	-28.84
181.283	85.84
181.503	-55.47
181.723	18.26
181.943	-4.27
182.163	114.52
182.383	-37.03
182.602	42.84
182.822	34.64
183.042	3.93
183.262	20.31
183.482	-57.51
183.701	51.03
183.921	-4.27
184.141	71.51
184.361	-43.18
184.58	-4.27
184.8	42.84
185.02	3.93
185.239	69.46
185.459	22.36
185.679	12.12
185.898	26.45
186.118	59.22
186.338	77.65
186.557	85.84
186.777	-63.66
186.997	20.31
187.216	-53.42
187.436	110.42
187.655	63.32
187.875	114.52
188.095	-32.94
188.314	75.6
188.534	108.37
188.753	-69.8
188.973	53.08
189.192	48.98
189.412	65.36
189.631	8.02
189.851	53.08
190.07	34.64
190.29	8.02
190.509	81.75
190.729	18.26
190.948	44.88
191.168	173.91
191.387	91.99
191.607	-30.89
191.826	-30.89
192.045	20.31
192.265	8.02
192.484	42.84
192.704	69.46
192.923	10.07
193.142	79.7
193.362	116.56
193.581	71.51
193.8	28.5
194.02	-4.27
194.239	26.45
194.458	94.04
194.678	8.02
194.897	36.69
195.116	12.12
195.335	34.64
195.555	28.5
195.774	85.84
195.993	34.64
196.212	20.31
196.432	5.97
196.651	-26.79
196.87	32.6
197.089	73.56
197.308	102.23
197.528	-18.6
197.747	-47.27
197.966	69.46
198.185	118.61
198.404	-20.65
198.623	-8.36
198.842	28.5
199.062	5.97
199.281	126.8
199.5	24.4
199.719	-45.23
199.938	81.75
200.157	63.32
200.376	91.99
200.595	51.03
200.814	57.17
201.033	-28.84
201.252	53.08
201.471	10.07
201.69	87.89
201.909	89.94
202.128	67.41
202.347	73.56
202.566	-77.99
202.785	-49.32
203.004	-47.27
203.223	126.8
203.442	3.93
203.661	16.21
203.879	12.12
204.098	42.84
204.317	-39.08
204.536	34.64
204.755	-4.27
204.974	18.26
205.193	55.12
205.411	198.48
205.63	77.65
205.849	28.5
206.068	53.08
206.287	-24.75
206.505	44.88
206.724	51.03
206.943	65.36
207.162	91.99
207.381	44.88
207.599	135
207.818	44.88
208.037	-2.22
208.255	57.17
208.474	-6.31
208.693	91.99
208.911	38.74
209.13	85.84
209.349	48.98
209.567	53.08
209.786	73.56
210.005	81.75
210.223	40.79
210.442	38.74
210.661	20.31
210.879	53.08
211.098	3.93
211.316	81.75
211.535	65.36
211.753	3.93
211.972	38.74
212.191	67.41
212.409	42.84
212.628	57.17
212.846	38.74
213.065	65.36
213.283	42.84
213.502	36.69
213.72	-34.99
213.938	34.64
214.157	48.98
214.375	-28.84
214.594	-18.6
214.812	40.79
215.031	48.98
215.249	71.51
215.467	42.84
215.686	38.74
215.904	3.93
216.122	3.93
216.341	40.79
216.559	22.36
216.778	28.5
216.996	106.32
217.214	24.4
217.432	36.69
217.651	-6.31
217.869	8.02
218.087	-10.41
218.306	5.97
218.524	67.41
218.742	-55.47
218.96	44.88
219.179	-77.99
219.397	-10.41
219.615	71.51
219.833	20.31
220.051	-24.75
220.27	42.84
220.488	55.12
220.706	44.88
220.924	1.88
221.142	67.41
221.36	28.5
221.578	61.27
221.796	100.18
222.015	16.21
222.233	-26.79
222.451	10.07
222.669	-51.37
222.887	51.03
223.105	-80.04
223.323	10.07
223.541	-6.31
223.759	53.08
223.977	-2.22
224.195	-67.75
224.413	69.46
224.631	36.69
224.849	51.03
225.067	73.56
225.285	-22.7
225.503	26.45
225.721	-80.04
225.939	98.13
226.157	-4.27
226.375	67.41
226.592	20.31
226.81	-32.94
227.028	20.31
227.246	108.37
227.464	44.88
227.682	30.55
227.9	61.27
228.117	26.45
228.335	81.75
228.553	-14.51
228.771	61.27
228.989	91.99
229.206	-12.46
229.424	51.03
229.642	-24.75
229.86	16.21
230.077	32.6
230.295	30.55
230.513	85.84
230.731	44.88
230.948	104.28
231.166	57.17
231.384	-30.89
231.601	-65.71
231.819	67.41
232.037	-10.41
232.254	-4.27
232.472	-26.79
232.689	28.5
232.907	1.88
233.125	18.26
233.342	-67.75
233.56	42.84
233.777	-16.55
233.995	-77.99
234.213	79.7
234.43	16.21
234.648	36.69
234.865	89.94
235.083	98.13
235.3	12.12
235.518	28.5
235.735	102.23
235.953	81.75
236.17	36.69
236.388	-22.7
236.605	12.12
236.822	81.75
237.04	36.69
237.257	106.32
237.475	44.88
237.692	-30.89
237.909	-0.17
238.127	32.6
238.344	28.5
238.562	44.88
238.779	-77.99
238.996	40.79
239.214	-49.32
239.431	79.7
239.648	-0.17
239.865	65.36
240.083	79.7
240.3	5.97
240.517	57.17
240.735	73.56
240.952	51.03
241.169	61.27
241.386	34.64
241.603	3.93
241.821	-2.22
242.038	3.93
242.255	53.08
242.472	20.31
242.689	51.03
242.907	53.08
243.124	5.97
243.341	57.17
243.558	57.17
243.775	-22.7
243.992	-14.51
244.209	32.6
244.426	102.23
244.643	65.36
244.86	16.21
245.078	-2.22
245.295	67.41
245.512	-84.14
245.729	-16.55
245.946	57.17
246.163	-10.41
246.38	22.36
246.597	85.84
246.814	12.12
247.031	30.55
247.248	16.21
247.464	-10.41
247.681	67.41
247.898	34.64
248.115	32.6
248.332	44.88
248.549	12.12
248.766	77.65
248.983	100.18
249.2	53.08
249.417	132.95
249.633	-10.41
249.85	75.6
250.067	77.65
250.284	44.88
250.501	61.27
250.717	34.64
250.934	20.31
251.151	61.27
251.368	3.93
251.585	51.03
251.801	10.07
252.018	-22.7
252.235	130.9
252.451	-24.75
252.668	44.88
252.885	12.12
253.102	36.69
253.318	-37.03
253.535	-4.27
253.752	24.4
253.968	1.88
254.185	53.08
254.401	114.52
254.618	8.02
254.835	46.93
255.051	-6.31
255.268	22.36
255.484	-12.46
255.701	55.12
255.917	51.03
256.134	-24.75
256.351	-12.46
256.567	-0.17
256.784	85.84
257	10.07
257.217	18.26
257.433	24.4
257.65	-22.7
257.866	28.5
258.082	-32.94
258.299	1.88
258.515	30.55
258.732	12.12
258.948	-22.7
259.165	20.31
259.381	-14.51
259.597	65.36
259.814	22.36
260.03	-30.89
260.246	20.31
260.463	85.84
260.679	48.98
260.895	75.6
261.112	34.64
261.328	28.5
261.544	24.4
261.761	94.04
261.977	28.5
262.193	3.93
262.409	94.04
262.626	40.79
262.842	20.31
263.058	-0.17
263.274	16.21
263.49	34.64
263.707	16.21
263.923	-6.31
264.139	3.93
264.355	8.02
264.571	-0.17
264.787	110.42
265.004	102.23
265.22	1.88
265.436	12.12
265.652	36.69
265.868	8.02
266.084	-4.27
266.3	59.22
266.516	59.22
266.732	20.31
266.948	14.17
267.164	24.4
267.38	81.75
267.596	32.6
267.812	85.84
268.028	34.64
268.244	-22.7
268.46	10.07
268.676	30.55
268.892	53.08
269.108	10.07
269.324	59.22
269.54	44.88
269.756	143.19
269.972	36.69
270.188	57.17
270.403	10.07
270.619	-4.27
270.835	42.84
271.051	-16.55
271.267	1.88
271.483	-6.31
271.698	42.84
271.914	28.5
272.13	32.6
272.346	65.36
272.562	20.31
272.777	73.56
272.993	12.12
273.209	-26.79
273.425	69.46
273.64	26.45
273.856	5.97
274.072	-22.7
274.287	44.88
274.503	77.65
274.719	55.12
274.934	8.02
275.15	26.45
275.366	28.5
275.581	-43.18
275.797	-0.17
276.012	44.88
276.228	1.88
276.444	53.08
276.659	40.79
276.875	-18.6
277.09	48.98
277.306	61.27
277.521	77.65
277.737	48.98
277.952	69.46
278.168	38.74
278.383	20.31
278.599	79.7
278.814	53.08
279.03	81.75
279.245	-2.22
279.461	-4.27
279.676	75.6
279.892	26.45
280.107	-2.22
280.322	-30.89
280.538	44.88
280.753	46.93
280.969	73.56
281.184	22.36
281.399	61.27
281.615	-4.27
281.83	20.31
282.045	12.12
282.26	28.5
282.476	32.6
282.691	42.84
282.906	48.98
283.122	98.13
283.337	63.32
283.552	-14.51
283.767	32.6
283.983	12.12
284.198	67.41
284.413	-14.51
284.628	-2.22
284.843	57.17
285.058	102.23
285.274	63.32
285.489	-12.46
285.704	36.69
285.919	8.02
286.134	-8.36
286.349	36.69
286.564	-53.42
286.779	57.17
286.995	12.12
287.21	69.46
287.425	77.65
287.64	28.5
287.855	26.45
288.07	-39.08
288.285	94.04
288.5	12.12
288.715	48.98
288.93	-37.03
289.145	44.88
289.36	26.45
289.575	77.65
289.79	81.75
290.004	-8.36
290.219	77.65
290.434	65.36
290.649	-12.46
290.864	20.31
291.079	8.02
291.294	28.5
291.509	12.12
291.724	-8.36
291.938	20.31
292.153	42.84
292.368	-18.6
292.583	-61.61
292.798	20.31
293.012	110.42
293.227	83.8
293.442	-0.17
293.657	81.75
293.871	98.13
294.086	-24.75
294.301	108.37
294.516	71.51
294.73	18.26
294.945	-24.75
295.16	36.69
295.374	40.79
295.589	102.23
295.804	10.07
296.018	110.42
296.233	69.46
296.447	44.88
296.662	44.88
296.877	42.84
297.091	48.98
297.306	91.99
297.52	73.56
297.735	10.07
297.949	53.08
298.164	102.23
298.378	5.97
298.593	24.4
298.807	32.6
299.022	42.84
299.236	36.69
299.451	53.08
299.665	100.18
299.88	5.97
300.094	-47.27
300.309	8.02
300.523	-28.84
300.737	20.31
300.952	8.02
301.166	44.88
301.381	61.27
301.595	28.5
301.809	34.64
302.024	-61.61
302.238	-0.17
302.452	48.98
302.667	53.08
302.881	55.12
303.095	77.65
303.309	-12.46
303.524	69.46
303.738	30.55
303.952	3.93
304.166	-28.84
304.381	-32.94
304.595	89.94
304.809	-45.23
305.023	-61.61
305.237	-30.89
305.452	18.26
305.666	42.84
305.88	40.79
306.094	118.61
306.308	12.12
306.522	-22.7
306.736	81.75
306.95	-2.22
307.164	-22.7
307.379	67.41
307.593	79.7
307.807	81.75
308.021	36.69
308.235	65.36
308.449	-6.31
308.663	30.55
308.877	53.08
309.091	83.8
309.305	24.4
309.519	-24.75
309.733	77.65
309.947	42.84
310.161	98.13
310.374	51.03
310.588	53.08
310.802	40.79
311.016	34.64
311.23	-24.75
311.444	46.93
311.658	44.88
311.872	61.27
312.085	24.4
312.299	65.36
312.513	83.8
312.727	-12.46
312.941	57.17
313.154	18.26
313.368	40.79
313.582	-14.51
313.796	-16.55
314.009	3.93
314.223	-39.08
314.437	85.84
314.651	69.46
314.864	34.64
315.078	-69.8
315.292	38.74
315.505	-73.9
315.719	-30.89
315.933	85.84
316.146	-37.03
316.36	8.02
316.573	114.52
316.787	36.69
317.001	63.32
317.214	-6.31
317.428	-10.41
317.641	-28.84
317.855	79.7
318.068	18.26
318.282	44.88
318.495	108.37
318.709	124.76
318.922	12.12
319.136	71.51
319.349	116.56
319.563	44.88
319.776	63.32
319.99	5.97
320.203	98.13
320.417	12.12
320.63	22.36
320.843	16.21
321.057	55.12
321.27	44.88
321.483	94.04
321.697	22.36
321.91	38.74
322.124	-24.75
322.337	44.88
322.55	10.07
322.763	36.69
322.977	-20.65
323.19	34.64
323.403	22.36
323.617	10.07
323.83	96.08
324.043	24.4
324.256	94.04
324.469	81.75
324.683	10.07
324.896	32.6
325.109	20.31
325.322	-28.84
325.535	5.97
325.748	132.95
325.962	24.4
326.175	-53.42
326.388	114.52
326.601	122.71
326.814	48.98
327.027	69.46
327.24	151.38
327.453	12.12
327.666	30.55
327.879	157.52
328.092	112.47
328.305	44.88
328.518	-8.36
328.731	20.31
328.944	-32.94
329.157	-2.22
329.37	65.36
329.583	116.56
329.796	53.08
330.009	-53.42
330.222	89.94
330.435	-16.55
330.648	28.5
330.861	22.36
331.073	94.04
331.286	73.56
331.499	26.45
331.712	-2.22
331.925	44.88
332.138	67.41
332.35	85.84
332.563	14.17
332.776	75.6
332.989	-10.41
333.202	79.7
333.414	16.21
333.627	10.07
333.84	26.45
334.053	83.8
334.265	1.88
334.478	28.5
334.691	-24.75
334.903	67.41
335.116	32.6
335.329	26.45
335.541	53.08
335.754	141.14
335.966	3.93
336.179	102.23
336.392	-4.27
336.604	10.07
336.817	12.12
337.029	-4.27
337.242	112.47
337.454	16.21
337.667	108.37
337.88	61.27
338.092	20.31
338.305	81.75
338.517	-4.27
338.729	24.4
338.942	83.8
339.154	-2.22
339.367	3.93
339.579	32.6
339.792	122.71
340.004	36.69
340.217	12.12
340.429	61.27
340.641	24.4
340.854	-16.55
341.066	-30.89
341.278	75.6
341.491	55.12
341.703	44.88
341.915	10.07
342.128	51.03
342.34	48.98
342.552	67.41
342.764	-8.36
342.977	28.5
343.189	34.64
343.401	14.17
343.613	32.6
343.826	77.65
344.038	-4.27
344.25	-10.41
344.462	26.45
344.674	-12.46
344.886	-28.84
345.099	18.26
345.311	65.36
345.523	81.75
345.735	8.02
345.947	81.75
346.159	94.04
346.371	53.08
346.583	24.4
346.795	67.41
347.007	26.45
347.219	18.26
347.431	-24.75
347.643	157.52
347.855	-2.22
348.067	143.19
348.279	-32.94
348.491	46.93
348.703	51.03
348.915	-32.94
349.127	28.5
349.339	63.32
349.551	-10.41
349.763	40.79
349.975	28.5
350.187	89.94
350.399	102.23
350.61	59.22
350.822	32.6
351.034	81.75
351.246	34.64
351.458	44.88
351.669	114.52
351.881	100.18
352.093	20.31
352.305	30.55
352.517	30.55
352.728	102.23
352.94	3.93
353.152	46.93
353.363	24.4
353.575	65.36
353.787	-0.17
353.999	3.93
354.21	75.6
354.422	40.79
354.633	3.93
354.845	28.5
355.057	28.5
355.268	67.41
355.48	53.08
355.692	24.4
355.903	40.79
356.115	28.5
356.326	18.26
356.538	124.76
356.749	12.12
356.961	77.65
357.172	-86.19
357.384	12.12
357.595	91.99
357.807	48.98
358.018	69.46
358.23	75.6
358.441	16.21
358.653	137.04
358.864	-6.31
359.075	-32.94
359.287	26.45
359.498	48.98
359.709	55.12
359.921	73.56
360.132	40.79
360.344	18.26
360.555	20.31
360.766	81.75
360.977	20.31
361.189	94.04
361.4	36.69
361.611	40.79
361.823	110.42
362.034	34.64
362.245	-12.46
362.456	-14.51
362.667	-22.7
362.879	44.88
363.09	32.6
363.301	59.22
363.512	79.7
363.723	135
363.935	51.03
364.146	94.04
364.357	20.31
364.568	63.32
364.779	10.07
364.99	53.08
365.201	14.17
365.412	57.17
365.623	51.03
365.834	22.36
366.045	53.08
366.256	28.5
366.467	28.5
366.678	57.17
366.889	67.41
367.1	83.8
367.311	10.07
367.522	-10.41
367.733	75.6
367.944	24.4
368.155	28.5
368.366	53.08
368.577	18.26
368.788	94.04
368.999	42.84
369.209	85.84
369.42	91.99
369.631	110.42
369.842	59.22
370.053	3.93
370.264	51.03
370.474	16.21
370.685	61.27
370.896	-53.42
371.107	65.36
371.317	61.27
371.528	32.6
371.739	3.93
371.95	116.56
372.16	61.27
372.371	-32.94
372.582	10.07
372.792	34.64
373.003	22.36
373.214	51.03
373.424	40.79
373.635	53.08
373.846	48.98
374.056	10.07
374.267	61.27
374.477	102.23
374.688	42.84
374.898	55.12
375.109	57.17
375.319	-47.27
375.53	87.89
375.74	-0.17
375.951	44.88
376.161	16.21
376.372	94.04
376.582	-14.51
376.793	24.4
377.003	24.4
377.214	44.88
377.424	102.23
377.635	108.37
377.845	-30.89
378.055	14.17
378.266	-16.55
378.476	-47.27
378.686	81.75
378.897	34.64
379.107	-20.65
379.317	77.65
379.528	-55.47
379.738	48.98
379.948	46.93
380.158	102.23
380.369	42.84
380.579	63.32
380.789	28.5
380.999	8.02
381.21	-6.31
381.42	151.38
381.63	-37.03
381.84	10.07
382.05	116.56
382.261	85.84
382.471	65.36
382.681	-69.8
382.891	104.28
383.101	118.61
383.311	-28.84
383.521	18.26
383.731	83.8
383.941	8.02
384.151	57.17
384.361	100.18
384.571	34.64
384.781	153.43
384.991	53.08
385.201	96.08
385.411	-4.27
385.621	12.12
385.831	42.84
386.041	1.88
386.251	-4.27
386.461	67.41
386.671	20.31
386.881	20.31
387.091	61.27
387.301	159.57
387.511	26.45
387.72	28.5
387.93	85.84
388.14	40.79
388.35	53.08
388.56	85.84
388.769	75.6
388.979	69.46
389.189	44.88
389.399	69.46
389.609	110.42
389.818	61.27
390.028	61.27
390.238	26.45
390.447	91.99
390.657	145.24
390.867	28.5
391.076	26.45
391.286	65.36
391.496	42.84
391.705	61.27
391.915	44.88
392.125	122.71
392.334	75.6
392.544	147.28
392.753	53.08
392.963	3.93
393.172	67.41
393.382	-12.46
393.591	122.71
393.801	114.52
394.01	200.53
394.22	114.52
394.429	85.84
394.639	-43.18
394.848	126.8
395.058	8.02
395.267	-20.65
395.477	116.56
395.686	135
395.895	143.19
396.105	77.65
396.314	26.45
396.524	53.08
396.733	75.6
396.942	139.09
397.152	141.14
397.361	118.61
397.57	98.13
397.78	63.32
397.989	36.69
398.198	112.47
398.407	85.84
398.617	87.89
398.826	67.41
399.035	122.71
399.244	110.42
399.453	85.84
399.663	83.8
399.872	196.43
400.081	102.23
400.29	182.1
400.499	40.79
400.708	124.76
400.917	40.79
401.127	94.04
401.336	53.08
401.545	153.43
401.754	159.57
401.963	61.27
402.172	100.18
402.381	36.69
402.59	59.22
402.799	126.8
403.008	200.53
403.217	63.32
403.426	89.94
403.635	75.6
403.844	85.84
404.053	132.95
404.262	112.47
404.471	157.52
404.68	118.61
404.888	102.23
405.097	143.19
405.306	96.08
405.515	36.69
405.724	118.61
405.933	143.19
406.142	118.61
406.35	87.89
406.559	145.24
406.768	198.48
406.977	188.24
407.185	264.02
407.394	184.15
407.603	175.95
407.812	196.43
408.02	245.59
408.229	169.81
408.438	200.53
408.646	231.25
408.855	155.47
409.064	231.25
409.272	255.83
409.481	208.72
409.69	266.07
409.898	216.91
410.107	175.95
410.315	313.17
410.524	253.78
410.733	313.17
410.941	350.03
411.15	294.74
411.358	282.45
411.567	331.6
411.775	339.79
411.984	280.4
412.192	434
412.401	370.51
412.609	370.51
412.818	448.33
413.026	470.86
413.234	419.66
413.443	427.85
413.651	493.39
413.86	507.73
414.068	620.36
414.276	477.01
414.485	583.5
414.693	599.88
414.901	563.02
415.11	624.46
415.318	608.08
415.526	663.37
415.734	706.38
415.943	644.94
416.151	708.43
416.359	714.57
416.567	728.91
416.776	823.11
416.984	833.35
417.192	909.13
417.4	778.06
417.608	882.5
417.817	814.92
418.025	972.61
418.233	941.89
418.441	925.51
418.649	966.47
418.857	1083.2
419.065	1156.93
419.273	1064.77
419.481	1142.6
419.689	1175.36
419.897	1216.32
420.105	1236.8
420.313	1353.54
420.521	1369.92
420.729	1400.64
420.937	1347.39
421.145	1404.74
421.353	1632.06
421.561	1636.16
421.769	1589.05
421.977	1754.94
422.185	1795.9
422.393	1867.58
422.601	1896.25
422.809	1908.54
423.017	1943.35
423.224	1945.4
423.432	2125.62
423.64	2109.24
423.848	2246.45
424.056	2207.54
424.263	2322.23
424.471	2318.13
424.679	2463.54
424.887	2516.78
425.094	2606.89
425.302	2619.18
425.51	2733.87
425.718	2737.96
425.925	2832.17
426.133	2901.8
426.341	3338.02
426.548	3286.82
426.756	3233.57
426.964	3370.79
427.171	3471.14
427.379	3598.11
427.586	3598.11
427.794	3866.39
428.001	3835.67
428.209	4112.15
428.417	4144.92
428.624	4333.33
428.832	4302.61
429.039	4407.06
429.247	4226.84
429.454	4779.79
429.662	5037.83
429.869	4742.92
430.076	4951.82
430.284	4859.66
430.491	5117.7
430.699	5445.38
430.906	5508.87
431.114	5572.35
431.321	5803.77
431.528	5857.02
431.736	6139.64
431.943	6403.83
432.15	6151.93
432.358	6274.81
432.565	6780.65
432.772	6614.77
432.979	6774.51
433.187	7030.51
433.394	7196.39
433.601	7802.59
433.808	7532.26
434.016	7524.07
434.223	7855.84
434.43	8478.42
434.637	8244.95
434.844	8873.68
435.052	8941.26
435.259	8892.11
435.466	8859.34
435.673	8838.86
435.88	9545.41
436.087	10022.59
436.294	10030.78
436.501	9801.41
436.708	9758.4
436.915	10249.91
437.122	10772.14
437.329	10706.61
437.537	10995.37
437.743	11337.38
437.95	11267.75
438.157	11587.24
438.364	12117.66
438.571	12177.05
438.778	12232.35
438.985	13217.42
439.192	12818.07
439.399	13409.93
439.606	12801.68
439.813	13725.32
440.02	14259.84
440.227	14323.32
440.433	14044.8
440.64	14794.36
440.847	14386.81
441.054	14642.81
441.261	15871.59
441.467	15523.43
441.674	16035.42
441.881	16391.77
442.088	16502.36
442.294	16309.85
442.501	16744.02
442.708	17032.79
442.914	17804.87
443.121	18683.45
443.328	18234.94
443.534	19334.7
443.741	18892.34
443.948	18421.31
444.154	19820.07
444.361	19922.47
444.568	20033.06
444.774	19885.61
444.981	20194.85
445.187	20741.66
445.394	21472.78
445.6	21450.25
445.807	23467.5
446.013	22136.32
446.22	22730.23
446.426	23496.17
446.633	23961.06
446.839	24647.13
447.046	23627.24
447.252	25011.67
447.459	24690.14
447.665	25073.11
447.871	25773.52
448.078	27311.54
448.284	25877.96
448.491	26252.74
448.697	27745.71
448.903	28263.85
449.11	28175.78
449.316	27698.61
449.522	28300.71
449.728	28935.58
449.935	28818.85
450.141	29054.36
450.347	29488.53
450.553	29078.94
450.76	29222.3
450.966	30174.6
451.172	29719.95
451.378	30553.48
451.584	29836.69
451.791	30741.89
451.997	30524.8
452.203	30901.63
452.409	30811.52
452.615	30733.7
452.821	29709.71
453.027	28751.26
453.233	31077.76
453.44	29506.96
453.646	29709.71
453.852	30186.89
454.058	30510.47
454.264	29480.34
454.47	30360.97
454.676	29322.65
454.882	30225.8
455.088	27780.53
455.294	28235.17
455.5	28466.59
455.705	28777.89
455.911	27749.81
456.117	26971.58
456.323	26944.95
456.529	25066.97
456.735	26547.65
456.941	25361.87
457.147	25572.82
457.352	24528.35
457.558	24444.38
457.764	24491.49
457.97	23723.5
458.176	23215.6
458.381	23150.07
458.587	22298.11
458.793	22068.74
458.999	20809.24
459.204	22214.15
459.41	21620.24
459.616	20284.96
459.821	20330.02
460.027	20157.99
460.233	19813.93
460.438	18949.68
460.644	19504.68
460.85	18404.92
461.055	17991.23
461.261	17956.42
461.466	16543.32
461.672	16135.78
461.878	17114.7
462.083	16119.39
462.289	15863.4
462.494	15642.21
462.7	14931.57
462.905	14487.16
463.111	14843.51
463.316	15064.69
463.522	14653.05
463.727	14802.55
463.932	14618.23
464.138	14376.57
464.343	14626.42
464.549	14149.25
464.754	14724.72
464.959	14386.81
465.165	14632.57
465.37	13692.55
465.575	13452.94
465.781	13692.55
465.986	13801.09
466.191	13753.99
466.397	13252.24
466.602	12480.15
466.807	13340.3
467.012	13110.93
467.218	13084.3
467.423	12889.74
467.628	13106.83
