Data from USB4F104151__96__11-32-14-801.txt Node

Date: Fri Mar 14 11:32:14 EDT 2025
User: louis
Spectrometer: USB4F10415
Trigger mode: 4
Integration Time (sec): 5.000000E-2
Scans to average: 1
Electric dark correction enabled: true
Nonlinearity correction enabled: false
Boxcar width: 0
XAxis mode: Wavelengths
Number of Pixels in Spectrum: 3648
>>>>>Begin Spectral Data<<<<<
178.204	-118.27
178.424	-118.27
178.644	-118.27
178.864	-175.61
179.084	-132.61
179.304	47.62
179.524	-40.45
179.744	35.33
179.964	-65.02
180.184	45.57
180.404	47.62
180.624	-46.59
180.844	-22.02
181.064	35.33
181.283	-26.11
181.503	-22.02
181.723	10.75
181.943	-114.17
182.163	102.91
182.383	-36.35
182.602	80.38
182.822	25.09
183.042	82.43
183.262	-30.21
183.482	6.66
183.701	-28.16
183.921	-1.54
184.141	-7.68
184.361	-17.92
184.58	-24.06
184.8	31.23
185.02	-7.68
185.239	37.38
185.459	53.76
185.679	115.2
185.898	47.62
186.118	94.72
186.338	-7.68
186.557	0.51
186.777	-60.93
186.997	33.28
187.216	-48.64
187.436	82.43
187.655	57.86
187.875	16.9
188.095	-19.97
188.314	96.77
188.534	96.77
188.753	-58.88
188.973	27.14
189.192	41.47
189.412	64
189.631	70.14
189.851	25.09
190.07	96.77
190.29	-71.17
190.509	14.85
190.729	55.81
190.948	53.76
191.168	188.93
191.387	80.38
191.607	47.62
191.826	-7.68
192.045	-79.36
192.265	64
192.484	27.14
192.704	-30.21
192.923	-26.11
193.142	33.28
193.362	57.86
193.581	139.77
193.8	23.04
194.02	53.76
194.239	25.09
194.458	47.62
194.678	61.95
194.897	41.47
195.116	-48.64
195.335	20.99
195.555	37.38
195.774	31.23
195.993	49.66
196.212	29.18
196.432	29.18
196.651	-26.11
196.87	25.09
197.089	139.77
197.308	98.81
197.528	0.51
197.747	-73.21
197.966	-38.4
198.185	64
198.404	29.18
198.623	59.9
198.842	23.04
199.062	88.57
199.281	113.15
199.5	12.8
199.719	-36.35
199.938	41.47
200.157	55.81
200.376	47.62
200.595	0.51
200.814	-24.06
201.033	-52.74
201.252	49.66
201.471	49.66
201.69	23.04
201.909	47.62
202.128	72.19
202.347	-28.16
202.566	16.9
202.785	-46.59
203.004	-42.5
203.223	70.14
203.442	-24.06
203.661	-56.83
203.879	74.24
204.098	102.91
204.317	-32.26
204.536	41.47
204.755	-1.54
204.974	12.8
205.193	29.18
205.411	39.42
205.63	23.04
205.849	78.33
206.068	-40.45
206.287	0.51
206.505	90.62
206.724	84.48
206.943	16.9
207.162	43.52
207.381	12.8
207.599	-7.68
207.818	-11.78
208.037	-19.97
208.255	66.05
208.474	80.38
208.693	6.66
208.911	-36.35
209.13	-7.68
209.349	45.57
209.567	-7.68
209.786	18.94
210.005	35.33
210.223	4.61
210.442	-28.16
210.661	57.86
210.879	45.57
211.098	37.38
211.316	-15.87
211.535	82.43
211.753	29.18
211.972	31.23
212.191	-17.92
212.409	55.81
212.628	53.76
212.846	23.04
213.065	-24.06
213.283	127.49
213.502	53.76
213.72	0.51
213.938	37.38
214.157	16.9
214.375	-46.59
214.594	31.23
214.812	41.47
215.031	33.28
215.249	23.04
215.467	61.95
215.686	113.15
215.904	98.81
216.122	55.81
216.341	127.49
216.559	-7.68
216.778	6.66
216.996	78.33
217.214	0.51
217.432	-28.16
217.651	2.56
217.869	-73.21
218.087	8.7
218.306	0.51
218.524	-5.63
218.742	41.47
218.96	31.23
219.179	-42.5
219.397	41.47
219.615	115.2
219.833	47.62
220.051	4.61
220.27	53.76
220.488	23.04
220.706	80.38
220.924	45.57
221.142	18.94
221.36	8.7
221.578	88.57
221.796	37.38
222.015	-62.98
222.233	-5.63
222.451	29.18
222.669	39.42
222.887	55.81
223.105	23.04
223.323	35.33
223.541	25.09
223.759	12.8
223.977	-22.02
224.195	94.72
224.413	12.8
224.631	-24.06
224.849	23.04
225.067	51.71
225.285	31.23
225.503	20.99
225.721	-40.45
225.939	-36.35
226.157	16.9
226.375	78.33
226.592	14.85
226.81	-15.87
227.028	98.81
227.246	80.38
227.464	-1.54
227.682	113.15
227.9	-42.5
228.117	78.33
228.335	-3.58
228.553	20.99
228.771	25.09
228.989	137.73
229.206	49.66
229.424	55.81
229.642	-34.3
229.86	45.57
230.077	82.43
230.295	70.14
230.513	82.43
230.731	61.95
230.948	113.15
231.166	55.81
231.384	-3.58
231.601	-103.93
231.819	55.81
232.037	16.9
232.254	-50.69
232.472	27.14
232.689	-24.06
232.907	61.95
233.125	33.28
233.342	-75.26
233.56	68.09
233.777	-1.54
233.995	-13.82
234.213	25.09
234.43	-24.06
234.648	-11.78
234.865	-32.26
235.083	-19.97
235.3	-52.74
235.518	57.86
235.735	10.75
235.953	25.09
236.17	-22.02
236.388	31.23
236.605	51.71
236.822	14.85
237.04	64
237.257	-44.54
237.475	8.7
237.692	45.57
237.909	-13.82
238.127	61.95
238.344	-3.58
238.562	-13.82
238.779	25.09
238.996	27.14
239.214	-36.35
239.431	66.05
239.648	-24.06
239.865	6.66
240.083	39.42
240.3	20.99
240.517	-36.35
240.735	72.19
240.952	16.9
241.169	2.56
241.386	-7.68
241.603	-77.31
241.821	-44.54
242.038	29.18
242.255	107.01
242.472	-24.06
242.689	8.7
242.907	74.24
243.124	-15.87
243.341	31.23
243.558	-15.87
243.775	20.99
243.992	-75.26
244.209	74.24
244.426	139.77
244.643	6.66
244.86	-48.64
245.078	35.33
245.295	88.57
245.512	-3.58
245.729	-34.3
245.946	57.86
246.163	0.51
246.38	39.42
246.597	57.86
246.814	23.04
247.031	-17.92
247.248	12.8
247.464	49.66
247.681	41.47
247.898	37.38
248.115	37.38
248.332	-24.06
248.549	-46.59
248.766	111.1
248.983	53.76
249.2	82.43
249.417	33.28
249.633	-58.88
249.85	12.8
250.067	20.99
250.284	-19.97
250.501	20.99
250.717	18.94
250.934	-89.6
251.151	-1.54
251.368	33.28
251.585	-71.17
251.801	51.71
252.018	-30.21
252.235	-1.54
252.451	-17.92
252.668	35.33
252.885	37.38
253.102	78.33
253.318	2.56
253.535	-7.68
253.752	107.01
253.968	-40.45
254.185	47.62
254.401	0.51
254.618	8.7
254.835	23.04
255.051	68.09
255.268	18.94
255.484	-22.02
255.701	29.18
255.917	12.8
256.134	20.99
256.351	31.23
256.567	-17.92
256.784	-22.02
257	-32.26
257.217	16.9
257.433	98.81
257.65	18.94
257.866	31.23
258.082	25.09
258.299	-32.26
258.515	33.28
258.732	-40.45
258.948	47.62
259.165	20.99
259.381	-56.83
259.597	70.14
259.814	8.7
260.03	0.51
260.246	43.52
260.463	37.38
260.679	-15.87
260.895	8.7
261.112	78.33
261.328	59.9
261.544	-19.97
261.761	82.43
261.977	-28.16
262.193	-40.45
262.409	104.96
262.626	16.9
262.842	8.7
263.058	16.9
263.274	10.75
263.49	84.48
263.707	6.66
263.923	10.75
264.139	-9.73
264.355	-3.58
264.571	109.05
264.787	-48.64
265.004	115.2
265.22	25.09
265.436	33.28
265.652	0.51
265.868	45.57
266.084	66.05
266.3	82.43
266.516	-44.54
266.732	14.85
266.948	53.76
267.164	-7.68
267.38	16.9
267.596	64
267.812	57.86
268.028	31.23
268.244	-75.26
268.46	74.24
268.676	2.56
268.892	12.8
269.108	-15.87
269.324	53.76
269.54	-44.54
269.756	74.24
269.972	-26.11
270.188	-5.63
270.403	-73.21
270.619	37.38
270.835	33.28
271.051	-15.87
271.267	14.85
271.483	-42.5
271.698	84.48
271.914	39.42
272.13	33.28
272.346	35.33
272.562	-19.97
272.777	88.57
272.993	18.94
273.209	-138.75
273.425	45.57
273.64	14.85
273.856	55.81
274.072	29.18
274.287	-44.54
274.503	-5.63
274.719	12.8
274.934	57.86
275.15	-28.16
275.366	0.51
275.581	8.7
275.797	72.19
276.012	41.47
276.228	-52.74
276.444	16.9
276.659	49.66
276.875	-48.64
277.09	96.77
277.306	23.04
277.521	29.18
277.737	39.42
277.952	-1.54
278.168	16.9
278.383	72.19
278.599	-40.45
278.814	121.34
279.03	64
279.245	14.85
279.461	4.61
279.676	33.28
279.892	31.23
280.107	-11.78
280.322	-38.4
280.538	88.57
280.753	-48.64
280.969	10.75
281.184	6.66
281.399	39.42
281.615	49.66
281.83	-3.58
282.045	-91.65
282.26	16.9
282.476	8.7
282.691	47.62
282.906	23.04
283.122	41.47
283.337	70.14
283.552	43.52
283.767	20.99
283.983	45.57
284.198	-28.16
284.413	-3.58
284.628	0.51
284.843	47.62
285.058	0.51
285.274	-13.82
285.489	4.61
285.704	57.86
285.919	4.61
286.134	41.47
286.349	45.57
286.564	-15.87
286.779	98.81
286.995	39.42
287.21	-126.46
287.425	35.33
287.64	0.51
287.855	-1.54
288.07	-15.87
288.285	78.33
288.5	107.01
288.715	20.99
288.93	57.86
289.145	33.28
289.36	45.57
289.575	59.9
289.79	55.81
290.004	-17.92
290.219	-13.82
290.434	59.9
290.649	35.33
290.864	45.57
291.079	64
291.294	39.42
291.509	-17.92
291.724	20.99
291.938	12.8
292.153	20.99
292.368	-7.68
292.583	-40.45
292.798	29.18
293.012	55.81
293.227	18.94
293.442	-42.5
293.657	27.14
293.871	0.51
294.086	53.76
294.301	100.86
294.516	41.47
294.73	86.53
294.945	-19.97
295.16	-50.69
295.374	33.28
295.589	61.95
295.804	4.61
296.018	47.62
296.233	115.2
296.447	37.38
296.662	-5.63
296.877	82.43
297.091	33.28
297.306	-17.92
297.52	-1.54
297.735	27.14
297.949	127.49
298.164	14.85
298.378	45.57
298.593	23.04
298.807	-9.73
299.022	23.04
299.236	0.51
299.451	-44.54
299.665	8.7
299.88	18.94
300.094	12.8
300.309	31.23
300.523	8.7
300.737	37.38
300.952	80.38
301.166	-32.26
301.381	4.61
301.595	-65.02
301.809	25.09
302.024	-32.26
302.238	-15.87
302.452	59.9
302.667	-11.78
302.881	64
303.095	33.28
303.309	55.81
303.524	-87.55
303.738	64
303.952	-15.87
304.166	84.48
304.381	-60.93
304.595	39.42
304.809	0.51
305.023	14.85
305.237	-3.58
305.452	18.94
305.666	66.05
305.88	43.52
306.094	25.09
306.308	-36.35
306.522	107.01
306.736	2.56
306.95	-3.58
307.164	-11.78
307.379	-3.58
307.593	41.47
307.807	55.81
308.021	72.19
308.235	20.99
308.449	66.05
308.663	-32.26
308.877	80.38
309.091	37.38
309.305	53.76
309.519	-17.92
309.733	100.86
309.947	-13.82
310.161	25.09
310.374	35.33
310.588	74.24
310.802	-36.35
311.016	6.66
311.23	39.42
311.444	80.38
311.658	49.66
311.872	57.86
312.085	49.66
312.299	-42.5
312.513	82.43
312.727	0.51
312.941	16.9
313.154	102.91
313.368	57.86
313.582	39.42
313.796	6.66
314.009	-9.73
314.223	33.28
314.437	25.09
314.651	55.81
314.864	4.61
315.078	6.66
315.292	-26.11
315.505	-3.58
315.719	31.23
315.933	41.47
316.146	16.9
316.36	23.04
316.573	86.53
316.787	57.86
317.001	47.62
317.214	16.9
317.428	61.95
317.641	-19.97
317.855	-48.64
318.068	53.76
318.282	-1.54
318.495	113.15
318.709	33.28
318.922	-26.11
319.136	102.91
319.349	133.63
319.563	-15.87
319.776	47.62
319.99	-65.02
320.203	98.81
320.417	18.94
320.63	74.24
320.843	107.01
321.057	14.85
321.27	29.18
321.483	86.53
321.697	92.67
321.91	-75.26
322.124	16.9
322.337	8.7
322.55	10.75
322.763	6.66
322.977	29.18
323.19	2.56
323.403	-7.68
323.617	-26.11
323.83	61.95
324.043	66.05
324.256	37.38
324.469	0.51
324.683	121.34
324.896	47.62
325.109	49.66
325.322	0.51
325.535	31.23
325.748	35.33
325.962	31.23
326.175	8.7
326.388	41.47
326.601	20.99
326.814	0.51
327.027	49.66
327.24	45.57
327.453	-73.21
327.666	35.33
327.879	8.7
328.092	111.1
328.305	49.66
328.518	-75.26
328.731	-71.17
328.944	4.61
329.157	-5.63
329.37	8.7
329.583	8.7
329.796	29.18
330.009	-15.87
330.222	33.28
330.435	-19.97
330.648	33.28
330.861	14.85
331.073	51.71
331.286	88.57
331.499	90.62
331.712	-15.87
331.925	-19.97
332.138	29.18
332.35	70.14
332.563	-50.69
332.776	102.91
332.989	8.7
333.202	-48.64
333.414	-5.63
333.627	20.99
333.84	66.05
334.053	64
334.265	66.05
334.478	6.66
334.691	2.56
334.903	41.47
335.116	-26.11
335.329	2.56
335.541	-11.78
335.754	49.66
335.966	31.23
336.179	20.99
336.392	6.66
336.604	41.47
336.817	96.77
337.029	61.95
337.242	31.23
337.454	16.9
337.667	-65.02
337.88	119.29
338.092	31.23
338.305	47.62
338.517	35.33
338.729	20.99
338.942	61.95
339.154	49.66
339.367	-15.87
339.579	102.91
339.792	8.7
340.004	74.24
340.217	43.52
340.429	16.9
340.641	-28.16
340.854	-9.73
341.066	-28.16
341.278	57.86
341.491	88.57
341.703	23.04
341.915	-24.06
342.128	-46.59
342.34	82.43
342.552	-36.35
342.764	8.7
342.977	-13.82
343.189	-5.63
343.401	-30.21
343.613	-69.12
343.826	49.66
344.038	45.57
344.25	23.04
344.462	-81.41
344.674	0.51
344.886	41.47
345.099	-24.06
345.311	90.62
345.523	14.85
345.735	-54.78
345.947	66.05
346.159	39.42
346.371	29.18
346.583	-11.78
346.795	170.49
347.007	61.95
347.219	47.62
347.431	-19.97
347.643	94.72
347.855	-30.21
348.067	90.62
348.279	-32.26
348.491	57.86
348.703	104.96
348.915	-17.92
349.127	10.75
349.339	-9.73
349.551	59.9
349.763	119.29
349.975	57.86
350.187	31.23
350.399	49.66
350.61	-26.11
350.822	-42.5
351.034	49.66
351.246	12.8
351.458	61.95
351.669	-54.78
351.881	49.66
352.093	31.23
352.305	76.29
352.517	-75.26
352.728	84.48
352.94	35.33
353.152	12.8
353.363	70.14
353.575	12.8
353.787	39.42
353.999	18.94
354.21	51.71
354.422	47.62
354.633	55.81
354.845	47.62
355.057	8.7
355.268	33.28
355.48	57.86
355.692	45.57
355.903	-99.84
356.115	-15.87
356.326	-26.11
356.538	0.51
356.749	33.28
356.961	37.38
357.172	-1.54
357.384	20.99
357.595	57.86
357.807	18.94
358.018	29.18
358.23	-17.92
358.441	98.81
358.653	35.33
358.864	57.86
359.075	12.8
359.287	98.81
359.498	-7.68
359.709	100.86
359.921	49.66
360.132	82.43
360.344	14.85
360.555	14.85
360.766	-1.54
360.977	-17.92
361.189	88.57
361.4	-3.58
361.611	37.38
361.823	94.72
362.034	16.9
362.245	-48.64
362.456	66.05
362.667	41.47
362.879	-17.92
363.09	55.81
363.301	53.76
363.512	-11.78
363.723	25.09
363.935	-5.63
364.146	90.62
364.357	-17.92
364.568	-9.73
364.779	-28.16
364.99	78.33
365.201	4.61
365.412	119.29
365.623	-15.87
365.834	-13.82
366.045	96.77
366.256	37.38
366.467	14.85
366.678	78.33
366.889	-1.54
367.1	-48.64
367.311	64
367.522	-1.54
367.733	33.28
367.944	78.33
368.155	-7.68
368.366	33.28
368.577	10.75
368.788	55.81
368.999	66.05
369.209	49.66
369.42	29.18
369.631	170.49
369.842	-48.64
370.053	66.05
370.264	102.91
370.474	25.09
370.685	98.81
370.896	-26.11
371.107	39.42
371.317	41.47
371.528	49.66
371.739	80.38
371.95	55.81
372.16	41.47
372.371	-24.06
372.582	-19.97
372.792	113.15
373.003	49.66
373.214	90.62
373.424	37.38
373.635	-26.11
373.846	61.95
374.056	16.9
374.267	31.23
374.477	70.14
374.688	-34.3
374.898	6.66
375.109	66.05
375.319	53.76
375.53	-15.87
375.74	41.47
375.951	55.81
376.161	27.14
376.372	76.29
376.582	-34.3
376.793	41.47
377.003	20.99
377.214	-40.45
377.424	53.76
377.635	80.38
377.845	61.95
378.055	102.91
378.266	-97.79
378.476	37.38
378.686	33.28
378.897	78.33
379.107	47.62
379.317	37.38
379.528	-1.54
379.738	66.05
379.948	29.18
380.158	25.09
380.369	33.28
380.579	64
380.789	41.47
380.999	49.66
381.21	33.28
381.42	98.81
381.63	64
381.84	29.18
382.05	20.99
382.261	82.43
382.471	31.23
382.681	31.23
382.891	88.57
383.101	70.14
383.311	-15.87
383.521	115.2
383.731	25.09
383.941	31.23
384.151	61.95
384.361	61.95
384.571	20.99
384.781	64
384.991	123.39
385.201	113.15
385.411	53.76
385.621	4.61
385.831	0.51
386.041	41.47
386.251	78.33
386.461	70.14
386.671	49.66
386.881	88.57
387.091	45.57
387.301	-34.3
387.511	4.61
387.72	6.66
387.93	20.99
388.14	27.14
388.35	6.66
388.56	92.67
388.769	195.07
388.979	66.05
389.189	-32.26
389.399	41.47
389.609	74.24
389.818	45.57
390.028	80.38
390.238	33.28
390.447	-34.3
390.657	123.39
390.867	66.05
391.076	-75.26
391.286	82.43
391.496	16.9
391.705	98.81
391.915	-3.58
392.125	70.14
392.334	70.14
392.544	121.34
392.753	49.66
392.963	78.33
393.172	45.57
393.382	-7.68
393.591	74.24
393.801	33.28
394.01	82.43
394.22	119.29
394.429	12.8
394.639	33.28
394.848	107.01
395.058	90.62
395.267	55.81
395.477	57.86
395.686	51.71
395.895	104.96
396.105	107.01
396.314	137.73
396.524	25.09
396.733	-1.54
396.942	61.95
397.152	86.53
397.361	107.01
397.57	66.05
397.78	25.09
397.989	82.43
398.198	115.2
398.407	16.9
398.617	143.87
398.826	57.86
399.035	98.81
399.244	80.38
399.453	94.72
399.663	78.33
399.872	45.57
400.081	57.86
400.29	53.76
400.499	18.94
400.708	74.24
400.917	12.8
401.127	45.57
401.336	82.43
401.545	98.81
401.754	168.45
401.963	166.4
402.172	4.61
402.381	27.14
402.59	51.71
402.799	82.43
403.008	41.47
403.217	147.97
403.426	98.81
403.635	64
403.844	41.47
404.053	104.96
404.262	-52.74
404.471	127.49
404.68	109.05
404.888	100.86
405.097	127.49
405.306	90.62
405.515	139.77
405.724	152.06
405.933	86.53
406.142	154.11
406.35	82.43
406.559	180.73
406.768	92.67
406.977	123.39
407.185	86.53
407.394	145.92
407.603	152.06
407.812	119.29
408.02	143.87
408.229	145.92
408.438	217.6
408.646	166.4
408.855	205.31
409.064	139.77
409.272	178.69
409.481	211.45
409.69	170.49
409.898	150.01
410.107	203.26
410.315	291.32
410.524	207.36
410.733	264.7
410.941	184.83
411.15	213.5
411.358	293.37
411.567	250.36
411.775	225.79
411.984	324.09
412.192	256.51
412.401	328.19
412.609	363
412.818	430.59
413.026	336.38
413.234	418.3
413.443	334.33
413.651	371.19
413.86	408.06
414.068	498.17
414.276	485.88
414.485	344.57
414.693	469.5
414.901	514.55
415.11	477.69
415.318	451.07
415.526	535.03
415.734	459.26
415.943	541.18
416.151	514.55
416.359	580.09
416.567	530.94
416.776	711.16
416.984	627.19
417.192	725.49
417.4	760.31
417.608	821.75
417.817	696.82
418.025	768.5
418.233	850.42
418.441	786.93
418.649	776.69
418.857	940.53
419.065	922.1
419.273	842.23
419.481	889.33
419.689	1047.02
419.897	1044.98
420.105	1114.61
420.313	1053.17
420.521	1063.41
420.729	1221.1
420.937	1161.71
421.145	1251.82
421.353	1253.87
421.561	1364.46
421.769	1417.71
421.977	1456.62
422.185	1483.24
422.393	1491.43
422.601	1647.08
422.809	1597.93
423.017	1663.46
423.224	1688.04
423.432	1657.32
423.64	1755.62
423.848	1950.18
424.056	1882.6
424.263	2064.86
424.471	1917.41
424.679	2036.19
424.887	2132.45
425.094	2204.13
425.302	2306.52
425.51	2343.39
425.718	2408.92
425.925	2380.25
426.133	2386.4
426.341	2699.73
426.548	2677.21
426.756	2791.89
426.964	2798.04
427.171	2898.39
427.379	2976.21
427.586	3072.47
427.794	3178.96
428.001	3357.13
428.209	3367.37
428.417	3463.63
428.624	3547.59
428.832	3559.88
429.039	3629.51
429.247	3488.2
429.454	3989.96
429.662	4282.81
429.869	4059.59
430.076	4168.13
430.284	4123.07
430.491	4301.25
430.699	4620.73
430.906	4512.19
431.114	4645.31
431.321	4772.28
431.528	4790.71
431.736	5206.45
431.943	5382.57
432.15	5345.71
432.358	5300.66
432.565	5628.33
432.772	5546.41
432.979	5882.28
433.187	6064.55
433.394	6027.68
433.601	6367.65
433.808	6373.79
434.016	6463.9
434.223	6740.38
434.43	7094.68
434.637	6943.13
434.844	7233.94
435.052	7446.93
435.259	7346.58
435.466	7487.89
435.673	7414.16
435.88	8053.13
436.087	8319.36
436.294	8268.16
436.501	8102.28
436.708	8444.29
436.915	8642.94
437.122	9070.97
437.329	8888.7
437.537	9300.34
437.743	9419.12
437.95	9451.89
438.157	9685.36
438.364	10148.2
438.571	10215.78
438.778	10250.6
438.985	11188.57
439.192	10623.33
439.399	10873.18
439.606	10809.69
439.813	11211.09
440.02	12155.21
440.227	11843.92
440.433	11802.96
440.64	12216.65
440.847	11960.65
441.054	12081.48
441.261	13187.38
441.467	13007.16
441.674	13308.21
441.881	13789.49
442.088	13513.01
442.294	13394.23
442.501	13998.38
442.708	14397.73
442.914	14639.39
443.121	15436.05
443.328	14776.61
443.534	16103.69
443.741	15491.35
443.948	15194.39
444.154	16402.69
444.361	16396.55
444.568	16580.87
444.774	16609.54
444.981	16926.97
445.187	17334.52
445.394	18086.12
445.6	17545.46
445.807	19431.64
446.013	18395.37
446.22	19020
446.426	19407.06
446.633	19925.2
446.839	20275.4
447.046	19812.56
447.252	20693.19
447.459	20953.28
447.665	20775.11
447.871	21620.92
448.078	22440.11
448.284	21452.98
448.491	22284.46
448.697	23042.21
448.903	23036.06
449.11	23285.92
449.316	23183.52
449.522	23478.43
449.728	24019.09
449.935	24248.46
450.141	24318.09
450.347	24682.63
450.553	23924.88
450.76	24029.33
450.966	24823.94
451.172	24508.55
451.378	25110.66
451.584	24780.93
451.791	25464.96
451.997	25331.84
452.203	25839.73
452.409	25694.33
452.615	25497.72
452.821	24819.85
453.027	24354.96
453.233	25864.31
453.44	24653.96
453.646	24809.61
453.852	24932.48
454.058	25202.82
454.264	24225.93
454.47	25063.55
454.676	24324.24
454.882	25602.17
455.088	23142.56
455.294	23441.56
455.5	23537.82
455.705	23845.01
455.911	22915.23
456.117	22649
456.323	22139.05
456.529	21240
456.735	22220.97
456.941	21334.2
457.147	21100.73
457.352	20484.3
457.558	20259.02
457.764	20400.33
457.97	19996.88
458.176	19605.72
458.381	19437.78
458.587	18446.57
458.793	18452.71
458.999	17430.77
459.204	18671.84
459.41	18161.9
459.616	16802.05
459.821	17062.14
460.027	16810.24
460.233	16515.33
460.438	15833.36
460.644	15892.75
460.85	15270.17
461.055	14967.07
461.261	14872.86
461.466	13857.07
461.672	13340.98
461.878	14090.54
462.083	13383.99
462.289	13228.34
462.494	13037.88
462.7	12335.43
462.905	12224.84
463.111	12603.71
463.316	12589.38
463.522	12546.37
463.727	12255.56
463.932	12194.12
464.138	12095.82
464.343	11964.75
464.549	11835.72
464.754	12497.22
464.959	12034.38
465.165	12054.86
465.37	11303.25
465.575	11133.27
465.781	11620.69
465.986	11577.68
466.191	11344.21
466.397	11039.06
466.602	10699.1
466.807	10981.72
467.012	10930.52
467.218	10893.66
467.423	10955.1
467.628	10807.64
