Data from USB4F104151__74__11-31-36-904.txt Node

Date: Fri Mar 14 11:31:36 EDT 2025
User: louis
Spectrometer: USB4F10415
Trigger mode: 4
Integration Time (sec): 5.000000E-2
Scans to average: 1
Electric dark correction enabled: true
Nonlinearity correction enabled: false
Boxcar width: 0
XAxis mode: Wavelengths
Number of Pixels in Spectrum: 3648
>>>>>Begin Spectral Data<<<<<
178.204	-145.41
178.424	-145.41
178.644	-145.41
178.864	-188.41
179.084	-135.17
179.304	6.14
179.524	12.29
179.744	-16.38
179.964	34.82
180.184	-32.77
180.404	55.3
180.624	-28.67
180.844	-2.05
181.064	-20.48
181.283	-22.53
181.503	-28.67
181.723	43.01
181.943	-83.97
182.163	94.21
182.383	-2.05
182.602	96.25
182.822	81.92
183.042	28.67
183.262	-34.82
183.482	34.82
183.701	34.82
183.921	36.86
184.141	14.34
184.361	49.15
184.58	18.43
184.8	129.02
185.02	-10.24
185.239	104.45
185.459	-24.58
185.679	135.17
185.898	-30.72
186.118	57.34
186.338	69.63
186.557	83.97
186.777	22.53
186.997	47.1
187.216	-30.72
187.436	49.15
187.655	30.72
187.875	4.1
188.095	20.48
188.314	59.39
188.534	135.17
188.753	-2.05
188.973	-24.58
189.192	79.87
189.412	30.72
189.631	67.58
189.851	20.48
190.07	96.25
190.29	-30.72
190.509	63.49
190.729	6.14
190.948	86.01
191.168	61.44
191.387	79.87
191.607	-22.53
191.826	-34.82
192.045	47.1
192.265	28.67
192.484	67.58
192.704	30.72
192.923	-22.53
193.142	116.73
193.362	69.63
193.581	67.58
193.8	14.34
194.02	116.73
194.239	4.1
194.458	-4.1
194.678	22.53
194.897	43.01
195.116	51.2
195.335	-22.53
195.555	-14.34
195.774	4.1
195.993	38.91
196.212	26.62
196.432	8.19
196.651	6.14
196.87	47.1
197.089	129.02
197.308	20.48
197.528	69.63
197.747	10.24
197.966	49.15
198.185	106.49
198.404	28.67
198.623	133.12
198.842	116.73
199.062	145.41
199.281	47.1
199.5	116.73
199.719	16.38
199.938	63.49
200.157	59.39
200.376	51.2
200.595	-2.05
200.814	83.97
201.033	112.64
201.252	75.77
201.471	38.91
201.69	83.97
201.909	120.83
202.128	104.45
202.347	61.44
202.566	22.53
202.785	40.96
203.004	38.91
203.223	47.1
203.442	6.14
203.661	-20.48
203.879	61.44
204.098	102.4
204.317	12.29
204.536	79.87
204.755	30.72
204.974	36.86
205.193	104.45
205.411	110.59
205.63	22.53
205.849	94.21
206.068	38.91
206.287	-36.86
206.505	34.82
206.724	32.77
206.943	-16.38
207.162	-6.14
207.381	-20.48
207.599	-6.14
207.818	67.58
208.037	49.15
208.255	20.48
208.474	81.92
208.693	2.05
208.911	34.82
209.13	63.49
209.349	104.45
209.567	36.86
209.786	34.82
210.005	30.72
210.223	-28.67
210.442	-0
210.661	32.77
210.879	-4.1
211.098	77.82
211.316	61.44
211.535	55.3
211.753	14.34
211.972	47.1
212.191	22.53
212.409	28.67
212.628	83.97
212.846	51.2
213.065	61.44
213.283	116.73
213.502	30.72
213.72	65.53
213.938	63.49
214.157	69.63
214.375	36.86
214.594	6.14
214.812	100.35
215.031	18.43
215.249	-67.58
215.467	63.49
215.686	10.24
215.904	61.44
216.122	71.68
216.341	112.64
216.559	53.25
216.778	139.26
216.996	61.44
217.214	75.77
217.432	43.01
217.651	-10.24
217.869	36.86
218.087	96.25
218.306	-10.24
218.524	30.72
218.742	-43.01
218.96	90.11
219.179	6.14
219.397	6.14
219.615	79.87
219.833	51.2
220.051	8.19
220.27	157.69
220.488	38.91
220.706	51.2
220.924	24.58
221.142	61.44
221.36	-6.14
221.578	63.49
221.796	47.1
222.015	79.87
222.233	16.38
222.451	6.14
222.669	-30.72
222.887	18.43
223.105	51.2
223.323	49.15
223.541	14.34
223.759	24.58
223.977	24.58
224.195	118.78
224.413	159.74
224.631	30.72
224.849	71.68
225.067	108.54
225.285	14.34
225.503	47.1
225.721	-55.3
225.939	86.01
226.157	92.16
226.375	178.17
226.592	-10.24
226.81	79.87
227.028	79.87
227.246	124.93
227.464	14.34
227.682	86.01
227.9	28.67
228.117	49.15
228.335	112.64
228.553	36.86
228.771	28.67
228.989	20.48
229.206	12.29
229.424	-8.19
229.642	51.2
229.86	-22.53
230.077	71.68
230.295	-22.53
230.513	102.4
230.731	73.73
230.948	28.67
231.166	43.01
231.384	55.3
231.601	49.15
231.819	53.25
232.037	61.44
232.254	-10.24
232.472	32.77
232.689	75.77
232.907	112.64
233.125	8.19
233.342	88.06
233.56	92.16
233.777	10.24
233.995	38.91
234.213	18.43
234.43	36.86
234.648	75.77
234.865	92.16
235.083	45.06
235.3	-34.82
235.518	10.24
235.735	131.07
235.953	104.45
236.17	-32.77
236.388	8.19
236.605	30.72
236.822	67.58
237.04	77.82
237.257	38.91
237.475	63.49
237.692	45.06
237.909	83.97
238.127	-16.38
238.344	30.72
238.562	110.59
238.779	26.62
238.996	40.96
239.214	-51.2
239.431	51.2
239.648	-12.29
239.865	32.77
240.083	86.01
240.3	-43.01
240.517	34.82
240.735	34.82
240.952	10.24
241.169	55.3
241.386	59.39
241.603	38.91
241.821	-26.62
242.038	38.91
242.255	59.39
242.472	38.91
242.689	14.34
242.907	120.83
243.124	43.01
243.341	75.77
243.558	18.43
243.775	65.53
243.992	6.14
244.209	61.44
244.426	100.35
244.643	81.92
244.86	-34.82
245.078	90.11
245.295	71.68
245.512	43.01
245.729	32.77
245.946	-28.67
246.163	16.38
246.38	55.3
246.597	59.39
246.814	-14.34
247.031	-38.91
247.248	-92.16
247.464	18.43
247.681	-4.1
247.898	79.87
248.115	4.1
248.332	86.01
248.549	92.16
248.766	69.63
248.983	36.86
249.2	43.01
249.417	18.43
249.633	-2.05
249.85	83.97
250.067	-28.67
250.284	38.91
250.501	47.1
250.717	94.21
250.934	-92.16
251.151	88.06
251.368	36.86
251.585	63.49
251.801	45.06
252.018	61.44
252.235	83.97
252.451	34.82
252.668	-45.06
252.885	96.25
253.102	77.82
253.318	-0
253.535	10.24
253.752	22.53
253.968	34.82
254.185	36.86
254.401	43.01
254.618	67.58
254.835	30.72
255.051	36.86
255.268	45.06
255.484	67.58
255.701	71.68
255.917	45.06
256.134	63.49
256.351	32.77
256.567	12.29
256.784	43.01
257	-20.48
257.217	86.01
257.433	65.53
257.65	47.1
257.866	51.2
258.082	26.62
258.299	-88.06
258.515	-34.82
258.732	30.72
258.948	20.48
259.165	53.25
259.381	34.82
259.597	49.15
259.814	69.63
260.03	86.01
260.246	16.38
260.463	71.68
260.679	40.96
260.895	8.19
261.112	124.93
261.328	-0
261.544	18.43
261.761	153.6
261.977	30.72
262.193	-34.82
262.409	96.25
262.626	77.82
262.842	55.3
263.058	14.34
263.274	88.06
263.49	-59.39
263.707	102.4
263.923	38.91
264.139	-14.34
264.355	55.3
264.571	108.54
264.787	20.48
265.004	32.77
265.22	63.49
265.436	-4.1
265.652	36.86
265.868	26.62
266.084	2.05
266.3	51.2
266.516	38.91
266.732	83.97
266.948	71.68
267.164	81.92
267.38	30.72
267.596	30.72
267.812	65.53
268.028	63.49
268.244	79.87
268.46	-59.39
268.676	104.45
268.892	2.05
269.108	61.44
269.324	8.19
269.54	26.62
269.756	69.63
269.972	-26.62
270.188	34.82
270.403	22.53
270.619	79.87
270.835	28.67
271.051	67.58
271.267	24.58
271.483	14.34
271.698	73.73
271.914	8.19
272.13	83.97
272.346	-8.19
272.562	92.16
272.777	143.36
272.993	67.58
273.209	30.72
273.425	34.82
273.64	-26.62
273.856	20.48
274.072	-2.05
274.287	28.67
274.503	88.06
274.719	38.91
274.934	22.53
275.15	-63.49
275.366	34.82
275.581	40.96
275.797	30.72
276.012	-12.29
276.228	-12.29
276.444	55.3
276.659	83.97
276.875	10.24
277.09	126.97
277.306	6.14
277.521	73.73
277.737	-22.53
277.952	-6.14
278.168	55.3
278.383	59.39
278.599	67.58
278.814	116.73
279.03	6.14
279.245	63.49
279.461	-8.19
279.676	100.35
279.892	-26.62
280.107	14.34
280.322	2.05
280.538	38.91
280.753	55.3
280.969	-20.48
281.184	96.25
281.399	104.45
281.615	51.2
281.83	12.29
282.045	43.01
282.26	51.2
282.476	49.15
282.691	88.06
282.906	53.25
283.122	51.2
283.337	24.58
283.552	71.68
283.767	69.63
283.983	86.01
284.198	-2.05
284.413	69.63
284.628	-10.24
284.843	-18.43
285.058	43.01
285.274	86.01
285.489	8.19
285.704	104.45
285.919	55.3
286.134	100.35
286.349	24.58
286.564	30.72
286.779	4.1
286.995	-8.19
287.21	26.62
287.425	28.67
287.64	-8.19
287.855	137.21
288.07	-22.53
288.285	47.1
288.5	49.15
288.715	83.97
288.93	-38.91
289.145	38.91
289.36	100.35
289.575	-36.86
289.79	71.68
290.004	6.14
290.219	81.92
290.434	36.86
290.649	-55.3
290.864	16.38
291.079	24.58
291.294	55.3
291.509	83.97
291.724	18.43
291.938	61.44
292.153	47.1
292.368	53.25
292.583	26.62
292.798	118.78
293.012	55.3
293.227	77.82
293.442	49.15
293.657	86.01
293.871	90.11
294.086	14.34
294.301	129.02
294.516	104.45
294.73	83.97
294.945	-59.39
295.16	116.73
295.374	153.6
295.589	94.21
295.804	57.34
296.018	30.72
296.233	67.58
296.447	94.21
296.662	-20.48
296.877	20.48
297.091	20.48
297.306	49.15
297.52	24.58
297.735	98.3
297.949	12.29
298.164	-20.48
298.378	90.11
298.593	-16.38
298.807	24.58
299.022	47.1
299.236	79.87
299.451	28.67
299.665	43.01
299.88	45.06
300.094	34.82
300.309	43.01
300.523	59.39
300.737	57.34
300.952	4.1
301.166	79.87
301.381	63.49
301.595	-38.91
301.809	96.25
302.024	24.58
302.238	-18.43
302.452	18.43
302.667	34.82
302.881	51.2
303.095	34.82
303.309	38.91
303.524	45.06
303.738	18.43
303.952	-51.2
304.166	108.54
304.381	-10.24
304.595	110.59
304.809	67.58
305.023	38.91
305.237	-36.86
305.452	28.67
305.666	30.72
305.88	63.49
306.094	26.62
306.308	112.64
306.522	92.16
306.736	53.25
306.95	14.34
307.164	-2.05
307.379	14.34
307.593	137.21
307.807	143.36
308.021	75.77
308.235	71.68
308.449	18.43
308.663	30.72
308.877	79.87
309.091	59.39
309.305	79.87
309.519	-18.43
309.733	65.53
309.947	-51.2
310.161	63.49
310.374	86.01
310.588	129.02
310.802	38.91
311.016	34.82
311.23	133.12
311.444	34.82
311.658	18.43
311.872	116.73
312.085	36.86
312.299	112.64
312.513	100.35
312.727	-22.53
312.941	-10.24
313.154	51.2
313.368	24.58
313.582	10.24
313.796	30.72
314.009	2.05
314.223	88.06
314.437	112.64
314.651	110.59
314.864	38.91
315.078	2.05
315.292	28.67
315.505	47.1
315.719	77.82
315.933	-20.48
316.146	71.68
316.36	53.25
316.573	14.34
316.787	30.72
317.001	55.3
317.214	-12.29
317.428	110.59
317.641	18.43
317.855	92.16
318.068	30.72
318.282	47.1
318.495	34.82
318.709	65.53
318.922	12.29
319.136	116.73
319.349	55.3
319.563	14.34
319.776	28.67
319.99	51.2
320.203	110.59
320.417	-24.58
320.63	28.67
320.843	34.82
321.057	61.44
321.27	47.1
321.483	10.24
321.697	77.82
321.91	10.24
322.124	20.48
322.337	88.06
322.55	26.62
322.763	71.68
322.977	-10.24
323.19	30.72
323.403	-2.05
323.617	83.97
323.83	43.01
324.043	49.15
324.256	43.01
324.469	4.1
324.683	77.82
324.896	53.25
325.109	36.86
325.322	77.82
325.535	139.26
325.748	45.06
325.962	20.48
326.175	96.25
326.388	6.14
326.601	53.25
326.814	43.01
327.027	22.53
327.24	83.97
327.453	71.68
327.666	28.67
327.879	129.02
328.092	110.59
328.305	30.72
328.518	38.91
328.731	67.58
328.944	90.11
329.157	96.25
329.37	34.82
329.583	71.68
329.796	118.78
330.009	8.19
330.222	61.44
330.435	86.01
330.648	26.62
330.861	38.91
331.073	24.58
331.286	77.82
331.499	59.39
331.712	2.05
331.925	96.25
332.138	86.01
332.35	77.82
332.563	92.16
332.776	-10.24
332.989	-34.82
333.202	53.25
333.414	10.24
333.627	18.43
333.84	88.06
334.053	51.2
334.265	20.48
334.478	-10.24
334.691	40.96
334.903	63.49
335.116	6.14
335.329	75.77
335.541	36.86
335.754	129.02
335.966	36.86
336.179	43.01
336.392	110.59
336.604	20.48
336.817	-2.05
337.029	51.2
337.242	100.35
337.454	92.16
337.667	30.72
337.88	26.62
338.092	45.06
338.305	-34.82
338.517	34.82
338.729	67.58
338.942	22.53
339.154	30.72
339.367	36.86
339.579	129.02
339.792	-6.14
340.004	38.91
340.217	53.25
340.429	28.67
340.641	55.3
340.854	24.58
341.066	53.25
341.278	92.16
341.491	79.87
341.703	63.49
341.915	-12.29
342.128	104.45
342.34	55.3
342.552	71.68
342.764	16.38
342.977	43.01
343.189	90.11
343.401	61.44
343.613	20.48
343.826	57.34
344.038	-20.48
344.25	69.63
344.462	2.05
344.674	47.1
344.886	38.91
345.099	2.05
345.311	79.87
345.523	30.72
345.735	-30.72
345.947	20.48
346.159	73.73
346.371	92.16
346.583	24.58
346.795	118.78
347.007	-10.24
347.219	129.02
347.431	49.15
347.643	110.59
347.855	61.44
348.067	28.67
348.279	59.39
348.491	61.44
348.703	174.08
348.915	6.14
349.127	55.3
349.339	47.1
349.551	18.43
349.763	88.06
349.975	77.82
350.187	100.35
350.399	174.08
350.61	69.63
350.822	55.3
351.034	51.2
351.246	-10.24
351.458	63.49
351.669	88.06
351.881	110.59
352.093	124.93
352.305	30.72
352.517	104.45
352.728	30.72
352.94	45.06
353.152	55.3
353.363	12.29
353.575	12.29
353.787	110.59
353.999	118.78
354.21	120.83
354.422	22.53
354.633	6.14
354.845	73.73
355.057	92.16
355.268	36.86
355.48	114.69
355.692	36.86
355.903	6.14
356.115	94.21
356.326	-36.86
356.538	73.73
356.749	77.82
356.961	83.97
357.172	57.34
357.384	55.3
357.595	-14.34
357.807	14.34
358.018	83.97
358.23	-12.29
358.441	61.44
358.653	63.49
358.864	34.82
359.075	22.53
359.287	88.06
359.498	26.62
359.709	30.72
359.921	90.11
360.132	43.01
360.344	-14.34
360.555	100.35
360.766	38.91
360.977	79.87
361.189	63.49
361.4	30.72
361.611	51.2
361.823	118.78
362.034	67.58
362.245	38.91
362.456	86.01
362.667	51.2
362.879	126.97
363.09	28.67
363.301	59.39
363.512	55.3
363.723	-4.1
363.935	30.72
364.146	32.77
364.357	92.16
364.568	47.1
364.779	34.82
364.99	75.77
365.201	40.96
365.412	71.68
365.623	20.48
365.834	112.64
366.045	22.53
366.256	-12.29
366.467	90.11
366.678	34.82
366.889	38.91
367.1	20.48
367.311	22.53
367.522	79.87
367.733	67.58
367.944	47.1
368.155	69.63
368.366	65.53
368.577	79.87
368.788	26.62
368.999	12.29
369.209	83.97
369.42	145.41
369.631	219.13
369.842	75.77
370.053	28.67
370.264	49.15
370.474	-26.62
370.685	63.49
370.896	69.63
371.107	28.67
371.317	108.54
371.528	18.43
371.739	43.01
371.95	59.39
372.16	32.77
372.371	-20.48
372.582	20.48
372.792	79.87
373.003	71.68
373.214	38.91
373.424	63.49
373.635	-6.14
373.846	135.17
374.056	18.43
374.267	-69.63
374.477	110.59
374.688	36.86
374.898	47.1
375.109	-36.86
375.319	63.49
375.53	59.39
375.74	22.53
375.951	14.34
376.161	55.3
376.372	122.88
376.582	43.01
376.793	81.92
377.003	2.05
377.214	96.25
377.424	77.82
377.635	69.63
377.845	36.86
378.055	67.58
378.266	-38.91
378.476	106.49
378.686	61.44
378.897	26.62
379.107	71.68
379.317	71.68
379.528	92.16
379.738	174.08
379.948	-0
380.158	61.44
380.369	90.11
380.579	20.48
380.789	43.01
380.999	96.25
381.21	137.21
381.42	100.35
381.63	10.24
381.84	57.34
382.05	65.53
382.261	43.01
382.471	79.87
382.681	-22.53
382.891	137.21
383.101	53.25
383.311	69.63
383.521	47.1
383.731	77.82
383.941	24.58
384.151	83.97
384.361	30.72
384.571	133.12
384.781	73.73
384.991	88.06
385.201	180.22
385.411	88.06
385.621	96.25
385.831	30.72
386.041	69.63
386.251	108.54
386.461	112.64
386.671	10.24
386.881	10.24
387.091	94.21
387.301	61.44
387.511	96.25
387.72	98.3
387.93	73.73
388.14	47.1
388.35	59.39
388.56	112.64
388.769	73.73
388.979	59.39
389.189	14.34
389.399	12.29
389.609	45.06
389.818	94.21
390.028	67.58
390.238	-36.86
390.447	71.68
390.657	6.14
390.867	38.91
391.076	30.72
391.286	18.43
391.496	45.06
391.705	104.45
391.915	104.45
392.125	67.58
392.334	83.97
392.544	96.25
392.753	88.06
392.963	63.49
393.172	169.98
393.382	112.64
393.591	104.45
393.801	36.86
394.01	141.31
394.22	129.02
394.429	108.54
394.639	20.48
394.848	59.39
395.058	69.63
395.267	69.63
395.477	153.6
395.686	112.64
395.895	75.77
396.105	98.3
396.314	88.06
396.524	112.64
396.733	53.25
396.942	88.06
397.152	135.17
397.361	79.87
397.57	53.25
397.78	71.68
397.989	137.21
398.198	153.6
398.407	38.91
398.617	174.08
398.826	116.73
399.035	94.21
399.244	94.21
399.453	96.25
399.663	153.6
399.872	153.6
400.081	102.4
400.29	157.69
400.499	75.77
400.708	153.6
400.917	4.1
401.127	114.69
401.336	67.58
401.545	159.74
401.754	112.64
401.963	71.68
402.172	51.2
402.381	69.63
402.59	77.82
402.799	79.87
403.008	196.6
403.217	100.35
403.426	43.01
403.635	69.63
403.844	75.77
404.053	86.01
404.262	149.5
404.471	178.17
404.68	161.79
404.888	96.25
405.097	110.59
405.306	110.59
405.515	98.3
405.724	108.54
405.933	102.4
406.142	120.83
406.35	186.37
406.559	204.8
406.768	264.19
406.977	155.65
407.185	122.88
407.394	145.41
407.603	28.67
407.812	149.5
408.02	225.28
408.229	149.5
408.438	186.37
408.646	225.28
408.855	88.06
409.064	135.17
409.272	174.08
409.481	239.61
409.69	235.52
409.898	247.8
410.107	221.18
410.315	284.67
410.524	241.66
410.733	194.56
410.941	325.63
411.15	403.45
411.358	307.2
411.567	430.07
411.775	325.63
411.984	405.5
412.192	309.24
412.401	264.19
412.609	339.96
412.818	479.22
413.026	389.11
413.234	368.63
413.443	382.97
413.651	411.64
413.86	432.12
414.068	497.66
414.276	557.05
414.485	407.55
414.693	526.33
414.901	591.86
415.11	522.23
415.318	542.71
415.526	546.81
415.734	669.69
415.943	546.81
416.151	647.16
416.359	657.4
416.567	704.5
416.776	704.5
416.984	788.47
417.192	808.95
417.4	731.12
417.608	747.51
417.817	899.06
418.025	882.67
418.233	968.69
418.441	872.43
418.649	921.59
418.857	1091.57
419.065	1079.28
419.273	1005.55
419.481	1060.85
419.689	1021.94
419.897	1116.14
420.105	1120.24
420.313	1259.5
420.521	1245.16
420.729	1327.08
420.937	1306.6
421.145	1306.6
421.353	1435.63
421.561	1476.59
421.769	1521.64
421.977	1591.27
422.185	1671.14
422.393	1716.2
422.601	1824.74
422.809	1765.35
423.017	1818.6
423.224	1894.37
423.432	1863.65
423.64	2017.25
423.848	2209.76
424.056	2078.69
424.263	2275.29
424.471	2217.95
424.679	2369.5
424.887	2342.88
425.094	2443.23
425.302	2496.47
425.51	2510.81
425.718	2572.25
425.925	2607.06
426.133	2883.54
426.341	2906.07
426.548	2944.98
426.756	2971.6
426.964	3039.19
427.171	3160.02
427.379	3297.23
427.586	3399.63
427.794	3520.46
428.001	3672.01
428.209	3897.28
428.417	3651.53
428.624	3909.57
428.832	4040.64
429.039	3928
429.247	3928
429.454	4425.66
429.662	4564.92
429.869	4460.48
430.076	4530.11
430.284	4493.24
430.491	4917.17
430.699	5011.38
430.906	4906.93
431.114	5062.58
431.321	5115.83
431.528	5330.86
431.736	5597.1
431.943	5928.87
432.15	5810.09
432.358	5998.5
432.565	6098.85
432.772	6088.61
432.979	6537.12
433.187	6535.07
433.394	6465.44
433.601	7059.35
433.808	6926.23
434.016	7034.77
434.223	7294.86
434.43	7669.64
434.637	7579.53
434.844	8036.23
435.052	8234.88
435.259	8013.7
435.466	8216.45
435.673	8105.86
435.88	8656.76
436.087	9052.02
436.294	9256.82
436.501	8847.22
436.708	9129.84
436.915	9213.81
437.122	9860.97
437.329	9768.81
437.537	10014.57
437.743	10209.12
437.95	10209.12
438.157	10755.93
438.364	11171.67
438.571	11085.65
438.778	11243.35
438.985	12318.53
439.192	11743.05
439.399	12091.21
439.606	11691.85
439.813	12316.48
440.02	13100.86
440.227	13020.99
440.433	12783.42
440.64	13403.96
440.847	13180.73
441.054	13584.18
441.261	14462.76
441.467	14112.55
441.674	14638.88
441.881	14962.46
442.088	15077.15
442.294	14765.85
442.501	15212.31
442.708	15619.86
442.914	16029.45
443.121	17016.57
443.328	16502.53
443.534	17354.49
443.741	17180.41
443.948	16807.68
444.154	18104.04
444.361	17950.45
444.568	17997.55
444.774	18161.39
444.981	18306.79
445.187	19005.15
445.394	19433.18
445.6	19365.59
445.807	21178.04
446.013	20358.86
446.22	20821.7
446.426	21831.35
446.633	21597.88
446.839	22347.43
447.046	21591.73
447.252	22320.81
447.459	22529.7
447.665	22779.56
447.871	23813.78
448.078	24606.34
448.284	23064.22
448.491	23948.95
448.697	24938.12
448.903	25552.51
449.11	25802.36
449.316	25007.75
449.522	25622.14
449.728	26222.19
449.935	26584.68
450.141	26406.51
450.347	27154.02
450.553	26177.14
450.76	26463.85
450.966	27283.04
451.172	27356.77
451.378	27524.7
451.584	27598.43
451.791	27745.88
451.997	28001.88
452.203	28259.92
452.409	28173.91
452.615	28106.32
452.821	26891.88
453.027	26711.66
453.233	28345.94
453.44	26844.77
453.646	27461.21
453.852	27565.66
454.058	27743.83
454.264	26850.92
454.47	27315.81
454.676	26705.51
454.882	27741.78
455.088	25583.23
455.294	25581.18
455.5	25853.56
455.705	26261.1
455.911	25249.41
456.117	24665.74
456.323	24432.27
456.529	22890.15
456.735	24422.03
456.941	23352.99
457.147	22910.63
457.352	22486.7
457.558	21952.18
457.764	21913.27
457.97	21558.97
458.176	21442.23
458.381	21413.56
458.587	20311.75
458.793	20190.92
458.999	19318.49
459.204	20350.67
459.41	19799.76
459.616	18575.08
459.821	18806.5
460.027	18274.03
460.233	18142.96
460.438	17164.03
460.644	17639.15
460.85	16819.97
461.055	16424.71
461.261	16099.08
461.466	15105.82
461.672	14767.9
461.878	15800.08
462.083	14634.78
462.289	14325.54
462.494	14509.86
462.7	13653.81
462.905	13348.66
463.111	13594.42
463.316	13815.6
463.522	13457.2
463.727	13494.07
463.932	13381.43
464.138	13375.28
464.343	13276.98
464.549	12771.13
464.754	13496.11
464.959	13223.73
465.165	13178.68
465.37	12748.61
465.575	12377.92
465.781	12898.11
465.986	12826.43
466.191	12322.63
466.397	11929.42
466.602	11411.28
466.807	12107.59
467.012	11921.23
467.218	11956.04
467.423	11695.95
