Data from USB4F104151__90__11-32-07-051.txt Node

Date: Fri Mar 14 11:32:07 EDT 2025
User: louis
Spectrometer: USB4F10415
Trigger mode: 4
Integration Time (sec): 5.000000E-2
Scans to average: 1
Electric dark correction enabled: true
Nonlinearity correction enabled: false
Boxcar width: 0
XAxis mode: Wavelengths
Number of Pixels in Spectrum: 3648
>>>>>Begin Spectral Data<<<<<
178.204	-133.12
178.424	-133.12
178.644	-133.12
178.864	-112.64
179.084	-129.02
179.304	14.34
179.524	40.96
179.744	-51.2
179.964	77.82
180.184	-55.3
180.404	18.43
180.624	-34.82
180.844	-49.15
181.064	-12.29
181.283	24.58
181.503	-2.05
181.723	28.67
181.943	-34.82
182.163	38.91
182.383	65.53
182.602	90.11
182.822	73.73
183.042	-38.91
183.262	10.24
183.482	53.25
183.701	55.3
183.921	49.15
184.141	26.62
184.361	81.92
184.58	24.58
184.8	18.43
185.02	26.62
185.239	67.58
185.459	2.05
185.679	-63.49
185.898	-59.39
186.118	-0
186.338	40.96
186.557	26.62
186.777	2.05
186.997	67.58
187.216	10.24
187.436	51.2
187.655	47.1
187.875	18.43
188.095	-22.53
188.314	47.1
188.534	124.93
188.753	-10.24
188.973	108.54
189.192	57.34
189.412	26.62
189.631	22.53
189.851	38.91
190.07	61.44
190.29	49.15
190.509	51.2
190.729	-2.05
190.948	75.77
191.168	206.84
191.387	88.06
191.607	2.05
191.826	59.39
192.045	8.19
192.265	30.72
192.484	34.82
192.704	34.82
192.923	-43.01
193.142	139.26
193.362	34.82
193.581	133.12
193.8	49.15
194.02	108.54
194.239	-6.14
194.458	75.77
194.678	43.01
194.897	26.62
195.116	26.62
195.335	26.62
195.555	43.01
195.774	-28.67
195.993	-45.06
196.212	45.06
196.432	32.77
196.651	22.53
196.87	34.82
197.089	135.17
197.308	139.26
197.528	90.11
197.747	-55.3
197.966	2.05
198.185	61.44
198.404	26.62
198.623	100.35
198.842	67.58
199.062	14.34
199.281	8.19
199.5	32.77
199.719	43.01
199.938	57.34
200.157	100.35
200.376	14.34
200.595	18.43
200.814	61.44
201.033	96.25
201.252	65.53
201.471	32.77
201.69	12.29
201.909	59.39
202.128	36.86
202.347	-38.91
202.566	88.06
202.785	-6.14
203.004	-8.19
203.223	143.36
203.442	12.29
203.661	14.34
203.879	51.2
204.098	81.92
204.317	-22.53
204.536	83.97
204.755	63.49
204.974	73.73
205.193	81.92
205.411	53.25
205.63	40.96
205.849	45.06
206.068	14.34
206.287	69.63
206.505	14.34
206.724	14.34
206.943	10.24
207.162	51.2
207.381	-0
207.599	59.39
207.818	-22.53
208.037	-22.53
208.255	-14.34
208.474	20.48
208.693	-2.05
208.911	114.69
209.13	-0
209.349	38.91
209.567	49.15
209.786	26.62
210.005	47.1
210.223	-14.34
210.442	-28.67
210.661	38.91
210.879	34.82
211.098	55.3
211.316	79.87
211.535	59.39
211.753	96.25
211.972	32.77
212.191	49.15
212.409	-2.05
212.628	10.24
212.846	10.24
213.065	38.91
213.283	90.11
213.502	-22.53
213.72	40.96
213.938	51.2
214.157	47.1
214.375	65.53
214.594	26.62
214.812	104.45
215.031	-65.54
215.249	28.67
215.467	51.2
215.686	45.06
215.904	47.1
216.122	-38.91
216.341	110.59
216.559	12.29
216.778	65.53
216.996	38.91
217.214	45.06
217.432	-2.05
217.651	-18.43
217.869	32.77
218.087	2.05
218.306	22.53
218.524	40.96
218.742	22.53
218.96	14.34
219.179	45.06
219.397	2.05
219.615	106.49
219.833	61.44
220.051	34.82
220.27	24.58
220.488	92.16
220.706	90.11
220.924	-38.91
221.142	14.34
221.36	63.49
221.578	83.97
221.796	112.64
222.015	51.2
222.233	73.73
222.451	169.98
222.669	8.19
222.887	12.29
223.105	-30.72
223.323	10.24
223.541	-30.72
223.759	81.92
223.977	55.3
224.195	57.34
224.413	67.58
224.631	-2.05
224.849	53.25
225.067	79.87
225.285	16.38
225.503	-8.19
225.721	-14.34
225.939	18.43
226.157	24.58
226.375	135.17
226.592	-43.01
226.81	2.05
227.028	139.26
227.246	51.2
227.464	40.96
227.682	24.58
227.9	47.1
228.117	32.77
228.335	40.96
228.553	18.43
228.771	18.43
228.989	34.82
229.206	40.96
229.424	6.14
229.642	55.3
229.86	-4.1
230.077	116.73
230.295	6.14
230.513	83.97
230.731	88.06
230.948	26.62
231.166	55.3
231.384	2.05
231.601	-32.77
231.819	67.58
232.037	30.72
232.254	131.07
232.472	-81.92
232.689	59.39
232.907	163.84
233.125	-4.1
233.342	-4.1
233.56	61.44
233.777	67.58
233.995	47.1
234.213	67.58
234.43	36.86
234.648	18.43
234.865	32.77
235.083	40.96
235.3	-2.05
235.518	83.97
235.735	94.21
235.953	104.45
236.17	79.87
236.388	22.53
236.605	63.49
236.822	59.39
237.04	47.1
237.257	49.15
237.475	16.38
237.692	43.01
237.909	34.82
238.127	-6.14
238.344	108.54
238.562	8.19
238.779	-26.62
238.996	-49.15
239.214	38.91
239.431	40.96
239.648	49.15
239.865	55.3
240.083	122.88
240.3	81.92
240.517	-10.24
240.735	43.01
240.952	124.93
241.169	90.11
241.386	36.86
241.603	51.2
241.821	77.82
242.038	43.01
242.255	-63.49
242.472	65.53
242.689	112.64
242.907	45.06
243.124	90.11
243.341	63.49
243.558	-0
243.775	-10.24
243.992	47.1
244.209	79.87
244.426	124.93
244.643	43.01
244.86	-10.24
245.078	57.34
245.295	34.82
245.512	90.11
245.729	-10.24
245.946	100.35
246.163	-16.38
246.38	-6.14
246.597	-34.82
246.814	53.25
247.031	18.43
247.248	14.34
247.464	34.82
247.681	2.05
247.898	88.06
248.115	61.44
248.332	-8.19
248.549	110.59
248.766	114.69
248.983	102.4
249.2	57.34
249.417	-18.43
249.633	67.58
249.85	34.82
250.067	-12.29
250.284	18.43
250.501	51.2
250.717	108.54
250.934	-16.38
251.151	-30.72
251.368	59.39
251.585	55.3
251.801	-34.82
252.018	-14.34
252.235	38.91
252.451	10.24
252.668	2.05
252.885	57.34
253.102	34.82
253.318	40.96
253.535	-34.82
253.752	8.19
253.968	20.48
254.185	-18.43
254.401	26.62
254.618	38.91
254.835	59.39
255.051	40.96
255.268	43.01
255.484	-4.1
255.701	40.96
255.917	14.34
256.134	65.53
256.351	32.77
256.567	-43.01
256.784	24.58
257	-63.49
257.217	100.35
257.433	34.82
257.65	38.91
257.866	100.35
258.082	-47.1
258.299	-28.67
258.515	24.58
258.732	90.11
258.948	-45.06
259.165	-36.86
259.381	8.19
259.597	47.1
259.814	-34.82
260.03	10.24
260.246	96.25
260.463	26.62
260.679	79.87
260.895	57.34
261.112	59.39
261.328	-30.72
261.544	-2.05
261.761	59.39
261.977	10.24
262.193	26.62
262.409	55.3
262.626	73.73
262.842	94.21
263.058	14.34
263.274	83.97
263.49	69.63
263.707	6.14
263.923	83.97
264.139	18.43
264.355	-0
264.571	67.58
264.787	-24.58
265.004	90.11
265.22	14.34
265.436	49.15
265.652	-20.48
265.868	112.64
266.084	47.1
266.3	104.45
266.516	32.77
266.732	69.63
266.948	34.82
267.164	40.96
267.38	-4.1
267.596	55.3
267.812	98.3
268.028	92.16
268.244	4.1
268.46	2.05
268.676	-0
268.892	47.1
269.108	18.43
269.324	141.31
269.54	-47.1
269.756	28.67
269.972	-36.86
270.188	65.53
270.403	-47.1
270.619	-18.43
270.835	90.11
271.051	-14.34
271.267	4.1
271.483	8.19
271.698	51.2
271.914	57.34
272.13	49.15
272.346	32.77
272.562	18.43
272.777	73.73
272.993	90.11
273.209	-49.15
273.425	-0
273.64	-28.67
273.856	63.49
274.072	12.29
274.287	30.72
274.503	59.39
274.719	40.96
274.934	18.43
275.15	-2.05
275.366	18.43
275.581	14.34
275.797	22.53
276.012	65.53
276.228	10.24
276.444	67.58
276.659	83.97
276.875	6.14
277.09	20.48
277.306	10.24
277.521	20.48
277.737	49.15
277.952	161.79
278.168	30.72
278.383	45.06
278.599	30.72
278.814	81.92
279.03	65.53
279.245	104.45
279.461	26.62
279.676	40.96
279.892	8.19
280.107	-6.14
280.322	20.48
280.538	8.19
280.753	47.1
280.969	63.49
281.184	-40.96
281.399	53.25
281.615	28.67
281.83	-2.05
282.045	83.97
282.26	40.96
282.476	67.58
282.691	22.53
282.906	49.15
283.122	12.29
283.337	26.62
283.552	55.3
283.767	32.77
283.983	108.54
284.198	59.39
284.413	18.43
284.628	12.29
284.843	26.62
285.058	12.29
285.274	53.25
285.489	12.29
285.704	34.82
285.919	-69.63
286.134	59.39
286.349	55.3
286.564	8.19
286.779	55.3
286.995	100.35
287.21	-71.68
287.425	47.1
287.64	12.29
287.855	22.53
288.07	-61.44
288.285	38.91
288.5	92.16
288.715	20.48
288.93	59.39
289.145	-10.24
289.36	112.64
289.575	96.25
289.79	10.24
290.004	-2.05
290.219	96.25
290.434	-34.82
290.649	-38.91
290.864	-10.24
291.079	20.48
291.294	53.25
291.509	51.2
291.724	-0
291.938	-26.62
292.153	67.58
292.368	-71.68
292.583	55.3
292.798	67.58
293.012	2.05
293.227	14.34
293.442	8.19
293.657	108.54
293.871	12.29
294.086	92.16
294.301	67.58
294.516	55.3
294.73	79.87
294.945	49.15
295.16	73.73
295.374	43.01
295.589	90.11
295.804	-14.34
296.018	18.43
296.233	174.08
296.447	8.19
296.662	47.1
296.877	10.24
297.091	73.73
297.306	40.96
297.52	73.73
297.735	126.97
297.949	79.87
298.164	67.58
298.378	51.2
298.593	55.3
298.807	-30.72
299.022	104.45
299.236	77.82
299.451	6.14
299.665	12.29
299.88	57.34
300.094	92.16
300.309	63.49
300.523	-0
300.737	26.62
300.952	57.34
301.166	24.58
301.381	-14.34
301.595	-6.14
301.809	6.14
302.024	14.34
302.238	-18.43
302.452	92.16
302.667	120.83
302.881	34.82
303.095	49.15
303.309	-30.72
303.524	16.38
303.738	-6.14
303.952	24.58
304.166	61.44
304.381	-6.14
304.595	67.58
304.809	-10.24
305.023	34.82
305.237	-6.14
305.452	10.24
305.666	88.06
305.88	43.01
306.094	122.88
306.308	49.15
306.522	137.21
306.736	26.62
306.95	108.54
307.164	26.62
307.379	49.15
307.593	18.43
307.807	73.73
308.021	57.34
308.235	83.97
308.449	12.29
308.663	79.87
308.877	155.65
309.091	81.92
309.305	34.82
309.519	59.39
309.733	49.15
309.947	-57.34
310.161	49.15
310.374	83.97
310.588	53.25
310.802	-22.53
311.016	38.91
311.23	24.58
311.444	108.54
311.658	-55.3
311.872	-6.14
312.085	45.06
312.299	53.25
312.513	92.16
312.727	124.93
312.941	-12.29
313.154	90.11
313.368	-30.72
313.582	81.92
313.796	143.36
314.009	40.96
314.223	-22.53
314.437	51.2
314.651	67.58
314.864	4.1
315.078	34.82
315.292	51.2
315.505	32.77
315.719	28.67
315.933	49.15
316.146	12.29
316.36	26.62
316.573	51.2
316.787	174.08
317.001	57.34
317.214	73.73
317.428	2.05
317.641	-20.48
317.855	94.21
318.068	22.53
318.282	59.39
318.495	149.5
318.709	108.54
318.922	51.2
319.136	96.25
319.349	98.3
319.563	28.67
319.776	59.39
319.99	-34.82
320.203	59.39
320.417	67.58
320.63	18.43
320.843	98.3
321.057	-2.05
321.27	75.77
321.483	112.64
321.697	67.58
321.91	-12.29
322.124	92.16
322.337	18.43
322.55	-22.53
322.763	-8.19
322.977	-6.14
323.19	38.91
323.403	69.63
323.617	88.06
323.83	45.06
324.043	22.53
324.256	10.24
324.469	10.24
324.683	26.62
324.896	-16.38
325.109	-2.05
325.322	18.43
325.535	55.3
325.748	114.69
325.962	-22.53
326.175	18.43
326.388	126.97
326.601	108.54
326.814	24.58
327.027	38.91
327.24	116.73
327.453	24.58
327.666	30.72
327.879	22.53
328.092	69.63
328.305	34.82
328.518	49.15
328.731	-8.19
328.944	2.05
329.157	53.25
329.37	43.01
329.583	116.73
329.796	108.54
330.009	34.82
330.222	83.97
330.435	45.06
330.648	40.96
330.861	-14.34
331.073	57.34
331.286	59.39
331.499	73.73
331.712	-14.34
331.925	75.77
332.138	75.77
332.35	83.97
332.563	-47.1
332.776	96.25
332.989	30.72
333.202	47.1
333.414	-0
333.627	43.01
333.84	34.82
334.053	6.14
334.265	129.02
334.478	4.1
334.691	34.82
334.903	55.3
335.116	34.82
335.329	43.01
335.541	75.77
335.754	86.01
335.966	36.86
336.179	40.96
336.392	77.82
336.604	47.1
336.817	59.39
337.029	51.2
337.242	4.1
337.454	100.35
337.667	2.05
337.88	88.06
338.092	108.54
338.305	51.2
338.517	51.2
338.729	79.87
338.942	49.15
339.154	-38.91
339.367	51.2
339.579	131.07
339.792	-6.14
340.004	43.01
340.217	26.62
340.429	59.39
340.641	-0
340.854	-0
341.066	-10.24
341.278	83.97
341.491	83.97
341.703	73.73
341.915	26.62
342.128	34.82
342.34	-22.53
342.552	75.77
342.764	90.11
342.977	18.43
343.189	57.34
343.401	71.68
343.613	43.01
343.826	10.24
344.038	26.62
344.25	43.01
344.462	2.05
344.674	155.65
344.886	32.77
345.099	92.16
345.311	59.39
345.523	4.1
345.735	-16.38
345.947	147.45
346.159	90.11
346.371	14.34
346.583	100.35
346.795	143.36
347.007	73.73
347.219	8.19
347.431	67.58
347.643	139.26
347.855	4.1
348.067	67.58
348.279	-53.25
348.491	34.82
348.703	73.73
348.915	10.24
349.127	-32.77
349.339	110.59
349.551	16.38
349.763	47.1
349.975	26.62
350.187	108.54
350.399	34.82
350.61	106.49
350.822	57.34
351.034	57.34
351.246	69.63
351.458	88.06
351.669	71.68
351.881	102.4
352.093	18.43
352.305	114.69
352.517	92.16
352.728	4.1
352.94	59.39
353.152	28.67
353.363	24.58
353.575	26.62
353.787	67.58
353.999	63.49
354.21	96.25
354.422	43.01
354.633	10.24
354.845	53.25
355.057	12.29
355.268	47.1
355.48	57.34
355.692	88.06
355.903	30.72
356.115	59.39
356.326	34.82
356.538	94.21
356.749	100.35
356.961	100.35
357.172	67.58
357.384	-4.1
357.595	133.12
357.807	14.34
358.018	-28.67
358.23	-30.72
358.441	204.8
358.653	26.62
358.864	-4.1
359.075	-34.82
359.287	18.43
359.498	90.11
359.709	26.62
359.921	34.82
360.132	59.39
360.344	18.43
360.555	43.01
360.766	34.82
360.977	43.01
361.189	55.3
361.4	24.58
361.611	90.11
361.823	73.73
362.034	67.58
362.245	-0
362.456	22.53
362.667	67.58
362.879	-43.01
363.09	32.77
363.301	45.06
363.512	124.93
363.723	47.1
363.935	43.01
364.146	92.16
364.357	-38.91
364.568	81.92
364.779	43.01
364.99	133.12
365.201	45.06
365.412	157.69
365.623	-43.01
365.834	-26.62
366.045	49.15
366.256	110.59
366.467	43.01
366.678	30.72
366.889	63.49
367.1	26.62
367.311	92.16
367.522	-4.1
367.733	36.86
367.944	40.96
368.155	10.24
368.366	45.06
368.577	57.34
368.788	155.65
368.999	-0
369.209	92.16
369.42	57.34
369.631	165.89
369.842	104.45
370.053	53.25
370.264	83.97
370.474	-59.39
370.685	30.72
370.896	-40.96
371.107	96.25
371.317	20.48
371.528	34.82
371.739	94.21
371.95	59.39
372.16	96.25
372.371	51.2
372.582	47.1
372.792	69.63
373.003	57.34
373.214	100.35
373.424	34.82
373.635	16.38
373.846	47.1
374.056	53.25
374.267	69.63
374.477	51.2
374.688	81.92
374.898	67.58
375.109	67.58
375.319	104.45
375.53	30.72
375.74	49.15
375.951	34.82
376.161	4.1
376.372	120.83
376.582	59.39
376.793	75.77
377.003	16.38
377.214	20.48
377.424	18.43
377.635	-0
377.845	12.29
378.055	59.39
378.266	-38.91
378.476	106.49
378.686	79.87
378.897	2.05
379.107	67.58
379.317	145.41
379.528	57.34
379.738	81.92
379.948	30.72
380.158	34.82
380.369	26.62
380.579	106.49
380.789	-8.19
380.999	32.77
381.21	112.64
381.42	92.16
381.63	49.15
381.84	90.11
382.05	36.86
382.261	16.38
382.471	53.25
382.681	-10.24
382.891	75.77
383.101	59.39
383.311	40.96
383.521	71.68
383.731	90.11
383.941	92.16
384.151	-2.05
384.361	73.73
384.571	92.16
384.781	157.69
384.991	126.97
385.201	163.84
385.411	92.16
385.621	16.38
385.831	155.65
386.041	86.01
386.251	100.35
386.461	86.01
386.671	34.82
386.881	112.64
387.091	67.58
387.301	96.25
387.511	26.62
387.72	69.63
387.93	120.83
388.14	71.68
388.35	14.34
388.56	34.82
388.769	61.44
388.979	59.39
389.189	43.01
389.399	-0
389.609	49.15
389.818	133.12
390.028	63.49
390.238	100.35
390.447	38.91
390.657	149.5
390.867	63.49
391.076	-6.14
391.286	75.77
391.496	61.44
391.705	18.43
391.915	100.35
392.125	147.45
392.334	83.97
392.544	141.31
392.753	32.77
392.963	30.72
393.172	51.2
393.382	122.88
393.591	65.53
393.801	75.77
394.01	114.69
394.22	59.39
394.429	32.77
394.639	65.53
394.848	-0
395.058	67.58
395.267	28.67
395.477	-12.29
395.686	118.78
395.895	153.6
396.105	180.22
396.314	49.15
396.524	92.16
396.733	133.12
396.942	67.58
397.152	108.54
397.361	96.25
397.57	63.49
397.78	147.45
397.989	108.54
398.198	176.13
398.407	102.4
398.617	43.01
398.826	83.97
399.035	65.53
399.244	90.11
399.453	104.45
399.663	141.31
399.872	178.17
400.081	90.11
400.29	118.78
400.499	45.06
400.708	116.73
400.917	102.4
401.127	137.21
401.336	81.92
401.545	149.5
401.754	190.46
401.963	133.12
402.172	71.68
402.381	59.39
402.59	88.06
402.799	141.31
403.008	198.65
403.217	155.65
403.426	149.5
403.635	118.78
403.844	96.25
404.053	153.6
404.262	149.5
404.471	178.17
404.68	206.84
404.888	139.26
405.097	198.65
405.306	161.79
405.515	90.11
405.724	59.39
405.933	221.18
406.142	174.08
406.35	212.99
406.559	149.5
406.768	237.56
406.977	253.95
407.185	133.12
407.394	221.18
407.603	176.13
407.812	210.94
408.02	133.12
408.229	190.46
408.438	165.89
408.646	235.52
408.855	245.76
409.064	233.47
409.272	202.75
409.481	323.58
409.69	256
409.898	272.38
410.107	253.95
410.315	296.96
410.524	307.2
410.733	217.08
410.941	266.24
411.15	339.96
411.358	452.6
411.567	413.69
411.775	364.54
411.984	374.78
412.192	376.83
412.401	385.02
412.609	501.75
412.818	419.83
413.026	538.62
413.234	518.14
413.443	477.18
413.651	593.91
413.86	575.48
414.068	540.66
414.276	567.29
414.485	591.86
414.693	544.76
414.901	667.64
415.11	628.73
415.318	598.01
415.526	593.91
415.734	718.84
415.943	776.18
416.151	792.56
416.359	794.61
416.567	749.56
416.776	827.38
416.984	858.1
417.192	909.3
417.4	970.74
417.608	894.96
417.817	929.78
418.025	1097.71
418.233	1118.19
418.441	999.41
418.649	1157.1
418.857	1230.83
419.065	1216.49
419.273	1093.62
419.481	1150.96
419.689	1239.02
419.897	1361.9
420.105	1400.81
420.313	1470.44
420.521	1482.73
420.729	1554.41
420.937	1535.98
421.145	1683.43
421.353	1554.41
421.561	1728.49
421.769	1851.36
421.977	1824.74
422.185	1853.41
422.393	1968.1
422.601	2082.78
422.809	2115.55
423.017	2127.84
423.224	2230.24
423.432	2351.07
423.64	2156.51
423.848	2529.24
424.056	2398.17
424.263	2662.36
424.471	2545.63
424.679	2672.6
424.887	2848.72
425.094	2897.88
425.302	2959.31
425.51	2981.84
425.718	3139.54
425.925	3082.19
426.133	3112.91
426.341	3352.52
426.548	3504.07
426.756	3522.51
426.964	3618.76
427.171	3811.27
427.379	3985.35
427.586	4003.78
427.794	4104.13
428.001	4323.26
428.209	4618.17
428.417	4616.12
428.624	4720.57
428.832	4720.57
429.039	4685.75
429.247	4802.49
429.454	5281.71
429.662	5504.94
429.869	5126.07
430.076	5429.17
430.284	5203.89
430.491	5650.35
430.699	5900.2
430.906	5963.68
431.114	5863.33
431.321	6248.35
431.528	6246.3
431.736	6645.66
431.943	7006.1
432.15	6725.53
432.358	6899.61
432.565	7339.92
432.772	7196.56
432.979	7462.8
433.187	7876.49
433.394	7876.49
433.601	8357.76
433.808	8509.31
434.016	8355.71
434.223	8497.02
434.43	9158.52
434.637	8877.94
434.844	9596.78
435.052	9676.65
435.259	9799.53
435.466	9738.09
435.673	9758.57
435.88	10346.34
436.087	10735.45
436.294	10858.33
436.501	10448.74
436.708	10788.7
436.915	11286.36
437.122	11753.29
437.329	11571.02
437.537	12369.73
437.743	12451.65
437.95	12009.29
438.157	12822.33
438.364	13199.16
438.571	13199.16
438.778	13246.26
438.985	14407.46
439.192	13932.33
439.399	14501.67
439.606	14055.21
439.813	14978.84
440.02	15646.48
440.227	15488.79
440.433	15320.85
440.64	15898.38
440.847	15546.13
441.054	16398.09
441.261	17237.75
441.467	16983.8
441.674	17250.04
441.881	17743.6
442.088	17778.42
442.294	17807.09
442.501	18169.58
442.708	18757.35
442.914	19207.9
443.121	20066
443.328	19490.52
443.534	20917.95
443.741	20188.88
443.948	20309.71
444.154	21669.56
444.361	21534.39
444.568	21601.97
444.774	21380.79
444.981	21665.46
445.187	22384.3
445.394	23060.13
445.6	22847.14
445.807	25337.47
446.013	24143.5
446.22	24772.23
446.426	25640.57
446.633	25800.31
446.839	26807.91
447.046	25728.63
447.252	26926.69
447.459	26818.15
447.665	26812.01
447.871	28024.4
448.078	29251.14
448.284	28085.84
448.491	28538.44
448.697	29650.49
448.903	30070.33
449.11	30182.96
449.316	29853.24
449.522	30565.93
449.728	31194.66
449.935	31393.31
450.141	31323.68
450.347	32527.89
450.553	31053.35
450.76	31321.63
450.966	32509.46
451.172	32136.73
451.378	32583.18
451.584	31942.17
451.791	33175.05
451.997	32906.76
452.203	33578.5
452.409	33467.91
452.615	33521.15
452.821	32165.4
453.027	31919.64
453.233	33213.96
453.44	32079.38
453.646	32292.37
453.852	32478.74
454.058	33170.95
454.264	31827.48
454.47	32865.8
454.676	31809.05
454.882	33107.46
455.088	30191.16
455.294	30412.34
455.5	30879.27
455.705	31467.04
455.911	30180.92
456.117	29580.86
456.323	28776.01
456.529	27410.01
456.735	28761.67
456.941	27985.49
457.147	27453.02
457.352	26646.12
457.558	26232.43
457.764	26390.13
457.97	25992.82
458.176	25087.62
458.381	25380.48
458.587	24333.96
458.793	24239.76
458.999	22750.88
459.204	24233.61
459.41	23647.9
459.616	22109.87
459.821	22226.6
460.027	22097.58
460.233	21796.53
460.438	20801.22
460.644	20700.87
460.85	20057.81
461.055	19599.06
461.261	19259.1
461.466	18067.18
461.672	17686.26
461.878	18763.49
462.083	17665.78
462.289	17231.61
462.494	16768.77
462.7	16144.14
462.905	15814.41
463.111	16535.3
463.316	16498.44
463.522	15957.77
463.727	16219.91
463.932	16011.02
464.138	15982.35
464.343	15908.62
464.549	15523.6
464.754	16062.22
464.959	15709.97
465.165	15929.1
465.37	14835.49
465.575	14649.12
465.781	15142.68
465.986	15249.18
466.191	14696.22
466.397	14497.57
466.602	13731.63
466.807	14241.57
467.012	14405.41
467.218	14212.9
467.423	14036.78
467.628	14069.55
