Data from USB4F104151__17__11-29-48-967.txt Node

Date: Fri Mar 14 11:29:48 EDT 2025
User: louis
Spectrometer: USB4F10415
Trigger mode: 4
Integration Time (sec): 5.000000E-2
Scans to average: 1
Electric dark correction enabled: true
Nonlinearity correction enabled: false
Boxcar width: 0
XAxis mode: Wavelengths
Number of Pixels in Spectrum: 3648
>>>>>Begin Spectral Data<<<<<
178.204	-151.89
178.424	-151.89
178.644	-151.89
178.864	-155.99
179.084	-115.03
179.304	13.99
179.524	-35.16
179.744	-10.58
179.964	7.85
180.184	-53.59
180.404	11.95
180.624	57
180.844	16.04
181.064	3.75
181.283	-65.88
181.503	-49.49
181.723	104.11
181.943	16.04
182.163	57
182.383	32.43
182.602	24.23
182.822	-16.73
183.042	30.38
183.262	40.62
183.482	97.96
183.701	28.33
183.921	69.29
184.141	-6.49
184.361	71.34
184.58	46.76
184.8	20.14
185.02	97.96
185.239	65.19
185.459	61.1
185.679	54.95
185.898	32.43
186.118	100.01
186.338	97.96
186.557	95.91
186.777	-43.35
186.997	36.52
187.216	85.67
187.436	116.39
187.655	65.19
187.875	36.52
188.095	65.19
188.314	52.91
188.534	65.19
188.753	61.1
188.973	126.63
189.192	69.29
189.412	52.91
189.631	122.54
189.851	-26.96
190.07	63.15
190.29	44.71
190.509	48.81
190.729	89.77
190.948	65.19
191.168	167.59
191.387	120.49
191.607	32.43
191.826	61.1
192.045	24.23
192.265	-18.77
192.484	40.62
192.704	42.67
192.923	7.85
193.142	120.49
193.362	87.72
193.581	132.78
193.8	110.25
194.02	32.43
194.239	46.76
194.458	48.81
194.678	46.76
194.897	20.14
195.116	38.57
195.335	32.43
195.555	54.95
195.774	1.71
195.993	89.77
196.212	77.48
196.432	-16.73
196.651	85.67
196.87	50.86
197.089	110.25
197.308	18.09
197.528	65.19
197.747	16.04
197.966	93.87
198.185	95.91
198.404	-2.39
198.623	65.19
198.842	116.39
199.062	54.95
199.281	30.38
199.5	97.96
199.719	50.86
199.938	126.63
200.157	-12.63
200.376	54.95
200.595	57
200.814	-24.92
201.033	36.52
201.252	40.62
201.471	-8.53
201.69	52.91
201.909	24.23
202.128	122.54
202.347	67.24
202.566	40.62
202.785	40.62
203.004	9.9
203.223	212.65
203.442	97.96
203.661	71.34
203.879	16.04
204.098	24.23
204.317	13.99
204.536	38.57
204.755	63.15
204.974	114.34
205.193	24.23
205.411	69.29
205.63	22.19
205.849	91.82
206.068	87.72
206.287	5.8
206.505	59.05
206.724	5.8
206.943	52.91
207.162	65.19
207.381	26.28
207.599	11.95
207.818	85.67
208.037	73.39
208.255	122.54
208.474	-6.49
208.693	110.25
208.911	28.33
209.13	110.25
209.349	52.91
209.567	69.29
209.786	44.71
210.005	97.96
210.223	93.87
210.442	11.95
210.661	-10.58
210.879	44.71
211.098	32.43
211.316	79.53
211.535	95.91
211.753	52.91
211.972	100.01
212.191	42.67
212.409	50.86
212.628	48.81
212.846	1.71
213.065	69.29
213.283	106.15
213.502	3.75
213.72	22.19
213.938	54.95
214.157	57
214.375	161.45
214.594	79.53
214.812	40.62
215.031	22.19
215.249	102.06
215.467	16.04
215.686	81.58
215.904	155.3
216.122	79.53
216.341	79.53
216.559	34.47
216.778	32.43
216.996	128.68
217.214	32.43
217.432	77.48
217.651	-0.34
217.869	38.57
218.087	61.1
218.306	16.04
218.524	46.76
218.742	-4.44
218.96	54.95
219.179	48.81
219.397	48.81
219.615	157.35
219.833	28.33
220.051	-0.34
220.27	87.72
220.488	28.33
220.706	57
220.924	26.28
221.142	44.71
221.36	79.53
221.578	138.92
221.796	81.58
222.015	40.62
222.233	-2.39
222.451	89.77
222.669	-0.34
222.887	26.28
223.105	-45.4
223.323	100.01
223.541	-8.53
223.759	71.34
223.977	28.33
224.195	143.02
224.413	-0.34
224.631	81.58
224.849	30.38
225.067	65.19
225.285	-63.83
225.503	57
225.721	38.57
225.939	87.72
226.157	65.19
226.375	124.58
226.592	-41.3
226.81	16.04
227.028	30.38
227.246	143.02
227.464	44.71
227.682	13.99
227.9	30.38
228.117	65.19
228.335	28.33
228.553	-2.39
228.771	143.02
228.989	7.85
229.206	97.96
229.424	13.99
229.642	-8.53
229.86	57
230.077	48.81
230.295	38.57
230.513	75.43
230.731	91.82
230.948	95.91
231.166	69.29
231.384	81.58
231.601	-4.44
231.819	153.26
232.037	11.95
232.254	63.15
232.472	13.99
232.689	50.86
232.907	81.58
233.125	30.38
233.342	48.81
233.56	42.67
233.777	57
233.995	-0.34
234.213	73.39
234.43	32.43
234.648	50.86
234.865	40.62
235.083	126.63
235.3	54.95
235.518	52.91
235.735	30.38
235.953	83.63
236.17	16.04
236.388	81.58
236.605	34.47
236.822	52.91
237.04	57
237.257	-41.3
237.475	28.33
237.692	71.34
237.909	71.34
238.127	112.3
238.344	151.21
238.562	20.14
238.779	18.09
238.996	-49.49
239.214	16.04
239.431	65.19
239.648	20.14
239.865	32.43
240.083	54.95
240.3	-8.53
240.517	81.58
240.735	114.34
240.952	79.53
241.169	95.91
241.386	93.87
241.603	24.23
241.821	-12.63
242.038	138.92
242.255	30.38
242.472	-6.49
242.689	110.25
242.907	73.39
243.124	57
243.341	87.72
243.558	40.62
243.775	87.72
243.992	46.76
244.209	73.39
244.426	52.91
244.643	165.54
244.86	7.85
245.078	104.11
245.295	114.34
245.512	106.15
245.729	-4.44
245.946	57
246.163	130.73
246.38	28.33
246.597	-4.44
246.814	13.99
247.031	97.96
247.248	65.19
247.464	54.95
247.681	30.38
247.898	69.29
248.115	20.14
248.332	30.38
248.549	32.43
248.766	134.82
248.983	93.87
249.2	65.19
249.417	112.3
249.633	22.19
249.85	79.53
250.067	3.75
250.284	57
250.501	73.39
250.717	134.82
250.934	-57.68
251.151	120.49
251.368	-4.44
251.585	87.72
251.801	106.15
252.018	44.71
252.235	73.39
252.451	73.39
252.668	7.85
252.885	73.39
253.102	89.77
253.318	59.05
253.535	-37.2
253.752	93.87
253.968	11.95
254.185	85.67
254.401	87.72
254.618	40.62
254.835	65.19
255.051	95.91
255.268	40.62
255.484	61.1
255.701	11.95
255.917	67.24
256.134	-2.39
256.351	87.72
256.567	-0.34
256.784	-57.68
257	-51.54
257.217	30.38
257.433	65.19
257.65	1.71
257.866	73.39
258.082	-0.34
258.299	3.75
258.515	40.62
258.732	-24.92
258.948	16.04
259.165	32.43
259.381	16.04
259.597	42.67
259.814	40.62
260.03	-20.82
260.246	91.82
260.463	93.87
260.679	81.58
260.895	104.11
261.112	59.05
261.328	28.33
261.544	3.75
261.761	128.68
261.977	63.15
262.193	-4.44
262.409	71.34
262.626	48.81
262.842	52.91
263.058	30.38
263.274	22.19
263.49	-8.53
263.707	93.87
263.923	28.33
264.139	22.19
264.355	-0.34
264.571	81.58
264.787	65.19
265.004	145.06
265.22	-24.92
265.436	-8.53
265.652	22.19
265.868	44.71
266.084	-12.63
266.3	63.15
266.516	18.09
266.732	97.96
266.948	38.57
267.164	54.95
267.38	28.33
267.596	89.77
267.812	163.5
268.028	-4.44
268.244	54.95
268.46	-10.58
268.676	52.91
268.892	-31.06
269.108	40.62
269.324	73.39
269.54	63.15
269.756	65.19
269.972	50.86
270.188	40.62
270.403	24.23
270.619	3.75
270.835	71.34
271.051	159.4
271.267	24.23
271.483	-39.25
271.698	42.67
271.914	69.29
272.13	40.62
272.346	16.04
272.562	48.81
272.777	95.91
272.993	52.91
273.209	22.19
273.425	18.09
273.64	63.15
273.856	120.49
274.072	38.57
274.287	57
274.503	36.52
274.719	52.91
274.934	18.09
275.15	52.91
275.366	54.95
275.581	13.99
275.797	75.43
276.012	20.14
276.228	63.15
276.444	85.67
276.659	69.29
276.875	32.43
277.09	114.34
277.306	7.85
277.521	112.3
277.737	97.96
277.952	30.38
278.168	65.19
278.383	44.71
278.599	61.1
278.814	106.15
279.03	63.15
279.245	122.54
279.461	40.62
279.676	63.15
279.892	-45.4
280.107	59.05
280.322	9.9
280.538	130.73
280.753	32.43
280.969	54.95
281.184	7.85
281.399	110.25
281.615	104.11
281.83	30.38
282.045	-8.53
282.26	-29.01
282.476	13.99
282.691	32.43
282.906	46.76
283.122	116.39
283.337	52.91
283.552	71.34
283.767	44.71
283.983	11.95
284.198	46.76
284.413	95.91
284.628	24.23
284.843	52.91
285.058	83.63
285.274	69.29
285.489	7.85
285.704	28.33
285.919	48.81
286.134	93.87
286.349	24.23
286.564	-4.44
286.779	122.54
286.995	79.53
287.21	-0.34
287.425	65.19
287.64	30.38
287.855	73.39
288.07	-0.34
288.285	79.53
288.5	79.53
288.715	134.82
288.93	81.58
289.145	-8.53
289.36	59.05
289.575	63.15
289.79	114.34
290.004	-0.34
290.219	40.62
290.434	28.33
290.649	30.38
290.864	-12.63
291.079	-20.82
291.294	118.44
291.509	65.19
291.724	32.43
291.938	65.19
292.153	30.38
292.368	120.49
292.583	83.63
292.798	130.73
293.012	61.1
293.227	97.96
293.442	20.14
293.657	65.19
293.871	61.1
294.086	44.71
294.301	126.63
294.516	69.29
294.73	52.91
294.945	24.23
295.16	44.71
295.374	57
295.589	179.88
295.804	87.72
296.018	63.15
296.233	73.39
296.447	32.43
296.662	7.85
296.877	26.28
297.091	9.9
297.306	30.38
297.52	5.8
297.735	28.33
297.949	61.1
298.164	97.96
298.378	36.52
298.593	36.52
298.807	22.19
299.022	36.52
299.236	24.23
299.451	38.57
299.665	36.52
299.88	-20.82
300.094	11.95
300.309	93.87
300.523	57
300.737	-12.63
300.952	48.81
301.166	34.47
301.381	34.47
301.595	-4.44
301.809	81.58
302.024	77.48
302.238	-51.54
302.452	155.3
302.667	114.34
302.881	34.47
303.095	145.06
303.309	24.23
303.524	3.75
303.738	102.06
303.952	106.15
304.166	145.06
304.381	-53.59
304.595	134.82
304.809	52.91
305.023	57
305.237	11.95
305.452	16.04
305.666	95.91
305.88	63.15
306.094	104.11
306.308	32.43
306.522	57
306.736	110.25
306.95	91.82
307.164	-29.01
307.379	-29.01
307.593	81.58
307.807	122.54
308.021	79.53
308.235	18.09
308.449	18.09
308.663	59.05
308.877	83.63
309.091	69.29
309.305	-20.82
309.519	46.76
309.733	91.82
309.947	46.76
310.161	40.62
310.374	71.34
310.588	40.62
310.802	-55.64
311.016	57
311.23	89.77
311.444	16.04
311.658	54.95
311.872	124.58
312.085	147.11
312.299	16.04
312.513	65.19
312.727	1.71
312.941	20.14
313.154	73.39
313.368	7.85
313.582	38.57
313.796	11.95
314.009	30.38
314.223	93.87
314.437	151.21
314.651	44.71
314.864	18.09
315.078	1.71
315.292	-0.34
315.505	59.05
315.719	65.19
315.933	73.39
316.146	97.96
316.36	34.47
316.573	63.15
316.787	138.92
317.001	-45.4
317.214	32.43
317.428	102.06
317.641	13.99
317.855	32.43
318.068	79.53
318.282	79.53
318.495	63.15
318.709	36.52
318.922	57
319.136	132.78
319.349	93.87
319.563	112.3
319.776	83.63
319.99	20.14
320.203	30.38
320.417	-16.73
320.63	32.43
320.843	104.11
321.057	165.54
321.27	52.91
321.483	9.9
321.697	7.85
321.91	57
322.124	114.34
322.337	102.06
322.55	-4.44
322.763	30.38
322.977	46.76
323.19	63.15
323.403	48.81
323.617	-37.2
323.83	87.72
324.043	48.81
324.256	44.71
324.469	77.48
324.683	81.58
324.896	57
325.109	138.92
325.322	30.38
325.535	91.82
325.748	44.71
325.962	59.05
326.175	52.91
326.388	149.16
326.601	-33.11
326.814	38.57
327.027	147.11
327.24	77.48
327.453	-65.88
327.666	122.54
327.879	122.54
328.092	106.15
328.305	73.39
328.518	102.06
328.731	-4.44
328.944	-0.34
329.157	24.23
329.37	34.47
329.583	106.15
329.796	81.58
330.009	52.91
330.222	59.05
330.435	61.1
330.648	63.15
330.861	65.19
331.073	108.2
331.286	93.87
331.499	40.62
331.712	65.19
331.925	85.67
332.138	52.91
332.35	40.62
332.563	61.1
332.776	93.87
332.989	59.05
333.202	52.91
333.414	63.15
333.627	30.38
333.84	34.47
334.053	93.87
334.265	97.96
334.478	63.15
334.691	69.29
334.903	106.15
335.116	24.23
335.329	32.43
335.541	65.19
335.754	97.96
335.966	13.99
336.179	65.19
336.392	73.39
336.604	63.15
336.817	46.76
337.029	77.48
337.242	30.38
337.454	134.82
337.667	120.49
337.88	97.96
338.092	13.99
338.305	65.19
338.517	79.53
338.729	79.53
338.942	24.23
339.154	26.28
339.367	40.62
339.579	85.67
339.792	57
340.004	102.06
340.217	65.19
340.429	-10.58
340.641	73.39
340.854	-0.34
341.066	69.29
341.278	48.81
341.491	57
341.703	132.78
341.915	57
342.128	40.62
342.34	69.29
342.552	63.15
342.764	79.53
342.977	93.87
343.189	114.34
343.401	69.29
343.613	57
343.826	57
344.038	36.52
344.25	89.77
344.462	7.85
344.674	42.67
344.886	57
345.099	97.96
345.311	126.63
345.523	67.24
345.735	20.14
345.947	126.63
346.159	40.62
346.371	79.53
346.583	46.76
346.795	212.65
347.007	97.96
347.219	83.63
347.431	120.49
347.643	69.29
347.855	102.06
348.067	73.39
348.279	-33.11
348.491	46.76
348.703	54.95
348.915	130.73
349.127	57
349.339	87.72
349.551	50.86
349.763	54.95
349.975	32.43
350.187	112.3
350.399	124.58
350.61	30.38
350.822	34.47
351.034	40.62
351.246	24.23
351.458	73.39
351.669	7.85
351.881	106.15
352.093	132.78
352.305	89.77
352.517	120.49
352.728	50.86
352.94	87.72
353.152	50.86
353.363	63.15
353.575	102.06
353.787	11.95
353.999	93.87
354.21	48.81
354.422	28.33
354.633	5.8
354.845	40.62
355.057	54.95
355.268	-18.77
355.48	97.96
355.692	18.09
355.903	32.43
356.115	40.62
356.326	3.75
356.538	83.63
356.749	57
356.961	163.5
357.172	106.15
357.384	7.85
357.595	153.26
357.807	24.23
358.018	-10.58
358.23	81.58
358.441	124.58
358.653	177.83
358.864	93.87
359.075	13.99
359.287	-24.92
359.498	134.82
359.709	48.81
359.921	52.91
360.132	81.58
360.344	79.53
360.555	40.62
360.766	77.48
360.977	7.85
361.189	120.49
361.4	38.57
361.611	100.01
361.823	61.1
362.034	112.3
362.245	-12.63
362.456	38.57
362.667	-63.83
362.879	83.63
363.09	63.15
363.301	65.19
363.512	110.25
363.723	83.63
363.935	65.19
364.146	122.54
364.357	59.05
364.568	-4.44
364.779	44.71
364.99	126.63
365.201	36.52
365.412	44.71
365.623	48.81
365.834	112.3
366.045	81.58
366.256	128.68
366.467	81.58
366.678	16.04
366.889	89.77
367.1	73.39
367.311	89.77
367.522	7.85
367.733	61.1
367.944	97.96
368.155	-6.49
368.366	65.19
368.577	-0.34
368.788	52.91
368.999	75.43
369.209	75.43
369.42	157.35
369.631	132.78
369.842	87.72
370.053	104.11
370.264	50.86
370.474	34.47
370.685	106.15
370.896	83.63
371.107	130.73
371.317	77.48
371.528	145.06
371.739	140.97
371.95	48.81
372.16	28.33
372.371	-33.11
372.582	46.76
372.792	73.39
373.003	89.77
373.214	20.14
373.424	130.73
373.635	73.39
373.846	-45.4
374.056	81.58
374.267	57
374.477	95.91
374.688	-20.82
374.898	118.44
375.109	65.19
375.319	57
375.53	198.31
375.74	71.34
375.951	34.47
376.161	69.29
376.372	18.09
376.582	106.15
376.793	20.14
377.003	7.85
377.214	38.57
377.424	112.3
377.635	40.62
377.845	161.45
378.055	120.49
378.266	81.58
378.476	57
378.686	97.96
378.897	38.57
379.107	93.87
379.317	97.96
379.528	57
379.738	128.68
379.948	-12.63
380.158	28.33
380.369	7.85
380.579	167.59
380.789	36.52
380.999	110.25
381.21	116.39
381.42	155.3
381.63	36.52
381.84	61.1
382.05	130.73
382.261	20.14
382.471	95.91
382.681	77.48
382.891	79.53
383.101	46.76
383.311	65.19
383.521	-37.2
383.731	42.67
383.941	112.3
384.151	-2.39
384.361	114.34
384.571	102.06
384.781	7.85
384.991	40.62
385.201	169.64
385.411	22.19
385.621	81.58
385.831	100.01
386.041	13.99
386.251	59.05
386.461	69.29
386.671	30.38
386.881	48.81
387.091	40.62
387.301	5.8
387.511	-14.68
387.72	81.58
387.93	143.02
388.14	-33.11
388.35	85.67
388.56	81.58
388.769	79.53
388.979	91.82
389.189	95.91
389.399	112.3
389.609	120.49
389.818	104.11
390.028	81.58
390.238	112.3
390.447	48.81
390.657	42.67
390.867	122.54
391.076	73.39
391.286	73.39
391.496	69.29
391.705	102.06
391.915	110.25
392.125	112.3
392.334	24.23
392.544	69.29
392.753	79.53
392.963	114.34
393.172	104.11
393.382	52.91
393.591	97.96
393.801	161.45
394.01	110.25
394.22	16.04
394.429	112.3
394.639	95.91
394.848	95.91
395.058	151.21
395.267	126.63
395.477	114.34
395.686	112.3
395.895	143.02
396.105	163.5
396.314	136.87
396.524	145.06
396.733	132.78
396.942	145.06
397.152	106.15
397.361	183.98
397.57	89.77
397.78	93.87
397.989	110.25
398.198	136.87
398.407	155.3
398.617	140.97
398.826	110.25
399.035	81.58
399.244	126.63
399.453	167.59
399.663	122.54
399.872	159.4
400.081	57
400.29	196.26
400.499	81.58
400.708	167.59
400.917	75.43
401.127	69.29
401.336	198.31
401.545	175.78
401.754	81.58
401.963	138.92
402.172	110.25
402.381	153.26
402.59	145.06
402.799	208.55
403.008	210.6
403.217	140.97
403.426	177.83
403.635	63.15
403.844	138.92
404.053	165.54
404.262	200.36
404.471	218.79
404.68	171.69
404.888	149.16
405.097	212.65
405.306	147.11
405.515	204.46
405.724	128.68
405.933	192.17
406.142	216.74
406.35	161.45
406.559	196.26
406.768	175.78
406.977	226.98
407.185	257.7
407.394	220.84
407.603	231.08
407.812	259.75
408.02	333.48
408.229	288.42
408.438	274.09
408.646	233.13
408.855	224.94
409.064	308.9
409.272	317.09
409.481	308.9
409.69	294.57
409.898	325.29
410.107	372.39
410.315	333.48
410.524	333.48
410.733	353.96
410.941	292.52
411.15	415.4
411.358	376.48
411.567	401.06
411.775	396.96
411.984	423.59
412.192	417.44
412.401	534.18
412.609	548.51
412.818	513.7
413.026	554.66
413.234	462.5
413.443	546.47
413.651	573.09
413.86	548.51
414.068	646.82
414.276	661.15
414.485	622.24
414.693	638.62
414.901	728.74
415.11	675.49
415.318	657.06
415.526	769.69
415.734	810.65
415.943	818.85
416.151	855.71
416.359	884.38
416.567	982.68
416.776	868
416.984	958.11
417.192	986.78
417.4	1003.16
417.608	917.15
417.817	1080.99
418.025	1111.71
418.233	1281.69
418.441	1103.51
418.649	1101.47
418.857	1300.12
419.065	1351.32
419.273	1302.17
419.481	1267.35
419.689	1494.68
419.897	1445.52
420.105	1437.33
420.313	1515.16
420.521	1705.62
420.729	1736.34
420.937	1734.29
421.145	1695.38
421.353	1826.45
421.561	1969.8
421.769	1945.23
421.977	2039.44
422.185	2084.49
422.393	2088.59
422.601	2324.1
422.809	2317.96
423.017	2334.34
423.224	2391.69
423.432	2539.14
423.64	2412.17
423.848	2707.07
424.056	2692.74
424.263	2877.05
424.471	2956.93
424.679	2877.05
424.887	3112.57
425.094	3159.67
425.302	3178.11
425.51	3280.5
425.718	3473.01
425.925	3585.65
426.133	3755.63
426.341	3815.02
426.548	3997.29
426.756	3806.83
426.964	4052.59
427.171	4152.94
427.379	4316.78
427.586	4404.84
427.794	4445.8
428.001	4814.43
428.209	4914.78
428.417	4882.02
428.624	5262.94
428.832	5160.54
429.039	5129.82
429.247	5160.54
429.454	5652.05
429.662	5928.53
429.869	5697.11
430.076	6026.83
430.284	5713.49
430.491	6194.76
430.699	6446.66
430.906	6526.54
431.114	6657.61
431.321	6831.68
431.528	7040.58
431.736	7472.7
431.943	7683.64
432.15	7470.65
432.358	7380.54
432.565	8017.46
432.772	7781.94
432.979	8371.75
433.187	8685.09
433.394	8617.51
433.601	9254.43
433.808	9381.4
434.016	9182.75
434.223	9365.02
434.43	10219.02
434.637	9807.38
434.844	10323.47
435.052	10771.97
435.259	10690.06
435.466	10862.08
435.673	10755.59
435.88	11308.54
436.087	11902.45
436.294	12074.48
436.501	11972.08
436.708	11628.03
436.915	12330.48
437.122	13034.98
437.329	12850.66
437.537	13204.96
437.743	13589.98
437.95	13282.78
438.157	14151.12
438.364	14710.22
438.571	14439.89
438.778	14480.85
438.985	15969.72
439.192	15472.06
439.399	15949.24
439.606	15410.62
439.813	16489.9
440.02	17280.42
440.227	17141.16
440.433	16752.04
440.64	17544.61
440.847	17229.22
441.054	17917.34
441.261	19064.2
441.467	18433.43
441.674	19178.89
441.881	19996.03
442.088	19283.33
442.294	19709.31
442.501	19885.44
442.708	20290.93
442.914	21103.98
443.121	22259.03
443.328	21515.62
443.534	23123.27
443.741	22474.07
443.948	21970.27
444.154	24083.77
444.361	23631.17
444.568	23942.46
444.774	23876.93
444.981	24094.01
445.187	24827.18
445.394	25904.42
445.6	25580.84
445.807	28495.1
446.013	27096.33
446.22	27049.23
446.426	28343.55
446.633	28742.9
446.839	29582.57
447.046	28378.36
447.252	29859.04
447.459	29713.64
447.665	29582.57
447.871	31341.77
448.078	32214.21
448.284	30821.59
448.491	31737.03
448.697	32711.86
448.903	33262.77
449.11	33494.19
449.316	32867.51
449.522	33598.63
449.728	34602.14
449.935	34616.47
450.141	34725.02
450.347	35691.66
450.553	34358.43
450.76	34479.26
450.966	35986.57
451.172	35310.74
451.378	36572.28
451.584	35603.6
451.791	36238.47
451.997	35914.89
452.203	36834.42
452.409	36641.92
452.615	36637.82
452.821	35361.94
453.027	34829.46
453.233	36598.91
453.44	35566.73
453.646	35443.85
453.852	35529.87
454.058	36269.19
454.264	35140.75
454.47	35982.47
454.676	34858.13
454.882	36179.07
455.088	32902.32
455.294	33420.46
455.5	34020.52
455.705	34186.4
455.911	32885.94
456.117	32384.19
456.323	31825.09
456.529	29943.01
456.735	31257.81
456.941	30455
457.147	30145.76
457.352	28841.2
457.558	28601.59
457.764	28558.58
457.97	28048.64
458.176	27583.75
458.381	27436.3
458.587	26307.87
458.793	25732.39
458.999	24886.57
459.204	26584.34
459.41	25765.15
459.616	24132.92
459.821	24063.29
460.027	23997.76
460.233	23612.74
460.438	22297.94
460.644	22664.53
460.85	21763.42
461.055	21165.42
461.261	20856.17
461.466	19553.66
461.672	18947.47
461.878	20358.52
462.083	18961.8
462.289	18619.79
462.494	18320.79
462.7	17798.56
462.905	17243.56
463.111	17816.99
463.316	17892.76
463.522	17493.41
463.727	17470.88
463.932	17563.04
464.138	17180.07
464.343	17446.3
464.549	16770.47
464.754	17393.06
464.959	17016.23
465.165	17077.67
465.37	16512.43
465.575	15877.56
465.781	16547.25
465.986	16795.05
466.191	16012.73
466.397	15904.18
466.602	14919.11
466.807	15439.3
467.012	15709.63
467.218	15328.7
