Data from USB4F104151__46__11-30-29-712.txt Node

Date: Fri Mar 14 11:30:29 EDT 2025
User: louis
Spectrometer: USB4F10415
Trigger mode: 4
Integration Time (sec): 5.000000E-2
Scans to average: 1
Electric dark correction enabled: true
Nonlinearity correction enabled: false
Boxcar width: 0
XAxis mode: Wavelengths
Number of Pixels in Spectrum: 3648
>>>>>Begin Spectral Data<<<<<
178.204	-161.79
178.424	-161.79
178.644	-161.79
178.864	-155.65
179.084	-159.74
179.304	10.24
179.524	-18.43
179.744	-59.39
179.964	20.48
180.184	-20.48
180.404	-18.43
180.624	-4.1
180.844	-34.82
181.064	43.01
181.283	14.34
181.503	49.15
181.723	18.43
181.943	-98.3
182.163	34.82
182.383	4.1
182.602	34.82
182.822	100.35
183.042	-2.05
183.262	-28.67
183.482	6.14
183.701	71.68
183.921	63.49
184.141	-47.1
184.361	-16.38
184.58	2.05
184.8	116.73
185.02	-94.21
185.239	40.96
185.459	-10.24
185.679	36.86
185.898	-18.43
186.118	-6.14
186.338	-10.24
186.557	38.91
186.777	-14.34
186.997	-2.05
187.216	38.91
187.436	86.01
187.655	108.54
187.875	2.05
188.095	-12.29
188.314	2.05
188.534	14.34
188.753	4.1
188.973	77.82
189.192	63.49
189.412	61.44
189.631	4.1
189.851	-83.97
190.07	120.83
190.29	-8.19
190.509	24.58
190.729	-51.2
190.948	96.25
191.168	90.11
191.387	36.86
191.607	-116.73
191.826	22.53
192.045	55.3
192.265	47.1
192.484	8.19
192.704	28.67
192.923	16.38
193.142	126.97
193.362	45.06
193.581	38.91
193.8	47.1
194.02	20.48
194.239	-30.72
194.458	69.63
194.678	-22.53
194.897	2.05
195.116	20.48
195.335	47.1
195.555	77.82
195.774	4.1
195.993	55.3
196.212	-14.34
196.432	-12.29
196.651	28.67
196.87	18.43
197.089	120.83
197.308	6.14
197.528	34.82
197.747	-75.77
197.966	-45.06
198.185	71.68
198.404	-36.86
198.623	-63.49
198.842	96.25
199.062	43.01
199.281	63.49
199.5	79.87
199.719	18.43
199.938	24.58
200.157	71.68
200.376	6.14
200.595	4.1
200.814	-2.05
201.033	67.58
201.252	61.44
201.471	-4.1
201.69	24.58
201.909	30.72
202.128	-18.43
202.347	10.24
202.566	-10.24
202.785	12.29
203.004	34.82
203.223	10.24
203.442	20.48
203.661	-4.1
203.879	6.14
204.098	24.58
204.317	-43.01
204.536	20.48
204.755	71.68
204.974	-24.58
205.193	30.72
205.411	40.96
205.63	6.14
205.849	38.91
206.068	26.62
206.287	-30.72
206.505	-10.24
206.724	-4.1
206.943	69.63
207.162	14.34
207.381	59.39
207.599	16.38
207.818	61.44
208.037	22.53
208.255	38.91
208.474	-8.19
208.693	77.82
208.911	38.91
209.13	-2.05
209.349	30.72
209.567	-24.58
209.786	55.3
210.005	-4.1
210.223	51.2
210.442	-30.72
210.661	43.01
210.879	-2.05
211.098	-16.38
211.316	-8.19
211.535	-2.05
211.753	-55.3
211.972	26.62
212.191	6.14
212.409	-53.25
212.628	45.06
212.846	-30.72
213.065	47.1
213.283	-2.05
213.502	38.91
213.72	0
213.938	-4.1
214.157	79.87
214.375	118.78
214.594	28.67
214.812	55.3
215.031	-14.34
215.249	10.24
215.467	-73.73
215.686	61.44
215.904	36.86
216.122	-51.2
216.341	45.06
216.559	47.1
216.778	77.82
216.996	30.72
217.214	-4.1
217.432	-34.82
217.651	-71.68
217.869	-34.82
218.087	38.91
218.306	-55.3
218.524	22.53
218.742	40.96
218.96	133.12
219.179	-10.24
219.397	-14.34
219.615	133.12
219.833	26.62
220.051	-79.87
220.27	24.58
220.488	63.49
220.706	-6.14
220.924	36.86
221.142	-38.91
221.36	14.34
221.578	-45.06
221.796	16.38
222.015	69.63
222.233	-32.77
222.451	67.58
222.669	-22.53
222.887	38.91
223.105	-26.62
223.323	45.06
223.541	30.72
223.759	6.14
223.977	2.05
224.195	57.34
224.413	30.72
224.631	-28.67
224.849	63.49
225.067	71.68
225.285	22.53
225.503	61.44
225.721	-141.31
225.939	34.82
226.157	-12.29
226.375	116.73
226.592	69.63
226.81	16.38
227.028	77.82
227.246	32.77
227.464	-77.82
227.682	20.48
227.9	28.67
228.117	55.3
228.335	-28.67
228.553	10.24
228.771	10.24
228.989	30.72
229.206	26.62
229.424	10.24
229.642	-55.3
229.86	-45.06
230.077	112.64
230.295	28.67
230.513	77.82
230.731	104.45
230.948	-2.05
231.166	90.11
231.384	-26.62
231.601	-51.2
231.819	120.83
232.037	-73.73
232.254	-10.24
232.472	92.16
232.689	12.29
232.907	75.77
233.125	12.29
233.342	12.29
233.56	53.25
233.777	2.05
233.995	20.48
234.213	114.69
234.43	20.48
234.648	16.38
234.865	-32.77
235.083	2.05
235.3	-30.72
235.518	-30.72
235.735	88.06
235.953	38.91
236.17	-16.38
236.388	0
236.605	-20.48
236.822	81.92
237.04	53.25
237.257	2.05
237.475	-69.63
237.692	75.77
237.909	86.01
238.127	20.48
238.344	63.49
238.562	-65.53
238.779	-38.91
238.996	-10.24
239.214	61.44
239.431	8.19
239.648	-28.67
239.865	71.68
240.083	73.73
240.3	-63.49
240.517	-10.24
240.735	69.63
240.952	49.15
241.169	100.35
241.386	2.05
241.603	18.43
241.821	-22.53
242.038	22.53
242.255	45.06
242.472	63.49
242.689	32.77
242.907	79.87
243.124	-14.34
243.341	73.73
243.558	-61.44
243.775	-28.67
243.992	-51.2
244.209	34.82
244.426	20.48
244.643	81.92
244.86	-2.05
245.078	38.91
245.295	16.38
245.512	10.24
245.729	-10.24
245.946	45.06
246.163	4.1
246.38	45.06
246.597	26.62
246.814	-67.58
247.031	-2.05
247.248	32.77
247.464	69.63
247.681	10.24
247.898	24.58
248.115	24.58
248.332	-36.86
248.549	57.34
248.766	34.82
248.983	10.24
249.2	30.72
249.417	69.63
249.633	-12.29
249.85	-63.49
250.067	-16.38
250.284	71.68
250.501	-10.24
250.717	18.43
250.934	4.1
251.151	-4.1
251.368	-47.1
251.585	10.24
251.801	2.05
252.018	-26.62
252.235	20.48
252.451	-18.43
252.668	8.19
252.885	16.38
253.102	22.53
253.318	47.1
253.535	-4.1
253.752	6.14
253.968	2.05
254.185	-12.29
254.401	-30.72
254.618	30.72
254.835	2.05
255.051	38.91
255.268	61.44
255.484	38.91
255.701	47.1
255.917	55.3
256.134	30.72
256.351	22.53
256.567	14.34
256.784	65.54
257	-61.44
257.217	36.86
257.433	-73.73
257.65	-38.91
257.866	30.72
258.082	-20.48
258.299	-59.39
258.515	-2.05
258.732	6.14
258.948	12.29
259.165	-14.34
259.381	30.72
259.597	88.06
259.814	-12.29
260.03	-26.62
260.246	-6.14
260.463	63.49
260.679	28.67
260.895	94.21
261.112	-26.62
261.328	-12.29
261.544	0
261.761	153.6
261.977	65.54
262.193	-55.3
262.409	71.68
262.626	14.34
262.842	61.44
263.058	12.29
263.274	18.43
263.49	14.34
263.707	28.67
263.923	-45.06
264.139	-59.39
264.355	22.53
264.571	57.34
264.787	63.49
265.004	108.54
265.22	-18.43
265.436	28.67
265.652	-28.67
265.868	32.77
266.084	-51.2
266.3	83.97
266.516	-43.01
266.732	22.53
266.948	47.1
267.164	45.06
267.38	55.3
267.596	10.24
267.812	63.49
268.028	6.14
268.244	-49.15
268.46	26.62
268.676	4.1
268.892	-20.48
269.108	-59.39
269.324	-45.06
269.54	-14.34
269.756	96.25
269.972	-38.91
270.188	-51.2
270.403	53.25
270.619	12.29
270.835	47.1
271.051	-16.38
271.267	6.14
271.483	14.34
271.698	51.2
271.914	22.53
272.13	-49.15
272.346	-12.29
272.562	20.48
272.777	63.49
272.993	-18.43
273.209	36.86
273.425	28.67
273.64	-75.77
273.856	51.2
274.072	14.34
274.287	-79.87
274.503	36.86
274.719	-49.15
274.934	0
275.15	-102.4
275.366	28.67
275.581	2.05
275.797	-22.53
276.012	14.34
276.228	-47.1
276.444	24.58
276.659	65.54
276.875	-2.05
277.09	-24.58
277.306	-53.25
277.521	83.97
277.737	0
277.952	49.15
278.168	-53.25
278.383	-26.62
278.599	6.14
278.814	100.35
279.03	-67.58
279.245	129.02
279.461	45.06
279.676	6.14
279.892	-30.72
280.107	-38.91
280.322	-16.38
280.538	-22.53
280.753	-22.53
280.969	47.1
281.184	40.96
281.399	10.24
281.615	32.77
281.83	92.16
282.045	53.25
282.26	0
282.476	24.58
282.691	100.35
282.906	28.67
283.122	-24.58
283.337	38.91
283.552	61.44
283.767	-34.82
283.983	47.1
284.198	-30.72
284.413	47.1
284.628	-55.3
284.843	18.43
285.058	12.29
285.274	34.82
285.489	-86.01
285.704	73.73
285.919	-40.96
286.134	-10.24
286.349	10.24
286.564	-43.01
286.779	69.63
286.995	45.06
287.21	2.05
287.425	-20.48
287.64	-53.25
287.855	12.29
288.07	-34.82
288.285	0
288.5	61.44
288.715	16.38
288.93	-6.14
289.145	-6.14
289.36	22.53
289.575	45.06
289.79	40.96
290.004	59.39
290.219	67.58
290.434	14.34
290.649	-32.77
290.864	57.34
291.079	-4.1
291.294	-10.24
291.509	6.14
291.724	51.2
291.938	30.72
292.153	10.24
292.368	-24.58
292.583	-6.14
292.798	-28.67
293.012	-38.91
293.227	26.62
293.442	-49.15
293.657	30.72
293.871	104.45
294.086	10.24
294.301	108.54
294.516	36.86
294.73	75.77
294.945	-34.82
295.16	-6.14
295.374	104.45
295.589	79.87
295.804	32.77
296.018	79.87
296.233	32.77
296.447	-10.24
296.662	14.34
296.877	-6.14
297.091	-10.24
297.306	51.2
297.52	-2.05
297.735	-12.29
297.949	-28.67
298.164	71.68
298.378	8.19
298.593	-14.34
298.807	22.53
299.022	8.19
299.236	79.87
299.451	-4.1
299.665	10.24
299.88	-18.43
300.094	-28.67
300.309	43.01
300.523	2.05
300.737	-2.05
300.952	-18.43
301.166	34.82
301.381	-4.1
301.595	14.34
301.809	2.05
302.024	26.62
302.238	-86.01
302.452	38.91
302.667	47.1
302.881	65.54
303.095	104.45
303.309	-43.01
303.524	94.21
303.738	49.15
303.952	-2.05
304.166	-22.53
304.381	-83.97
304.595	57.34
304.809	12.29
305.023	51.2
305.237	49.15
305.452	-53.25
305.666	83.97
305.88	96.25
306.094	-2.05
306.308	-14.34
306.522	67.58
306.736	77.82
306.95	14.34
307.164	10.24
307.379	-10.24
307.593	53.25
307.807	83.97
308.021	38.91
308.235	38.91
308.449	-4.1
308.663	0
308.877	57.34
309.091	30.72
309.305	-28.67
309.519	-34.82
309.733	30.72
309.947	-8.19
310.161	38.91
310.374	61.44
310.588	69.63
310.802	4.1
311.016	-8.19
311.23	38.91
311.444	51.2
311.658	-22.53
311.872	38.91
312.085	-22.53
312.299	67.58
312.513	57.34
312.727	-6.14
312.941	-34.82
313.154	2.05
313.368	79.87
313.582	40.96
313.796	-6.14
314.009	10.24
314.223	77.82
314.437	-4.1
314.651	108.54
314.864	-45.06
315.078	2.05
315.292	10.24
315.505	86.01
315.719	-10.24
315.933	4.1
316.146	-16.38
316.36	20.48
316.573	6.14
316.787	-79.87
317.001	-2.05
317.214	-20.48
317.428	-10.24
317.641	47.1
317.855	-20.48
318.068	10.24
318.282	71.68
318.495	45.06
318.709	38.91
318.922	67.58
319.136	30.72
319.349	63.49
319.563	-16.38
319.776	-18.43
319.99	8.19
320.203	22.53
320.417	45.06
320.63	38.91
320.843	71.68
321.057	4.1
321.27	16.38
321.483	-10.24
321.697	47.1
321.91	79.87
322.124	79.87
322.337	69.63
322.55	61.44
322.763	26.62
322.977	69.63
323.19	-10.24
323.403	14.34
323.617	-14.34
323.83	6.14
324.043	14.34
324.256	65.54
324.469	36.86
324.683	120.83
324.896	45.06
325.109	-38.91
325.322	10.24
325.535	-51.2
325.748	69.63
325.962	-20.48
326.175	-14.34
326.388	20.48
326.601	51.2
326.814	53.25
327.027	20.48
327.24	167.93
327.453	-18.43
327.666	28.67
327.879	-26.62
328.092	102.4
328.305	22.53
328.518	30.72
328.731	-28.67
328.944	-12.29
329.157	-2.05
329.37	-2.05
329.583	18.43
329.796	55.3
330.009	34.82
330.222	45.06
330.435	88.06
330.648	40.96
330.861	53.25
331.073	-18.43
331.286	77.82
331.499	-6.14
331.712	-10.24
331.925	28.67
332.138	49.15
332.35	-8.19
332.563	8.19
332.776	12.29
332.989	22.53
333.202	65.54
333.414	-40.96
333.627	-6.14
333.84	10.24
334.053	53.25
334.265	-55.3
334.478	-20.48
334.691	71.68
334.903	28.67
335.116	14.34
335.329	61.44
335.541	86.01
335.754	59.39
335.966	-26.62
336.179	51.2
336.392	47.1
336.604	10.24
336.817	30.72
337.029	69.63
337.242	69.63
337.454	-26.62
337.667	18.43
337.88	18.43
338.092	-36.86
338.305	43.01
338.517	-28.67
338.729	28.67
338.942	53.25
339.154	-22.53
339.367	-24.58
339.579	-10.24
339.792	-22.53
340.004	71.68
340.217	14.34
340.429	49.15
340.641	-14.34
340.854	2.05
341.066	4.1
341.278	104.45
341.491	22.53
341.703	63.49
341.915	-10.24
342.128	26.62
342.34	36.86
342.552	6.14
342.764	-16.38
342.977	-12.29
343.189	24.58
343.401	-4.1
343.613	-16.38
343.826	-28.67
344.038	45.06
344.25	-18.43
344.462	24.58
344.674	0
344.886	4.1
345.099	55.3
345.311	8.19
345.523	26.62
345.735	-10.24
345.947	77.82
346.159	-12.29
346.371	10.24
346.583	-28.67
346.795	45.06
347.007	-6.14
347.219	55.3
347.431	67.58
347.643	12.29
347.855	10.24
348.067	120.83
348.279	34.82
348.491	47.1
348.703	22.53
348.915	-16.38
349.127	-108.54
349.339	-2.05
349.551	-26.62
349.763	59.39
349.975	-22.53
350.187	4.1
350.399	79.87
350.61	53.25
350.822	30.72
351.034	-6.14
351.246	86.01
351.458	4.1
351.669	-12.29
351.881	38.91
352.093	47.1
352.305	71.68
352.517	49.15
352.728	67.58
352.94	26.62
353.152	-26.62
353.363	-67.58
353.575	88.06
353.787	94.21
353.999	38.91
354.21	114.69
354.422	32.77
354.633	38.91
354.845	-45.06
355.057	30.72
355.268	0
355.48	45.06
355.692	-61.44
355.903	-43.01
356.115	-34.82
356.326	-34.82
356.538	67.58
356.749	-10.24
356.961	30.72
357.172	51.2
357.384	-49.15
357.595	98.3
357.807	26.62
358.018	-24.58
358.23	-18.43
358.441	59.39
358.653	51.2
358.864	30.72
359.075	26.62
359.287	26.62
359.498	65.54
359.709	49.15
359.921	-2.05
360.132	67.58
360.344	108.54
360.555	69.63
360.766	49.15
360.977	61.44
361.189	22.53
361.4	26.62
361.611	22.53
361.823	-43.01
362.034	-8.19
362.245	96.25
362.456	12.29
362.667	86.01
362.879	81.92
363.09	-22.53
363.301	55.3
363.512	-55.3
363.723	-34.82
363.935	10.24
364.146	34.82
364.357	51.2
364.568	-12.29
364.779	-53.25
364.99	75.77
365.201	38.91
365.412	118.78
365.623	12.29
365.834	38.91
366.045	38.91
366.256	20.48
366.467	-51.2
366.678	14.34
366.889	26.62
367.1	-55.3
367.311	49.15
367.522	83.97
367.733	69.63
367.944	61.44
368.155	45.06
368.366	-6.14
368.577	83.97
368.788	20.48
368.999	26.62
369.209	-45.06
369.42	124.93
369.631	53.25
369.842	-20.48
370.053	-12.29
370.264	131.07
370.474	20.48
370.685	55.3
370.896	75.77
371.107	112.64
371.317	53.25
371.528	-22.53
371.739	69.63
371.95	-12.29
372.16	38.91
372.371	2.05
372.582	6.14
372.792	30.72
373.003	12.29
373.214	4.1
373.424	112.64
373.635	-18.43
373.846	-30.72
374.056	-55.3
374.267	92.16
374.477	12.29
374.688	-20.48
374.898	67.58
375.109	34.82
375.319	104.45
375.53	77.82
375.74	6.14
375.951	20.48
376.161	96.25
376.372	53.25
376.582	-38.91
376.793	18.43
377.003	55.3
377.214	-30.72
377.424	63.49
377.635	6.14
377.845	77.82
378.055	120.83
378.266	-10.24
378.476	12.29
378.686	18.43
378.897	69.63
379.107	59.39
379.317	104.45
379.528	-18.43
379.738	63.49
379.948	71.68
380.158	34.82
380.369	-18.43
380.579	18.43
380.789	2.05
380.999	69.63
381.21	-36.86
381.42	63.49
381.63	36.86
381.84	36.86
382.05	79.87
382.261	88.06
382.471	61.44
382.681	-2.05
382.891	30.72
383.101	38.91
383.311	6.14
383.521	38.91
383.731	28.67
383.941	67.58
384.151	71.68
384.361	63.49
384.571	32.77
384.781	-16.38
384.991	102.4
385.201	81.92
385.411	40.96
385.621	28.67
385.831	30.72
386.041	22.53
386.251	102.4
386.461	88.06
386.671	59.39
386.881	-24.58
387.091	8.19
387.301	110.59
387.511	-2.05
387.72	-10.24
387.93	36.86
388.14	-6.14
388.35	55.3
388.56	83.97
388.769	83.97
388.979	-8.19
389.189	77.82
389.399	-10.24
389.609	49.15
389.818	47.1
390.028	94.21
390.238	96.25
390.447	6.14
390.657	79.87
390.867	10.24
391.076	12.29
391.286	73.73
391.496	-40.96
391.705	38.91
391.915	22.53
392.125	12.29
392.334	14.34
392.544	110.59
392.753	67.58
392.963	38.91
393.172	36.86
393.382	8.19
393.591	157.69
393.801	40.96
394.01	129.02
394.22	88.06
394.429	-10.24
394.639	79.87
394.848	10.24
395.058	94.21
395.267	81.92
395.477	110.59
395.686	92.16
395.895	137.21
396.105	208.89
396.314	-4.1
396.524	51.2
396.733	55.3
396.942	135.17
397.152	65.54
397.361	88.06
397.57	79.87
397.78	75.77
397.989	61.44
398.198	157.69
398.407	14.34
398.617	141.31
398.826	38.91
399.035	47.1
399.244	112.64
399.453	36.86
399.663	83.97
399.872	22.53
400.081	26.62
400.29	30.72
400.499	20.48
400.708	34.82
400.917	77.82
401.127	43.01
401.336	14.34
401.545	188.41
401.754	96.25
401.963	55.3
402.172	192.51
402.381	-12.29
402.59	14.34
402.799	100.35
403.008	110.59
403.217	104.45
403.426	47.1
403.635	51.2
403.844	71.68
404.053	79.87
404.262	135.17
404.471	151.55
404.68	145.41
404.888	153.6
405.097	133.12
405.306	104.45
405.515	67.58
405.724	112.64
405.933	63.49
406.142	133.12
406.35	143.36
406.559	110.59
406.768	120.83
406.977	180.22
407.185	122.88
407.394	178.17
407.603	157.69
407.812	196.61
408.02	161.79
408.229	182.27
408.438	194.56
408.646	194.56
408.855	217.08
409.064	200.7
409.272	178.17
409.481	256
409.69	219.13
409.898	188.41
410.107	258.04
410.315	270.33
410.524	227.32
410.733	251.9
410.941	243.71
411.15	296.96
411.358	358.39
411.567	331.77
411.775	323.58
411.984	243.71
412.192	317.44
412.401	325.63
412.609	391.16
412.818	460.79
413.026	372.73
413.234	350.2
413.443	395.26
413.651	401.4
413.86	456.7
414.068	612.34
414.276	530.42
414.485	493.56
414.693	577.53
414.901	684.02
415.11	622.58
415.318	616.44
415.526	526.33
415.734	643.06
415.943	602.1
416.151	645.11
416.359	579.58
416.567	667.64
416.776	821.24
416.984	817.14
417.192	845.81
417.4	847.86
417.608	798.71
417.817	825.33
418.025	835.57
418.233	1028.08
418.441	915.44
418.649	952.31
418.857	1007.6
419.065	1120.24
419.273	1021.94
419.481	1052.66
419.689	1232.88
419.897	1288.17
420.105	1216.49
420.313	1363.95
420.521	1439.72
420.729	1419.24
420.937	1335.28
421.145	1396.71
421.353	1697.77
421.561	1710.05
421.769	1658.85
421.977	1765.35
422.185	1730.53
422.393	1863.65
422.601	1904.61
422.809	1806.31
423.017	1906.66
423.224	2011.11
423.432	2076.64
423.64	1980.39
423.848	2295.77
424.056	2193.37
424.263	2355.16
424.471	2443.23
424.679	2553.82
424.887	2566.1
425.094	2545.63
425.302	2592.73
425.51	2723.8
425.718	2807.77
425.925	2895.83
426.133	2875.35
426.341	3219.41
426.548	3162.06
426.756	3280.85
426.964	3241.93
427.171	3387.34
427.379	3635.14
427.586	3651.53
427.794	3725.26
428.001	4005.83
428.209	4085.7
428.417	4040.64
428.624	4413.37
428.832	4249.54
429.039	4454.33
429.247	4245.44
429.454	4695.99
429.662	4984.76
429.869	4773.82
430.076	5187.5
430.284	5064.63
430.491	5103.54
430.699	5359.53
430.906	5390.25
431.114	5531.56
431.321	5719.98
431.528	5699.5
431.736	6211.49
431.943	6444.96
432.15	6277.02
432.358	6383.52
432.565	6672.28
432.772	6676.38
432.979	7143.31
433.187	7010.2
433.394	7139.22
433.601	7688.07
433.808	7751.56
434.016	7886.73
434.223	7980.93
434.43	8464.25
434.637	8247.17
434.844	8869.75
435.052	9064.31
435.259	9039.73
435.466	9021.3
435.673	8779.64
435.88	9504.62
436.087	9848.68
436.294	9785.19
436.501	9813.87
436.708	10037.09
436.915	10272.61
437.122	10704.73
437.329	10635.1
437.537	10843.99
437.743	11276.12
437.95	11235.16
438.157	11892.55
438.364	12154.69
438.571	12177.22
438.778	12195.65
438.985	13430.58
439.192	12771.13
439.399	13219.64
439.606	12834.62
439.813	13739.82
440.02	14481.19
440.227	14317.35
440.433	14110.5
440.64	14563.11
440.847	14681.89
441.054	14610.21
441.261	15572.75
441.467	15720.21
441.674	16058.12
441.881	16695.04
442.088	16510.72
442.294	16412.42
442.501	16836.35
442.708	17430.26
442.914	17594.1
443.121	18542.31
443.328	18042.6
443.534	19226.33
443.741	18958.05
443.948	18482.92
444.154	19996.37
444.361	19955.41
444.568	19875.54
444.774	19742.42
444.981	20231.88
445.187	20606.66
445.394	21898.93
445.6	21040.83
445.807	23191.2
446.013	22290.09
446.22	22757.03
446.426	23660.18
446.633	23940.75
446.839	24673.93
447.046	23748.25
447.252	25030.27
447.459	25126.53
447.665	25099.9
447.871	26031.73
448.078	27156.07
448.284	26007.16
448.491	26539.63
448.697	27553.37
448.903	28386.89
449.11	28192.34
449.316	27805.27
449.522	28106.32
449.728	28722.76
449.935	29009.48
450.141	29089.35
450.347	29799.99
450.553	28665.42
450.76	29066.82
450.966	30344.75
451.172	29748.79
451.378	30484.01
451.584	29849.14
451.791	30879.27
451.997	30299.7
452.203	30953
452.409	31008.29
452.615	30776.87
452.821	29310.53
453.027	29281.86
453.233	30957.1
453.44	29531.71
453.646	30004.79
453.852	30043.7
454.058	30633.52
454.264	29572.67
454.47	30004.79
454.676	29089.35
454.882	30459.44
455.088	27797.08
455.294	28472.91
455.5	28638.79
455.705	28905.03
455.911	27715.16
456.117	27160.16
456.323	26570.35
456.529	25216.64
456.735	26300.01
456.941	25716.34
457.147	25181.82
457.352	24532.62
457.558	24223.37
457.764	24217.23
457.97	23647.9
458.176	23248.54
458.381	23191.2
458.587	22292.14
458.793	21991.09
458.999	20950.72
459.204	22302.38
459.41	21511.86
459.616	20295.37
459.821	20551.37
460.027	20287.18
460.233	19877.58
460.438	18904.8
460.644	19156.7
460.85	18077.42
461.055	17913.58
461.261	17784.56
461.466	16514.82
461.672	15963.92
461.878	17280.76
462.083	16017.16
462.289	16008.97
462.494	15630.1
462.7	14894.88
462.905	14569.25
463.111	14978.84
463.316	14948.12
463.522	14808.86
463.727	14761.76
463.932	14546.72
464.138	14612.26
464.343	14473
464.549	14198.57
464.754	14677.79
464.959	14534.43
465.165	14364.45
465.37	13930.28
465.575	13406
465.781	13842.22
465.986	13981.48
466.191	13627.18
466.397	13193.01
466.602	12580.67
466.807	13248.31
467.012	13244.21
