Data from USB4F104151__73__11-31-36-255.txt Node

Date: Fri Mar 14 11:31:36 EDT 2025
User: louis
Spectrometer: USB4F10415
Trigger mode: 4
Integration Time (sec): 5.000000E-2
Scans to average: 1
Electric dark correction enabled: true
Nonlinearity correction enabled: false
Boxcar width: 0
XAxis mode: Wavelengths
Number of Pixels in Spectrum: 3648
>>>>>Begin Spectral Data<<<<<
178.204	-168.62
178.424	-168.62
178.644	-168.62
178.864	-180.9
179.084	-152.23
179.304	-45.74
179.524	36.18
179.744	-37.55
179.964	64.85
180.184	-33.45
180.404	7.51
180.624	-19.11
180.844	-15.02
181.064	23.89
181.283	40.28
181.503	-41.64
181.723	19.8
181.943	-37.55
182.163	87.38
182.383	-10.92
182.602	40.28
182.822	56.66
183.042	-19.11
183.262	-12.97
183.482	48.47
183.701	48.47
183.921	7.51
184.141	3.41
184.361	114
184.58	3.41
184.8	23.89
185.02	46.42
185.239	-45.74
185.459	5.46
185.679	68.95
185.898	-17.07
186.118	36.18
186.338	13.65
186.557	38.23
186.777	44.37
186.997	7.51
187.216	-53.93
187.436	73.04
187.655	66.9
187.875	23.89
188.095	30.04
188.314	68.95
188.534	21.84
188.753	-19.11
188.973	-6.83
189.192	3.41
189.412	-21.16
189.631	-66.22
189.851	50.52
190.07	25.94
190.29	-39.59
190.509	36.18
190.729	42.32
190.948	73.04
191.168	187.73
191.387	46.42
191.607	-10.92
191.826	60.76
192.045	23.89
192.265	1.37
192.484	38.23
192.704	27.99
192.923	44.37
193.142	64.85
193.362	56.66
193.581	109.91
193.8	54.61
194.02	89.43
194.239	-12.97
194.458	40.28
194.678	-12.97
194.897	27.99
195.116	58.71
195.335	-33.45
195.555	30.04
195.774	58.71
195.993	46.42
196.212	27.99
196.432	-47.79
196.651	-43.69
196.87	58.71
197.089	52.56
197.308	11.61
197.528	54.61
197.747	48.47
197.966	23.89
198.185	83.28
198.404	77.14
198.623	7.51
198.842	-12.97
199.062	7.51
199.281	3.41
199.5	73.04
199.719	56.66
199.938	23.89
200.157	77.14
200.376	75.09
200.595	36.18
200.814	-17.07
201.033	3.41
201.252	73.04
201.471	-25.26
201.69	9.56
201.909	7.51
202.128	38.23
202.347	23.89
202.566	30.04
202.785	13.65
203.004	15.7
203.223	103.76
203.442	32.08
203.661	15.7
203.879	52.56
204.098	60.76
204.317	-21.16
204.536	85.33
204.755	19.8
204.974	56.66
205.193	3.41
205.411	60.76
205.63	-51.88
205.849	-25.26
206.068	85.33
206.287	79.19
206.505	30.04
206.724	-15.02
206.943	-17.07
207.162	-25.26
207.381	13.65
207.599	56.66
207.818	17.75
208.037	-4.78
208.255	-8.87
208.474	81.24
208.693	87.38
208.911	-10.92
209.13	62.8
209.349	-33.45
209.567	34.13
209.786	56.66
210.005	54.61
210.223	-58.03
210.442	-64.17
210.661	48.47
210.879	-35.5
211.098	30.04
211.316	-21.16
211.535	79.19
211.753	23.89
211.972	34.13
212.191	11.61
212.409	11.61
212.628	56.66
212.846	23.89
213.065	103.76
213.283	15.7
213.502	3.41
213.72	-37.55
213.938	32.08
214.157	19.8
214.375	56.66
214.594	3.41
214.812	21.84
215.031	-10.92
215.249	7.51
215.467	71
215.686	40.28
215.904	50.52
216.122	-6.83
216.341	56.66
216.559	38.23
216.778	132.44
216.996	32.08
217.214	36.18
217.432	13.65
217.651	5.46
217.869	23.89
218.087	66.9
218.306	64.85
218.524	19.8
218.742	-12.97
218.96	83.28
219.179	19.8
219.397	30.04
219.615	58.71
219.833	60.76
220.051	-51.88
220.27	58.71
220.488	23.89
220.706	103.76
220.924	-27.31
221.142	-2.73
221.36	-4.78
221.578	87.38
221.796	54.61
222.015	52.56
222.233	15.7
222.451	105.81
222.669	-4.78
222.887	58.71
223.105	-25.26
223.323	-17.07
223.541	30.04
223.759	-0.68
223.977	40.28
224.195	-23.21
224.413	105.81
224.631	52.56
224.849	48.47
225.067	56.66
225.285	-25.26
225.503	85.33
225.721	-76.46
225.939	3.41
226.157	64.85
226.375	144.72
226.592	40.28
226.81	-8.87
227.028	-10.92
227.246	85.33
227.464	48.47
227.682	66.9
227.9	73.04
228.117	32.08
228.335	-8.87
228.553	-23.21
228.771	58.71
228.989	73.04
229.206	11.61
229.424	42.32
229.642	-17.07
229.86	-8.87
230.077	30.04
230.295	71
230.513	109.91
230.731	21.84
230.948	60.76
231.166	-17.07
231.384	23.89
231.601	23.89
231.819	52.56
232.037	36.18
232.254	30.04
232.472	48.47
232.689	-15.02
232.907	71
233.125	60.76
233.342	-45.74
233.56	30.04
233.777	-15.02
233.995	79.19
234.213	73.04
234.43	3.41
234.648	27.99
234.865	-2.73
235.083	66.9
235.3	3.41
235.518	11.61
235.735	75.09
235.953	68.95
236.17	15.7
236.388	46.42
236.605	23.89
236.822	9.56
237.04	85.33
237.257	40.28
237.475	23.89
237.692	122.2
237.909	27.99
238.127	23.89
238.344	36.18
238.562	56.66
238.779	-33.45
238.996	32.08
239.214	30.04
239.431	-2.73
239.648	77.14
239.865	-17.07
240.083	97.62
240.3	-47.79
240.517	15.7
240.735	46.42
240.952	77.14
241.169	89.43
241.386	32.08
241.603	13.65
241.821	68.95
242.038	122.2
242.255	50.52
242.472	60.76
242.689	23.89
242.907	-33.45
243.124	75.09
243.341	15.7
243.558	15.7
243.775	15.7
243.992	-53.93
244.209	77.14
244.426	7.51
244.643	36.18
244.86	-6.83
245.078	-29.35
245.295	13.65
245.512	21.84
245.729	-0.68
245.946	64.85
246.163	40.28
246.38	48.47
246.597	114
246.814	42.32
247.031	1.37
247.248	-33.45
247.464	62.8
247.681	56.66
247.898	56.66
248.115	15.7
248.332	56.66
248.549	46.42
248.766	114
248.983	58.71
249.2	48.47
249.417	56.66
249.633	-41.64
249.85	152.91
250.067	-0.68
250.284	-17.07
250.501	118.1
250.717	7.51
250.934	-51.88
251.151	-10.92
251.368	30.04
251.585	48.47
251.801	1.37
252.018	-0.68
252.235	48.47
252.451	-41.64
252.668	-41.64
252.885	19.8
253.102	71
253.318	7.51
253.535	54.61
253.752	-37.55
253.968	-45.74
254.185	-0.68
254.401	-2.73
254.618	34.13
254.835	3.41
255.051	132.44
255.268	15.7
255.484	-25.26
255.701	48.47
255.917	52.56
256.134	15.7
256.351	23.89
256.567	30.04
256.784	40.28
257	17.75
257.217	85.33
257.433	32.08
257.65	7.51
257.866	23.89
258.082	-35.5
258.299	-45.74
258.515	-10.92
258.732	-31.4
258.948	54.61
259.165	77.14
259.381	-17.07
259.597	19.8
259.814	32.08
260.03	23.89
260.246	-21.16
260.463	97.62
260.679	48.47
260.895	-35.5
261.112	36.18
261.328	56.66
261.544	54.61
261.761	173.39
261.977	7.51
262.193	32.08
262.409	15.7
262.626	93.52
262.842	44.37
263.058	9.56
263.274	99.67
263.49	44.37
263.707	95.57
263.923	71
264.139	-53.93
264.355	79.19
264.571	48.47
264.787	19.8
265.004	68.95
265.22	-2.73
265.436	7.51
265.652	19.8
265.868	19.8
266.084	-66.22
266.3	52.56
266.516	-27.31
266.732	5.46
266.948	21.84
267.164	-17.07
267.38	48.47
267.596	77.14
267.812	48.47
268.028	44.37
268.244	-25.26
268.46	62.8
268.676	-8.87
268.892	38.23
269.108	-10.92
269.324	-25.26
269.54	7.51
269.756	114
269.972	-2.73
270.188	-29.35
270.403	-25.26
270.619	5.46
270.835	42.32
271.051	56.66
271.267	-2.73
271.483	44.37
271.698	19.8
271.914	27.99
272.13	-4.78
272.346	83.28
272.562	3.41
272.777	60.76
272.993	73.04
273.209	40.28
273.425	9.56
273.64	-41.64
273.856	140.63
274.072	-15.02
274.287	13.65
274.503	87.38
274.719	64.85
274.934	54.61
275.15	-8.87
275.366	32.08
275.581	1.37
275.797	13.65
276.012	-0.68
276.228	56.66
276.444	-0.68
276.659	87.38
276.875	-70.31
277.09	-6.83
277.306	-4.78
277.521	34.13
277.737	52.56
277.952	73.04
278.168	-49.83
278.383	7.51
278.599	-15.02
278.814	52.56
279.03	27.99
279.245	38.23
279.461	95.57
279.676	105.81
279.892	-82.6
280.107	13.65
280.322	19.8
280.538	52.56
280.753	46.42
280.969	15.7
281.184	42.32
281.399	114
281.615	13.65
281.83	38.23
282.045	-0.68
282.26	38.23
282.476	11.61
282.691	91.48
282.906	17.75
283.122	-0.68
283.337	-58.03
283.552	52.56
283.767	52.56
283.983	60.76
284.198	-35.5
284.413	7.51
284.628	-0.68
284.843	48.47
285.058	-8.87
285.274	36.18
285.489	66.9
285.704	42.32
285.919	-8.87
286.134	-29.35
286.349	-19.11
286.564	32.08
286.779	101.72
286.995	50.52
287.21	40.28
287.425	114
287.64	-62.12
287.855	73.04
288.07	-35.5
288.285	34.13
288.5	23.89
288.715	25.94
288.93	-17.07
289.145	30.04
289.36	97.62
289.575	62.8
289.79	81.24
290.004	19.8
290.219	64.85
290.434	-72.36
290.649	-66.22
290.864	91.48
291.079	-19.11
291.294	-19.11
291.509	60.76
291.724	-0.68
291.938	-37.55
292.153	30.04
292.368	85.33
292.583	-8.87
292.798	-10.92
293.012	38.23
293.227	64.85
293.442	107.86
293.657	46.42
293.871	34.13
294.086	44.37
294.301	56.66
294.516	81.24
294.73	87.38
294.945	-27.31
295.16	62.8
295.374	15.7
295.589	68.95
295.804	-29.35
296.018	54.61
296.233	87.38
296.447	-31.4
296.662	48.47
296.877	56.66
297.091	32.08
297.306	-19.11
297.52	3.41
297.735	5.46
297.949	19.8
298.164	64.85
298.378	66.9
298.593	48.47
298.807	-43.69
299.022	-10.92
299.236	103.76
299.451	60.76
299.665	19.8
299.88	107.86
300.094	48.47
300.309	101.72
300.523	25.94
300.737	11.61
300.952	-23.21
301.166	-23.21
301.381	30.04
301.595	-19.11
301.809	15.7
302.024	-10.92
302.238	132.44
302.452	87.38
302.667	60.76
302.881	46.42
303.095	73.04
303.309	71
303.524	32.08
303.738	30.04
303.952	48.47
304.166	126.29
304.381	-10.92
304.595	-12.97
304.809	44.37
305.023	38.23
305.237	-45.74
305.452	23.89
305.666	23.89
305.88	-8.87
306.094	58.71
306.308	62.8
306.522	46.42
306.736	40.28
306.95	-10.92
307.164	-19.11
307.379	64.85
307.593	52.56
307.807	3.41
308.021	77.14
308.235	25.94
308.449	-90.79
308.663	-33.45
308.877	71
309.091	75.09
309.305	60.76
309.519	-27.31
309.733	50.52
309.947	-12.97
310.161	44.37
310.374	-17.07
310.588	126.29
310.802	-43.69
311.016	111.96
311.23	40.28
311.444	36.18
311.658	-21.16
311.872	154.96
312.085	79.19
312.299	13.65
312.513	17.75
312.727	60.76
312.941	-41.64
313.154	62.8
313.368	56.66
313.582	-12.97
313.796	38.23
314.009	-43.69
314.223	118.1
314.437	11.61
314.651	27.99
314.864	30.04
315.078	15.7
315.292	19.8
315.505	7.51
315.719	7.51
315.933	30.04
316.146	27.99
316.36	-33.45
316.573	-12.97
316.787	114
317.001	101.72
317.214	15.7
317.428	73.04
317.641	-51.88
317.855	7.51
318.068	30.04
318.282	46.42
318.495	89.43
318.709	32.08
318.922	-6.83
319.136	97.62
319.349	32.08
319.563	-8.87
319.776	-51.88
319.99	38.23
320.203	81.24
320.417	60.76
320.63	64.85
320.843	73.04
321.057	7.51
321.27	32.08
321.483	44.37
321.697	58.71
321.91	19.8
322.124	23.89
322.337	77.14
322.55	-0.68
322.763	54.61
322.977	-15.02
323.19	19.8
323.403	11.61
323.617	-21.16
323.83	85.33
324.043	56.66
324.256	79.19
324.469	21.84
324.683	87.38
324.896	11.61
325.109	-0.68
325.322	-55.98
325.535	64.85
325.748	71
325.962	40.28
326.175	-27.31
326.388	44.37
326.601	68.95
326.814	42.32
327.027	68.95
327.24	46.42
327.453	3.41
327.666	68.95
327.879	27.99
328.092	52.56
328.305	-8.87
328.518	30.04
328.731	64.85
328.944	5.46
329.157	44.37
329.37	56.66
329.583	97.62
329.796	101.72
330.009	-53.93
330.222	81.24
330.435	23.89
330.648	32.08
330.861	60.76
331.073	83.28
331.286	15.7
331.499	40.28
331.712	7.51
331.925	40.28
332.138	32.08
332.35	52.56
332.563	60.76
332.776	34.13
332.989	-17.07
333.202	15.7
333.414	56.66
333.627	73.04
333.84	1.37
334.053	-29.35
334.265	48.47
334.478	46.42
334.691	52.56
334.903	46.42
335.116	-23.21
335.329	52.56
335.541	66.9
335.754	118.1
335.966	15.7
336.179	13.65
336.392	32.08
336.604	34.13
336.817	52.56
337.029	64.85
337.242	-10.92
337.454	48.47
337.667	13.65
337.88	79.19
338.092	40.28
338.305	17.75
338.517	3.41
338.729	32.08
338.942	89.43
339.154	3.41
339.367	-23.21
339.579	11.61
339.792	38.23
340.004	5.46
340.217	23.89
340.429	89.43
340.641	-37.55
340.854	15.7
341.066	-49.83
341.278	23.89
341.491	175.44
341.703	56.66
341.915	-84.65
342.128	56.66
342.34	19.8
342.552	-8.87
342.764	95.57
342.977	-27.31
343.189	44.37
343.401	-27.31
343.613	11.61
343.826	-41.64
344.038	40.28
344.25	109.91
344.462	50.52
344.674	21.84
344.886	-8.87
345.099	64.85
345.311	85.33
345.523	15.7
345.735	1.37
345.947	13.65
346.159	40.28
346.371	-2.73
346.583	-53.93
346.795	79.19
347.007	42.32
347.219	9.56
347.431	32.08
347.643	58.71
347.855	-17.07
348.067	44.37
348.279	64.85
348.491	1.37
348.703	15.7
348.915	-21.16
349.127	40.28
349.339	-0.68
349.551	-15.02
349.763	56.66
349.975	42.32
350.187	56.66
350.399	-21.16
350.61	87.38
350.822	13.65
351.034	44.37
351.246	-0.68
351.458	11.61
351.669	7.51
351.881	73.04
352.093	95.57
352.305	64.85
352.517	36.18
352.728	81.24
352.94	68.95
353.152	52.56
353.363	-25.26
353.575	19.8
353.787	89.43
353.999	42.32
354.21	126.29
354.422	-33.45
354.633	15.7
354.845	-17.07
355.057	89.43
355.268	-0.68
355.48	71
355.692	-68.27
355.903	32.08
356.115	64.85
356.326	9.56
356.538	44.37
356.749	3.41
356.961	-10.92
357.172	54.61
357.384	-31.4
357.595	159.06
357.807	-45.74
358.018	-6.83
358.23	97.62
358.441	130.39
358.653	48.47
358.864	-6.83
359.075	73.04
359.287	23.89
359.498	13.65
359.709	13.65
359.921	64.85
360.132	77.14
360.344	68.95
360.555	73.04
360.766	68.95
360.977	-41.64
361.189	11.61
361.4	11.61
361.611	97.62
361.823	46.42
362.034	58.71
362.245	42.32
362.456	-17.07
362.667	48.47
362.879	36.18
363.09	62.8
363.301	44.37
363.512	118.1
363.723	-8.87
363.935	3.41
364.146	134.48
364.357	-29.35
364.568	77.14
364.779	11.61
364.99	13.65
365.201	23.89
365.412	68.95
365.623	64.85
365.834	32.08
366.045	79.19
366.256	50.52
366.467	68.95
366.678	-45.74
366.889	13.65
367.1	-33.45
367.311	-15.02
367.522	48.47
367.733	3.41
367.944	120.15
368.155	13.65
368.366	71
368.577	34.13
368.788	27.99
368.999	-2.73
369.209	13.65
369.42	122.2
369.631	118.1
369.842	71
370.053	73.04
370.264	134.48
370.474	21.84
370.685	34.13
370.896	71
371.107	7.51
371.317	19.8
371.528	73.04
371.739	46.42
371.95	68.95
372.16	-21.16
372.371	-58.03
372.582	-27.31
372.792	85.33
373.003	7.51
373.214	-8.87
373.424	48.47
373.635	23.89
373.846	116.05
374.056	3.41
374.267	73.04
374.477	50.52
374.688	38.23
374.898	-0.68
375.109	40.28
375.319	54.61
375.53	64.85
375.74	15.7
375.951	21.84
376.161	81.24
376.372	62.8
376.582	97.62
376.793	32.08
377.003	-68.27
377.214	21.84
377.424	42.32
377.635	17.75
377.845	44.37
378.055	-2.73
378.266	-0.68
378.476	58.71
378.686	56.66
378.897	25.94
379.107	52.56
379.317	87.38
379.528	34.13
379.738	75.09
379.948	23.89
380.158	48.47
380.369	15.7
380.579	40.28
380.789	21.84
380.999	44.37
381.21	71
381.42	73.04
381.63	62.8
381.84	38.23
382.05	23.89
382.261	-4.78
382.471	50.52
382.681	-41.64
382.891	19.8
383.101	89.43
383.311	52.56
383.521	68.95
383.731	122.2
383.941	122.2
384.151	66.9
384.361	58.71
384.571	32.08
384.781	68.95
384.991	36.18
385.201	93.52
385.411	21.84
385.621	-8.87
385.831	64.85
386.041	73.04
386.251	32.08
386.461	54.61
386.671	-62.12
386.881	87.38
387.091	62.8
387.301	-0.68
387.511	54.61
387.72	52.56
387.93	93.52
388.14	27.99
388.35	75.09
388.56	64.85
388.769	40.28
388.979	13.65
389.189	-37.55
389.399	7.51
389.609	95.57
389.818	97.62
390.028	89.43
390.238	48.47
390.447	17.75
390.657	111.96
390.867	56.66
391.076	-51.88
391.286	7.51
391.496	15.7
391.705	44.37
391.915	54.61
392.125	130.39
392.334	73.04
392.544	52.56
392.753	15.7
392.963	-31.4
393.172	42.32
393.382	-6.83
393.591	89.43
393.801	34.13
394.01	134.48
394.22	140.63
394.429	81.24
394.639	-2.73
394.848	126.29
395.058	62.8
395.267	48.47
395.477	163.15
395.686	136.53
395.895	38.23
396.105	218.45
396.314	48.47
396.524	97.62
396.733	38.23
396.942	60.76
397.152	126.29
397.361	105.81
397.57	77.14
397.78	60.76
397.989	136.53
398.198	79.19
398.407	64.85
398.617	44.37
398.826	81.24
399.035	79.19
399.244	81.24
399.453	118.1
399.663	91.48
399.872	56.66
400.081	34.13
400.29	81.24
400.499	71
400.708	154.96
400.917	116.05
401.127	73.04
401.336	40.28
401.545	97.62
401.754	148.82
401.963	95.57
402.172	73.04
402.381	120.15
402.59	95.57
402.799	48.47
403.008	116.05
403.217	99.67
403.426	71
403.635	142.68
403.844	154.96
404.053	68.95
404.262	85.33
404.471	220.5
404.68	134.48
404.888	105.81
405.097	154.96
405.306	101.72
405.515	146.77
405.724	126.29
405.933	73.04
406.142	154.96
406.35	122.2
406.559	103.76
406.768	148.82
406.977	152.91
407.185	220.5
407.394	159.06
407.603	169.3
407.812	167.25
408.02	210.26
408.229	99.67
408.438	161.11
408.646	171.35
408.855	189.78
409.064	228.69
409.272	138.58
409.481	277.84
409.69	212.31
409.898	183.63
410.107	226.64
410.315	292.18
410.524	247.12
410.733	296.27
410.941	277.84
411.15	306.51
411.358	314.7
411.567	335.18
411.775	294.22
411.984	353.62
412.192	310.61
412.401	335.18
412.609	359.76
412.818	458.06
413.026	423.25
413.234	400.72
413.443	359.76
413.651	386.38
413.86	417.1
414.068	376.14
414.276	453.97
414.485	462.16
414.693	517.45
414.901	556.36
415.11	517.45
415.318	529.74
415.526	492.88
415.734	619.85
415.943	626
416.151	669
416.359	640.33
416.567	679.24
416.776	740.68
416.984	759.11
417.192	826.7
417.4	740.68
417.608	720.2
417.817	818.5
418.025	886.09
418.233	888.14
418.441	871.75
418.649	892.23
418.857	949.57
419.065	1070.4
419.273	925
419.481	1027.4
419.689	1129.8
419.897	1183.04
420.105	1154.37
420.313	1178.95
420.521	1264.96
420.729	1232.19
420.937	1303.87
421.145	1305.92
421.353	1412.42
421.561	1514.81
421.769	1473.85
421.977	1508.67
422.185	1637.69
422.393	1645.88
422.601	1758.52
422.809	1895.74
423.017	1760.57
423.224	1860.92
423.432	1914.17
423.64	1903.93
423.848	2094.39
424.056	2063.67
424.263	2184.5
424.471	2276.66
424.679	2329.91
424.887	2389.3
425.094	2581.81
425.302	2483.5
425.51	2596.14
425.718	2612.53
425.925	2682.16
426.133	2708.78
426.341	2950.44
426.548	2966.82
426.756	3044.65
426.964	3042.6
427.171	3263.78
427.379	3353.89
427.586	3286.31
427.794	3411.23
428.001	3648.8
428.209	3863.83
428.417	3849.5
428.624	4072.73
428.832	3996.95
429.039	4015.38
429.247	4060.44
429.454	4211.99
429.662	4564.24
429.869	4429.07
430.076	4713.74
430.284	4545.81
430.491	4791.56
430.699	4922.63
430.906	5076.23
431.114	5090.57
431.321	5096.71
431.528	5461.25
431.736	5584.13
431.943	5989.63
432.15	5676.29
432.358	5829.88
432.565	6132.98
432.772	6200.57
432.979	6474.99
433.187	6487.28
433.394	6411.51
433.601	7025.9
433.808	7163.11
434.016	7003.37
434.223	7138.54
434.43	7797.98
434.637	7671.01
434.844	8119.51
435.052	8260.82
435.259	8156.38
435.466	8117.47
435.673	8041.69
435.88	8735.95
436.087	9082.06
436.294	9141.45
436.501	8955.08
436.708	9006.28
436.915	9387.21
437.122	9936.06
437.329	9702.59
437.537	10161.34
437.743	10249.4
437.95	10415.29
438.157	10658.99
438.364	11017.39
438.571	10960.05
438.778	11170.99
438.985	12180.64
439.192	11666.6
439.399	12123.29
439.606	11582.63
439.813	12723.35
440.02	13196.43
440.227	13020.3
440.433	12786.83
440.64	13116.56
440.847	13161.61
441.054	13454.47
441.261	14275.71
441.467	14363.77
441.674	14603.38
441.881	15058.03
442.088	14990.45
442.294	14988.4
442.501	15105.13
442.708	15352.94
442.914	16471.13
443.121	16682.07
443.328	16424.03
443.534	17501.26
443.741	17040.47
443.948	16913.49
444.154	17898.56
444.361	17908.8
444.568	17878.08
444.774	18228.29
444.981	18334.78
445.187	18752.57
445.394	19477.55
445.6	19203.12
445.807	21353.49
446.013	20343.84
446.22	20778.01
446.426	21804.04
446.633	21574.67
446.839	22576.12
447.046	21656.59
447.252	22717.43
447.459	22610.94
447.665	22449.15
447.871	23510
448.078	24425.44
448.284	23147.51
448.491	23909.35
448.697	25056.22
448.903	25695.18
449.11	25078.74
449.316	25127.89
449.522	25801.68
449.728	26282.95
449.935	26530.75
450.141	26336.2
450.347	27222.97
450.553	26012.62
450.76	26418.11
450.966	27343.8
451.172	27061.18
451.378	27509.68
451.584	27151.29
451.791	27741.1
451.997	27599.79
452.203	28130.22
452.409	27900.84
452.615	28253.09
452.821	27089.85
453.027	26858.43
453.233	28461.99
453.44	26805.18
453.646	27042.74
453.852	27122.62
454.058	27913.13
454.264	26698.69
454.47	27493.3
454.676	26811.32
454.882	27689.9
455.088	25318.35
455.294	25541.58
455.5	25994.18
455.705	26328
455.911	25277.4
456.117	24703.96
456.323	24589.28
456.529	22995.96
456.735	24292.32
456.941	23643.12
457.147	23038.97
457.352	22565.88
457.558	21969.93
457.764	22191.11
457.97	21615.63
458.176	21152.79
458.381	21259.28
458.587	20180
458.793	20294.69
458.999	18996.28
459.204	20495.39
459.41	20141.09
459.616	18760.76
459.821	18551.87
460.027	18662.46
460.233	18041.92
460.438	17196.11
460.644	17382.48
460.85	16452.7
461.055	16532.57
461.261	16260.19
461.466	15254.64
461.672	14685.3
461.878	15539.3
462.083	14716.02
462.289	14308.47
462.494	14310.52
462.7	13771.91
462.905	13272.2
463.111	13546.63
463.316	13872.26
463.522	13567.11
463.727	13323.4
463.932	13382.79
464.138	13454.47
464.343	13386.89
464.549	13038.73
464.754	13489.29
464.959	13159.56
465.165	13132.94
465.37	12539.03
465.575	12223.64
465.781	12661.91
465.986	12833.94
466.191	12299.42
466.397	12180.64
466.602	11674.79
466.807	11965.6
467.012	12090.52
467.218	11898.02
467.423	11707.55
467.628	11879.58
467.833	12285.08
468.038	11756.71
468.244	11631.78
468.449	11963.55
