Data from USB4F104151__17__11-57-39-191.txt Node

Date: Wed Feb 19 11:57:39 EST 2025
User: louis
Spectrometer: USB4F10415
Trigger mode: 4
Integration Time (sec): 2.250200E-1
Scans to average: 1
Electric dark correction enabled: true
Nonlinearity correction enabled: false
Boxcar width: 0
XAxis mode: Wavelengths
Number of Pixels in Spectrum: 3648
>>>>>Begin Spectral Data<<<<<
178.204	-812.53
178.424	-812.53
178.644	-812.53
178.864	-779.76
179.084	-771.57
179.304	211.45
179.524	109.05
179.744	2.56
179.964	-224.76
180.184	219.64
180.404	127.49
180.624	-210.43
180.844	-79.36
181.064	-71.17
181.283	135.68
181.503	-177.66
181.723	-42.5
181.943	-75.26
182.163	391.67
182.383	-138.75
182.602	-110.08
182.822	475.64
183.042	240.12
183.262	-177.66
183.482	-120.32
183.701	248.32
183.921	381.43
184.141	-101.89
184.361	-110.08
184.58	369.15
184.8	264.7
185.02	-142.85
185.239	-36.35
185.459	309.76
185.679	469.5
185.898	-222.72
186.118	-278.01
186.338	266.75
186.557	365.05
186.777	-232.96
186.997	-241.15
187.216	266.75
187.436	535.03
187.655	-77.31
187.875	12.8
188.095	305.66
188.314	315.9
188.534	-44.54
188.753	-251.39
188.973	256.51
189.192	479.74
189.412	-286.2
189.631	-159.23
189.851	320
190.07	528.89
190.29	-239.1
190.509	-218.62
190.729	338.43
190.948	498.17
191.168	-17.92
191.387	-95.74
191.607	217.6
191.826	301.56
192.045	-161.28
192.265	-85.5
192.484	328.19
192.704	248.32
192.923	-110.08
193.142	-46.59
193.362	373.24
193.581	457.21
193.8	-46.59
194.02	-122.37
194.239	313.85
194.458	250.36
194.678	-112.13
194.897	-202.24
195.116	326.14
195.335	322.04
195.555	-114.17
195.774	-243.2
195.993	438.78
196.212	268.8
196.432	-118.27
196.651	-241.15
196.87	233.98
197.089	575.99
197.308	-189.95
197.528	-118.27
197.747	29.18
197.966	305.66
198.185	-87.55
198.404	-265.72
198.623	369.15
198.842	438.78
199.062	-169.47
199.281	-91.65
199.5	248.32
199.719	274.94
199.938	-185.85
200.157	-103.93
200.376	358.91
200.595	408.06
200.814	-77.31
201.033	-171.52
201.252	414.2
201.471	281.08
201.69	-105.98
201.909	-44.54
202.128	285.18
202.347	330.23
202.566	-132.61
202.785	-310.78
203.004	209.4
203.223	481.78
203.442	-120.32
203.661	-257.53
203.879	420.35
204.098	387.58
204.317	-153.09
204.536	8.7
204.755	356.86
204.974	352.76
205.193	-337.4
205.411	-161.28
205.63	395.77
205.849	309.76
206.068	-71.17
206.287	-232.96
206.505	385.53
206.724	276.99
206.943	-224.76
207.162	-103.93
207.381	289.28
207.599	297.47
207.818	-146.94
208.037	-144.89
208.255	233.98
208.474	264.7
208.693	-155.13
208.911	-120.32
209.13	352.76
209.349	307.71
209.567	-13.82
209.786	-151.04
210.005	348.67
210.223	252.41
210.442	-402.94
210.661	-157.18
210.879	348.67
211.098	238.08
211.316	-79.36
211.535	-101.89
211.753	346.62
211.972	307.71
212.191	-198.14
212.409	-87.55
212.628	317.95
212.846	184.83
213.065	-93.69
213.283	-30.21
213.502	260.6
213.72	315.9
213.938	-181.76
214.157	-161.28
214.375	279.04
214.594	199.16
214.812	-124.41
215.031	-181.76
215.249	279.04
215.467	190.97
215.686	-97.79
215.904	-116.22
216.122	201.21
216.341	414.2
216.559	-40.45
216.778	-69.12
216.996	485.88
217.214	170.49
217.432	-52.74
217.651	-226.81
217.869	285.18
218.087	231.93
218.306	-241.15
218.524	-118.27
218.742	141.82
218.96	385.53
219.179	-161.28
219.397	-155.13
219.615	565.75
219.833	346.62
220.051	-144.89
220.27	-108.03
220.488	453.11
220.706	276.99
220.924	-265.72
221.142	-192
221.36	264.7
221.578	281.08
221.796	-161.28
222.015	-13.82
222.233	229.88
222.451	416.25
222.669	-120.32
222.887	-46.59
223.105	98.81
223.323	154.11
223.541	-120.32
223.759	10.75
223.977	256.51
224.195	524.79
224.413	-65.02
224.631	-116.22
224.849	379.39
225.067	596.47
225.285	-120.32
225.503	-189.95
225.721	-13.82
225.939	223.74
226.157	-128.51
226.375	72.19
226.592	164.35
226.81	258.56
227.028	27.14
227.246	-112.13
227.464	258.56
227.682	264.7
227.9	-108.03
228.117	-11.78
228.335	289.28
228.553	227.84
228.771	-198.14
228.989	-118.27
229.206	297.47
229.424	166.4
229.642	-163.33
229.86	-124.41
230.077	403.96
230.295	238.08
230.513	0.51
230.731	-87.55
230.948	496.12
231.166	406.01
231.384	-60.93
231.601	-153.09
231.819	477.69
232.037	119.29
232.254	-28.16
232.472	-110.08
232.689	172.54
232.907	432.63
233.125	-120.32
233.342	-206.33
233.56	74.24
233.777	244.22
233.995	-204.28
234.213	-5.63
234.43	301.56
234.648	201.21
234.865	-101.89
235.083	-60.93
235.3	266.75
235.518	307.71
235.735	10.75
235.953	-69.12
236.17	211.45
236.388	186.88
236.605	16.9
236.822	-44.54
237.04	383.48
237.257	287.23
237.475	-128.51
237.692	-132.61
237.909	367.1
238.127	209.4
238.344	45.57
238.562	-67.07
238.779	35.33
238.996	74.24
239.214	-9.73
239.431	-83.45
239.648	180.73
239.865	248.32
240.083	-28.16
240.3	-142.85
240.517	168.45
240.735	299.52
240.952	47.62
241.169	-151.04
241.386	340.47
241.603	184.83
241.821	-165.37
242.038	-153.09
242.255	320
242.472	68.09
242.689	-83.45
242.907	-89.6
243.124	174.59
243.341	209.4
243.558	-56.83
243.775	-165.37
243.992	-36.35
244.209	287.23
244.426	-5.63
244.643	-112.13
244.86	248.32
245.078	260.6
245.295	-89.6
245.512	-38.4
245.729	129.53
245.946	256.51
246.163	-114.17
246.38	-153.09
246.597	272.89
246.814	205.31
247.031	-89.6
247.248	-196.09
247.464	365.05
247.681	260.6
247.898	-99.84
248.115	-108.03
248.332	96.77
248.549	403.96
248.766	10.75
248.983	-52.74
249.2	397.82
249.417	403.96
249.633	-144.89
249.85	-77.31
250.067	260.6
250.284	246.27
250.501	-134.65
250.717	-71.17
250.934	92.67
251.151	203.26
251.368	-54.78
251.585	-52.74
251.801	287.23
252.018	-1.54
252.235	39.42
252.451	-179.71
252.668	150.01
252.885	354.81
253.102	-22.02
253.318	-136.7
253.535	203.26
253.752	195.07
253.968	-157.18
254.185	-192
254.401	303.61
254.618	340.47
254.835	-140.8
255.051	-112.13
255.268	281.08
255.484	266.75
255.701	-75.26
255.917	-58.88
256.134	47.62
256.351	242.17
256.567	-140.8
256.784	20.99
257	-5.63
257.217	363
257.433	88.57
257.65	-99.84
257.866	363
258.082	8.7
258.299	-15.87
258.515	-54.78
258.732	141.82
258.948	139.77
259.165	-77.31
259.381	-105.98
259.597	363
259.814	231.93
260.03	-122.37
260.246	-75.26
260.463	348.67
260.679	346.62
260.895	-9.73
261.112	-22.02
261.328	147.97
261.544	117.25
261.761	-22.02
261.977	-128.51
262.193	78.33
262.409	344.57
262.626	68.09
262.842	-40.45
263.058	80.38
263.274	365.05
263.49	6.66
263.707	-126.46
263.923	276.99
264.139	70.14
264.355	8.7
264.571	-19.97
264.787	299.52
265.004	379.39
265.22	33.28
265.436	-101.89
265.652	182.78
265.868	344.57
266.084	-116.22
266.3	-134.65
266.516	88.57
266.732	266.75
266.948	-11.78
267.164	-128.51
267.38	305.66
267.596	291.32
267.812	94.72
268.028	-65.02
268.244	258.56
268.46	203.26
268.676	-17.92
268.892	29.18
269.108	102.91
269.324	37.38
269.54	-112.13
269.756	-114.17
269.972	147.97
270.188	199.16
270.403	-67.07
270.619	-87.55
270.835	145.92
271.051	274.94
271.267	-91.65
271.483	-103.93
271.698	395.77
271.914	256.51
272.13	0.51
272.346	-85.5
272.562	221.69
272.777	381.43
272.993	-26.11
273.209	-69.12
273.425	270.84
273.64	51.71
273.856	-110.08
274.072	-181.76
274.287	18.94
274.503	332.28
274.719	35.33
274.934	-126.46
275.15	76.29
275.366	86.53
275.581	-67.07
275.797	-73.21
276.012	193.02
276.228	29.18
276.444	39.42
276.659	70.14
276.875	74.24
277.09	117.25
277.306	-34.3
277.521	25.09
277.737	168.45
277.952	152.06
278.168	-34.3
278.383	18.94
278.599	172.54
278.814	205.31
279.03	-112.13
279.245	18.94
279.461	219.64
279.676	281.08
279.892	-32.26
280.107	-87.55
280.322	139.77
280.538	301.56
280.753	-32.26
280.969	-97.79
281.184	199.16
281.399	276.99
281.615	31.23
281.83	98.81
282.045	23.04
282.26	18.94
282.476	12.8
282.691	152.06
282.906	225.79
283.122	178.69
283.337	12.8
283.552	82.43
283.767	184.83
283.983	260.6
284.198	-26.11
284.413	-71.17
284.628	18.94
284.843	137.73
285.058	31.23
285.274	-54.78
285.489	152.06
285.704	186.88
285.919	-46.59
286.134	-28.16
286.349	180.73
286.564	166.4
286.779	117.25
286.995	-1.54
287.21	45.57
287.425	229.88
287.64	-9.73
287.855	193.02
288.07	-28.16
288.285	313.85
288.5	74.24
288.715	31.23
288.93	174.59
289.145	27.14
289.36	6.66
289.575	2.56
289.79	403.96
290.004	152.06
290.219	92.67
290.434	14.85
290.649	133.63
290.864	147.97
291.079	31.23
291.294	64
291.509	246.27
291.724	121.34
291.938	-3.58
292.153	-38.4
292.368	199.16
292.583	256.51
292.798	57.86
293.012	70.14
293.227	270.84
293.442	111.1
293.657	43.52
293.871	33.28
294.086	217.6
294.301	350.71
294.516	-11.78
294.73	100.86
294.945	49.66
295.16	227.84
295.374	78.33
295.589	115.2
295.804	109.05
296.018	129.53
296.233	-67.07
296.447	109.05
296.662	82.43
296.877	309.76
297.091	49.66
297.306	-69.12
297.52	152.06
297.735	246.27
297.949	92.67
298.164	-155.13
298.378	199.16
298.593	-17.92
298.807	43.52
299.022	-1.54
299.236	346.62
299.451	72.19
299.665	68.09
299.88	49.66
300.094	272.89
300.309	141.82
300.523	-54.78
300.737	-22.02
300.952	248.32
301.166	287.23
301.381	-32.26
301.595	-112.13
301.809	186.88
302.024	109.05
302.238	-38.4
302.452	86.53
302.667	180.73
302.881	254.46
303.095	23.04
303.309	51.71
303.524	92.67
303.738	145.92
303.952	20.99
304.166	92.67
304.381	0.51
304.595	297.47
304.809	-7.68
305.023	-5.63
305.237	125.44
305.452	90.62
305.666	-11.78
305.88	115.2
306.094	281.08
306.308	209.4
306.522	-11.78
306.736	68.09
306.95	283.13
307.164	100.86
307.379	51.71
307.593	111.1
307.807	281.08
308.021	250.36
308.235	168.45
308.449	-75.26
308.663	131.58
308.877	483.83
309.091	51.71
309.305	76.29
309.519	-36.35
309.733	193.02
309.947	25.09
310.161	49.66
310.374	268.8
310.588	393.72
310.802	-50.69
311.016	41.47
311.23	289.28
311.444	59.9
311.658	25.09
311.872	213.5
312.085	317.95
312.299	270.84
312.513	229.88
312.727	29.18
312.941	53.76
313.154	152.06
313.368	64
313.582	12.8
313.796	233.98
314.009	209.4
314.223	141.82
314.437	55.81
314.651	238.08
314.864	76.29
315.078	33.28
315.292	-118.27
315.505	113.15
315.719	217.6
315.933	135.68
316.146	-50.69
316.36	59.9
316.573	287.23
316.787	254.46
317.001	49.66
317.214	39.42
317.428	225.79
317.641	-69.12
317.855	23.04
318.068	209.4
318.282	221.69
318.495	154.11
318.709	-19.97
318.922	156.16
319.136	295.42
319.349	74.24
319.563	-19.97
319.776	203.26
319.99	82.43
320.203	6.66
320.417	27.14
320.63	86.53
320.843	268.8
321.057	121.34
321.27	-17.92
321.483	180.73
321.697	168.45
321.91	-48.64
322.124	-7.68
322.337	195.07
322.55	74.24
322.763	10.75
322.977	-28.16
323.19	55.81
323.403	113.15
323.617	27.14
323.83	236.03
324.043	141.82
324.256	231.93
324.469	-175.61
324.683	227.84
324.896	176.64
325.109	133.63
325.322	-136.7
325.535	94.72
325.748	424.44
325.962	94.72
326.175	66.05
326.388	-54.78
326.601	240.12
326.814	133.63
327.027	8.7
327.24	227.84
327.453	4.61
327.666	227.84
327.879	121.34
328.092	55.81
328.305	328.19
328.518	121.34
328.731	51.71
328.944	-28.16
329.157	137.73
329.37	86.53
329.583	72.19
329.796	107.01
330.009	8.7
330.222	260.6
330.435	68.09
330.648	20.99
330.861	231.93
331.073	193.02
331.286	125.44
331.499	20.99
331.712	100.86
331.925	205.31
332.138	8.7
332.35	-38.4
332.563	90.62
332.776	295.42
332.989	4.61
333.202	-60.93
333.414	172.54
333.627	166.4
333.84	45.57
334.053	102.91
334.265	158.21
334.478	-9.73
334.691	-46.59
334.903	84.48
335.116	66.05
335.329	49.66
335.541	18.94
335.754	231.93
335.966	176.64
336.179	141.82
336.392	59.9
336.604	37.38
336.817	227.84
337.029	252.41
337.242	-52.74
337.454	147.97
337.667	242.17
337.88	324.09
338.092	80.38
338.305	47.62
338.517	170.49
338.729	190.97
338.942	20.99
339.154	-30.21
339.367	94.72
339.579	246.27
339.792	-105.98
340.004	53.76
340.217	156.16
340.429	281.08
340.641	-67.07
340.854	-73.21
341.066	158.21
341.278	340.47
341.491	190.97
341.703	-7.68
341.915	88.57
342.128	281.08
342.34	109.05
342.552	-46.59
342.764	203.26
342.977	223.74
343.189	111.1
343.401	57.86
343.613	45.57
343.826	197.12
344.038	-91.65
344.25	100.86
344.462	68.09
344.674	162.3
344.886	-19.97
345.099	96.77
345.311	254.46
345.523	135.68
345.735	-11.78
345.947	84.48
346.159	182.78
346.371	254.46
346.583	107.01
346.795	186.88
347.007	137.73
347.219	276.99
347.431	59.9
347.643	209.4
347.855	186.88
348.067	264.7
348.279	-5.63
348.491	43.52
348.703	354.81
348.915	129.53
349.127	-36.35
349.339	-3.58
349.551	166.4
349.763	301.56
349.975	43.52
350.187	68.09
350.399	297.47
350.61	264.7
350.822	6.66
351.034	53.76
351.246	276.99
351.458	209.4
351.669	14.85
351.881	-34.3
352.093	365.05
352.305	315.9
352.517	-3.58
352.728	102.91
352.94	145.92
353.152	238.08
353.363	-120.32
353.575	117.25
353.787	336.38
353.999	190.97
354.21	158.21
354.422	-69.12
354.633	141.82
354.845	168.45
355.057	4.61
355.268	-24.06
355.48	305.66
355.692	64
355.903	82.43
356.115	-124.41
356.326	-32.26
356.538	401.91
356.749	45.57
356.961	90.62
357.172	160.25
357.384	-28.16
357.595	260.6
357.807	100.86
358.018	129.53
358.23	184.83
358.441	25.09
358.653	-7.68
358.864	166.4
359.075	37.38
359.287	45.57
359.498	150.01
359.709	272.89
359.921	158.21
360.132	61.95
360.344	-56.83
360.555	143.87
360.766	199.16
360.977	-81.41
361.189	117.25
361.4	109.05
361.611	299.52
361.823	158.21
362.034	-15.87
362.245	-36.35
362.456	213.5
362.667	201.21
362.879	-103.93
363.09	254.46
363.301	188.93
363.512	-7.68
363.723	-54.78
363.935	104.96
364.146	320
364.357	-1.54
364.568	-13.82
364.779	14.85
364.99	373.24
365.201	129.53
365.412	164.35
365.623	14.85
365.834	227.84
366.045	66.05
366.256	68.09
366.467	334.33
366.678	170.49
366.889	59.9
367.1	-13.82
367.311	332.28
367.522	172.54
367.733	109.05
367.944	51.71
368.155	111.1
368.366	334.33
368.577	39.42
368.788	150.01
368.999	39.42
369.209	240.12
369.42	55.81
369.631	379.39
369.842	236.03
370.053	209.4
370.264	29.18
370.474	-69.12
370.685	313.85
370.896	150.01
371.107	129.53
371.317	94.72
371.528	141.82
371.739	350.71
371.95	51.71
372.16	4.61
372.371	49.66
372.582	174.59
372.792	-7.68
373.003	170.49
373.214	240.12
373.424	256.51
373.635	94.72
373.846	129.53
374.056	166.4
374.267	186.88
374.477	131.58
374.688	-30.21
374.898	283.13
375.109	201.21
375.319	109.05
375.53	45.57
375.74	332.28
375.951	66.05
376.161	107.01
376.372	33.28
376.582	158.21
376.793	260.6
377.003	-60.93
377.214	-30.21
377.424	336.38
377.635	209.4
377.845	76.29
378.055	51.71
378.266	127.49
378.476	174.59
378.686	94.72
378.897	78.33
379.107	334.33
379.317	254.46
379.528	-67.07
379.738	68.09
379.948	76.29
380.158	348.67
380.369	53.76
380.579	201.21
380.789	203.26
380.999	188.93
381.21	115.2
381.42	182.78
381.63	143.87
381.84	311.8
382.05	113.15
382.261	131.58
382.471	432.63
382.681	143.87
382.891	70.14
383.101	188.93
383.311	12.8
383.521	41.47
383.731	-17.92
383.941	170.49
384.151	166.4
384.361	61.95
384.571	27.14
384.781	27.14
384.991	281.08
385.201	522.74
385.411	158.21
385.621	72.19
385.831	266.75
386.041	217.6
386.251	84.48
386.461	221.69
386.671	188.93
386.881	250.36
387.091	70.14
387.301	168.45
387.511	272.89
387.72	150.01
387.93	82.43
388.14	35.33
388.35	219.64
388.56	203.26
388.769	41.47
388.979	-5.63
389.189	92.67
389.399	150.01
389.609	37.38
389.818	131.58
390.028	266.75
390.238	209.4
390.447	-44.54
390.657	84.48
390.867	176.64
391.076	59.9
391.286	20.99
391.496	27.14
391.705	279.04
391.915	422.39
392.125	53.76
392.334	66.05
392.544	430.59
392.753	176.64
392.963	45.57
393.172	35.33
393.382	121.34
393.591	438.78
393.801	16.9
394.01	100.86
394.22	252.41
394.429	125.44
394.639	88.57
394.848	102.91
395.058	266.75
395.267	113.15
395.477	141.82
395.686	154.11
395.895	387.58
396.105	354.81
396.314	82.43
396.524	98.81
396.733	70.14
396.942	320
397.152	29.18
397.361	201.21
397.57	168.45
397.78	182.78
397.989	88.57
398.198	215.55
398.407	160.25
398.617	195.07
398.826	45.57
399.035	41.47
399.244	305.66
399.453	223.74
399.663	-42.5
399.872	-87.55
400.081	45.57
400.29	326.14
400.499	23.04
400.708	113.15
400.917	233.98
401.127	94.72
401.336	20.99
401.545	307.71
401.754	356.86
401.963	211.45
402.172	104.96
402.381	-46.59
402.59	248.32
402.799	119.29
403.008	188.93
403.217	104.96
403.426	264.7
403.635	-5.63
403.844	-36.35
404.053	4.61
404.262	176.64
404.471	348.67
404.68	64
404.888	131.58
405.097	147.97
405.306	162.3
405.515	80.38
405.724	37.38
405.933	289.28
406.142	215.55
406.35	119.29
406.559	0.51
406.768	209.4
406.977	414.2
407.185	107.01
407.394	111.1
407.603	45.57
407.812	223.74
408.02	195.07
408.229	121.34
408.438	311.8
408.646	-11.78
408.855	-5.63
409.064	-22.02
409.272	133.63
409.481	227.84
409.69	18.94
409.898	-48.64
410.107	274.94
410.315	297.47
410.524	37.38
410.733	23.04
410.941	217.6
411.15	369.15
411.358	80.38
411.567	270.84
411.775	295.42
411.984	293.37
412.192	182.78
412.401	6.66
412.609	381.43
412.818	340.47
413.026	137.73
413.234	-19.97
413.443	274.94
413.651	18.94
413.86	-38.4
414.068	242.17
414.276	461.3
414.485	127.49
414.693	109.05
414.901	303.61
415.11	231.93
415.318	188.93
415.526	68.09
415.734	182.78
415.943	211.45
416.151	403.96
416.359	49.66
416.567	160.25
416.776	299.52
416.984	242.17
417.192	172.54
417.4	109.05
417.608	182.78
417.817	37.38
418.025	231.93
418.233	139.77
418.441	109.05
418.649	111.1
418.857	168.45
419.065	131.58
419.273	281.08
419.481	313.85
419.689	193.02
419.897	119.29
420.105	66.05
420.313	354.81
420.521	248.32
420.729	217.6
420.937	268.8
421.145	119.29
421.353	182.78
421.561	240.12
421.769	283.13
421.977	221.69
422.185	176.64
422.393	168.45
422.601	408.06
422.809	283.13
423.017	188.93
423.224	158.21
423.432	440.83
423.64	276.99
423.848	139.77
424.056	61.95
424.263	428.54
424.471	248.32
424.679	283.13
424.887	152.06
425.094	526.84
425.302	342.52
425.51	123.39
425.718	195.07
425.925	371.19
426.133	293.37
426.341	276.99
426.548	201.21
426.756	283.13
426.964	266.75
427.171	270.84
427.379	274.94
427.586	375.29
427.794	436.73
428.001	305.66
428.209	305.66
428.417	512.5
428.624	496.12
428.832	287.23
429.039	330.23
429.247	436.73
429.454	438.78
429.662	393.72
429.869	293.37
430.076	545.27
430.284	569.85
430.491	387.58
430.699	403.96
430.906	647.67
431.114	487.93
431.321	469.5
431.528	465.4
431.736	520.7
431.943	594.42
432.15	473.59
432.358	389.63
432.565	780.79
432.772	289.28
432.979	561.66
433.187	373.24
433.394	772.6
433.601	502.26
433.808	578.04
434.016	592.37
434.223	680.44
434.43	616.95
434.637	492.02
434.844	776.69
435.052	860.66
435.259	793.08
435.466	668.15
435.673	717.3
435.88	897.52
436.087	989.68
436.294	899.57
436.501	809.46
436.708	909.81
436.915	977.39
437.122	909.81
437.329	694.77
437.537	928.24
437.743	1006.06
437.95	958.96
438.157	823.8
438.364	1034.74
438.571	1004.02
438.778	977.39
438.985	1040.88
439.192	1118.7
439.399	1098.22
439.606	1075.7
439.813	1092.08
440.02	1458.67
440.227	1575.4
440.433	1212.91
440.64	1161.71
440.847	1210.86
441.054	1264.11
441.261	1262.06
441.467	1233.39
441.674	1346.03
441.881	1587.69
442.088	1290.73
442.294	1370.6
442.501	1634.79
442.708	1614.31
442.914	1386.99
443.121	1505.77
443.328	1755.62
443.534	1774.05
443.741	1630.7
443.948	1485.29
444.154	1837.54
444.361	2019.81
444.568	1755.62
444.774	1812.96
444.981	1831.4
445.187	2120.16
445.394	1845.73
445.6	1751.53
445.807	2279.9
446.013	1964.51
446.22	1823.2
446.426	2165.21
446.633	2320.86
446.839	2519.51
447.046	1909.22
447.252	2464.22
447.459	2359.77
447.665	2415.07
447.871	2380.25
448.078	2744.79
448.284	2718.17
448.491	2681.3
448.697	2851.28
448.903	2802.13
449.11	2947.54
449.316	2828.76
449.522	3107.28
449.728	3113.42
449.935	3361.23
450.141	3170.77
450.347	3242.45
450.553	3209.68
450.76	3529.16
450.966	3686.86
451.172	3539.4
451.378	3738.05
451.584	3754.44
451.791	4051.39
451.997	3795.4
452.203	3965.38
452.409	4213.18
452.615	4297.15
452.821	3914.18
453.027	4043.2
453.233	4721.08
453.44	4336.06
453.646	4288.96
453.852	4487.61
454.058	4532.67
454.264	4798.9
454.47	4942.26
454.676	4829.62
454.882	5218.74
455.088	4757.94
455.294	4860.34
455.5	5011.89
455.705	5308.85
455.911	5267.89
456.117	5226.93
456.323	5269.94
456.529	5140.91
456.735	5401.01
456.941	5216.69
457.147	5183.92
457.352	5331.37
457.558	5112.24
457.764	5366.19
457.97	5243.31
458.176	5394.86
458.381	5538.22
458.587	5382.57
458.793	5312.94
458.999	5351.85
459.204	5663.15
459.41	5452.2
459.616	5394.86
459.821	5642.67
460.027	5366.19
460.233	5517.74
460.438	5237.17
460.644	5413.29
460.85	5202.35
461.055	5173.68
461.261	5110.19
461.466	4846.01
461.672	4870.58
