Data from USB4F104151__18__11-58-01-240.txt Node

Date: Wed Feb 19 11:58:01 EST 2025
User: louis
Spectrometer: USB4F10415
Trigger mode: 4
Integration Time (sec): 2.250200E-1
Scans to average: 1
Electric dark correction enabled: true
Nonlinearity correction enabled: false
Boxcar width: 0
XAxis mode: Wavelengths
Number of Pixels in Spectrum: 3648
>>>>>Begin Spectral Data<<<<<
178.204	-829.43
178.424	-829.43
178.644	-829.43
178.864	-864.24
179.084	-813.04
179.304	129.02
179.524	145.41
179.744	55.3
179.964	-217.08
180.184	192.51
180.404	98.3
180.624	-229.37
180.844	-83.97
181.064	-12.29
181.283	141.31
181.503	-79.87
181.723	-139.26
181.943	-106.49
182.163	428.03
182.383	-219.13
182.602	-233.47
182.822	436.22
183.042	231.42
183.262	-229.37
183.482	-161.79
183.701	208.89
183.921	151.55
184.141	-180.22
184.361	-169.98
184.58	215.04
184.8	247.8
185.02	-219.13
185.239	-14.34
185.459	266.24
185.679	360.44
185.898	-229.37
186.118	-237.56
186.338	180.22
186.557	335.87
186.777	-321.53
186.997	-227.32
187.216	159.74
187.436	411.64
187.655	-165.89
187.875	-51.2
188.095	258.04
188.314	401.4
188.534	-176.13
188.753	-237.56
188.973	399.35
189.192	532.47
189.412	-233.47
189.631	-133.12
189.851	301.05
190.07	440.31
190.29	-235.52
190.509	-278.52
190.729	190.46
190.948	325.63
191.168	-45.06
191.387	-133.12
191.607	225.28
191.826	344.06
192.045	-157.69
192.265	-182.27
192.484	333.82
192.704	225.28
192.923	-139.26
193.142	-10.24
193.362	344.06
193.581	380.92
193.8	-100.35
194.02	-188.41
194.239	233.47
194.458	260.09
194.678	-129.02
194.897	-251.9
195.116	217.08
195.335	229.37
195.555	-172.03
195.774	-229.37
195.993	307.2
196.212	190.46
196.432	-172.03
196.651	-262.14
196.87	131.07
197.089	606.2
197.308	-122.88
197.528	-153.6
197.747	122.88
197.966	245.76
198.185	-49.15
198.404	-305.15
198.623	323.58
198.842	413.69
199.062	-53.25
199.281	-104.45
199.5	135.17
199.719	323.58
199.938	-178.17
200.157	-131.07
200.376	425.98
200.595	348.15
200.814	-163.84
201.033	-192.51
201.252	419.83
201.471	231.42
201.69	-206.84
201.909	-198.65
202.128	342.01
202.347	294.91
202.566	-102.4
202.785	-225.28
203.004	98.3
203.223	419.83
203.442	-149.5
203.661	-241.66
203.879	202.75
204.098	342.01
204.317	-251.9
204.536	-75.77
204.755	346.11
204.974	288.76
205.193	-360.44
205.411	-163.84
205.63	417.79
205.849	260.09
206.068	-155.65
206.287	-327.67
206.505	362.49
206.724	145.41
206.943	-278.52
207.162	-221.18
207.381	239.61
207.599	124.93
207.818	-88.06
208.037	-327.67
208.255	219.13
208.474	247.8
208.693	-157.69
208.911	-116.73
209.13	294.91
209.349	315.39
209.567	-38.91
209.786	-180.22
210.005	407.55
210.223	153.6
210.442	-288.76
210.661	-237.56
210.879	225.28
211.098	174.08
211.316	-61.44
211.535	-59.39
211.753	335.87
211.972	235.52
212.191	-161.79
212.409	-217.08
212.628	415.74
212.846	202.75
213.065	-247.8
213.283	-28.67
213.502	198.65
213.72	169.98
213.938	-172.03
214.157	-202.75
214.375	196.61
214.594	169.98
214.812	-100.35
215.031	-131.07
215.249	210.94
215.467	284.67
215.686	-26.62
215.904	-174.08
216.122	272.38
216.341	405.5
216.559	-24.58
216.778	-106.49
216.996	452.6
217.214	157.69
217.432	-186.37
217.651	-210.94
217.869	227.32
218.087	215.04
218.306	-200.7
218.524	-190.46
218.742	161.79
218.96	301.05
219.179	-190.46
219.397	-172.03
219.615	518.14
219.833	251.9
220.051	-192.51
220.27	-32.77
220.488	376.83
220.706	186.37
220.924	-256
221.142	-231.42
221.36	321.53
221.578	292.86
221.796	-157.69
222.015	-63.49
222.233	256
222.451	473.08
222.669	-163.84
222.887	-112.64
223.105	126.97
223.323	229.37
223.541	-180.22
223.759	-147.45
223.977	147.45
224.195	430.07
224.413	-131.07
224.631	-157.69
224.849	299
225.067	550.9
225.285	-155.65
225.503	-231.42
225.721	-26.62
225.939	137.21
226.157	-178.17
226.375	-18.43
226.592	178.17
226.81	194.56
227.028	24.58
227.246	-155.65
227.464	339.96
227.682	307.2
227.9	-61.44
228.117	-92.16
228.335	219.13
228.553	184.32
228.771	-256
228.989	-157.69
229.206	200.7
229.424	112.64
229.642	-153.6
229.86	-155.65
230.077	368.63
230.295	194.56
230.513	-69.63
230.731	-159.74
230.948	382.97
231.166	475.13
231.384	-167.93
231.601	-184.32
231.819	428.03
232.037	32.77
232.254	-116.73
232.472	-180.22
232.689	135.17
232.907	350.2
233.125	-233.47
233.342	-239.61
233.56	100.35
233.777	116.73
233.995	-190.46
234.213	-40.96
234.43	366.59
234.648	169.98
234.865	-184.32
235.083	-86.01
235.3	260.09
235.518	303.1
235.735	-108.54
235.953	-135.17
236.17	172.03
236.388	196.61
236.605	57.34
236.822	-92.16
237.04	342.01
237.257	256
237.475	-151.55
237.692	-153.6
237.909	305.15
238.127	-4.1
238.344	-67.58
238.562	-133.12
238.779	145.41
238.996	49.15
239.214	-28.67
239.431	-165.89
239.648	174.08
239.865	229.37
240.083	-122.88
240.3	-204.8
240.517	96.25
240.735	161.79
240.952	8.19
241.169	-169.98
241.386	280.57
241.603	223.23
241.821	-223.23
242.038	-145.41
242.255	372.73
242.472	69.63
242.689	-122.88
242.907	-137.21
243.124	206.84
243.341	206.84
243.558	-149.5
243.775	-268.28
243.992	40.96
244.209	303.1
244.426	-57.34
244.643	-104.45
244.86	110.59
245.078	268.28
245.295	-63.49
245.512	-174.08
245.729	51.2
245.946	243.71
246.163	-122.88
246.38	-155.65
246.597	180.22
246.814	239.61
247.031	-106.49
247.248	-180.22
247.464	389.11
247.681	137.21
247.898	-110.59
248.115	20.48
248.332	75.77
248.549	348.15
248.766	24.58
248.983	-104.45
249.2	329.72
249.417	305.15
249.633	-178.17
249.85	28.67
250.067	96.25
250.284	192.51
250.501	-149.5
250.717	-32.77
250.934	-4.1
251.151	229.37
251.368	-120.83
251.585	-65.53
251.801	206.84
252.018	-26.62
252.235	0
252.451	-202.75
252.668	194.56
252.885	305.15
253.102	-135.17
253.318	-180.22
253.535	159.74
253.752	98.3
253.968	-92.16
254.185	-153.6
254.401	223.23
254.618	245.76
254.835	-71.68
255.051	-182.27
255.268	219.13
255.484	251.9
255.701	-182.27
255.917	-67.58
256.134	-2.05
256.351	231.42
256.567	-165.89
256.784	-65.53
257	-106.49
257.217	364.54
257.433	108.54
257.65	-174.08
257.866	319.48
258.082	2.05
258.299	-73.73
258.515	-36.86
258.732	114.69
258.948	108.54
259.165	-30.72
259.381	-180.22
259.597	284.67
259.814	90.11
260.03	-157.69
260.246	-131.07
260.463	274.43
260.679	362.49
260.895	-88.06
261.112	-116.73
261.328	100.35
261.544	129.02
261.761	-149.5
261.977	-108.54
262.193	79.87
262.409	245.76
262.626	65.53
262.842	-75.77
263.058	147.45
263.274	268.28
263.49	-90.11
263.707	-141.31
263.923	245.76
264.139	-2.05
264.355	-143.36
264.571	-10.24
264.787	278.52
265.004	251.9
265.22	-32.77
265.436	-114.69
265.652	165.89
265.868	284.67
266.084	-167.93
266.3	-104.45
266.516	151.55
266.732	212.99
266.948	-108.54
267.164	-192.51
267.38	247.8
267.596	163.84
267.812	30.72
268.028	-131.07
268.244	157.69
268.46	169.98
268.676	-108.54
268.892	-110.59
269.108	120.83
269.324	55.3
269.54	-157.69
269.756	-157.69
269.972	63.49
270.188	221.18
270.403	-141.31
270.619	-96.25
270.835	221.18
271.051	194.56
271.267	-88.06
271.483	-198.65
271.698	239.61
271.914	237.56
272.13	26.62
272.346	-83.97
272.562	217.08
272.777	393.21
272.993	-22.53
273.209	-77.82
273.425	280.57
273.64	-18.43
273.856	-69.63
274.072	-221.18
274.287	106.49
274.503	276.48
274.719	0
274.934	-86.01
275.15	-71.68
275.366	143.36
275.581	-108.54
275.797	-22.53
276.012	133.12
276.228	75.77
276.444	-71.68
276.659	57.34
276.875	81.92
277.09	55.3
277.306	-45.06
277.521	2.05
277.737	243.71
277.952	219.13
278.168	-59.39
278.383	-61.44
278.599	155.65
278.814	212.99
279.03	-151.55
279.245	0
279.461	206.84
279.676	165.89
279.892	-94.21
280.107	-161.79
280.322	32.77
280.538	247.8
280.753	-122.88
280.969	-96.25
281.184	92.16
281.399	292.86
281.615	-57.34
281.83	-10.24
282.045	-94.21
282.26	-34.82
282.476	10.24
282.691	40.96
282.906	186.37
283.122	88.06
283.337	-100.35
283.552	-43.01
283.767	96.25
283.983	196.61
284.198	-92.16
284.413	-59.39
284.628	71.68
284.843	180.22
285.058	-4.1
285.274	-79.87
285.489	126.97
285.704	180.22
285.919	-69.63
286.134	-30.72
286.349	153.6
286.564	81.92
286.779	16.38
286.995	-55.3
287.21	-69.63
287.425	163.84
287.64	-59.39
287.855	163.84
288.07	51.2
288.285	311.29
288.5	-22.53
288.715	-14.34
288.93	141.31
289.145	79.87
289.36	-139.26
289.575	-10.24
289.79	260.09
290.004	73.73
290.219	47.1
290.434	-90.11
290.649	96.25
290.864	73.73
291.079	-69.63
291.294	-32.77
291.509	237.56
291.724	86.01
291.938	-6.14
292.153	-112.64
292.368	67.58
292.583	221.18
292.798	-36.86
293.012	-43.01
293.227	206.84
293.442	57.34
293.657	24.58
293.871	108.54
294.086	243.71
294.301	210.94
294.516	61.44
294.73	57.34
294.945	32.77
295.16	194.56
295.374	24.58
295.589	63.49
295.804	-34.82
296.018	83.97
296.233	-116.73
296.447	63.49
296.662	122.88
296.877	292.86
297.091	-36.86
297.306	-57.34
297.52	98.3
297.735	184.32
297.949	53.25
298.164	-231.42
298.378	178.17
298.593	-38.91
298.807	-6.14
299.022	-32.77
299.236	251.9
299.451	49.15
299.665	8.19
299.88	28.67
300.094	219.13
300.309	40.96
300.523	-47.1
300.737	-10.24
300.952	296.96
301.166	227.32
301.381	-88.06
301.595	-184.32
301.809	96.25
302.024	147.45
302.238	-90.11
302.452	114.69
302.667	174.08
302.881	260.09
303.095	12.29
303.309	-2.05
303.524	110.59
303.738	165.89
303.952	55.3
304.166	-55.3
304.381	-112.64
304.595	227.32
304.809	-30.72
305.023	-18.43
305.237	86.01
305.452	81.92
305.666	-63.49
305.88	59.39
306.094	204.8
306.308	231.42
306.522	-24.58
306.736	34.82
306.95	296.96
307.164	88.06
307.379	40.96
307.593	92.16
307.807	194.56
308.021	217.08
308.235	88.06
308.449	-137.21
308.663	153.6
308.877	612.34
309.091	34.82
309.305	45.06
309.519	-81.92
309.733	243.71
309.947	-169.98
310.161	-73.73
310.374	116.73
310.588	313.34
310.802	-137.21
311.016	-40.96
311.23	225.28
311.444	77.82
311.658	0
311.872	178.17
312.085	258.04
312.299	235.52
312.513	163.84
312.727	-43.01
312.941	36.86
313.154	83.97
313.368	-10.24
313.582	-8.19
313.796	157.69
314.009	192.51
314.223	149.5
314.437	131.07
314.651	229.37
314.864	53.25
315.078	-92.16
315.292	-126.97
315.505	112.64
315.719	153.6
315.933	102.4
316.146	-88.06
316.36	-14.34
316.573	212.99
316.787	194.56
317.001	40.96
317.214	2.05
317.428	161.79
317.641	-71.68
317.855	24.58
318.068	167.93
318.282	186.37
318.495	174.08
318.709	-63.49
318.922	131.07
319.136	315.39
319.349	47.1
319.563	-61.44
319.776	196.61
319.99	-83.97
320.203	0
320.417	-69.63
320.63	47.1
320.843	278.52
321.057	69.63
321.27	-10.24
321.483	270.33
321.697	167.93
321.91	-71.68
322.124	100.35
322.337	180.22
322.55	6.14
322.763	-22.53
322.977	-65.53
323.19	28.67
323.403	147.45
323.617	47.1
323.83	233.47
324.043	174.08
324.256	202.75
324.469	-212.99
324.683	188.41
324.896	180.22
325.109	86.01
325.322	-120.83
325.535	30.72
325.748	296.96
325.962	124.93
326.175	-2.05
326.388	-12.29
326.601	272.38
326.814	88.06
327.027	69.63
327.24	59.39
327.453	-71.68
327.666	202.75
327.879	249.85
328.092	26.62
328.305	206.84
328.518	49.15
328.731	16.38
328.944	-124.93
329.157	157.69
329.37	-63.49
329.583	139.26
329.796	71.68
330.009	-106.49
330.222	174.08
330.435	67.58
330.648	-81.92
330.861	194.56
331.073	112.64
331.286	57.34
331.499	-16.38
331.712	34.82
331.925	137.21
332.138	18.43
332.35	-83.97
332.563	71.68
332.776	249.85
332.989	-81.92
333.202	-75.77
333.414	98.3
333.627	192.51
333.84	-104.45
334.053	30.72
334.265	-2.05
334.478	49.15
334.691	22.53
334.903	8.19
335.116	20.48
335.329	53.25
335.541	6.14
335.754	241.66
335.966	90.11
336.179	235.52
336.392	-133.12
336.604	77.82
336.817	196.61
337.029	206.84
337.242	-18.43
337.454	43.01
337.667	163.84
337.88	276.48
338.092	86.01
338.305	188.41
338.517	79.87
338.729	147.45
338.942	32.77
339.154	-98.3
339.367	2.05
339.579	139.26
339.792	-83.97
340.004	-6.14
340.217	147.45
340.429	184.32
340.641	-30.72
340.854	-75.77
341.066	178.17
341.278	284.67
341.491	139.26
341.703	-67.58
341.915	40.96
342.128	305.15
342.34	-59.39
342.552	-45.06
342.764	163.84
342.977	83.97
343.189	57.34
343.401	114.69
343.613	-8.19
343.826	155.65
344.038	-10.24
344.25	69.63
344.462	81.92
344.674	163.84
344.886	-104.45
345.099	8.19
345.311	178.17
345.523	100.35
345.735	-180.22
345.947	-28.67
346.159	192.51
346.371	237.56
346.583	-2.05
346.795	69.63
347.007	137.21
347.219	135.17
347.431	0
347.643	96.25
347.855	16.38
348.067	212.99
348.279	-90.11
348.491	-43.01
348.703	299
348.915	92.16
349.127	-59.39
349.339	40.96
349.551	186.37
349.763	337.91
349.975	-10.24
350.187	59.39
350.399	382.97
350.61	215.04
350.822	18.43
351.034	108.54
351.246	227.32
351.458	147.45
351.669	71.68
351.881	-69.63
352.093	284.67
352.305	167.93
352.517	-32.77
352.728	38.91
352.94	147.45
353.152	251.9
353.363	-96.25
353.575	16.38
353.787	374.78
353.999	169.98
354.21	155.65
354.422	-124.93
354.633	139.26
354.845	172.03
355.057	79.87
355.268	-4.1
355.48	196.61
355.692	-4.1
355.903	6.14
356.115	-120.83
356.326	-92.16
356.538	348.15
356.749	16.38
356.961	79.87
357.172	159.74
357.384	53.25
357.595	198.65
357.807	-51.2
358.018	112.64
358.23	151.55
358.441	-59.39
358.653	-22.53
358.864	169.98
359.075	59.39
359.287	-8.19
359.498	137.21
359.709	292.86
359.921	194.56
360.132	55.3
360.344	-32.77
360.555	40.96
360.766	122.88
360.977	-88.06
361.189	133.12
361.4	141.31
361.611	186.37
361.823	22.53
362.034	-65.53
362.245	-22.53
362.456	135.17
362.667	137.21
362.879	-73.73
363.09	233.47
363.301	165.89
363.512	-63.49
363.723	-71.68
363.935	88.06
364.146	243.71
364.357	32.77
364.568	-67.58
364.779	-47.1
364.99	307.2
365.201	28.67
365.412	126.97
365.623	40.96
365.834	186.37
366.045	40.96
366.256	38.91
366.467	231.42
366.678	139.26
366.889	6.14
367.1	-43.01
367.311	348.15
367.522	112.64
367.733	38.91
367.944	6.14
368.155	110.59
368.366	190.46
368.577	73.73
368.788	47.1
368.999	14.34
369.209	86.01
369.42	110.59
369.631	421.88
369.842	235.52
370.053	169.98
370.264	32.77
370.474	-55.3
370.685	215.04
370.896	165.89
371.107	30.72
371.317	-88.06
371.528	145.41
371.739	309.24
371.95	22.53
372.16	141.31
372.371	79.87
372.582	83.97
372.792	2.05
373.003	96.25
373.214	188.41
373.424	178.17
373.635	-20.48
373.846	190.46
374.056	120.83
374.267	77.82
374.477	47.1
374.688	-38.91
374.898	272.38
375.109	159.74
375.319	51.2
375.53	47.1
375.74	333.82
375.951	75.77
376.161	131.07
376.372	102.4
376.582	161.79
376.793	219.13
377.003	-26.62
377.214	16.38
377.424	253.95
377.635	186.37
377.845	-65.53
378.055	108.54
378.266	-26.62
378.476	116.73
378.686	47.1
378.897	10.24
379.107	303.1
379.317	280.57
379.528	-24.58
379.738	40.96
379.948	-34.82
380.158	155.65
380.369	53.25
380.579	-10.24
380.789	102.4
380.999	145.41
381.21	180.22
381.42	210.94
381.63	155.65
381.84	315.39
382.05	114.69
382.261	65.53
382.471	348.15
382.681	174.08
382.891	92.16
383.101	120.83
383.311	24.58
383.521	92.16
383.731	-83.97
383.941	172.03
384.151	143.36
384.361	-34.82
384.571	-34.82
384.781	34.82
384.991	251.9
385.201	370.68
385.411	153.6
385.621	47.1
385.831	233.47
386.041	200.7
386.251	63.49
386.461	106.49
386.671	227.32
386.881	239.61
387.091	49.15
387.301	133.12
387.511	139.26
387.72	194.56
387.93	118.78
388.14	-36.86
388.35	182.27
388.56	344.06
388.769	43.01
388.979	30.72
389.189	104.45
389.399	241.66
389.609	24.58
389.818	6.14
390.028	206.84
390.238	174.08
390.447	-24.58
390.657	102.4
390.867	71.68
391.076	22.53
391.286	18.43
391.496	-71.68
391.705	159.74
391.915	333.82
392.125	2.05
392.334	81.92
392.544	321.53
392.753	147.45
392.963	2.05
393.172	12.29
393.382	131.07
393.591	362.49
393.801	-14.34
394.01	57.34
394.22	212.99
394.429	145.41
394.639	47.1
394.848	137.21
395.058	200.7
395.267	116.73
395.477	118.78
395.686	6.14
395.895	417.79
396.105	368.63
396.314	28.67
396.524	94.21
396.733	137.21
396.942	276.48
397.152	43.01
397.361	178.17
397.57	210.94
397.78	163.84
397.989	88.06
398.198	303.1
398.407	182.27
398.617	231.42
398.826	75.77
399.035	-71.68
399.244	278.52
399.453	174.08
399.663	10.24
399.872	-102.4
400.081	135.17
400.29	294.91
400.499	4.1
400.708	67.58
400.917	217.08
401.127	129.02
401.336	26.62
401.545	266.24
401.754	276.48
401.963	241.66
402.172	-6.14
402.381	-14.34
402.59	227.32
402.799	126.97
403.008	172.03
403.217	51.2
403.426	243.71
403.635	32.77
403.844	-26.62
404.053	-26.62
404.262	157.69
404.471	333.82
404.68	88.06
404.888	149.5
405.097	98.3
405.306	276.48
405.515	43.01
405.724	51.2
405.933	286.72
406.142	202.75
406.35	49.15
406.559	47.1
406.768	143.36
406.977	450.55
407.185	34.82
407.394	51.2
407.603	47.1
407.812	159.74
408.02	98.3
408.229	65.53
408.438	176.13
408.646	-45.06
408.855	-38.91
409.064	18.43
409.272	165.89
409.481	163.84
409.69	-38.91
409.898	43.01
410.107	229.37
410.315	303.1
410.524	73.73
410.733	36.86
410.941	196.61
411.15	243.71
411.358	45.06
411.567	233.47
411.775	165.89
411.984	122.88
412.192	165.89
412.401	-24.58
412.609	417.79
412.818	313.34
413.026	108.54
413.234	53.25
413.443	178.17
413.651	26.62
413.86	-77.82
414.068	229.37
414.276	399.35
414.485	172.03
414.693	122.88
414.901	169.98
415.11	229.37
415.318	180.22
415.526	71.68
415.734	110.59
415.943	231.42
416.151	337.91
416.359	24.58
416.567	108.54
416.776	237.56
416.984	262.14
417.192	94.21
417.4	61.44
417.608	100.35
417.817	22.53
418.025	192.51
418.233	178.17
418.441	106.49
418.649	98.3
418.857	53.25
419.065	161.79
419.273	172.03
419.481	169.98
419.689	45.06
419.897	-51.2
420.105	120.83
420.313	350.2
420.521	114.69
420.729	143.36
420.937	129.02
421.145	12.29
421.353	104.45
421.561	241.66
421.769	190.46
421.977	133.12
422.185	75.77
422.393	145.41
422.601	237.56
422.809	284.67
423.017	98.3
423.224	96.25
423.432	417.79
423.64	202.75
423.848	-14.34
424.056	40.96
424.263	423.93
424.471	198.65
424.679	229.37
424.887	69.63
425.094	430.07
425.302	307.2
425.51	14.34
425.718	98.3
425.925	303.1
426.133	120.83
426.341	219.13
426.548	77.82
426.756	198.65
426.964	323.58
427.171	73.73
427.379	67.58
427.586	296.96
427.794	309.24
428.001	153.6
428.209	202.75
428.417	448.51
428.624	448.51
428.832	190.46
429.039	210.94
429.247	278.52
429.454	329.72
429.662	251.9
429.869	227.32
430.076	438.27
430.284	374.78
430.491	133.12
430.699	223.23
430.906	491.51
431.114	423.93
431.321	245.76
431.528	260.09
431.736	299
431.943	382.97
432.15	286.72
432.358	194.56
432.565	518.14
432.772	102.4
432.979	356.35
433.187	243.71
433.394	528.38
433.601	227.32
433.808	337.91
434.016	436.22
434.223	477.18
434.43	376.83
434.637	342.01
434.844	372.73
435.052	450.55
435.259	524.28
435.466	374.78
435.673	309.24
435.88	614.39
436.087	589.82
436.294	604.15
436.501	471.03
436.708	546.81
436.915	589.82
437.122	548.86
437.329	317.44
437.537	526.33
437.743	565.24
437.95	477.18
438.157	524.28
438.364	669.69
438.571	630.77
438.778	428.03
438.985	577.53
439.192	724.98
439.399	540.66
439.606	569.34
439.813	614.39
440.02	946.16
440.227	946.16
440.433	595.96
440.64	518.14
440.847	694.26
441.054	751.6
441.261	714.74
441.467	677.88
441.674	714.74
441.881	950.26
442.088	759.8
442.294	780.28
442.501	997.36
442.708	1052.66
442.914	776.18
443.121	778.23
443.328	923.63
443.534	1181.68
443.741	782.32
443.948	647.16
444.154	1026.03
444.361	1218.54
444.568	960.5
444.774	1058.8
444.981	974.83
445.187	1263.6
445.394	1066.99
445.6	964.59
445.807	1114.09
446.013	1155.05
446.22	894.96
446.426	1091.57
446.633	1312.75
446.839	1525.74
447.046	1050.61
447.252	1341.42
447.459	1208.3
447.665	1269.74
447.871	1134.57
448.078	1535.98
448.284	1525.74
448.491	1576.94
448.697	1370.09
448.903	1495.02
449.11	1560.55
449.316	1492.97
449.522	1677.29
449.728	1583.08
449.935	1806.31
450.141	1785.83
450.347	1710.05
450.553	1667.05
450.76	1910.75
450.966	2025.44
451.172	1847.27
451.378	1810.4
451.584	1986.53
451.791	2234.33
451.997	2119.65
452.203	2025.44
452.409	2363.36
452.615	2346.97
452.821	1978.34
453.027	2064.35
453.233	2660.31
453.44	2400.22
453.646	2224.09
453.852	2344.92
454.058	2316.25
454.264	2519
454.47	2652.12
454.676	2424.79
454.882	2936.79
455.088	2594.78
455.294	2617.3
455.5	2766.81
455.705	2955.22
455.911	2799.57
456.117	2654.17
456.323	2828.24
456.529	2701.27
456.735	2953.17
456.941	2801.62
457.147	2875.35
457.352	3043.28
457.558	2787.29
457.764	2885.59
457.97	2760.66
458.176	3010.51
458.381	2934.74
458.587	2934.74
458.793	2846.68
458.999	2734.04
459.204	3057.62
459.41	2908.12
459.616	2883.54
459.821	2965.46
460.027	2717.65
460.233	2942.93
460.438	2768.85
460.644	2850.77
460.85	2955.22
461.055	2719.7
461.261	2781.14
