Data from USB4F104151__97__11-31-47-659.txt Node

Date: Wed Feb 26 11:31:47 EST 2025
User: louis
Spectrometer: USB4F10415
Trigger mode: 4
Integration Time (sec): 1.000000E-1
Scans to average: 1
Electric dark correction enabled: true
Nonlinearity correction enabled: false
Boxcar width: 0
XAxis mode: Wavelengths
Number of Pixels in Spectrum: 3648
>>>>>Begin Spectral Data<<<<<
178.204	-335.18
178.424	-335.18
178.644	-335.18
178.864	-408.91
179.084	-445.77
179.304	2.73
179.524	-46.42
179.744	-21.85
179.964	94.89
180.184	-1.37
180.404	-3.41
180.624	2.73
180.844	62.12
181.064	-66.9
181.283	-11.61
181.503	-27.99
181.723	17.07
181.943	-148.82
182.163	168.62
182.383	-50.52
182.602	33.45
182.822	187.05
183.042	12.97
183.262	6.83
183.482	-5.46
183.701	-46.42
183.921	88.75
184.141	-30.04
184.361	133.8
184.58	72.36
184.8	0.68
185.02	-91.48
185.239	129.7
185.459	25.26
185.679	191.14
185.898	-124.24
186.118	17.07
186.338	33.45
186.557	131.75
186.777	-83.28
186.997	-3.41
187.216	29.35
187.436	164.52
187.655	47.79
187.875	70.31
188.095	62.12
188.314	103.08
188.534	80.55
188.753	-3.41
188.973	35.5
189.192	88.75
189.412	-40.28
189.631	47.79
189.851	2.73
190.07	144.04
190.29	-7.51
190.509	39.59
190.729	78.51
190.948	137.9
191.168	246.44
191.387	133.8
191.607	-25.94
191.826	51.88
192.045	31.4
192.265	-11.61
192.484	-15.7
192.704	10.92
192.923	-124.24
193.142	225.96
193.362	43.69
193.581	137.9
193.8	78.51
194.02	66.22
194.239	49.83
194.458	51.88
194.678	74.41
194.897	-75.09
195.116	15.02
195.335	58.03
195.555	82.6
195.774	2.73
195.993	86.7
196.212	72.36
196.432	-42.32
196.651	-111.96
196.87	66.22
197.089	193.19
197.308	15.02
197.528	76.46
197.747	-44.37
197.966	121.51
198.185	148.14
198.404	-36.18
198.623	92.84
198.842	82.6
199.062	58.03
199.281	105.13
199.5	-9.56
199.719	88.75
199.938	47.79
200.157	131.75
200.376	66.22
200.595	158.38
200.814	60.07
201.033	-44.37
201.252	121.51
201.471	39.59
201.69	135.85
201.909	33.45
202.128	51.88
202.347	23.21
202.566	-9.56
202.785	-83.28
203.004	10.92
203.223	334.5
203.442	43.69
203.661	2.73
203.879	101.03
204.098	156.33
204.317	-87.38
204.536	139.94
204.755	47.79
204.974	80.55
205.193	-34.13
205.411	113.32
205.63	19.11
205.849	41.64
206.068	-23.89
206.287	41.64
206.505	127.66
206.724	-17.75
206.943	33.45
207.162	70.31
207.381	107.18
207.599	-32.08
207.818	45.74
208.037	10.92
208.255	43.69
208.474	72.36
208.693	-40.28
208.911	39.59
209.13	137.9
209.349	88.75
209.567	101.03
209.786	45.74
210.005	123.56
210.223	62.12
210.442	-36.18
210.661	-9.56
210.879	17.07
211.098	12.97
211.316	29.35
211.535	45.74
211.753	76.46
211.972	53.93
212.191	2.73
212.409	6.83
212.628	72.36
212.846	12.97
213.065	-36.18
213.283	94.89
213.502	37.55
213.72	-1.37
213.938	68.27
214.157	-15.7
214.375	68.27
214.594	84.65
214.812	66.22
215.031	62.12
215.249	29.35
215.467	80.55
215.686	98.99
215.904	88.75
216.122	23.21
216.341	162.47
216.559	82.6
216.778	135.85
216.996	170.66
217.214	-17.75
217.432	21.16
217.651	-13.65
217.869	78.51
218.087	-23.89
218.306	6.83
218.524	98.99
218.742	64.17
218.96	49.83
219.179	19.11
219.397	4.78
219.615	297.64
219.833	129.7
220.051	-9.56
220.27	103.08
220.488	123.56
220.706	72.36
220.924	-13.65
221.142	0.68
221.36	8.87
221.578	141.99
221.796	8.87
222.015	88.75
222.233	39.59
222.451	131.75
222.669	-36.18
222.887	105.13
223.105	37.55
223.323	6.83
223.541	-32.08
223.759	137.9
223.977	62.12
224.195	193.19
224.413	43.69
224.631	35.5
224.849	33.45
225.067	207.53
225.285	-38.23
225.503	6.83
225.721	-83.28
225.939	84.65
226.157	68.27
226.375	223.91
226.592	2.73
226.81	37.55
227.028	117.42
227.246	139.94
227.464	-19.8
227.682	109.23
227.9	47.79
228.117	4.78
228.335	115.37
228.553	53.93
228.771	49.83
228.989	12.97
229.206	98.99
229.424	98.99
229.642	15.02
229.86	6.83
230.077	133.8
230.295	53.93
230.513	39.59
230.731	64.17
230.948	139.94
231.166	174.76
231.384	-93.52
231.601	-15.7
231.819	170.66
232.037	0.68
232.254	-1.37
232.472	19.11
232.689	51.88
232.907	113.32
233.125	133.8
233.342	-52.56
233.56	-13.65
233.777	51.88
233.995	64.17
234.213	123.56
234.43	58.03
234.648	-3.41
234.865	6.83
235.083	141.99
235.3	19.11
235.518	27.31
235.735	98.99
235.953	64.17
236.17	103.08
236.388	115.37
236.605	2.73
236.822	185
237.04	152.23
237.257	90.79
237.475	6.83
237.692	86.7
237.909	66.22
238.127	-17.75
238.344	53.93
238.562	17.07
238.779	-1.37
238.996	-40.28
239.214	53.93
239.431	84.65
239.648	72.36
239.865	82.6
240.083	86.7
240.3	19.11
240.517	35.5
240.735	41.64
240.952	187.05
241.169	45.74
241.386	43.69
241.603	0.68
241.821	-25.94
242.038	113.32
242.255	119.46
242.472	-11.61
242.689	55.98
242.907	107.18
243.124	49.83
243.341	-9.56
243.558	-3.41
243.775	-58.71
243.992	-42.32
244.209	98.99
244.426	172.71
244.643	64.17
244.86	82.6
245.078	98.99
245.295	101.03
245.512	8.87
245.729	-9.56
245.946	98.99
246.163	-15.7
246.38	15.02
246.597	49.83
246.814	31.4
247.031	43.69
247.248	98.99
247.464	86.7
247.681	111.27
247.898	72.36
248.115	62.12
248.332	-1.37
248.549	107.18
248.766	199.34
248.983	19.11
249.2	125.61
249.417	101.03
249.633	-25.94
249.85	55.98
250.067	-9.56
250.284	82.6
250.501	29.35
250.717	43.69
250.934	-25.94
251.151	105.13
251.368	19.11
251.585	96.94
251.801	78.51
252.018	-19.8
252.235	115.37
252.451	-154.96
252.668	12.97
252.885	160.42
253.102	47.79
253.318	25.26
253.535	45.74
253.752	109.23
253.968	31.4
254.185	-38.23
254.401	-7.51
254.618	55.98
254.835	-7.51
255.051	80.55
255.268	115.37
255.484	72.36
255.701	-15.7
255.917	39.59
256.134	0.68
256.351	-23.89
256.567	-44.37
256.784	19.11
257	-89.43
257.217	139.94
257.433	88.75
257.65	-7.51
257.866	158.38
258.082	-58.71
258.299	55.98
258.515	55.98
258.732	27.31
258.948	-111.96
259.165	58.03
259.381	-1.37
259.597	70.31
259.814	-21.85
260.03	74.41
260.246	-30.04
260.463	205.48
260.679	107.18
260.895	33.45
261.112	60.07
261.328	31.4
261.544	-27.99
261.761	154.28
261.977	-5.46
262.193	-19.8
262.409	115.37
262.626	98.99
262.842	60.07
263.058	68.27
263.274	35.5
263.49	121.51
263.707	107.18
263.923	121.51
264.139	-77.14
264.355	64.17
264.571	170.66
264.787	35.5
265.004	158.38
265.22	58.03
265.436	-54.61
265.652	-17.75
265.868	53.93
266.084	-15.7
266.3	66.22
266.516	25.26
266.732	82.6
266.948	66.22
267.164	-5.46
267.38	51.88
267.596	101.03
267.812	141.99
268.028	12.97
268.244	-23.89
268.46	72.36
268.676	31.4
268.892	10.92
269.108	25.26
269.324	-21.85
269.54	8.87
269.756	86.7
269.972	-21.85
270.188	39.59
270.403	8.87
270.619	33.45
270.835	74.41
271.051	21.16
271.267	-3.41
271.483	-27.99
271.698	127.66
271.914	119.46
272.13	-30.04
272.346	-62.8
272.562	88.75
272.777	105.13
272.993	39.59
273.209	0.68
273.425	49.83
273.64	-54.61
273.856	96.94
274.072	17.07
274.287	-23.89
274.503	47.79
274.719	58.03
274.934	15.02
275.15	-38.23
275.366	80.55
275.581	-44.37
275.797	33.45
276.012	45.74
276.228	6.83
276.444	76.46
276.659	148.14
276.875	-11.61
277.09	-19.8
277.306	-40.28
277.521	60.07
277.737	45.74
277.952	96.94
278.168	98.99
278.383	-11.61
278.599	-1.37
278.814	123.56
279.03	-40.28
279.245	174.76
279.461	70.31
279.676	162.47
279.892	-13.65
280.107	-3.41
280.322	-11.61
280.538	19.11
280.753	-9.56
280.969	35.5
281.184	45.74
281.399	191.14
281.615	107.18
281.83	80.55
282.045	-68.95
282.26	-54.61
282.476	2.73
282.691	33.45
282.906	49.83
283.122	-64.85
283.337	-62.8
283.552	127.66
283.767	-19.8
283.983	158.38
284.198	45.74
284.413	88.75
284.628	-23.89
284.843	45.74
285.058	47.79
285.274	-38.23
285.489	-5.46
285.704	107.18
285.919	-9.56
286.134	76.46
286.349	31.4
286.564	10.92
286.779	135.85
286.995	19.11
287.21	-36.18
287.425	96.94
287.64	27.31
287.855	47.79
288.07	-25.94
288.285	78.51
288.5	146.09
288.715	55.98
288.93	72.36
289.145	-36.18
289.36	141.99
289.575	27.31
289.79	125.61
290.004	-19.8
290.219	8.87
290.434	23.21
290.649	8.87
290.864	19.11
291.079	-40.28
291.294	88.75
291.509	68.27
291.724	86.7
291.938	33.45
292.153	35.5
292.368	6.83
292.583	72.36
292.798	103.08
293.012	131.75
293.227	70.31
293.442	-9.56
293.657	148.14
293.871	127.66
294.086	98.99
294.301	180.9
294.516	72.36
294.73	-3.41
294.945	-95.57
295.16	0.68
295.374	74.41
295.589	107.18
295.804	-48.47
296.018	105.13
296.233	150.18
296.447	64.17
296.662	-34.13
296.877	133.8
297.091	62.12
297.306	86.7
297.52	12.97
297.735	55.98
297.949	72.36
298.164	8.87
298.378	60.07
298.593	-11.61
298.807	-7.51
299.022	27.31
299.236	189.1
299.451	4.78
299.665	47.79
299.88	37.55
300.094	105.13
300.309	45.74
300.523	68.27
300.737	8.87
300.952	141.99
301.166	113.32
301.381	-13.65
301.595	-27.99
301.809	105.13
302.024	35.5
302.238	-46.42
302.452	103.08
302.667	45.74
302.881	125.61
303.095	121.51
303.309	39.59
303.524	-9.56
303.738	78.51
303.952	41.64
304.166	8.87
304.381	-124.24
304.595	205.48
304.809	43.69
305.023	107.18
305.237	12.97
305.452	-1.37
305.666	94.89
305.88	82.6
306.094	98.99
306.308	62.12
306.522	92.84
306.736	117.42
306.95	162.47
307.164	-3.41
307.379	45.74
307.593	162.47
307.807	115.37
308.021	105.13
308.235	78.51
308.449	-58.71
308.663	43.69
308.877	168.62
309.091	47.79
309.305	41.64
309.519	-124.24
309.733	90.79
309.947	-62.8
310.161	107.18
310.374	146.09
310.588	133.8
310.802	-42.32
311.016	19.11
311.23	94.89
311.444	-64.85
311.658	-21.85
311.872	86.7
312.085	144.04
312.299	158.38
312.513	146.09
312.727	17.07
312.941	2.73
313.154	55.98
313.368	78.51
313.582	21.16
313.796	109.23
314.009	39.59
314.223	148.14
314.437	60.07
314.651	135.85
314.864	29.35
315.078	25.26
315.292	-97.62
315.505	-7.51
315.719	23.21
315.933	98.99
316.146	-32.08
316.36	-75.09
316.573	119.46
316.787	129.7
317.001	49.83
317.214	15.02
317.428	92.84
317.641	27.31
317.855	-1.37
318.068	29.35
318.282	21.16
318.495	191.14
318.709	37.55
318.922	-50.52
319.136	146.09
319.349	113.32
319.563	19.11
319.776	86.7
319.99	-3.41
320.203	96.94
320.417	35.5
320.63	94.89
320.843	141.99
321.057	76.46
321.27	62.12
321.483	94.89
321.697	162.47
321.91	98.99
322.124	96.94
322.337	78.51
322.55	6.83
322.763	66.22
322.977	55.98
323.19	29.35
323.403	-17.75
323.617	94.89
323.83	117.42
324.043	-13.65
324.256	119.46
324.469	-54.61
324.683	156.33
324.896	-11.61
325.109	-25.94
325.322	-40.28
325.535	80.55
325.748	123.56
325.962	37.55
326.175	80.55
326.388	39.59
326.601	211.62
326.814	12.97
327.027	15.02
327.24	105.13
327.453	-15.7
327.666	121.51
327.879	158.38
328.092	133.8
328.305	37.55
328.518	-1.37
328.731	70.31
328.944	33.45
329.157	80.55
329.37	23.21
329.583	191.14
329.796	174.76
330.009	4.78
330.222	133.8
330.435	125.61
330.648	123.56
330.861	96.94
331.073	49.83
331.286	72.36
331.499	41.64
331.712	8.87
331.925	21.16
332.138	17.07
332.35	121.51
332.563	-1.37
332.776	74.41
332.989	-38.23
333.202	12.97
333.414	6.83
333.627	21.16
333.84	47.79
334.053	45.74
334.265	29.35
334.478	51.88
334.691	43.69
334.903	2.73
335.116	17.07
335.329	39.59
335.541	123.56
335.754	162.47
335.966	-9.56
336.179	133.8
336.392	51.88
336.604	-27.99
336.817	109.23
337.029	23.21
337.242	10.92
337.454	92.84
337.667	35.5
337.88	121.51
338.092	117.42
338.305	64.17
338.517	-5.46
338.729	60.07
338.942	162.47
339.154	-64.85
339.367	-32.08
339.579	96.94
339.792	12.97
340.004	84.65
340.217	39.59
340.429	123.56
340.641	39.59
340.854	29.35
341.066	0.68
341.278	78.51
341.491	264.87
341.703	-56.66
341.915	45.74
342.128	76.46
342.34	15.02
342.552	23.21
342.764	53.93
342.977	45.74
343.189	-23.89
343.401	117.42
343.613	-36.18
343.826	29.35
344.038	-48.47
344.25	29.35
344.462	0.68
344.674	68.27
344.886	35.5
345.099	58.03
345.311	90.79
345.523	10.92
345.735	-3.41
345.947	37.55
346.159	64.17
346.371	-13.65
346.583	-5.46
346.795	150.18
347.007	-13.65
347.219	115.37
347.431	70.31
347.643	131.75
347.855	-21.85
348.067	174.76
348.279	-32.08
348.491	39.59
348.703	117.42
348.915	-44.37
349.127	-36.18
349.339	33.45
349.551	-27.99
349.763	135.85
349.975	96.94
350.187	144.04
350.399	111.27
350.61	107.18
350.822	-3.41
351.034	60.07
351.246	55.98
351.458	131.75
351.669	68.27
351.881	117.42
352.093	121.51
352.305	62.12
352.517	123.56
352.728	180.9
352.94	-7.51
353.152	125.61
353.363	-50.52
353.575	98.99
353.787	158.38
353.999	31.4
354.21	178.86
354.422	37.55
354.633	-27.99
354.845	41.64
355.057	31.4
355.268	74.41
355.48	113.32
355.692	-5.46
355.903	47.79
356.115	-13.65
356.326	-27.99
356.538	123.56
356.749	131.75
356.961	176.81
357.172	19.11
357.384	62.12
357.595	205.48
357.807	-66.9
358.018	37.55
358.23	10.92
358.441	162.47
358.653	39.59
358.864	58.03
359.075	4.78
359.287	76.46
359.498	86.7
359.709	133.8
359.921	90.79
360.132	6.83
360.344	60.07
360.555	35.5
360.766	92.84
360.977	80.55
361.189	62.12
361.4	15.02
361.611	154.28
361.823	49.83
362.034	23.21
362.245	-27.99
362.456	35.5
362.667	55.98
362.879	0.68
363.09	41.64
363.301	68.27
363.512	92.84
363.723	47.79
363.935	-50.52
364.146	111.27
364.357	64.17
364.568	10.92
364.779	15.02
364.99	264.87
365.201	-5.46
365.412	107.18
365.623	-38.23
365.834	49.83
366.045	43.69
366.256	121.51
366.467	78.51
366.678	12.97
366.889	103.08
367.1	19.11
367.311	88.75
367.522	4.78
367.733	129.7
367.944	0.68
368.155	35.5
368.366	109.23
368.577	103.08
368.788	146.09
368.999	47.79
369.209	76.46
369.42	197.29
369.631	234.15
369.842	121.51
370.053	-38.23
370.264	53.93
370.474	-21.85
370.685	150.18
370.896	-11.61
371.107	187.05
371.317	103.08
371.528	88.75
371.739	105.13
371.95	107.18
372.16	64.17
372.371	-1.37
372.582	-21.85
372.792	86.7
373.003	64.17
373.214	47.79
373.424	53.93
373.635	35.5
373.846	10.92
374.056	90.79
374.267	70.31
374.477	86.7
374.688	-56.66
374.898	94.89
375.109	-34.13
375.319	15.02
375.53	101.03
375.74	39.59
375.951	-5.46
376.161	17.07
376.372	107.18
376.582	-17.75
376.793	25.26
377.003	29.35
377.214	10.92
377.424	88.75
377.635	105.13
377.845	29.35
378.055	178.86
378.266	-19.8
378.476	39.59
378.686	166.57
378.897	15.02
379.107	94.89
379.317	111.27
379.528	35.5
379.738	105.13
379.948	-11.61
380.158	146.09
380.369	88.75
380.579	41.64
380.789	6.83
380.999	96.94
381.21	74.41
381.42	164.52
381.63	15.02
381.84	115.37
382.05	70.31
382.261	117.42
382.471	101.03
382.681	19.11
382.891	176.81
383.101	88.75
383.311	66.22
383.521	31.4
383.731	137.9
383.941	103.08
384.151	70.31
384.361	-46.42
384.571	25.26
384.781	76.46
384.991	199.34
385.201	195.24
385.411	92.84
385.621	90.79
385.831	109.23
386.041	72.36
386.251	19.11
386.461	133.8
386.671	-5.46
386.881	47.79
387.091	27.31
387.301	70.31
387.511	98.99
387.72	41.64
387.93	146.09
388.14	-11.61
388.35	49.83
388.56	135.85
388.769	-5.46
388.979	-5.46
389.189	-3.41
389.399	15.02
389.609	139.94
389.818	135.85
390.028	39.59
390.238	98.99
390.447	-11.61
390.657	6.83
390.867	43.69
391.076	-11.61
391.286	31.4
391.496	8.87
391.705	2.73
391.915	113.32
392.125	94.89
392.334	55.98
392.544	199.34
392.753	-58.71
392.963	-87.38
393.172	58.03
393.382	58.03
393.591	211.62
393.801	41.64
394.01	187.05
394.22	72.36
394.429	78.51
394.639	10.92
394.848	123.56
395.058	121.51
395.267	72.36
395.477	66.22
395.686	88.75
395.895	256.68
396.105	185
396.314	86.7
396.524	55.98
396.733	43.69
396.942	137.9
397.152	92.84
397.361	101.03
397.57	137.9
397.78	-68.95
397.989	127.66
398.198	187.05
398.407	84.65
398.617	49.83
398.826	139.94
399.035	23.21
399.244	185
399.453	70.31
399.663	45.74
399.872	115.37
400.081	72.36
400.29	137.9
400.499	-30.04
400.708	105.13
400.917	49.83
401.127	10.92
401.336	21.16
401.545	160.42
401.754	72.36
401.963	98.99
402.172	23.21
402.381	-81.24
402.59	-7.51
402.799	2.73
403.008	29.35
403.217	92.84
403.426	76.46
403.635	-64.85
403.844	88.75
404.053	-7.51
404.262	31.4
404.471	170.66
404.68	70.31
404.888	64.17
405.097	15.02
405.306	105.13
405.515	119.46
405.724	31.4
405.933	199.34
406.142	53.93
406.35	62.12
406.559	76.46
406.768	66.22
406.977	109.23
407.185	60.07
407.394	64.17
407.603	-44.37
407.812	82.6
408.02	180.9
408.229	84.65
408.438	88.75
408.646	25.26
408.855	84.65
409.064	49.83
409.272	29.35
409.481	178.86
409.69	-54.61
409.898	53.93
410.107	74.41
410.315	101.03
410.524	-17.75
410.733	64.17
410.941	33.45
411.15	43.69
411.358	74.41
411.567	154.28
411.775	35.5
411.984	31.4
412.192	60.07
412.401	25.26
412.609	103.08
412.818	105.13
413.026	174.76
413.234	12.97
413.443	111.27
413.651	62.12
413.86	55.98
414.068	139.94
414.276	154.28
414.485	23.21
414.693	174.76
414.901	131.75
415.11	25.26
415.318	68.27
415.526	64.17
415.734	152.23
415.943	111.27
416.151	166.57
416.359	15.02
416.567	141.99
416.776	111.27
416.984	133.8
417.192	174.76
417.4	2.73
417.608	29.35
417.817	43.69
418.025	135.85
418.233	219.82
418.441	55.98
418.649	10.92
418.857	47.79
419.065	164.52
419.273	21.16
419.481	94.89
419.689	31.4
419.897	2.73
420.105	-32.08
420.313	113.32
420.521	152.23
420.729	195.24
420.937	-5.46
421.145	35.5
421.353	129.7
421.561	150.18
421.769	45.74
421.977	58.03
422.185	219.82
422.393	94.89
422.601	111.27
422.809	117.42
423.017	148.14
423.224	117.42
423.432	107.18
423.64	121.51
423.848	150.18
424.056	0.68
424.263	117.42
424.471	-44.37
424.679	164.52
424.887	-32.08
425.094	162.47
425.302	141.99
425.51	162.47
425.718	152.23
425.925	58.03
426.133	-32.08
426.341	215.72
426.548	68.27
426.756	-9.56
426.964	144.04
427.171	4.78
427.379	168.62
427.586	148.14
427.794	45.74
428.001	109.23
428.209	92.84
428.417	139.94
428.624	115.37
428.832	115.37
429.039	125.61
429.247	49.83
429.454	139.94
429.662	199.34
429.869	139.94
430.076	92.84
430.284	139.94
430.491	185
430.699	137.9
430.906	191.14
431.114	182.95
431.321	228.01
431.528	119.46
431.736	148.14
431.943	160.42
432.15	168.62
432.358	193.19
432.565	266.92
432.772	70.31
432.979	248.49
433.187	133.8
433.394	262.82
433.601	199.34
433.808	264.87
434.016	297.64
434.223	182.95
434.43	248.49
434.637	273.06
434.844	250.53
435.052	256.68
435.259	258.73
435.466	316.07
435.673	236.2
435.88	318.12
436.087	379.56
436.294	430.76
436.501	395.94
436.708	316.07
436.915	352.93
437.122	305.83
437.329	299.69
437.537	359.08
437.743	375.46
437.95	387.75
438.157	434.85
438.364	406.18
438.571	428.71
438.778	555.68
438.985	516.77
439.192	486.05
439.399	393.89
439.606	502.44
439.813	639.65
440.02	668.32
440.227	699.04
440.433	619.17
440.64	502.44
440.847	529.06
441.054	680.61
441.261	852.64
441.467	719.52
441.674	631.46
441.881	764.58
442.088	584.35
442.294	742.05
442.501	875.17
442.708	850.59
442.914	750.24
443.121	912.03
443.328	944.8
443.534	1004.19
443.741	928.41
443.948	866.97
444.154	946.84
444.361	1206.94
444.568	1079.96
444.774	1094.3
444.981	1094.3
445.187	1319.57
445.394	1264.28
445.6	1231.51
445.807	1432.21
446.013	1430.16
446.22	1327.77
446.426	1409.69
446.633	1567.38
446.839	1876.62
447.046	1434.26
447.252	1804.94
447.459	1716.88
447.665	1788.56
447.871	1976.97
448.078	1958.54
448.284	2036.36
448.491	2185.87
448.697	2296.46
448.903	2298.5
449.11	2310.79
449.316	2388.61
449.522	2486.92
449.728	2628.23
449.935	2740.86
450.141	2806.4
450.347	2939.52
450.553	2843.26
450.76	3023.48
450.966	3146.36
451.172	3316.34
451.378	3474.04
451.584	3535.48
451.791	3664.5
451.997	3818.1
452.203	3912.3
452.409	4119.15
452.615	4375.14
452.821	4143.72
453.027	4110.96
453.233	4764.26
453.44	4633.19
453.646	4870.75
453.852	5085.79
454.058	5282.39
454.264	5323.35
454.47	5585.49
454.676	5691.99
454.882	6224.46
455.088	5966.42
455.294	6517.32
455.5	6609.48
455.705	7080.51
455.911	7080.51
456.117	7232.06
456.323	7522.87
456.529	7498.3
456.735	8122.93
456.941	8632.87
457.147	8587.82
457.352	9110.05
457.558	9368.09
457.764	9908.76
457.97	10048.02
458.176	10525.19
458.381	11024.9
458.587	11115.01
458.793	11696.63
458.999	11637.24
459.204	13236.7
459.41	13656.54
459.616	13353.44
459.821	14361.04
460.027	14830.02
460.233	15653.31
460.438	15718.84
460.644	16527.79
460.85	16660.91
461.055	17111.46
461.261	18260.37
461.466	17668.51
461.672	18235.8
461.878	20175.22
462.083	19810.68
462.289	20732.27
462.494	21453.16
462.7	21367.14
462.905	22034.78
463.111	23726.4
463.316	24924.46
463.522	25321.77
463.727	26075.42
463.932	27037.97
464.138	27764.99
464.343	29069.55
464.549	29090.03
464.754	31127.76
464.959	32096.45
465.165	32383.16
465.37	32407.74
465.575	32524.47
465.781	34533.53
465.986	35641.48
466.191	35092.63
466.397	35158.16
466.602	34623.64
466.807	36481.15
467.012	37001.33
467.218	37660.78
467.423	37767.27
467.628	38830.17
467.833	40640.57
468.038	39786.57
468.244	39221.33
468.449	41271.35
