Data from USB4F104151__11__09-25-01-224.txt Node

Date: Wed Feb 26 09:25:01 EST 2025
User: louis
Spectrometer: USB4F10415
Trigger mode: 4
Integration Time (sec): 1.000000E-1
Scans to average: 1
Electric dark correction enabled: true
Nonlinearity correction enabled: false
Boxcar width: 0
XAxis mode: Wavelengths
Number of Pixels in Spectrum: 3648
>>>>>Begin Spectral Data<<<<<
178.204	-288.42
178.424	-288.42
178.644	-288.42
178.864	-329.38
179.084	-327.33
179.304	24.92
179.524	-77.48
179.744	61.78
179.964	80.21
180.184	74.07
180.404	-18.09
180.624	-1.71
180.844	-59.05
181.064	-65.19
181.283	39.25
181.503	-57
181.723	-1.71
181.943	-75.43
182.163	198.99
182.383	47.44
182.602	37.2
182.822	88.4
183.042	35.16
183.262	-89.77
183.482	123.22
183.701	43.35
183.921	74.07
184.141	72.02
184.361	47.44
184.58	69.97
184.8	8.53
185.02	22.87
185.239	51.54
185.459	43.35
185.679	112.98
185.898	-52.91
186.118	31.06
186.338	72.02
186.557	141.65
186.777	-44.71
186.997	20.82
187.216	26.96
187.436	194.9
187.655	149.84
187.875	92.5
188.095	-24.23
188.314	117.08
188.534	211.28
188.753	-38.57
188.973	119.12
189.192	149.84
189.412	35.16
189.631	43.35
189.851	47.44
190.07	207.19
190.29	-50.86
190.509	31.06
190.729	2.39
190.948	96.6
191.168	244.05
191.387	41.3
191.607	43.35
191.826	41.3
192.045	65.88
192.265	31.06
192.484	90.45
192.704	98.64
192.923	-42.67
193.142	149.84
193.362	104.79
193.581	137.56
193.8	84.31
194.02	72.02
194.239	20.82
194.458	37.2
194.678	6.49
194.897	88.4
195.116	82.26
195.335	57.68
195.555	39.25
195.774	57.68
195.993	112.98
196.212	-1.71
196.432	55.64
196.651	26.96
196.87	-54.95
197.089	205.14
197.308	121.17
197.528	162.13
197.747	-52.91
197.966	37.2
198.185	151.89
198.404	-28.33
198.623	72.02
198.842	94.55
199.062	18.77
199.281	67.92
199.5	82.26
199.719	137.56
199.938	53.59
200.157	35.16
200.376	53.59
200.595	57.68
200.814	22.87
201.033	14.68
201.252	186.71
201.471	-18.09
201.69	125.27
201.909	-7.85
202.128	94.55
202.347	49.49
202.566	37.2
202.785	-89.77
203.004	14.68
203.223	231.76
203.442	12.63
203.661	-13.99
203.879	110.93
204.098	43.35
204.317	100.69
204.536	166.23
204.755	55.64
204.974	57.68
205.193	-9.9
205.411	123.22
205.63	162.13
205.849	178.51
206.068	-59.05
206.287	-24.23
206.505	127.32
206.724	59.73
206.943	29.01
207.162	0.34
207.381	61.78
207.599	53.59
207.818	65.88
208.037	4.44
208.255	16.73
208.474	18.77
208.693	88.4
208.911	14.68
209.13	192.85
209.349	88.4
209.567	100.69
209.786	102.74
210.005	102.74
210.223	31.06
210.442	-63.15
210.661	53.59
210.879	102.74
211.098	51.54
211.316	35.16
211.535	129.36
211.753	26.96
211.972	88.4
212.191	29.01
212.409	55.64
212.628	178.51
212.846	0.34
213.065	92.5
213.283	86.36
213.502	61.78
213.72	63.83
213.938	22.87
214.157	61.78
214.375	53.59
214.594	22.87
214.812	47.44
215.031	49.49
215.249	121.17
215.467	24.92
215.686	41.3
215.904	127.32
216.122	47.44
216.341	176.47
216.559	61.78
216.778	133.46
216.996	76.12
217.214	108.88
217.432	6.49
217.651	-48.81
217.869	100.69
218.087	43.35
218.306	6.49
218.524	39.25
218.742	43.35
218.96	135.51
219.179	37.2
219.397	72.02
219.615	221.52
219.833	67.92
220.051	-34.47
220.27	186.71
220.488	80.21
220.706	78.16
220.924	80.21
221.142	-9.9
221.36	31.06
221.578	55.64
221.796	16.73
222.015	29.01
222.233	14.68
222.451	129.36
222.669	-67.24
222.887	108.88
223.105	-34.47
223.323	22.87
223.541	43.35
223.759	63.83
223.977	78.16
224.195	88.4
224.413	117.08
224.631	55.64
224.849	39.25
225.067	213.33
225.285	6.49
225.503	-9.9
225.721	-100.01
225.939	39.25
226.157	100.69
226.375	211.28
226.592	-52.91
226.81	-30.38
227.028	106.84
227.246	119.12
227.464	143.7
227.682	100.69
227.9	110.93
228.117	131.41
228.335	74.07
228.553	4.44
228.771	-11.95
228.989	82.26
229.206	72.02
229.424	61.78
229.642	-24.23
229.86	22.87
230.077	147.8
230.295	69.97
230.513	123.22
230.731	135.51
230.948	184.66
231.166	182.61
231.384	-22.19
231.601	-75.43
231.819	223.57
232.037	31.06
232.254	-77.48
232.472	35.16
232.689	-44.71
232.907	123.22
233.125	55.64
233.342	20.82
233.56	-26.28
233.777	-59.05
233.995	22.87
234.213	76.12
234.43	88.4
234.648	72.02
234.865	76.12
235.083	53.59
235.3	145.75
235.518	100.69
235.735	96.6
235.953	53.59
236.17	-36.52
236.388	0.34
236.605	49.49
236.822	86.36
237.04	72.02
237.257	86.36
237.475	20.82
237.692	86.36
237.909	145.75
238.127	6.49
238.344	69.97
238.562	-7.85
238.779	-57
238.996	-42.67
239.214	115.03
239.431	121.17
239.648	74.07
239.865	63.83
240.083	47.44
240.3	0.34
240.517	4.44
240.735	45.4
240.952	86.36
241.169	98.64
241.386	121.17
241.603	18.77
241.821	-30.38
242.038	78.16
242.255	94.55
242.472	-20.14
242.689	53.59
242.907	51.54
243.124	158.03
243.341	88.4
243.558	31.06
243.775	-30.38
243.992	4.44
244.209	43.35
244.426	217.43
244.643	112.98
244.86	88.4
245.078	63.83
245.295	108.88
245.512	-26.28
245.729	35.16
245.946	76.12
246.163	80.21
246.38	12.63
246.597	96.6
246.814	143.7
247.031	29.01
247.248	43.35
247.464	121.17
247.681	94.55
247.898	2.39
248.115	102.74
248.332	12.63
248.549	211.28
248.766	178.51
248.983	63.83
249.2	90.45
249.417	90.45
249.633	43.35
249.85	129.36
250.067	39.25
250.284	39.25
250.501	72.02
250.717	80.21
250.934	-22.19
251.151	22.87
251.368	-9.9
251.585	43.35
251.801	49.49
252.018	-22.19
252.235	129.36
252.451	-24.23
252.668	-28.33
252.885	67.92
253.102	112.98
253.318	98.64
253.535	-5.8
253.752	-42.67
253.968	84.31
254.185	4.44
254.401	35.16
254.618	92.5
254.835	-13.99
255.051	104.79
255.268	31.06
255.484	84.31
255.701	22.87
255.917	121.17
256.134	-3.75
256.351	-26.28
256.567	6.49
256.784	121.17
257	-34.47
257.217	98.64
257.433	112.98
257.65	147.8
257.866	127.32
258.082	6.49
258.299	59.73
258.515	127.32
258.732	-46.76
258.948	51.54
259.165	47.44
259.381	8.53
259.597	39.25
259.814	86.36
260.03	-9.9
260.246	92.5
260.463	102.74
260.679	131.41
260.895	49.49
261.112	39.25
261.328	47.44
261.544	35.16
261.761	194.9
261.977	-26.28
262.193	-100.01
262.409	141.65
262.626	39.25
262.842	69.97
263.058	-9.9
263.274	8.53
263.49	86.36
263.707	80.21
263.923	131.41
264.139	-83.63
264.355	43.35
264.571	41.3
264.787	39.25
265.004	20.82
265.22	39.25
265.436	-40.62
265.652	8.53
265.868	86.36
266.084	16.73
266.3	72.02
266.516	29.01
266.732	61.78
266.948	-9.9
267.164	6.49
267.38	100.69
267.596	31.06
267.812	231.76
268.028	-30.38
268.244	-40.62
268.46	61.78
268.676	8.53
268.892	45.4
269.108	-65.19
269.324	-16.04
269.54	39.25
269.756	80.21
269.972	-71.34
270.188	72.02
270.403	51.54
270.619	14.68
270.835	88.4
271.051	12.63
271.267	-5.8
271.483	35.16
271.698	125.27
271.914	119.12
272.13	31.06
272.346	-1.71
272.562	29.01
272.777	125.27
272.993	57.68
273.209	33.11
273.425	135.51
273.64	-1.71
273.856	121.17
274.072	35.16
274.287	67.92
274.503	129.36
274.719	86.36
274.934	67.92
275.15	18.77
275.366	6.49
275.581	4.44
275.797	14.68
276.012	47.44
276.228	12.63
276.444	18.77
276.659	65.88
276.875	-9.9
277.09	29.01
277.306	104.79
277.521	80.21
277.737	-18.09
277.952	110.93
278.168	4.44
278.383	80.21
278.599	78.16
278.814	35.16
279.03	92.5
279.245	147.8
279.461	41.3
279.676	119.12
279.892	-1.71
280.107	6.49
280.322	12.63
280.538	53.59
280.753	-54.95
280.969	63.83
281.184	6.49
281.399	158.03
281.615	24.92
281.83	33.11
282.045	-34.47
282.26	33.11
282.476	129.36
282.691	55.64
282.906	37.2
283.122	51.54
283.337	43.35
283.552	82.26
283.767	14.68
283.983	129.36
284.198	29.01
284.413	22.87
284.628	-36.52
284.843	39.25
285.058	127.32
285.274	69.97
285.489	-71.34
285.704	80.21
285.919	49.49
286.134	100.69
286.349	22.87
286.564	6.49
286.779	143.7
286.995	47.44
287.21	-5.8
287.425	14.68
287.64	67.92
287.855	104.79
288.07	10.58
288.285	129.36
288.5	158.03
288.715	158.03
288.93	61.78
289.145	-22.19
289.36	80.21
289.575	12.63
289.79	178.51
290.004	-32.43
290.219	53.59
290.434	-1.71
290.649	-9.9
290.864	37.2
291.079	31.06
291.294	16.73
291.509	63.83
291.724	-20.14
291.938	0.34
292.153	55.64
292.368	4.44
292.583	20.82
292.798	125.27
293.012	100.69
293.227	112.98
293.442	-5.8
293.657	82.26
293.871	84.31
294.086	88.4
294.301	137.56
294.516	4.44
294.73	-22.19
294.945	-38.57
295.16	86.36
295.374	133.46
295.589	65.88
295.804	8.53
296.018	67.92
296.233	69.97
296.447	-9.9
296.662	-67.24
296.877	133.46
297.091	112.98
297.306	78.16
297.52	57.68
297.735	6.49
297.949	84.31
298.164	82.26
298.378	22.87
298.593	-13.99
298.807	49.49
299.022	94.55
299.236	139.6
299.451	6.49
299.665	22.87
299.88	43.35
300.094	45.4
300.309	88.4
300.523	53.59
300.737	22.87
300.952	121.17
301.166	63.83
301.381	-91.82
301.595	10.58
301.809	55.64
302.024	35.16
302.238	-3.75
302.452	110.93
302.667	-42.67
302.881	119.12
303.095	117.08
303.309	84.31
303.524	29.01
303.738	102.74
303.952	-42.67
304.166	110.93
304.381	-67.24
304.595	112.98
304.809	43.35
305.023	76.12
305.237	22.87
305.452	16.73
305.666	14.68
305.88	112.98
306.094	63.83
306.308	94.55
306.522	69.97
306.736	76.12
306.95	61.78
307.164	29.01
307.379	63.83
307.593	100.69
307.807	104.79
308.021	51.54
308.235	133.46
308.449	-69.29
308.663	31.06
308.877	178.51
309.091	80.21
309.305	125.27
309.519	-118.44
309.733	96.6
309.947	-52.91
310.161	-1.71
310.374	102.74
310.588	94.55
310.802	-36.52
311.016	53.59
311.23	10.58
311.444	2.39
311.658	55.64
311.872	20.82
312.085	104.79
312.299	110.93
312.513	133.46
312.727	67.92
312.941	41.3
313.154	35.16
313.368	39.25
313.582	80.21
313.796	24.92
314.009	67.92
314.223	121.17
314.437	22.87
314.651	61.78
314.864	16.73
315.078	-22.19
315.292	-1.71
315.505	14.68
315.719	74.07
315.933	61.78
316.146	10.58
316.36	8.53
316.573	168.27
316.787	63.83
317.001	180.56
317.214	-9.9
317.428	112.98
317.641	51.54
317.855	0.34
318.068	119.12
318.282	-59.05
318.495	145.75
318.709	92.5
318.922	65.88
319.136	98.64
319.349	39.25
319.563	80.21
319.776	149.84
319.99	-83.63
320.203	153.94
320.417	55.64
320.63	59.73
320.843	160.08
321.057	39.25
321.27	35.16
321.483	170.32
321.697	143.7
321.91	39.25
322.124	76.12
322.337	20.82
322.55	26.96
322.763	63.83
322.977	55.64
323.19	-3.75
323.403	65.88
323.617	110.93
323.83	108.88
324.043	57.68
324.256	121.17
324.469	-34.47
324.683	104.79
324.896	72.02
325.109	-9.9
325.322	-81.58
325.535	61.78
325.748	141.65
325.962	-52.91
326.175	63.83
326.388	63.83
326.601	96.6
326.814	43.35
327.027	37.2
327.24	147.8
327.453	-36.52
327.666	33.11
327.879	106.84
328.092	121.17
328.305	53.59
328.518	-54.95
328.731	55.64
328.944	-24.23
329.157	45.4
329.37	22.87
329.583	178.51
329.796	112.98
330.009	-24.23
330.222	59.73
330.435	39.25
330.648	35.16
330.861	20.82
331.073	10.58
331.286	78.16
331.499	-26.28
331.712	-18.09
331.925	-44.71
332.138	-13.99
332.35	121.17
332.563	-13.99
332.776	106.84
332.989	18.77
333.202	78.16
333.414	20.82
333.627	59.73
333.84	55.64
334.053	67.92
334.265	61.78
334.478	-50.86
334.691	63.83
334.903	72.02
335.116	22.87
335.329	-11.95
335.541	76.12
335.754	145.75
335.966	22.87
336.179	12.63
336.392	47.44
336.604	45.4
336.817	137.56
337.029	119.12
337.242	-5.8
337.454	166.23
337.667	31.06
337.88	168.27
338.092	129.36
338.305	104.79
338.517	-67.24
338.729	158.03
338.942	69.97
339.154	-67.24
339.367	26.96
339.579	57.68
339.792	26.96
340.004	18.77
340.217	88.4
340.429	4.44
340.641	39.25
340.854	-42.67
341.066	39.25
341.278	51.54
341.491	166.23
341.703	88.4
341.915	6.49
342.128	65.88
342.34	55.64
342.552	18.77
342.764	22.87
342.977	43.35
343.189	18.77
343.401	57.68
343.613	-42.67
343.826	78.16
344.038	14.68
344.25	98.64
344.462	108.88
344.674	47.44
344.886	65.88
345.099	51.54
345.311	121.17
345.523	92.5
345.735	-87.72
345.947	31.06
346.159	24.92
346.371	59.73
346.583	78.16
346.795	203.09
347.007	121.17
347.219	-9.9
347.431	-11.95
347.643	104.79
347.855	-1.71
348.067	121.17
348.279	45.4
348.491	14.68
348.703	137.56
348.915	61.78
349.127	12.63
349.339	72.02
349.551	-67.24
349.763	67.92
349.975	72.02
350.187	112.98
350.399	137.56
350.61	88.4
350.822	-3.75
351.034	149.84
351.246	100.69
351.458	80.21
351.669	102.74
351.881	131.41
352.093	127.32
352.305	-3.75
352.517	2.39
352.728	182.61
352.94	6.49
353.152	78.16
353.363	31.06
353.575	69.97
353.787	155.99
353.999	45.4
354.21	162.13
354.422	26.96
354.633	41.3
354.845	102.74
355.057	-11.95
355.268	61.78
355.48	47.44
355.692	-18.09
355.903	39.25
356.115	22.87
356.326	20.82
356.538	178.51
356.749	143.7
356.961	192.85
357.172	88.4
357.384	-13.99
357.595	172.37
357.807	47.44
358.018	41.3
358.23	63.83
358.441	80.21
358.653	129.36
358.864	53.59
359.075	76.12
359.287	41.3
359.498	102.74
359.709	96.6
359.921	39.25
360.132	201.04
360.344	88.4
360.555	63.83
360.766	45.4
360.977	-1.71
361.189	141.65
361.4	-34.47
361.611	55.64
361.823	133.46
362.034	82.26
362.245	-71.34
362.456	41.3
362.667	133.46
362.879	-48.81
363.09	80.21
363.301	104.79
363.512	55.64
363.723	-9.9
363.935	43.35
364.146	80.21
364.357	-30.38
364.568	55.64
364.779	-89.77
364.99	129.36
365.201	-52.91
365.412	121.17
365.623	-3.75
365.834	72.02
366.045	96.6
366.256	88.4
366.467	53.59
366.678	63.83
366.889	90.45
367.1	29.01
367.311	98.64
367.522	26.96
367.733	172.37
367.944	59.73
368.155	47.44
368.366	84.31
368.577	174.42
368.788	10.58
368.999	22.87
369.209	20.82
369.42	178.51
369.631	135.51
369.842	55.64
370.053	51.54
370.264	63.83
370.474	18.77
370.685	141.65
370.896	61.78
371.107	137.56
371.317	29.01
371.528	84.31
371.739	112.98
371.95	37.2
372.16	166.23
372.371	-63.15
372.582	6.49
372.792	100.69
373.003	53.59
373.214	80.21
373.424	88.4
373.635	-3.75
373.846	149.84
374.056	43.35
374.267	43.35
374.477	-26.28
374.688	0.34
374.898	35.16
375.109	69.97
375.319	-9.9
375.53	92.5
375.74	115.03
375.951	18.77
376.161	-1.71
376.372	88.4
376.582	14.68
376.793	51.54
377.003	-40.62
377.214	16.73
377.424	37.2
377.635	84.31
377.845	-11.95
378.055	137.56
378.266	-28.33
378.476	37.2
378.686	110.93
378.897	-20.14
379.107	127.32
379.317	31.06
379.528	55.64
379.738	49.49
379.948	-81.58
380.158	76.12
380.369	6.49
380.579	119.12
380.789	37.2
380.999	31.06
381.21	57.68
381.42	143.7
381.63	-77.48
381.84	86.36
382.05	59.73
382.261	86.36
382.471	96.6
382.681	63.83
382.891	102.74
383.101	63.83
383.311	-34.47
383.521	117.08
383.731	104.79
383.941	141.65
384.151	72.02
384.361	49.49
384.571	43.35
384.781	41.3
384.991	207.19
385.201	108.88
385.411	2.39
385.621	80.21
385.831	67.92
386.041	72.02
386.251	72.02
386.461	237.91
386.671	2.39
386.881	2.39
387.091	74.07
387.301	155.99
387.511	127.32
387.72	18.77
387.93	45.4
388.14	-1.71
388.35	67.92
388.56	94.55
388.769	10.58
388.979	45.4
389.189	0.34
389.399	6.49
389.609	112.98
389.818	98.64
390.028	80.21
390.238	26.96
390.447	2.39
390.657	96.6
390.867	-13.99
391.076	-67.24
391.286	74.07
391.496	22.87
391.705	24.92
391.915	112.98
392.125	127.32
392.334	26.96
392.544	139.6
392.753	22.87
392.963	12.63
393.172	-36.52
393.382	26.96
393.591	201.04
393.801	74.07
394.01	172.37
394.22	86.36
394.429	55.64
394.639	31.06
394.848	67.92
395.058	117.08
395.267	-3.75
395.477	108.88
395.686	129.36
395.895	106.84
396.105	196.95
396.314	127.32
396.524	63.83
396.733	69.97
396.942	108.88
397.152	86.36
397.361	108.88
397.57	84.31
397.78	59.73
397.989	108.88
398.198	194.9
398.407	121.17
398.617	-18.09
398.826	67.92
399.035	35.16
399.244	63.83
399.453	41.3
399.663	29.01
399.872	104.79
400.081	-50.86
400.29	151.89
400.499	43.35
400.708	158.03
400.917	4.44
401.127	-5.8
401.336	33.11
401.545	135.51
401.754	121.17
401.963	151.89
402.172	31.06
402.381	41.3
402.59	8.53
402.799	121.17
403.008	96.6
403.217	76.12
403.426	112.98
403.635	53.59
403.844	127.32
404.053	84.31
404.262	78.16
404.471	119.12
404.68	82.26
404.888	86.36
405.097	88.4
405.306	88.4
405.515	88.4
405.724	88.4
405.933	31.06
406.142	59.73
406.35	143.7
406.559	41.3
406.768	63.83
406.977	164.18
407.185	39.25
407.394	76.12
407.603	92.5
407.812	53.59
408.02	100.69
408.229	39.25
408.438	162.13
408.646	-40.62
408.855	59.73
409.064	92.5
409.272	35.16
409.481	117.08
409.69	47.44
409.898	29.01
410.107	65.88
410.315	170.32
410.524	112.98
410.733	33.11
410.941	53.59
411.15	110.93
411.358	69.97
411.567	166.23
411.775	6.49
411.984	59.73
412.192	112.98
412.401	-9.9
412.609	125.27
412.818	88.4
413.026	55.64
413.234	39.25
413.443	158.03
413.651	-11.95
413.86	10.58
414.068	125.27
414.276	84.31
414.485	41.3
414.693	219.47
414.901	153.94
415.11	59.73
415.318	67.92
415.526	63.83
415.734	108.88
415.943	37.2
416.151	98.64
416.359	35.16
416.567	127.32
416.776	47.44
416.984	41.3
417.192	149.84
417.4	-26.28
417.608	43.35
417.817	-1.71
418.025	172.37
418.233	160.08
418.441	31.06
418.649	-36.52
418.857	61.78
419.065	112.98
419.273	-5.8
419.481	104.79
419.689	4.44
419.897	6.49
420.105	-11.95
420.313	127.32
420.521	141.65
420.729	104.79
420.937	47.44
421.145	35.16
421.353	133.46
421.561	104.79
421.769	92.5
421.977	76.12
422.185	59.73
422.393	127.32
422.601	94.55
422.809	76.12
423.017	59.73
423.224	78.16
423.432	174.42
423.64	72.02
423.848	98.64
424.056	80.21
424.263	76.12
424.471	110.93
424.679	125.27
424.887	-3.75
425.094	121.17
425.302	115.03
425.51	37.2
425.718	98.64
425.925	43.35
426.133	16.73
426.341	194.9
426.548	51.54
426.756	-18.09
426.964	135.51
427.171	14.68
427.379	-9.9
427.586	80.21
427.794	14.68
428.001	119.12
428.209	112.98
428.417	203.09
428.624	67.92
428.832	172.37
429.039	69.97
429.247	26.96
429.454	176.47
429.662	178.51
429.869	131.41
430.076	65.88
430.284	162.13
430.491	225.62
430.699	61.78
430.906	131.41
431.114	112.98
431.321	137.56
431.528	106.84
431.736	180.56
431.943	149.84
432.15	264.53
432.358	160.08
432.565	178.51
432.772	63.83
432.979	194.9
433.187	84.31
433.394	198.99
433.601	149.84
433.808	203.09
434.016	258.39
434.223	223.57
434.43	219.47
434.637	219.47
434.844	211.28
435.052	149.84
435.259	196.95
435.466	266.58
435.673	207.19
435.88	248.15
436.087	260.43
436.294	362.83
436.501	264.53
436.708	221.52
436.915	180.56
437.122	317.78
437.329	264.53
437.537	194.9
437.743	389.46
437.95	448.85
438.157	305.49
438.364	289.1
438.571	354.64
438.778	420.17
438.985	432.46
439.192	532.81
439.399	428.37
439.606	354.64
439.813	493.9
440.02	491.85
440.227	553.29
440.433	469.33
440.64	506.19
440.847	420.17
441.054	436.56
441.261	618.83
441.467	555.34
441.674	524.62
441.881	600.4
442.088	528.72
442.294	647.5
442.501	661.84
442.708	770.38
442.914	649.55
443.121	692.55
443.328	639.31
443.534	745.8
443.741	694.6
443.948	698.7
444.154	817.48
444.361	995.65
444.568	833.86
444.774	846.15
444.981	887.11
445.187	1055.05
445.394	1116.48
445.6	950.6
445.807	1071.43
446.013	1063.24
446.22	1014.09
446.426	1128.77
446.633	1249.6
446.839	1458.5
447.046	1198.4
447.252	1349.95
447.459	1448.26
447.665	1300.8
447.871	1489.21
448.078	1542.46
448.284	1534.27
448.491	1655.1
448.697	1694.01
448.903	1775.93
449.11	1886.52
449.316	1751.35
449.522	2050.36
449.728	1986.87
449.935	2079.03
450.141	2109.75
450.347	2271.54
450.553	2222.39
450.76	2380.08
450.966	2459.95
451.172	2421.04
451.378	2457.9
451.584	2638.13
451.791	2930.98
451.997	2978.09
452.203	3055.91
452.409	3227.94
452.615	3244.32
452.821	3178.79
453.027	3205.41
453.233	3598.62
453.44	3508.51
453.646	3696.92
453.852	3772.7
454.058	3963.16
454.264	3946.78
454.47	4174.1
454.676	4448.53
454.882	4757.77
455.088	4593.94
455.294	4815.12
455.5	5191.94
455.705	5402.88
455.911	5546.24
456.117	5691.65
456.323	5724.41
456.529	5703.93
456.735	6402.29
456.941	6609.14
457.147	6908.14
457.352	6965.48
457.558	7155.94
457.764	7559.39
457.97	7821.53
458.176	8165.59
458.381	8632.53
458.587	8782.03
458.793	8990.92
458.999	9210.06
459.204	10055.87
459.41	10487.99
459.616	10348.73
459.821	11067.56
460.027	11595.94
460.233	12171.42
460.438	12118.17
460.644	12712.08
460.85	12746.9
461.055	13353.1
461.261	13996.16
461.466	13875.33
461.672	14014.59
461.878	15595.62
462.083	15165.55
462.289	15528.04
462.494	16187.49
462.7	16564.31
462.905	16889.94
463.111	17897.54
463.316	18868.28
463.522	19490.86
463.727	19935.27
463.932	20615.19
464.138	21366.8
464.343	22114.31
464.549	22493.18
464.754	23965.67
464.959	24903.64
465.165	24930.26
465.37	25003.99
465.575	24965.08
465.781	26267.59
465.986	27574.19
466.191	27150.26
466.397	27393.97
466.602	26879.93
466.807	28024.75
467.012	28960.67
467.218	28839.84
467.423	29058.97
467.628	30144.39
467.833	31854.45
468.038	30646.15
468.244	30652.29
468.449	31915.89
468.654	31547.25
468.859	31741.81
469.064	31319.93
469.269	30414.73
469.474	30928.77
