Data from USB4F104151__61__10-26-34-527.txt Node

Date: Wed Feb 26 10:26:34 EST 2025
User: louis
Spectrometer: USB4F10415
Trigger mode: 4
Integration Time (sec): 1.000000E-1
Scans to average: 1
Electric dark correction enabled: true
Nonlinearity correction enabled: false
Boxcar width: 0
XAxis mode: Wavelengths
Number of Pixels in Spectrum: 3648
>>>>>Begin Spectral Data<<<<<
178.204	-422.22
178.424	-422.22
178.644	-422.22
178.864	-422.22
179.084	-409.94
179.304	-31.06
179.524	-41.3
179.744	30.38
179.964	28.33
180.184	130.73
180.404	59.05
180.624	-51.54
180.844	-102.74
181.064	-37.2
181.283	75.43
181.503	-35.16
181.723	-24.92
181.943	-147.8
182.163	181.93
182.383	-31.06
182.602	91.82
182.822	95.91
183.042	13.99
183.262	-57.68
183.482	28.33
183.701	63.15
183.921	71.34
184.141	9.9
184.361	85.67
184.58	-10.58
184.8	77.48
185.02	-63.83
185.239	38.57
185.459	71.34
185.679	104.11
185.898	-43.35
186.118	46.76
186.338	44.71
186.557	91.82
186.777	-119.12
186.997	-80.21
187.216	-10.58
187.436	149.16
187.655	104.11
187.875	89.77
188.095	20.14
188.314	114.34
188.534	140.97
188.753	-158.03
188.973	102.06
189.192	165.54
189.412	-16.73
189.631	18.09
189.851	126.63
190.07	112.3
190.29	7.85
190.509	-18.77
190.729	24.23
190.948	124.58
191.168	112.3
191.387	73.39
191.607	34.47
191.826	79.53
192.045	-18.77
192.265	-39.25
192.484	65.19
192.704	-0.34
192.923	-35.16
193.142	93.87
193.362	188.07
193.581	153.26
193.8	67.24
194.02	-29.01
194.239	100.01
194.458	77.48
194.678	77.48
194.897	-59.73
195.116	11.95
195.335	102.06
195.555	40.62
195.774	61.1
195.993	132.78
196.212	20.14
196.432	18.09
196.651	13.99
196.87	54.95
197.089	323.24
197.308	42.67
197.528	50.86
197.747	16.04
197.966	48.81
198.185	63.15
198.404	-8.53
198.623	145.06
198.842	20.14
199.062	167.59
199.281	138.92
199.5	50.86
199.719	65.19
199.938	75.43
200.157	54.95
200.376	93.87
200.595	108.2
200.814	85.67
201.033	-110.93
201.252	165.54
201.471	46.76
201.69	18.09
201.909	87.72
202.128	67.24
202.347	91.82
202.566	-16.73
202.785	-65.88
203.004	38.57
203.223	237.22
203.442	-10.58
203.661	-63.83
203.879	16.04
204.098	116.39
204.317	-18.77
204.536	149.16
204.755	38.57
204.974	28.33
205.193	30.38
205.411	83.63
205.63	177.83
205.849	102.06
206.068	114.34
206.287	-31.06
206.505	132.78
206.724	67.24
206.943	-47.44
207.162	-41.3
207.381	48.81
207.599	24.23
207.818	-43.35
208.037	-10.58
208.255	-8.53
208.474	59.05
208.693	63.15
208.911	-2.39
209.13	97.96
209.349	59.05
209.567	83.63
209.786	50.86
210.005	128.68
210.223	85.67
210.442	-123.22
210.661	-14.68
210.879	-10.58
211.098	73.39
211.316	24.23
211.535	73.39
211.753	42.67
211.972	36.52
212.191	38.57
212.409	46.76
212.628	116.39
212.846	-43.35
213.065	87.72
213.283	95.91
213.502	-49.49
213.72	-39.25
213.938	77.48
214.157	28.33
214.375	95.91
214.594	57
214.812	110.25
215.031	20.14
215.249	5.8
215.467	95.91
215.686	77.48
215.904	71.34
216.122	-6.49
216.341	140.97
216.559	38.57
216.778	26.28
216.996	118.44
217.214	3.75
217.432	-18.77
217.651	-110.93
217.869	40.62
218.087	79.53
218.306	9.9
218.524	20.14
218.742	69.29
218.96	95.91
219.179	-41.3
219.397	65.19
219.615	200.36
219.833	9.9
220.051	42.67
220.27	104.11
220.488	122.54
220.706	24.23
220.924	18.09
221.142	-51.54
221.36	110.25
221.578	-10.58
221.796	36.52
222.015	65.19
222.233	-16.73
222.451	161.45
222.669	-35.16
222.887	32.43
223.105	-22.87
223.323	-41.3
223.541	-31.06
223.759	-12.63
223.977	-84.31
224.195	118.44
224.413	153.26
224.631	167.59
224.849	136.87
225.067	202.41
225.285	-6.49
225.503	-6.49
225.721	-67.92
225.939	9.9
226.157	36.52
226.375	276.13
226.592	-2.39
226.81	42.67
227.028	157.35
227.246	108.2
227.464	69.29
227.682	71.34
227.9	181.93
228.117	9.9
228.335	11.95
228.553	-47.44
228.771	22.19
228.989	57
229.206	79.53
229.424	9.9
229.642	16.04
229.86	-39.25
230.077	18.09
230.295	-14.68
230.513	61.1
230.731	28.33
230.948	145.06
231.166	155.3
231.384	11.95
231.601	-18.77
231.819	212.65
232.037	18.09
232.254	-22.87
232.472	18.09
232.689	1.71
232.907	54.95
233.125	-8.53
233.342	-24.92
233.56	57
233.777	28.33
233.995	26.28
234.213	95.91
234.43	140.97
234.648	63.15
234.865	-18.77
235.083	67.24
235.3	7.85
235.518	85.67
235.735	153.26
235.953	22.19
236.17	52.91
236.388	30.38
236.605	11.95
236.822	106.15
237.04	130.73
237.257	28.33
237.475	-6.49
237.692	44.71
237.909	73.39
238.127	44.71
238.344	50.86
238.562	-22.87
238.779	-82.26
238.996	5.8
239.214	65.19
239.431	67.24
239.648	34.47
239.865	140.97
240.083	59.05
240.3	3.75
240.517	-0.34
240.735	-74.07
240.952	67.24
241.169	108.2
241.386	18.09
241.603	-6.49
241.821	-43.35
242.038	75.43
242.255	54.95
242.472	-102.74
242.689	54.95
242.907	81.58
243.124	65.19
243.341	122.54
243.558	32.43
243.775	-63.83
243.992	-88.4
244.209	57
244.426	177.83
244.643	122.54
244.86	-31.06
245.078	95.91
245.295	26.28
245.512	-8.53
245.729	54.95
245.946	1.71
246.163	81.58
246.38	59.05
246.597	83.63
246.814	30.38
247.031	36.52
247.248	18.09
247.464	97.96
247.681	-20.82
247.898	81.58
248.115	11.95
248.332	-24.92
248.549	120.49
248.766	173.74
248.983	81.58
249.2	89.77
249.417	157.35
249.633	-6.49
249.85	5.8
250.067	52.91
250.284	48.81
250.501	73.39
250.717	128.68
250.934	3.75
251.151	-2.39
251.368	81.58
251.585	-2.39
251.801	67.24
252.018	-31.06
252.235	112.3
252.451	-88.4
252.668	13.99
252.885	38.57
253.102	36.52
253.318	50.86
253.535	-4.44
253.752	44.71
253.968	36.52
254.185	-90.45
254.401	24.23
254.618	79.53
254.835	-31.06
255.051	130.73
255.268	89.77
255.484	22.19
255.701	-16.73
255.917	91.82
256.134	-35.16
256.351	28.33
256.567	-43.35
256.784	3.75
257	-76.12
257.217	159.4
257.433	130.73
257.65	54.95
257.866	108.2
258.082	-108.88
258.299	-2.39
258.515	91.82
258.732	22.19
258.948	18.09
259.165	81.58
259.381	-29.01
259.597	118.44
259.814	95.91
260.03	57
260.246	30.38
260.463	128.68
260.679	102.06
260.895	18.09
261.112	18.09
261.328	89.77
261.544	-4.44
261.761	171.69
261.977	38.57
262.193	-33.11
262.409	149.16
262.626	-4.44
262.842	26.28
263.058	-47.44
263.274	40.62
263.49	75.43
263.707	91.82
263.923	120.49
264.139	-133.46
264.355	-20.82
264.571	120.49
264.787	79.53
265.004	145.06
265.22	13.99
265.436	22.19
265.652	18.09
265.868	48.81
266.084	-33.11
266.3	85.67
266.516	-6.49
266.732	132.78
266.948	9.9
267.164	30.38
267.38	83.63
267.596	71.34
267.812	126.63
268.028	77.48
268.244	26.28
268.46	85.67
268.676	16.04
268.892	38.57
269.108	-43.35
269.324	-45.4
269.54	-33.11
269.756	87.72
269.972	-18.77
270.188	46.76
270.403	-61.78
270.619	48.81
270.835	100.01
271.051	61.1
271.267	-14.68
271.483	9.9
271.698	61.1
271.914	26.28
272.13	134.82
272.346	26.28
272.562	26.28
272.777	140.97
272.993	1.71
273.209	-26.96
273.425	65.19
273.64	-53.59
273.856	93.87
274.072	-61.78
274.287	16.04
274.503	97.96
274.719	91.82
274.934	26.28
275.15	-106.84
275.366	-18.77
275.581	-2.39
275.797	71.34
276.012	46.76
276.228	-16.73
276.444	-6.49
276.659	120.49
276.875	-65.88
277.09	81.58
277.306	26.28
277.521	145.06
277.737	30.38
277.952	-10.58
278.168	16.04
278.383	77.48
278.599	26.28
278.814	81.58
279.03	59.05
279.245	128.68
279.461	9.9
279.676	140.97
279.892	-63.83
280.107	-33.11
280.322	-82.26
280.538	32.43
280.753	1.71
280.969	26.28
281.184	1.71
281.399	153.26
281.615	67.24
281.83	-16.73
282.045	-41.3
282.26	-12.63
282.476	57
282.691	52.91
282.906	85.67
283.122	22.19
283.337	28.33
283.552	110.25
283.767	38.57
283.983	67.24
284.198	-22.87
284.413	65.19
284.628	-67.92
284.843	132.78
285.058	50.86
285.274	54.95
285.489	28.33
285.704	95.91
285.919	34.47
286.134	48.81
286.349	13.99
286.564	11.95
286.779	143.02
286.995	24.23
287.21	-47.44
287.425	83.63
287.64	32.43
287.855	65.19
288.07	-90.45
288.285	87.72
288.5	97.96
288.715	95.91
288.93	50.86
289.145	-39.25
289.36	145.06
289.575	93.87
289.79	85.67
290.004	-41.3
290.219	106.15
290.434	3.75
290.649	22.19
290.864	-43.35
291.079	-10.58
291.294	-0.34
291.509	116.39
291.724	-4.44
291.938	42.67
292.153	46.76
292.368	18.09
292.583	11.95
292.798	50.86
293.012	73.39
293.227	22.19
293.442	-26.96
293.657	79.53
293.871	106.15
294.086	108.2
294.301	171.69
294.516	126.63
294.73	-47.44
294.945	-78.16
295.16	7.85
295.374	149.16
295.589	83.63
295.804	18.09
296.018	112.3
296.233	81.58
296.447	-49.49
296.662	16.04
296.877	114.34
297.091	79.53
297.306	32.43
297.52	24.23
297.735	28.33
297.949	89.77
298.164	22.19
298.378	77.48
298.593	5.8
298.807	46.76
299.022	44.71
299.236	65.19
299.451	3.75
299.665	-45.4
299.88	3.75
300.094	69.29
300.309	16.04
300.523	77.48
300.737	-31.06
300.952	42.67
301.166	79.53
301.381	-61.78
301.595	-80.21
301.809	18.09
302.024	11.95
302.238	-53.59
302.452	159.4
302.667	28.33
302.881	120.49
303.095	118.44
303.309	16.04
303.524	24.23
303.738	-24.92
303.952	-29.01
304.166	91.82
304.381	-43.35
304.595	132.78
304.809	-35.16
305.023	42.67
305.237	5.8
305.452	104.11
305.666	-8.53
305.88	75.43
306.094	79.53
306.308	136.87
306.522	159.4
306.736	71.34
306.95	75.43
307.164	22.19
307.379	44.71
307.593	138.92
307.807	65.19
308.021	-43.35
308.235	85.67
308.449	-51.54
308.663	65.19
308.877	183.98
309.091	34.47
309.305	108.2
309.519	-45.4
309.733	118.44
309.947	-94.55
310.161	59.05
310.374	97.96
310.588	46.76
310.802	44.71
311.016	-53.59
311.23	124.58
311.444	-63.83
311.658	50.86
311.872	175.78
312.085	140.97
312.299	274.09
312.513	46.76
312.727	46.76
312.941	-59.73
313.154	54.95
313.368	38.57
313.582	11.95
313.796	34.47
314.009	40.62
314.223	155.3
314.437	52.91
314.651	63.15
314.864	-14.68
315.078	59.05
315.292	-92.5
315.505	46.76
315.719	183.98
315.933	75.43
316.146	-37.2
316.36	-43.35
316.573	116.39
316.787	7.85
317.001	50.86
317.214	-12.63
317.428	-0.34
317.641	16.04
317.855	67.24
318.068	52.91
318.282	24.23
318.495	206.5
318.709	167.59
318.922	38.57
319.136	157.35
319.349	75.43
319.563	-26.96
319.776	97.96
319.99	-117.08
320.203	85.67
320.417	-10.58
320.63	124.58
320.843	200.36
321.057	26.28
321.27	-8.53
321.483	83.63
321.697	181.93
321.91	48.81
322.124	13.99
322.337	26.28
322.55	-55.64
322.763	44.71
322.977	11.95
323.19	-10.58
323.403	34.47
323.617	22.19
323.83	44.71
324.043	-41.3
324.256	81.58
324.469	-37.2
324.683	91.82
324.896	69.29
325.109	-35.16
325.322	-31.06
325.535	79.53
325.748	124.58
325.962	-8.53
326.175	57
326.388	59.05
326.601	79.53
326.814	44.71
327.027	32.43
327.24	157.35
327.453	-53.59
327.666	42.67
327.879	110.25
328.092	42.67
328.305	48.81
328.518	20.14
328.731	9.9
328.944	-43.35
329.157	108.2
329.37	-22.87
329.583	200.36
329.796	112.3
330.009	-61.78
330.222	75.43
330.435	95.91
330.648	81.58
330.861	-20.82
331.073	61.1
331.286	71.34
331.499	38.57
331.712	-67.92
331.925	-6.49
332.138	-8.53
332.35	61.1
332.563	-63.83
332.776	167.59
332.989	-37.2
333.202	-49.49
333.414	5.8
333.627	18.09
333.84	20.14
334.053	26.28
334.265	54.95
334.478	-53.59
334.691	42.67
334.903	-6.49
335.116	-18.77
335.329	22.19
335.541	108.2
335.754	91.82
335.966	-22.87
336.179	26.28
336.392	32.43
336.604	-14.68
336.817	108.2
337.029	93.87
337.242	34.47
337.454	114.34
337.667	177.83
337.88	114.34
338.092	79.53
338.305	83.63
338.517	32.43
338.729	124.58
338.942	173.74
339.154	40.62
339.367	-26.96
339.579	89.77
339.792	-37.2
340.004	69.29
340.217	44.71
340.429	-20.82
340.641	36.52
340.854	-61.78
341.066	28.33
341.278	157.35
341.491	231.08
341.703	3.75
341.915	-6.49
342.128	108.2
342.34	87.72
342.552	79.53
342.764	-18.77
342.977	24.23
343.189	97.96
343.401	73.39
343.613	7.85
343.826	34.47
344.038	-37.2
344.25	46.76
344.462	-37.2
344.674	46.76
344.886	3.75
345.099	57
345.311	18.09
345.523	-16.73
345.735	-69.97
345.947	24.23
346.159	75.43
346.371	50.86
346.583	-16.73
346.795	159.4
347.007	85.67
347.219	44.71
347.431	-20.82
347.643	134.82
347.855	-41.3
348.067	102.06
348.279	-98.64
348.491	-4.44
348.703	91.82
348.915	24.23
349.127	3.75
349.339	18.09
349.551	-69.97
349.763	85.67
349.975	-94.55
350.187	73.39
350.399	183.98
350.61	57
350.822	40.62
351.034	124.58
351.246	50.86
351.458	13.99
351.669	104.11
351.881	36.52
352.093	157.35
352.305	57
352.517	50.86
352.728	140.97
352.94	52.91
353.152	61.1
353.363	-0.34
353.575	71.34
353.787	147.11
353.999	9.9
354.21	175.78
354.422	-10.58
354.633	-6.49
354.845	26.28
355.057	52.91
355.268	46.76
355.48	102.06
355.692	13.99
355.903	38.57
356.115	7.85
356.326	-53.59
356.538	173.74
356.749	77.48
356.961	165.54
357.172	18.09
357.384	-22.87
357.595	202.41
357.807	20.14
358.018	3.75
358.23	48.81
358.441	106.15
358.653	100.01
358.864	89.77
359.075	36.52
359.287	138.92
359.498	50.86
359.709	28.33
359.921	69.29
360.132	85.67
360.344	36.52
360.555	5.8
360.766	24.23
360.977	26.28
361.189	114.34
361.4	-57.68
361.611	126.63
361.823	112.3
362.034	1.71
362.245	-82.26
362.456	24.23
362.667	128.68
362.879	-39.25
363.09	177.83
363.301	32.43
363.512	22.19
363.723	18.09
363.935	22.19
364.146	87.72
364.357	81.58
364.568	89.77
364.779	-35.16
364.99	104.11
365.201	3.75
365.412	155.3
365.623	13.99
365.834	48.81
366.045	132.78
366.256	122.54
366.467	112.3
366.678	26.28
366.889	-2.39
367.1	-59.73
367.311	140.97
367.522	-4.44
367.733	97.96
367.944	59.05
368.155	24.23
368.366	83.63
368.577	108.2
368.788	120.49
368.999	-67.92
369.209	-22.87
369.42	204.46
369.631	212.65
369.842	143.02
370.053	22.19
370.264	83.63
370.474	7.85
370.685	26.28
370.896	54.95
371.107	155.3
371.317	91.82
371.528	-8.53
371.739	128.68
371.95	130.73
372.16	83.63
372.371	-86.36
372.582	-6.49
372.792	48.81
373.003	77.48
373.214	-14.68
373.424	85.67
373.635	-10.58
373.846	106.15
374.056	30.38
374.267	13.99
374.477	81.58
374.688	-8.53
374.898	61.1
375.109	48.81
375.319	61.1
375.53	147.11
375.74	85.67
375.951	-37.2
376.161	69.29
376.372	128.68
376.582	-6.49
376.793	44.71
377.003	-0.34
377.214	-45.4
377.424	67.24
377.635	118.44
377.845	-69.97
378.055	122.54
378.266	1.71
378.476	130.73
378.686	126.63
378.897	54.95
379.107	134.82
379.317	67.24
379.528	48.81
379.738	50.86
379.948	-51.54
380.158	165.54
380.369	54.95
380.579	116.39
380.789	61.1
380.999	77.48
381.21	186.02
381.42	116.39
381.63	46.76
381.84	110.25
382.05	44.71
382.261	54.95
382.471	134.82
382.681	-51.54
382.891	151.21
383.101	18.09
383.311	-0.34
383.521	42.67
383.731	106.15
383.941	120.49
384.151	44.71
384.361	28.33
384.571	38.57
384.781	61.1
384.991	214.7
385.201	208.55
385.411	147.11
385.621	59.05
385.831	36.52
386.041	40.62
386.251	9.9
386.461	95.91
386.671	42.67
386.881	-16.73
387.091	26.28
387.301	97.96
387.511	38.57
387.72	9.9
387.93	104.11
388.14	-123.22
388.35	89.77
388.56	34.47
388.769	91.82
388.979	73.39
389.189	-63.83
389.399	69.29
389.609	26.28
389.818	50.86
390.028	83.63
390.238	13.99
390.447	40.62
390.657	18.09
390.867	-26.96
391.076	-61.78
391.286	42.67
391.496	-39.25
391.705	91.82
391.915	124.58
392.125	95.91
392.334	87.72
392.544	136.87
392.753	57
392.963	5.8
393.172	5.8
393.382	-57.68
393.591	145.06
393.801	34.47
394.01	255.65
394.22	112.3
394.429	106.15
394.639	-16.73
394.848	59.05
395.058	7.85
395.267	34.47
395.477	181.93
395.686	52.91
395.895	192.17
396.105	214.7
396.314	9.9
396.524	52.91
396.733	46.76
396.942	97.96
397.152	97.96
397.361	155.3
397.57	81.58
397.78	73.39
397.989	93.87
398.198	136.87
398.407	-31.06
398.617	69.29
398.826	11.95
399.035	-33.11
399.244	100.01
399.453	26.28
399.663	61.1
399.872	73.39
400.081	-49.49
400.29	181.93
400.499	-14.68
400.708	145.06
400.917	9.9
401.127	-24.92
401.336	3.75
401.545	179.88
401.754	134.82
401.963	89.77
402.172	-26.96
402.381	-4.44
402.59	61.1
402.799	20.14
403.008	11.95
403.217	52.91
403.426	73.39
403.635	54.95
403.844	75.43
404.053	-31.06
404.262	-63.83
404.471	100.01
404.68	83.63
404.888	44.71
405.097	-10.58
405.306	26.28
405.515	108.2
405.724	18.09
405.933	24.23
406.142	75.43
406.35	118.44
406.559	48.81
406.768	69.29
406.977	132.78
407.185	-22.87
407.394	52.91
407.603	26.28
407.812	24.23
408.02	124.58
408.229	44.71
408.438	75.43
408.646	-24.92
408.855	-51.54
409.064	11.95
409.272	81.58
409.481	48.81
409.69	18.09
409.898	-102.74
410.107	147.11
410.315	183.98
410.524	-88.4
410.733	97.96
410.941	20.14
411.15	50.86
411.358	28.33
411.567	122.54
411.775	77.48
411.984	112.3
412.192	155.3
412.401	63.15
412.609	208.55
412.818	95.91
413.026	63.15
413.234	-10.58
413.443	20.14
413.651	52.91
413.86	44.71
414.068	145.06
414.276	206.5
414.485	-2.39
414.693	151.21
414.901	220.84
415.11	100.01
415.318	46.76
415.526	1.71
415.734	165.54
415.943	69.29
416.151	106.15
416.359	22.19
416.567	85.67
416.776	179.88
416.984	93.87
417.192	190.12
417.4	-41.3
417.608	83.63
417.817	22.19
418.025	120.49
418.233	106.15
418.441	-12.63
418.649	-12.63
418.857	87.72
419.065	95.91
419.273	-22.87
419.481	114.34
419.689	-16.73
419.897	24.23
420.105	-31.06
420.313	71.34
420.521	155.3
420.729	126.63
420.937	-8.53
421.145	-12.63
421.353	52.91
421.561	151.21
421.769	108.2
421.977	-49.49
422.185	104.11
422.393	110.25
422.601	93.87
422.809	138.92
423.017	57
423.224	102.06
423.432	106.15
423.64	18.09
423.848	157.35
424.056	46.76
424.263	169.64
424.471	79.53
424.679	224.94
424.887	-98.64
425.094	114.34
425.302	71.34
425.51	65.19
425.718	108.2
425.925	112.3
426.133	77.48
426.341	190.12
426.548	181.93
426.756	48.81
426.964	200.36
427.171	52.91
427.379	-26.96
427.586	134.82
427.794	100.01
428.001	128.68
428.209	200.36
428.417	108.2
428.624	114.34
428.832	167.59
429.039	104.11
429.247	210.6
429.454	188.07
429.662	138.92
429.869	231.08
430.076	175.78
430.284	245.41
430.491	269.99
430.699	208.55
430.906	243.37
431.114	198.31
431.321	194.22
431.528	167.59
431.736	124.58
431.943	128.68
432.15	198.31
432.358	108.2
432.565	302.76
432.772	-4.44
432.979	188.07
433.187	151.21
433.394	216.74
433.601	77.48
433.808	257.7
434.016	263.85
434.223	278.18
434.43	235.18
434.637	360.1
434.844	302.76
435.052	214.7
435.259	235.18
435.466	380.58
435.673	292.52
435.88	382.63
436.087	315.05
436.294	399.01
436.501	435.88
436.708	224.94
436.915	425.64
437.122	429.73
437.329	331.43
437.537	376.48
437.743	433.83
437.95	525.99
438.157	517.79
438.364	499.36
438.571	444.07
438.778	493.22
438.985	583.33
439.192	603.81
439.399	560.8
439.606	597.67
439.813	636.58
440.02	718.5
440.227	804.51
440.433	767.65
440.64	560.8
440.847	677.54
441.054	693.92
441.261	863.9
441.467	720.54
441.674	741.02
441.881	855.71
442.088	802.46
442.294	861.85
442.501	1013.4
442.708	1060.51
442.914	999.07
443.121	1093.27
443.328	1054.36
443.534	1212.06
443.741	1158.81
443.948	1044.12
444.154	1191.58
444.361	1308.31
444.568	1296.02
444.774	1310.36
444.981	1246.87
445.187	1410.71
445.394	1533.59
445.6	1408.66
445.807	1646.23
446.013	1660.56
446.22	1498.77
446.426	1719.95
446.633	1871.5
446.839	1928.85
447.046	1769.1
447.252	2107.02
447.459	2008.72
447.665	2025.1
447.871	2186.89
448.078	2424.45
448.284	2303.62
448.491	2432.65
448.697	2594.44
448.903	2705.03
449.11	2616.96
449.316	2707.07
449.522	2956.93
449.728	3128.95
449.935	3085.95
450.141	3280.5
450.347	3475.06
450.553	3442.29
450.76	3458.68
450.966	3761.78
451.172	3835.5
451.378	4011.63
451.584	4011.63
451.791	4421.22
451.997	4441.7
452.203	4658.79
452.409	4726.37
452.615	4951.65
452.821	4785.76
453.027	4974.17
453.233	5455.45
453.44	5373.53
453.646	5631.57
453.852	5934.67
454.058	6039.12
454.264	6270.54
454.47	6762.05
454.676	6739.52
454.882	7415.35
455.088	6995.52
455.294	7312.96
455.5	7880.24
455.705	8365.61
455.911	8103.47
456.117	8488.49
456.323	8848.93
456.529	8810.02
456.735	9733.65
456.941	9915.92
457.147	10374.67
457.352	10608.14
457.558	10984.96
457.764	11570.68
457.97	11927.03
458.176	12264.94
458.381	12969.44
458.587	13184.48
458.793	13839.83
458.999	13704.67
459.204	15480.25
459.41	15943.1
459.616	15818.17
459.821	16657.84
460.027	17374.63
460.233	18441.62
460.438	18378.13
460.644	19264.9
460.85	19543.42
461.055	20235.64
461.261	21519.71
461.466	20841.84
461.672	21132.65
461.878	23739.71
462.083	23444.8
462.289	23842.11
462.494	24880.43
462.7	25156.91
462.905	25576.74
463.111	27411.72
463.316	29054.19
463.522	29451.5
463.727	30018.78
463.932	31499.47
464.138	32912.56
464.343	33391.79
464.549	33741.99
464.754	36758.65
464.959	37135.48
465.165	38022.25
465.37	37844.07
465.575	37692.52
465.781	40367.17
465.986	41708.59
466.191	40229.96
466.397	41327.67
466.602	40125.51
466.807	42519.59
467.012	43277.33
467.218	44243.98
467.423	44182.54
467.628	45083.64
467.833	47469.53
468.038	46009.32
468.244	45820.91
468.449	47983.57
