Data from USB4F104151__63__11-30-53-764.txt Node

Date: Wed Feb 26 11:30:53 EST 2025
User: louis
Spectrometer: USB4F10415
Trigger mode: 4
Integration Time (sec): 1.000000E-1
Scans to average: 1
Electric dark correction enabled: true
Nonlinearity correction enabled: false
Boxcar width: 0
XAxis mode: Wavelengths
Number of Pixels in Spectrum: 3648
>>>>>Begin Spectral Data<<<<<
178.204	-387.92
178.424	-387.92
178.644	-387.92
178.864	-367.44
179.084	-449.36
179.304	-11.09
179.524	9.39
179.744	58.54
179.964	64.68
180.184	-17.24
180.404	-4.95
180.624	-43.86
180.844	-19.29
181.064	-66.39
181.283	11.43
181.503	-47.96
181.723	66.73
181.943	-33.62
182.163	181.42
182.383	-43.86
182.602	17.58
182.822	144.55
183.042	142.5
183.262	40.11
183.482	130.22
183.701	21.67
183.921	48.3
184.141	-0.85
184.361	95.4
184.58	68.78
184.8	36.01
185.02	60.59
185.239	115.88
185.459	101.55
185.679	191.66
185.898	-90.96
186.118	122.02
186.338	146.6
186.557	191.66
186.777	-31.57
186.997	111.78
187.216	54.44
187.436	199.85
187.655	140.46
187.875	85.16
188.095	58.54
188.314	136.36
188.534	101.55
188.753	-31.57
188.973	99.5
189.192	140.46
189.412	-11.09
189.631	-0.85
189.851	115.88
190.07	218.28
190.29	-43.86
190.509	58.54
190.729	29.87
190.948	72.87
191.168	208.04
191.387	85.16
191.607	44.2
191.826	56.49
192.045	29.87
192.265	79.02
192.484	105.64
192.704	74.92
192.923	-64.34
193.142	246.95
193.362	72.87
193.581	122.02
193.8	58.54
194.02	81.07
194.239	40.11
194.458	64.68
194.678	-62.29
194.897	11.43
195.116	42.15
195.335	162.98
195.555	52.39
195.774	25.77
195.993	99.5
196.212	160.94
196.432	11.43
196.651	19.63
196.87	31.91
197.089	267.43
197.308	81.07
197.528	83.11
197.747	-54.1
197.966	46.25
198.185	160.94
198.404	19.63
198.623	152.74
198.842	175.27
199.062	201.9
199.281	93.35
199.5	-37.72
199.719	97.45
199.938	83.11
200.157	130.22
200.376	124.07
200.595	107.69
200.814	74.92
201.033	23.72
201.252	142.5
201.471	87.21
201.69	48.3
201.909	54.44
202.128	142.5
202.347	119.98
202.566	46.25
202.785	-72.53
203.004	-31.57
203.223	251.05
203.442	64.68
203.661	-21.33
203.879	70.83
204.098	60.59
204.317	17.58
204.536	138.41
204.755	87.21
204.974	158.89
205.193	87.21
205.411	117.93
205.63	87.21
205.849	87.21
206.068	-9.05
206.287	-29.52
206.505	183.46
206.724	48.3
206.943	-4.95
207.162	25.77
207.381	111.78
207.599	62.63
207.818	44.2
208.037	-47.96
208.255	40.11
208.474	58.54
208.693	105.64
208.911	38.06
209.13	132.26
209.349	165.03
209.567	130.22
209.786	97.45
210.005	173.22
210.223	74.92
210.442	-33.62
210.661	44.2
210.879	101.55
211.098	60.59
211.316	179.37
211.535	115.88
211.753	95.4
211.972	156.84
212.191	76.97
212.409	48.3
212.628	68.78
212.846	-54.1
213.065	50.35
213.283	128.17
213.502	122.02
213.72	33.96
213.938	70.83
214.157	40.11
214.375	122.02
214.594	-23.38
214.812	140.46
215.031	60.59
215.249	109.74
215.467	101.55
215.686	23.72
215.904	56.49
216.122	56.49
216.341	156.84
216.559	81.07
216.778	189.61
216.996	140.46
217.214	54.44
217.432	52.39
217.651	-33.62
217.869	31.91
218.087	95.4
218.306	13.48
218.524	54.44
218.742	17.58
218.96	119.98
219.179	-13.14
219.397	91.31
219.615	169.13
219.833	70.83
220.051	-35.67
220.27	113.83
220.488	152.74
220.706	107.69
220.924	21.67
221.142	33.96
221.36	189.61
221.578	99.5
221.796	95.4
222.015	66.73
222.233	48.3
222.451	132.26
222.669	-37.72
222.887	138.41
223.105	19.63
223.323	89.26
223.541	95.4
223.759	-37.72
223.977	83.11
224.195	165.03
224.413	76.97
224.631	150.7
224.849	85.16
225.067	226.47
225.285	-0.85
225.503	56.49
225.721	-13.14
225.939	27.82
226.157	68.78
226.375	294.05
226.592	13.48
226.81	42.15
227.028	66.73
227.246	140.46
227.464	105.64
227.682	154.79
227.9	81.07
228.117	58.54
228.335	179.37
228.553	64.68
228.771	-35.67
228.989	140.46
229.206	93.35
229.424	7.34
229.642	-15.19
229.86	-27.48
230.077	146.6
230.295	81.07
230.513	122.02
230.731	130.22
230.948	224.42
231.166	138.41
231.384	5.29
231.601	-19.29
231.819	273.57
232.037	-4.95
232.254	-47.96
232.472	33.96
232.689	33.96
232.907	126.12
233.125	-2.9
233.342	-27.48
233.56	1.19
233.777	19.63
233.995	81.07
234.213	95.4
234.43	122.02
234.648	15.53
234.865	-7
235.083	48.3
235.3	103.59
235.518	99.5
235.735	130.22
235.953	91.31
236.17	11.43
236.388	85.16
236.605	97.45
236.822	122.02
237.04	146.6
237.257	76.97
237.475	-7
237.692	31.91
237.909	107.69
238.127	107.69
238.344	93.35
238.562	3.24
238.779	-54.1
238.996	-43.86
239.214	158.89
239.431	81.07
239.648	-17.24
239.865	167.08
240.083	136.36
240.3	21.67
240.517	58.54
240.735	44.2
240.952	156.84
241.169	54.44
241.386	150.7
241.603	15.53
241.821	36.01
242.038	60.59
242.255	74.92
242.472	-17.24
242.689	72.87
242.907	111.78
243.124	83.11
243.341	15.53
243.558	11.43
243.775	-15.19
243.992	17.58
244.209	154.79
244.426	218.28
244.643	122.02
244.86	31.91
245.078	165.03
245.295	89.26
245.512	25.77
245.729	27.82
245.946	103.59
246.163	29.87
246.38	44.2
246.597	46.25
246.814	91.31
247.031	48.3
247.248	113.83
247.464	165.03
247.681	25.77
247.898	58.54
248.115	89.26
248.332	44.2
248.549	74.92
248.766	142.5
248.983	89.26
249.2	111.78
249.417	208.04
249.633	-21.33
249.85	85.16
250.067	-76.63
250.284	58.54
250.501	138.41
250.717	126.12
250.934	44.2
251.151	-39.76
251.368	36.01
251.585	103.59
251.801	72.87
252.018	-50
252.235	76.97
252.451	-4.95
252.668	23.72
252.885	183.46
253.102	97.45
253.318	97.45
253.535	46.25
253.752	27.82
253.968	33.96
254.185	-11.09
254.401	79.02
254.618	109.74
254.835	-47.96
255.051	95.4
255.268	97.45
255.484	64.68
255.701	-19.29
255.917	62.63
256.134	42.15
256.351	130.22
256.567	-50
256.784	25.77
257	23.72
257.217	101.55
257.433	138.41
257.65	54.44
257.866	134.31
258.082	-37.72
258.299	9.39
258.515	132.26
258.732	68.78
258.948	-54.1
259.165	56.49
259.381	33.96
259.597	169.13
259.814	76.97
260.03	-39.76
260.246	9.39
260.463	205.99
260.679	148.65
260.895	111.78
261.112	46.25
261.328	79.02
261.544	-25.43
261.761	193.7
261.977	11.43
262.193	25.77
262.409	138.41
262.626	38.06
262.842	79.02
263.058	-54.1
263.274	66.73
263.49	74.92
263.707	115.88
263.923	111.78
264.139	-107.35
264.355	17.58
264.571	132.26
264.787	87.21
265.004	64.68
265.22	50.35
265.436	-70.48
265.652	-4.95
265.868	74.92
266.084	25.77
266.3	64.68
266.516	-4.95
266.732	95.4
266.948	105.64
267.164	-2.9
267.38	128.17
267.596	25.77
267.812	210.09
268.028	130.22
268.244	29.87
268.46	79.02
268.676	93.35
268.892	109.74
269.108	-13.14
269.324	11.43
269.54	-37.72
269.756	154.79
269.972	-21.33
270.188	56.49
270.403	17.58
270.619	13.48
270.835	93.35
271.051	126.12
271.267	17.58
271.483	27.82
271.698	66.73
271.914	74.92
272.13	19.63
272.346	62.63
272.562	101.55
272.777	113.83
272.993	109.74
273.209	-15.19
273.425	87.21
273.64	1.19
273.856	81.07
274.072	-64.34
274.287	31.91
274.503	128.17
274.719	52.39
274.934	1.19
275.15	-58.2
275.366	91.31
275.581	-86.87
275.797	27.82
276.012	11.43
276.228	48.3
276.444	113.83
276.659	167.08
276.875	-15.19
277.09	33.96
277.306	52.39
277.521	179.37
277.737	66.73
277.952	101.55
278.168	27.82
278.383	101.55
278.599	60.59
278.814	97.45
279.03	54.44
279.245	181.42
279.461	11.43
279.676	97.45
279.892	19.63
280.107	27.82
280.322	15.53
280.538	68.78
280.753	29.87
280.969	83.11
281.184	99.5
281.399	142.5
281.615	56.49
281.83	101.55
282.045	-21.33
282.26	11.43
282.476	46.25
282.691	105.64
282.906	56.49
283.122	91.31
283.337	-7
283.552	124.07
283.767	-13.14
283.983	70.83
284.198	91.31
284.413	115.88
284.628	-35.67
284.843	33.96
285.058	128.17
285.274	29.87
285.489	-54.1
285.704	58.54
285.919	91.31
286.134	38.06
286.349	21.67
286.564	-29.52
286.779	175.27
286.995	-45.91
287.21	-0.85
287.425	81.07
287.64	-37.72
287.855	60.59
288.07	-88.92
288.285	89.26
288.5	115.88
288.715	95.4
288.93	119.98
289.145	-39.76
289.36	19.63
289.575	38.06
289.79	173.22
290.004	81.07
290.219	85.16
290.434	-2.9
290.649	62.63
290.864	105.64
291.079	56.49
291.294	46.25
291.509	89.26
291.724	33.96
291.938	105.64
292.153	101.55
292.368	74.92
292.583	105.64
292.798	50.35
293.012	105.64
293.227	66.73
293.442	70.83
293.657	189.61
293.871	109.74
294.086	62.63
294.301	246.95
294.516	115.88
294.73	115.88
294.945	-25.43
295.16	83.11
295.374	134.31
295.589	146.6
295.804	-19.29
296.018	56.49
296.233	136.36
296.447	76.97
296.662	27.82
296.877	109.74
297.091	79.02
297.306	66.73
297.52	17.58
297.735	72.87
297.949	38.06
298.164	81.07
298.378	-33.62
298.593	31.91
298.807	58.54
299.022	56.49
299.236	89.26
299.451	7.34
299.665	7.34
299.88	70.83
300.094	40.11
300.309	44.2
300.523	-4.95
300.737	-11.09
300.952	103.59
301.166	103.59
301.381	7.34
301.595	-45.91
301.809	87.21
302.024	62.63
302.238	-13.14
302.452	173.22
302.667	46.25
302.881	208.04
303.095	56.49
303.309	115.88
303.524	-2.9
303.738	97.45
303.952	48.3
304.166	40.11
304.381	-33.62
304.595	208.04
304.809	107.69
305.023	19.63
305.237	-2.9
305.452	31.91
305.666	117.93
305.88	44.2
306.094	138.41
306.308	74.92
306.522	58.54
306.736	52.39
306.95	40.11
307.164	76.97
307.379	54.44
307.593	142.5
307.807	175.27
308.021	167.08
308.235	68.78
308.449	-15.19
308.663	154.79
308.877	261.29
309.091	87.21
309.305	62.63
309.519	-62.29
309.733	142.5
309.947	76.97
310.161	79.02
310.374	87.21
310.588	113.83
310.802	-33.62
311.016	50.35
311.23	87.21
311.444	-70.48
311.658	-29.52
311.872	136.36
312.085	134.31
312.299	152.74
312.513	238.76
312.727	103.59
312.941	-19.29
313.154	74.92
313.368	85.16
313.582	95.4
313.796	79.02
314.009	85.16
314.223	144.55
314.437	76.97
314.651	105.64
314.864	-11.09
315.078	64.68
315.292	25.77
315.505	36.01
315.719	119.98
315.933	91.31
316.146	-11.09
316.36	38.06
316.573	152.74
316.787	140.46
317.001	54.44
317.214	-70.48
317.428	29.87
317.641	7.34
317.855	-13.14
318.068	89.26
318.282	85.16
318.495	187.56
318.709	111.78
318.922	44.2
319.136	203.94
319.349	70.83
319.563	3.24
319.776	197.8
319.99	9.39
320.203	68.78
320.417	15.53
320.63	74.92
320.843	249
321.057	113.83
321.27	89.26
321.483	87.21
321.697	111.78
321.91	31.91
322.124	87.21
322.337	154.79
322.55	58.54
322.763	101.55
322.977	17.58
323.19	36.01
323.403	36.01
323.617	103.59
323.83	169.13
324.043	-45.91
324.256	81.07
324.469	38.06
324.683	107.69
324.896	56.49
325.109	40.11
325.322	-66.39
325.535	152.74
325.748	134.31
325.962	89.26
326.175	15.53
326.388	111.78
326.601	99.5
326.814	3.24
327.027	134.31
327.24	107.69
327.453	-39.76
327.666	87.21
327.879	169.13
328.092	76.97
328.305	113.83
328.518	85.16
328.731	-4.95
328.944	-39.76
329.157	54.44
329.37	48.3
329.583	160.94
329.796	148.65
330.009	7.34
330.222	165.03
330.435	95.4
330.648	105.64
330.861	126.12
331.073	107.69
331.286	185.51
331.499	111.78
331.712	-7
331.925	83.11
332.138	72.87
332.35	134.31
332.563	107.69
332.776	103.59
332.989	-9.05
333.202	-11.09
333.414	11.43
333.627	9.39
333.84	27.82
334.053	56.49
334.265	36.01
334.478	-7
334.691	66.73
334.903	23.72
335.116	81.07
335.329	46.25
335.541	134.31
335.754	171.18
335.966	13.48
336.179	17.58
336.392	-0.85
336.604	50.35
336.817	54.44
337.029	64.68
337.242	111.78
337.454	89.26
337.667	56.49
337.88	201.9
338.092	126.12
338.305	109.74
338.517	70.83
338.729	74.92
338.942	201.9
339.154	-29.52
339.367	-15.19
339.579	33.96
339.792	38.06
340.004	132.26
340.217	85.16
340.429	58.54
340.641	70.83
340.854	-13.14
341.066	81.07
341.278	93.35
341.491	208.04
341.703	60.59
341.915	7.34
342.128	193.7
342.34	68.78
342.552	-7
342.764	111.78
342.977	-25.43
343.189	85.16
343.401	64.68
343.613	-39.76
343.826	111.78
344.038	54.44
344.25	160.94
344.462	56.49
344.674	99.5
344.886	19.63
345.099	13.48
345.311	23.72
345.523	27.82
345.735	-21.33
345.947	50.35
346.159	142.5
346.371	33.96
346.583	64.68
346.795	218.28
347.007	-25.43
347.219	124.07
347.431	87.21
347.643	109.74
347.855	62.63
348.067	136.36
348.279	-113.49
348.491	29.87
348.703	107.69
348.915	15.53
349.127	15.53
349.339	19.63
349.551	66.73
349.763	140.46
349.975	40.11
350.187	79.02
350.399	181.42
350.61	56.49
350.822	-47.96
351.034	136.36
351.246	-2.9
351.458	95.4
351.669	87.21
351.881	142.5
352.093	169.13
352.305	128.17
352.517	72.87
352.728	130.22
352.94	162.98
353.152	185.51
353.363	-54.1
353.575	115.88
353.787	101.55
353.999	36.01
354.21	177.32
354.422	33.96
354.633	13.48
354.845	25.77
355.057	42.15
355.268	154.79
355.48	171.18
355.692	-54.1
355.903	60.59
356.115	-21.33
356.326	-138.07
356.538	152.74
356.749	48.3
356.961	255.14
357.172	21.67
357.384	-17.24
357.595	259.24
357.807	-2.9
358.018	74.92
358.23	31.91
358.441	126.12
358.653	105.64
358.864	87.21
359.075	-31.57
359.287	50.35
359.498	222.38
359.709	74.92
359.921	46.25
360.132	64.68
360.344	64.68
360.555	-15.19
360.766	54.44
360.977	-4.95
361.189	191.66
361.4	83.11
361.611	150.7
361.823	97.45
362.034	33.96
362.245	-39.76
362.456	25.77
362.667	140.46
362.879	42.15
363.09	62.63
363.301	74.92
363.512	66.73
363.723	23.72
363.935	36.01
364.146	169.13
364.357	38.06
364.568	119.98
364.779	-21.33
364.99	181.42
365.201	31.91
365.412	58.54
365.623	42.15
365.834	93.35
366.045	76.97
366.256	93.35
366.467	134.31
366.678	58.54
366.889	81.07
367.1	58.54
367.311	119.98
367.522	64.68
367.733	56.49
367.944	87.21
368.155	101.55
368.366	101.55
368.577	113.83
368.788	70.83
368.999	36.01
369.209	70.83
369.42	261.29
369.631	189.61
369.842	83.11
370.053	-0.85
370.264	126.12
370.474	-7
370.685	89.26
370.896	66.73
371.107	138.41
371.317	74.92
371.528	122.02
371.739	146.6
371.95	101.55
372.16	66.73
372.371	1.19
372.582	64.68
372.792	109.74
373.003	54.44
373.214	148.65
373.424	56.49
373.635	38.06
373.846	142.5
374.056	19.63
374.267	97.45
374.477	44.2
374.688	11.43
374.898	109.74
375.109	105.64
375.319	122.02
375.53	185.51
375.74	107.69
375.951	27.82
376.161	81.07
376.372	126.12
376.582	76.97
376.793	134.31
377.003	-29.52
377.214	25.77
377.424	25.77
377.635	72.87
377.845	38.06
378.055	179.37
378.266	11.43
378.476	68.78
378.686	87.21
378.897	66.73
379.107	105.64
379.317	83.11
379.528	42.15
379.738	85.16
379.948	-7
380.158	171.18
380.369	117.93
380.579	50.35
380.789	38.06
380.999	103.59
381.21	97.45
381.42	197.8
381.63	48.3
381.84	154.79
382.05	81.07
382.261	173.22
382.471	109.74
382.681	-35.67
382.891	212.14
383.101	83.11
383.311	23.72
383.521	17.58
383.731	136.36
383.941	138.41
384.151	152.74
384.361	7.34
384.571	126.12
384.781	54.44
384.991	144.55
385.201	230.57
385.411	76.97
385.621	74.92
385.831	136.36
386.041	66.73
386.251	113.83
386.461	136.36
386.671	-4.95
386.881	150.7
387.091	48.3
387.301	93.35
387.511	115.88
387.72	76.97
387.93	171.18
388.14	-11.09
388.35	124.07
388.56	101.55
388.769	107.69
388.979	3.24
389.189	-4.95
389.399	52.39
389.609	134.31
389.818	101.55
390.028	72.87
390.238	134.31
390.447	74.92
390.657	91.31
390.867	87.21
391.076	1.19
391.286	89.26
391.496	70.83
391.705	134.31
391.915	97.45
392.125	140.46
392.334	66.73
392.544	124.07
392.753	126.12
392.963	19.63
393.172	54.44
393.382	38.06
393.591	158.89
393.801	33.96
394.01	150.7
394.22	89.26
394.429	89.26
394.639	-47.96
394.848	128.17
395.058	119.98
395.267	89.26
395.477	130.22
395.686	7.34
395.895	234.66
396.105	144.55
396.314	93.35
396.524	33.96
396.733	119.98
396.942	132.26
397.152	160.94
397.361	154.79
397.57	70.83
397.78	11.43
397.989	107.69
398.198	185.51
398.407	62.63
398.617	83.11
398.826	109.74
399.035	64.68
399.244	132.26
399.453	36.01
399.663	33.96
399.872	19.63
400.081	-19.29
400.29	162.98
400.499	-45.91
400.708	124.07
400.917	-0.85
401.127	111.78
401.336	27.82
401.545	326.82
401.754	115.88
401.963	83.11
402.172	58.54
402.381	-54.1
402.59	107.69
402.799	76.97
403.008	232.62
403.217	117.93
403.426	152.74
403.635	-62.29
403.844	48.3
404.053	23.72
404.262	58.54
404.471	238.76
404.68	122.02
404.888	21.67
405.097	115.88
405.306	109.74
405.515	193.7
405.724	17.58
405.933	113.83
406.142	111.78
406.35	126.12
406.559	74.92
406.768	19.63
406.977	230.57
407.185	81.07
407.394	85.16
407.603	-23.38
407.812	46.25
408.02	140.46
408.229	74.92
408.438	101.55
408.646	11.43
408.855	117.93
409.064	99.5
409.272	-9.05
409.481	119.98
409.69	66.73
409.898	58.54
410.107	31.91
410.315	111.78
410.524	42.15
410.733	97.45
410.941	101.55
411.15	105.64
411.358	87.21
411.567	136.36
411.775	60.59
411.984	70.83
412.192	136.36
412.401	44.2
412.609	263.33
412.818	162.98
413.026	122.02
413.234	44.2
413.443	142.5
413.651	97.45
413.86	132.26
414.068	214.18
414.276	218.28
414.485	130.22
414.693	162.98
414.901	246.95
415.11	48.3
415.318	74.92
415.526	111.78
415.734	126.12
415.943	7.34
416.151	95.4
416.359	42.15
416.567	126.12
416.776	93.35
416.984	132.26
417.192	277.67
417.4	87.21
417.608	66.73
417.817	-29.52
418.025	128.17
418.233	162.98
418.441	56.49
418.649	17.58
418.857	142.5
419.065	111.78
419.273	25.77
419.481	83.11
419.689	64.68
419.897	13.48
420.105	-78.68
420.313	105.64
420.521	175.27
420.729	134.31
420.937	56.49
421.145	-2.9
421.353	103.59
421.561	269.48
421.769	119.98
421.977	66.73
422.185	79.02
422.393	66.73
422.601	144.55
422.809	76.97
423.017	97.45
423.224	58.54
423.432	109.74
423.64	58.54
423.848	199.85
424.056	27.82
424.263	72.87
424.471	-41.81
424.679	208.04
424.887	21.67
425.094	175.27
425.302	111.78
425.51	60.59
425.718	134.31
425.925	105.64
426.133	97.45
426.341	220.33
426.548	91.31
426.756	66.73
426.964	173.22
427.171	119.98
427.379	183.46
427.586	103.59
427.794	165.03
428.001	261.29
428.209	134.31
428.417	263.33
428.624	138.41
428.832	181.42
429.039	208.04
429.247	107.69
429.454	154.79
429.662	324.77
429.869	165.03
430.076	144.55
430.284	214.18
430.491	273.57
430.699	181.42
430.906	220.33
431.114	193.7
431.321	132.26
431.528	183.46
431.736	183.46
431.943	228.52
432.15	214.18
432.358	205.99
432.565	255.14
432.772	66.73
432.979	249
433.187	156.84
433.394	253.09
433.601	238.76
433.808	242.85
434.016	283.81
434.223	304.29
434.43	320.68
434.637	251.05
434.844	316.58
435.052	328.87
435.259	279.72
435.466	298.15
435.673	298.15
435.88	343.21
436.087	378.02
436.294	371.88
436.501	337.06
436.708	351.4
436.915	343.21
437.122	451.75
437.329	273.57
437.537	392.36
437.743	433.32
437.95	507.04
438.157	433.32
438.364	429.22
438.571	394.4
438.778	486.56
438.985	607.39
439.192	548
439.399	502.95
439.606	609.44
439.813	593.06
440.02	625.83
440.227	779.42
440.433	664.74
440.64	601.25
440.847	674.98
441.054	687.26
441.261	844.96
441.467	760.99
441.674	797.85
441.881	773.28
442.088	760.99
442.294	842.91
442.501	973.98
442.708	998.56
442.914	912.54
443.121	920.73
443.328	1000.6
443.534	1084.57
443.741	1014.94
443.948	1019.04
444.154	1223.83
444.361	1281.18
444.568	1143.96
444.774	1248.41
444.981	1139.87
445.187	1311.89
445.394	1373.33
445.6	1250.46
445.807	1574.03
446.013	1522.84
446.22	1442.96
446.426	1672.34
446.633	1766.54
446.839	1922.19
447.046	1660.05
447.252	1840.27
447.459	1928.33
447.665	1879.18
447.871	2188.43
448.078	2378.89
448.284	2118.79
448.491	2301.06
448.697	2409.61
448.903	2618.5
449.11	2440.33
449.316	2571.4
449.522	2763.9
449.728	2923.65
449.935	2886.78
450.141	2911.36
450.347	3179.64
450.553	3187.83
450.76	3165.31
450.966	3429.49
451.172	3535.99
451.378	3669.11
451.584	3837.04
451.791	3904.62
451.997	4058.22
452.203	4238.44
452.409	4543.59
452.615	4607.08
452.821	4457.57
453.027	4510.82
453.233	5137.5
453.44	4947.04
453.646	5305.43
453.852	5313.63
454.058	5377.11
454.264	5743.7
454.47	6116.43
454.676	5952.59
454.882	6988.86
455.088	6542.41
455.294	6900.8
455.5	7203.9
455.705	7816.24
455.911	7844.91
456.117	7916.59
456.323	8238.12
456.529	8291.37
456.735	9047.07
456.941	9327.64
457.147	9583.64
457.352	9890.84
457.558	10032.15
457.764	10820.61
457.97	10904.58
458.176	11488.25
458.381	12084.21
458.587	12413.93
458.793	12860.39
458.999	12774.38
459.204	14351.31
459.41	15043.53
459.616	14617.55
459.821	15532.99
460.027	16262.07
460.233	16974.76
460.438	17193.89
460.644	18215.83
460.85	18295.7
461.055	19037.06
461.261	20077.43
461.466	19602.3
461.672	19979.13
461.878	22276.95
462.083	22035.29
462.289	22637.39
462.494	23270.22
462.7	23587.65
462.905	23792.45
463.111	25699.11
463.316	27056.91
463.522	27323.15
463.727	28545.78
463.932	29594.34
464.138	30329.56
464.343	31597.26
464.549	31763.14
464.754	33669.8
464.959	35168.91
465.165	35439.25
465.37	35326.61
465.575	35484.3
465.781	37626.48
465.986	38607.45
466.191	38472.29
466.397	38416.99
466.602	37745.26
466.807	39799.37
467.012	40510.02
467.218	41138.74
467.423	40907.32
467.628	42101.29
