Data from USB4F104151__25__11-24-47-005.txt Node

Date: Wed Feb 26 11:24:47 EST 2025
User: louis
Spectrometer: USB4F10415
Trigger mode: 4
Integration Time (sec): 1.000000E-1
Scans to average: 1
Electric dark correction enabled: true
Nonlinearity correction enabled: false
Boxcar width: 0
XAxis mode: Wavelengths
Number of Pixels in Spectrum: 3648
>>>>>Begin Spectral Data<<<<<
178.204	-406.35
178.424	-406.35
178.644	-406.35
178.864	-443.21
179.084	-402.26
179.304	-11.09
179.524	38.06
179.744	-13.14
179.964	66.73
180.184	36.01
180.404	23.72
180.624	-74.58
180.844	-2.9
181.064	7.34
181.283	46.25
181.503	-97.11
181.723	-19.29
181.943	-119.64
182.163	165.03
182.383	-31.57
182.602	70.83
182.822	113.83
183.042	85.16
183.262	-78.68
183.482	23.72
183.701	29.87
183.921	58.54
184.141	-64.34
184.361	27.82
184.58	95.4
184.8	89.26
185.02	-43.86
185.239	152.74
185.459	93.35
185.679	117.93
185.898	-119.64
186.118	79.02
186.338	-2.9
186.557	44.2
186.777	-43.86
186.997	-76.63
187.216	15.53
187.436	183.46
187.655	29.87
187.875	31.91
188.095	81.07
188.314	33.96
188.534	87.21
188.753	-54.1
188.973	111.78
189.192	70.83
189.412	33.96
189.631	60.59
189.851	76.97
190.07	91.31
190.29	-88.92
190.509	42.15
190.729	23.72
190.948	124.07
191.168	275.62
191.387	54.44
191.607	38.06
191.826	81.07
192.045	29.87
192.265	-47.96
192.484	64.68
192.704	46.25
192.923	-9.05
193.142	197.8
193.362	130.22
193.581	72.87
193.8	-4.95
194.02	83.11
194.239	95.4
194.458	70.83
194.678	1.19
194.897	15.53
195.116	42.15
195.335	136.36
195.555	17.58
195.774	-13.14
195.993	70.83
196.212	33.96
196.432	-29.52
196.651	13.48
196.87	40.11
197.089	214.18
197.308	58.54
197.528	21.67
197.747	-50
197.966	56.49
198.185	138.41
198.404	-74.58
198.623	56.49
198.842	126.12
199.062	152.74
199.281	109.74
199.5	52.39
199.719	93.35
199.938	23.72
200.157	60.59
200.376	40.11
200.595	91.31
200.814	17.58
201.033	-39.76
201.252	142.5
201.471	70.83
201.69	33.96
201.909	1.19
202.128	146.6
202.347	148.65
202.566	19.63
202.785	-70.48
203.004	-11.09
203.223	228.52
203.442	52.39
203.661	5.29
203.879	33.96
204.098	144.55
204.317	54.44
204.536	146.6
204.755	85.16
204.974	105.64
205.193	-27.48
205.411	103.59
205.63	72.87
205.849	64.68
206.068	-0.85
206.287	15.53
206.505	130.22
206.724	42.15
206.943	-0.85
207.162	-29.52
207.381	91.31
207.599	93.35
207.818	72.87
208.037	-64.34
208.255	17.58
208.474	-7
208.693	64.68
208.911	-78.68
209.13	111.78
209.349	42.15
209.567	74.92
209.786	103.59
210.005	56.49
210.223	-25.43
210.442	-107.35
210.661	-25.43
210.879	29.87
211.098	64.68
211.316	50.35
211.535	99.5
211.753	107.69
211.972	66.73
212.191	-50
212.409	9.39
212.628	105.64
212.846	23.72
213.065	72.87
213.283	79.02
213.502	5.29
213.72	76.97
213.938	17.58
214.157	-21.33
214.375	81.07
214.594	81.07
214.812	58.54
215.031	-90.96
215.249	97.45
215.467	54.44
215.686	15.53
215.904	-2.9
216.122	-13.14
216.341	152.74
216.559	15.53
216.778	101.55
216.996	66.73
217.214	-23.38
217.432	-29.52
217.651	-23.38
217.869	66.73
218.087	21.67
218.306	15.53
218.524	91.31
218.742	-2.9
218.96	134.31
219.179	-0.85
219.397	-4.95
219.615	210.09
219.833	132.26
220.051	17.58
220.27	50.35
220.488	-2.9
220.706	97.45
220.924	44.2
221.142	5.29
221.36	54.44
221.578	50.35
221.796	-13.14
222.015	52.39
222.233	27.82
222.451	132.26
222.669	-80.72
222.887	87.21
223.105	-31.57
223.323	-35.67
223.541	-68.44
223.759	83.11
223.977	3.24
224.195	150.7
224.413	89.26
224.631	15.53
224.849	117.93
225.067	132.26
225.285	11.43
225.503	-23.38
225.721	-113.49
225.939	95.4
226.157	29.87
226.375	228.52
226.592	-35.67
226.81	-25.43
227.028	81.07
227.246	93.35
227.464	95.4
227.682	134.31
227.9	33.96
228.117	33.96
228.335	60.59
228.553	52.39
228.771	40.11
228.989	85.16
229.206	85.16
229.424	-17.24
229.642	23.72
229.86	-74.58
230.077	122.02
230.295	54.44
230.513	136.36
230.731	60.59
230.948	214.18
231.166	181.42
231.384	-0.85
231.601	-31.57
231.819	177.32
232.037	-70.48
232.254	-39.76
232.472	-15.19
232.689	3.24
232.907	64.68
233.125	38.06
233.342	-2.9
233.56	42.15
233.777	-9.05
233.995	46.25
234.213	36.01
234.43	54.44
234.648	72.87
234.865	-27.48
235.083	-31.57
235.3	64.68
235.518	25.77
235.735	70.83
235.953	93.35
236.17	13.48
236.388	23.72
236.605	21.67
236.822	74.92
237.04	128.17
237.257	81.07
237.475	-2.9
237.692	40.11
237.909	91.31
238.127	15.53
238.344	62.63
238.562	46.25
238.779	-88.92
238.996	-64.34
239.214	31.91
239.431	154.79
239.648	44.2
239.865	62.63
240.083	107.69
240.3	27.82
240.517	-43.86
240.735	93.35
240.952	58.54
241.169	3.24
241.386	9.39
241.603	-0.85
241.821	5.29
242.038	158.89
242.255	42.15
242.472	-4.95
242.689	25.77
242.907	113.83
243.124	15.53
243.341	56.49
243.558	9.39
243.775	-95.06
243.992	-37.72
244.209	74.92
244.426	87.21
244.643	29.87
244.86	54.44
245.078	48.3
245.295	31.91
245.512	74.92
245.729	-21.33
245.946	64.68
246.163	128.17
246.38	23.72
246.597	29.87
246.814	46.25
247.031	21.67
247.248	-21.33
247.464	64.68
247.681	29.87
247.898	99.5
248.115	46.25
248.332	44.2
248.549	79.02
248.766	220.33
248.983	11.43
249.2	56.49
249.417	117.93
249.633	5.29
249.85	85.16
250.067	-0.85
250.284	36.01
250.501	-13.14
250.717	68.78
250.934	-13.14
251.151	-23.38
251.368	27.82
251.585	3.24
251.801	27.82
252.018	-99.16
252.235	93.35
252.451	-68.44
252.668	33.96
252.885	115.88
253.102	33.96
253.318	-21.33
253.535	-35.67
253.752	-23.38
253.968	-74.58
254.185	-17.24
254.401	97.45
254.618	109.74
254.835	-25.43
255.051	138.41
255.268	38.06
255.484	50.35
255.701	29.87
255.917	64.68
256.134	-35.67
256.351	46.25
256.567	-125.78
256.784	64.68
257	1.19
257.217	173.22
257.433	79.02
257.65	142.5
257.866	140.46
258.082	-119.64
258.299	-99.16
258.515	99.5
258.732	25.77
258.948	-60.24
259.165	144.55
259.381	-13.14
259.597	58.54
259.814	7.34
260.03	-13.14
260.246	81.07
260.463	124.07
260.679	40.11
260.895	-2.9
261.112	-17.24
261.328	40.11
261.544	-37.72
261.761	154.79
261.977	-74.58
262.193	-23.38
262.409	68.78
262.626	38.06
262.842	46.25
263.058	60.59
263.274	68.78
263.49	33.96
263.707	40.11
263.923	-0.85
264.139	-76.63
264.355	19.63
264.571	74.92
264.787	21.67
265.004	175.27
265.22	3.24
265.436	-82.77
265.652	36.01
265.868	19.63
266.084	9.39
266.3	-19.29
266.516	-25.43
266.732	68.78
266.948	42.15
267.164	-60.24
267.38	107.69
267.596	76.97
267.812	173.22
268.028	109.74
268.244	-17.24
268.46	76.97
268.676	44.2
268.892	111.78
269.108	-11.09
269.324	13.48
269.54	-50
269.756	72.87
269.972	-39.76
270.188	36.01
270.403	79.02
270.619	11.43
270.835	76.97
271.051	9.39
271.267	-27.48
271.483	-17.24
271.698	76.97
271.914	-23.38
272.13	15.53
272.346	1.19
272.562	91.31
272.777	165.03
272.993	-4.95
273.209	-7
273.425	136.36
273.64	-78.68
273.856	107.69
274.072	-15.19
274.287	-97.11
274.503	29.87
274.719	-19.29
274.934	5.29
275.15	-35.67
275.366	27.82
275.581	-50
275.797	60.59
276.012	66.73
276.228	56.49
276.444	27.82
276.659	122.02
276.875	-39.76
277.09	5.29
277.306	-13.14
277.521	27.82
277.737	87.21
277.952	107.69
278.168	13.48
278.383	3.24
278.599	-15.19
278.814	85.16
279.03	-11.09
279.245	142.5
279.461	48.3
279.676	97.45
279.892	-17.24
280.107	-101.2
280.322	-43.86
280.538	124.07
280.753	-25.43
280.969	58.54
281.184	38.06
281.399	156.84
281.615	58.54
281.83	171.18
282.045	-50
282.26	-39.76
282.476	27.82
282.691	83.11
282.906	48.3
283.122	13.48
283.337	-27.48
283.552	91.31
283.767	-11.09
283.983	128.17
284.198	64.68
284.413	52.39
284.628	-45.91
284.843	19.63
285.058	117.93
285.274	9.39
285.489	17.58
285.704	99.5
285.919	-27.48
286.134	50.35
286.349	-35.67
286.564	-35.67
286.779	126.12
286.995	19.63
287.21	-33.62
287.425	31.91
287.64	-60.24
287.855	38.06
288.07	-105.3
288.285	74.92
288.5	99.5
288.715	48.3
288.93	3.24
289.145	-25.43
289.36	95.4
289.575	-7
289.79	81.07
290.004	11.43
290.219	115.88
290.434	3.24
290.649	-2.9
290.864	76.97
291.079	62.63
291.294	-9.05
291.509	54.44
291.724	-4.95
291.938	-39.76
292.153	21.67
292.368	-80.72
292.583	107.69
292.798	27.82
293.012	7.34
293.227	87.21
293.442	1.19
293.657	83.11
293.871	81.07
294.086	76.97
294.301	201.9
294.516	81.07
294.73	85.16
294.945	29.87
295.16	-17.24
295.374	99.5
295.589	91.31
295.804	-35.67
296.018	50.35
296.233	87.21
296.447	-17.24
296.662	-50
296.877	132.26
297.091	119.98
297.306	36.01
297.52	21.67
297.735	25.77
297.949	54.44
298.164	81.07
298.378	15.53
298.593	46.25
298.807	9.39
299.022	1.19
299.236	52.39
299.451	11.43
299.665	76.97
299.88	72.87
300.094	25.77
300.309	40.11
300.523	31.91
300.737	13.48
300.952	62.63
301.166	105.64
301.381	-29.52
301.595	-54.1
301.809	15.53
302.024	-4.95
302.238	-7
302.452	193.7
302.667	60.59
302.881	148.65
303.095	89.26
303.309	87.21
303.524	-0.85
303.738	83.11
303.952	-2.9
304.166	-11.09
304.381	-101.2
304.595	113.83
304.809	-19.29
305.023	83.11
305.237	-41.81
305.452	52.39
305.666	-86.87
305.88	76.97
306.094	-0.85
306.308	5.29
306.522	48.3
306.736	107.69
306.95	15.53
307.164	-9.05
307.379	15.53
307.593	148.65
307.807	83.11
308.021	64.68
308.235	87.21
308.449	-23.38
308.663	60.59
308.877	191.66
309.091	87.21
309.305	81.07
309.519	-76.63
309.733	122.02
309.947	-93.01
310.161	140.46
310.374	144.55
310.588	91.31
310.802	15.53
311.016	-25.43
311.23	66.73
311.444	-66.39
311.658	40.11
311.872	113.83
312.085	70.83
312.299	134.31
312.513	81.07
312.727	54.44
312.941	-80.72
313.154	60.59
313.368	62.63
313.582	19.63
313.796	40.11
314.009	-39.76
314.223	128.17
314.437	42.15
314.651	40.11
314.864	-4.95
315.078	7.34
315.292	-39.76
315.505	31.91
315.719	132.26
315.933	99.5
316.146	-70.48
316.36	-19.29
316.573	23.72
316.787	81.07
317.001	17.58
317.214	-15.19
317.428	36.01
317.641	-35.67
317.855	-25.43
318.068	42.15
318.282	21.67
318.495	117.93
318.709	91.31
318.922	19.63
319.136	197.8
319.349	89.26
319.563	-21.33
319.776	64.68
319.99	-82.77
320.203	85.16
320.417	-15.19
320.63	72.87
320.843	208.04
321.057	124.07
321.27	-13.14
321.483	44.2
321.697	140.46
321.91	74.92
322.124	58.54
322.337	33.96
322.55	-43.86
322.763	83.11
322.977	50.35
323.19	66.73
323.403	13.48
323.617	1.19
323.83	128.17
324.043	-31.57
324.256	-37.72
324.469	-58.2
324.683	195.75
324.896	54.44
325.109	56.49
325.322	-25.43
325.535	109.74
325.748	109.74
325.962	-9.05
326.175	132.26
326.388	97.45
326.601	105.64
326.814	-37.72
327.027	36.01
327.24	132.26
327.453	-68.44
327.666	42.15
327.879	136.36
328.092	44.2
328.305	62.63
328.518	-29.52
328.731	27.82
328.944	-21.33
329.157	50.35
329.37	42.15
329.583	103.59
329.796	130.22
330.009	11.43
330.222	91.31
330.435	119.98
330.648	68.78
330.861	38.06
331.073	25.77
331.286	160.94
331.499	76.97
331.712	-9.05
331.925	42.15
332.138	-25.43
332.35	124.07
332.563	36.01
332.776	136.36
332.989	-43.86
333.202	9.39
333.414	-23.38
333.627	36.01
333.84	-4.95
334.053	40.11
334.265	-62.29
334.478	60.59
334.691	29.87
334.903	25.77
335.116	-19.29
335.329	-7
335.541	111.78
335.754	132.26
335.966	-27.48
336.179	79.02
336.392	19.63
336.604	-47.96
336.817	103.59
337.029	-29.52
337.242	85.16
337.454	40.11
337.667	-7
337.88	46.25
338.092	-37.72
338.305	54.44
338.517	-21.33
338.729	74.92
338.942	154.79
339.154	-47.96
339.367	-0.85
339.579	177.32
339.792	-23.38
340.004	58.54
340.217	-39.76
340.429	64.68
340.641	-72.53
340.854	7.34
341.066	-29.52
341.278	103.59
341.491	158.89
341.703	-4.95
341.915	-25.43
342.128	97.45
342.34	-27.48
342.552	3.24
342.764	-54.1
342.977	-4.95
343.189	60.59
343.401	-45.91
343.613	-72.53
343.826	3.24
344.038	-9.05
344.25	38.06
344.462	-33.62
344.674	17.58
344.886	-64.34
345.099	42.15
345.311	85.16
345.523	27.82
345.735	-78.68
345.947	42.15
346.159	117.93
346.371	107.69
346.583	-68.44
346.795	179.37
347.007	-4.95
347.219	132.26
347.431	31.91
347.643	152.74
347.855	5.29
348.067	85.16
348.279	-103.25
348.491	-4.95
348.703	44.2
348.915	-27.48
349.127	-82.77
349.339	9.39
349.551	-27.48
349.763	89.26
349.975	93.35
350.187	74.92
350.399	177.32
350.61	130.22
350.822	-45.91
351.034	91.31
351.246	85.16
351.458	-7
351.669	87.21
351.881	42.15
352.093	136.36
352.305	111.78
352.517	79.02
352.728	113.83
352.94	23.72
353.152	76.97
353.363	5.29
353.575	21.67
353.787	154.79
353.999	111.78
354.21	158.89
354.422	48.3
354.633	5.29
354.845	1.19
355.057	64.68
355.268	31.91
355.48	-7
355.692	-82.77
355.903	93.35
356.115	-15.19
356.326	-105.3
356.538	218.28
356.749	23.72
356.961	56.49
357.172	-21.33
357.384	-21.33
357.595	234.66
357.807	48.3
358.018	-4.95
358.23	54.44
358.441	81.07
358.653	60.59
358.864	44.2
359.075	-62.29
359.287	97.45
359.498	122.02
359.709	93.35
359.921	76.97
360.132	85.16
360.344	21.67
360.555	-47.96
360.766	58.54
360.977	68.78
361.189	115.88
361.4	36.01
361.611	115.88
361.823	68.78
362.034	-2.9
362.245	-105.3
362.456	-9.05
362.667	79.02
362.879	-37.72
363.09	33.96
363.301	13.48
363.512	27.82
363.723	-47.96
363.935	-29.52
364.146	97.45
364.357	-88.92
364.568	-70.48
364.779	-72.53
364.99	119.98
365.201	-88.92
365.412	113.83
365.623	-148.31
365.834	79.02
366.045	29.87
366.256	23.72
366.467	93.35
366.678	38.06
366.889	115.88
367.1	-50
367.311	140.46
367.522	13.48
367.733	85.16
367.944	74.92
368.155	72.87
368.366	128.17
368.577	-7
368.788	169.13
368.999	-19.29
369.209	-64.34
369.42	158.89
369.631	244.9
369.842	113.83
370.053	60.59
370.264	9.39
370.474	-97.11
370.685	85.16
370.896	50.35
371.107	64.68
371.317	115.88
371.528	-56.15
371.739	111.78
371.95	173.22
372.16	89.26
372.371	-9.05
372.582	-13.14
372.792	40.11
373.003	38.06
373.214	60.59
373.424	31.91
373.635	48.3
373.846	144.55
374.056	-9.05
374.267	81.07
374.477	31.91
374.688	-47.96
374.898	87.21
375.109	-25.43
375.319	21.67
375.53	93.35
375.74	54.44
375.951	1.19
376.161	70.83
376.372	111.78
376.582	21.67
376.793	1.19
377.003	-21.33
377.214	54.44
377.424	91.31
377.635	64.68
377.845	-29.52
378.055	81.07
378.266	-64.34
378.476	66.73
378.686	107.69
378.897	38.06
379.107	109.74
379.317	38.06
379.528	31.91
379.738	113.83
379.948	-78.68
380.158	85.16
380.369	31.91
380.579	23.72
380.789	-0.85
380.999	91.31
381.21	119.98
381.42	169.13
381.63	48.3
381.84	142.5
382.05	-4.95
382.261	60.59
382.471	208.04
382.681	23.72
382.891	167.08
383.101	25.77
383.311	-43.86
383.521	-17.24
383.731	107.69
383.941	105.64
384.151	136.36
384.361	-35.67
384.571	56.49
384.781	-17.24
384.991	177.32
385.201	165.03
385.411	130.22
385.621	33.96
385.831	50.35
386.041	-13.14
386.251	27.82
386.461	36.01
386.671	40.11
386.881	-27.48
387.091	70.83
387.301	101.55
387.511	62.63
387.72	1.19
387.93	126.12
388.14	-127.83
388.35	58.54
388.56	85.16
388.769	44.2
388.979	95.4
389.189	-76.63
389.399	38.06
389.609	44.2
389.818	113.83
390.028	-21.33
390.238	76.97
390.447	54.44
390.657	58.54
390.867	19.63
391.076	-80.72
391.286	33.96
391.496	109.74
391.705	29.87
391.915	150.7
392.125	93.35
392.334	97.45
392.544	185.51
392.753	33.96
392.963	-25.43
393.172	117.93
393.382	21.67
393.591	169.13
393.801	-19.29
394.01	162.98
394.22	134.31
394.429	-31.57
394.639	-45.91
394.848	44.2
395.058	36.01
395.267	-4.95
395.477	74.92
395.686	72.87
395.895	134.31
396.105	183.46
396.314	91.31
396.524	42.15
396.733	-74.58
396.942	79.02
397.152	-0.85
397.361	128.17
397.57	48.3
397.78	7.34
397.989	105.64
398.198	218.28
398.407	-13.14
398.617	-27.48
398.826	76.97
399.035	-29.52
399.244	87.21
399.453	91.31
399.663	76.97
399.872	95.4
400.081	-64.34
400.29	158.89
400.499	13.48
400.708	167.08
400.917	31.91
401.127	36.01
401.336	33.96
401.545	79.02
401.754	142.5
401.963	31.91
402.172	-7
402.381	-72.53
402.59	25.77
402.799	109.74
403.008	103.59
403.217	21.67
403.426	68.78
403.635	5.29
403.844	-31.57
404.053	-54.1
404.262	68.78
404.471	197.8
404.68	119.98
404.888	13.48
405.097	-31.57
405.306	74.92
405.515	95.4
405.724	5.29
405.933	70.83
406.142	66.73
406.35	173.22
406.559	1.19
406.768	60.59
406.977	124.07
407.185	-9.05
407.394	144.55
407.603	-97.11
407.812	-29.52
408.02	56.49
408.229	50.35
408.438	101.55
408.646	-15.19
408.855	68.78
409.064	36.01
409.272	97.45
409.481	66.73
409.69	9.39
409.898	-37.72
410.107	33.96
410.315	134.31
410.524	9.39
410.733	27.82
410.941	-19.29
411.15	64.68
411.358	105.64
411.567	126.12
411.775	36.01
411.984	5.29
412.192	95.4
412.401	-11.09
412.609	171.18
412.818	181.42
413.026	44.2
413.234	-11.09
413.443	31.91
413.651	-4.95
413.86	54.44
414.068	109.74
414.276	210.09
414.485	17.58
414.693	130.22
414.901	93.35
415.11	48.3
415.318	-7
415.526	87.21
415.734	134.31
415.943	48.3
416.151	111.78
416.359	62.63
416.567	126.12
416.776	95.4
416.984	124.07
417.192	81.07
417.4	17.58
417.608	-0.85
417.817	-0.85
418.025	58.54
418.233	167.08
418.441	-15.19
418.649	33.96
418.857	81.07
419.065	140.46
419.273	-11.09
419.481	95.4
419.689	83.11
419.897	-27.48
420.105	62.63
420.313	83.11
420.521	142.5
420.729	185.51
420.937	11.43
421.145	13.48
421.353	111.78
421.561	81.07
421.769	126.12
421.977	-43.86
422.185	79.02
422.393	50.35
422.601	134.31
422.809	54.44
423.017	117.93
423.224	79.02
423.432	122.02
423.64	-29.52
423.848	111.78
424.056	-0.85
424.263	150.7
424.471	1.19
424.679	148.65
424.887	27.82
425.094	60.59
425.302	165.03
425.51	-11.09
425.718	76.97
425.925	113.83
426.133	-25.43
426.341	134.31
426.548	-7
426.756	44.2
426.964	9.39
427.171	-31.57
427.379	31.91
427.586	38.06
427.794	167.08
428.001	74.92
428.209	113.83
428.417	97.45
428.624	136.36
428.832	72.87
429.039	66.73
429.247	27.82
429.454	-17.24
429.662	224.42
429.869	97.45
430.076	62.63
430.284	183.46
430.491	177.32
430.699	117.93
430.906	197.8
431.114	68.78
431.321	130.22
431.528	23.72
431.736	113.83
431.943	226.47
432.15	142.5
432.358	48.3
432.565	195.75
432.772	-99.16
432.979	214.18
433.187	97.45
433.394	156.84
433.601	44.2
433.808	216.23
434.016	197.8
434.223	152.74
434.43	203.94
434.637	160.94
434.844	230.57
435.052	130.22
435.259	246.95
435.466	179.37
435.673	140.46
435.88	253.09
436.087	177.32
436.294	263.33
436.501	205.99
436.708	167.08
436.915	230.57
437.122	257.19
437.329	122.02
437.537	201.9
437.743	242.85
437.95	332.97
438.157	292.01
438.364	240.81
438.571	156.84
438.778	353.45
438.985	222.38
439.192	375.97
439.399	365.73
439.606	320.68
439.813	382.12
440.02	447.65
440.227	494.76
440.433	416.93
440.64	380.07
440.847	375.97
441.054	396.45
441.261	515.23
441.467	457.89
441.674	378.02
441.881	523.43
442.088	404.64
442.294	543.91
442.501	539.81
442.708	576.67
442.914	560.29
443.121	578.72
443.328	658.59
443.534	672.93
443.741	642.21
443.948	523.43
444.154	758.94
444.361	844.96
444.568	728.22
444.774	797.85
444.981	703.65
445.187	881.82
445.394	777.37
445.6	726.18
445.807	930.97
446.013	947.36
446.22	791.71
446.426	961.69
446.633	1043.61
446.839	1137.82
447.046	1000.6
447.252	1100.95
447.459	1109.15
447.665	1150.11
447.871	1258.65
448.078	1330.33
448.284	1309.85
448.491	1449.11
448.697	1528.98
448.903	1553.55
449.11	1539.22
449.316	1539.22
449.522	1645.71
449.728	1799.31
449.935	1739.92
450.141	1784.98
450.347	1856.65
450.553	1881.23
450.76	1985.68
450.966	2000.01
451.172	1985.68
451.378	2120.84
451.584	2221.19
451.791	2389.13
451.997	2497.67
452.203	2550.92
452.409	2731.14
452.615	2632.83
452.821	2610.31
453.027	2722.95
453.233	3175.55
453.44	3005.56
453.646	3071.1
453.852	3339.38
454.058	3218.55
454.264	3402.87
454.47	3669.11
454.676	3685.49
454.882	3961.97
455.088	3685.49
455.294	4134
455.5	4211.82
455.705	4467.81
455.911	4605.03
456.117	4752.48
456.323	4879.46
456.529	5002.33
456.735	5196.89
456.941	5409.88
457.147	5598.29
457.352	5848.15
457.558	5899.34
457.764	6294.6
457.97	6421.58
458.176	6710.34
458.381	6941.76
458.587	7062.59
458.793	7437.37
458.999	7461.94
459.204	8463.4
459.41	8690.73
459.616	8578.09
459.821	9208.86
460.027	9395.23
460.233	9931.8
460.438	10071.06
460.644	10572.81
460.85	10535.95
461.055	10970.12
461.261	11559.93
461.466	11389.95
461.672	11568.12
461.878	12952.55
462.083	12921.83
462.289	12833.77
462.494	13720.54
462.7	13822.94
462.905	13728.73
463.111	15072.2
463.316	15666.11
463.522	16120.76
463.727	16507.82
463.932	17109.93
464.138	17589.15
464.343	18576.27
464.549	18471.82
464.754	19800.96
464.959	20226.93
465.165	20919.15
465.37	20747.12
465.575	20630.38
465.781	22149.98
465.986	22614.87
466.191	22483.8
466.397	22403.92
466.602	22086.49
466.807	22944.59
467.012	23696.19
467.218	24034.11
467.423	24261.43
467.628	24558.39
467.833	26055.45
468.038	25430.82
468.244	25111.34
468.449	26456.85
468.654	26012.45
468.859	25838.37
469.064	26006.3
