Data from USB4F104151__92__11-31-41-760.txt Node

Date: Wed Feb 26 11:31:41 EST 2025
User: louis
Spectrometer: USB4F10415
Trigger mode: 4
Integration Time (sec): 1.000000E-1
Scans to average: 1
Electric dark correction enabled: true
Nonlinearity correction enabled: false
Boxcar width: 0
XAxis mode: Wavelengths
Number of Pixels in Spectrum: 3648
>>>>>Begin Spectral Data<<<<<
178.204	-358.74
178.424	-358.74
178.644	-358.74
178.864	-420.17
179.084	-395.6
179.304	-20.82
179.524	-88.4
179.744	-74.07
179.964	67.24
180.184	52.91
180.404	69.29
180.624	-55.64
180.844	28.33
181.064	-31.06
181.283	57
181.503	-24.92
181.723	20.14
181.943	-125.27
182.163	151.21
182.383	24.23
182.602	-0.34
182.822	134.82
183.042	130.73
183.262	-45.4
183.482	16.04
183.701	28.33
183.921	9.9
184.141	-2.39
184.361	73.39
184.58	112.3
184.8	75.43
185.02	-18.77
185.239	63.15
185.459	32.43
185.679	118.44
185.898	-149.84
186.118	61.1
186.338	13.99
186.557	159.4
186.777	-6.49
186.997	-22.87
187.216	5.8
187.436	124.58
187.655	132.78
187.875	147.11
188.095	-16.73
188.314	167.59
188.534	200.36
188.753	-94.55
188.973	102.06
189.192	179.88
189.412	-45.4
189.631	22.19
189.851	106.15
190.07	118.44
190.29	-82.26
190.509	7.85
190.729	54.95
190.948	163.5
191.168	235.18
191.387	159.4
191.607	-10.58
191.826	57
192.045	34.47
192.265	-6.49
192.484	202.41
192.704	48.81
192.923	-74.07
193.142	181.93
193.362	38.57
193.581	30.38
193.8	83.63
194.02	100.01
194.239	13.99
194.458	65.19
194.678	50.86
194.897	-10.58
195.116	26.28
195.335	48.81
195.555	28.33
195.774	40.62
195.993	75.43
196.212	42.67
196.432	18.09
196.651	-59.73
196.87	67.24
197.089	229.03
197.308	-12.63
197.528	95.91
197.747	-10.58
197.966	91.82
198.185	149.16
198.404	30.38
198.623	38.57
198.842	120.49
199.062	120.49
199.281	157.35
199.5	16.04
199.719	116.39
199.938	91.82
200.157	79.53
200.376	83.63
200.595	183.98
200.814	118.44
201.033	42.67
201.252	163.5
201.471	67.24
201.69	126.63
201.909	38.57
202.128	106.15
202.347	61.1
202.566	132.78
202.785	-22.87
203.004	7.85
203.223	298.66
203.442	3.75
203.661	-18.77
203.879	77.48
204.098	177.83
204.317	46.76
204.536	108.2
204.755	122.54
204.974	177.83
205.193	-26.96
205.411	118.44
205.63	171.69
205.849	28.33
206.068	52.91
206.287	-88.4
206.505	114.34
206.724	67.24
206.943	-67.92
207.162	-33.11
207.381	97.96
207.599	20.14
207.818	85.67
208.037	-8.53
208.255	34.47
208.474	93.87
208.693	-8.53
208.911	-33.11
209.13	91.82
209.349	130.73
209.567	161.45
209.786	16.04
210.005	85.67
210.223	114.34
210.442	-78.16
210.661	57
210.879	81.58
211.098	-26.96
211.316	112.3
211.535	46.76
211.753	26.28
211.972	3.75
212.191	36.52
212.409	22.19
212.628	83.63
212.846	-14.68
213.065	-16.73
213.283	112.3
213.502	3.75
213.72	83.63
213.938	-16.73
214.157	63.15
214.375	89.77
214.594	46.76
214.812	102.06
215.031	34.47
215.249	71.34
215.467	91.82
215.686	85.67
215.904	77.48
216.122	-31.06
216.341	124.58
216.559	32.43
216.778	106.15
216.996	100.01
217.214	57
217.432	-2.39
217.651	-61.78
217.869	61.1
218.087	38.57
218.306	-2.39
218.524	-0.34
218.742	36.52
218.96	61.1
219.179	-29.01
219.397	18.09
219.615	259.75
219.833	54.95
220.051	67.24
220.27	134.82
220.488	136.87
220.706	-0.34
220.924	-18.77
221.142	38.57
221.36	63.15
221.578	48.81
221.796	18.09
222.015	42.67
222.233	11.95
222.451	190.12
222.669	-22.87
222.887	73.39
223.105	-55.64
223.323	67.24
223.541	-53.59
223.759	61.1
223.977	26.28
224.195	163.5
224.413	126.63
224.631	100.01
224.849	75.43
225.067	208.55
225.285	-59.73
225.503	-41.3
225.721	-67.92
225.939	36.52
226.157	77.48
226.375	280.23
226.592	3.75
226.81	34.47
227.028	91.82
227.246	159.4
227.464	44.71
227.682	110.25
227.9	-18.77
228.117	75.43
228.335	114.34
228.553	61.1
228.771	34.47
228.989	38.57
229.206	81.58
229.424	-16.73
229.642	13.99
229.86	3.75
230.077	116.39
230.295	40.62
230.513	112.3
230.731	79.53
230.948	179.88
231.166	177.83
231.384	42.67
231.601	-37.2
231.819	163.5
232.037	-43.35
232.254	-24.92
232.472	-24.92
232.689	59.05
232.907	108.2
233.125	-20.82
233.342	11.95
233.56	5.8
233.777	-12.63
233.995	-14.68
234.213	97.96
234.43	118.44
234.648	-0.34
234.865	20.14
235.083	77.48
235.3	7.85
235.518	108.2
235.735	114.34
235.953	57
236.17	28.33
236.388	44.71
236.605	77.48
236.822	149.16
237.04	106.15
237.257	77.48
237.475	-55.64
237.692	-14.68
237.909	9.9
238.127	-6.49
238.344	153.26
238.562	73.39
238.779	42.67
238.996	65.19
239.214	18.09
239.431	79.53
239.648	18.09
239.865	132.78
240.083	61.1
240.3	1.71
240.517	36.52
240.735	-31.06
240.952	134.82
241.169	114.34
241.386	24.23
241.603	-33.11
241.821	-29.01
242.038	57
242.255	57
242.472	7.85
242.689	91.82
242.907	122.54
243.124	48.81
243.341	59.05
243.558	30.38
243.775	-41.3
243.992	22.19
244.209	-22.87
244.426	171.69
244.643	69.29
244.86	16.04
245.078	112.3
245.295	102.06
245.512	-0.34
245.729	32.43
245.946	83.63
246.163	16.04
246.38	1.71
246.597	120.49
246.814	-4.44
247.031	59.05
247.248	44.71
247.464	73.39
247.681	20.14
247.898	57
248.115	40.62
248.332	-53.59
248.549	132.78
248.766	165.54
248.983	100.01
249.2	136.87
249.417	179.88
249.633	9.9
249.85	67.24
250.067	11.95
250.284	18.09
250.501	50.86
250.717	75.43
250.934	-45.4
251.151	28.33
251.368	-6.49
251.585	89.77
251.801	24.23
252.018	-82.26
252.235	173.74
252.451	-18.77
252.668	67.24
252.885	140.97
253.102	69.29
253.318	-4.44
253.535	3.75
253.752	-33.11
253.968	-22.87
254.185	-104.79
254.401	11.95
254.618	42.67
254.835	7.85
255.051	163.5
255.268	83.63
255.484	50.86
255.701	48.81
255.917	69.29
256.134	11.95
256.351	132.78
256.567	-14.68
256.784	-65.88
257	34.47
257.217	65.19
257.433	79.53
257.65	59.05
257.866	122.54
258.082	3.75
258.299	-90.45
258.515	87.72
258.732	61.1
258.948	-51.54
259.165	57
259.381	-43.35
259.597	108.2
259.814	34.47
260.03	42.67
260.246	-24.92
260.463	122.54
260.679	91.82
260.895	13.99
261.112	83.63
261.328	69.29
261.544	16.04
261.761	155.3
261.977	65.19
262.193	-6.49
262.409	143.02
262.626	36.52
262.842	57
263.058	-18.77
263.274	116.39
263.49	9.9
263.707	136.87
263.923	61.1
264.139	-67.92
264.355	34.47
264.571	136.87
264.787	22.19
265.004	130.73
265.22	44.71
265.436	-26.96
265.652	108.2
265.868	52.91
266.084	-12.63
266.3	81.58
266.516	-45.4
266.732	38.57
266.948	69.29
267.164	18.09
267.38	100.01
267.596	44.71
267.812	171.69
268.028	-22.87
268.244	28.33
268.46	69.29
268.676	38.57
268.892	65.19
269.108	-22.87
269.324	32.43
269.54	13.99
269.756	124.58
269.972	-24.92
270.188	-14.68
270.403	-155.99
270.619	-57.68
270.835	65.19
271.051	40.62
271.267	-22.87
271.483	16.04
271.698	120.49
271.914	63.15
272.13	126.63
272.346	-2.39
272.562	5.8
272.777	190.12
272.993	-57.68
273.209	-10.58
273.425	54.95
273.64	-0.34
273.856	69.29
274.072	5.8
274.287	-22.87
274.503	75.43
274.719	91.82
274.934	-12.63
275.15	-35.16
275.366	22.19
275.581	5.8
275.797	83.63
276.012	100.01
276.228	-20.82
276.444	24.23
276.659	151.21
276.875	-4.44
277.09	18.09
277.306	-6.49
277.521	104.11
277.737	30.38
277.952	11.95
278.168	112.3
278.383	52.91
278.599	18.09
278.814	85.67
279.03	5.8
279.245	85.67
279.461	-2.39
279.676	145.06
279.892	-80.21
280.107	18.09
280.322	44.71
280.538	16.04
280.753	30.38
280.969	79.53
281.184	9.9
281.399	177.83
281.615	138.92
281.83	65.19
282.045	-39.25
282.26	52.91
282.476	116.39
282.691	118.44
282.906	136.87
283.122	46.76
283.337	-35.16
283.552	130.73
283.767	22.19
283.983	75.43
284.198	11.95
284.413	44.71
284.628	-37.2
284.843	83.63
285.058	85.67
285.274	28.33
285.489	-20.82
285.704	128.68
285.919	-43.35
286.134	52.91
286.349	69.29
286.564	-14.68
286.779	95.91
286.995	54.95
287.21	-14.68
287.425	91.82
287.64	-24.92
287.855	85.67
288.07	13.99
288.285	100.01
288.5	112.3
288.715	108.2
288.93	38.57
289.145	32.43
289.36	159.4
289.575	46.76
289.79	136.87
290.004	3.75
290.219	136.87
290.434	-10.58
290.649	1.71
290.864	-6.49
291.079	42.67
291.294	46.76
291.509	59.05
291.724	-14.68
291.938	11.95
292.153	108.2
292.368	63.15
292.583	46.76
292.798	104.11
293.012	120.49
293.227	30.38
293.442	-22.87
293.657	114.34
293.871	126.63
294.086	71.34
294.301	212.65
294.516	87.72
294.73	59.05
294.945	-63.83
295.16	-51.54
295.374	77.48
295.589	122.54
295.804	24.23
296.018	9.9
296.233	167.59
296.447	73.39
296.662	-55.64
296.877	192.17
297.091	118.44
297.306	40.62
297.52	85.67
297.735	65.19
297.949	57
298.164	65.19
298.378	136.87
298.593	-76.12
298.807	-0.34
299.022	22.19
299.236	165.54
299.451	34.47
299.665	-4.44
299.88	57
300.094	91.82
300.309	-12.63
300.523	87.72
300.737	28.33
300.952	108.2
301.166	81.58
301.381	-76.12
301.595	50.86
301.809	-6.49
302.024	24.23
302.238	20.14
302.452	149.16
302.667	71.34
302.881	110.25
303.095	83.63
303.309	50.86
303.524	46.76
303.738	13.99
303.952	52.91
304.166	3.75
304.381	-96.6
304.595	153.26
304.809	26.28
305.023	32.43
305.237	16.04
305.452	73.39
305.666	118.44
305.88	67.24
306.094	122.54
306.308	100.01
306.522	75.43
306.736	104.11
306.95	173.74
307.164	18.09
307.379	-20.82
307.593	196.26
307.807	118.44
308.021	108.2
308.235	40.62
308.449	-22.87
308.663	32.43
308.877	272.04
309.091	91.82
309.305	75.43
309.519	-18.77
309.733	118.44
309.947	-8.53
310.161	67.24
310.374	44.71
310.588	222.89
310.802	32.43
311.016	-8.53
311.23	138.92
311.444	-8.53
311.658	89.77
311.872	124.58
312.085	95.91
312.299	124.58
312.513	157.35
312.727	63.15
312.941	-33.11
313.154	48.81
313.368	24.23
313.582	40.62
313.796	24.23
314.009	71.34
314.223	104.11
314.437	104.11
314.651	57
314.864	-31.06
315.078	42.67
315.292	-43.35
315.505	-10.58
315.719	171.69
315.933	132.78
316.146	7.85
316.36	-76.12
316.573	38.57
316.787	175.78
317.001	91.82
317.214	-37.2
317.428	120.49
317.641	-10.58
317.855	-51.54
318.068	28.33
318.282	79.53
318.495	163.5
318.709	73.39
318.922	42.67
319.136	108.2
319.349	100.01
319.563	7.85
319.776	69.29
319.99	-22.87
320.203	28.33
320.417	36.52
320.63	153.26
320.843	181.93
321.057	5.8
321.27	30.38
321.483	89.77
321.697	81.58
321.91	54.95
322.124	85.67
322.337	93.87
322.55	-41.3
322.763	52.91
322.977	-33.11
323.19	83.63
323.403	30.38
323.617	75.43
323.83	126.63
324.043	89.77
324.256	48.81
324.469	-8.53
324.683	183.98
324.896	59.05
325.109	118.44
325.322	-29.01
325.535	159.4
325.748	100.01
325.962	16.04
326.175	97.96
326.388	48.81
326.601	177.83
326.814	9.9
327.027	38.57
327.24	161.45
327.453	-72.02
327.666	126.63
327.879	147.11
328.092	102.06
328.305	44.71
328.518	13.99
328.731	85.67
328.944	40.62
329.157	102.06
329.37	54.95
329.583	204.46
329.796	147.11
330.009	46.76
330.222	108.2
330.435	120.49
330.648	83.63
330.861	52.91
331.073	67.24
331.286	71.34
331.499	114.34
331.712	-20.82
331.925	24.23
332.138	67.24
332.35	65.19
332.563	-59.73
332.776	91.82
332.989	26.28
333.202	13.99
333.414	11.95
333.627	16.04
333.84	52.91
334.053	22.19
334.265	102.06
334.478	9.9
334.691	42.67
334.903	145.06
335.116	73.39
335.329	118.44
335.541	75.43
335.754	87.72
335.966	-57.68
336.179	69.29
336.392	-37.2
336.604	-22.87
336.817	136.87
337.029	71.34
337.242	36.52
337.454	93.87
337.667	38.57
337.88	171.69
338.092	69.29
338.305	71.34
338.517	-0.34
338.729	112.3
338.942	177.83
339.154	-43.35
339.367	-63.83
339.579	118.44
339.792	44.71
340.004	188.07
340.217	40.62
340.429	30.38
340.641	-10.58
340.854	-57.68
341.066	59.05
341.278	190.12
341.491	163.5
341.703	42.67
341.915	-8.53
342.128	11.95
342.34	-29.01
342.552	16.04
342.764	-2.39
342.977	28.33
343.189	83.63
343.401	-16.73
343.613	-10.58
343.826	71.34
344.038	-82.26
344.25	30.38
344.462	22.19
344.674	145.06
344.886	112.3
345.099	34.47
345.311	79.53
345.523	79.53
345.735	-96.6
345.947	122.54
346.159	32.43
346.371	67.24
346.583	34.47
346.795	194.22
347.007	42.67
347.219	89.77
347.431	-45.4
347.643	87.72
347.855	1.71
348.067	177.83
348.279	-57.68
348.491	5.8
348.703	71.34
348.915	11.95
349.127	-53.59
349.339	112.3
349.551	24.23
349.763	81.58
349.975	52.91
350.187	30.38
350.399	128.68
350.61	61.1
350.822	1.71
351.034	42.67
351.246	11.95
351.458	136.87
351.669	57
351.881	67.24
352.093	204.46
352.305	138.92
352.517	11.95
352.728	179.88
352.94	61.1
353.152	75.43
353.363	-76.12
353.575	-6.49
353.787	73.39
353.999	93.87
354.21	210.6
354.422	-8.53
354.633	46.76
354.845	100.01
355.057	61.1
355.268	24.23
355.48	118.44
355.692	-86.36
355.903	32.43
356.115	-94.55
356.326	-82.26
356.538	165.54
356.749	155.3
356.961	71.34
357.172	-51.54
357.384	-37.2
357.595	263.85
357.807	-29.01
358.018	24.23
358.23	5.8
358.441	183.98
358.653	118.44
358.864	44.71
359.075	-16.73
359.287	54.95
359.498	112.3
359.709	149.16
359.921	28.33
360.132	91.82
360.344	1.71
360.555	42.67
360.766	59.05
360.977	87.72
361.189	167.59
361.4	71.34
361.611	108.2
361.823	169.64
362.034	106.15
362.245	-74.07
362.456	30.38
362.667	73.39
362.879	-82.26
363.09	52.91
363.301	81.58
363.512	-4.44
363.723	-86.36
363.935	20.14
364.146	114.34
364.357	18.09
364.568	-10.58
364.779	-72.02
364.99	212.65
365.201	-29.01
365.412	79.53
365.623	-59.73
365.834	91.82
366.045	54.95
366.256	100.01
366.467	81.58
366.678	18.09
366.889	30.38
367.1	52.91
367.311	102.06
367.522	-24.92
367.733	83.63
367.944	110.25
368.155	9.9
368.366	112.3
368.577	108.2
368.788	190.12
368.999	61.1
369.209	26.28
369.42	188.07
369.631	159.4
369.842	85.67
370.053	89.77
370.264	106.15
370.474	34.47
370.685	63.15
370.896	28.33
371.107	147.11
371.317	57
371.528	18.09
371.739	157.35
371.95	114.34
372.16	65.19
372.371	-49.49
372.582	40.62
372.792	75.43
373.003	63.15
373.214	11.95
373.424	91.82
373.635	-22.87
373.846	163.5
374.056	79.53
374.267	95.91
374.477	-33.11
374.688	50.86
374.898	30.38
375.109	28.33
375.319	26.28
375.53	77.48
375.74	85.67
375.951	104.11
376.161	32.43
376.372	52.91
376.582	40.62
376.793	67.24
377.003	59.05
377.214	22.19
377.424	93.87
377.635	130.73
377.845	59.05
378.055	97.96
378.266	-35.16
378.476	44.71
378.686	65.19
378.897	118.44
379.107	138.92
379.317	83.63
379.528	7.85
379.738	73.39
379.948	-76.12
380.158	65.19
380.369	26.28
380.579	136.87
380.789	54.95
380.999	112.3
381.21	75.43
381.42	216.74
381.63	20.14
381.84	147.11
382.05	85.67
382.261	151.21
382.471	102.06
382.681	30.38
382.891	157.35
383.101	130.73
383.311	-41.3
383.521	-6.49
383.731	118.44
383.941	179.88
384.151	46.76
384.361	67.24
384.571	36.52
384.781	140.97
384.991	267.94
385.201	134.82
385.411	136.87
385.621	140.97
385.831	83.63
386.041	100.01
386.251	48.81
386.461	97.96
386.671	-69.97
386.881	79.53
387.091	-29.01
387.301	83.63
387.511	44.71
387.72	95.91
387.93	77.48
388.14	-33.11
388.35	102.06
388.56	93.87
388.769	153.26
388.979	48.81
389.189	-108.88
389.399	40.62
389.609	44.71
389.818	71.34
390.028	81.58
390.238	16.04
390.447	-18.77
390.657	75.43
390.867	-35.16
391.076	22.19
391.286	75.43
391.496	-16.73
391.705	38.57
391.915	116.39
392.125	112.3
392.334	108.2
392.544	132.78
392.753	44.71
392.963	-8.53
393.172	89.77
393.382	22.19
393.591	173.74
393.801	7.85
394.01	196.26
394.22	175.78
394.429	30.38
394.639	-24.92
394.848	89.77
395.058	28.33
395.267	42.67
395.477	81.58
395.686	83.63
395.895	177.83
396.105	239.27
396.314	89.77
396.524	79.53
396.733	46.76
396.942	124.58
397.152	138.92
397.361	104.11
397.57	130.73
397.78	-6.49
397.989	13.99
398.198	177.83
398.407	54.95
398.617	-0.34
398.826	54.95
399.035	28.33
399.244	140.97
399.453	143.02
399.663	46.76
399.872	83.63
400.081	-0.34
400.29	190.12
400.499	38.57
400.708	153.26
400.917	-22.87
401.127	22.19
401.336	57
401.545	229.03
401.754	136.87
401.963	69.29
402.172	-8.53
402.381	44.71
402.59	9.9
402.799	91.82
403.008	85.67
403.217	-8.53
403.426	48.81
403.635	-67.92
403.844	5.8
404.053	7.85
404.262	42.67
404.471	161.45
404.68	24.23
404.888	81.58
405.097	38.57
405.306	128.68
405.515	32.43
405.724	65.19
405.933	20.14
406.142	108.2
406.35	104.11
406.559	65.19
406.768	85.67
406.977	181.93
407.185	134.82
407.394	163.5
407.603	-49.49
407.812	124.58
408.02	161.45
408.229	85.67
408.438	65.19
408.646	-69.97
408.855	44.71
409.064	59.05
409.272	-2.39
409.481	89.77
409.69	1.71
409.898	-37.2
410.107	100.01
410.315	198.31
410.524	13.99
410.733	30.38
410.941	65.19
411.15	151.21
411.358	153.26
411.567	157.35
411.775	69.29
411.984	40.62
412.192	67.24
412.401	7.85
412.609	200.36
412.818	153.26
413.026	100.01
413.234	-8.53
413.443	13.99
413.651	-16.73
413.86	120.49
414.068	124.58
414.276	222.89
414.485	48.81
414.693	118.44
414.901	218.79
415.11	95.91
415.318	42.67
415.526	40.62
415.734	116.39
415.943	91.82
416.151	196.26
416.359	100.01
416.567	173.74
416.776	155.3
416.984	155.3
417.192	202.41
417.4	128.68
417.608	-2.39
417.817	89.77
418.025	122.54
418.233	173.74
418.441	-29.01
418.649	-0.34
418.857	57
419.065	186.02
419.273	36.52
419.481	40.62
419.689	149.16
419.897	59.05
420.105	-22.87
420.313	128.68
420.521	179.88
420.729	208.55
420.937	-0.34
421.145	-20.82
421.353	118.44
421.561	136.87
421.769	93.87
421.977	16.04
422.185	93.87
422.393	147.11
422.601	243.37
422.809	167.59
423.017	-53.59
423.224	112.3
423.432	83.63
423.64	89.77
423.848	212.65
424.056	40.62
424.263	132.78
424.471	57
424.679	134.82
424.887	26.28
425.094	208.55
425.302	147.11
425.51	42.67
425.718	165.54
425.925	100.01
426.133	-65.88
426.341	220.84
426.548	95.91
426.756	57
426.964	38.57
427.171	69.29
427.379	93.87
427.586	138.92
427.794	116.39
428.001	173.74
428.209	67.24
428.417	198.31
428.624	173.74
428.832	69.29
429.039	102.06
429.247	167.59
429.454	157.35
429.662	231.08
429.869	118.44
430.076	102.06
430.284	183.98
430.491	171.69
430.699	91.82
430.906	210.6
431.114	153.26
431.321	200.36
431.528	136.87
431.736	132.78
431.943	186.02
432.15	263.85
432.358	329.38
432.565	306.85
432.772	11.95
432.979	196.26
433.187	143.02
433.394	308.9
433.601	153.26
433.808	265.89
434.016	276.13
434.223	288.42
434.43	226.98
434.637	233.13
434.844	292.52
435.052	276.13
435.259	396.96
435.466	337.57
435.673	280.23
435.88	376.48
436.087	315.05
436.294	267.94
436.501	323.24
436.708	286.37
436.915	462.5
437.122	376.48
437.329	300.71
437.537	358.05
437.743	315.05
437.95	460.45
438.157	489.12
438.364	448.16
438.571	405.16
438.778	386.72
438.985	474.79
439.192	620.19
439.399	560.8
439.606	538.27
439.813	589.47
440.02	734.88
440.227	655.01
440.433	636.58
440.64	540.32
440.847	472.74
441.054	700.06
441.261	822.94
441.467	743.07
441.674	706.21
441.881	861.85
442.088	681.63
442.294	824.99
442.501	884.38
442.708	960.16
442.914	810.65
443.121	947.87
443.328	1056.41
443.534	1003.16
443.741	1068.7
443.948	913.05
444.154	1183.38
444.361	1197.72
444.568	1091.23
444.774	1177.24
444.981	1138.33
445.187	1339.03
445.394	1369.75
445.6	1396.37
445.807	1621.65
446.013	1541.78
446.22	1404.57
446.426	1615.51
446.633	1779.34
446.839	1914.51
447.046	1693.33
447.252	1887.89
447.459	1828.49
447.665	1906.32
447.871	2074.25
448.078	2209.42
448.284	2139.79
448.491	2320.01
448.697	2465.41
448.903	2459.27
449.11	2483.84
449.316	2576
449.522	2809.47
449.728	2756.22
449.935	2979.45
450.141	2995.84
450.347	3184.25
450.553	3094.14
450.76	3186.3
450.966	3434.1
451.172	3360.38
451.378	3565.17
451.584	3663.47
451.791	3898.99
451.997	4060.78
452.203	4075.12
452.409	4163.18
452.615	4470.37
452.821	4404.84
453.027	4515.43
453.233	5125.72
453.44	4873.82
453.646	5170.78
453.852	5234.27
454.058	5570.13
454.264	5799.51
454.47	6067.79
454.676	6129.23
454.882	6671.94
455.088	6383.18
455.294	6903.36
455.5	7102.01
455.705	7609.91
455.911	7513.66
456.117	7865.91
456.323	8150.57
456.529	8011.31
456.735	8744.49
456.941	9076.26
457.147	9330.2
457.352	9446.94
457.558	9934.36
457.764	10497.55
457.97	10866.18
458.176	11140.61
458.381	11664.89
458.587	12207.6
458.793	12799.46
458.999	12467.69
459.204	14104.02
459.41	14564.81
459.616	14540.24
459.821	15238.59
460.027	15809.98
460.233	16551.34
460.438	16559.53
460.644	17681.82
460.85	17757.6
461.055	18392.47
461.261	19283.33
461.466	19078.54
461.672	19443.07
461.878	21566.82
462.083	21288.29
462.289	21878.11
462.494	22687.06
462.7	22781.26
462.905	23315.78
463.111	25138.48
463.316	26541.33
463.522	26553.62
463.727	27688.2
463.932	28869.87
464.138	29367.53
464.343	30942.42
464.549	31136.98
464.754	33197.23
464.959	34239.65
465.165	34860.18
465.37	34315.42
465.575	34716.82
465.781	36652.16
465.986	37682.28
466.191	37289.07
466.397	37842.03
466.602	36611.2
466.807	38890.59
467.012	39216.21
467.218	39930.95
467.423	40283.2
467.628	40987.71
467.833	43475.99
468.038	42490.91
468.244	41724.97
468.449	43949.07
