Data from USB4F104151__71__09-29-40-593.txt Node

Date: Wed Feb 26 09:29:40 EST 2025
User: louis
Spectrometer: USB4F10415
Trigger mode: 4
Integration Time (sec): 1.000000E-1
Scans to average: 1
Electric dark correction enabled: true
Nonlinearity correction enabled: false
Boxcar width: 0
XAxis mode: Wavelengths
Number of Pixels in Spectrum: 3648
>>>>>Begin Spectral Data<<<<<
178.204	-308.56
178.424	-308.56
178.644	-308.56
178.864	-310.61
179.084	-361.81
179.304	2.73
179.524	-30.04
179.744	-21.85
179.964	-9.56
180.184	17.07
180.404	60.07
180.624	-13.65
180.844	-1.37
181.064	-27.99
181.283	37.55
181.503	-15.7
181.723	2.73
181.943	-66.9
182.163	164.52
182.383	-1.37
182.602	51.88
182.822	109.22
183.042	51.88
183.262	-103.76
183.482	6.83
183.701	8.87
183.921	27.31
184.141	-48.47
184.361	92.84
184.58	17.07
184.8	37.55
185.02	-54.61
185.239	146.09
185.459	-13.65
185.679	58.03
185.898	-73.04
186.118	-1.37
186.338	2.73
186.557	72.36
186.777	84.65
186.997	6.83
187.216	2.73
187.436	215.72
187.655	49.83
187.875	137.9
188.095	10.92
188.314	121.51
188.534	-19.8
188.753	-21.85
188.973	113.32
189.192	158.38
189.412	55.98
189.631	35.5
189.851	10.92
190.07	203.43
190.29	-1.37
190.509	0.68
190.729	88.75
190.948	86.7
191.168	225.96
191.387	80.55
191.607	-15.7
191.826	64.17
192.045	43.69
192.265	-7.51
192.484	76.46
192.704	4.78
192.923	29.35
193.142	125.61
193.362	92.84
193.581	144.04
193.8	-38.23
194.02	43.69
194.239	31.4
194.458	68.27
194.678	47.79
194.897	66.22
195.116	74.41
195.335	-15.7
195.555	58.03
195.774	-25.94
195.993	12.97
196.212	60.07
196.432	47.79
196.651	25.26
196.87	-48.47
197.089	283.3
197.308	88.75
197.528	68.27
197.747	-60.76
197.966	43.69
198.185	141.99
198.404	78.51
198.623	105.13
198.842	64.17
199.062	96.94
199.281	152.23
199.5	-27.99
199.719	37.55
199.938	111.27
200.157	133.8
200.376	19.11
200.595	127.66
200.814	25.26
201.033	80.55
201.252	119.46
201.471	96.94
201.69	148.14
201.909	-17.75
202.128	80.55
202.347	35.5
202.566	58.03
202.785	-71
203.004	0.68
203.223	199.34
203.442	35.5
203.661	-17.75
203.879	88.75
204.098	92.84
204.317	17.07
204.536	113.32
204.755	55.98
204.974	49.83
205.193	55.98
205.411	191.14
205.63	96.94
205.849	88.75
206.068	2.73
206.287	47.79
206.505	78.51
206.724	53.93
206.943	29.35
207.162	19.11
207.381	92.84
207.599	43.69
207.818	47.79
208.037	-1.37
208.255	60.07
208.474	-11.61
208.693	98.99
208.911	-15.7
209.13	129.7
209.349	78.51
209.567	51.88
209.786	60.07
210.005	131.75
210.223	47.79
210.442	-50.52
210.661	94.89
210.879	74.41
211.098	-38.23
211.316	96.94
211.535	129.7
211.753	8.87
211.972	101.03
212.191	-1.37
212.409	94.89
212.628	68.27
212.846	-62.8
213.065	49.83
213.283	88.75
213.502	-52.56
213.72	101.03
213.938	72.36
214.157	10.92
214.375	80.55
214.594	31.4
214.812	68.27
215.031	19.11
215.249	103.08
215.467	96.94
215.686	33.45
215.904	51.88
216.122	60.07
216.341	135.85
216.559	23.21
216.778	51.88
216.996	129.7
217.214	19.11
217.432	-30.04
217.651	-48.47
217.869	25.26
218.087	19.11
218.306	62.12
218.524	82.6
218.742	17.07
218.96	17.07
219.179	-52.56
219.397	66.22
219.615	156.33
219.833	10.92
220.051	19.11
220.27	109.22
220.488	60.07
220.706	25.26
220.924	25.26
221.142	-9.56
221.36	72.36
221.578	123.56
221.796	33.45
222.015	49.83
222.233	88.75
222.451	250.53
222.669	-128.34
222.887	146.09
223.105	23.21
223.323	-9.56
223.541	47.79
223.759	80.55
223.977	45.74
224.195	135.85
224.413	70.31
224.631	19.11
224.849	109.22
225.067	101.03
225.285	15.02
225.503	-38.23
225.721	-95.57
225.939	31.4
226.157	41.64
226.375	236.2
226.592	-17.75
226.81	43.69
227.028	76.46
227.246	90.79
227.464	76.46
227.682	90.79
227.9	107.18
228.117	27.31
228.335	74.41
228.553	51.88
228.771	27.31
228.989	17.07
229.206	58.03
229.424	92.84
229.642	51.88
229.86	-13.65
230.077	109.22
230.295	21.16
230.513	133.8
230.731	58.03
230.948	158.38
231.166	107.18
231.384	15.02
231.601	25.26
231.819	158.38
232.037	-3.41
232.254	-71
232.472	35.5
232.689	-15.7
232.907	139.94
233.125	6.83
233.342	-17.75
233.56	-38.23
233.777	43.69
233.995	-38.23
234.213	119.46
234.43	74.41
234.648	70.31
234.865	-5.46
235.083	68.27
235.3	76.46
235.518	115.37
235.735	60.07
235.953	88.75
236.17	47.79
236.388	10.92
236.605	84.65
236.822	172.71
237.04	98.99
237.257	-7.51
237.475	4.78
237.692	119.46
237.909	64.17
238.127	-60.76
238.344	0.68
238.562	55.98
238.779	-75.09
238.996	-73.04
239.214	49.83
239.431	68.27
239.648	23.21
239.865	96.94
240.083	117.42
240.3	4.78
240.517	-21.85
240.735	51.88
240.952	133.8
241.169	101.03
241.386	121.51
241.603	-75.09
241.821	-13.65
242.038	129.7
242.255	64.17
242.472	-32.08
242.689	27.31
242.907	98.99
243.124	10.92
243.341	2.73
243.558	41.64
243.775	-38.23
243.992	-3.41
244.209	146.09
244.426	146.09
244.643	19.11
244.86	-15.7
245.078	78.51
245.295	2.73
245.512	60.07
245.729	19.11
245.946	125.61
246.163	74.41
246.38	10.92
246.597	45.74
246.814	4.78
247.031	2.73
247.248	-5.46
247.464	84.65
247.681	49.83
247.898	19.11
248.115	66.22
248.332	-13.65
248.549	146.09
248.766	121.51
248.983	92.84
249.2	27.31
249.417	133.8
249.633	-30.04
249.85	47.79
250.067	27.31
250.284	76.46
250.501	96.94
250.717	35.5
250.934	-34.13
251.151	17.07
251.368	31.4
251.585	125.61
251.801	17.07
252.018	-17.75
252.235	133.8
252.451	-79.19
252.668	49.83
252.885	117.42
253.102	55.98
253.318	-15.7
253.535	-21.85
253.752	-42.32
253.968	-30.04
254.185	-50.52
254.401	72.36
254.618	74.41
254.835	-30.04
255.051	141.99
255.268	146.09
255.484	53.93
255.701	19.11
255.917	72.36
256.134	39.59
256.351	-21.85
256.567	-5.46
256.784	55.98
257	-15.7
257.217	115.37
257.433	58.03
257.65	4.78
257.866	141.99
258.082	-30.04
258.299	35.5
258.515	58.03
258.732	-13.65
258.948	-58.71
259.165	-15.7
259.381	17.07
259.597	51.88
259.814	10.92
260.03	35.5
260.246	-25.94
260.463	70.31
260.679	125.61
260.895	-7.51
261.112	68.27
261.328	21.16
261.544	-5.46
261.761	144.04
261.977	-13.65
262.193	-48.47
262.409	25.26
262.626	84.65
262.842	-54.61
263.058	53.93
263.274	53.93
263.49	90.79
263.707	76.46
263.923	55.98
264.139	-46.42
264.355	49.83
264.571	109.22
264.787	58.03
265.004	117.42
265.22	-19.8
265.436	94.89
265.652	23.21
265.868	-19.8
266.084	-66.9
266.3	88.75
266.516	-32.08
266.732	-13.65
266.948	51.88
267.164	12.97
267.38	137.9
267.596	84.65
267.812	203.43
268.028	58.03
268.244	-50.52
268.46	98.99
268.676	72.36
268.892	98.99
269.108	25.26
269.324	-48.47
269.54	-30.04
269.756	53.93
269.972	-23.89
270.188	-71
270.403	-25.94
270.619	-32.08
270.835	23.21
271.051	-38.23
271.267	-17.75
271.483	-9.56
271.698	84.65
271.914	84.65
272.13	113.32
272.346	33.45
272.562	86.7
272.777	154.28
272.993	111.27
273.209	-5.46
273.425	76.46
273.64	-83.28
273.856	74.41
274.072	-66.9
274.287	31.4
274.503	31.4
274.719	66.22
274.934	60.07
275.15	-27.99
275.366	-34.13
275.581	27.31
275.797	53.93
276.012	84.65
276.228	-66.9
276.444	47.79
276.659	176.81
276.875	-34.13
277.09	39.59
277.306	-34.13
277.521	113.32
277.737	72.36
277.952	86.7
278.168	111.27
278.383	68.27
278.599	49.83
278.814	101.03
279.03	4.78
279.245	123.56
279.461	49.83
279.676	80.55
279.892	-116.05
280.107	-21.85
280.322	-32.08
280.538	51.88
280.753	0.68
280.969	47.79
281.184	2.73
281.399	101.03
281.615	27.31
281.83	92.84
282.045	-56.66
282.26	-64.85
282.476	29.35
282.691	86.7
282.906	60.07
283.122	115.37
283.337	-50.52
283.552	49.83
283.767	-13.65
283.983	197.29
284.198	-9.56
284.413	43.69
284.628	-38.23
284.843	41.64
285.058	62.12
285.274	35.5
285.489	-75.09
285.704	68.27
285.919	31.4
286.134	33.45
286.349	70.31
286.564	109.22
286.779	109.22
286.995	15.02
287.21	-93.52
287.425	31.4
287.64	53.93
287.855	62.12
288.07	-95.57
288.285	127.66
288.5	123.56
288.715	146.09
288.93	-32.08
289.145	58.03
289.36	107.18
289.575	-15.7
289.79	80.55
290.004	-30.04
290.219	133.8
290.434	-32.08
290.649	-30.04
290.864	51.88
291.079	-71
291.294	43.69
291.509	47.79
291.724	31.4
291.938	33.45
292.153	88.75
292.368	6.83
292.583	10.92
292.798	74.41
293.012	43.69
293.227	62.12
293.442	4.78
293.657	139.94
293.871	41.64
294.086	129.7
294.301	170.66
294.516	148.14
294.73	82.6
294.945	-15.7
295.16	21.16
295.374	27.31
295.589	39.59
295.804	-9.56
296.018	47.79
296.233	70.31
296.447	-46.42
296.662	-27.99
296.877	92.84
297.091	119.46
297.306	39.59
297.52	10.92
297.735	47.79
297.949	47.79
298.164	35.5
298.378	64.17
298.593	-46.42
298.807	-34.13
299.022	76.46
299.236	105.13
299.451	-19.8
299.665	41.64
299.88	0.68
300.094	113.32
300.309	-46.42
300.523	39.59
300.737	-54.61
300.952	96.94
301.166	47.79
301.381	-21.85
301.595	19.11
301.809	33.45
302.024	-1.37
302.238	6.83
302.452	129.7
302.667	0.68
302.881	170.66
303.095	152.23
303.309	107.18
303.524	2.73
303.738	35.5
303.952	-38.23
304.166	117.42
304.381	-173.39
304.595	23.21
304.809	8.87
305.023	92.84
305.237	27.31
305.452	10.92
305.666	60.07
305.88	55.98
306.094	74.41
306.308	101.03
306.522	51.88
306.736	94.89
306.95	111.27
307.164	-1.37
307.379	-34.13
307.593	109.22
307.807	84.65
308.021	58.03
308.235	115.37
308.449	-54.61
308.663	43.69
308.877	137.9
309.091	15.02
309.305	53.93
309.519	-66.9
309.733	121.51
309.947	-30.04
310.161	141.99
310.374	92.84
310.588	78.51
310.802	43.69
311.016	33.45
311.23	107.18
311.444	-11.61
311.658	-9.56
311.872	125.61
312.085	125.61
312.299	115.37
312.513	92.84
312.727	72.36
312.941	-36.18
313.154	2.73
313.368	2.73
313.582	19.11
313.796	35.5
314.009	31.4
314.223	123.56
314.437	0.68
314.651	129.7
314.864	17.07
315.078	31.4
315.292	6.83
315.505	-66.9
315.719	64.17
315.933	39.59
316.146	-21.85
316.36	-42.32
316.573	62.12
316.787	49.83
317.001	55.98
317.214	-30.04
317.428	2.73
317.641	-75.09
317.855	68.27
318.068	-40.28
318.282	74.41
318.495	160.42
318.709	41.64
318.922	10.92
319.136	119.46
319.349	107.18
319.563	-75.09
319.776	90.79
319.99	-66.9
320.203	19.11
320.417	17.07
320.63	78.51
320.843	172.71
321.057	27.31
321.27	123.56
321.483	45.74
321.697	111.27
321.91	88.75
322.124	90.79
322.337	10.92
322.55	-15.7
322.763	-73.04
322.977	62.12
323.19	2.73
323.403	43.69
323.617	80.55
323.83	174.76
324.043	15.02
324.256	129.7
324.469	-62.8
324.683	92.84
324.896	58.03
325.109	84.65
325.322	-38.23
325.535	58.03
325.748	64.17
325.962	19.11
326.175	4.78
326.388	78.51
326.601	115.37
326.814	-25.94
327.027	41.64
327.24	129.7
327.453	21.16
327.666	68.27
327.879	94.89
328.092	94.89
328.305	33.45
328.518	-71
328.731	39.59
328.944	33.45
329.157	101.03
329.37	-83.28
329.583	178.86
329.796	133.8
330.009	8.87
330.222	60.07
330.435	45.74
330.648	25.26
330.861	43.69
331.073	6.83
331.286	-21.85
331.499	-75.09
331.712	-75.09
331.925	-23.89
332.138	-7.51
332.35	144.04
332.563	-50.52
332.776	105.13
332.989	-21.85
333.202	47.79
333.414	12.97
333.627	15.02
333.84	70.31
334.053	68.27
334.265	-23.89
334.478	21.16
334.691	-19.8
334.903	27.31
335.116	2.73
335.329	-5.46
335.541	47.79
335.754	152.23
335.966	55.98
336.179	-46.42
336.392	103.08
336.604	6.83
336.817	68.27
337.029	4.78
337.242	51.88
337.454	72.36
337.667	43.69
337.88	90.79
338.092	80.55
338.305	105.13
338.517	49.83
338.729	33.45
338.942	74.41
339.154	29.35
339.367	31.4
339.579	72.36
339.792	-54.61
340.004	43.69
340.217	62.12
340.429	-17.75
340.641	-40.28
340.854	-7.51
341.066	-13.65
341.278	117.42
341.491	139.94
341.703	80.55
341.915	-21.85
342.128	23.21
342.34	41.64
342.552	-58.71
342.764	96.94
342.977	-7.51
343.189	-13.65
343.401	117.42
343.613	-52.56
343.826	49.83
344.038	15.02
344.25	41.64
344.462	-56.66
344.674	66.22
344.886	39.59
345.099	55.98
345.311	121.51
345.523	47.79
345.735	-99.67
345.947	68.27
346.159	68.27
346.371	29.35
346.583	-40.28
346.795	98.99
347.007	68.27
347.219	6.83
347.431	70.31
347.643	101.03
347.855	45.74
348.067	139.94
348.279	-15.7
348.491	-17.75
348.703	98.99
348.915	-9.56
349.127	10.92
349.339	12.97
349.551	51.88
349.763	137.9
349.975	35.5
350.187	43.69
350.399	86.7
350.61	113.32
350.822	2.73
351.034	33.45
351.246	109.22
351.458	41.64
351.669	35.5
351.881	166.57
352.093	123.56
352.305	74.41
352.517	49.83
352.728	82.6
352.94	41.64
353.152	92.84
353.363	8.87
353.575	70.31
353.787	148.14
353.999	35.5
354.21	121.51
354.422	2.73
354.633	49.83
354.845	31.4
355.057	27.31
355.268	-15.7
355.48	64.17
355.692	8.87
355.903	39.59
356.115	-5.46
356.326	-32.08
356.538	127.66
356.749	35.5
356.961	203.43
357.172	10.92
357.384	-17.75
357.595	172.71
357.807	-1.37
358.018	-34.13
358.23	-32.08
358.441	191.14
358.653	78.51
358.864	29.35
359.075	-40.28
359.287	31.4
359.498	76.46
359.709	123.56
359.921	-9.56
360.132	-3.41
360.344	2.73
360.555	58.03
360.766	29.35
360.977	92.84
361.189	127.66
361.4	92.84
361.611	111.27
361.823	82.6
362.034	94.89
362.245	-85.33
362.456	-58.71
362.667	64.17
362.879	-36.18
363.09	66.22
363.301	2.73
363.512	27.31
363.723	35.5
363.935	-48.47
364.146	82.6
364.357	-21.85
364.568	113.32
364.779	-103.76
364.99	107.18
365.201	0.68
365.412	78.51
365.623	-38.23
365.834	53.93
366.045	-5.46
366.256	-30.04
366.467	68.27
366.678	72.36
366.889	15.02
367.1	35.5
367.311	121.51
367.522	19.11
367.733	92.84
367.944	131.75
368.155	-9.56
368.366	117.42
368.577	115.37
368.788	139.94
368.999	-81.24
369.209	8.87
369.42	264.87
369.631	246.44
369.842	90.79
370.053	-23.89
370.264	125.61
370.474	-46.42
370.685	98.99
370.896	-13.65
371.107	90.79
371.317	80.55
371.528	-54.61
371.739	154.28
371.95	64.17
372.16	156.33
372.371	-50.52
372.582	-21.85
372.792	92.84
373.003	64.17
373.214	58.03
373.424	131.75
373.635	-21.85
373.846	195.24
374.056	-5.46
374.267	15.02
374.477	23.21
374.688	31.4
374.898	68.27
375.109	49.83
375.319	-52.56
375.53	82.6
375.74	62.12
375.951	-36.18
376.161	45.74
376.372	174.76
376.582	41.64
376.793	146.09
377.003	-54.61
377.214	-40.28
377.424	23.21
377.635	80.55
377.845	-17.75
378.055	86.7
378.266	-46.42
378.476	6.83
378.686	66.22
378.897	60.07
379.107	101.03
379.317	31.4
379.528	60.07
379.738	47.79
379.948	-58.71
380.158	105.13
380.369	76.46
380.579	43.69
380.789	-58.71
380.999	70.31
381.21	146.09
381.42	215.72
381.63	0.68
381.84	129.7
382.05	90.79
382.261	92.84
382.471	101.03
382.681	2.73
382.891	64.17
383.101	66.22
383.311	-9.56
383.521	-1.37
383.731	113.32
383.941	109.22
384.151	-32.08
384.361	8.87
384.571	41.64
384.781	51.88
384.991	121.51
385.201	154.28
385.411	133.8
385.621	51.88
385.831	68.27
386.041	43.69
386.251	62.12
386.461	41.64
386.671	-9.56
386.881	129.7
387.091	41.64
387.301	51.88
387.511	35.5
387.72	115.37
387.93	6.83
388.14	-46.42
388.35	39.59
388.56	72.36
388.769	92.84
388.979	37.55
389.189	-25.94
389.399	39.59
389.609	117.42
389.818	76.46
390.028	90.79
390.238	92.84
390.447	-36.18
390.657	90.79
390.867	-34.13
391.076	-75.09
391.286	107.18
391.496	4.78
391.705	-21.85
391.915	101.03
392.125	113.32
392.334	-21.85
392.544	182.95
392.753	23.21
392.963	2.73
393.172	96.94
393.382	21.16
393.591	158.38
393.801	-11.61
394.01	103.08
394.22	43.69
394.429	-71
394.639	-56.66
394.848	103.08
395.058	55.98
395.267	19.11
395.477	94.89
395.686	68.27
395.895	154.28
396.105	101.03
396.314	41.64
396.524	31.4
396.733	10.92
396.942	96.94
397.152	-21.85
397.361	109.22
397.57	27.31
397.78	74.41
397.989	49.83
398.198	129.7
398.407	43.69
398.617	45.74
398.826	47.79
399.035	27.31
399.244	139.94
399.453	139.94
399.663	-36.18
399.872	10.92
400.081	12.97
400.29	127.66
400.499	10.92
400.708	86.7
400.917	33.45
401.127	23.21
401.336	-19.8
401.545	113.32
401.754	137.9
401.963	37.55
402.172	47.79
402.381	74.41
402.59	41.64
402.799	45.74
403.008	68.27
403.217	103.08
403.426	70.31
403.635	-15.7
403.844	72.36
404.053	47.79
404.262	-13.65
404.471	141.99
404.68	43.69
404.888	21.16
405.097	64.17
405.306	-1.37
405.515	41.64
405.724	76.46
405.933	78.51
406.142	17.07
406.35	82.6
406.559	51.88
406.768	84.65
406.977	96.94
407.185	25.26
407.394	115.37
407.603	-38.23
407.812	141.99
408.02	45.74
408.229	47.79
408.438	47.79
408.646	8.87
408.855	12.97
409.064	76.46
409.272	4.78
409.481	111.27
409.69	-44.37
409.898	-23.89
410.107	113.32
410.315	125.61
410.524	-9.56
410.733	29.35
410.941	60.07
411.15	64.17
411.358	88.75
411.567	152.23
411.775	23.21
411.984	-7.51
412.192	90.79
412.401	58.03
412.609	113.32
412.818	115.37
413.026	88.75
413.234	60.07
413.443	-13.65
413.651	-17.75
413.86	58.03
414.068	232.1
414.276	180.9
414.485	68.27
414.693	39.59
414.901	105.13
415.11	58.03
415.318	35.5
415.526	-19.8
415.734	33.45
415.943	35.5
416.151	195.24
416.359	49.83
416.567	43.69
416.776	88.75
416.984	51.88
417.192	139.94
417.4	64.17
417.608	29.35
417.817	70.31
418.025	109.22
418.233	150.18
418.441	-11.61
418.649	-13.65
418.857	84.65
419.065	98.99
419.273	8.87
419.481	92.84
419.689	-23.89
419.897	-9.56
420.105	-60.76
420.313	64.17
420.521	201.38
420.729	68.27
420.937	43.69
421.145	8.87
421.353	68.27
421.561	135.85
421.769	105.13
421.977	-56.66
422.185	133.8
422.393	47.79
422.601	111.27
422.809	41.64
423.017	0.68
423.224	113.32
423.432	-3.41
423.64	-19.8
423.848	225.96
424.056	41.64
424.263	125.61
424.471	82.6
424.679	203.43
424.887	-5.46
425.094	107.18
425.302	55.98
425.51	74.41
425.718	53.93
425.925	66.22
426.133	-21.85
426.341	125.61
426.548	-34.13
426.756	-60.76
426.964	101.03
427.171	19.11
427.379	131.75
427.586	115.37
427.794	131.75
428.001	146.09
428.209	60.07
428.417	166.57
428.624	129.7
428.832	141.99
429.039	43.69
429.247	166.57
429.454	51.88
429.662	156.33
429.869	133.8
430.076	135.85
430.284	139.94
430.491	146.09
430.699	187.05
430.906	158.38
431.114	139.94
431.321	68.27
431.528	64.17
431.736	58.03
431.943	92.84
432.15	166.57
432.358	150.18
432.565	205.48
432.772	-13.65
432.979	193.19
433.187	115.37
433.394	178.86
433.601	70.31
433.808	168.62
434.016	213.67
434.223	185
434.43	68.27
434.637	203.43
434.844	150.18
435.052	187.05
435.259	176.81
435.466	228.01
435.673	273.06
435.88	164.52
436.087	230.06
436.294	311.97
436.501	244.39
436.708	213.67
436.915	195.24
437.122	246.44
437.329	228.01
437.537	287.4
437.743	295.59
437.95	330.41
438.157	303.78
438.364	314.02
438.571	342.69
438.778	279.21
438.985	410.28
439.192	350.89
439.399	318.12
439.606	424.61
439.813	455.33
440.02	510.63
440.227	510.63
440.433	455.33
440.64	510.63
440.847	352.93
441.054	406.18
441.261	613.03
441.467	471.72
441.674	459.43
441.881	488.1
442.088	434.85
442.294	570.02
442.501	561.83
442.708	672.42
442.914	508.58
443.121	656.03
443.328	699.04
443.534	668.32
443.741	772.77
443.948	582.31
444.154	776.86
444.361	938.65
444.568	965.28
444.774	826.01
444.981	817.82
445.187	918.17
445.394	926.36
445.6	897.69
445.807	1030.81
446.013	975.52
446.22	940.7
446.426	1112.73
446.633	1139.35
446.839	1268.38
447.046	1059.48
447.252	1319.57
447.459	1305.24
447.665	1280.66
447.871	1448.6
448.078	1553.04
448.284	1469.08
448.491	1591.95
448.697	1704.59
448.903	1639.06
449.11	1669.78
449.316	1620.63
449.522	1897.1
449.728	1893.01
449.935	2003.6
450.141	1850
450.347	2040.46
450.553	2083.47
450.76	2126.47
450.966	2196.11
451.172	2345.61
451.378	2396.81
451.584	2570.88
451.791	2740.86
451.997	2830.98
452.203	2615.94
452.409	2794.11
452.615	2996.86
452.821	2884.22
453.027	2992.76
453.233	3461.75
453.44	3158.65
453.646	3377.78
453.852	3619.44
454.058	3646.07
454.264	3738.23
454.47	3992.17
454.676	3965.55
454.882	4555.37
455.088	4092.52
455.294	4493.93
455.5	4717.15
455.705	5038.69
455.911	4989.53
456.117	5190.24
456.323	5405.27
456.529	5497.43
456.735	5835.35
456.941	6052.43
457.147	6191.69
457.352	6373.96
457.558	6775.36
457.764	6965.82
457.97	7326.27
458.176	7277.12
458.381	7721.52
458.587	8016.43
458.793	8391.21
458.999	8254
459.204	9378.33
459.41	9527.83
459.616	9501.21
459.821	10250.77
460.027	10500.62
460.233	10994.18
460.438	11176.45
460.644	11676.15
460.85	11846.13
461.055	12306.93
461.261	12804.58
461.466	12831.21
461.672	12849.64
461.878	14326.22
462.083	14236.11
462.289	14490.06
462.494	14969.29
462.7	15192.51
462.905	15204.8
463.111	16435.63
463.316	17340.83
463.522	17953.18
463.727	18266.52
463.932	18956.68
464.138	19736.96
464.343	20408.69
464.549	20457.84
464.754	22094.17
464.959	22759.76
465.165	22927.69
465.37	22974.8
465.575	22796.62
465.781	24572.21
465.986	25325.86
466.191	25033
466.397	25252.14
466.602	24330.55
466.807	26038.56
467.012	26239.26
467.218	26857.74
467.423	26702.1
467.628	27599.11
467.833	29024.5
468.038	28369.15
468.244	28094.72
468.449	29421.8
468.654	28848.37
468.859	28821.75
469.064	29087.98
469.269	28119.29
