Data from USB4F104151__53__11-30-44-765.txt Node

Date: Wed Feb 26 11:30:44 EST 2025
User: louis
Spectrometer: USB4F10415
Trigger mode: 4
Integration Time (sec): 1.000000E-1
Scans to average: 1
Electric dark correction enabled: true
Nonlinearity correction enabled: false
Boxcar width: 0
XAxis mode: Wavelengths
Number of Pixels in Spectrum: 3648
>>>>>Begin Spectral Data<<<<<
178.204	-389.97
178.424	-389.97
178.644	-389.97
178.864	-402.26
179.084	-465.74
179.304	29.87
179.524	-88.92
179.744	15.53
179.964	113.83
180.184	-50
180.404	-19.29
180.624	-19.29
180.844	19.63
181.064	-84.82
181.283	42.15
181.503	-35.67
181.723	76.97
181.943	-131.92
182.163	177.32
182.383	-39.76
182.602	107.69
182.822	95.4
183.042	89.26
183.262	-15.19
183.482	-25.43
183.701	-66.39
183.921	99.5
184.141	-60.24
184.361	44.2
184.58	60.59
184.8	44.2
185.02	-56.15
185.239	-15.19
185.459	48.3
185.679	23.72
185.898	-76.63
186.118	42.15
186.338	11.43
186.557	-11.09
186.777	-19.29
186.997	-33.62
187.216	15.53
187.436	238.76
187.655	15.53
187.875	109.74
188.095	-45.91
188.314	150.7
188.534	11.43
188.753	-52.05
188.973	74.92
189.192	109.74
189.412	-2.9
189.631	-21.33
189.851	-35.67
190.07	224.42
190.29	-37.72
190.509	-50
190.729	-4.95
190.948	70.83
191.168	281.77
191.387	101.55
191.607	13.48
191.826	81.07
192.045	27.82
192.265	-66.39
192.484	52.39
192.704	-9.05
192.923	11.43
193.142	165.03
193.362	-11.09
193.581	136.36
193.8	-35.67
194.02	103.59
194.239	31.91
194.458	146.6
194.678	58.54
194.897	-7
195.116	25.77
195.335	109.74
195.555	7.34
195.774	5.29
195.993	146.6
196.212	36.01
196.432	15.53
196.651	68.78
196.87	56.49
197.089	238.76
197.308	44.2
197.528	-7
197.747	-41.81
197.966	42.15
198.185	165.03
198.404	-82.77
198.623	154.79
198.842	111.78
199.062	91.31
199.281	87.21
199.5	7.34
199.719	97.45
199.938	-7
200.157	56.49
200.376	177.32
200.595	79.02
200.814	23.72
201.033	-19.29
201.252	175.27
201.471	95.4
201.69	33.96
201.909	48.3
202.128	150.7
202.347	5.29
202.566	38.06
202.785	-80.72
203.004	3.24
203.223	193.7
203.442	46.25
203.661	-52.05
203.879	85.16
204.098	152.74
204.317	-45.91
204.536	124.07
204.755	-27.48
204.974	91.31
205.193	-43.86
205.411	144.55
205.63	122.02
205.849	81.07
206.068	52.39
206.287	-54.1
206.505	95.4
206.724	-29.52
206.943	-56.15
207.162	42.15
207.381	105.64
207.599	89.26
207.818	87.21
208.037	-76.63
208.255	101.55
208.474	79.02
208.693	107.69
208.911	56.49
209.13	113.83
209.349	144.55
209.567	136.36
209.786	87.21
210.005	119.98
210.223	44.2
210.442	-121.68
210.661	-45.91
210.879	11.43
211.098	3.24
211.316	-27.48
211.535	87.21
211.753	103.59
211.972	-4.95
212.191	-70.48
212.409	44.2
212.628	52.39
212.846	-47.96
213.065	103.59
213.283	122.02
213.502	-13.14
213.72	66.73
213.938	52.39
214.157	68.78
214.375	60.59
214.594	-23.38
214.812	128.17
215.031	64.68
215.249	83.11
215.467	83.11
215.686	36.01
215.904	1.19
216.122	115.88
216.341	158.89
216.559	56.49
216.778	9.39
216.996	134.31
217.214	44.2
217.432	-68.44
217.651	-0.85
217.869	31.91
218.087	46.25
218.306	15.53
218.524	50.35
218.742	42.15
218.96	70.83
219.179	9.39
219.397	25.77
219.615	257.19
219.833	169.13
220.051	-54.1
220.27	201.9
220.488	156.84
220.706	76.97
220.924	23.72
221.142	-9.05
221.36	103.59
221.578	31.91
221.796	23.72
222.015	60.59
222.233	99.5
222.451	171.18
222.669	-39.76
222.887	72.87
223.105	23.72
223.323	-9.05
223.541	-4.95
223.759	64.68
223.977	-27.48
224.195	152.74
224.413	58.54
224.631	52.39
224.849	93.35
225.067	160.94
225.285	3.24
225.503	27.82
225.721	-117.59
225.939	62.63
226.157	-4.95
226.375	289.96
226.592	-9.05
226.81	-19.29
227.028	87.21
227.246	117.93
227.464	81.07
227.682	117.93
227.9	83.11
228.117	42.15
228.335	122.02
228.553	3.24
228.771	7.34
228.989	99.5
229.206	93.35
229.424	-9.05
229.642	-31.57
229.86	-66.39
230.077	191.66
230.295	33.96
230.513	64.68
230.731	68.78
230.948	148.65
231.166	156.84
231.384	-37.72
231.601	7.34
231.819	216.23
232.037	-78.68
232.254	-27.48
232.472	-19.29
232.689	31.91
232.907	101.55
233.125	-27.48
233.342	-37.72
233.56	-7
233.777	13.48
233.995	9.39
234.213	169.13
234.43	111.78
234.648	-62.29
234.865	33.96
235.083	136.36
235.3	27.82
235.518	50.35
235.735	249
235.953	89.26
236.17	38.06
236.388	1.19
236.605	60.59
236.822	15.53
237.04	154.79
237.257	58.54
237.475	25.77
237.692	-2.9
237.909	74.92
238.127	42.15
238.344	140.46
238.562	79.02
238.779	-17.24
238.996	-37.72
239.214	3.24
239.431	140.46
239.648	17.58
239.865	117.93
240.083	36.01
240.3	-39.76
240.517	36.01
240.735	38.06
240.952	83.11
241.169	44.2
241.386	44.2
241.603	93.35
241.821	-23.38
242.038	126.12
242.255	183.46
242.472	-15.19
242.689	76.97
242.907	36.01
243.124	31.91
243.341	-19.29
243.558	5.29
243.775	-78.68
243.992	-90.96
244.209	119.98
244.426	187.56
244.643	95.4
244.86	25.77
245.078	11.43
245.295	52.39
245.512	-31.57
245.729	7.34
245.946	81.07
246.163	87.21
246.38	15.53
246.597	99.5
246.814	115.88
247.031	21.67
247.248	70.83
247.464	87.21
247.681	27.82
247.898	29.87
248.115	50.35
248.332	29.87
248.549	187.56
248.766	126.12
248.983	76.97
249.2	15.53
249.417	146.6
249.633	1.19
249.85	103.59
250.067	38.06
250.284	85.16
250.501	107.69
250.717	103.59
250.934	-50
251.151	50.35
251.368	-13.14
251.585	-13.14
251.801	-21.33
252.018	-39.76
252.235	109.74
252.451	-45.91
252.668	-45.91
252.885	111.78
253.102	68.78
253.318	42.15
253.535	52.39
253.752	72.87
253.968	-21.33
254.185	-37.72
254.401	97.45
254.618	58.54
254.835	-25.43
255.051	128.17
255.268	50.35
255.484	70.83
255.701	27.82
255.917	36.01
256.134	-31.57
256.351	3.24
256.567	-47.96
256.784	31.91
257	-78.68
257.217	144.55
257.433	175.27
257.65	74.92
257.866	144.55
258.082	-9.05
258.299	-43.86
258.515	13.48
258.732	-2.9
258.948	-99.16
259.165	29.87
259.381	13.48
259.597	132.26
259.814	83.11
260.03	5.29
260.246	52.39
260.463	44.2
260.679	134.31
260.895	48.3
261.112	13.48
261.328	107.69
261.544	-50
261.761	148.65
261.977	-13.14
262.193	11.43
262.409	99.5
262.626	52.39
262.842	50.35
263.058	19.63
263.274	126.12
263.49	74.92
263.707	76.97
263.923	103.59
264.139	-7
264.355	38.06
264.571	44.2
264.787	101.55
265.004	148.65
265.22	83.11
265.436	58.54
265.652	23.72
265.868	19.63
266.084	-72.53
266.3	23.72
266.516	9.39
266.732	60.59
266.948	17.58
267.164	-47.96
267.38	105.64
267.596	25.77
267.812	95.4
268.028	-17.24
268.244	101.55
268.46	85.16
268.676	38.06
268.892	42.15
269.108	-25.43
269.324	17.58
269.54	-70.48
269.756	136.36
269.972	-25.43
270.188	58.54
270.403	40.11
270.619	-0.85
270.835	46.25
271.051	27.82
271.267	-33.62
271.483	38.06
271.698	101.55
271.914	-7
272.13	9.39
272.346	-13.14
272.562	62.63
272.777	124.07
272.993	44.2
273.209	31.91
273.425	60.59
273.64	-41.81
273.856	87.21
274.072	-0.85
274.287	58.54
274.503	83.11
274.719	74.92
274.934	7.34
275.15	-7
275.366	99.5
275.581	-25.43
275.797	-0.85
276.012	38.06
276.228	-11.09
276.444	126.12
276.659	132.26
276.875	23.72
277.09	40.11
277.306	-33.62
277.521	87.21
277.737	1.19
277.952	97.45
278.168	38.06
278.383	46.25
278.599	95.4
278.814	111.78
279.03	-2.9
279.245	130.22
279.461	83.11
279.676	130.22
279.892	-35.67
280.107	-41.81
280.322	-25.43
280.538	91.31
280.753	5.29
280.969	9.39
281.184	97.45
281.399	169.13
281.615	5.29
281.83	56.49
282.045	-41.81
282.26	25.77
282.476	19.63
282.691	79.02
282.906	62.63
283.122	46.25
283.337	-52.05
283.552	91.31
283.767	79.02
283.983	103.59
284.198	56.49
284.413	101.55
284.628	-9.05
284.843	60.59
285.058	91.31
285.274	-7
285.489	36.01
285.704	126.12
285.919	-23.38
286.134	-43.86
286.349	68.78
286.564	-39.76
286.779	95.4
286.995	81.07
287.21	-21.33
287.425	68.78
287.64	-60.24
287.855	42.15
288.07	-43.86
288.285	122.02
288.5	95.4
288.715	72.87
288.93	-13.14
289.145	-15.19
289.36	44.2
289.575	-21.33
289.79	66.73
290.004	21.67
290.219	101.55
290.434	9.39
290.649	7.34
290.864	-37.72
291.079	-4.95
291.294	62.63
291.509	62.63
291.724	103.59
291.938	19.63
292.153	5.29
292.368	-90.96
292.583	48.3
292.798	122.02
293.012	64.68
293.227	83.11
293.442	83.11
293.657	91.31
293.871	79.02
294.086	-9.05
294.301	162.98
294.516	103.59
294.73	-13.14
294.945	-62.29
295.16	-29.52
295.374	152.74
295.589	113.83
295.804	-47.96
296.018	52.39
296.233	109.74
296.447	33.96
296.662	-35.67
296.877	150.7
297.091	60.59
297.306	68.78
297.52	29.87
297.735	76.97
297.949	9.39
298.164	7.34
298.378	33.96
298.593	-0.85
298.807	-0.85
299.022	40.11
299.236	60.59
299.451	-4.95
299.665	56.49
299.88	15.53
300.094	85.16
300.309	21.67
300.523	62.63
300.737	85.16
300.952	11.43
301.166	46.25
301.381	-84.82
301.595	-84.82
301.809	97.45
302.024	52.39
302.238	3.24
302.452	122.02
302.667	36.01
302.881	203.94
303.095	68.78
303.309	25.77
303.524	21.67
303.738	48.3
303.952	-17.24
304.166	17.58
304.381	-174.93
304.595	181.42
304.809	-105.3
305.023	23.72
305.237	-2.9
305.452	52.39
305.666	9.39
305.88	56.49
306.094	93.35
306.308	66.73
306.522	31.91
306.736	31.91
306.95	87.21
307.164	31.91
307.379	-4.95
307.593	91.31
307.807	158.89
308.021	89.26
308.235	19.63
308.449	-95.06
308.663	19.63
308.877	201.9
309.091	48.3
309.305	124.07
309.519	-45.91
309.733	111.78
309.947	-33.62
310.161	62.63
310.374	72.87
310.588	99.5
310.802	-19.29
311.016	19.63
311.23	142.5
311.444	-72.53
311.658	60.59
311.872	203.94
312.085	111.78
312.299	154.79
312.513	173.22
312.727	95.4
312.941	-19.29
313.154	-27.48
313.368	31.91
313.582	105.64
313.796	-15.19
314.009	-41.81
314.223	183.46
314.437	52.39
314.651	46.25
314.864	-25.43
315.078	-7
315.292	13.48
315.505	42.15
315.719	72.87
315.933	62.63
316.146	-25.43
316.36	-56.15
316.573	197.8
316.787	95.4
317.001	111.78
317.214	-76.63
317.428	52.39
317.641	-2.9
317.855	-39.76
318.068	74.92
318.282	7.34
318.495	146.6
318.709	99.5
318.922	-21.33
319.136	169.13
319.349	70.83
319.563	17.58
319.776	42.15
319.99	-29.52
320.203	79.02
320.417	7.34
320.63	167.08
320.843	126.12
321.057	52.39
321.27	5.29
321.483	136.36
321.697	124.07
321.91	13.48
322.124	54.44
322.337	70.83
322.55	-27.48
322.763	68.78
322.977	-11.09
323.19	-58.2
323.403	-0.85
323.617	83.11
323.83	93.35
324.043	42.15
324.256	97.45
324.469	-19.29
324.683	79.02
324.896	-39.76
325.109	-7
325.322	-47.96
325.535	70.83
325.748	115.88
325.962	17.58
326.175	21.67
326.388	83.11
326.601	40.11
326.814	-43.86
327.027	99.5
327.24	201.9
327.453	-66.39
327.666	148.65
327.879	81.07
328.092	29.87
328.305	70.83
328.518	27.82
328.731	-58.2
328.944	-64.34
329.157	62.63
329.37	105.64
329.583	181.42
329.796	111.78
330.009	-60.24
330.222	93.35
330.435	54.44
330.648	33.96
330.861	38.06
331.073	-27.48
331.286	93.35
331.499	19.63
331.712	-41.81
331.925	-21.33
332.138	83.11
332.35	97.45
332.563	62.63
332.776	87.21
332.989	42.15
333.202	-33.62
333.414	115.88
333.627	66.73
333.84	-39.76
334.053	42.15
334.265	11.43
334.478	60.59
334.691	-43.86
334.903	15.53
335.116	17.58
335.329	-33.62
335.541	50.35
335.754	183.46
335.966	-11.09
336.179	1.19
336.392	103.59
336.604	7.34
336.817	95.4
337.029	21.67
337.242	48.3
337.454	154.79
337.667	-47.96
337.88	134.31
338.092	54.44
338.305	54.44
338.517	40.11
338.729	89.26
338.942	99.5
339.154	-68.44
339.367	-78.68
339.579	52.39
339.792	-0.85
340.004	52.39
340.217	-43.86
340.429	83.11
340.641	-41.81
340.854	-60.24
341.066	42.15
341.278	76.97
341.491	169.13
341.703	72.87
341.915	13.48
342.128	144.55
342.34	54.44
342.552	-86.87
342.764	11.43
342.977	-56.15
343.189	95.4
343.401	87.21
343.613	-90.96
343.826	-2.9
344.038	-50
344.25	81.07
344.462	-56.15
344.674	38.06
344.886	62.63
345.099	105.64
345.311	58.54
345.523	27.82
345.735	-37.72
345.947	93.35
346.159	97.45
346.371	-17.24
346.583	-13.14
346.795	205.99
347.007	48.3
347.219	33.96
347.431	68.78
347.643	130.22
347.855	27.82
348.067	46.25
348.279	-68.44
348.491	85.16
348.703	42.15
348.915	72.87
349.127	-29.52
349.339	132.26
349.551	11.43
349.763	91.31
349.975	117.93
350.187	87.21
350.399	152.74
350.61	50.35
350.822	54.44
351.034	95.4
351.246	38.06
351.458	11.43
351.669	56.49
351.881	150.7
352.093	160.94
352.305	101.55
352.517	44.2
352.728	117.93
352.94	70.83
353.152	87.21
353.363	-7
353.575	158.89
353.787	218.28
353.999	99.5
354.21	173.22
354.422	-72.53
354.633	21.67
354.845	17.58
355.057	79.02
355.268	5.29
355.48	70.83
355.692	-2.9
355.903	-47.96
356.115	-64.34
356.326	-50
356.538	119.98
356.749	3.24
356.961	201.9
357.172	99.5
357.384	-84.82
357.595	150.7
357.807	-17.24
358.018	17.58
358.23	29.87
358.441	165.03
358.653	117.93
358.864	85.16
359.075	-37.72
359.287	5.29
359.498	70.83
359.709	31.91
359.921	87.21
360.132	136.36
360.344	72.87
360.555	-80.72
360.766	33.96
360.977	33.96
361.189	38.06
361.4	27.82
361.611	93.35
361.823	95.4
362.034	33.96
362.245	-25.43
362.456	54.44
362.667	46.25
362.879	-31.57
363.09	83.11
363.301	111.78
363.512	48.3
363.723	-7
363.935	-70.48
364.146	124.07
364.357	124.07
364.568	48.3
364.779	-4.95
364.99	132.26
365.201	5.29
365.412	87.21
365.623	-125.78
365.834	72.87
366.045	15.53
366.256	95.4
366.467	64.68
366.678	50.35
366.889	29.87
367.1	1.19
367.311	113.83
367.522	15.53
367.733	83.11
367.944	179.37
368.155	19.63
368.366	85.16
368.577	103.59
368.788	76.97
368.999	-25.43
369.209	-76.63
369.42	216.23
369.631	287.91
369.842	44.2
370.053	-31.57
370.264	76.97
370.474	-0.85
370.685	-9.05
370.896	29.87
371.107	113.83
371.317	95.4
371.528	46.25
371.739	134.31
371.95	3.24
372.16	103.59
372.371	-68.44
372.582	-4.95
372.792	74.92
373.003	60.59
373.214	85.16
373.424	60.59
373.635	-68.44
373.846	187.56
374.056	7.34
374.267	74.92
374.477	79.02
374.688	46.25
374.898	132.26
375.109	23.72
375.319	42.15
375.53	115.88
375.74	52.39
375.951	-17.24
376.161	89.26
376.372	60.59
376.582	-58.2
376.793	29.87
377.003	113.83
377.214	11.43
377.424	27.82
377.635	85.16
377.845	-4.95
378.055	136.36
378.266	-50
378.476	-31.57
378.686	93.35
378.897	62.63
379.107	132.26
379.317	126.12
379.528	13.48
379.738	181.42
379.948	-25.43
380.158	109.74
380.369	87.21
380.579	56.49
380.789	87.21
380.999	68.78
381.21	91.31
381.42	230.57
381.63	48.3
381.84	115.88
382.05	124.07
382.261	44.2
382.471	158.89
382.681	-35.67
382.891	160.94
383.101	107.69
383.311	-27.48
383.521	-23.38
383.731	89.26
383.941	134.31
384.151	56.49
384.361	33.96
384.571	83.11
384.781	79.02
384.991	162.98
385.201	140.46
385.411	167.08
385.621	42.15
385.831	44.2
386.041	44.2
386.251	46.25
386.461	132.26
386.671	44.2
386.881	25.77
387.091	23.72
387.301	113.83
387.511	48.3
387.72	128.17
387.93	97.45
388.14	-88.92
388.35	58.54
388.56	93.35
388.769	21.67
388.979	97.45
389.189	-11.09
389.399	72.87
389.609	136.36
389.818	56.49
390.028	111.78
390.238	-17.24
390.447	58.54
390.657	72.87
390.867	91.31
391.076	-37.72
391.286	81.07
391.496	134.31
391.705	48.3
391.915	107.69
392.125	107.69
392.334	-15.19
392.544	99.5
392.753	42.15
392.963	-76.63
393.172	15.53
393.382	-11.09
393.591	158.89
393.801	-9.05
394.01	146.6
394.22	97.45
394.429	40.11
394.639	-64.34
394.848	46.25
395.058	13.48
395.267	9.39
395.477	89.26
395.686	38.06
395.895	199.85
396.105	210.09
396.314	79.02
396.524	50.35
396.733	105.64
396.942	134.31
397.152	91.31
397.361	109.74
397.57	117.93
397.78	-0.85
397.989	42.15
398.198	249
398.407	50.35
398.617	13.48
398.826	64.68
399.035	50.35
399.244	85.16
399.453	50.35
399.663	52.39
399.872	-23.38
400.081	-62.29
400.29	101.55
400.499	-80.72
400.708	124.07
400.917	91.31
401.127	38.06
401.336	85.16
401.545	283.81
401.754	171.18
401.963	87.21
402.172	1.19
402.381	-21.33
402.59	83.11
402.799	95.4
403.008	72.87
403.217	99.5
403.426	-23.38
403.635	9.39
403.844	68.78
404.053	27.82
404.262	85.16
404.471	189.61
404.68	44.2
404.888	21.67
405.097	-31.57
405.306	56.49
405.515	99.5
405.724	13.48
405.933	103.59
406.142	27.82
406.35	140.46
406.559	50.35
406.768	33.96
406.977	97.45
407.185	64.68
407.394	11.43
407.603	-4.95
407.812	-13.14
408.02	152.74
408.229	126.12
408.438	50.35
408.646	-133.97
408.855	46.25
409.064	31.91
409.272	33.96
409.481	76.97
409.69	68.78
409.898	-101.2
410.107	50.35
410.315	89.26
410.524	33.96
410.733	-15.19
410.941	46.25
411.15	85.16
411.358	44.2
411.567	173.22
411.775	9.39
411.984	52.39
412.192	15.53
412.401	11.43
412.609	193.7
412.818	122.02
413.026	91.31
413.234	19.63
413.443	124.07
413.651	25.77
413.86	40.11
414.068	173.22
414.276	208.04
414.485	17.58
414.693	101.55
414.901	156.84
415.11	87.21
415.318	-13.14
415.526	134.31
415.734	79.02
415.943	122.02
416.151	193.7
416.359	93.35
416.567	89.26
416.776	68.78
416.984	124.07
417.192	228.52
417.4	-25.43
417.608	-21.33
417.817	3.24
418.025	140.46
418.233	169.13
418.441	-41.81
418.649	5.29
418.857	79.02
419.065	130.22
419.273	27.82
419.481	89.26
419.689	17.58
419.897	44.2
420.105	-45.91
420.313	115.88
420.521	134.31
420.729	185.51
420.937	-78.68
421.145	33.96
421.353	132.26
421.561	216.23
421.769	58.54
421.977	31.91
422.185	119.98
422.393	70.83
422.601	173.22
422.809	48.3
423.017	48.3
423.224	91.31
423.432	132.26
423.64	52.39
423.848	165.03
424.056	36.01
424.263	97.45
424.471	87.21
424.679	105.64
424.887	-25.43
425.094	189.61
425.302	68.78
425.51	111.78
425.718	126.12
425.925	128.17
426.133	50.35
426.341	185.51
426.548	29.87
426.756	25.77
426.964	165.03
427.171	-9.05
427.379	109.74
427.586	81.07
427.794	54.44
428.001	142.5
428.209	162.98
428.417	152.74
428.624	160.94
428.832	160.94
429.039	74.92
429.247	91.31
429.454	119.98
429.662	185.51
429.869	85.16
430.076	56.49
430.284	111.78
430.491	162.98
430.699	138.41
430.906	195.75
431.114	150.7
431.321	105.64
431.528	42.15
431.736	193.7
431.943	160.94
432.15	134.31
432.358	119.98
432.565	251.05
432.772	60.59
432.979	171.18
433.187	95.4
433.394	160.94
433.601	158.89
433.808	234.66
434.016	263.33
434.223	208.04
434.43	246.95
434.637	226.47
434.844	275.62
435.052	257.19
435.259	242.85
435.466	242.85
435.673	193.7
435.88	234.66
436.087	345.25
436.294	273.57
436.501	322.73
436.708	275.62
436.915	257.19
437.122	316.58
437.329	251.05
437.537	396.45
437.743	347.3
437.95	416.93
438.157	322.73
438.364	369.83
438.571	328.87
438.778	455.84
438.985	414.88
439.192	525.47
439.399	386.21
439.606	453.8
439.813	490.66
440.02	552.1
440.227	744.61
440.433	588.96
440.64	498.85
440.847	511.14
441.054	593.06
441.261	634.02
441.467	586.91
441.674	484.52
441.881	691.36
442.088	562.34
442.294	738.46
442.501	742.56
442.708	824.48
442.914	722.08
443.121	836.77
443.328	881.82
443.534	943.26
443.741	957.6
443.948	767.13
444.154	830.62
444.361	996.51
444.568	957.6
444.774	965.79
444.981	945.31
445.187	1203.35
445.394	1090.71
445.6	1092.76
445.807	1229.98
446.013	1184.92
446.22	1131.67
446.426	1348.76
446.633	1432.72
446.839	1588.37
447.046	1377.43
447.252	1610.9
447.459	1658
447.665	1584.27
447.871	1744.02
448.078	1914
448.284	1811.6
448.491	2012.3
448.697	2020.49
448.903	2006.16
449.11	2129.03
449.316	2143.37
449.522	2311.3
449.728	2360.45
449.935	2397.32
450.141	2434.18
450.347	2692.23
450.553	2577.54
450.76	2741.38
450.966	2935.93
451.172	2894.97
451.378	3085.44
451.584	3007.61
451.791	3349.62
451.997	3525.75
452.203	3488.89
452.409	3617.91
452.615	3931.25
452.821	3708.02
453.027	3806.32
453.233	4420.71
453.44	4015.21
453.646	4537.45
453.852	4387.94
454.058	4678.76
454.264	4775.01
454.47	5069.92
454.676	5102.68
454.882	5674.07
455.088	5389.4
455.294	5821.52
455.5	6026.32
455.705	6458.44
455.911	6476.87
456.117	6437.96
456.323	6982.72
456.529	6741.06
456.735	7439.42
456.941	7646.26
457.147	7992.37
457.352	8217.65
457.558	8301.61
457.764	9079.84
457.97	9176.09
458.176	9557.02
458.381	10026
458.587	10222.61
458.793	10613.77
458.999	10759.17
459.204	12067.83
459.41	12372.97
459.616	12170.22
459.821	13089.76
460.027	13679.58
460.233	14166.99
460.438	14146.51
460.644	14971.85
460.85	15248.32
461.055	15758.27
461.261	16860.07
461.466	16280.5
461.672	16642.99
461.878	18621.33
462.083	18641.81
462.289	18688.91
462.494	19364.74
462.7	19643.26
462.905	19913.59
463.111	21504.87
463.316	22719.31
463.522	22733.65
463.727	23487.3
463.932	24718.13
464.138	25162.54
464.343	26698.52
464.549	26458.9
464.754	28400.38
464.959	29293.29
465.165	29545.19
465.37	29369.07
465.575	29514.47
465.781	31464.14
465.986	32072.39
466.191	32019.14
466.397	32142.02
466.602	31486.67
466.807	33366.7
467.012	33524.4
467.218	34300.58
467.423	34923.16
467.628	34876.05
467.833	37128.82
468.038	36303.49
468.244	35949.19
468.449	37534.32
468.654	36600.44
468.859	36735.61
469.064	36946.55
