Data from USB4F104151__89__10-34-45-532.txt Node

Date: Wed Feb 26 10:34:45 EST 2025
User: louis
Spectrometer: USB4F10415
Trigger mode: 4
Integration Time (sec): 1.000000E-1
Scans to average: 1
Electric dark correction enabled: true
Nonlinearity correction enabled: false
Boxcar width: 0
XAxis mode: Wavelengths
Number of Pixels in Spectrum: 3648
>>>>>Begin Spectral Data<<<<<
178.204	-407.55
178.424	-407.55
178.644	-407.55
178.864	-466.94
179.084	-423.93
179.304	8.19
179.524	-32.77
179.744	57.34
179.964	45.06
180.184	63.49
180.404	10.24
180.624	-112.64
180.844	-26.62
181.064	-59.39
181.283	-6.14
181.503	-16.38
181.723	69.63
181.943	-36.86
182.163	131.07
182.383	-32.77
182.602	92.16
182.822	112.64
183.042	-32.77
183.262	59.39
183.482	53.25
183.701	28.67
183.921	69.63
184.141	-59.39
184.361	69.63
184.58	40.96
184.8	28.67
185.02	8.19
185.239	81.92
185.459	63.49
185.679	32.77
185.898	-102.4
186.118	-18.43
186.338	120.83
186.557	106.49
186.777	-12.29
186.997	-51.2
187.216	-24.58
187.436	149.5
187.655	73.73
187.875	129.02
188.095	14.34
188.314	215.04
188.534	122.88
188.753	36.86
188.973	59.39
189.192	169.98
189.412	43.01
189.631	40.96
189.851	61.44
190.07	157.69
190.29	-57.34
190.509	34.82
190.729	38.91
190.948	145.41
191.168	249.85
191.387	137.21
191.607	51.2
191.826	16.38
192.045	32.77
192.265	-34.82
192.484	86.01
192.704	77.82
192.923	-92.16
193.142	208.89
193.362	108.54
193.581	143.36
193.8	77.82
194.02	122.88
194.239	75.77
194.458	45.06
194.678	-16.38
194.897	67.58
195.116	34.82
195.335	28.67
195.555	86.01
195.774	-73.73
195.993	122.88
196.212	20.48
196.432	-34.82
196.651	-8.19
196.87	45.06
197.089	264.19
197.308	22.53
197.528	-59.39
197.747	-63.49
197.966	108.54
198.185	219.13
198.404	-49.15
198.623	69.63
198.842	98.3
199.062	118.78
199.281	114.69
199.5	75.77
199.719	38.91
199.938	30.72
200.157	79.87
200.376	77.82
200.595	118.78
200.814	8.19
201.033	-114.69
201.252	167.93
201.471	81.92
201.69	100.35
201.909	38.91
202.128	129.02
202.347	73.73
202.566	73.73
202.785	-16.38
203.004	10.24
203.223	221.18
203.442	18.43
203.661	-102.4
203.879	30.72
204.098	153.6
204.317	-28.67
204.536	86.01
204.755	77.82
204.974	135.17
205.193	-4.1
205.411	122.88
205.63	137.21
205.849	96.25
206.068	45.06
206.287	-73.73
206.505	106.49
206.724	38.91
206.943	-77.82
207.162	38.91
207.381	77.82
207.599	-28.67
207.818	71.68
208.037	-38.91
208.255	77.82
208.474	71.68
208.693	40.96
208.911	12.29
209.13	32.77
209.349	65.54
209.567	71.68
209.786	118.78
210.005	98.3
210.223	0
210.442	-30.72
210.661	16.38
210.879	83.97
211.098	65.54
211.316	16.38
211.535	24.58
211.753	40.96
211.972	10.24
212.191	-24.58
212.409	-12.29
212.628	178.17
212.846	40.96
213.065	90.11
213.283	110.59
213.502	-57.34
213.72	38.91
213.938	26.62
214.157	6.14
214.375	14.34
214.594	47.1
214.812	51.2
215.031	45.06
215.249	73.73
215.467	69.63
215.686	-16.38
215.904	-4.1
216.122	49.15
216.341	159.74
216.559	67.58
216.778	59.39
216.996	137.21
217.214	22.53
217.432	-22.53
217.651	-63.49
217.869	0
218.087	28.67
218.306	32.77
218.524	-6.14
218.742	-43.01
218.96	57.34
219.179	-79.87
219.397	36.86
219.615	143.36
219.833	131.07
220.051	-63.49
220.27	120.83
220.488	133.12
220.706	73.73
220.924	-71.68
221.142	-51.2
221.36	59.39
221.578	122.88
221.796	65.54
222.015	18.43
222.233	47.1
222.451	122.88
222.669	-18.43
222.887	73.73
223.105	30.72
223.323	-26.62
223.541	-77.82
223.759	30.72
223.977	16.38
224.195	126.97
224.413	75.77
224.631	-4.1
224.849	77.82
225.067	172.03
225.285	-34.82
225.503	-75.77
225.721	-30.72
225.939	77.82
226.157	-22.53
226.375	184.32
226.592	32.77
226.81	32.77
227.028	155.65
227.246	139.26
227.464	32.77
227.682	122.88
227.9	-16.38
228.117	61.44
228.335	69.63
228.553	88.06
228.771	30.72
228.989	28.67
229.206	49.15
229.424	-61.44
229.642	0
229.86	-57.34
230.077	108.54
230.295	92.16
230.513	157.69
230.731	88.06
230.948	143.36
231.166	212.99
231.384	2.05
231.601	-53.25
231.819	161.79
232.037	-32.77
232.254	-18.43
232.472	45.06
232.689	-10.24
232.907	129.02
233.125	49.15
233.342	-67.58
233.56	-20.48
233.777	-30.72
233.995	40.96
234.213	55.3
234.43	16.38
234.648	-2.05
234.865	-16.38
235.083	32.77
235.3	67.58
235.518	133.12
235.735	137.21
235.953	4.1
236.17	-71.68
236.388	12.29
236.605	14.34
236.822	116.73
237.04	77.82
237.257	77.82
237.475	-2.05
237.692	94.21
237.909	118.78
238.127	2.05
238.344	96.25
238.562	-8.19
238.779	-32.77
238.996	-20.48
239.214	43.01
239.431	55.3
239.648	32.77
239.865	73.73
240.083	116.73
240.3	-12.29
240.517	24.58
240.735	6.14
240.952	135.17
241.169	36.86
241.386	22.53
241.603	67.58
241.821	-16.38
242.038	126.97
242.255	81.92
242.472	-38.91
242.689	75.77
242.907	34.82
243.124	49.15
243.341	-2.05
243.558	-63.49
243.775	-34.82
243.992	6.14
244.209	155.65
244.426	124.93
244.643	67.58
244.86	22.53
245.078	133.12
245.295	73.73
245.512	0
245.729	-57.34
245.946	73.73
246.163	100.35
246.38	88.06
246.597	24.58
246.814	75.77
247.031	10.24
247.248	38.91
247.464	102.4
247.681	86.01
247.898	135.17
248.115	75.77
248.332	-24.58
248.549	223.23
248.766	131.07
248.983	124.93
249.2	59.39
249.417	122.88
249.633	-22.53
249.85	149.5
250.067	22.53
250.284	63.49
250.501	106.49
250.717	32.77
250.934	-53.25
251.151	32.77
251.368	43.01
251.585	49.15
251.801	-18.43
252.018	-73.73
252.235	112.64
252.451	2.05
252.668	-45.06
252.885	92.16
253.102	14.34
253.318	-22.53
253.535	28.67
253.752	-2.05
253.968	12.29
254.185	-16.38
254.401	-32.77
254.618	94.21
254.835	-45.06
255.051	126.97
255.268	22.53
255.484	30.72
255.701	14.34
255.917	55.3
256.134	47.1
256.351	22.53
256.567	-73.73
256.784	108.54
257	-102.4
257.217	96.25
257.433	120.83
257.65	-12.29
257.866	120.83
258.082	-16.38
258.299	-20.48
258.515	94.21
258.732	32.77
258.948	-57.34
259.165	143.36
259.381	34.82
259.597	2.05
259.814	38.91
260.03	86.01
260.246	-24.58
260.463	108.54
260.679	200.7
260.895	69.63
261.112	71.68
261.328	18.43
261.544	-51.2
261.761	118.78
261.977	-8.19
262.193	-98.3
262.409	81.92
262.626	2.05
262.842	4.1
263.058	-18.43
263.274	129.02
263.49	114.69
263.707	49.15
263.923	98.3
264.139	-73.73
264.355	16.38
264.571	106.49
264.787	100.35
265.004	126.97
265.22	-12.29
265.436	-43.01
265.652	49.15
265.868	18.43
266.084	-114.69
266.3	28.67
266.516	-24.58
266.732	69.63
266.948	-6.14
267.164	-10.24
267.38	83.97
267.596	106.49
267.812	161.79
268.028	45.06
268.244	18.43
268.46	40.96
268.676	-28.67
268.892	116.73
269.108	-79.87
269.324	-81.92
269.54	-79.87
269.756	12.29
269.972	-36.86
270.188	0
270.403	-143.36
270.619	6.14
270.835	88.06
271.051	45.06
271.267	47.1
271.483	61.44
271.698	32.77
271.914	61.44
272.13	45.06
272.346	-61.44
272.562	45.06
272.777	180.22
272.993	36.86
273.209	10.24
273.425	161.79
273.64	-51.2
273.856	69.63
274.072	-40.96
274.287	-16.38
274.503	141.31
274.719	122.88
274.934	-28.67
275.15	-75.77
275.366	151.55
275.581	24.58
275.797	-20.48
276.012	0
276.228	-45.06
276.444	59.39
276.659	145.41
276.875	71.68
277.09	-57.34
277.306	24.58
277.521	120.83
277.737	4.1
277.952	145.41
278.168	26.62
278.383	110.59
278.599	-20.48
278.814	28.67
279.03	-36.86
279.245	172.03
279.461	94.21
279.676	112.64
279.892	-53.25
280.107	-24.58
280.322	-12.29
280.538	59.39
280.753	71.68
280.969	104.45
281.184	83.97
281.399	122.88
281.615	32.77
281.83	122.88
282.045	-16.38
282.26	6.14
282.476	43.01
282.691	139.26
282.906	106.49
283.122	-36.86
283.337	-34.82
283.552	34.82
283.767	-47.1
283.983	86.01
284.198	20.48
284.413	81.92
284.628	45.06
284.843	-16.38
285.058	88.06
285.274	26.62
285.489	24.58
285.704	137.21
285.919	-24.58
286.134	24.58
286.349	26.62
286.564	-36.86
286.779	100.35
286.995	-18.43
287.21	-90.11
287.425	32.77
287.64	8.19
287.855	53.25
288.07	-26.62
288.285	126.97
288.5	43.01
288.715	112.64
288.93	75.77
289.145	-26.62
289.36	112.64
289.575	77.82
289.79	69.63
290.004	-24.58
290.219	122.88
290.434	-49.15
290.649	-2.05
290.864	32.77
291.079	12.29
291.294	108.54
291.509	2.05
291.724	26.62
291.938	-4.1
292.153	-20.48
292.368	26.62
292.583	0
292.798	59.39
293.012	-20.48
293.227	55.3
293.442	-20.48
293.657	143.36
293.871	69.63
294.086	40.96
294.301	182.27
294.516	77.82
294.73	49.15
294.945	-4.1
295.16	16.38
295.374	137.21
295.589	104.45
295.804	-16.38
296.018	57.34
296.233	184.32
296.447	30.72
296.662	-2.05
296.877	26.62
297.091	86.01
297.306	10.24
297.52	10.24
297.735	59.39
297.949	90.11
298.164	12.29
298.378	40.96
298.593	8.19
298.807	10.24
299.022	57.34
299.236	190.46
299.451	-57.34
299.665	-20.48
299.88	67.58
300.094	2.05
300.309	102.4
300.523	34.82
300.737	28.67
300.952	77.82
301.166	32.77
301.381	-65.53
301.595	-53.25
301.809	16.38
302.024	-53.25
302.238	20.48
302.452	169.98
302.667	32.77
302.881	176.13
303.095	53.25
303.309	32.77
303.524	-28.67
303.738	63.49
303.952	6.14
304.166	98.3
304.381	-30.72
304.595	137.21
304.809	40.96
305.023	22.53
305.237	-20.48
305.452	57.34
305.666	129.02
305.88	26.62
306.094	120.83
306.308	57.34
306.522	69.63
306.736	65.54
306.95	45.06
307.164	26.62
307.379	79.87
307.593	116.73
307.807	94.21
308.021	73.73
308.235	116.73
308.449	-102.4
308.663	6.14
308.877	186.37
309.091	67.58
309.305	92.16
309.519	-47.1
309.733	139.26
309.947	-63.49
310.161	118.78
310.374	102.4
310.588	73.73
310.802	-30.72
311.016	-14.34
311.23	-20.48
311.444	-24.58
311.658	116.73
311.872	112.64
312.085	67.58
312.299	147.45
312.513	45.06
312.727	40.96
312.941	-96.25
313.154	71.68
313.368	32.77
313.582	75.77
313.796	92.16
314.009	-28.67
314.223	88.06
314.437	-2.05
314.651	81.92
314.864	2.05
315.078	26.62
315.292	4.1
315.505	6.14
315.719	114.69
315.933	100.35
316.146	16.38
316.36	18.43
316.573	100.35
316.787	159.74
317.001	67.58
317.214	-73.73
317.428	83.97
317.641	-24.58
317.855	28.67
318.068	40.96
318.282	-32.77
318.495	141.31
318.709	20.48
318.922	24.58
319.136	147.45
319.349	98.3
319.563	0
319.776	61.44
319.99	-14.34
320.203	102.4
320.417	49.15
320.63	100.35
320.843	131.07
321.057	83.97
321.27	28.67
321.483	141.31
321.697	159.74
321.91	-2.05
322.124	28.67
322.337	40.96
322.55	6.14
322.763	69.63
322.977	-16.38
323.19	12.29
323.403	18.43
323.617	79.87
323.83	141.31
324.043	-32.77
324.256	61.44
324.469	-59.39
324.683	137.21
324.896	-12.29
325.109	-2.05
325.322	-47.1
325.535	118.78
325.748	110.59
325.962	18.43
326.175	10.24
326.388	55.3
326.601	69.63
326.814	-32.77
327.027	67.58
327.24	108.54
327.453	-18.43
327.666	61.44
327.879	77.82
328.092	104.45
328.305	28.67
328.518	8.19
328.731	-24.58
328.944	122.88
329.157	61.44
329.37	22.53
329.583	200.7
329.796	129.02
330.009	-28.67
330.222	36.86
330.435	69.63
330.648	67.58
330.861	47.1
331.073	-8.19
331.286	153.6
331.499	16.38
331.712	-24.58
331.925	59.39
332.138	49.15
332.35	98.3
332.563	-10.24
332.776	79.87
332.989	22.53
333.202	57.34
333.414	34.82
333.627	47.1
333.84	51.2
334.053	-34.82
334.265	-12.29
334.478	0
334.691	65.54
334.903	43.01
335.116	-40.96
335.329	65.54
335.541	75.77
335.754	79.87
335.966	-40.96
336.179	40.96
336.392	104.45
336.604	-55.3
336.817	159.74
337.029	22.53
337.242	51.2
337.454	67.58
337.667	-24.58
337.88	102.4
338.092	0
338.305	114.69
338.517	-8.19
338.729	65.54
338.942	65.54
339.154	45.06
339.367	-51.2
339.579	18.43
339.792	-12.29
340.004	75.77
340.217	8.19
340.429	16.38
340.641	8.19
340.854	-22.53
341.066	-28.67
341.278	184.32
341.491	102.4
341.703	8.19
341.915	22.53
342.128	108.54
342.34	55.3
342.552	47.1
342.764	104.45
342.977	-16.38
343.189	-8.19
343.401	79.87
343.613	-16.38
343.826	-16.38
344.038	-16.38
344.25	18.43
344.462	102.4
344.674	36.86
344.886	100.35
345.099	98.3
345.311	53.25
345.523	-90.11
345.735	-67.58
345.947	106.49
346.159	-49.15
346.371	43.01
346.583	43.01
346.795	241.66
347.007	0
347.219	133.12
347.431	47.1
347.643	92.16
347.855	-24.58
348.067	79.87
348.279	-81.92
348.491	-30.72
348.703	102.4
348.915	30.72
349.127	14.34
349.339	104.45
349.551	32.77
349.763	169.98
349.975	124.93
350.187	112.64
350.399	90.11
350.61	34.82
350.822	-2.05
351.034	47.1
351.246	36.86
351.458	77.82
351.669	26.62
351.881	14.34
352.093	151.55
352.305	88.06
352.517	92.16
352.728	32.77
352.94	32.77
353.152	94.21
353.363	-14.34
353.575	120.83
353.787	141.31
353.999	40.96
354.21	88.06
354.422	16.38
354.633	-24.58
354.845	20.48
355.057	14.34
355.268	77.82
355.48	104.45
355.692	-22.53
355.903	135.17
356.115	2.05
356.326	-108.54
356.538	61.44
356.749	73.73
356.961	178.17
357.172	145.41
357.384	2.05
357.595	212.99
357.807	-61.44
358.018	-49.15
358.23	26.62
358.441	88.06
358.653	30.72
358.864	18.43
359.075	24.58
359.287	30.72
359.498	106.49
359.709	59.39
359.921	30.72
360.132	51.2
360.344	14.34
360.555	-51.2
360.766	43.01
360.977	12.29
361.189	145.41
361.4	36.86
361.611	83.97
361.823	81.92
362.034	108.54
362.245	-32.77
362.456	34.82
362.667	61.44
362.879	-28.67
363.09	169.98
363.301	118.78
363.512	6.14
363.723	-20.48
363.935	88.06
364.146	122.88
364.357	18.43
364.568	53.25
364.779	-47.1
364.99	81.92
365.201	-24.58
365.412	135.17
365.623	-6.14
365.834	12.29
366.045	-16.38
366.256	75.77
366.467	114.69
366.678	-8.19
366.889	26.62
367.1	-18.43
367.311	79.87
367.522	24.58
367.733	59.39
367.944	65.54
368.155	0
368.366	75.77
368.577	86.01
368.788	124.93
368.999	4.1
369.209	63.49
369.42	157.69
369.631	204.8
369.842	55.3
370.053	-10.24
370.264	4.1
370.474	-77.82
370.685	59.39
370.896	-30.72
371.107	120.83
371.317	53.25
371.528	-30.72
371.739	147.45
371.95	28.67
372.16	61.44
372.371	-49.15
372.582	-4.1
372.792	59.39
373.003	110.59
373.214	75.77
373.424	53.25
373.635	-38.91
373.846	112.64
374.056	71.68
374.267	30.72
374.477	65.54
374.688	-36.86
374.898	34.82
375.109	43.01
375.319	28.67
375.53	165.89
375.74	86.01
375.951	-45.06
376.161	12.29
376.372	143.36
376.582	45.06
376.793	0
377.003	-2.05
377.214	18.43
377.424	157.69
377.635	16.38
377.845	-22.53
378.055	131.07
378.266	-12.29
378.476	-18.43
378.686	22.53
378.897	34.82
379.107	98.3
379.317	86.01
379.528	10.24
379.738	73.73
379.948	4.1
380.158	120.83
380.369	43.01
380.579	83.97
380.789	6.14
380.999	81.92
381.21	108.54
381.42	176.13
381.63	-2.05
381.84	83.97
382.05	77.82
382.261	124.93
382.471	137.21
382.681	-8.19
382.891	192.51
383.101	59.39
383.311	22.53
383.521	-59.39
383.731	55.3
383.941	124.93
384.151	59.39
384.361	61.44
384.571	86.01
384.781	77.82
384.991	151.55
385.201	141.31
385.411	24.58
385.621	69.63
385.831	53.25
386.041	34.82
386.251	43.01
386.461	55.3
386.671	32.77
386.881	157.69
387.091	8.19
387.301	104.45
387.511	18.43
387.72	120.83
387.93	151.55
388.14	-55.3
388.35	22.53
388.56	104.45
388.769	149.5
388.979	26.62
389.189	-20.48
389.399	-6.14
389.609	12.29
389.818	135.17
390.028	30.72
390.238	112.64
390.447	10.24
390.657	108.54
390.867	-36.86
391.076	-14.34
391.286	53.25
391.496	61.44
391.705	-34.82
391.915	147.45
392.125	83.97
392.334	12.29
392.544	75.77
392.753	-8.19
392.963	-12.29
393.172	14.34
393.382	-71.68
393.591	151.55
393.801	-43.01
394.01	116.73
394.22	69.63
394.429	47.1
394.639	-24.58
394.848	126.97
395.058	16.38
395.267	34.82
395.477	69.63
395.686	65.54
395.895	180.22
396.105	167.93
396.314	45.06
396.524	-22.53
396.733	61.44
396.942	98.3
397.152	47.1
397.361	120.83
397.57	67.58
397.78	45.06
397.989	73.73
398.198	210.94
398.407	26.62
398.617	69.63
398.826	79.87
399.035	-67.58
399.244	59.39
399.453	79.87
399.663	49.15
399.872	65.54
400.081	-86.01
400.29	204.8
400.499	-49.15
400.708	104.45
400.917	14.34
401.127	-8.19
401.336	0
401.545	210.94
401.754	135.17
401.963	98.3
402.172	-34.82
402.381	-90.11
402.59	45.06
402.799	114.69
403.008	6.14
403.217	28.67
403.426	108.54
403.635	-67.58
403.844	53.25
404.053	59.39
404.262	88.06
404.471	147.45
404.68	30.72
404.888	30.72
405.097	45.06
405.306	43.01
405.515	69.63
405.724	6.14
405.933	188.41
406.142	57.34
406.35	53.25
406.559	49.15
406.768	55.3
406.977	141.31
407.185	100.35
407.394	57.34
407.603	-10.24
407.812	45.06
408.02	81.92
408.229	49.15
408.438	73.73
408.646	-6.14
408.855	2.05
409.064	22.53
409.272	53.25
409.481	143.36
409.69	-4.1
409.898	-8.19
410.107	98.3
410.315	116.73
410.524	-4.1
410.733	38.91
410.941	63.49
411.15	102.4
411.358	88.06
411.567	118.78
411.775	8.19
411.984	-36.86
412.192	116.73
412.401	30.72
412.609	147.45
412.818	178.17
413.026	43.01
413.234	16.38
413.443	40.96
413.651	32.77
413.86	55.3
414.068	161.79
414.276	188.41
414.485	8.19
414.693	217.08
414.901	172.03
415.11	110.59
415.318	-18.43
415.526	18.43
415.734	133.12
415.943	65.54
416.151	88.06
416.359	20.48
416.567	34.82
416.776	102.4
416.984	169.98
417.192	182.27
417.4	22.53
417.608	24.58
417.817	-55.3
418.025	67.58
418.233	184.32
418.441	10.24
418.649	-8.19
418.857	102.4
419.065	98.3
419.273	59.39
419.481	55.3
419.689	118.78
419.897	-45.06
420.105	45.06
420.313	112.64
420.521	83.97
420.729	151.55
420.937	-40.96
421.145	-2.05
421.353	83.97
421.561	192.51
421.769	61.44
421.977	108.54
422.185	102.4
422.393	69.63
422.601	108.54
422.809	86.01
423.017	96.25
423.224	32.77
423.432	112.64
423.64	77.82
423.848	108.54
424.056	53.25
424.263	110.59
424.471	16.38
424.679	157.69
424.887	8.19
425.094	198.65
425.302	65.54
425.51	73.73
425.718	163.84
425.925	24.58
426.133	24.58
426.341	268.28
426.548	137.21
426.756	45.06
426.964	135.17
427.171	38.91
427.379	102.4
427.586	75.77
427.794	161.79
428.001	124.93
428.209	114.69
428.417	143.36
428.624	81.92
428.832	102.4
429.039	149.5
429.247	92.16
429.454	32.77
429.662	264.19
429.869	86.01
430.076	124.93
430.284	88.06
430.491	270.33
430.699	192.51
430.906	268.28
431.114	161.79
431.321	67.58
431.528	210.94
431.736	188.41
431.943	239.61
432.15	243.71
432.358	219.13
432.565	305.15
432.772	-2.05
432.979	272.38
433.187	215.04
433.394	235.52
433.601	192.51
433.808	276.48
434.016	358.39
434.223	368.63
434.43	274.43
434.637	229.37
434.844	378.87
435.052	286.72
435.259	348.15
435.466	354.3
435.673	354.3
435.88	368.63
436.087	432.12
436.294	401.4
436.501	335.87
436.708	313.34
436.915	387.07
437.122	485.37
437.329	342.01
437.537	378.87
437.743	432.12
437.95	511.99
438.157	487.42
438.364	419.83
438.571	516.09
438.778	567.29
438.985	491.51
439.192	600.05
439.399	546.81
439.606	577.53
439.813	567.29
440.02	759.8
440.227	802.8
440.433	675.83
440.64	661.49
440.847	686.07
441.054	739.32
441.261	870.39
441.467	819.19
441.674	741.36
441.881	849.91
442.088	831.48
442.294	874.48
442.501	997.36
442.708	956.4
442.914	1023.98
443.121	1091.57
443.328	1079.28
443.534	1150.96
443.741	1234.93
443.948	983.02
444.154	1198.06
444.361	1413.1
444.568	1265.64
444.774	1294.32
444.981	1232.88
445.187	1484.78
445.394	1574.89
445.6	1423.34
445.807	1728.49
446.013	1609.7
446.22	1505.26
446.426	1863.65
446.633	1873.89
446.839	2002.91
447.046	1853.41
447.252	1980.39
447.459	2105.31
447.665	2156.51
447.871	2285.53
448.078	2471.9
448.284	2367.45
448.491	2578.39
448.697	2635.74
448.903	2762.71
449.11	2770.9
449.316	2807.77
449.522	3112.91
449.728	3069.91
449.935	3235.79
450.141	3190.74
450.347	3598.28
450.553	3323.85
450.76	3499.98
450.966	3741.64
451.172	3925.96
451.378	3968.96
451.584	4054.98
451.791	4407.23
451.997	4530.11
452.203	4704.18
452.409	4972.47
452.615	5138.35
452.821	4849.59
453.027	4935.6
453.233	5601.19
453.44	5347.25
453.646	5625.77
453.852	6000.55
454.058	6170.53
454.264	6377.37
454.47	6946.71
454.676	6868.89
454.882	7567.24
455.088	6995.86
455.294	7638.92
455.5	8083.33
455.705	8511.36
455.911	8388.48
456.117	8632.19
456.323	8951.67
456.529	8990.58
456.735	9797.48
456.941	10104.68
457.147	10407.78
457.352	10577.76
457.558	11083.61
457.764	11939.66
457.97	12224.33
458.176	12494.66
458.381	13023.03
458.587	13389.62
458.793	13995.82
458.999	14118.7
459.204	15841.04
459.41	16396.04
459.616	16131.85
459.821	17174.27
460.027	17585.91
460.233	18427.62
460.438	18611.94
460.644	19769.04
460.85	20084.43
461.055	20704.96
461.261	21608.12
461.466	21497.53
461.672	21708.47
461.878	24487.56
462.083	23975.57
462.289	24665.74
462.494	25509.5
462.7	25685.62
462.905	26064.5
463.111	28188.24
463.316	29496.89
463.522	29875.77
463.727	30785.07
463.932	32355.86
464.138	33308.16
464.343	34412.02
464.549	34647.54
464.754	36984.27
464.959	38309.3
465.165	38487.48
465.37	38653.36
465.575	38055.36
465.781	40687
465.986	41633.16
466.191	41614.72
466.397	41905.54
466.602	40787.35
466.807	43335.02
467.012	43955.55
467.218	44815.7
467.423	44729.69
467.628	46142.78
467.833	48735.51
468.038	47535.4
468.244	46437.69
