Data from USB4F104151__46__11-26-44-292.txt Node

Date: Wed Feb 26 11:26:44 EST 2025
User: louis
Spectrometer: USB4F10415
Trigger mode: 4
Integration Time (sec): 1.000000E-1
Scans to average: 1
Electric dark correction enabled: true
Nonlinearity correction enabled: false
Boxcar width: 0
XAxis mode: Wavelengths
Number of Pixels in Spectrum: 3648
>>>>>Begin Spectral Data<<<<<
178.204	-373.41
178.424	-373.41
178.644	-373.41
178.864	-420.52
179.084	-369.32
179.304	17.75
179.524	-51.88
179.744	-19.11
179.964	60.76
180.184	48.47
180.404	38.23
180.624	-55.98
180.844	111.96
181.064	-21.16
181.283	-4.78
181.503	-125.61
181.723	1.37
181.943	-43.69
182.163	167.25
182.383	-47.79
182.602	62.8
182.822	154.96
183.042	62.8
183.262	3.41
183.482	15.7
183.701	25.94
183.921	66.9
184.141	-78.51
184.361	48.47
184.58	109.91
184.8	-12.97
185.02	-8.87
185.239	150.87
185.459	42.32
185.679	48.47
185.898	-58.03
186.118	-2.73
186.338	126.29
186.557	128.34
186.777	-27.31
186.997	-119.46
187.216	73.04
187.436	228.69
187.655	142.68
187.875	95.57
188.095	30.04
188.314	120.15
188.534	130.39
188.753	-41.64
188.973	114
189.192	132.44
189.412	13.65
189.631	66.9
189.851	34.13
190.07	228.69
190.29	-84.65
190.509	-39.59
190.729	116.05
190.948	97.62
191.168	300.37
191.387	126.29
191.607	17.75
191.826	64.85
192.045	52.56
192.265	11.61
192.484	58.71
192.704	50.52
192.923	-12.97
193.142	238.93
193.362	130.39
193.581	130.39
193.8	54.61
194.02	95.57
194.239	105.81
194.458	75.09
194.678	-0.68
194.897	68.95
195.116	68.95
195.335	5.46
195.555	68.95
195.774	1.37
195.993	124.24
196.212	-4.78
196.432	-10.92
196.651	23.89
196.87	44.37
197.089	261.46
197.308	107.86
197.528	46.42
197.747	-84.65
197.966	-2.73
198.185	130.39
198.404	40.28
198.623	48.47
198.842	150.87
199.062	81.24
199.281	71
199.5	60.76
199.719	159.06
199.938	54.61
200.157	71
200.376	111.96
200.595	132.44
200.814	77.14
201.033	-23.21
201.252	204.11
201.471	105.81
201.69	-0.68
201.909	66.9
202.128	56.66
202.347	97.62
202.566	-12.97
202.785	-35.5
203.004	-47.79
203.223	271.7
203.442	36.18
203.661	9.56
203.879	101.72
204.098	30.04
204.317	-45.74
204.536	183.63
204.755	56.66
204.974	124.24
205.193	-33.45
205.411	200.02
205.63	146.77
205.849	46.42
206.068	-21.16
206.287	-35.5
206.505	159.06
206.724	25.94
206.943	9.56
207.162	-10.92
207.381	122.2
207.599	5.46
207.818	36.18
208.037	-15.02
208.255	64.85
208.474	101.72
208.693	58.71
208.911	-21.16
209.13	107.86
209.349	75.09
209.567	93.52
209.786	120.15
210.005	179.54
210.223	27.99
210.442	-105.13
210.661	54.61
210.879	48.47
211.098	48.47
211.316	73.04
211.535	97.62
211.753	17.75
211.972	48.47
212.191	-8.87
212.409	62.8
212.628	56.66
212.846	-41.64
213.065	79.19
213.283	107.86
213.502	60.76
213.72	62.8
213.938	25.94
214.157	15.7
214.375	124.24
214.594	-2.73
214.812	60.76
215.031	111.96
215.249	38.23
215.467	81.24
215.686	38.23
215.904	-2.73
216.122	44.37
216.341	185.68
216.559	130.39
216.778	202.07
216.996	159.06
217.214	-70.31
217.432	-19.11
217.651	-62.12
217.869	48.47
218.087	68.95
218.306	9.56
218.524	68.95
218.742	-23.21
218.96	146.77
219.179	7.51
219.397	60.76
219.615	214.35
219.833	101.72
220.051	40.28
220.27	-4.78
220.488	107.86
220.706	64.85
220.924	-19.11
221.142	-21.16
221.36	136.53
221.578	3.41
221.796	73.04
222.015	21.85
222.233	60.76
222.451	212.31
222.669	-76.46
222.887	107.86
223.105	23.89
223.323	-0.68
223.541	-31.4
223.759	-4.78
223.977	-60.07
224.195	128.34
224.413	75.09
224.631	99.67
224.849	1.37
225.067	267.6
225.285	5.46
225.503	-41.64
225.721	-80.55
225.939	138.58
226.157	68.95
226.375	247.12
226.592	32.08
226.81	38.23
227.028	128.34
227.246	146.77
227.464	101.72
227.682	111.96
227.9	52.56
228.117	183.63
228.335	91.48
228.553	-25.26
228.771	13.65
228.989	138.58
229.206	128.34
229.424	66.9
229.642	60.76
229.86	56.66
230.077	122.2
230.295	44.37
230.513	126.29
230.731	89.43
230.948	77.14
231.166	144.72
231.384	54.61
231.601	5.46
231.819	99.67
232.037	-8.87
232.254	-60.07
232.472	21.85
232.689	11.61
232.907	93.52
233.125	103.76
233.342	13.65
233.56	-21.16
233.777	-27.31
233.995	15.7
234.213	144.72
234.43	93.52
234.648	25.94
234.865	30.04
235.083	64.85
235.3	40.28
235.518	81.24
235.735	118.1
235.953	208.21
236.17	62.8
236.388	13.65
236.605	34.13
236.822	120.15
237.04	134.48
237.257	3.41
237.475	-55.98
237.692	89.43
237.909	50.52
238.127	-6.83
238.344	71
238.562	-68.27
238.779	-31.4
238.996	-94.89
239.214	-12.97
239.431	95.57
239.648	-33.45
239.865	116.05
240.083	25.94
240.3	75.09
240.517	-60.07
240.735	-6.83
240.952	173.39
241.169	71
241.386	85.33
241.603	132.44
241.821	-31.4
242.038	75.09
242.255	214.35
242.472	-49.83
242.689	150.87
242.907	144.72
243.124	81.24
243.341	-21.16
243.558	-4.78
243.775	-131.75
243.992	-41.64
244.209	114
244.426	224.59
244.643	13.65
244.86	36.18
245.078	134.48
245.295	60.76
245.512	54.61
245.729	13.65
245.946	118.1
246.163	15.7
246.38	87.38
246.597	89.43
246.814	91.48
247.031	-39.59
247.248	62.8
247.464	75.09
247.681	46.42
247.898	101.72
248.115	36.18
248.332	-78.51
248.549	193.87
248.766	195.92
248.983	50.52
249.2	93.52
249.417	99.67
249.633	50.52
249.85	93.52
250.067	34.13
250.284	42.32
250.501	97.62
250.717	62.8
250.934	-6.83
251.151	85.33
251.368	93.52
251.585	40.28
251.801	36.18
252.018	-62.12
252.235	126.29
252.451	-72.36
252.668	13.65
252.885	120.15
253.102	107.86
253.318	34.13
253.535	68.95
253.752	27.99
253.968	30.04
254.185	-15.02
254.401	-60.07
254.618	87.38
254.835	62.8
255.051	154.96
255.268	62.8
255.484	1.37
255.701	25.94
255.917	48.47
256.134	-6.83
256.351	32.08
256.567	-39.59
256.784	1.37
257	-19.11
257.217	89.43
257.433	136.53
257.65	126.29
257.866	144.72
258.082	-37.55
258.299	17.75
258.515	52.56
258.732	-25.26
258.948	-19.11
259.165	85.33
259.381	7.51
259.597	122.2
259.814	99.67
260.03	15.7
260.246	23.89
260.463	101.72
260.679	183.63
260.895	60.76
261.112	52.56
261.328	32.08
261.544	-29.35
261.761	240.98
261.977	7.51
262.193	-21.16
262.409	36.18
262.626	73.04
262.842	30.04
263.058	-8.87
263.274	152.91
263.49	103.76
263.707	85.33
263.923	75.09
264.139	19.8
264.355	81.24
264.571	97.62
264.787	81.24
265.004	161.11
265.22	23.89
265.436	-17.07
265.652	-4.78
265.868	60.76
266.084	-6.83
266.3	-6.83
266.516	-17.07
266.732	38.23
266.948	-12.97
267.164	103.76
267.38	118.1
267.596	124.24
267.812	195.92
268.028	66.9
268.244	11.61
268.46	71
268.676	73.04
268.892	36.18
269.108	-6.83
269.324	-55.98
269.54	32.08
269.756	48.47
269.972	-29.35
270.188	97.62
270.403	-90.79
270.619	89.43
270.835	101.72
271.051	54.61
271.267	-33.45
271.483	7.51
271.698	58.71
271.914	97.62
272.13	27.99
272.346	75.09
272.562	128.34
272.777	163.15
272.993	64.85
273.209	-60.07
273.425	157.01
273.64	-33.45
273.856	79.19
274.072	27.99
274.287	9.56
274.503	165.2
274.719	13.65
274.934	25.94
275.15	-33.45
275.366	30.04
275.581	-15.02
275.797	21.85
276.012	93.52
276.228	46.42
276.444	75.09
276.659	148.82
276.875	-2.73
277.09	66.9
277.306	40.28
277.521	13.65
277.737	27.99
277.952	111.96
278.168	46.42
278.383	68.95
278.599	44.37
278.814	68.95
279.03	25.94
279.245	202.07
279.461	75.09
279.676	9.56
279.892	-8.87
280.107	-45.74
280.322	19.8
280.538	71
280.753	54.61
280.969	64.85
281.184	107.86
281.399	120.15
281.615	79.19
281.83	52.56
282.045	-10.92
282.26	19.8
282.476	23.89
282.691	50.52
282.906	62.8
283.122	42.32
283.337	-53.93
283.552	21.85
283.767	27.99
283.983	97.62
284.198	-25.26
284.413	46.42
284.628	-39.59
284.843	66.9
285.058	97.62
285.274	-27.31
285.489	17.75
285.704	73.04
285.919	13.65
286.134	11.61
286.349	97.62
286.564	-23.21
286.779	159.06
286.995	5.46
287.21	-111.27
287.425	116.05
287.64	50.52
287.855	56.66
288.07	-111.27
288.285	83.28
288.5	109.91
288.715	99.67
288.93	25.94
289.145	27.99
289.36	48.47
289.575	9.56
289.79	79.19
290.004	-39.59
290.219	91.48
290.434	7.51
290.649	13.65
290.864	56.66
291.079	71
291.294	128.34
291.509	91.48
291.724	-2.73
291.938	81.24
292.153	5.46
292.368	66.9
292.583	44.37
292.798	38.23
293.012	66.9
293.227	56.66
293.442	19.8
293.657	97.62
293.871	157.01
294.086	52.56
294.301	169.3
294.516	85.33
294.73	30.04
294.945	-8.87
295.16	71
295.374	179.54
295.589	114
295.804	-74.41
296.018	87.38
296.233	48.47
296.447	124.24
296.662	23.89
296.877	111.96
297.091	97.62
297.306	71
297.52	73.04
297.735	42.32
297.949	54.61
298.164	27.99
298.378	64.85
298.593	-27.31
298.807	38.23
299.022	-21.16
299.236	185.68
299.451	19.8
299.665	19.8
299.88	79.19
300.094	122.2
300.309	118.1
300.523	71
300.737	7.51
300.952	11.61
301.166	118.1
301.381	-49.83
301.595	27.99
301.809	56.66
302.024	60.76
302.238	13.65
302.452	138.58
302.667	-17.07
302.881	165.2
303.095	85.33
303.309	52.56
303.524	-0.68
303.738	48.47
303.952	64.85
304.166	-0.68
304.381	-68.27
304.595	167.25
304.809	48.47
305.023	68.95
305.237	-23.21
305.452	44.37
305.666	134.48
305.88	132.44
306.094	93.52
306.308	107.86
306.522	77.14
306.736	140.63
306.95	154.96
307.164	21.85
307.379	56.66
307.593	181.59
307.807	122.2
308.021	128.34
308.235	85.33
308.449	-68.27
308.663	-0.68
308.877	144.72
309.091	64.85
309.305	95.57
309.519	-113.32
309.733	175.44
309.947	-66.22
310.161	103.76
310.374	124.24
310.588	128.34
310.802	48.47
311.016	27.99
311.23	48.47
311.444	-19.11
311.658	3.41
311.872	103.76
312.085	103.76
312.299	15.7
312.513	138.58
312.727	124.24
312.941	-2.73
313.154	132.44
313.368	75.09
313.582	58.71
313.796	30.04
314.009	52.56
314.223	134.48
314.437	48.47
314.651	83.28
314.864	-58.03
315.078	-29.35
315.292	-49.83
315.505	40.28
315.719	101.72
315.933	142.68
316.146	-2.73
316.36	-19.11
316.573	247.12
316.787	114
317.001	42.32
317.214	-0.68
317.428	64.85
317.641	-29.35
317.855	-15.02
318.068	-25.26
318.282	9.56
318.495	150.87
318.709	103.76
318.922	-2.73
319.136	142.68
319.349	75.09
319.563	32.08
319.776	60.76
319.99	-49.83
320.203	99.67
320.417	-12.97
320.63	58.71
320.843	210.26
321.057	19.8
321.27	73.04
321.483	130.39
321.697	189.78
321.91	87.38
322.124	23.89
322.337	40.28
322.55	5.46
322.763	32.08
322.977	50.52
323.19	27.99
323.403	73.04
323.617	120.15
323.83	111.96
324.043	-47.79
324.256	124.24
324.469	15.7
324.683	40.28
324.896	62.8
325.109	48.47
325.322	-23.21
325.535	152.91
325.748	75.09
325.962	-41.64
326.175	114
326.388	87.38
326.601	159.06
326.814	40.28
327.027	36.18
327.24	163.15
327.453	-125.61
327.666	83.28
327.879	142.68
328.092	83.28
328.305	68.95
328.518	36.18
328.731	-33.45
328.944	38.23
329.157	48.47
329.37	23.89
329.583	152.91
329.796	89.43
330.009	-62.12
330.222	152.91
330.435	161.11
330.648	52.56
330.861	99.67
331.073	114
331.286	132.44
331.499	120.15
331.712	-27.31
331.925	97.62
332.138	50.52
332.35	154.96
332.563	-23.21
332.776	130.39
332.989	34.13
333.202	27.99
333.414	105.81
333.627	36.18
333.84	-8.87
334.053	91.48
334.265	-23.21
334.478	17.75
334.691	44.37
334.903	15.7
335.116	-23.21
335.329	-8.87
335.541	95.57
335.754	73.04
335.966	30.04
336.179	19.8
336.392	36.18
336.604	118.1
336.817	202.07
337.029	66.9
337.242	48.47
337.454	64.85
337.667	-12.97
337.88	107.86
338.092	54.61
338.305	118.1
338.517	1.37
338.729	109.91
338.942	185.68
339.154	-8.87
339.367	-8.87
339.579	103.76
339.792	-45.74
340.004	130.39
340.217	25.94
340.429	71
340.641	-66.22
340.854	21.85
341.066	-8.87
341.278	107.86
341.491	290.13
341.703	54.61
341.915	-31.4
342.128	79.19
342.34	15.7
342.552	32.08
342.764	-0.68
342.977	46.42
343.189	50.52
343.401	89.43
343.613	-41.64
343.826	42.32
344.038	-8.87
344.25	111.96
344.462	13.65
344.674	54.61
344.886	-41.64
345.099	107.86
345.311	97.62
345.523	15.7
345.735	-21.16
345.947	-10.92
346.159	93.52
346.371	71
346.583	27.99
346.795	142.68
347.007	124.24
347.219	116.05
347.431	54.61
347.643	97.62
347.855	-37.55
348.067	73.04
348.279	23.89
348.491	34.13
348.703	169.3
348.915	-8.87
349.127	75.09
349.339	23.89
349.551	25.94
349.763	99.67
349.975	11.61
350.187	38.23
350.399	134.48
350.61	48.47
350.822	1.37
351.034	114
351.246	64.85
351.458	71
351.669	87.38
351.881	146.77
352.093	44.37
352.305	116.05
352.517	99.67
352.728	118.1
352.94	-23.21
353.152	95.57
353.363	-0.68
353.575	11.61
353.787	247.12
353.999	36.18
354.21	181.59
354.422	87.38
354.633	25.94
354.845	40.28
355.057	34.13
355.268	87.38
355.48	146.77
355.692	-103.08
355.903	136.53
356.115	-8.87
356.326	-119.46
356.538	163.15
356.749	107.86
356.961	87.38
357.172	62.8
357.384	-127.66
357.595	240.98
357.807	1.37
358.018	1.37
358.23	13.65
358.441	152.91
358.653	85.33
358.864	5.46
359.075	11.61
359.287	13.65
359.498	118.1
359.709	107.86
359.921	54.61
360.132	109.91
360.344	5.46
360.555	44.37
360.766	54.61
360.977	54.61
361.189	165.2
361.4	103.76
361.611	126.29
361.823	140.63
362.034	124.24
362.245	-21.16
362.456	66.9
362.667	189.78
362.879	19.8
363.09	64.85
363.301	118.1
363.512	11.61
363.723	32.08
363.935	32.08
364.146	66.9
364.357	19.8
364.568	17.75
364.779	-4.78
364.99	150.87
365.201	-66.22
365.412	107.86
365.623	30.04
365.834	103.76
366.045	34.13
366.256	48.47
366.467	97.62
366.678	34.13
366.889	66.9
367.1	-12.97
367.311	111.96
367.522	75.09
367.733	193.87
367.944	66.9
368.155	71
368.366	56.66
368.577	58.71
368.788	95.57
368.999	25.94
369.209	73.04
369.42	226.64
369.631	263.51
369.842	124.24
370.053	-19.11
370.264	34.13
370.474	-6.83
370.685	114
370.896	66.9
371.107	157.01
371.317	11.61
371.528	46.42
371.739	177.49
371.95	68.95
372.16	173.39
372.371	-60.07
372.582	107.86
372.792	75.09
373.003	52.56
373.214	13.65
373.424	40.28
373.635	1.37
373.846	230.74
374.056	101.72
374.267	13.65
374.477	75.09
374.688	21.85
374.898	73.04
375.109	99.67
375.319	107.86
375.53	54.61
375.74	97.62
375.951	15.7
376.161	56.66
376.372	148.82
376.582	68.95
376.793	25.94
377.003	23.89
377.214	5.46
377.424	58.71
377.635	42.32
377.845	38.23
378.055	157.01
378.266	40.28
378.476	38.23
378.686	38.23
378.897	89.43
379.107	93.52
379.317	66.9
379.528	23.89
379.738	32.08
379.948	-25.26
380.158	89.43
380.369	75.09
380.579	163.15
380.789	-25.26
380.999	140.63
381.21	105.81
381.42	230.74
381.63	64.85
381.84	146.77
382.05	85.33
382.261	122.2
382.471	159.06
382.681	19.8
382.891	191.83
383.101	91.48
383.311	-21.16
383.521	77.14
383.731	93.52
383.941	89.43
384.151	40.28
384.361	44.37
384.571	54.61
384.781	48.47
384.991	142.68
385.201	210.26
385.411	122.2
385.621	52.56
385.831	68.95
386.041	46.42
386.251	-21.16
386.461	97.62
386.671	15.7
386.881	120.15
387.091	36.18
387.301	161.11
387.511	58.71
387.72	134.48
387.93	93.52
388.14	-33.45
388.35	91.48
388.56	79.19
388.769	148.82
388.979	21.85
389.189	17.75
389.399	15.7
389.609	105.81
389.818	134.48
390.028	124.24
390.238	48.47
390.447	48.47
390.657	36.18
390.867	-27.31
391.076	-4.78
391.286	32.08
391.496	62.8
391.705	107.86
391.915	103.76
392.125	93.52
392.334	-35.5
392.544	99.67
392.753	27.99
392.963	15.7
393.172	27.99
393.382	-23.21
393.591	120.15
393.801	48.47
394.01	138.58
394.22	87.38
394.429	46.42
394.639	-6.83
394.848	60.76
395.058	52.56
395.267	79.19
395.477	81.24
395.686	73.04
395.895	214.35
396.105	200.02
396.314	54.61
396.524	66.9
396.733	27.99
396.942	95.57
397.152	64.85
397.361	75.09
397.57	83.28
397.78	54.61
397.989	103.76
398.198	214.35
398.407	75.09
398.617	-0.68
398.826	21.85
399.035	93.52
399.244	81.24
399.453	79.19
399.663	109.91
399.872	85.33
400.081	-17.07
400.29	208.21
400.499	23.89
400.708	195.92
400.917	107.86
401.127	40.28
401.336	64.85
401.545	179.54
401.754	193.87
401.963	68.95
402.172	38.23
402.381	-0.68
402.59	-90.79
402.799	120.15
403.008	114
403.217	52.56
403.426	54.61
403.635	-66.22
403.844	66.9
404.053	-29.35
404.262	30.04
404.471	99.67
404.68	81.24
404.888	64.85
405.097	58.71
405.306	97.62
405.515	97.62
405.724	48.47
405.933	124.24
406.142	25.94
406.35	154.96
406.559	52.56
406.768	87.38
406.977	87.38
407.185	56.66
407.394	60.76
407.603	44.37
407.812	44.37
408.02	152.91
408.229	54.61
408.438	52.56
408.646	-29.35
408.855	48.47
409.064	79.19
409.272	73.04
409.481	40.28
409.69	-2.73
409.898	-29.35
410.107	56.66
410.315	101.72
410.524	15.7
410.733	40.28
410.941	11.61
411.15	17.75
411.358	142.68
411.567	122.2
411.775	56.66
411.984	9.56
412.192	85.33
412.401	111.96
412.609	206.16
412.818	157.01
413.026	105.81
413.234	34.13
413.443	97.62
413.651	46.42
413.86	38.23
414.068	64.85
414.276	255.31
414.485	-76.46
414.693	267.6
414.901	243.03
415.11	48.47
415.318	68.95
415.526	-12.97
415.734	144.72
415.943	109.91
416.151	122.2
416.359	97.62
416.567	36.18
416.776	140.63
416.984	95.57
417.192	171.35
417.4	-45.74
417.608	7.51
417.817	-19.11
418.025	91.48
418.233	165.2
418.441	23.89
418.649	11.61
418.857	103.76
419.065	200.02
419.273	34.13
419.481	79.19
419.689	54.61
419.897	-74.41
420.105	-58.03
420.313	167.25
420.521	173.39
420.729	234.83
420.937	34.13
421.145	-27.31
421.353	103.76
421.561	171.35
421.769	175.44
421.977	23.89
422.185	91.48
422.393	79.19
422.601	185.68
422.809	152.91
423.017	42.32
423.224	21.85
423.432	120.15
423.64	89.43
423.848	154.96
424.056	32.08
424.263	183.63
424.471	21.85
424.679	214.35
424.887	19.8
425.094	126.29
425.302	87.38
425.51	21.85
425.718	171.35
425.925	132.44
426.133	79.19
426.341	212.31
426.548	7.51
426.756	3.41
426.964	93.52
427.171	17.75
427.379	109.91
427.586	81.24
427.794	204.11
428.001	120.15
428.209	238.93
428.417	173.39
428.624	195.92
428.832	171.35
429.039	111.96
429.247	34.13
429.454	128.34
429.662	249.17
429.869	171.35
430.076	154.96
430.284	161.11
430.491	240.98
430.699	157.01
430.906	265.55
431.114	126.29
431.321	173.39
431.528	177.49
431.736	120.15
431.943	193.87
432.15	214.35
432.358	181.59
432.565	288.08
432.772	23.89
432.979	171.35
433.187	222.55
433.394	197.97
433.601	152.91
433.808	298.32
434.016	245.07
434.223	228.69
434.43	232.79
434.637	337.23
434.844	306.51
435.052	251.22
435.259	277.84
435.466	322.9
435.673	236.88
435.88	331.09
436.087	337.23
436.294	376.14
436.501	257.36
436.708	326.99
436.915	333.14
437.122	304.46
437.329	206.16
437.537	326.99
437.743	326.99
437.95	410.96
438.157	400.72
438.364	324.94
438.571	425.29
438.778	435.53
438.985	548.17
439.192	460.11
439.399	501.07
439.606	437.58
439.813	542.03
440.02	535.89
440.227	709.96
440.433	546.13
440.64	566.6
440.847	488.78
441.054	585.04
441.261	795.98
441.467	630.09
441.674	603.47
441.881	748.87
442.088	656.72
442.294	798.03
442.501	871.75
442.708	904.52
442.914	757.07
443.121	775.5
443.328	855.37
443.534	959.81
443.741	925
443.948	894.28
444.154	929.1
444.361	1121.6
444.568	1015.11
444.774	1060.17
444.981	1066.31
445.187	1240.39
445.394	1205.57
445.6	1051.97
445.807	1338.69
446.013	1318.21
446.22	1238.34
446.426	1350.98
446.633	1547.58
446.839	1742.14
447.046	1477.95
447.252	1619.26
447.459	1600.83
447.665	1686.84
447.871	1799.48
448.078	1867.06
448.284	1928.5
448.491	2157.88
448.697	1963.32
448.903	2151.73
449.11	2252.08
449.316	2270.51
449.522	2415.92
449.728	2522.41
449.935	2540.85
450.141	2596.14
450.347	2735.4
450.553	2821.42
450.76	2809.13
450.966	2923.82
451.172	3065.13
451.378	3075.37
451.584	3091.75
451.791	3548.45
451.997	3507.49
452.203	3521.82
452.409	3716.38
452.615	3933.47
452.821	3812.64
453.027	3951.9
453.233	4474.13
453.44	4248.85
453.646	4410.64
453.852	4664.59
454.058	4807.95
454.264	4945.16
454.47	5395.72
454.676	5358.85
454.882	5924.09
455.088	5444.87
455.294	5956.86
455.5	6190.33
455.705	6571.25
455.911	6434.04
456.117	6890.73
456.323	7023.85
456.529	6855.92
456.735	7765.21
456.941	7834.85
457.147	7980.25
457.352	8406.23
457.558	8580.31
457.764	9202.89
457.97	9325.77
458.176	9618.63
458.381	10357.94
458.587	10396.85
458.793	10902.7
458.999	10685.62
459.204	12274.84
459.41	12635.28
459.616	12461.21
459.821	13159.56
460.027	13632.65
460.233	14617.72
460.438	14382.2
460.644	15342.7
460.85	15344.75
461.055	15854.69
461.261	16727.13
461.466	16307.29
461.672	16706.65
461.878	18508.86
462.083	18594.87
462.289	18787.38
462.494	19719.21
462.7	19799.08
462.905	20001.83
463.111	21605.39
463.316	22842.36
463.522	23378.93
463.727	24161.25
463.932	24882.14
464.138	25695.18
464.343	26723.26
464.549	26717.12
464.754	28613.54
464.959	29397.91
465.165	29832.08
465.37	29621.14
465.575	29774.74
465.781	31898.48
465.986	32953.18
466.191	32342.89
466.397	32355.18
466.602	31705.97
466.807	33487.7
467.012	34126.67
467.218	34964.29
467.423	35191.61
467.628	35814.19
467.833	37847.83
468.038	37176.09
468.244	36143.92
468.449	38183.69
468.654	37731.09
468.859	37331.74
