Data from USB4F104151__26__09-26-22-215.txt Node

Date: Wed Feb 26 09:26:22 EST 2025
User: louis
Spectrometer: USB4F10415
Trigger mode: 4
Integration Time (sec): 1.000000E-1
Scans to average: 1
Electric dark correction enabled: true
Nonlinearity correction enabled: false
Boxcar width: 0
XAxis mode: Wavelengths
Number of Pixels in Spectrum: 3648
>>>>>Begin Spectral Data<<<<<
178.204	-309.07
178.424	-309.07
178.644	-309.07
178.864	-350.03
179.084	-259.92
179.304	-61.27
179.524	16.55
179.744	26.79
179.964	121
180.184	14.51
180.404	2.22
180.624	-8.02
180.844	6.31
181.064	-67.41
181.283	10.41
181.503	-96.08
181.723	34.99
181.943	-75.6
182.163	164.01
182.383	-3.93
182.602	75.95
182.822	114.86
183.042	37.03
183.262	43.18
183.482	49.32
183.701	16.55
183.921	59.56
184.141	-59.22
184.361	-8.02
184.58	100.52
184.8	2.22
185.02	32.94
185.239	65.71
185.459	51.37
185.679	131.24
185.898	-42.84
186.118	67.75
186.338	49.32
186.557	92.33
186.777	20.65
186.997	24.75
187.216	133.29
187.436	121
187.655	45.23
187.875	108.71
188.095	37.03
188.314	51.37
188.534	98.47
188.753	8.36
188.973	88.23
189.192	223.4
189.412	24.75
189.631	143.53
189.851	55.47
190.07	184.49
190.29	-40.79
190.509	-8.02
190.729	73.9
190.948	139.43
191.168	280.74
191.387	131.24
191.607	127.14
191.826	59.56
192.045	8.36
192.265	-30.55
192.484	65.71
192.704	80.04
192.923	-20.31
193.142	159.91
193.362	155.82
193.581	108.71
193.8	98.47
194.02	84.14
194.239	26.79
194.458	32.94
194.678	80.04
194.897	-3.93
195.116	69.8
195.335	4.27
195.555	80.04
195.774	98.47
195.993	102.57
196.212	49.32
196.432	6.31
196.651	10.41
196.87	-3.93
197.089	227.5
197.308	92.33
197.528	61.61
197.747	6.31
197.966	82.09
198.185	104.62
198.404	-46.93
198.623	112.81
198.842	137.38
199.062	116.9
199.281	188.58
199.5	141.48
199.719	104.62
199.938	57.51
200.157	77.99
200.376	82.09
200.595	145.58
200.814	41.13
201.033	34.99
201.252	202.92
201.471	127.14
201.69	153.77
201.909	131.24
202.128	84.14
202.347	108.71
202.566	116.9
202.785	-38.74
203.004	32.94
203.223	188.58
203.442	73.9
203.661	4.27
203.879	100.52
204.098	86.19
204.317	-22.36
204.536	121
204.755	57.51
204.974	88.23
205.193	8.36
205.411	139.43
205.63	135.34
205.849	104.62
206.068	59.56
206.287	-22.36
206.505	176.3
206.724	12.46
206.943	18.6
207.162	45.23
207.381	73.9
207.599	26.79
207.818	22.7
208.037	12.46
208.255	49.32
208.474	121
208.693	90.28
208.911	-26.45
209.13	80.04
209.349	49.32
209.567	139.43
209.786	127.14
210.005	34.99
210.223	114.86
210.442	-114.52
210.661	133.29
210.879	104.62
211.098	41.13
211.316	28.84
211.535	49.32
211.753	39.08
211.972	59.56
212.191	-18.26
212.409	34.99
212.628	49.32
212.846	-24.4
213.065	43.18
213.283	164.01
213.502	55.47
213.72	45.23
213.938	59.56
214.157	-14.17
214.375	172.2
214.594	10.41
214.812	116.9
215.031	55.47
215.249	2.22
215.467	92.33
215.686	61.61
215.904	149.67
216.122	67.75
216.341	159.91
216.559	12.46
216.778	98.47
216.996	61.61
217.214	-65.36
217.432	-12.12
217.651	12.46
217.869	94.38
218.087	14.51
218.306	53.42
218.524	104.62
218.742	30.89
218.96	100.52
219.179	41.13
219.397	16.55
219.615	186.54
219.833	151.72
220.051	-16.21
220.27	49.32
220.488	34.99
220.706	63.66
220.924	-18.26
221.142	57.51
221.36	57.51
221.578	71.85
221.796	18.6
222.015	86.19
222.233	41.13
222.451	157.86
222.669	-81.75
222.887	88.23
223.105	47.27
223.323	14.51
223.541	26.79
223.759	98.47
223.977	28.84
224.195	213.16
224.413	88.23
224.631	92.33
224.849	141.48
225.067	141.48
225.285	82.09
225.503	6.31
225.721	-16.21
225.939	61.61
226.157	55.47
226.375	233.64
226.592	4.27
226.81	98.47
227.028	159.91
227.246	166.06
227.464	108.71
227.682	71.85
227.9	104.62
228.117	100.52
228.335	86.19
228.553	106.67
228.771	10.41
228.989	53.42
229.206	114.86
229.424	26.79
229.642	-5.97
229.86	-32.6
230.077	198.82
230.295	53.42
230.513	32.94
230.731	37.03
230.948	186.54
231.166	215.21
231.384	43.18
231.601	-14.17
231.819	116.9
232.037	32.94
232.254	20.65
232.472	34.99
232.689	32.94
232.907	100.52
233.125	-10.07
233.342	10.41
233.56	49.32
233.777	75.95
233.995	22.7
234.213	47.27
234.43	141.48
234.648	69.8
234.865	65.71
235.083	84.14
235.3	41.13
235.518	57.51
235.735	129.19
235.953	112.81
236.17	43.18
236.388	69.8
236.605	26.79
236.822	96.43
237.04	61.61
237.257	102.57
237.475	0.17
237.692	26.79
237.909	71.85
238.127	32.94
238.344	80.04
238.562	61.61
238.779	0.17
238.996	-36.69
239.214	108.71
239.431	65.71
239.648	24.75
239.865	73.9
240.083	43.18
240.3	26.79
240.517	82.09
240.735	102.57
240.952	139.43
241.169	108.71
241.386	65.71
241.603	63.66
241.821	-46.93
242.038	84.14
242.255	108.71
242.472	2.22
242.689	121
242.907	67.75
243.124	98.47
243.341	-28.5
243.558	6.31
243.775	28.84
243.992	-75.6
244.209	131.24
244.426	139.43
244.643	139.43
244.86	4.27
245.078	75.95
245.295	26.79
245.512	16.55
245.729	41.13
245.946	18.6
246.163	96.43
246.38	39.08
246.597	86.19
246.814	104.62
247.031	88.23
247.248	30.89
247.464	34.99
247.681	63.66
247.898	127.14
248.115	104.62
248.332	-30.55
248.549	71.85
248.766	153.77
248.983	45.23
249.2	47.27
249.417	159.91
249.633	-46.93
249.85	125.1
250.067	59.56
250.284	71.85
250.501	69.8
250.717	153.77
250.934	-32.6
251.151	-5.97
251.368	24.75
251.585	145.58
251.801	73.9
252.018	57.51
252.235	129.19
252.451	-32.6
252.668	43.18
252.885	157.86
253.102	49.32
253.318	8.36
253.535	-38.74
253.752	-30.55
253.968	6.31
254.185	-87.89
254.401	75.95
254.618	129.19
254.835	-8.02
255.051	182.44
255.268	59.56
255.484	55.47
255.701	26.79
255.917	94.38
256.134	-1.88
256.351	-10.07
256.567	6.31
256.784	32.94
257	-53.08
257.217	155.82
257.433	110.76
257.65	102.57
257.866	192.68
258.082	6.31
258.299	26.79
258.515	65.71
258.732	18.6
258.948	-69.46
259.165	2.22
259.381	-42.84
259.597	80.04
259.814	-22.36
260.03	30.89
260.246	65.71
260.463	41.13
260.679	180.39
260.895	73.9
261.112	75.95
261.328	26.79
261.544	-8.02
261.761	153.77
261.977	-12.12
262.193	-57.17
262.409	108.71
262.626	108.71
262.842	65.71
263.058	6.31
263.274	37.03
263.49	63.66
263.707	141.48
263.923	82.09
264.139	-22.36
264.355	34.99
264.571	51.37
264.787	59.56
265.004	121
265.22	53.42
265.436	22.7
265.652	71.85
265.868	65.71
266.084	-55.12
266.3	43.18
266.516	43.18
266.732	39.08
266.948	116.9
267.164	28.84
267.38	112.81
267.596	63.66
267.812	131.24
268.028	55.47
268.244	-32.6
268.46	39.08
268.676	106.67
268.892	16.55
269.108	14.51
269.324	-55.12
269.54	-5.97
269.756	-3.93
269.972	-3.93
270.188	8.36
270.403	24.75
270.619	10.41
270.835	125.1
271.051	20.65
271.267	-24.4
271.483	-5.97
271.698	98.47
271.914	69.8
272.13	61.61
272.346	69.8
272.562	22.7
272.777	166.06
272.993	41.13
273.209	26.79
273.425	94.38
273.64	0.17
273.856	90.28
274.072	-24.4
274.287	39.08
274.503	106.67
274.719	94.38
274.934	86.19
275.15	-110.42
275.366	-1.88
275.581	41.13
275.797	49.32
276.012	90.28
276.228	-57.17
276.444	71.85
276.659	59.56
276.875	-75.6
277.09	24.75
277.306	43.18
277.521	32.94
277.737	18.6
277.952	123.05
278.168	75.95
278.383	116.9
278.599	51.37
278.814	127.14
279.03	22.7
279.245	98.47
279.461	57.51
279.676	49.32
279.892	12.46
280.107	-55.12
280.322	39.08
280.538	63.66
280.753	28.84
280.969	22.7
281.184	59.56
281.399	202.92
281.615	53.42
281.83	30.89
282.045	4.27
282.26	45.23
282.476	22.7
282.691	145.58
282.906	22.7
283.122	43.18
283.337	-26.45
283.552	73.9
283.767	-22.36
283.983	67.75
284.198	34.99
284.413	125.1
284.628	-30.55
284.843	73.9
285.058	75.95
285.274	43.18
285.489	32.94
285.704	129.19
285.919	8.36
286.134	-1.88
286.349	8.36
286.564	-3.93
286.779	96.43
286.995	43.18
287.21	-59.22
287.425	131.24
287.64	41.13
287.855	57.51
288.07	-46.93
288.285	67.75
288.5	153.77
288.715	86.19
288.93	39.08
289.145	55.47
289.36	84.14
289.575	-73.56
289.79	223.4
290.004	-14.17
290.219	118.95
290.434	73.9
290.649	34.99
290.864	-5.97
291.079	51.37
291.294	129.19
291.509	67.75
291.724	34.99
291.938	-14.17
292.153	80.04
292.368	65.71
292.583	51.37
292.798	71.85
293.012	67.75
293.227	-24.4
293.442	6.31
293.657	55.47
293.871	139.43
294.086	108.71
294.301	204.97
294.516	141.48
294.73	106.67
294.945	28.84
295.16	141.48
295.374	116.9
295.589	90.28
295.804	45.23
296.018	-24.4
296.233	123.05
296.447	24.75
296.662	10.41
296.877	178.34
297.091	43.18
297.306	116.9
297.52	26.79
297.735	59.56
297.949	65.71
298.164	84.14
298.378	96.43
298.593	-55.12
298.807	14.51
299.022	75.95
299.236	207.02
299.451	67.75
299.665	24.75
299.88	-3.93
300.094	65.71
300.309	16.55
300.523	59.56
300.737	39.08
300.952	53.42
301.166	88.23
301.381	57.51
301.595	-30.55
301.809	94.38
302.024	59.56
302.238	6.31
302.452	188.58
302.667	59.56
302.881	170.15
303.095	67.75
303.309	100.52
303.524	-22.36
303.738	10.41
303.952	43.18
304.166	39.08
304.381	-36.69
304.595	86.19
304.809	10.41
305.023	170.15
305.237	67.75
305.452	67.75
305.666	34.99
305.88	127.14
306.094	92.33
306.308	18.6
306.522	149.67
306.736	112.81
306.95	149.67
307.164	30.89
307.379	41.13
307.593	219.3
307.807	141.48
308.021	49.32
308.235	-1.88
308.449	-10.07
308.663	88.23
308.877	202.92
309.091	14.51
309.305	137.38
309.519	-85.84
309.733	135.34
309.947	-48.98
310.161	112.81
310.374	139.43
310.588	96.43
310.802	-22.36
311.016	88.23
311.23	102.57
311.444	14.51
311.658	22.7
311.872	123.05
312.085	141.48
312.299	114.86
312.513	153.77
312.727	34.99
312.941	-30.55
313.154	139.43
313.368	121
313.582	8.36
313.796	65.71
314.009	71.85
314.223	98.47
314.437	114.86
314.651	55.47
314.864	16.55
315.078	24.75
315.292	-26.45
315.505	-48.98
315.719	92.33
315.933	127.14
316.146	49.32
316.36	4.27
316.573	96.43
316.787	-3.93
317.001	80.04
317.214	14.51
317.428	34.99
317.641	63.66
317.855	0.17
318.068	32.94
318.282	80.04
318.495	178.34
318.709	102.57
318.922	10.41
319.136	164.01
319.349	92.33
319.563	43.18
319.776	88.23
319.99	-44.88
320.203	32.94
320.417	49.32
320.63	131.24
320.843	221.35
321.057	73.9
321.27	57.51
321.483	10.41
321.697	88.23
321.91	-8.02
322.124	149.67
322.337	73.9
322.55	-16.21
322.763	45.23
322.977	4.27
323.19	41.13
323.403	77.99
323.617	55.47
323.83	65.71
324.043	67.75
324.256	61.61
324.469	-22.36
324.683	104.62
324.896	63.66
325.109	73.9
325.322	14.51
325.535	131.24
325.748	73.9
325.962	161.96
326.175	-28.5
326.388	96.43
326.601	100.52
326.814	71.85
327.027	96.43
327.24	145.58
327.453	18.6
327.666	55.47
327.879	112.81
328.092	108.71
328.305	133.29
328.518	-40.79
328.731	43.18
328.944	125.1
329.157	84.14
329.37	20.65
329.583	159.91
329.796	196.78
330.009	-32.6
330.222	114.86
330.435	88.23
330.648	92.33
330.861	112.81
331.073	133.29
331.286	161.96
331.499	55.47
331.712	49.32
331.925	92.33
332.138	71.85
332.35	151.72
332.563	51.37
332.776	102.57
332.989	2.22
333.202	28.84
333.414	6.31
333.627	41.13
333.84	32.94
334.053	121
334.265	8.36
334.478	39.08
334.691	14.51
334.903	59.56
335.116	8.36
335.329	80.04
335.541	71.85
335.754	159.91
335.966	14.51
336.179	82.09
336.392	39.08
336.604	24.75
336.817	159.91
337.029	69.8
337.242	22.7
337.454	153.77
337.667	39.08
337.88	135.34
338.092	82.09
338.305	157.86
338.517	24.75
338.729	30.89
338.942	192.68
339.154	-30.55
339.367	-3.93
339.579	22.7
339.792	-16.21
340.004	51.37
340.217	-3.93
340.429	41.13
340.641	2.22
340.854	6.31
341.066	98.47
341.278	121
341.491	172.2
341.703	49.32
341.915	14.51
342.128	24.75
342.34	88.23
342.552	-16.21
342.764	-12.12
342.977	30.89
343.189	65.71
343.401	73.9
343.613	-5.97
343.826	75.95
344.038	-34.64
344.25	73.9
344.462	0.17
344.674	-12.12
344.886	100.52
345.099	123.05
345.311	133.29
345.523	61.61
345.735	-51.03
345.947	104.62
346.159	108.71
346.371	57.51
346.583	12.46
346.795	104.62
347.007	28.84
347.219	104.62
347.431	129.19
347.643	112.81
347.855	67.75
348.067	65.71
348.279	-40.79
348.491	32.94
348.703	73.9
348.915	-5.97
349.127	34.99
349.339	43.18
349.551	2.22
349.763	118.95
349.975	41.13
350.187	26.79
350.399	96.43
350.61	2.22
350.822	-63.32
351.034	80.04
351.246	-20.31
351.458	100.52
351.669	10.41
351.881	149.67
352.093	161.96
352.305	57.51
352.517	61.61
352.728	32.94
352.94	106.67
353.152	90.28
353.363	34.99
353.575	114.86
353.787	149.67
353.999	75.95
354.21	155.82
354.422	-22.36
354.633	51.37
354.845	96.43
355.057	41.13
355.268	108.71
355.48	149.67
355.692	-65.36
355.903	104.62
356.115	-5.97
356.326	-16.21
356.538	129.19
356.749	84.14
356.961	100.52
357.172	43.18
357.384	39.08
357.595	231.59
357.807	6.31
358.018	104.62
358.23	57.51
358.441	145.58
358.653	104.62
358.864	26.79
359.075	-34.64
359.287	108.71
359.498	155.82
359.709	96.43
359.921	-14.17
360.132	166.06
360.344	45.23
360.555	51.37
360.766	75.95
360.977	67.75
361.189	141.48
361.4	59.56
361.611	164.01
361.823	108.71
362.034	166.06
362.245	-57.17
362.456	75.95
362.667	41.13
362.879	14.51
363.09	61.61
363.301	92.33
363.512	61.61
363.723	-8.02
363.935	37.03
364.146	90.28
364.357	108.71
364.568	37.03
364.779	8.36
364.99	108.71
365.201	10.41
365.412	116.9
365.623	-42.84
365.834	37.03
366.045	47.27
366.256	141.48
366.467	102.57
366.678	26.79
366.889	6.31
367.1	37.03
367.311	88.23
367.522	22.7
367.733	57.51
367.944	65.71
368.155	98.47
368.366	172.2
368.577	121
368.788	90.28
368.999	-63.32
369.209	57.51
369.42	147.62
369.631	243.88
369.842	57.51
370.053	104.62
370.264	114.86
370.474	41.13
370.685	104.62
370.896	-18.26
371.107	157.86
371.317	47.27
371.528	-10.07
371.739	143.53
371.95	39.08
372.16	116.9
372.371	-18.26
372.582	47.27
372.792	98.47
373.003	53.42
373.214	98.47
373.424	73.9
373.635	14.51
373.846	88.23
374.056	49.32
374.267	80.04
374.477	65.71
374.688	-38.74
374.898	121
375.109	121
375.319	84.14
375.53	141.48
375.74	82.09
375.951	63.66
376.161	61.61
376.372	141.48
376.582	10.41
376.793	102.57
377.003	22.7
377.214	-1.88
377.424	116.9
377.635	75.95
377.845	75.95
378.055	116.9
378.266	18.6
378.476	6.31
378.686	73.9
378.897	135.34
379.107	133.29
379.317	143.53
379.528	65.71
379.738	51.37
379.948	20.65
380.158	55.47
380.369	77.99
380.579	121
380.789	-5.97
380.999	92.33
381.21	90.28
381.42	233.64
381.63	71.85
381.84	159.91
382.05	157.86
382.261	155.82
382.471	153.77
382.681	47.27
382.891	153.77
383.101	-30.55
383.311	-34.64
383.521	51.37
383.731	88.23
383.941	100.52
384.151	116.9
384.361	16.55
384.571	116.9
384.781	88.23
384.991	151.72
385.201	121
385.411	114.86
385.621	92.33
385.831	37.03
386.041	112.81
386.251	114.86
386.461	125.1
386.671	71.85
386.881	80.04
387.091	59.56
387.301	106.67
387.511	96.43
387.72	43.18
387.93	80.04
388.14	10.41
388.35	2.22
388.56	178.34
388.769	102.57
388.979	10.41
389.189	8.36
389.399	26.79
389.609	84.14
389.818	131.24
390.028	43.18
390.238	112.81
390.447	41.13
390.657	118.95
390.867	57.51
391.076	61.61
391.286	104.62
391.496	84.14
391.705	22.7
391.915	55.47
392.125	151.72
392.334	18.6
392.544	157.86
392.753	8.36
392.963	20.65
393.172	213.16
393.382	-26.45
393.591	164.01
393.801	112.81
394.01	172.2
394.22	26.79
394.429	92.33
394.639	-3.93
394.848	116.9
395.058	164.01
395.267	22.7
395.477	69.8
395.686	174.25
395.895	112.81
396.105	143.53
396.314	110.76
396.524	98.47
396.733	14.51
396.942	145.58
397.152	104.62
397.361	86.19
397.57	63.66
397.78	43.18
397.989	114.86
398.198	241.83
398.407	34.99
398.617	32.94
398.826	59.56
399.035	14.51
399.244	114.86
399.453	71.85
399.663	67.75
399.872	110.76
400.081	133.29
400.29	155.82
400.499	32.94
400.708	45.23
400.917	-30.55
401.127	80.04
401.336	-1.88
401.545	207.02
401.754	104.62
401.963	153.77
402.172	18.6
402.381	-1.88
402.59	43.18
402.799	-24.4
403.008	141.48
403.217	57.51
403.426	100.52
403.635	6.31
403.844	43.18
404.053	2.22
404.262	57.51
404.471	149.67
404.68	71.85
404.888	86.19
405.097	39.08
405.306	75.95
405.515	104.62
405.724	86.19
405.933	77.99
406.142	59.56
406.35	75.95
406.559	10.41
406.768	4.27
406.977	194.73
407.185	77.99
407.394	102.57
407.603	-24.4
407.812	116.9
408.02	92.33
408.229	57.51
408.438	-5.97
408.646	-5.97
408.855	39.08
409.064	71.85
409.272	51.37
409.481	139.43
409.69	-10.07
409.898	-18.26
410.107	67.75
410.315	207.02
410.524	61.61
410.733	30.89
410.941	49.32
411.15	92.33
411.358	98.47
411.567	172.2
411.775	92.33
411.984	39.08
412.192	125.1
412.401	45.23
412.609	114.86
412.818	108.71
413.026	43.18
413.234	104.62
413.443	8.36
413.651	-5.97
413.86	100.52
414.068	131.24
414.276	135.34
414.485	26.79
414.693	149.67
414.901	202.92
415.11	92.33
415.318	121
415.526	108.71
415.734	92.33
415.943	143.53
416.151	161.96
416.359	114.86
416.567	53.42
416.776	110.76
416.984	67.75
417.192	223.4
417.4	133.29
417.608	45.23
417.817	55.47
418.025	92.33
418.233	170.15
418.441	45.23
418.649	-44.88
418.857	100.52
419.065	129.19
419.273	-38.74
419.481	84.14
419.689	57.51
419.897	49.32
420.105	-51.03
420.313	166.06
420.521	98.47
420.729	176.3
420.937	55.47
421.145	24.75
421.353	80.04
421.561	159.91
421.769	57.51
421.977	82.09
422.185	131.24
422.393	55.47
422.601	84.14
422.809	34.99
423.017	73.9
423.224	59.56
423.432	90.28
423.64	0.17
423.848	100.52
424.056	63.66
424.263	188.58
424.471	49.32
424.679	180.39
424.887	47.27
425.094	143.53
425.302	67.75
425.51	0.17
425.718	106.67
425.925	116.9
426.133	73.9
426.341	270.5
426.548	77.99
426.756	51.37
426.964	88.23
427.171	69.8
427.379	75.95
427.586	145.58
427.794	104.62
428.001	49.32
428.209	145.58
428.417	145.58
428.624	219.3
428.832	100.52
429.039	82.09
429.247	161.96
429.454	182.44
429.662	161.96
429.869	112.81
430.076	155.82
430.284	143.53
430.491	227.5
430.699	131.24
430.906	207.02
431.114	207.02
431.321	106.67
431.528	131.24
431.736	141.48
431.943	182.44
432.15	215.21
432.358	256.17
432.565	305.32
432.772	49.32
432.979	233.64
433.187	215.21
433.394	100.52
433.601	155.82
433.808	215.21
434.016	274.6
434.223	262.31
434.43	139.43
434.637	231.59
434.844	243.88
435.052	164.01
435.259	229.54
435.466	270.5
435.673	200.87
435.88	301.22
436.087	276.65
436.294	348.33
436.501	284.84
436.708	260.26
436.915	293.03
437.122	325.8
437.329	245.93
437.537	352.42
437.743	354.47
437.95	350.37
438.157	323.75
438.364	395.43
438.571	409.76
438.778	407.72
438.985	430.24
439.192	450.72
439.399	354.47
439.606	434.34
439.813	497.83
440.02	602.27
440.227	639.14
440.433	530.59
440.64	518.31
440.847	540.83
441.054	567.46
441.261	653.47
441.467	723.1
441.674	602.27
441.881	708.77
442.088	678.05
442.294	710.82
442.501	739.49
442.708	819.36
442.914	676
443.121	821.41
443.328	901.28
443.534	989.34
443.741	886.94
443.948	788.64
444.154	956.57
444.361	1222.81
444.568	1077.4
444.774	1022.11
444.981	936.09
445.187	1190.04
445.394	1237.14
445.6	1128.6
445.807	1339.54
446.013	1243.29
446.22	1181.85
446.426	1396.89
446.633	1468.56
446.839	1579.15
447.046	1423.51
447.252	1468.56
447.459	1507.48
447.665	1648.79
447.871	1773.71
448.078	1915.02
448.284	1804.43
448.491	1968.27
448.697	2058.38
448.903	2119.82
449.11	2144.39
449.316	2015.37
449.522	2297.99
449.728	2457.73
449.935	2361.48
450.141	2498.69
450.347	2766.98
450.553	2697.35
450.76	2592.9
450.966	2850.94
451.172	2953.34
451.378	3108.99
451.584	2959.49
451.791	3217.53
451.997	3344.5
452.203	3383.42
452.409	3735.67
452.615	3827.82
452.821	3547.25
453.027	3811.44
453.233	4253.8
453.44	4024.43
453.646	4198.51
453.852	4479.08
454.058	4745.31
454.264	4882.53
454.47	5060.7
454.676	5199.96
454.882	5466.2
455.088	5398.62
455.294	5752.91
455.5	6008.91
455.705	6230.09
455.911	6264.91
456.117	6555.72
456.323	6682.69
456.529	6717.51
456.735	7143.49
456.941	7546.94
457.147	7888.95
457.352	7954.48
457.558	8097.84
457.764	8808.48
457.97	8910.88
458.176	9437.21
458.381	9785.37
458.587	9818.13
458.793	10461.2
458.999	10373.13
459.204	11642.87
459.41	12134.39
459.616	11831.29
459.821	12619.75
460.027	13303.78
460.233	13965.27
460.438	13975.51
460.644	14469.07
460.85	14862.28
461.055	15390.66
461.261	16076.73
461.466	15921.08
461.672	16025.53
461.878	18149.27
462.083	17901.47
462.289	18067.35
462.494	19146.63
462.7	19158.92
462.905	19582.85
463.111	20688.75
463.316	21940.06
463.522	22179.67
463.727	23404.36
463.932	24067.9
464.138	24710.96
464.343	25579.3
464.549	26193.69
464.754	27533.06
464.959	28360.44
465.165	29228.78
465.37	28897.01
465.575	28536.57
465.781	31039.19
465.986	31690.44
466.191	31121.1
466.397	31749.83
466.602	30760.66
466.807	32540.35
467.012	32880.31
467.218	33560.23
467.423	33437.36
467.628	34602.65
467.833	36175.49
468.038	35565.2
468.244	35270.29
468.449	37076.6
468.654	36126.34
468.859	36290.18
469.064	36314.75
469.269	34963.09
