Data from USB4F104151__117__10-36-33-821.txt Node

Date: Wed Feb 26 10:36:33 EST 2025
User: louis
Spectrometer: USB4F10415
Trigger mode: 4
Integration Time (sec): 1.000000E-1
Scans to average: 1
Electric dark correction enabled: true
Nonlinearity correction enabled: false
Boxcar width: 0
XAxis mode: Wavelengths
Number of Pixels in Spectrum: 3648
>>>>>Begin Spectral Data<<<<<
178.204	-443.04
178.424	-443.04
178.644	-443.04
178.864	-410.28
179.084	-400.04
179.304	1.37
179.524	-33.45
179.744	36.18
179.964	-31.4
180.184	30.04
180.404	38.23
180.624	-12.97
180.844	-80.55
181.064	-119.46
181.283	54.61
181.503	21.85
181.723	95.57
181.943	-12.97
182.163	175.44
182.383	-17.07
182.602	66.9
182.822	214.35
183.042	85.33
183.262	21.85
183.482	-0.68
183.701	140.63
183.921	75.09
184.141	-35.5
184.361	187.73
184.58	52.56
184.8	85.33
185.02	46.42
185.239	120.15
185.459	99.67
185.679	93.52
185.898	-33.45
186.118	50.52
186.338	60.76
186.557	81.24
186.777	-55.98
186.997	56.66
187.216	128.34
187.436	206.16
187.655	54.61
187.875	142.68
188.095	34.13
188.314	122.2
188.534	161.11
188.753	38.23
188.973	93.52
189.192	232.79
189.412	62.8
189.631	85.33
189.851	136.53
190.07	99.67
190.29	-37.55
190.509	-2.73
190.729	68.95
190.948	124.24
191.168	232.79
191.387	40.28
191.607	7.51
191.826	144.72
192.045	58.71
192.265	62.8
192.484	109.91
192.704	111.96
192.923	-2.73
193.142	173.39
193.362	48.47
193.581	236.88
193.8	101.72
194.02	77.14
194.239	68.95
194.458	126.29
194.678	-58.03
194.897	46.42
195.116	40.28
195.335	73.04
195.555	103.76
195.774	23.89
195.993	97.62
196.212	99.67
196.432	5.46
196.651	46.42
196.87	136.53
197.089	296.27
197.308	62.8
197.528	116.05
197.747	-58.03
197.966	27.99
198.185	179.54
198.404	-23.21
198.623	77.14
198.842	169.3
199.062	103.76
199.281	161.11
199.5	25.94
199.719	60.76
199.938	136.53
200.157	81.24
200.376	148.82
200.595	93.52
200.814	73.04
201.033	-27.31
201.252	200.02
201.471	62.8
201.69	136.53
201.909	120.15
202.128	93.52
202.347	107.86
202.566	71
202.785	-33.45
203.004	5.46
203.223	206.16
203.442	-25.26
203.661	44.37
203.879	116.05
204.098	109.91
204.317	64.85
204.536	46.42
204.755	77.14
204.974	66.9
205.193	66.9
205.411	140.63
205.63	93.52
205.849	52.56
206.068	54.61
206.287	-0.68
206.505	66.9
206.724	-33.45
206.943	114
207.162	17.75
207.381	130.39
207.599	48.47
207.818	50.52
208.037	-23.21
208.255	30.04
208.474	71
208.693	40.28
208.911	-47.79
209.13	71
209.349	173.39
209.567	97.62
209.786	83.28
210.005	126.29
210.223	13.65
210.442	-25.26
210.661	109.91
210.879	73.04
211.098	32.08
211.316	42.32
211.535	101.72
211.753	99.67
211.972	58.71
212.191	-15.02
212.409	68.95
212.628	107.86
212.846	-21.16
213.065	66.9
213.283	85.33
213.502	21.85
213.72	44.37
213.938	66.9
214.157	-2.73
214.375	159.06
214.594	56.66
214.812	130.39
215.031	17.75
215.249	50.52
215.467	15.7
215.686	27.99
215.904	68.95
216.122	46.42
216.341	165.2
216.559	97.62
216.778	103.76
216.996	152.91
217.214	-94.89
217.432	-12.97
217.651	30.04
217.869	60.76
218.087	30.04
218.306	17.75
218.524	130.39
218.742	62.8
218.96	56.66
219.179	93.52
219.397	48.47
219.615	290.13
219.833	118.1
220.051	-27.31
220.27	83.28
220.488	130.39
220.706	79.19
220.924	79.19
221.142	42.32
221.36	79.19
221.578	58.71
221.796	68.95
222.015	75.09
222.233	48.47
222.451	159.06
222.669	-39.59
222.887	81.24
223.105	-90.79
223.323	13.65
223.541	62.8
223.759	105.81
223.977	60.76
224.195	187.73
224.413	1.37
224.631	109.91
224.849	118.1
225.067	218.45
225.285	19.8
225.503	-8.87
225.721	-109.23
225.939	34.13
226.157	38.23
226.375	193.87
226.592	50.52
226.81	109.91
227.028	97.62
227.246	157.01
227.464	73.04
227.682	177.49
227.9	103.76
228.117	71
228.335	68.95
228.553	109.91
228.771	44.37
228.989	44.37
229.206	140.63
229.424	-41.64
229.642	9.56
229.86	3.41
230.077	179.54
230.295	17.75
230.513	99.67
230.731	44.37
230.948	165.2
231.166	177.49
231.384	25.94
231.601	19.8
231.819	140.63
232.037	-17.07
232.254	3.41
232.472	48.47
232.689	-10.92
232.907	136.53
233.125	21.85
233.342	-23.21
233.56	66.9
233.777	97.62
233.995	25.94
234.213	101.72
234.43	97.62
234.648	-8.87
234.865	44.37
235.083	60.76
235.3	-4.78
235.518	167.25
235.735	195.92
235.953	103.76
236.17	21.85
236.388	52.56
236.605	107.86
236.822	81.24
237.04	120.15
237.257	73.04
237.475	-68.27
237.692	103.76
237.909	97.62
238.127	13.65
238.344	97.62
238.562	7.51
238.779	-19.11
238.996	13.65
239.214	114
239.431	23.89
239.648	87.38
239.865	128.34
240.083	116.05
240.3	64.85
240.517	95.57
240.735	79.19
240.952	148.82
241.169	124.24
241.386	48.47
241.603	23.89
241.821	-23.21
242.038	-10.92
242.255	120.15
242.472	-37.55
242.689	54.61
242.907	144.72
243.124	150.87
243.341	44.37
243.558	5.46
243.775	-80.55
243.992	-33.45
244.209	62.8
244.426	116.05
244.643	95.57
244.86	71
245.078	68.95
245.295	85.33
245.512	42.32
245.729	36.18
245.946	142.68
246.163	42.32
246.38	3.41
246.597	87.38
246.814	48.47
247.031	19.8
247.248	58.71
247.464	60.76
247.681	3.41
247.898	48.47
248.115	126.29
248.332	-37.55
248.549	144.72
248.766	136.53
248.983	34.13
249.2	13.65
249.417	107.86
249.633	-6.83
249.85	103.76
250.067	60.76
250.284	79.19
250.501	66.9
250.717	126.29
250.934	-39.59
251.151	54.61
251.368	9.56
251.585	66.9
251.801	95.57
252.018	3.41
252.235	109.91
252.451	-6.83
252.668	62.8
252.885	138.58
253.102	46.42
253.318	120.15
253.535	3.41
253.752	36.18
253.968	66.9
254.185	30.04
254.401	95.57
254.618	34.13
254.835	-12.97
255.051	189.78
255.268	40.28
255.484	50.52
255.701	50.52
255.917	144.72
256.134	5.46
256.351	85.33
256.567	-12.97
256.784	101.72
257	-53.93
257.217	52.56
257.433	124.24
257.65	91.48
257.866	103.76
258.082	7.51
258.299	5.46
258.515	-2.73
258.732	5.46
258.948	36.18
259.165	140.63
259.381	-6.83
259.597	75.09
259.814	97.62
260.03	38.23
260.246	40.28
260.463	89.43
260.679	161.11
260.895	17.75
261.112	25.94
261.328	85.33
261.544	66.9
261.761	140.63
261.977	-2.73
262.193	-4.78
262.409	126.29
262.626	11.61
262.842	48.47
263.058	1.37
263.274	159.06
263.49	93.52
263.707	124.24
263.923	23.89
264.139	-35.5
264.355	52.56
264.571	181.59
264.787	136.53
265.004	169.3
265.22	79.19
265.436	-21.16
265.652	101.72
265.868	40.28
266.084	-37.55
266.3	50.52
266.516	1.37
266.732	120.15
266.948	105.81
267.164	36.18
267.38	95.57
267.596	93.52
267.812	144.72
268.028	46.42
268.244	101.72
268.46	99.67
268.676	-15.02
268.892	81.24
269.108	-45.74
269.324	3.41
269.54	17.75
269.756	58.71
269.972	34.13
270.188	75.09
270.403	54.61
270.619	-2.73
270.835	60.76
271.051	52.56
271.267	54.61
271.483	7.51
271.698	130.39
271.914	85.33
272.13	62.8
272.346	-10.92
272.562	40.28
272.777	202.07
272.993	5.46
273.209	-25.26
273.425	109.91
273.64	-84.65
273.856	177.49
274.072	42.32
274.287	48.47
274.503	152.91
274.719	68.95
274.934	-4.78
275.15	-8.87
275.366	52.56
275.581	-43.69
275.797	-23.21
276.012	140.63
276.228	13.65
276.444	68.95
276.659	179.54
276.875	44.37
277.09	73.04
277.306	-8.87
277.521	36.18
277.737	54.61
277.952	95.57
278.168	142.68
278.383	89.43
278.599	56.66
278.814	114
279.03	111.96
279.245	101.72
279.461	48.47
279.676	68.95
279.892	-4.78
280.107	9.56
280.322	58.71
280.538	34.13
280.753	-94.89
280.969	62.8
281.184	91.48
281.399	193.87
281.615	56.66
281.83	75.09
282.045	-123.56
282.26	-6.83
282.476	44.37
282.691	146.77
282.906	81.24
283.122	89.43
283.337	68.95
283.552	89.43
283.767	99.67
283.983	107.86
284.198	87.38
284.413	142.68
284.628	-4.78
284.843	68.95
285.058	107.86
285.274	25.94
285.489	-45.74
285.704	62.8
285.919	15.7
286.134	101.72
286.349	111.96
286.564	91.48
286.779	159.06
286.995	71
287.21	-37.55
287.425	40.28
287.64	99.67
287.855	85.33
288.07	-105.13
288.285	161.11
288.5	130.39
288.715	116.05
288.93	34.13
289.145	25.94
289.36	87.38
289.575	1.37
289.79	122.2
290.004	58.71
290.219	73.04
290.434	5.46
290.649	48.47
290.864	58.71
291.079	34.13
291.294	34.13
291.509	79.19
291.724	71
291.938	52.56
292.153	62.8
292.368	9.56
292.583	91.48
292.798	25.94
293.012	107.86
293.227	109.91
293.442	-27.31
293.657	50.52
293.871	175.44
294.086	73.04
294.301	183.63
294.516	15.7
294.73	46.42
294.945	-37.55
295.16	13.65
295.374	73.04
295.589	169.3
295.804	42.32
296.018	101.72
296.233	191.83
296.447	75.09
296.662	-64.17
296.877	191.83
297.091	114
297.306	40.28
297.52	27.99
297.735	99.67
297.949	60.76
298.164	62.8
298.378	167.25
298.593	-23.21
298.807	-15.02
299.022	-0.68
299.236	183.63
299.451	75.09
299.665	128.34
299.88	114
300.094	32.08
300.309	9.56
300.523	87.38
300.737	-2.73
300.952	25.94
301.166	25.94
301.381	44.37
301.595	42.32
301.809	75.09
302.024	-10.92
302.238	-15.02
302.452	212.31
302.667	64.85
302.881	136.53
303.095	165.2
303.309	30.04
303.524	85.33
303.738	-21.16
303.952	34.13
304.166	62.8
304.381	-98.99
304.595	91.48
304.809	1.37
305.023	179.54
305.237	30.04
305.452	1.37
305.666	122.2
305.88	146.77
306.094	238.93
306.308	120.15
306.522	183.63
306.736	19.8
306.95	146.77
307.164	68.95
307.379	50.52
307.593	204.11
307.807	159.06
308.021	46.42
308.235	120.15
308.449	52.56
308.663	68.95
308.877	224.59
309.091	54.61
309.305	154.96
309.519	-4.78
309.733	120.15
309.947	-62.12
310.161	79.19
310.374	146.77
310.588	118.1
310.802	11.61
311.016	46.42
311.23	103.76
311.444	-25.26
311.658	107.86
311.872	103.76
312.085	144.72
312.299	148.82
312.513	142.68
312.727	3.41
312.941	68.95
313.154	87.38
313.368	36.18
313.582	93.52
313.796	64.85
314.009	83.28
314.223	138.58
314.437	111.96
314.651	136.53
314.864	-10.92
315.078	58.71
315.292	-17.07
315.505	30.04
315.719	68.95
315.933	87.38
316.146	13.65
316.36	11.61
316.573	89.43
316.787	173.39
317.001	34.13
317.214	7.51
317.428	97.62
317.641	-80.55
317.855	52.56
318.068	130.39
318.282	132.44
318.495	224.59
318.709	97.62
318.922	32.08
319.136	134.48
319.349	66.9
319.563	5.46
319.776	66.9
319.99	-74.41
320.203	40.28
320.417	71
320.63	142.68
320.843	150.87
321.057	91.48
321.27	25.94
321.483	23.89
321.697	140.63
321.91	66.9
322.124	46.42
322.337	157.01
322.55	11.61
322.763	48.47
322.977	-8.87
323.19	1.37
323.403	107.86
323.617	19.8
323.83	91.48
324.043	62.8
324.256	58.71
324.469	-78.51
324.683	130.39
324.896	66.9
325.109	109.91
325.322	-21.16
325.535	122.2
325.748	136.53
325.962	44.37
326.175	134.48
326.388	36.18
326.601	75.09
326.814	81.24
327.027	46.42
327.24	134.48
327.453	-80.55
327.666	97.62
327.879	132.44
328.092	56.66
328.305	87.38
328.518	-33.45
328.731	19.8
328.944	120.15
329.157	126.29
329.37	-29.35
329.583	212.31
329.796	169.3
330.009	75.09
330.222	132.44
330.435	132.44
330.648	144.72
330.861	56.66
331.073	146.77
331.286	107.86
331.499	64.85
331.712	34.13
331.925	99.67
332.138	62.8
332.35	191.83
332.563	71
332.776	83.28
332.989	25.94
333.202	17.75
333.414	48.47
333.627	7.51
333.84	-6.83
334.053	-27.31
334.265	23.89
334.478	120.15
334.691	21.85
334.903	85.33
335.116	5.46
335.329	40.28
335.541	81.24
335.754	169.3
335.966	19.8
336.179	-33.45
336.392	7.51
336.604	46.42
336.817	136.53
337.029	-27.31
337.242	13.65
337.454	-6.83
337.667	126.29
337.88	128.34
338.092	62.8
338.305	58.71
338.517	19.8
338.729	62.8
338.942	157.01
339.154	-82.6
339.367	79.19
339.579	140.63
339.792	30.04
340.004	152.91
340.217	-10.92
340.429	36.18
340.641	-10.92
340.854	23.89
341.066	30.04
341.278	95.57
341.491	181.59
341.703	11.61
341.915	19.8
342.128	111.96
342.34	42.32
342.552	-17.07
342.764	-17.07
342.977	3.41
343.189	71
343.401	38.23
343.613	-21.16
343.826	50.52
344.038	-6.83
344.25	97.62
344.462	56.66
344.674	71
344.886	77.14
345.099	95.57
345.311	50.52
345.523	30.04
345.735	-55.98
345.947	54.61
346.159	77.14
346.371	36.18
346.583	-15.02
346.795	240.98
347.007	71
347.219	62.8
347.431	58.71
347.643	206.16
347.855	64.85
348.067	177.49
348.279	1.37
348.491	75.09
348.703	87.38
348.915	66.9
349.127	89.43
349.339	114
349.551	30.04
349.763	154.96
349.975	52.56
350.187	83.28
350.399	163.15
350.61	52.56
350.822	-37.55
351.034	54.61
351.246	5.46
351.458	157.01
351.669	111.96
351.881	118.1
352.093	146.77
352.305	97.62
352.517	27.99
352.728	148.82
352.94	40.28
353.152	89.43
353.363	38.23
353.575	87.38
353.787	187.73
353.999	87.38
354.21	185.68
354.422	30.04
354.633	13.65
354.845	52.56
355.057	56.66
355.268	87.38
355.48	103.76
355.692	-2.73
355.903	54.61
356.115	-12.97
356.326	-68.27
356.538	136.53
356.749	79.19
356.961	138.58
357.172	81.24
357.384	-19.11
357.595	202.07
357.807	46.42
358.018	-19.11
358.23	62.8
358.441	148.82
358.653	73.04
358.864	79.19
359.075	50.52
359.287	50.52
359.498	75.09
359.709	136.53
359.921	40.28
360.132	132.44
360.344	54.61
360.555	-33.45
360.766	79.19
360.977	91.48
361.189	118.1
361.4	50.52
361.611	68.95
361.823	118.1
362.034	136.53
362.245	19.8
362.456	62.8
362.667	99.67
362.879	-101.03
363.09	68.95
363.301	71
363.512	7.51
363.723	21.85
363.935	38.23
364.146	159.06
364.357	79.19
364.568	75.09
364.779	-15.02
364.99	234.83
365.201	-8.87
365.412	189.78
365.623	-6.83
365.834	169.3
366.045	71
366.256	118.1
366.467	87.38
366.678	-27.31
366.889	138.58
367.1	58.71
367.311	111.96
367.522	-23.21
367.733	132.44
367.944	73.04
368.155	-25.26
368.366	79.19
368.577	103.76
368.788	138.58
368.999	-10.92
369.209	60.76
369.42	200.02
369.631	212.31
369.842	71
370.053	5.46
370.264	138.58
370.474	-31.4
370.685	75.09
370.896	71
371.107	161.11
371.317	107.86
371.528	118.1
371.739	40.28
371.95	97.62
372.16	79.19
372.371	-107.18
372.582	-31.4
372.792	38.23
373.003	27.99
373.214	81.24
373.424	95.57
373.635	-15.02
373.846	130.39
374.056	103.76
374.267	83.28
374.477	58.71
374.688	48.47
374.898	105.81
375.109	81.24
375.319	25.94
375.53	159.06
375.74	87.38
375.951	11.61
376.161	66.9
376.372	103.76
376.582	48.47
376.793	124.24
377.003	1.37
377.214	99.67
377.424	138.58
377.635	-2.73
377.845	36.18
378.055	118.1
378.266	-43.69
378.476	-0.68
378.686	91.48
378.897	-21.16
379.107	138.58
379.317	44.37
379.528	95.57
379.738	175.44
379.948	-33.45
380.158	130.39
380.369	146.77
380.579	120.15
380.789	40.28
380.999	136.53
381.21	134.48
381.42	173.39
381.63	58.71
381.84	148.82
382.05	54.61
382.261	58.71
382.471	159.06
382.681	46.42
382.891	175.44
383.101	118.1
383.311	-82.6
383.521	36.18
383.731	97.62
383.941	150.87
384.151	62.8
384.361	3.41
384.571	71
384.781	36.18
384.991	247.12
385.201	238.93
385.411	202.07
385.621	95.57
385.831	103.76
386.041	11.61
386.251	95.57
386.461	167.25
386.671	77.14
386.881	103.76
387.091	118.1
387.301	111.96
387.511	83.28
387.72	120.15
387.93	99.67
388.14	-109.23
388.35	21.85
388.56	152.91
388.769	118.1
388.979	87.38
389.189	27.99
389.399	11.61
389.609	91.48
389.818	132.44
390.028	95.57
390.238	150.87
390.447	-6.83
390.657	97.62
390.867	50.52
391.076	-21.16
391.286	40.28
391.496	60.76
391.705	38.23
391.915	134.48
392.125	109.91
392.334	44.37
392.544	208.21
392.753	81.24
392.963	21.85
393.172	3.41
393.382	40.28
393.591	222.55
393.801	15.7
394.01	189.78
394.22	66.9
394.429	11.61
394.639	60.76
394.848	134.48
395.058	32.08
395.267	48.47
395.477	154.96
395.686	62.8
395.895	187.73
396.105	173.39
396.314	128.34
396.524	25.94
396.733	40.28
396.942	81.24
397.152	85.33
397.361	79.19
397.57	85.33
397.78	62.8
397.989	91.48
398.198	154.96
398.407	95.57
398.617	97.62
398.826	107.86
399.035	109.91
399.244	177.49
399.453	64.85
399.663	66.9
399.872	124.24
400.081	9.56
400.29	144.72
400.499	-15.02
400.708	136.53
400.917	116.05
401.127	13.65
401.336	48.47
401.545	175.44
401.754	44.37
401.963	99.67
402.172	-17.07
402.381	-55.98
402.59	124.24
402.799	48.47
403.008	95.57
403.217	-45.74
403.426	62.8
403.635	-10.92
403.844	3.41
404.053	75.09
404.262	3.41
404.471	152.91
404.68	77.14
404.888	-33.45
405.097	17.75
405.306	32.08
405.515	183.63
405.724	9.56
405.933	120.15
406.142	97.62
406.35	128.34
406.559	48.47
406.768	136.53
406.977	224.59
407.185	50.52
407.394	89.43
407.603	60.76
407.812	120.15
408.02	195.92
408.229	81.24
408.438	66.9
408.646	-21.16
408.855	48.47
409.064	62.8
409.272	15.7
409.481	216.4
409.69	19.8
409.898	-29.35
410.107	93.52
410.315	83.28
410.524	30.04
410.733	79.19
410.941	42.32
411.15	132.44
411.358	148.82
411.567	144.72
411.775	91.48
411.984	85.33
412.192	134.48
412.401	44.37
412.609	132.44
412.818	140.63
413.026	132.44
413.234	54.61
413.443	3.41
413.651	-15.02
413.86	73.04
414.068	148.82
414.276	214.35
414.485	44.37
414.693	179.54
414.901	179.54
415.11	54.61
415.318	103.76
415.526	40.28
415.734	99.67
415.943	9.56
416.151	167.25
416.359	83.28
416.567	107.86
416.776	220.5
416.984	128.34
417.192	116.05
417.4	50.52
417.608	7.51
417.817	-10.92
418.025	85.33
418.233	185.68
418.441	-17.07
418.649	-35.5
418.857	120.15
419.065	175.44
419.273	62.8
419.481	87.38
419.689	56.66
419.897	40.28
420.105	1.37
420.313	114
420.521	183.63
420.729	116.05
420.937	34.13
421.145	-21.16
421.353	181.59
421.561	183.63
421.769	128.34
421.977	9.56
422.185	60.76
422.393	79.19
422.601	107.86
422.809	81.24
423.017	50.52
423.224	13.65
423.432	85.33
423.64	48.47
423.848	116.05
424.056	9.56
424.263	128.34
424.471	54.61
424.679	140.63
424.887	-25.26
425.094	189.78
425.302	165.2
425.51	52.56
425.718	124.24
425.925	161.11
426.133	-4.78
426.341	210.26
426.548	116.05
426.756	-0.68
426.964	73.04
427.171	3.41
427.379	132.44
427.586	64.85
427.794	111.96
428.001	152.91
428.209	81.24
428.417	101.72
428.624	152.91
428.832	152.91
429.039	46.42
429.247	212.31
429.454	95.57
429.662	200.02
429.869	105.81
430.076	146.77
430.284	161.11
430.491	173.39
430.699	89.43
430.906	163.15
431.114	150.87
431.321	128.34
431.528	191.83
431.736	136.53
431.943	140.63
432.15	189.78
432.358	142.68
432.565	251.22
432.772	-31.4
432.979	206.16
433.187	148.82
433.394	181.59
433.601	91.48
433.808	120.15
434.016	230.74
434.223	175.44
434.43	118.1
434.637	202.07
434.844	271.7
435.052	167.25
435.259	236.88
435.466	283.98
435.673	183.63
435.88	216.4
436.087	263.51
436.294	212.31
436.501	314.7
436.708	214.35
436.915	322.9
437.122	222.55
437.329	191.83
437.537	277.84
437.743	269.65
437.95	431.44
438.157	236.88
438.364	267.6
438.571	322.9
438.778	269.65
438.985	234.83
439.192	402.77
439.399	333.14
439.606	355.66
439.813	370
440.02	417.1
440.227	527.69
440.433	492.88
440.64	394.58
440.847	351.57
441.054	476.49
441.261	546.12
441.467	501.07
441.674	380.24
441.881	564.56
442.088	367.95
442.294	499.02
442.501	574.8
442.708	576.84
442.914	529.74
443.121	599.37
443.328	640.33
443.534	791.88
443.741	679.24
443.948	550.22
444.154	632.14
444.361	767.31
444.568	585.04
444.774	679.24
444.981	638.28
445.187	968.01
445.394	804.17
445.6	755.02
445.807	990.53
446.013	894.28
446.22	830.79
446.426	857.42
446.633	968.01
446.839	1164.61
447.046	902.47
447.252	1068.36
447.459	1035.59
447.665	1187.14
447.871	1307.97
448.078	1299.78
448.284	1310.02
448.491	1426.75
448.697	1568.06
448.903	1414.46
449.11	1502.53
449.316	1424.7
449.522	1660.22
449.728	1695.04
449.935	1764.67
450.141	1641.79
450.347	1877.3
450.553	1731.9
450.76	1873.21
450.966	1924.41
451.172	2168.12
451.378	2137.4
451.584	2155.83
451.791	2428.21
451.997	2311.47
452.203	2391.34
452.409	2514.22
452.615	2612.53
452.821	2608.43
453.027	2567.47
453.233	2956.58
453.44	2856.23
453.646	3005.74
453.852	3233.06
454.058	3257.64
454.264	3310.88
454.47	3558.69
454.676	3558.69
454.882	3939.61
455.088	3908.89
455.294	4029.72
455.5	4291.86
455.705	4414.74
455.911	4556.05
456.117	4537.62
456.323	4670.73
456.529	4730.13
456.735	5281.03
456.941	5252.36
457.147	5453.06
457.352	5653.76
457.558	5707.01
457.764	6159.61
457.97	6415.6
458.176	6624.5
458.381	6917.36
458.587	6972.65
458.793	7331.05
458.999	7335.14
459.204	8217.82
459.41	8424.66
459.616	8457.43
459.821	8707.28
460.027	9256.14
460.233	9798.85
460.438	9761.98
460.644	10353.85
460.85	10122.43
461.055	10693.81
461.261	11336.87
461.466	11291.82
461.672	11322.54
461.878	12608.66
462.083	12481.69
462.289	12721.3
462.494	13212.81
462.7	13347.98
462.905	13634.69
463.111	14619.77
463.316	15459.43
463.522	15541.35
463.727	15983.71
463.932	16780.37
464.138	17144.91
464.343	17878.08
464.549	18017.35
464.754	19373.1
464.959	19708.97
465.165	20124.71
465.37	20024.36
465.575	19895.33
465.781	21455.89
465.986	22285.31
466.191	21795.85
466.397	22019.08
466.602	21769.23
466.807	22678.52
467.012	23137.27
467.218	23677.93
467.423	23194.61
467.628	24312.8
467.833	25058.26
468.038	25078.74
468.244	24624.09
468.449	25795.53
468.654	25131.99
468.859	25078.74
469.064	25439.19
469.269	24671.2
469.474	25023.45
