Data from USB4F104151__78__11-31-25-361.txt Node

Date: Wed Feb 26 11:31:25 EST 2025
User: louis
Spectrometer: USB4F10415
Trigger mode: 4
Integration Time (sec): 1.000000E-1
Scans to average: 1
Electric dark correction enabled: true
Nonlinearity correction enabled: false
Boxcar width: 0
XAxis mode: Wavelengths
Number of Pixels in Spectrum: 3648
>>>>>Begin Spectral Data<<<<<
178.204	-425.12
178.424	-425.12
178.644	-425.12
178.864	-425.12
179.084	-414.88
179.304	19.29
179.524	-17.58
179.744	7
179.964	19.29
180.184	37.72
180.404	35.67
180.624	-99.5
180.844	-29.87
181.064	-72.87
181.283	37.72
181.503	-5.29
181.723	68.44
181.943	-109.74
182.163	199.51
182.383	-46.25
182.602	52.05
182.822	158.55
183.042	97.11
183.262	-68.78
183.482	-7.34
183.701	23.38
183.921	19.29
184.141	-117.93
184.361	56.15
184.58	21.33
184.8	-13.48
185.02	-11.43
185.239	109.4
185.459	52.05
185.679	142.16
185.898	-23.72
186.118	62.29
186.338	-33.96
186.557	66.39
186.777	-31.91
186.997	-29.87
187.216	35.67
187.436	140.12
187.655	-31.91
187.875	17.24
188.095	35.67
188.314	90.96
188.534	129.88
188.753	-40.11
188.973	156.5
189.192	74.58
189.412	19.29
189.631	-3.24
189.851	19.29
190.07	172.88
190.29	-17.58
190.509	-25.77
190.729	-17.58
190.948	47.96
191.168	199.51
191.387	58.2
191.607	-9.39
191.826	4.95
192.045	58.2
192.265	-72.87
192.484	78.68
192.704	62.29
192.923	4.95
193.142	154.45
193.362	82.77
193.581	197.46
193.8	125.78
194.02	82.77
194.239	19.29
194.458	84.82
194.678	25.43
194.897	58.2
195.116	29.52
195.335	-1.19
195.555	78.68
195.774	-25.77
195.993	74.58
196.212	0.85
196.432	13.14
196.651	-15.53
196.87	17.24
197.089	191.31
197.308	64.34
197.528	82.77
197.747	-38.06
197.966	82.77
198.185	168.79
198.404	-97.45
198.623	140.12
198.842	37.72
199.062	60.24
199.281	39.76
199.5	23.38
199.719	172.88
199.938	78.68
200.157	62.29
200.376	158.55
200.595	154.45
200.814	41.81
201.033	9.05
201.252	115.54
201.471	45.91
201.69	68.44
201.909	41.81
202.128	115.54
202.347	131.92
202.566	-7.34
202.785	-134.31
203.004	0.85
203.223	232.27
203.442	-62.63
203.661	60.24
203.879	47.96
204.098	64.34
204.317	-5.29
204.536	119.64
204.755	33.62
204.974	119.64
205.193	23.38
205.411	125.78
205.63	70.48
205.849	95.06
206.068	-38.06
206.287	-62.63
206.505	101.2
206.724	-9.39
206.943	-56.49
207.162	-7.34
207.381	88.92
207.599	-5.29
207.818	99.16
208.037	-21.67
208.255	29.52
208.474	150.36
208.693	105.3
208.911	-13.48
209.13	123.73
209.349	86.87
209.567	29.52
209.786	33.62
210.005	121.68
210.223	-11.43
210.442	-40.11
210.661	-64.68
210.879	121.68
211.098	-38.06
211.316	76.63
211.535	-25.77
211.753	31.57
211.972	4.95
212.191	-21.67
212.409	-54.44
212.628	70.48
212.846	-50.35
213.065	-23.72
213.283	41.81
213.502	-15.53
213.72	19.29
213.938	21.33
214.157	-21.67
214.375	101.2
214.594	4.95
214.812	90.96
215.031	23.38
215.249	21.33
215.467	13.14
215.686	21.33
215.904	113.49
216.122	0.85
216.341	138.07
216.559	70.48
216.778	88.92
216.996	70.48
217.214	-42.15
217.432	-46.25
217.651	2.9
217.869	50
218.087	-11.43
218.306	7
218.524	47.96
218.742	-13.48
218.96	115.54
219.179	33.62
219.397	-40.11
219.615	242.51
219.833	78.68
220.051	-29.87
220.27	76.63
220.488	95.06
220.706	19.29
220.924	-9.39
221.142	-31.91
221.36	43.86
221.578	50
221.796	58.2
222.015	88.92
222.233	111.44
222.451	131.92
222.669	-91.31
222.887	-1.19
223.105	21.33
223.323	21.33
223.541	-81.07
223.759	76.63
223.977	45.91
224.195	86.87
224.413	84.82
224.631	39.76
224.849	50
225.067	209.75
225.285	-21.67
225.503	52.05
225.721	-93.35
225.939	41.81
226.157	0.85
226.375	234.32
226.592	-3.24
226.81	17.24
227.028	72.53
227.246	166.74
227.464	54.1
227.682	97.11
227.9	37.72
228.117	62.29
228.335	-5.29
228.553	15.19
228.771	7
228.989	-54.44
229.206	84.82
229.424	-33.96
229.642	33.62
229.86	-50.35
230.077	80.72
230.295	84.82
230.513	80.72
230.731	2.9
230.948	121.68
231.166	127.83
231.384	-44.2
231.601	-27.82
231.819	119.64
232.037	37.72
232.254	-27.82
232.472	13.14
232.689	-31.91
232.907	164.69
233.125	-9.39
233.342	-27.82
233.56	-44.2
233.777	-23.72
233.995	-29.87
234.213	64.34
234.43	25.43
234.648	21.33
234.865	19.29
235.083	54.1
235.3	62.29
235.518	35.67
235.735	62.29
235.953	54.1
236.17	9.05
236.388	27.48
236.605	47.96
236.822	60.24
237.04	90.96
237.257	68.44
237.475	-87.21
237.692	21.33
237.909	62.29
238.127	-1.19
238.344	-11.43
238.562	109.4
238.779	-38.06
238.996	-52.39
239.214	-23.72
239.431	19.29
239.648	-25.77
239.865	68.44
240.083	56.15
240.3	-21.67
240.517	21.33
240.735	0.85
240.952	140.12
241.169	97.11
241.386	50
241.603	23.38
241.821	-76.97
242.038	19.29
242.255	56.15
242.472	-40.11
242.689	60.24
242.907	101.2
243.124	-1.19
243.341	-17.58
243.558	23.38
243.775	-117.93
243.992	-72.87
244.209	47.96
244.426	183.12
244.643	117.59
244.86	9.05
245.078	72.53
245.295	13.14
245.512	-9.39
245.729	60.24
245.946	27.48
246.163	35.67
246.38	4.95
246.597	47.96
246.814	-29.87
247.031	58.2
247.248	72.53
247.464	43.86
247.681	-5.29
247.898	27.48
248.115	7
248.332	-13.48
248.549	166.74
248.766	168.79
248.983	86.87
249.2	19.29
249.417	90.96
249.633	-9.39
249.85	60.24
250.067	-11.43
250.284	133.97
250.501	78.68
250.717	82.77
250.934	-46.25
251.151	35.67
251.368	58.2
251.585	-103.59
251.801	86.87
252.018	-17.58
252.235	60.24
252.451	-21.67
252.668	11.09
252.885	86.87
253.102	103.25
253.318	-5.29
253.535	-54.44
253.752	-15.53
253.968	47.96
254.185	-56.49
254.401	9.05
254.618	27.48
254.835	-5.29
255.051	17.24
255.268	50
255.484	-48.3
255.701	-9.39
255.917	58.2
256.134	95.06
256.351	-40.11
256.567	-21.67
256.784	-27.82
257	-119.98
257.217	115.54
257.433	119.64
257.65	21.33
257.866	78.68
258.082	-42.15
258.299	-27.82
258.515	56.15
258.732	9.05
258.948	-36.01
259.165	-46.25
259.381	-50.35
259.597	80.72
259.814	52.05
260.03	19.29
260.246	-25.77
260.463	136.02
260.679	144.21
260.895	-15.53
261.112	50
261.328	-29.87
261.544	27.48
261.761	170.83
261.977	-40.11
262.193	-56.49
262.409	119.64
262.626	4.95
262.842	-3.24
263.058	4.95
263.274	109.4
263.49	64.34
263.707	50
263.923	41.81
264.139	-83.11
264.355	39.76
264.571	62.29
264.787	39.76
265.004	152.4
265.22	66.39
265.436	-23.72
265.652	54.1
265.868	15.19
266.084	-33.96
266.3	25.43
266.516	13.14
266.732	52.05
266.948	13.14
267.164	-13.48
267.38	156.5
267.596	39.76
267.812	156.5
268.028	31.57
268.244	-31.91
268.46	-15.53
268.676	-11.43
268.892	2.9
269.108	-21.67
269.324	4.95
269.54	31.57
269.756	56.15
269.972	-52.39
270.188	-50.35
270.403	-76.97
270.619	37.72
270.835	119.64
271.051	56.15
271.267	-40.11
271.483	-13.48
271.698	119.64
271.914	80.72
272.13	115.54
272.346	52.05
272.562	-29.87
272.777	138.07
272.993	17.24
273.209	-70.83
273.425	80.72
273.64	-97.45
273.856	95.06
274.072	-42.15
274.287	-11.43
274.503	97.11
274.719	56.15
274.934	-17.58
275.15	-138.41
275.366	0.85
275.581	21.33
275.797	-13.48
276.012	50
276.228	9.05
276.444	50
276.659	150.36
276.875	-44.2
277.09	27.48
277.306	-33.96
277.521	131.92
277.737	70.48
277.952	136.02
278.168	47.96
278.383	9.05
278.599	-27.82
278.814	43.86
279.03	50
279.245	140.12
279.461	62.29
279.676	133.97
279.892	-44.2
280.107	25.43
280.322	-56.49
280.538	21.33
280.753	-13.48
280.969	-33.96
281.184	-21.67
281.399	66.39
281.615	-17.58
281.83	17.24
282.045	23.38
282.26	-17.58
282.476	-19.63
282.691	125.78
282.906	-27.82
283.122	113.49
283.337	17.24
283.552	84.82
283.767	-19.63
283.983	113.49
284.198	-3.24
284.413	103.25
284.628	-105.64
284.843	11.09
285.058	47.96
285.274	-48.3
285.489	4.95
285.704	103.25
285.919	19.29
286.134	33.62
286.349	13.14
286.564	39.76
286.779	109.4
286.995	43.86
287.21	-25.77
287.425	107.35
287.64	58.2
287.855	45.91
288.07	-27.82
288.285	-7.34
288.5	99.16
288.715	78.68
288.93	-17.58
289.145	-79.02
289.36	133.97
289.575	-17.58
289.79	156.5
290.004	27.48
290.219	95.06
290.434	-17.58
290.649	-50.35
290.864	-54.44
291.079	31.57
291.294	78.68
291.509	54.1
291.724	9.05
291.938	-11.43
292.153	66.39
292.368	-3.24
292.583	56.15
292.798	103.25
293.012	54.1
293.227	76.63
293.442	9.05
293.657	125.78
293.871	84.82
294.086	70.48
294.301	172.88
294.516	95.06
294.73	-7.34
294.945	13.14
295.16	23.38
295.374	219.99
295.589	111.44
295.804	-72.87
296.018	80.72
296.233	103.25
296.447	13.14
296.662	23.38
296.877	31.57
297.091	123.73
297.306	62.29
297.52	33.62
297.735	50
297.949	50
298.164	-11.43
298.378	27.48
298.593	27.48
298.807	7
299.022	23.38
299.236	205.65
299.451	-13.48
299.665	-9.39
299.88	123.73
300.094	15.19
300.309	-7.34
300.523	29.52
300.737	29.52
300.952	66.39
301.166	86.87
301.381	-81.07
301.595	-44.2
301.809	21.33
302.024	58.2
302.238	-50.35
302.452	129.88
302.667	-7.34
302.881	52.05
303.095	17.24
303.309	123.73
303.524	-70.83
303.738	4.95
303.952	-1.19
304.166	86.87
304.381	-136.36
304.595	54.1
304.809	-58.54
305.023	33.62
305.237	19.29
305.452	-103.59
305.666	35.67
305.88	103.25
306.094	84.82
306.308	62.29
306.522	29.52
306.736	-3.24
306.95	131.92
307.164	4.95
307.379	56.15
307.593	58.2
307.807	72.53
308.021	60.24
308.235	58.2
308.449	-68.78
308.663	11.09
308.877	168.79
309.091	64.34
309.305	86.87
309.519	-95.4
309.733	60.24
309.947	-99.5
310.161	50
310.374	88.92
310.588	25.43
310.802	-40.11
311.016	9.05
311.23	29.52
311.444	-44.2
311.658	-27.82
311.872	74.58
312.085	148.31
312.299	162.64
312.513	93.01
312.727	31.57
312.941	-13.48
313.154	82.77
313.368	0.85
313.582	21.33
313.796	101.2
314.009	31.57
314.223	144.21
314.437	39.76
314.651	47.96
314.864	72.53
315.078	-44.2
315.292	-50.35
315.505	-44.2
315.719	97.11
315.933	-13.48
316.146	-64.68
316.36	4.95
316.573	50
316.787	105.3
317.001	111.44
317.214	-23.72
317.428	41.81
317.641	-27.82
317.855	0.85
318.068	86.87
318.282	58.2
318.495	164.69
318.709	25.43
318.922	27.48
319.136	146.26
319.349	88.92
319.563	-81.07
319.776	78.68
319.99	-95.4
320.203	-1.19
320.417	9.05
320.63	113.49
320.843	113.49
321.057	9.05
321.27	33.62
321.483	60.24
321.697	138.07
321.91	72.53
322.124	56.15
322.337	29.52
322.55	-79.02
322.763	54.1
322.977	84.82
323.19	-3.24
323.403	74.58
323.617	68.44
323.83	95.06
324.043	9.05
324.256	25.43
324.469	-7.34
324.683	191.31
324.896	60.24
325.109	-11.43
325.322	-105.64
325.535	90.96
325.748	68.44
325.962	99.16
326.175	-3.24
326.388	66.39
326.601	136.02
326.814	17.24
327.027	43.86
327.24	189.27
327.453	-23.72
327.666	84.82
327.879	88.92
328.092	72.53
328.305	86.87
328.518	39.76
328.731	-56.49
328.944	58.2
329.157	15.19
329.37	9.05
329.583	95.06
329.796	78.68
330.009	-27.82
330.222	152.4
330.435	93.01
330.648	66.39
330.861	-40.11
331.073	-21.67
331.286	88.92
331.499	15.19
331.712	-50.35
331.925	-21.67
332.138	33.62
332.35	23.38
332.563	0.85
332.776	93.01
332.989	-27.82
333.202	23.38
333.414	80.72
333.627	17.24
333.84	37.72
334.053	60.24
334.265	15.19
334.478	-33.96
334.691	4.95
334.903	-27.82
335.116	0.85
335.329	23.38
335.541	-7.34
335.754	189.27
335.966	-36.01
336.179	2.9
336.392	-99.5
336.604	47.96
336.817	160.59
337.029	47.96
337.242	72.53
337.454	113.49
337.667	103.25
337.88	156.5
338.092	39.76
338.305	125.78
338.517	23.38
338.729	58.2
338.942	50
339.154	-62.63
339.367	-25.77
339.579	31.57
339.792	-23.72
340.004	31.57
340.217	25.43
340.429	50
340.641	0.85
340.854	-89.26
341.066	-44.2
341.278	9.05
341.491	140.12
341.703	54.1
341.915	-87.21
342.128	21.33
342.34	72.53
342.552	-54.44
342.764	7
342.977	9.05
343.189	78.68
343.401	64.34
343.613	-74.92
343.826	23.38
344.038	-162.98
344.25	25.43
344.462	-60.59
344.674	-5.29
344.886	39.76
345.099	17.24
345.311	121.68
345.523	7
345.735	-72.87
345.947	-11.43
346.159	60.24
346.371	-7.34
346.583	-19.63
346.795	131.92
347.007	-40.11
347.219	93.01
347.431	21.33
347.643	119.64
347.855	-48.3
348.067	107.35
348.279	-111.78
348.491	107.35
348.703	131.92
348.915	35.67
349.127	-1.19
349.339	72.53
349.551	-23.72
349.763	88.92
349.975	-11.43
350.187	62.29
350.399	144.21
350.61	82.77
350.822	27.48
351.034	29.52
351.246	21.33
351.458	-25.77
351.669	43.86
351.881	47.96
352.093	111.44
352.305	127.83
352.517	80.72
352.728	125.78
352.94	-62.63
353.152	54.1
353.363	-19.63
353.575	66.39
353.787	136.02
353.999	62.29
354.21	199.51
354.422	-19.63
354.633	13.14
354.845	23.38
355.057	35.67
355.268	127.83
355.48	109.4
355.692	-79.02
355.903	-25.77
356.115	-56.49
356.326	-72.87
356.538	88.92
356.749	86.87
356.961	107.35
357.172	35.67
357.384	-29.87
357.595	201.55
357.807	-48.3
358.018	4.95
358.23	50
358.441	123.73
358.653	66.39
358.864	25.43
359.075	-36.01
359.287	101.2
359.498	113.49
359.709	62.29
359.921	33.62
360.132	78.68
360.344	-5.29
360.555	-11.43
360.766	68.44
360.977	9.05
361.189	54.1
361.4	37.72
361.611	70.48
361.823	136.02
362.034	64.34
362.245	-93.35
362.456	13.14
362.667	131.92
362.879	-83.11
363.09	90.96
363.301	86.87
363.512	23.38
363.723	-23.72
363.935	-64.68
364.146	93.01
364.357	-15.53
364.568	66.39
364.779	-70.83
364.99	170.83
365.201	-36.01
365.412	189.27
365.623	-95.4
365.834	64.34
366.045	-7.34
366.256	76.63
366.467	82.77
366.678	-44.2
366.889	37.72
367.1	47.96
367.311	107.35
367.522	-13.48
367.733	47.96
367.944	11.09
368.155	35.67
368.366	113.49
368.577	13.14
368.788	117.59
368.999	25.43
369.209	-23.72
369.42	215.89
369.631	170.83
369.842	111.44
370.053	9.05
370.264	86.87
370.474	-36.01
370.685	17.24
370.896	-23.72
371.107	136.02
371.317	86.87
371.528	-9.39
371.739	47.96
371.95	37.72
372.16	183.12
372.371	-50.35
372.582	-3.24
372.792	72.53
373.003	148.31
373.214	13.14
373.424	109.4
373.635	-58.54
373.846	82.77
374.056	9.05
374.267	62.29
374.477	80.72
374.688	-9.39
374.898	54.1
375.109	62.29
375.319	-25.77
375.53	78.68
375.74	93.01
375.951	31.57
376.161	11.09
376.372	80.72
376.582	25.43
376.793	-3.24
377.003	23.38
377.214	-21.67
377.424	64.34
377.635	33.62
377.845	-17.58
378.055	93.01
378.266	-9.39
378.476	17.24
378.686	56.15
378.897	117.59
379.107	125.78
379.317	68.44
379.528	-38.06
379.738	88.92
379.948	-5.29
380.158	93.01
380.369	52.05
380.579	45.91
380.789	27.48
380.999	119.64
381.21	136.02
381.42	72.53
381.63	-15.53
381.84	146.26
382.05	31.57
382.261	121.68
382.471	-25.77
382.681	-105.64
382.891	133.97
383.101	80.72
383.311	29.52
383.521	-81.07
383.731	95.06
383.941	47.96
384.151	113.49
384.361	23.38
384.571	2.9
384.781	-3.24
384.991	199.51
385.201	183.12
385.411	148.31
385.621	15.19
385.831	29.52
386.041	-1.19
386.251	52.05
386.461	86.87
386.671	41.81
386.881	41.81
387.091	-5.29
387.301	103.25
387.511	84.82
387.72	72.53
387.93	43.86
388.14	-52.39
388.35	-15.53
388.56	107.35
388.769	119.64
388.979	29.52
389.189	-52.39
389.399	19.29
389.609	82.77
389.818	62.29
390.028	43.86
390.238	-19.63
390.447	-33.96
390.657	37.72
390.867	17.24
391.076	-64.68
391.286	115.54
391.496	-11.43
391.705	62.29
391.915	164.69
392.125	88.92
392.334	35.67
392.544	131.92
392.753	70.48
392.963	-48.3
393.172	117.59
393.382	-42.15
393.591	105.3
393.801	39.76
394.01	123.73
394.22	80.72
394.429	-27.82
394.639	4.95
394.848	15.19
395.058	113.49
395.267	58.2
395.477	97.11
395.686	-33.96
395.895	156.5
396.105	240.47
396.314	-58.54
396.524	33.62
396.733	-89.26
396.942	113.49
397.152	58.2
397.361	115.54
397.57	88.92
397.78	29.52
397.989	41.81
398.198	152.4
398.407	78.68
398.617	52.05
398.826	72.53
399.035	88.92
399.244	76.63
399.453	76.63
399.663	-33.96
399.872	52.05
400.081	-19.63
400.29	74.58
400.499	-42.15
400.708	105.3
400.917	33.62
401.127	39.76
401.336	0.85
401.545	179.03
401.754	84.82
401.963	138.07
402.172	-3.24
402.381	-13.48
402.59	2.9
402.799	-40.11
403.008	133.97
403.217	7
403.426	50
403.635	-74.92
403.844	-36.01
404.053	-54.44
404.262	54.1
404.471	144.21
404.68	25.43
404.888	-33.96
405.097	33.62
405.306	56.15
405.515	119.64
405.724	27.48
405.933	154.45
406.142	72.53
406.35	99.16
406.559	-1.19
406.768	-1.19
406.977	129.88
407.185	7
407.394	95.06
407.603	2.9
407.812	107.35
408.02	105.3
408.229	21.33
408.438	-17.58
408.646	-132.26
408.855	35.67
409.064	70.48
409.272	37.72
409.481	25.43
409.69	-50.35
409.898	-105.64
410.107	56.15
410.315	90.96
410.524	-31.91
410.733	97.11
410.941	88.92
411.15	47.96
411.358	68.44
411.567	123.73
411.775	43.86
411.984	68.44
412.192	68.44
412.401	-70.83
412.609	191.31
412.818	111.44
413.026	105.3
413.234	-3.24
413.443	50
413.651	31.57
413.86	-48.3
414.068	121.68
414.276	123.73
414.485	-3.24
414.693	50
414.901	172.88
415.11	121.68
415.318	13.14
415.526	-31.91
415.734	115.54
415.943	76.63
416.151	88.92
416.359	19.29
416.567	60.24
416.776	76.63
416.984	76.63
417.192	140.12
417.4	-54.44
417.608	-31.91
417.817	-87.21
418.025	101.2
418.233	123.73
418.441	-23.72
418.649	19.29
418.857	45.91
419.065	138.07
419.273	-33.96
419.481	-15.53
419.689	68.44
419.897	43.86
420.105	11.09
420.313	64.34
420.521	156.5
420.729	99.16
420.937	19.29
421.145	37.72
421.353	125.78
421.561	140.12
421.769	47.96
421.977	-29.87
422.185	93.01
422.393	15.19
422.601	160.59
422.809	37.72
423.017	95.06
423.224	111.44
423.432	146.26
423.64	7
423.848	133.97
424.056	64.34
424.263	23.38
424.471	-31.91
424.679	148.31
424.887	-62.63
425.094	148.31
425.302	39.76
425.51	47.96
425.718	119.64
425.925	31.57
426.133	-33.96
426.341	164.69
426.548	78.68
426.756	11.09
426.964	17.24
427.171	58.2
427.379	105.3
427.586	144.21
427.794	117.59
428.001	187.22
428.209	117.59
428.417	189.27
428.624	185.17
428.832	93.01
429.039	86.87
429.247	125.78
429.454	97.11
429.662	189.27
429.869	158.55
430.076	111.44
430.284	213.84
430.491	232.27
430.699	117.59
430.906	181.07
431.114	127.83
431.321	80.72
431.528	148.31
431.736	150.36
431.943	121.68
432.15	78.68
432.358	197.46
432.565	240.47
432.772	-21.67
432.979	174.93
433.187	144.21
433.394	203.6
433.601	113.49
433.808	222.03
434.016	172.88
434.223	197.46
434.43	215.89
434.637	244.56
434.844	236.37
435.052	191.31
435.259	226.13
435.466	256.85
435.673	224.08
435.88	320.34
436.087	316.24
436.294	344.91
436.501	322.38
436.708	355.15
436.915	285.52
437.122	285.52
437.329	224.08
437.537	312.14
437.743	283.47
437.95	566.09
438.157	373.58
438.364	369.49
438.571	367.44
438.778	445.26
438.985	387.92
439.192	547.66
439.399	365.39
439.606	492.37
439.813	426.83
440.02	529.23
440.227	615.24
440.433	512.85
440.64	496.46
440.847	392.02
441.054	551.76
441.261	643.92
441.467	654.16
441.674	564.04
441.881	766.79
442.088	662.35
442.294	662.35
442.501	764.75
442.708	772.94
442.914	662.35
443.121	869.19
443.328	871.24
443.534	846.66
443.741	789.32
443.948	799.56
444.154	983.88
444.361	1033.03
444.568	975.69
444.774	967.49
444.981	928.58
445.187	1235.78
445.394	1174.34
445.6	1084.23
445.807	1332.03
446.013	1356.61
446.22	1270.59
446.426	1379.14
446.633	1418.05
446.839	1616.7
447.046	1409.86
447.252	1516.35
447.459	1506.11
447.665	1555.26
447.871	1784.63
448.078	1870.65
448.284	1874.74
448.491	1989.43
448.697	1870.65
448.903	2114.36
449.11	2147.12
449.316	2110.26
449.522	2302.77
449.728	2335.54
449.935	2560.81
450.141	2435.89
450.347	2614.06
450.553	2652.97
450.76	2765.61
450.966	2767.66
451.172	2874.15
451.378	3035.94
451.584	3001.13
451.791	3382.05
451.997	3443.49
452.203	3513.12
452.409	3523.36
452.615	3750.68
452.821	3840.79
453.027	3846.94
453.233	4436.75
453.44	4170.52
453.646	4379.41
453.852	4514.58
454.058	4717.33
454.264	4832.01
454.47	5296.9
454.676	5327.62
454.882	5737.21
455.088	5489.41
455.294	5966.59
455.5	6148.86
455.705	6488.82
455.911	6556.4
456.117	6710
456.323	6902.51
456.529	6976.23
456.735	7447.27
456.941	7785.18
457.147	8014.56
457.352	8471.25
457.558	8397.53
457.764	8983.24
457.97	9280.2
458.176	9794.24
458.381	10261.18
458.587	10230.46
458.793	10738.35
458.999	10896.05
459.204	12126.88
459.41	12757.65
459.616	12438.17
459.821	13202.06
460.027	13607.56
460.233	14387.83
460.438	14238.33
460.644	15067.76
460.85	15374.95
461.055	15942.24
461.261	16626.26
461.466	16443.99
461.672	16579.16
461.878	18819.64
462.083	18446.91
462.289	18950.71
462.494	19513.9
462.7	19894.82
462.905	20109.86
463.111	21639.69
463.316	22815.23
463.522	22954.49
463.727	23646.7
463.932	24809.95
464.138	25588.17
464.343	26520
464.549	26786.24
464.754	28817.82
464.959	29524.37
465.165	29882.77
465.37	29735.31
465.575	30024.08
465.781	31793.52
465.986	32510.31
466.191	32190.83
466.397	32088.43
466.602	31541.62
466.807	33562.97
467.012	34003.28
467.218	34775.36
467.423	34715.97
467.628	35948.85
467.833	37570.84
468.038	37144.86
468.244	36632.87
468.449	38312.2
468.654	37312.8
468.859	37060.9
469.064	37439.77
