Data from USB4F104151__34__11-24-59-703.txt Node

Date: Wed Feb 26 11:24:59 EST 2025
User: louis
Spectrometer: USB4F10415
Trigger mode: 4
Integration Time (sec): 1.000000E-1
Scans to average: 1
Electric dark correction enabled: true
Nonlinearity correction enabled: false
Boxcar width: 0
XAxis mode: Wavelengths
Number of Pixels in Spectrum: 3648
>>>>>Begin Spectral Data<<<<<
178.204	-538.96
178.424	-538.96
178.644	-538.96
178.864	-407.89
179.084	-434.51
179.304	3.75
179.524	-24.92
179.744	73.39
179.964	59.05
180.184	-16.73
180.404	114.34
180.624	-16.73
180.844	38.57
181.064	-94.55
181.283	-0.34
181.503	-80.21
181.723	-55.64
181.943	-145.75
182.163	118.44
182.383	-6.49
182.602	52.91
182.822	100.01
183.042	54.95
183.262	-10.58
183.482	42.67
183.701	-10.58
183.921	28.33
184.141	-8.53
184.361	85.67
184.58	110.25
184.8	32.43
185.02	-61.78
185.239	65.19
185.459	91.82
185.679	130.73
185.898	-86.36
186.118	36.52
186.338	69.29
186.557	102.06
186.777	-43.35
186.997	-29.01
187.216	48.81
187.436	149.16
187.655	112.3
187.875	48.81
188.095	52.91
188.314	106.15
188.534	75.43
188.753	42.67
188.973	85.67
189.192	124.58
189.412	7.85
189.631	3.75
189.851	28.33
190.07	169.64
190.29	-2.39
190.509	-104.79
190.729	54.95
190.948	134.82
191.168	306.85
191.387	65.19
191.607	106.15
191.826	50.86
192.045	87.72
192.265	36.52
192.484	75.43
192.704	100.01
192.923	-53.59
193.142	155.3
193.362	118.44
193.581	171.69
193.8	69.29
194.02	102.06
194.239	114.34
194.458	126.63
194.678	67.24
194.897	-26.96
195.116	77.48
195.335	20.14
195.555	57
195.774	-39.25
195.993	173.74
196.212	54.95
196.432	18.09
196.651	-18.77
196.87	112.3
197.089	161.45
197.308	89.77
197.528	102.06
197.747	-121.17
197.966	124.58
198.185	124.58
198.404	-47.44
198.623	171.69
198.842	77.48
199.062	132.78
199.281	138.92
199.5	69.29
199.719	46.76
199.938	97.96
200.157	24.23
200.376	73.39
200.595	149.16
200.814	-18.77
201.033	50.86
201.252	167.59
201.471	16.04
201.69	134.82
201.909	73.39
202.128	134.82
202.347	36.52
202.566	138.92
202.785	-82.26
203.004	54.95
203.223	198.31
203.442	34.47
203.661	-14.68
203.879	106.15
204.098	110.25
204.317	-10.58
204.536	81.58
204.755	91.82
204.974	161.45
205.193	3.75
205.411	136.87
205.63	161.45
205.849	-0.34
206.068	16.04
206.287	-61.78
206.505	136.87
206.724	9.9
206.943	-26.96
207.162	42.67
207.381	13.99
207.599	-4.44
207.818	5.8
208.037	-67.92
208.255	26.28
208.474	95.91
208.693	59.05
208.911	-37.2
209.13	97.96
209.349	52.91
209.567	77.48
209.786	106.15
210.005	52.91
210.223	112.3
210.442	-10.58
210.661	59.05
210.879	42.67
211.098	-2.39
211.316	-61.78
211.535	140.97
211.753	48.81
211.972	85.67
212.191	-12.63
212.409	26.28
212.628	110.25
212.846	-57.68
213.065	79.53
213.283	138.92
213.502	22.19
213.72	48.81
213.938	32.43
214.157	36.52
214.375	67.24
214.594	42.67
214.812	59.05
215.031	81.58
215.249	91.82
215.467	165.54
215.686	63.15
215.904	34.47
216.122	-49.49
216.341	132.78
216.559	102.06
216.778	36.52
216.996	204.46
217.214	-31.06
217.432	5.8
217.651	-8.53
217.869	83.63
218.087	24.23
218.306	104.11
218.524	13.99
218.742	79.53
218.96	77.48
219.179	-80.21
219.397	63.15
219.615	181.93
219.833	69.29
220.051	-22.87
220.27	73.39
220.488	61.1
220.706	30.38
220.924	32.43
221.142	42.67
221.36	89.77
221.578	61.1
221.796	-37.2
222.015	91.82
222.233	128.68
222.451	136.87
222.669	-8.53
222.887	114.34
223.105	54.95
223.323	48.81
223.541	3.75
223.759	112.3
223.977	83.63
224.195	173.74
224.413	71.34
224.631	69.29
224.849	57
225.067	163.5
225.285	22.19
225.503	28.33
225.721	-29.01
225.939	24.23
226.157	38.57
226.375	167.59
226.592	-2.39
226.81	44.71
227.028	145.06
227.246	77.48
227.464	48.81
227.682	93.87
227.9	89.77
228.117	83.63
228.335	59.05
228.553	1.71
228.771	28.33
228.989	-45.4
229.206	85.67
229.424	34.47
229.642	30.38
229.86	11.95
230.077	188.07
230.295	-2.39
230.513	63.15
230.731	57
230.948	159.4
231.166	181.93
231.384	42.67
231.601	-10.58
231.819	171.69
232.037	32.43
232.254	-18.77
232.472	-10.58
232.689	-18.77
232.907	114.34
233.125	46.76
233.342	9.9
233.56	-35.16
233.777	5.8
233.995	59.05
234.213	75.43
234.43	50.86
234.648	32.43
234.865	3.75
235.083	79.53
235.3	73.39
235.518	65.19
235.735	120.49
235.953	3.75
236.17	-0.34
236.388	13.99
236.605	52.91
236.822	67.24
237.04	104.11
237.257	110.25
237.475	-78.16
237.692	85.67
237.909	73.39
238.127	7.85
238.344	71.34
238.562	65.19
238.779	-33.11
238.996	16.04
239.214	24.23
239.431	38.57
239.648	3.75
239.865	42.67
240.083	22.19
240.3	-10.58
240.517	-82.26
240.735	-18.77
240.952	87.72
241.169	65.19
241.386	83.63
241.603	5.8
241.821	-33.11
242.038	1.71
242.255	173.74
242.472	-39.25
242.689	136.87
242.907	50.86
243.124	20.14
243.341	3.75
243.558	42.67
243.775	-110.93
243.992	-26.96
244.209	52.91
244.426	255.65
244.643	16.04
244.86	-37.2
245.078	116.39
245.295	59.05
245.512	18.09
245.729	-43.35
245.946	75.43
246.163	138.92
246.38	38.57
246.597	34.47
246.814	116.39
247.031	83.63
247.248	16.04
247.464	57
247.681	110.25
247.898	77.48
248.115	108.2
248.332	40.62
248.549	138.92
248.766	126.63
248.983	102.06
249.2	-63.83
249.417	188.07
249.633	-112.98
249.85	54.95
250.067	38.57
250.284	52.91
250.501	118.44
250.717	128.68
250.934	-12.63
251.151	-22.87
251.368	-2.39
251.585	38.57
251.801	40.62
252.018	-18.77
252.235	132.78
252.451	-35.16
252.668	-12.63
252.885	116.39
253.102	38.57
253.318	-63.83
253.535	65.19
253.752	38.57
253.968	-39.25
254.185	-98.64
254.401	9.9
254.618	83.63
254.835	-65.88
255.051	145.06
255.268	77.48
255.484	104.11
255.701	-39.25
255.917	108.2
256.134	-4.44
256.351	1.71
256.567	-61.78
256.784	-18.77
257	-12.63
257.217	128.68
257.433	73.39
257.65	106.15
257.866	204.46
258.082	-26.96
258.299	-45.4
258.515	-22.87
258.732	9.9
258.948	-78.16
259.165	48.81
259.381	-22.87
259.597	61.1
259.814	75.43
260.03	34.47
260.246	-65.88
260.463	48.81
260.679	128.68
260.895	-16.73
261.112	61.1
261.328	145.06
261.544	13.99
261.761	161.45
261.977	-4.44
262.193	-26.96
262.409	106.15
262.626	48.81
262.842	-55.64
263.058	46.76
263.274	69.29
263.49	93.87
263.707	130.73
263.923	54.95
264.139	-90.45
264.355	102.06
264.571	97.96
264.787	71.34
265.004	136.87
265.22	38.57
265.436	13.99
265.652	30.38
265.868	44.71
266.084	7.85
266.3	97.96
266.516	-29.01
266.732	132.78
266.948	169.64
267.164	36.52
267.38	79.53
267.596	79.53
267.812	241.32
268.028	77.48
268.244	30.38
268.46	69.29
268.676	34.47
268.892	122.54
269.108	-45.4
269.324	7.85
269.54	-10.58
269.756	-0.34
269.972	-65.88
270.188	20.14
270.403	-35.16
270.619	69.29
270.835	114.34
271.051	-88.4
271.267	-37.2
271.483	-0.34
271.698	147.11
271.914	116.39
272.13	44.71
272.346	102.06
272.562	1.71
272.777	106.15
272.993	26.28
273.209	-102.74
273.425	5.8
273.64	-24.92
273.856	79.53
274.072	-2.39
274.287	3.75
274.503	110.25
274.719	83.63
274.934	-8.53
275.15	-57.68
275.366	57
275.581	-12.63
275.797	57
276.012	65.19
276.228	32.43
276.444	42.67
276.659	157.35
276.875	-69.97
277.09	1.71
277.306	57
277.521	22.19
277.737	73.39
277.952	65.19
278.168	18.09
278.383	130.73
278.599	63.15
278.814	93.87
279.03	54.95
279.245	165.54
279.461	9.9
279.676	118.44
279.892	-67.92
280.107	-67.92
280.322	-41.3
280.538	54.95
280.753	-33.11
280.969	50.86
281.184	-10.58
281.399	81.58
281.615	57
281.83	24.23
282.045	-63.83
282.26	-39.25
282.476	-45.4
282.691	75.43
282.906	9.9
283.122	-10.58
283.337	1.71
283.552	97.96
283.767	-31.06
283.983	97.96
284.198	89.77
284.413	3.75
284.628	-0.34
284.843	48.81
285.058	57
285.274	30.38
285.489	24.23
285.704	112.3
285.919	-26.96
286.134	-4.44
286.349	-35.16
286.564	-37.2
286.779	95.91
286.995	63.15
287.21	-37.2
287.425	71.34
287.64	-20.82
287.855	75.43
288.07	-35.16
288.285	132.78
288.5	87.72
288.715	97.96
288.93	132.78
289.145	5.8
289.36	71.34
289.575	48.81
289.79	24.23
290.004	-14.68
290.219	79.53
290.434	-22.87
290.649	75.43
290.864	22.19
291.079	-6.49
291.294	69.29
291.509	69.29
291.724	48.81
291.938	22.19
292.153	-8.53
292.368	-12.63
292.583	40.62
292.798	44.71
293.012	73.39
293.227	50.86
293.442	44.71
293.657	67.24
293.871	134.82
294.086	24.23
294.301	186.02
294.516	95.91
294.73	87.72
294.945	-35.16
295.16	-26.96
295.374	69.29
295.589	167.59
295.804	-2.39
296.018	44.71
296.233	173.74
296.447	89.77
296.662	30.38
296.877	44.71
297.091	46.76
297.306	67.24
297.52	-47.44
297.735	81.58
297.949	122.54
298.164	11.95
298.378	83.63
298.593	22.19
298.807	-69.97
299.022	77.48
299.236	112.3
299.451	44.71
299.665	9.9
299.88	-31.06
300.094	81.58
300.309	40.62
300.523	89.77
300.737	-10.58
300.952	87.72
301.166	3.75
301.381	-31.06
301.595	-14.68
301.809	40.62
302.024	38.57
302.238	-14.68
302.452	155.3
302.667	-12.63
302.881	188.07
303.095	93.87
303.309	54.95
303.524	59.05
303.738	34.47
303.952	-26.96
304.166	155.3
304.381	-88.4
304.595	153.26
304.809	61.1
305.023	18.09
305.237	-14.68
305.452	59.05
305.666	59.05
305.88	40.62
306.094	149.16
306.308	-16.73
306.522	120.49
306.736	30.38
306.95	65.19
307.164	67.24
307.379	5.8
307.593	81.58
307.807	151.21
308.021	67.24
308.235	87.72
308.449	-96.6
308.663	44.71
308.877	204.46
309.091	34.47
309.305	124.58
309.519	-96.6
309.733	38.57
309.947	20.14
310.161	120.49
310.374	95.91
310.588	83.63
310.802	48.81
311.016	-6.49
311.23	100.01
311.444	-45.4
311.658	1.71
311.872	112.3
312.085	36.52
312.299	67.24
312.513	206.5
312.727	59.05
312.941	-26.96
313.154	75.43
313.368	36.52
313.582	-8.53
313.796	75.43
314.009	-102.74
314.223	116.39
314.437	81.58
314.651	97.96
314.864	5.8
315.078	75.43
315.292	-29.01
315.505	-6.49
315.719	79.53
315.933	138.92
316.146	-88.4
316.36	-49.49
316.573	100.01
316.787	87.72
317.001	42.67
317.214	-102.74
317.428	50.86
317.641	-8.53
317.855	-6.49
318.068	75.43
318.282	3.75
318.495	229.03
318.709	40.62
318.922	-2.39
319.136	108.2
319.349	124.58
319.563	-33.11
319.776	32.43
319.99	-57.68
320.203	77.48
320.417	26.28
320.63	124.58
320.843	124.58
321.057	1.71
321.27	-45.4
321.483	100.01
321.697	61.1
321.91	54.95
322.124	32.43
322.337	122.54
322.55	18.09
322.763	36.52
322.977	40.62
323.19	-33.11
323.403	42.67
323.617	77.48
323.83	186.02
324.043	46.76
324.256	61.1
324.469	-2.39
324.683	161.45
324.896	-51.54
325.109	42.67
325.322	-59.73
325.535	63.15
325.748	91.82
325.962	32.43
326.175	46.76
326.388	104.11
326.601	59.05
326.814	1.71
327.027	61.1
327.24	167.59
327.453	-96.6
327.666	65.19
327.879	124.58
328.092	145.06
328.305	71.34
328.518	44.71
328.731	-92.5
328.944	-8.53
329.157	54.95
329.37	30.38
329.583	188.07
329.796	173.74
330.009	-90.45
330.222	126.63
330.435	36.52
330.648	79.53
330.861	44.71
331.073	48.81
331.286	108.2
331.499	5.8
331.712	-74.07
331.925	18.09
332.138	-16.73
332.35	97.96
332.563	-49.49
332.776	140.97
332.989	52.91
333.202	40.62
333.414	79.53
333.627	-8.53
333.84	26.28
334.053	36.52
334.265	54.95
334.478	42.67
334.691	26.28
334.903	36.52
335.116	-37.2
335.329	34.47
335.541	81.58
335.754	177.83
335.966	-4.44
336.179	67.24
336.392	-35.16
336.604	79.53
336.817	54.95
337.029	3.75
337.242	11.95
337.454	42.67
337.667	20.14
337.88	75.43
338.092	81.58
338.305	175.78
338.517	22.19
338.729	54.95
338.942	149.16
339.154	-18.77
339.367	-47.44
339.579	83.63
339.792	-4.44
340.004	73.39
340.217	63.15
340.429	71.34
340.641	-33.11
340.854	-76.12
341.066	32.43
341.278	22.19
341.491	198.31
341.703	13.99
341.915	-26.96
342.128	93.87
342.34	110.25
342.552	-2.39
342.764	11.95
342.977	-33.11
343.189	67.24
343.401	11.95
343.613	-78.16
343.826	81.58
344.038	-14.68
344.25	112.3
344.462	57
344.674	89.77
344.886	-12.63
345.099	-51.54
345.311	81.58
345.523	-12.63
345.735	-2.39
345.947	114.34
346.159	44.71
346.371	44.71
346.583	42.67
346.795	190.12
347.007	50.86
347.219	40.62
347.431	65.19
347.643	63.15
347.855	-29.01
348.067	77.48
348.279	-61.78
348.491	71.34
348.703	114.34
348.915	-8.53
349.127	3.75
349.339	93.87
349.551	5.8
349.763	71.34
349.975	54.95
350.187	112.3
350.399	198.31
350.61	104.11
350.822	-16.73
351.034	50.86
351.246	11.95
351.458	50.86
351.669	71.34
351.881	91.82
352.093	155.3
352.305	65.19
352.517	71.34
352.728	114.34
352.94	65.19
353.152	54.95
353.363	-35.16
353.575	63.15
353.787	73.39
353.999	18.09
354.21	186.02
354.422	11.95
354.633	-6.49
354.845	63.15
355.057	22.19
355.268	-8.53
355.48	218.79
355.692	-29.01
355.903	16.04
356.115	22.19
356.326	-45.4
356.538	153.26
356.749	147.11
356.961	147.11
357.172	-41.3
357.384	-65.88
357.595	253.61
357.807	-4.44
358.018	13.99
358.23	46.76
358.441	130.73
358.653	57
358.864	46.76
359.075	-14.68
359.287	65.19
359.498	71.34
359.709	93.87
359.921	54.95
360.132	65.19
360.344	11.95
360.555	-35.16
360.766	83.63
360.977	-51.54
361.189	97.96
361.4	48.81
361.611	112.3
361.823	126.63
362.034	24.23
362.245	-78.16
362.456	-57.68
362.667	32.43
362.879	-0.34
363.09	1.71
363.301	54.95
363.512	20.14
363.723	22.19
363.935	38.57
364.146	116.39
364.357	-22.87
364.568	69.29
364.779	-112.98
364.99	179.88
365.201	20.14
365.412	77.48
365.623	-102.74
365.834	61.1
366.045	7.85
366.256	116.39
366.467	22.19
366.678	11.95
366.889	-8.53
367.1	11.95
367.311	100.01
367.522	-55.64
367.733	28.33
367.944	108.2
368.155	-2.39
368.366	-20.82
368.577	147.11
368.788	61.1
368.999	22.19
369.209	40.62
369.42	229.03
369.631	261.8
369.842	91.82
370.053	-16.73
370.264	128.68
370.474	-33.11
370.685	26.28
370.896	67.24
371.107	95.91
371.317	102.06
371.528	95.91
371.739	196.26
371.95	75.43
372.16	110.25
372.371	-4.44
372.582	18.09
372.792	85.67
373.003	87.72
373.214	89.77
373.424	81.58
373.635	-49.49
373.846	116.39
374.056	1.71
374.267	112.3
374.477	-12.63
374.688	-37.2
374.898	52.91
375.109	42.67
375.319	22.19
375.53	52.91
375.74	42.67
375.951	75.43
376.161	38.57
376.372	46.76
376.582	18.09
376.793	69.29
377.003	-26.96
377.214	28.33
377.424	71.34
377.635	52.91
377.845	32.43
378.055	102.06
378.266	11.95
378.476	97.96
378.686	69.29
378.897	1.71
379.107	104.11
379.317	40.62
379.528	-20.82
379.738	87.72
379.948	20.14
380.158	93.87
380.369	36.52
380.579	59.05
380.789	28.33
380.999	30.38
381.21	89.77
381.42	157.35
381.63	69.29
381.84	61.1
382.05	169.64
382.261	81.58
382.471	126.63
382.681	-8.53
382.891	200.36
383.101	69.29
383.311	-20.82
383.521	3.75
383.731	163.5
383.941	114.34
384.151	-14.68
384.361	-0.34
384.571	85.67
384.781	38.57
384.991	183.98
385.201	190.12
385.411	130.73
385.621	42.67
385.831	52.91
386.041	20.14
386.251	-10.58
386.461	97.96
386.671	28.33
386.881	69.29
387.091	69.29
387.301	71.34
387.511	1.71
387.72	106.15
387.93	63.15
388.14	-139.6
388.35	79.53
388.56	89.77
388.769	124.58
388.979	89.77
389.189	-20.82
389.399	69.29
389.609	79.53
389.818	48.81
390.028	-6.49
390.238	48.81
390.447	22.19
390.657	106.15
390.867	40.62
391.076	-65.88
391.286	38.57
391.496	-43.35
391.705	7.85
391.915	93.87
392.125	77.48
392.334	75.43
392.544	151.21
392.753	7.85
392.963	30.38
393.172	63.15
393.382	-18.77
393.591	235.18
393.801	-12.63
394.01	175.78
394.22	69.29
394.429	69.29
394.639	34.47
394.848	48.81
395.058	114.34
395.267	71.34
395.477	40.62
395.686	-16.73
395.895	206.5
396.105	118.44
396.314	97.96
396.524	65.19
396.733	11.95
396.942	147.11
397.152	104.11
397.361	126.63
397.57	65.19
397.78	-0.34
397.989	57
398.198	106.15
398.407	1.71
398.617	75.43
398.826	20.14
399.035	61.1
399.244	149.16
399.453	73.39
399.663	26.28
399.872	18.09
400.081	-37.2
400.29	175.78
400.499	26.28
400.708	149.16
400.917	22.19
401.127	5.8
401.336	-53.59
401.545	161.45
401.754	126.63
401.963	190.12
402.172	1.71
402.381	-0.34
402.59	9.9
402.799	-35.16
403.008	151.21
403.217	116.39
403.426	100.01
403.635	24.23
403.844	22.19
404.053	30.38
404.262	-35.16
404.471	186.02
404.68	16.04
404.888	50.86
405.097	24.23
405.306	63.15
405.515	173.74
405.724	67.24
405.933	112.3
406.142	102.06
406.35	97.96
406.559	16.04
406.768	89.77
406.977	120.49
407.185	59.05
407.394	149.16
407.603	-26.96
407.812	93.87
408.02	169.64
408.229	9.9
408.438	28.33
408.646	-61.78
408.855	11.95
409.064	87.72
409.272	95.91
409.481	108.2
409.69	38.57
409.898	-0.34
410.107	32.43
410.315	167.59
410.524	20.14
410.733	75.43
410.941	40.62
411.15	116.39
411.358	81.58
411.567	134.82
411.775	13.99
411.984	61.1
412.192	71.34
412.401	-35.16
412.609	140.97
412.818	93.87
413.026	112.3
413.234	24.23
413.443	7.85
413.651	-6.49
413.86	36.52
414.068	200.36
414.276	114.34
414.485	-51.54
414.693	188.07
414.901	229.03
415.11	61.1
415.318	63.15
415.526	59.05
415.734	159.4
415.943	54.95
416.151	67.24
416.359	40.62
416.567	65.19
416.776	77.48
416.984	75.43
417.192	175.78
417.4	16.04
417.608	-4.44
417.817	-26.96
418.025	97.96
418.233	83.63
418.441	9.9
418.649	18.09
418.857	95.91
419.065	190.12
419.273	67.24
419.481	32.43
419.689	-10.58
419.897	116.39
420.105	-43.35
420.313	69.29
420.521	177.83
420.729	120.49
420.937	67.24
421.145	42.67
421.353	106.15
421.561	155.3
421.769	63.15
421.977	-72.02
422.185	157.35
422.393	79.53
422.601	134.82
422.809	91.82
423.017	97.96
423.224	104.11
423.432	114.34
423.64	-14.68
423.848	138.92
424.056	-12.63
424.263	134.82
424.471	63.15
424.679	147.11
424.887	-8.53
425.094	75.43
425.302	83.63
425.51	69.29
425.718	157.35
425.925	59.05
426.133	61.1
426.341	151.21
426.548	20.14
426.756	61.1
426.964	89.77
427.171	89.77
427.379	97.96
427.586	50.86
427.794	194.22
428.001	181.93
428.209	95.91
428.417	95.91
428.624	85.67
428.832	95.91
429.039	122.54
429.247	134.82
429.454	114.34
429.662	175.78
429.869	120.49
430.076	95.91
430.284	104.11
430.491	192.17
430.699	173.74
430.906	177.83
431.114	118.44
431.321	83.63
431.528	46.76
431.736	95.91
431.943	163.5
432.15	183.98
432.358	157.35
432.565	198.31
432.772	89.77
432.979	284.33
433.187	85.67
433.394	155.3
433.601	97.96
433.808	263.85
434.016	159.4
434.223	261.8
434.43	171.69
434.637	280.23
434.844	218.79
435.052	235.18
435.259	272.04
435.466	278.18
435.673	175.78
435.88	286.37
436.087	337.57
436.294	399.01
436.501	333.48
436.708	276.13
436.915	294.57
437.122	378.53
437.329	196.26
437.537	292.52
437.743	384.68
437.95	444.07
438.157	282.28
438.364	304.81
438.571	374.44
438.778	319.14
438.985	485.03
439.192	468.64
439.399	368.29
439.606	485.03
439.813	568.99
440.02	562.85
440.227	642.72
440.433	599.71
440.64	476.84
440.847	386.72
441.054	609.95
441.261	695.97
441.467	665.25
441.674	587.43
441.881	689.82
442.088	755.36
442.294	663.2
442.501	728.74
442.708	857.76
442.914	788.13
443.121	788.13
443.328	824.99
443.534	892.57
443.741	906.91
443.948	820.89
444.154	945.82
444.361	1091.23
444.568	976.54
444.774	1023.64
444.981	956.06
445.187	1158.81
445.394	1054.36
445.6	1107.61
445.807	1261.21
446.013	1177.24
446.22	1119.9
446.426	1312.41
446.633	1351.32
446.839	1642.13
447.046	1308.31
447.252	1592.98
447.459	1455.76
447.665	1605.27
447.871	1740.43
448.078	1805.97
448.284	1814.16
448.491	1844.88
448.697	2041.48
448.903	2152.07
449.11	2031.24
449.316	2045.58
449.522	2227.85
449.728	2315.91
449.935	2496.13
450.141	2463.37
450.347	2709.12
450.553	2541.19
450.76	2627.2
450.966	2866.81
451.172	2795.14
451.378	2967.17
451.584	2991.74
451.791	3313.27
451.997	3210.87
452.203	3380.86
452.409	3546.74
452.615	3720.82
452.821	3495.54
453.027	3638.9
453.233	4136.56
453.44	3978.86
453.646	4206.19
453.852	4433.51
454.058	4480.61
454.264	4525.67
454.47	5056.09
454.676	4947.55
454.882	5443.16
455.088	5281.37
455.294	5498.45
455.5	5819.99
455.705	6278.73
455.911	6350.41
456.117	6288.97
456.323	6549.06
456.529	6461
456.735	7343.67
456.941	7544.38
457.147	7593.53
457.352	7915.06
457.558	7827
457.764	8502.82
457.97	8633.89
458.176	9111.07
458.381	9520.67
458.587	9920.02
458.793	10274.32
458.999	10173.97
459.204	11492.86
459.41	11957.75
459.616	11707.9
459.821	12471.79
460.027	13034.98
460.233	13469.15
460.438	13508.06
460.644	14577.1
460.85	14833.1
461.055	15254.98
461.261	15996.34
461.466	15658.43
461.672	15859.13
461.878	17847.71
462.083	17442.21
462.289	17841.56
462.494	18515.34
462.7	18912.65
462.905	18965.9
463.111	20622.7
463.316	21542.24
463.522	21949.79
463.727	22584.66
463.932	23561.54
464.138	24278.33
464.343	25158.95
464.549	25380.14
464.754	27096.33
464.959	27911.42
465.165	28241.15
465.37	28378.36
465.575	28175.61
465.781	30446.81
465.986	31157.46
466.191	30694.61
466.397	30940.37
466.602	29746.4
466.807	31800.52
467.012	32232.64
467.218	32990.39
467.423	33160.37
467.628	34055.33
467.833	35611.79
468.038	35001.49
468.244	34542.75
468.449	35779.72
468.654	35392.65
468.859	35320.98
