Data from USB4F104151__109__10-36-16-423.txt Node

Date: Wed Feb 26 10:36:16 EST 2025
User: louis
Spectrometer: USB4F10415
Trigger mode: 4
Integration Time (sec): 1.000000E-1
Scans to average: 1
Electric dark correction enabled: true
Nonlinearity correction enabled: false
Boxcar width: 0
XAxis mode: Wavelengths
Number of Pixels in Spectrum: 3648
>>>>>Begin Spectral Data<<<<<
178.204	-421.03
178.424	-421.03
178.644	-421.03
178.864	-423.08
179.084	-382.12
179.304	-7.34
179.524	-27.82
179.744	25.43
179.964	17.24
180.184	37.72
180.404	13.14
180.624	27.48
180.844	-19.63
181.064	-13.48
181.283	-36.01
181.503	-38.06
181.723	21.33
181.943	-79.02
182.163	213.84
182.383	7
182.602	29.52
182.822	109.4
183.042	105.3
183.262	4.95
183.482	52.05
183.701	-68.78
183.921	2.9
184.141	-29.87
184.361	29.52
184.58	54.1
184.8	-23.72
185.02	11.09
185.239	33.62
185.459	50
185.679	129.88
185.898	-62.63
186.118	39.76
186.338	50
186.557	148.31
186.777	13.14
186.997	9.05
187.216	74.58
187.436	193.36
187.655	80.72
187.875	97.11
188.095	37.72
188.314	168.79
188.534	68.44
188.753	-9.39
188.973	62.29
189.192	187.22
189.412	68.44
189.631	86.87
189.851	76.63
190.07	185.17
190.29	-40.11
190.509	-9.39
190.729	0.85
190.948	160.59
191.168	224.08
191.387	86.87
191.607	105.3
191.826	123.73
192.045	23.38
192.265	21.33
192.484	60.24
192.704	84.82
192.923	-7.34
193.142	191.31
193.362	95.06
193.581	82.77
193.8	119.64
194.02	78.68
194.239	27.48
194.458	90.96
194.678	-19.63
194.897	-11.43
195.116	39.76
195.335	86.87
195.555	33.62
195.774	29.52
195.993	64.34
196.212	-42.15
196.432	-44.2
196.651	21.33
196.87	84.82
197.089	226.13
197.308	54.1
197.528	148.31
197.747	27.48
197.966	13.14
198.185	168.79
198.404	-46.25
198.623	101.2
198.842	70.48
199.062	39.76
199.281	84.82
199.5	111.44
199.719	95.06
199.938	72.53
200.157	54.1
200.376	193.36
200.595	115.54
200.814	37.72
201.033	-5.29
201.252	201.55
201.471	33.62
201.69	54.1
201.909	-7.34
202.128	93.01
202.347	95.06
202.566	84.82
202.785	-76.97
203.004	19.29
203.223	297.81
203.442	15.19
203.661	-29.87
203.879	113.49
204.098	103.25
204.317	-13.48
204.536	115.54
204.755	113.49
204.974	64.34
205.193	23.38
205.411	176.98
205.63	181.07
205.849	99.16
206.068	-76.97
206.287	11.09
206.505	168.79
206.724	19.29
206.943	76.63
207.162	-3.24
207.381	82.77
207.599	19.29
207.818	25.43
208.037	-56.49
208.255	7
208.474	-7.34
208.693	19.29
208.911	0.85
209.13	41.81
209.349	131.92
209.567	82.77
209.786	70.48
210.005	90.96
210.223	86.87
210.442	-117.93
210.661	23.38
210.879	27.48
211.098	-11.43
211.316	64.34
211.535	56.15
211.753	31.57
211.972	-36.01
212.191	56.15
212.409	17.24
212.628	35.67
212.846	-40.11
213.065	68.44
213.283	-3.24
213.502	-33.96
213.72	80.72
213.938	-74.92
214.157	54.1
214.375	86.87
214.594	-23.72
214.812	99.16
215.031	-31.91
215.249	47.96
215.467	115.54
215.686	11.09
215.904	156.5
216.122	4.95
216.341	109.4
216.559	45.91
216.778	109.4
216.996	140.12
217.214	-36.01
217.432	-36.01
217.651	-62.63
217.869	68.44
218.087	-21.67
218.306	45.91
218.524	-3.24
218.742	13.14
218.96	119.64
219.179	-87.21
219.397	-11.43
219.615	160.59
219.833	86.87
220.051	-72.87
220.27	121.68
220.488	148.31
220.706	39.76
220.924	-11.43
221.142	-38.06
221.36	41.81
221.578	13.14
221.796	25.43
222.015	37.72
222.233	58.2
222.451	162.64
222.669	11.09
222.887	111.44
223.105	19.29
223.323	-15.53
223.541	-74.92
223.759	133.97
223.977	60.24
224.195	127.83
224.413	90.96
224.631	21.33
224.849	156.5
225.067	119.64
225.285	-109.74
225.503	7
225.721	-60.59
225.939	95.06
226.157	103.25
226.375	226.13
226.592	29.52
226.81	-17.58
227.028	127.83
227.246	84.82
227.464	33.62
227.682	45.91
227.9	82.77
228.117	37.72
228.335	160.59
228.553	107.35
228.771	62.29
228.989	109.4
229.206	123.73
229.424	-42.15
229.642	0.85
229.86	2.9
230.077	125.78
230.295	-64.68
230.513	133.97
230.731	119.64
230.948	205.65
231.166	181.07
231.384	-21.67
231.601	-5.29
231.819	273.23
232.037	-56.49
232.254	-74.92
232.472	-15.53
232.689	68.44
232.907	119.64
233.125	-7.34
233.342	-1.19
233.56	-7.34
233.777	54.1
233.995	117.59
234.213	70.48
234.43	129.88
234.648	109.4
234.865	4.95
235.083	80.72
235.3	15.19
235.518	148.31
235.735	72.53
235.953	146.26
236.17	64.34
236.388	4.95
236.605	9.05
236.822	9.05
237.04	90.96
237.257	58.2
237.475	-33.96
237.692	88.92
237.909	82.77
238.127	35.67
238.344	78.68
238.562	27.48
238.779	-1.19
238.996	-89.26
239.214	11.09
239.431	39.76
239.648	-3.24
239.865	140.12
240.083	72.53
240.3	-5.29
240.517	21.33
240.735	58.2
240.952	138.07
241.169	78.68
241.386	52.05
241.603	2.9
241.821	-17.58
242.038	78.68
242.255	68.44
242.472	-54.44
242.689	117.59
242.907	45.91
243.124	25.43
243.341	-19.63
243.558	-5.29
243.775	-13.48
243.992	-138.41
244.209	56.15
244.426	189.27
244.643	39.76
244.86	4.95
245.078	109.4
245.295	4.95
245.512	43.86
245.729	13.14
245.946	78.68
246.163	88.92
246.38	-64.68
246.597	74.58
246.814	23.38
247.031	-19.63
247.248	-44.2
247.464	146.26
247.681	88.92
247.898	47.96
248.115	84.82
248.332	-62.63
248.549	84.82
248.766	121.68
248.983	113.49
249.2	127.83
249.417	90.96
249.633	68.44
249.85	58.2
250.067	-36.01
250.284	19.29
250.501	109.4
250.717	52.05
250.934	-9.39
251.151	-1.19
251.368	-5.29
251.585	52.05
251.801	27.48
252.018	-64.68
252.235	156.5
252.451	-48.3
252.668	39.76
252.885	164.69
253.102	82.77
253.318	27.48
253.535	60.24
253.752	41.81
253.968	0.85
254.185	-21.67
254.401	0.85
254.618	78.68
254.835	-66.73
255.051	127.83
255.268	74.58
255.484	52.05
255.701	60.24
255.917	80.72
256.134	-27.82
256.351	39.76
256.567	-62.63
256.784	50
257	-109.74
257.217	127.83
257.433	15.19
257.65	7
257.866	164.69
258.082	-46.25
258.299	-76.97
258.515	54.1
258.732	86.87
258.948	7
259.165	111.44
259.381	-29.87
259.597	60.24
259.814	45.91
260.03	54.1
260.246	27.48
260.463	113.49
260.679	138.07
260.895	39.76
261.112	52.05
261.328	37.72
261.544	-52.39
261.761	222.03
261.977	-87.21
262.193	-42.15
262.409	136.02
262.626	101.2
262.842	52.05
263.058	-31.91
263.274	29.52
263.49	62.29
263.707	107.35
263.923	140.12
264.139	-48.3
264.355	43.86
264.571	68.44
264.787	103.25
265.004	131.92
265.22	23.38
265.436	25.43
265.652	31.57
265.868	41.81
266.084	-97.45
266.3	0.85
266.516	0.85
266.732	56.15
266.948	74.58
267.164	0.85
267.38	21.33
267.596	80.72
267.812	185.17
268.028	45.91
268.244	-13.48
268.46	35.67
268.676	54.1
268.892	47.96
269.108	-11.43
269.324	-23.72
269.54	11.09
269.756	88.92
269.972	-11.43
270.188	60.24
270.403	-72.87
270.619	11.09
270.835	115.54
271.051	39.76
271.267	62.29
271.483	-58.54
271.698	105.3
271.914	93.01
272.13	37.72
272.346	-21.67
272.562	97.11
272.777	99.16
272.993	21.33
273.209	31.57
273.425	115.54
273.64	-64.68
273.856	90.96
274.072	-38.06
274.287	21.33
274.503	62.29
274.719	39.76
274.934	-38.06
275.15	-40.11
275.366	31.57
275.581	-64.68
275.797	17.24
276.012	-7.34
276.228	33.62
276.444	9.05
276.659	205.65
276.875	19.29
277.09	64.34
277.306	-11.43
277.521	37.72
277.737	47.96
277.952	74.58
278.168	78.68
278.383	41.81
278.599	15.19
278.814	64.34
279.03	17.24
279.245	197.46
279.461	-83.11
279.676	45.91
279.892	-54.44
280.107	-44.2
280.322	-36.01
280.538	109.4
280.753	-1.19
280.969	72.53
281.184	52.05
281.399	138.07
281.615	-33.96
281.83	70.48
282.045	13.14
282.26	-31.91
282.476	131.92
282.691	80.72
282.906	88.92
283.122	50
283.337	-50.35
283.552	115.54
283.767	88.92
283.983	107.35
284.198	33.62
284.413	70.48
284.628	-105.64
284.843	29.52
285.058	-31.91
285.274	-3.24
285.489	-33.96
285.704	109.4
285.919	21.33
286.134	45.91
286.349	-42.15
286.564	17.24
286.779	136.02
286.995	21.33
287.21	-113.83
287.425	0.85
287.64	-40.11
287.855	54.1
288.07	-44.2
288.285	125.78
288.5	74.58
288.715	88.92
288.93	31.57
289.145	103.25
289.36	123.73
289.575	11.09
289.79	174.93
290.004	52.05
290.219	150.36
290.434	23.38
290.649	-17.58
290.864	-13.48
291.079	64.34
291.294	19.29
291.509	35.67
291.724	50
291.938	-60.59
292.153	-3.24
292.368	15.19
292.583	78.68
292.798	113.49
293.012	82.77
293.227	80.72
293.442	-27.82
293.657	37.72
293.871	185.17
294.086	37.72
294.301	166.74
294.516	78.68
294.73	27.48
294.945	39.76
295.16	17.24
295.374	183.12
295.589	160.59
295.804	-52.39
296.018	93.01
296.233	90.96
296.447	9.05
296.662	-87.21
296.877	103.25
297.091	43.86
297.306	-1.19
297.52	29.52
297.735	50
297.949	50
298.164	56.15
298.378	68.44
298.593	-5.29
298.807	-21.67
299.022	37.72
299.236	170.83
299.451	66.39
299.665	-7.34
299.88	-21.67
300.094	23.38
300.309	39.76
300.523	76.63
300.737	-15.53
300.952	123.73
301.166	103.25
301.381	-101.55
301.595	-21.67
301.809	31.57
302.024	7
302.238	-1.19
302.452	129.88
302.667	80.72
302.881	136.02
303.095	68.44
303.309	109.4
303.524	-17.58
303.738	47.96
303.952	-29.87
304.166	62.29
304.381	-105.64
304.595	144.21
304.809	-31.91
305.023	39.76
305.237	78.68
305.452	84.82
305.666	33.62
305.88	109.4
306.094	35.67
306.308	50
306.522	72.53
306.736	113.49
306.95	121.68
307.164	-15.53
307.379	41.81
307.593	148.31
307.807	97.11
308.021	88.92
308.235	78.68
308.449	-9.39
308.663	11.09
308.877	271.19
309.091	105.3
309.305	58.2
309.519	-31.91
309.733	76.63
309.947	-167.08
310.161	7
310.374	82.77
310.588	123.73
310.802	0.85
311.016	-7.34
311.23	105.3
311.444	-54.44
311.658	-11.43
311.872	93.01
312.085	72.53
312.299	127.83
312.513	127.83
312.727	-7.34
312.941	-68.78
313.154	54.1
313.368	35.67
313.582	33.62
313.796	-9.39
314.009	15.19
314.223	88.92
314.437	31.57
314.651	72.53
314.864	-44.2
315.078	-33.96
315.292	-50.35
315.505	4.95
315.719	72.53
315.933	-3.24
316.146	15.19
316.36	-56.49
316.573	152.4
316.787	37.72
317.001	39.76
317.214	-87.21
317.428	-13.48
317.641	-19.63
317.855	-23.72
318.068	74.58
318.282	47.96
318.495	185.17
318.709	9.05
318.922	43.86
319.136	136.02
319.349	113.49
319.563	86.87
319.776	86.87
319.99	-40.11
320.203	125.78
320.417	-31.91
320.63	97.11
320.843	191.31
321.057	43.86
321.27	37.72
321.483	-5.29
321.697	70.48
321.91	74.58
322.124	136.02
322.337	86.87
322.55	-27.82
322.763	54.1
322.977	88.92
323.19	41.81
323.403	82.77
323.617	2.9
323.83	113.49
324.043	45.91
324.256	103.25
324.469	-38.06
324.683	129.88
324.896	88.92
325.109	35.67
325.322	13.14
325.535	127.83
325.748	58.2
325.962	37.72
326.175	41.81
326.388	23.38
326.601	95.06
326.814	33.62
327.027	50
327.24	183.12
327.453	4.95
327.666	47.96
327.879	166.74
328.092	111.44
328.305	90.96
328.518	0.85
328.731	35.67
328.944	68.44
329.157	29.52
329.37	-58.54
329.583	140.12
329.796	119.64
330.009	-72.87
330.222	70.48
330.435	99.16
330.648	11.09
330.861	45.91
331.073	25.43
331.286	90.96
331.499	43.86
331.712	68.44
331.925	76.63
332.138	90.96
332.35	84.82
332.563	-23.72
332.776	129.88
332.989	-58.54
333.202	68.44
333.414	68.44
333.627	62.29
333.84	-13.48
334.053	47.96
334.265	33.62
334.478	-9.39
334.691	37.72
334.903	82.77
335.116	56.15
335.329	52.05
335.541	86.87
335.754	166.74
335.966	-31.91
336.179	93.01
336.392	27.48
336.604	64.34
336.817	117.59
337.029	72.53
337.242	101.2
337.454	25.43
337.667	-38.06
337.88	41.81
338.092	-5.29
338.305	62.29
338.517	-7.34
338.729	50
338.942	129.88
339.154	-38.06
339.367	-40.11
339.579	117.59
339.792	-58.54
340.004	88.92
340.217	-17.58
340.429	37.72
340.641	-19.63
340.854	11.09
341.066	88.92
341.278	56.15
341.491	160.59
341.703	113.49
341.915	-56.49
342.128	27.48
342.34	74.58
342.552	-72.87
342.764	-25.77
342.977	-13.48
343.189	39.76
343.401	21.33
343.613	-66.73
343.826	0.85
344.038	52.05
344.25	37.72
344.462	-3.24
344.674	64.34
344.886	70.48
345.099	64.34
345.311	39.76
345.523	39.76
345.735	-107.69
345.947	60.24
346.159	70.48
346.371	74.58
346.583	27.48
346.795	179.03
347.007	58.2
347.219	113.49
347.431	50
347.643	140.12
347.855	19.29
348.067	148.31
348.279	-44.2
348.491	52.05
348.703	140.12
348.915	-7.34
349.127	31.57
349.339	78.68
349.551	-23.72
349.763	23.38
349.975	-31.91
350.187	88.92
350.399	123.73
350.61	31.57
350.822	-70.83
351.034	68.44
351.246	-3.24
351.458	56.15
351.669	76.63
351.881	107.35
352.093	56.15
352.305	82.77
352.517	84.82
352.728	113.49
352.94	50
353.152	45.91
353.363	31.57
353.575	47.96
353.787	138.07
353.999	97.11
354.21	193.36
354.422	-56.49
354.633	31.57
354.845	25.43
355.057	4.95
355.268	2.9
355.48	99.16
355.692	-68.78
355.903	54.1
356.115	-9.39
356.326	-68.78
356.538	162.64
356.749	68.44
356.961	88.92
357.172	7
357.384	33.62
357.595	205.65
357.807	13.14
358.018	-3.24
358.23	2.9
358.441	127.83
358.653	54.1
358.864	35.67
359.075	-27.82
359.287	7
359.498	93.01
359.709	78.68
359.921	0.85
360.132	66.39
360.344	37.72
360.555	-58.54
360.766	103.25
360.977	-19.63
361.189	174.93
361.4	33.62
361.611	136.02
361.823	62.29
362.034	-3.24
362.245	-21.67
362.456	41.81
362.667	101.2
362.879	47.96
363.09	72.53
363.301	76.63
363.512	80.72
363.723	72.53
363.935	-15.53
364.146	72.53
364.357	62.29
364.568	60.24
364.779	-33.96
364.99	164.69
365.201	-62.63
365.412	193.36
365.623	-3.24
365.834	45.91
366.045	88.92
366.256	0.85
366.467	121.68
366.678	29.52
366.889	25.43
367.1	19.29
367.311	152.4
367.522	0.85
367.733	70.48
367.944	95.06
368.155	35.67
368.366	105.3
368.577	119.64
368.788	138.07
368.999	-117.93
369.209	31.57
369.42	183.12
369.631	258.9
369.842	119.64
370.053	37.72
370.264	99.16
370.474	13.14
370.685	13.14
370.896	43.86
371.107	183.12
371.317	93.01
371.528	13.14
371.739	33.62
371.95	66.39
372.16	78.68
372.371	-1.19
372.582	2.9
372.792	111.44
373.003	25.43
373.214	131.92
373.424	31.57
373.635	23.38
373.846	166.74
374.056	-7.34
374.267	43.86
374.477	11.09
374.688	-3.24
374.898	33.62
375.109	64.34
375.319	33.62
375.53	113.49
375.74	37.72
375.951	-23.72
376.161	56.15
376.372	113.49
376.582	9.05
376.793	62.29
377.003	11.09
377.214	-29.87
377.424	70.48
377.635	68.44
377.845	-40.11
378.055	160.59
378.266	-13.48
378.476	-29.87
378.686	43.86
378.897	21.33
379.107	35.67
379.317	66.39
379.528	47.96
379.738	136.02
379.948	17.24
380.158	209.75
380.369	111.44
380.579	88.92
380.789	17.24
380.999	84.82
381.21	90.96
381.42	191.31
381.63	31.57
381.84	70.48
382.05	123.73
382.261	123.73
382.471	144.21
382.681	-40.11
382.891	115.54
383.101	31.57
383.311	-56.49
383.521	-29.87
383.731	82.77
383.941	64.34
384.151	109.4
384.361	-48.3
384.571	150.36
384.781	105.3
384.991	189.27
385.201	193.36
385.411	66.39
385.621	29.52
385.831	93.01
386.041	131.92
386.251	9.05
386.461	72.53
386.671	17.24
386.881	21.33
387.091	60.24
387.301	117.59
387.511	13.14
387.72	11.09
387.93	148.31
388.14	-87.21
388.35	21.33
388.56	88.92
388.769	158.55
388.979	60.24
389.189	19.29
389.399	99.16
389.609	54.1
389.818	131.92
390.028	101.2
390.238	45.91
390.447	-70.83
390.657	107.35
390.867	-25.77
391.076	-31.91
391.286	17.24
391.496	54.1
391.705	43.86
391.915	95.06
392.125	45.91
392.334	56.15
392.544	185.17
392.753	31.57
392.963	-62.63
393.172	4.95
393.382	-50.35
393.591	148.31
393.801	13.14
394.01	82.77
394.22	35.67
394.429	31.57
394.639	13.14
394.848	62.29
395.058	23.38
395.267	-15.53
395.477	60.24
395.686	-15.53
395.895	254.8
396.105	164.69
396.314	93.01
396.524	58.2
396.733	41.81
396.942	146.26
397.152	148.31
397.361	133.97
397.57	0.85
397.78	-44.2
397.989	107.35
398.198	250.71
398.407	11.09
398.617	80.72
398.826	84.82
399.035	74.58
399.244	68.44
399.453	39.76
399.663	80.72
399.872	52.05
400.081	-44.2
400.29	156.5
400.499	66.39
400.708	166.74
400.917	60.24
401.127	-9.39
401.336	-27.82
401.545	152.4
401.754	52.05
401.963	56.15
402.172	41.81
402.381	-44.2
402.59	-23.72
402.799	99.16
403.008	181.07
403.217	119.64
403.426	95.06
403.635	-60.59
403.844	13.14
404.053	54.1
404.262	43.86
404.471	195.41
404.68	119.64
404.888	41.81
405.097	-13.48
405.306	144.21
405.515	125.78
405.724	41.81
405.933	140.12
406.142	90.96
406.35	136.02
406.559	35.67
406.768	-19.63
406.977	93.01
407.185	54.1
407.394	105.3
407.603	33.62
407.812	27.48
408.02	113.49
408.229	23.38
408.438	82.77
408.646	-46.25
408.855	39.76
409.064	2.9
409.272	-31.91
409.481	9.05
409.69	-38.06
409.898	-13.48
410.107	103.25
410.315	88.92
410.524	-27.82
410.733	15.19
410.941	27.48
411.15	142.16
411.358	131.92
411.567	82.77
411.775	58.2
411.984	82.77
412.192	64.34
412.401	-23.72
412.609	164.69
412.818	131.92
413.026	109.4
413.234	15.19
413.443	39.76
413.651	0.85
413.86	9.05
414.068	82.77
414.276	140.12
414.485	60.24
414.693	217.94
414.901	201.55
415.11	115.54
415.318	21.33
415.526	-19.63
415.734	195.41
415.943	99.16
416.151	99.16
416.359	29.52
416.567	13.14
416.776	64.34
416.984	88.92
417.192	226.13
417.4	0.85
417.608	82.77
417.817	-50.35
418.025	133.97
418.233	168.79
418.441	27.48
418.649	-23.72
418.857	154.45
419.065	50
419.273	4.95
419.481	64.34
419.689	25.43
419.897	21.33
420.105	0.85
420.313	78.68
420.521	150.36
420.729	127.83
420.937	23.38
421.145	21.33
421.353	99.16
421.561	162.64
421.769	82.77
421.977	-58.54
422.185	111.44
422.393	17.24
422.601	101.2
422.809	105.3
423.017	-13.48
423.224	43.86
423.432	95.06
423.64	109.4
423.848	111.44
424.056	43.86
424.263	76.63
424.471	-17.58
424.679	41.81
424.887	64.34
425.094	125.78
425.302	109.4
425.51	101.2
425.718	156.5
425.925	82.77
426.133	31.57
426.341	156.5
426.548	7
426.756	23.38
426.964	95.06
427.171	-31.91
427.379	45.91
427.586	19.29
427.794	103.25
428.001	113.49
428.209	140.12
428.417	170.83
428.624	152.4
428.832	62.29
429.039	90.96
429.247	70.48
429.454	29.52
429.662	152.4
429.869	131.92
430.076	125.78
430.284	142.16
430.491	185.17
430.699	133.97
430.906	117.59
431.114	103.25
431.321	123.73
431.528	58.2
431.736	197.46
431.943	150.36
432.15	152.4
432.358	217.94
432.565	332.62
432.772	-56.49
432.979	201.55
433.187	99.16
433.394	168.79
433.601	129.88
433.808	142.16
434.016	144.21
434.223	162.64
434.43	166.74
434.637	209.75
434.844	197.46
435.052	246.61
435.259	189.27
435.466	236.37
435.673	199.51
435.88	224.08
436.087	326.48
436.294	340.82
436.501	277.33
436.708	293.71
436.915	287.57
437.122	287.57
437.329	242.51
437.537	277.33
437.743	283.47
437.95	357.2
438.157	279.38
438.364	389.97
438.571	353.1
438.778	379.73
438.985	432.97
439.192	582.48
439.399	373.58
439.606	371.54
439.813	498.51
440.02	592.72
440.227	598.86
440.433	512.85
440.64	500.56
440.847	535.37
441.054	547.66
441.261	639.82
441.467	648.01
441.674	478.03
441.881	674.64
442.088	490.32
442.294	662.35
442.501	729.93
442.708	791.37
442.914	670.54
443.121	791.37
443.328	770.89
443.534	830.28
443.741	848.71
443.948	795.47
444.154	828.23
444.361	1133.38
444.568	967.49
444.774	985.93
444.981	828.23
445.187	994.12
445.394	940.87
445.6	1016.65
445.807	1280.83
446.013	1127.24
446.22	1092.42
446.426	1385.28
446.633	1364.8
446.839	1530.69
447.046	1270.59
447.252	1514.3
447.459	1463.1
447.665	1315.65
447.871	1723.2
448.078	1897.27
448.284	1753.91
448.491	1803.07
448.697	1944.38
448.903	1977.14
449.11	2091.83
449.316	1991.48
449.522	2216.76
449.728	2224.95
449.935	2335.54
450.141	2257.71
450.347	2499.38
450.553	2458.42
450.76	2480.94
450.966	2603.82
451.172	2695.98
451.378	2911.02
451.584	2892.59
451.791	3128.1
451.997	3167.01
452.203	3242.79
452.409	3392.29
452.615	3615.52
452.821	3478.3
453.027	3648.29
453.233	3908.38
453.44	3795.74
453.646	4113.17
453.852	4379.41
454.058	4342.55
454.264	4373.27
454.47	4840.2
454.676	4823.82
454.882	5255.94
455.088	5131.02
455.294	5405.44
455.5	5677.82
455.705	6068.98
455.911	5956.35
456.117	6150.9
456.323	6589.17
456.529	6408.95
456.735	6871.79
456.941	7230.18
457.147	7482.08
457.352	7394.02
457.558	7711.46
457.764	8348.37
457.97	8616.66
458.176	8815.31
458.381	9272.01
458.587	9513.67
458.793	9908.93
458.999	9802.43
459.204	11049.64
459.41	11528.87
459.616	11205.29
459.821	11999.9
460.027	12554.9
460.233	13054.61
460.438	13429.38
460.644	13890.18
460.85	14025.34
461.055	14803.57
461.261	15415.91
461.466	15223.41
461.672	15346.28
461.878	17310.29
462.083	16931.41
462.289	17275.47
462.494	18002.5
462.7	18182.72
462.905	18584.12
463.111	19876.39
463.316	20683.29
463.522	21201.43
463.727	22170.12
463.932	22503.93
464.138	23529.97
464.343	24379.87
464.549	24789.47
464.754	26360.26
464.959	27363.76
465.165	27797.93
465.37	27326.9
465.575	27220.41
465.781	29237.66
465.986	30202.25
466.191	29645.2
466.397	30048.65
466.602	29358.49
466.807	30982.52
467.012	31383.93
467.218	31750.51
467.423	31930.73
467.628	32792.93
467.833	34744.64
468.038	33876.3
468.244	33548.63
468.449	35029.31
468.654	34349.39
468.859	33835.35
469.064	34277.71
469.269	33399.13
