Data from USB4F104151__81__10-33-58-138.txt Node

Date: Wed Feb 26 10:33:58 EST 2025
User: louis
Spectrometer: USB4F10415
Trigger mode: 4
Integration Time (sec): 1.000000E-1
Scans to average: 1
Electric dark correction enabled: true
Nonlinearity correction enabled: false
Boxcar width: 0
XAxis mode: Wavelengths
Number of Pixels in Spectrum: 3648
>>>>>Begin Spectral Data<<<<<
178.204	-401.06
178.424	-401.06
178.644	-401.06
178.864	-382.63
179.084	-302.76
179.304	26.96
179.524	-54.95
179.744	-13.99
179.964	90.45
180.184	45.4
180.404	26.96
180.624	-16.04
180.844	26.96
181.064	-73.39
181.283	-7.85
181.503	-38.57
181.723	-11.95
181.943	-97.96
182.163	162.13
182.383	22.87
182.602	65.88
182.822	145.75
183.042	84.31
183.262	-5.8
183.482	4.44
183.701	80.21
183.921	125.27
184.141	-83.63
184.361	63.83
184.58	61.78
184.8	31.06
185.02	37.2
185.239	123.22
185.459	24.92
185.679	69.97
185.898	49.49
186.118	-18.09
186.338	37.2
186.557	90.45
186.777	-40.62
186.997	57.68
187.216	121.17
187.436	170.32
187.655	88.4
187.875	108.88
188.095	-48.81
188.314	102.74
188.534	102.74
188.753	18.77
188.973	135.51
189.192	147.8
189.412	39.25
189.631	0.34
189.851	29.01
190.07	176.47
190.29	8.53
190.509	-32.43
190.729	63.83
190.948	166.23
191.168	223.57
191.387	63.83
191.607	18.77
191.826	12.63
192.045	43.35
192.265	-11.95
192.484	65.88
192.704	53.59
192.923	-50.86
193.142	203.09
193.362	74.07
193.581	100.69
193.8	51.54
194.02	41.3
194.239	18.77
194.458	123.22
194.678	26.96
194.897	119.12
195.116	53.59
195.335	-13.99
195.555	57.68
195.774	37.2
195.993	145.75
196.212	-20.14
196.432	-26.28
196.651	53.59
196.87	88.4
197.089	276.82
197.308	76.12
197.528	94.55
197.747	2.39
197.966	53.59
198.185	186.71
198.404	22.87
198.623	115.03
198.842	172.37
199.062	84.31
199.281	108.88
199.5	35.16
199.719	127.32
199.938	59.73
200.157	53.59
200.376	168.27
200.595	26.96
200.814	141.65
201.033	24.92
201.252	168.27
201.471	92.5
201.69	53.59
201.909	47.44
202.128	104.79
202.347	133.46
202.566	137.56
202.785	-28.33
203.004	39.25
203.223	229.71
203.442	33.11
203.661	-34.47
203.879	72.02
204.098	188.75
204.317	2.39
204.536	16.73
204.755	63.83
204.974	110.93
205.193	-18.09
205.411	211.28
205.63	186.71
205.849	88.4
206.068	-83.63
206.287	12.63
206.505	18.77
206.724	-5.8
206.943	-32.43
207.162	-81.58
207.381	145.75
207.599	14.68
207.818	45.4
208.037	47.44
208.255	69.97
208.474	57.68
208.693	37.2
208.911	84.31
209.13	112.98
209.349	63.83
209.567	125.27
209.786	92.5
210.005	63.83
210.223	43.35
210.442	-108.2
210.661	-38.57
210.879	69.97
211.098	69.97
211.316	47.44
211.535	63.83
211.753	33.11
211.972	78.16
212.191	2.39
212.409	-7.85
212.628	119.12
212.846	63.83
213.065	82.26
213.283	131.41
213.502	10.58
213.72	100.69
213.938	76.12
214.157	47.44
214.375	78.16
214.594	65.88
214.812	35.16
215.031	12.63
215.249	90.45
215.467	102.74
215.686	-20.14
215.904	24.92
216.122	-9.9
216.341	225.62
216.559	67.92
216.778	162.13
216.996	145.75
217.214	18.77
217.432	59.73
217.651	-7.85
217.869	149.84
218.087	55.64
218.306	-48.81
218.524	80.21
218.742	-38.57
218.96	74.07
219.179	-7.85
219.397	-32.43
219.615	223.57
219.833	94.55
220.051	-5.8
220.27	182.61
220.488	80.21
220.706	26.96
220.924	-7.85
221.142	53.59
221.36	74.07
221.578	78.16
221.796	57.68
222.015	59.73
222.233	69.97
222.451	172.37
222.669	-61.1
222.887	80.21
223.105	16.73
223.323	104.79
223.541	82.26
223.759	133.46
223.977	112.98
224.195	205.14
224.413	41.3
224.631	80.21
224.849	51.54
225.067	186.71
225.285	0.34
225.503	-1.71
225.721	-36.52
225.939	39.25
226.157	69.97
226.375	244.05
226.592	65.88
226.81	22.87
227.028	108.88
227.246	110.93
227.464	88.4
227.682	39.25
227.9	74.07
228.117	59.73
228.335	57.68
228.553	49.49
228.771	39.25
228.989	43.35
229.206	123.22
229.424	49.49
229.642	29.01
229.86	6.49
230.077	137.56
230.295	12.63
230.513	39.25
230.731	90.45
230.948	190.8
231.166	172.37
231.384	49.49
231.601	47.44
231.819	162.13
232.037	-5.8
232.254	-38.57
232.472	49.49
232.689	0.34
232.907	76.12
233.125	12.63
233.342	92.5
233.56	16.73
233.777	20.82
233.995	65.88
234.213	100.69
234.43	88.4
234.648	-16.04
234.865	16.73
235.083	43.35
235.3	90.45
235.518	96.6
235.735	170.32
235.953	112.98
236.17	65.88
236.388	-20.14
236.605	22.87
236.822	86.36
237.04	123.22
237.257	47.44
237.475	-59.05
237.692	35.16
237.909	139.6
238.127	-13.99
238.344	149.84
238.562	16.73
238.779	-95.91
238.996	-48.81
239.214	49.49
239.431	69.97
239.648	-1.71
239.865	37.2
240.083	29.01
240.3	-85.67
240.517	84.31
240.735	31.06
240.952	231.76
241.169	92.5
241.386	55.64
241.603	65.88
241.821	-9.9
242.038	69.97
242.255	69.97
242.472	78.16
242.689	86.36
242.907	49.49
243.124	82.26
243.341	61.78
243.558	37.2
243.775	-100.01
243.992	-52.91
244.209	98.64
244.426	170.32
244.643	131.41
244.86	-30.38
245.078	133.46
245.295	100.69
245.512	10.58
245.729	-40.62
245.946	63.83
246.163	26.96
246.38	-5.8
246.597	115.03
246.814	35.16
247.031	53.59
247.248	-13.99
247.464	88.4
247.681	43.35
247.898	102.74
248.115	49.49
248.332	-22.19
248.549	102.74
248.766	145.75
248.983	117.08
249.2	72.02
249.417	16.73
249.633	41.3
249.85	106.84
250.067	45.4
250.284	24.92
250.501	51.54
250.717	145.75
250.934	-22.19
251.151	-9.9
251.368	31.06
251.585	61.78
251.801	72.02
252.018	2.39
252.235	108.88
252.451	-126.63
252.668	10.58
252.885	72.02
253.102	-30.38
253.318	-32.43
253.535	4.44
253.752	14.68
253.968	-42.67
254.185	-69.29
254.401	10.58
254.618	72.02
254.835	-18.09
255.051	108.88
255.268	110.93
255.484	102.74
255.701	106.84
255.917	153.94
256.134	16.73
256.351	-22.19
256.567	-34.47
256.784	33.11
257	-44.71
257.217	94.55
257.433	123.22
257.65	57.68
257.866	160.08
258.082	-77.48
258.299	-32.43
258.515	69.97
258.732	35.16
258.948	35.16
259.165	-3.75
259.381	-1.71
259.597	78.16
259.814	22.87
260.03	65.88
260.246	16.73
260.463	121.17
260.679	196.95
260.895	51.54
261.112	123.22
261.328	39.25
261.544	-69.29
261.761	203.09
261.977	-1.71
262.193	-52.91
262.409	47.44
262.626	65.88
262.842	-3.75
263.058	-5.8
263.274	96.6
263.49	55.64
263.707	141.65
263.923	61.78
264.139	-46.76
264.355	47.44
264.571	155.99
264.787	16.73
265.004	137.56
265.22	29.01
265.436	-7.85
265.652	31.06
265.868	67.92
266.084	-81.58
266.3	88.4
266.516	-34.47
266.732	82.26
266.948	110.93
267.164	-26.28
267.38	47.44
267.596	90.45
267.812	211.28
268.028	119.12
268.244	39.25
268.46	121.17
268.676	-3.75
268.892	102.74
269.108	49.49
269.324	24.92
269.54	-5.8
269.756	162.13
269.972	-83.63
270.188	57.68
270.403	-34.47
270.619	39.25
270.835	88.4
271.051	72.02
271.267	59.73
271.483	67.92
271.698	131.41
271.914	72.02
272.13	125.27
272.346	16.73
272.562	4.44
272.777	170.32
272.993	22.87
273.209	-3.75
273.425	61.78
273.64	-116.39
273.856	100.69
274.072	39.25
274.287	0.34
274.503	76.12
274.719	100.69
274.934	-34.47
275.15	-22.19
275.366	35.16
275.581	-16.04
275.797	2.39
276.012	112.98
276.228	104.79
276.444	90.45
276.659	96.6
276.875	-63.15
277.09	-18.09
277.306	-16.04
277.521	78.16
277.737	12.63
277.952	61.78
278.168	76.12
278.383	110.93
278.599	0.34
278.814	57.68
279.03	47.44
279.245	153.94
279.461	51.54
279.676	115.03
279.892	-110.25
280.107	33.11
280.322	33.11
280.538	49.49
280.753	-30.38
280.969	92.5
281.184	69.97
281.399	139.6
281.615	45.4
281.83	127.32
282.045	-42.67
282.26	26.96
282.476	119.12
282.691	84.31
282.906	-16.04
283.122	-1.71
283.337	20.82
283.552	76.12
283.767	-44.71
283.983	123.22
284.198	-16.04
284.413	43.35
284.628	0.34
284.843	31.06
285.058	160.08
285.274	-36.52
285.489	-34.47
285.704	131.41
285.919	59.73
286.134	20.82
286.349	94.55
286.564	39.25
286.779	168.27
286.995	16.73
287.21	-22.19
287.425	29.01
287.64	31.06
287.855	18.77
288.07	-7.85
288.285	129.36
288.5	131.41
288.715	59.73
288.93	-11.95
289.145	18.77
289.36	192.85
289.575	-3.75
289.79	178.51
290.004	-13.99
290.219	131.41
290.434	-7.85
290.649	-38.57
290.864	45.4
291.079	45.4
291.294	39.25
291.509	72.02
291.724	96.6
291.938	57.68
292.153	33.11
292.368	49.49
292.583	45.4
292.798	112.98
293.012	63.83
293.227	41.3
293.442	-28.33
293.657	121.17
293.871	127.32
294.086	84.31
294.301	141.65
294.516	123.22
294.73	65.88
294.945	-42.67
295.16	-11.95
295.374	145.75
295.589	80.21
295.804	84.31
296.018	43.35
296.233	147.8
296.447	123.22
296.662	-5.8
296.877	164.18
297.091	20.82
297.306	55.64
297.52	6.49
297.735	20.82
297.949	-3.75
298.164	145.75
298.378	14.68
298.593	-57
298.807	-13.99
299.022	43.35
299.236	168.27
299.451	-3.75
299.665	63.83
299.88	10.58
300.094	119.12
300.309	94.55
300.523	76.12
300.737	47.44
300.952	6.49
301.166	67.92
301.381	-13.99
301.595	12.63
301.809	35.16
302.024	26.96
302.238	-18.09
302.452	121.17
302.667	37.2
302.881	47.44
303.095	178.51
303.309	147.8
303.524	14.68
303.738	16.73
303.952	-24.23
304.166	90.45
304.381	-69.29
304.595	127.32
304.809	33.11
305.023	-1.71
305.237	4.44
305.452	-54.95
305.666	102.74
305.88	35.16
306.094	108.88
306.308	57.68
306.522	115.03
306.736	129.36
306.95	55.64
307.164	92.5
307.379	18.77
307.593	149.84
307.807	112.98
308.021	100.69
308.235	131.41
308.449	-61.1
308.663	96.6
308.877	237.91
309.091	6.49
309.305	59.73
309.519	26.96
309.733	90.45
309.947	-65.19
310.161	41.3
310.374	84.31
310.588	143.7
310.802	-16.04
311.016	-1.71
311.23	69.97
311.444	-28.33
311.658	53.59
311.872	172.37
312.085	86.36
312.299	129.36
312.513	119.12
312.727	80.21
312.941	-5.8
313.154	55.64
313.368	51.54
313.582	-44.71
313.796	53.59
314.009	72.02
314.223	178.51
314.437	2.39
314.651	139.6
314.864	41.3
315.078	55.64
315.292	-34.47
315.505	-32.43
315.719	135.51
315.933	59.73
316.146	-1.71
316.36	-22.19
316.573	184.66
316.787	162.13
317.001	102.74
317.214	-48.81
317.428	57.68
317.641	-18.09
317.855	-42.67
318.068	90.45
318.282	51.54
318.495	82.26
318.709	153.94
318.922	110.93
319.136	102.74
319.349	139.6
319.563	61.78
319.776	92.5
319.99	-16.04
320.203	104.79
320.417	31.06
320.63	141.65
320.843	231.76
321.057	110.93
321.27	22.87
321.483	65.88
321.697	110.93
321.91	117.08
322.124	33.11
322.337	94.55
322.55	10.58
322.763	76.12
322.977	61.78
323.19	20.82
323.403	80.21
323.617	92.5
323.83	137.56
324.043	41.3
324.256	20.82
324.469	-104.11
324.683	57.68
324.896	2.39
325.109	-3.75
325.322	-42.67
325.535	63.83
325.748	35.16
325.962	-40.62
326.175	74.07
326.388	41.3
326.601	117.08
326.814	74.07
327.027	92.5
327.24	168.27
327.453	-44.71
327.666	67.92
327.879	168.27
328.092	172.37
328.305	90.45
328.518	0.34
328.731	-28.33
328.944	18.77
329.157	72.02
329.37	18.77
329.583	129.36
329.796	190.8
330.009	-48.81
330.222	90.45
330.435	55.64
330.648	100.69
330.861	14.68
331.073	63.83
331.286	65.88
331.499	14.68
331.712	-18.09
331.925	67.92
332.138	-20.14
332.35	49.49
332.563	-54.95
332.776	96.6
332.989	-57
333.202	98.64
333.414	-38.57
333.627	45.4
333.84	88.4
334.053	74.07
334.265	20.82
334.478	18.77
334.691	16.73
334.903	123.22
335.116	39.25
335.329	-5.8
335.541	125.27
335.754	180.56
335.966	14.68
336.179	53.59
336.392	29.01
336.604	-9.9
336.817	129.36
337.029	127.32
337.242	45.4
337.454	102.74
337.667	14.68
337.88	139.6
338.092	100.69
338.305	78.16
338.517	-38.57
338.729	18.77
338.942	143.7
339.154	22.87
339.367	-13.99
339.579	86.36
339.792	-18.09
340.004	92.5
340.217	51.54
340.429	-28.33
340.641	41.3
340.854	10.58
341.066	-9.9
341.278	72.02
341.491	196.95
341.703	41.3
341.915	-11.95
342.128	151.89
342.34	-7.85
342.552	-71.34
342.764	96.6
342.977	4.44
343.189	51.54
343.401	-9.9
343.613	-16.04
343.826	57.68
344.038	-9.9
344.25	6.49
344.462	-48.81
344.674	14.68
344.886	-26.28
345.099	53.59
345.311	45.4
345.523	59.73
345.735	-87.72
345.947	-20.14
346.159	53.59
346.371	61.78
346.583	39.25
346.795	186.71
347.007	26.96
347.219	92.5
347.431	49.49
347.643	133.46
347.855	-32.43
348.067	153.94
348.279	55.64
348.491	18.77
348.703	29.01
348.915	8.53
349.127	90.45
349.339	22.87
349.551	-24.23
349.763	151.89
349.975	37.2
350.187	16.73
350.399	184.66
350.61	6.49
350.822	4.44
351.034	16.73
351.246	31.06
351.458	106.84
351.669	78.16
351.881	29.01
352.093	94.55
352.305	207.19
352.517	94.55
352.728	110.93
352.94	53.59
353.152	112.98
353.363	90.45
353.575	67.92
353.787	112.98
353.999	39.25
354.21	155.99
354.422	-50.86
354.633	121.17
354.845	69.97
355.057	31.06
355.268	63.83
355.48	43.35
355.692	31.06
355.903	24.92
356.115	22.87
356.326	-63.15
356.538	162.13
356.749	84.31
356.961	84.31
357.172	-1.71
357.384	-36.52
357.595	196.95
357.807	63.83
358.018	49.49
358.23	-26.28
358.441	155.99
358.653	98.64
358.864	10.58
359.075	-3.75
359.287	20.82
359.498	112.98
359.709	123.22
359.921	76.12
360.132	-36.52
360.344	2.39
360.555	-44.71
360.766	16.73
360.977	10.58
361.189	121.17
361.4	2.39
361.611	110.93
361.823	74.07
362.034	84.31
362.245	-81.58
362.456	49.49
362.667	110.93
362.879	-24.23
363.09	-1.71
363.301	59.73
363.512	49.49
363.723	-5.8
363.935	-24.23
364.146	92.5
364.357	-32.43
364.568	123.22
364.779	-7.85
364.99	55.64
365.201	-18.09
365.412	198.99
365.623	-9.9
365.834	106.84
366.045	-9.9
366.256	84.31
366.467	100.69
366.678	41.3
366.889	14.68
367.1	41.3
367.311	117.08
367.522	-34.47
367.733	86.36
367.944	39.25
368.155	-30.38
368.366	119.12
368.577	129.36
368.788	108.88
368.999	-63.15
369.209	80.21
369.42	172.37
369.631	215.38
369.842	145.75
370.053	-9.9
370.264	102.74
370.474	-28.33
370.685	84.31
370.896	100.69
371.107	153.94
371.317	20.82
371.528	72.02
371.739	168.27
371.95	57.68
372.16	82.26
372.371	-30.38
372.582	-34.47
372.792	100.69
373.003	86.36
373.214	53.59
373.424	55.64
373.635	-7.85
373.846	106.84
374.056	121.17
374.267	49.49
374.477	29.01
374.688	-65.19
374.898	112.98
375.109	72.02
375.319	92.5
375.53	63.83
375.74	98.64
375.951	24.92
376.161	76.12
376.372	88.4
376.582	-1.71
376.793	98.64
377.003	49.49
377.214	14.68
377.424	121.17
377.635	86.36
377.845	39.25
378.055	86.36
378.266	-71.34
378.476	2.39
378.686	112.98
378.897	39.25
379.107	131.41
379.317	47.44
379.528	-20.14
379.738	139.6
379.948	12.63
380.158	151.89
380.369	4.44
380.579	133.46
380.789	26.96
380.999	47.44
381.21	69.97
381.42	155.99
381.63	43.35
381.84	69.97
382.05	127.32
382.261	80.21
382.471	96.6
382.681	-18.09
382.891	178.51
383.101	102.74
383.311	14.68
383.521	51.54
383.731	115.03
383.941	129.36
384.151	96.6
384.361	39.25
384.571	57.68
384.781	61.78
384.991	178.51
385.201	203.09
385.411	119.12
385.621	63.83
385.831	112.98
386.041	6.49
386.251	14.68
386.461	155.99
386.671	35.16
386.881	86.36
387.091	74.07
387.301	84.31
387.511	12.63
387.72	119.12
387.93	117.08
388.14	10.58
388.35	76.12
388.56	162.13
388.769	100.69
388.979	47.44
389.189	-3.75
389.399	47.44
389.609	72.02
389.818	123.22
390.028	72.02
390.238	26.96
390.447	-22.19
390.657	10.58
390.867	47.44
391.076	-73.39
391.286	86.36
391.496	57.68
391.705	-34.47
391.915	119.12
392.125	102.74
392.334	67.92
392.544	155.99
392.753	55.64
392.963	74.07
393.172	47.44
393.382	-5.8
393.591	160.08
393.801	-20.14
394.01	160.08
394.22	72.02
394.429	20.82
394.639	37.2
394.848	88.4
395.058	98.64
395.267	26.96
395.477	14.68
395.686	96.6
395.895	272.72
396.105	266.58
396.314	98.64
396.524	76.12
396.733	69.97
396.942	178.51
397.152	59.73
397.361	112.98
397.57	51.54
397.78	74.07
397.989	78.16
398.198	203.09
398.407	-26.28
398.617	76.12
398.826	-5.8
399.035	-38.57
399.244	55.64
399.453	22.87
399.663	45.4
399.872	47.44
400.081	-5.8
400.29	205.14
400.499	29.01
400.708	108.88
400.917	45.4
401.127	158.03
401.336	33.11
401.545	143.7
401.754	78.16
401.963	164.18
402.172	35.16
402.381	-30.38
402.59	22.87
402.799	98.64
403.008	110.93
403.217	88.4
403.426	104.79
403.635	-73.39
403.844	14.68
404.053	98.64
404.262	84.31
404.471	166.23
404.68	67.92
404.888	67.92
405.097	22.87
405.306	10.58
405.515	155.99
405.724	-24.23
405.933	117.08
406.142	-16.04
406.35	123.22
406.559	-28.33
406.768	59.73
406.977	178.51
407.185	37.2
407.394	117.08
407.603	-110.25
407.812	63.83
408.02	141.65
408.229	53.59
408.438	100.69
408.646	-63.15
408.855	-1.71
409.064	49.49
409.272	-9.9
409.481	96.6
409.69	-9.9
409.898	2.39
410.107	102.74
410.315	131.41
410.524	53.59
410.733	74.07
410.941	67.92
411.15	96.6
411.358	59.73
411.567	102.74
411.775	31.06
411.984	10.58
412.192	94.55
412.401	-38.57
412.609	217.43
412.818	106.84
413.026	55.64
413.234	72.02
413.443	31.06
413.651	-48.81
413.86	98.64
414.068	174.42
414.276	139.6
414.485	-32.43
414.693	143.7
414.901	174.42
415.11	141.65
415.318	-1.71
415.526	55.64
415.734	164.18
415.943	112.98
416.151	72.02
416.359	-65.19
416.567	57.68
416.776	74.07
416.984	47.44
417.192	196.95
417.4	43.35
417.608	-16.04
417.817	53.59
418.025	178.51
418.233	147.8
418.441	-16.04
418.649	-13.99
418.857	26.96
419.065	203.09
419.273	10.58
419.481	47.44
419.689	88.4
419.897	18.77
420.105	-42.67
420.313	55.64
420.521	143.7
420.729	168.27
420.937	47.44
421.145	4.44
421.353	117.08
421.561	141.65
421.769	80.21
421.977	53.59
422.185	164.18
422.393	51.54
422.601	72.02
422.809	108.88
423.017	-3.75
423.224	67.92
423.432	74.07
423.64	45.4
423.848	164.18
424.056	86.36
424.263	174.42
424.471	-9.9
424.679	158.03
424.887	2.39
425.094	82.26
425.302	80.21
425.51	29.01
425.718	119.12
425.925	108.88
426.133	20.82
426.341	246.1
426.548	49.49
426.756	-32.43
426.964	74.07
427.171	16.73
427.379	102.74
427.586	127.32
427.794	80.21
428.001	53.59
428.209	61.78
428.417	256.34
428.624	158.03
428.832	143.7
429.039	67.92
429.247	6.49
429.454	59.73
429.662	223.57
429.869	94.55
430.076	172.37
430.284	112.98
430.491	180.56
430.699	108.88
430.906	207.19
431.114	170.32
431.321	80.21
431.528	55.64
431.736	90.45
431.943	74.07
432.15	217.43
432.358	145.75
432.565	264.53
432.772	37.2
432.979	178.51
433.187	147.8
433.394	174.42
433.601	31.06
433.808	170.32
434.016	246.1
434.223	192.85
434.43	65.88
434.637	194.9
434.844	158.03
435.052	190.8
435.259	176.47
435.466	209.23
435.673	205.14
435.88	229.71
436.087	248.15
436.294	274.77
436.501	330.06
436.708	270.67
436.915	203.09
437.122	280.91
437.329	227.67
437.537	295.25
437.743	246.1
437.95	319.82
438.157	274.77
438.364	278.87
438.571	332.11
438.778	352.59
438.985	293.2
439.192	407.89
439.399	246.1
439.606	325.97
439.813	397.65
440.02	461.13
440.227	498
440.433	411.98
440.64	336.21
440.847	338.26
441.054	424.27
441.261	590.16
441.467	452.94
441.674	420.17
441.881	514.38
442.088	489.81
442.294	602.44
442.501	590.16
442.708	563.53
442.914	532.81
443.121	526.67
443.328	592.2
443.534	700.75
443.741	682.31
443.948	522.57
444.154	647.5
444.361	887.11
444.568	803.15
444.774	762.19
444.981	647.5
445.187	803.15
445.394	858.44
445.6	829.77
445.807	919.88
446.013	801.1
446.22	848.2
446.426	993.61
446.633	1139.01
446.839	1112.39
447.046	991.56
447.252	1308.99
447.459	1136.96
447.665	1102.15
447.871	1259.84
448.078	1302.85
448.284	1421.63
448.491	1458.5
448.697	1595.71
448.903	1526.08
449.11	1540.41
449.316	1591.61
449.522	1792.31
449.728	1681.72
449.935	1816.89
450.141	1743.16
450.347	1917.24
450.553	1888.57
450.76	1945.91
450.966	2013.49
451.172	2183.48
451.378	2210.1
451.584	2232.63
451.791	2486.58
451.997	2480.43
452.203	2566.45
452.409	2679.08
452.615	2885.93
452.821	2687.28
453.027	2595.12
453.233	3133.73
453.44	2963.75
453.646	3154.21
453.852	3316
454.058	3397.92
454.264	3399.97
454.47	3864.86
454.676	3793.18
454.882	4088.09
455.088	3842.33
455.294	4112.66
455.5	4464.91
455.705	4665.61
455.911	4706.57
456.117	4716.81
456.323	4905.23
456.529	4958.47
456.735	5480.71
456.941	5505.28
457.147	5837.05
457.352	5835
457.558	6011.13
457.764	6424.82
457.97	6721.77
458.176	6912.24
458.381	7203.05
458.587	7278.82
458.793	7510.24
458.999	7659.74
459.204	8665.3
459.41	8999.12
459.616	8876.24
459.821	9404.61
460.027	9742.53
460.233	10231.99
460.438	10166.46
460.644	10762.42
460.85	10850.48
461.055	11135.15
461.261	11913.38
461.466	11780.26
461.672	11860.13
461.878	13129.87
462.083	12959.89
462.289	13392.01
462.494	13846.66
462.7	13971.58
462.905	14235.77
463.111	15378.54
463.316	16070.75
463.522	16195.68
463.727	16756.82
463.932	17635.4
464.138	18090.05
464.343	18489.4
464.549	18874.42
464.754	20176.93
464.959	20885.53
465.165	21202.96
465.37	20768.79
465.575	20936.73
465.781	22218.75
465.986	23324.66
466.191	22724.6
466.397	22902.78
466.602	22237.19
466.807	23580.65
467.012	24063.97
467.218	24295.39
467.423	24573.92
467.628	25061.33
467.833	26400.71
468.038	26044.36
468.244	25376.72
468.449	26562.5
468.654	26138.57
468.859	26388.42
