Data from USB4F104151__6__10-22-23-754.txt Node

Date: Wed Feb 26 10:22:23 EST 2025
User: louis
Spectrometer: USB4F10415
Trigger mode: 4
Integration Time (sec): 1.000000E-1
Scans to average: 1
Electric dark correction enabled: true
Nonlinearity correction enabled: false
Boxcar width: 0
XAxis mode: Wavelengths
Number of Pixels in Spectrum: 3648
>>>>>Begin Spectral Data<<<<<
178.204	-402.43
178.424	-402.43
178.644	-402.43
178.864	-320.51
179.084	-427
179.304	60.42
179.524	62.46
179.744	-5.12
179.964	15.36
180.184	11.26
180.404	13.31
180.624	-1.02
180.844	7.17
181.064	-95.23
181.283	-13.31
181.503	-72.7
181.723	17.41
181.943	-91.13
182.163	189.44
182.383	21.5
182.602	142.33
182.822	179.2
183.042	46.08
183.262	-72.7
183.482	50.18
183.701	29.7
183.921	97.28
184.141	1.02
184.361	80.89
184.58	140.29
184.8	11.26
185.02	-19.46
185.239	144.38
185.459	35.84
185.679	80.89
185.898	-33.79
186.118	72.7
186.338	130.05
186.557	87.04
186.777	-50.18
186.997	15.36
187.216	27.65
187.436	156.67
187.655	44.03
187.875	162.81
188.095	-11.26
188.314	140.29
188.534	125.95
188.753	-15.36
188.973	140.29
189.192	99.33
189.412	39.94
189.631	80.89
189.851	211.96
190.07	146.43
190.29	23.55
190.509	39.94
190.729	48.13
190.948	156.67
191.168	277.5
191.387	76.8
191.607	-9.22
191.826	37.89
192.045	13.31
192.265	101.37
192.484	117.76
192.704	58.37
192.923	-80.89
193.142	181.25
193.362	56.32
193.581	201.72
193.8	76.8
194.02	74.75
194.239	33.79
194.458	35.84
194.678	-7.17
194.897	29.7
195.116	52.22
195.335	29.7
195.555	60.42
195.774	-23.55
195.993	158.72
196.212	-9.22
196.432	-5.12
196.651	-54.27
196.87	7.17
197.089	187.39
197.308	68.61
197.528	50.18
197.747	-17.41
197.966	23.55
198.185	148.48
198.404	41.98
198.623	84.99
198.842	105.47
199.062	84.99
199.281	91.13
199.5	37.89
199.719	134.14
199.938	60.42
200.157	23.55
200.376	173.05
200.595	19.46
200.814	89.09
201.033	-1.02
201.252	128
201.471	25.6
201.69	109.57
201.909	76.8
202.128	99.33
202.347	89.09
202.566	76.8
202.785	-37.89
203.004	-31.74
203.223	238.59
203.442	19.46
203.661	-17.41
203.879	1.02
204.098	115.71
204.317	21.5
204.536	103.42
204.755	154.62
204.974	64.51
205.193	-23.55
205.411	177.15
205.63	54.27
205.849	107.52
206.068	-5.12
206.287	-87.04
206.505	146.43
206.724	11.26
206.943	1.02
207.162	-52.22
207.381	150.53
207.599	11.26
207.818	-11.26
208.037	9.22
208.255	-25.6
208.474	58.37
208.693	82.94
208.911	21.5
209.13	113.66
209.349	115.71
209.567	76.8
209.786	93.18
210.005	72.7
210.223	121.85
210.442	-128
210.661	7.17
210.879	58.37
211.098	-5.12
211.316	54.27
211.535	74.75
211.753	27.65
211.972	119.81
212.191	39.94
212.409	91.13
212.628	154.62
212.846	-52.22
213.065	31.74
213.283	177.15
213.502	-7.17
213.72	56.32
213.938	50.18
214.157	46.08
214.375	187.39
214.594	-7.17
214.812	97.28
215.031	37.89
215.249	-23.55
215.467	50.18
215.686	93.18
215.904	-5.12
216.122	58.37
216.341	128
216.559	84.99
216.778	156.67
216.996	154.62
217.214	-1.02
217.432	3.07
217.651	-64.51
217.869	78.85
218.087	60.42
218.306	46.08
218.524	56.32
218.742	138.24
218.96	-23.55
219.179	-37.89
219.397	66.56
219.615	257.02
219.833	117.76
220.051	-56.32
220.27	121.85
220.488	123.9
220.706	56.32
220.924	3.07
221.142	-46.08
221.36	64.51
221.578	56.32
221.796	-7.17
222.015	117.76
222.233	70.65
222.451	107.52
222.669	-52.22
222.887	95.23
223.105	-37.89
223.323	23.55
223.541	-46.08
223.759	50.18
223.977	-9.22
224.195	205.82
224.413	68.61
224.631	91.13
224.849	72.7
225.067	291.84
225.285	33.79
225.503	58.37
225.721	-66.56
225.939	13.31
226.157	46.08
226.375	216.06
226.592	50.18
226.81	9.22
227.028	109.57
227.246	109.57
227.464	89.09
227.682	97.28
227.9	62.46
228.117	46.08
228.335	156.67
228.553	109.57
228.771	-3.07
228.989	46.08
229.206	107.52
229.424	11.26
229.642	60.42
229.86	-33.79
230.077	193.53
230.295	5.12
230.513	134.14
230.731	144.38
230.948	150.53
231.166	132.09
231.384	46.08
231.601	-19.46
231.819	160.77
232.037	-5.12
232.254	-54.27
232.472	60.42
232.689	31.74
232.907	119.81
233.125	23.55
233.342	-54.27
233.56	-21.5
233.777	23.55
233.995	21.5
234.213	78.85
234.43	25.6
234.648	46.08
234.865	-13.31
235.083	74.75
235.3	41.98
235.518	72.7
235.735	142.33
235.953	80.89
236.17	87.04
236.388	89.09
236.605	-1.02
236.822	185.34
237.04	60.42
237.257	68.61
237.475	13.31
237.692	66.56
237.909	76.8
238.127	-46.08
238.344	87.04
238.562	60.42
238.779	-33.79
238.996	44.03
239.214	-3.07
239.431	95.23
239.648	72.7
239.865	111.61
240.083	158.72
240.3	9.22
240.517	-54.27
240.735	130.05
240.952	130.05
241.169	107.52
241.386	23.55
241.603	48.13
241.821	-17.41
242.038	117.76
242.255	64.51
242.472	-46.08
242.689	140.29
242.907	82.94
243.124	48.13
243.341	76.8
243.558	70.65
243.775	-19.46
243.992	-37.89
244.209	123.9
244.426	246.78
244.643	82.94
244.86	-17.41
245.078	70.65
245.295	152.57
245.512	78.85
245.729	27.65
245.946	121.85
246.163	84.99
246.38	-23.55
246.597	78.85
246.814	-1.02
247.031	5.12
247.248	66.56
247.464	93.18
247.681	-25.6
247.898	117.76
248.115	140.29
248.332	11.26
248.549	162.81
248.766	115.71
248.983	95.23
249.2	54.27
249.417	144.38
249.633	39.94
249.85	138.24
250.067	91.13
250.284	78.85
250.501	152.57
250.717	74.75
250.934	-62.46
251.151	21.5
251.368	89.09
251.585	166.91
251.801	23.55
252.018	-50.18
252.235	89.09
252.451	-44.03
252.668	27.65
252.885	99.33
253.102	35.84
253.318	52.22
253.535	1.02
253.752	56.32
253.968	44.03
254.185	-56.32
254.401	70.65
254.618	91.13
254.835	-7.17
255.051	74.75
255.268	144.38
255.484	84.99
255.701	54.27
255.917	35.84
256.134	-46.08
256.351	140.29
256.567	-50.18
256.784	33.79
257	-19.46
257.217	148.48
257.433	64.51
257.65	9.22
257.866	125.95
258.082	29.7
258.299	60.42
258.515	-9.22
258.732	54.27
258.948	9.22
259.165	105.47
259.381	-35.84
259.597	82.94
259.814	-3.07
260.03	97.28
260.246	-15.36
260.463	121.85
260.679	136.19
260.895	7.17
261.112	35.84
261.328	70.65
261.544	29.7
261.761	261.12
261.977	-41.98
262.193	-50.18
262.409	144.38
262.626	82.94
262.842	-15.36
263.058	25.6
263.274	117.76
263.49	46.08
263.707	128
263.923	156.67
264.139	3.07
264.355	117.76
264.571	72.7
264.787	31.74
265.004	119.81
265.22	1.02
265.436	33.79
265.652	15.36
265.868	48.13
266.084	-50.18
266.3	41.98
266.516	17.41
266.732	7.17
266.948	35.84
267.164	9.22
267.38	48.13
267.596	46.08
267.812	103.42
268.028	97.28
268.244	15.36
268.46	66.56
268.676	60.42
268.892	68.61
269.108	56.32
269.324	-29.7
269.54	-52.22
269.756	119.81
269.972	17.41
270.188	33.79
270.403	3.07
270.619	35.84
270.835	78.85
271.051	41.98
271.267	15.36
271.483	54.27
271.698	60.42
271.914	121.85
272.13	23.55
272.346	27.65
272.562	91.13
272.777	205.82
272.993	17.41
273.209	3.07
273.425	103.42
273.64	-17.41
273.856	123.9
274.072	-5.12
274.287	37.89
274.503	113.66
274.719	121.85
274.934	-58.37
275.15	-117.76
275.366	-25.6
275.581	-21.5
275.797	29.7
276.012	9.22
276.228	58.37
276.444	89.09
276.659	99.33
276.875	44.03
277.09	89.09
277.306	82.94
277.521	93.18
277.737	103.42
277.952	95.23
278.168	54.27
278.383	54.27
278.599	107.52
278.814	128
279.03	82.94
279.245	197.63
279.461	33.79
279.676	31.74
279.892	-80.89
280.107	48.13
280.322	-56.32
280.538	87.04
280.753	-13.31
280.969	72.7
281.184	23.55
281.399	226.3
281.615	56.32
281.83	1.02
282.045	-66.56
282.26	-1.02
282.476	3.07
282.691	97.28
282.906	25.6
283.122	115.71
283.337	-3.07
283.552	31.74
283.767	-29.7
283.983	93.18
284.198	23.55
284.413	119.81
284.628	-25.6
284.843	93.18
285.058	50.18
285.274	31.74
285.489	44.03
285.704	154.62
285.919	15.36
286.134	39.94
286.349	105.47
286.564	-9.22
286.779	95.23
286.995	70.65
287.21	82.94
287.425	89.09
287.64	50.18
287.855	46.08
288.07	-89.09
288.285	164.86
288.5	107.52
288.715	74.75
288.93	-21.5
289.145	74.75
289.36	123.9
289.575	68.61
289.79	130.05
290.004	-1.02
290.219	140.29
290.434	25.6
290.649	-27.65
290.864	-21.5
291.079	-1.02
291.294	27.65
291.509	99.33
291.724	9.22
291.938	-48.13
292.153	123.9
292.368	54.27
292.583	128
292.798	60.42
293.012	35.84
293.227	74.75
293.442	-5.12
293.657	115.71
293.871	136.19
294.086	74.75
294.301	171.01
294.516	138.24
294.73	-1.02
294.945	-48.13
295.16	-9.22
295.374	117.76
295.589	136.19
295.804	11.26
296.018	41.98
296.233	140.29
296.447	-19.46
296.662	-13.31
296.877	107.52
297.091	136.19
297.306	39.94
297.52	41.98
297.735	48.13
297.949	97.28
298.164	64.51
298.378	74.75
298.593	-5.12
298.807	44.03
299.022	78.85
299.236	123.9
299.451	-56.32
299.665	1.02
299.88	11.26
300.094	29.7
300.309	39.94
300.523	48.13
300.737	27.65
300.952	87.04
301.166	93.18
301.381	1.02
301.595	-21.5
301.809	44.03
302.024	80.89
302.238	-64.51
302.452	123.9
302.667	27.65
302.881	109.57
303.095	123.9
303.309	93.18
303.524	-5.12
303.738	-1.02
303.952	54.27
304.166	99.33
304.381	-91.13
304.595	154.62
304.809	50.18
305.023	31.74
305.237	-1.02
305.452	29.7
305.666	91.13
305.88	125.95
306.094	80.89
306.308	48.13
306.522	48.13
306.736	168.96
306.95	76.8
307.164	46.08
307.379	11.26
307.593	117.76
307.807	121.85
308.021	78.85
308.235	107.52
308.449	-15.36
308.663	46.08
308.877	224.25
309.091	39.94
309.305	115.71
309.519	-82.94
309.733	82.94
309.947	17.41
310.161	64.51
310.374	146.43
310.588	95.23
310.802	5.12
311.016	-7.17
311.23	91.13
311.444	-13.31
311.658	39.94
311.872	52.22
312.085	101.37
312.299	134.14
312.513	189.44
312.727	3.07
312.941	27.65
313.154	15.36
313.368	1.02
313.582	99.33
313.796	76.8
314.009	11.26
314.223	39.94
314.437	46.08
314.651	111.61
314.864	21.5
315.078	52.22
315.292	-33.79
315.505	44.03
315.719	80.89
315.933	125.95
316.146	3.07
316.36	-21.5
316.573	168.96
316.787	121.85
317.001	109.57
317.214	-41.98
317.428	80.89
317.641	19.46
317.855	54.27
318.068	41.98
318.282	66.56
318.495	230.4
318.709	160.77
318.922	76.8
319.136	82.94
319.349	99.33
319.563	-7.17
319.776	31.74
319.99	-134.14
320.203	46.08
320.417	-21.5
320.63	84.99
320.843	160.77
321.057	46.08
321.27	97.28
321.483	62.46
321.697	111.61
321.91	89.09
322.124	76.8
322.337	148.48
322.55	-35.84
322.763	66.56
322.977	76.8
323.19	-48.13
323.403	27.65
323.617	62.46
323.83	166.91
324.043	-5.12
324.256	54.27
324.469	-23.55
324.683	66.56
324.896	13.31
325.109	23.55
325.322	-82.94
325.535	162.81
325.748	138.24
325.962	23.55
326.175	93.18
326.388	64.51
326.601	33.79
326.814	19.46
327.027	60.42
327.24	162.81
327.453	-44.03
327.666	199.68
327.879	107.52
328.092	91.13
328.305	89.09
328.518	-56.32
328.731	-15.36
328.944	103.42
329.157	125.95
329.37	25.6
329.583	207.87
329.796	191.49
330.009	-27.65
330.222	5.12
330.435	134.14
330.648	-46.08
330.861	21.5
331.073	60.42
331.286	111.61
331.499	-11.26
331.712	19.46
331.925	39.94
332.138	33.79
332.35	121.85
332.563	-3.07
332.776	177.15
332.989	62.46
333.202	48.13
333.414	56.32
333.627	-33.79
333.84	50.18
334.053	93.18
334.265	-15.36
334.478	54.27
334.691	1.02
334.903	-31.74
335.116	-54.27
335.329	15.36
335.541	84.99
335.754	101.37
335.966	-11.26
336.179	-58.37
336.392	78.85
336.604	-58.37
336.817	80.89
337.029	58.37
337.242	-13.31
337.454	48.13
337.667	62.46
337.88	140.29
338.092	93.18
338.305	95.23
338.517	-25.6
338.729	136.19
338.942	189.44
339.154	-39.94
339.367	-58.37
339.579	78.85
339.792	1.02
340.004	101.37
340.217	21.5
340.429	31.74
340.641	17.41
340.854	-27.65
341.066	21.5
341.278	64.51
341.491	97.28
341.703	130.05
341.915	-9.22
342.128	113.66
342.34	142.33
342.552	-39.94
342.764	64.51
342.977	-70.65
343.189	82.94
343.401	19.46
343.613	15.36
343.826	74.75
344.038	21.5
344.25	5.12
344.462	21.5
344.674	95.23
344.886	84.99
345.099	119.81
345.311	66.56
345.523	-37.89
345.735	-25.6
345.947	58.37
346.159	80.89
346.371	70.65
346.583	11.26
346.795	201.72
347.007	-27.65
347.219	138.24
347.431	-23.55
347.643	60.42
347.855	138.24
348.067	171.01
348.279	-46.08
348.491	97.28
348.703	84.99
348.915	58.37
349.127	19.46
349.339	119.81
349.551	-25.6
349.763	78.85
349.975	56.32
350.187	97.28
350.399	150.53
350.61	97.28
350.822	-21.5
351.034	3.07
351.246	64.51
351.458	48.13
351.669	132.09
351.881	216.06
352.093	132.09
352.305	93.18
352.517	44.03
352.728	109.57
352.94	140.29
353.152	66.56
353.363	-21.5
353.575	84.99
353.787	203.77
353.999	68.61
354.21	187.39
354.422	23.55
354.633	7.17
354.845	56.32
355.057	119.81
355.268	-13.31
355.48	130.05
355.692	-15.36
355.903	60.42
356.115	-19.46
356.326	-76.8
356.538	144.38
356.749	48.13
356.961	164.86
357.172	-5.12
357.384	-27.65
357.595	279.55
357.807	35.84
358.018	15.36
358.23	13.31
358.441	140.29
358.653	97.28
358.864	68.61
359.075	15.36
359.287	111.61
359.498	72.7
359.709	48.13
359.921	27.65
360.132	107.52
360.344	17.41
360.555	-19.46
360.766	138.24
360.977	91.13
361.189	84.99
361.4	-21.5
361.611	23.55
361.823	144.38
362.034	29.7
362.245	-33.79
362.456	9.22
362.667	74.75
362.879	-23.55
363.09	134.14
363.301	48.13
363.512	44.03
363.723	33.79
363.935	-33.79
364.146	166.91
364.357	5.12
364.568	78.85
364.779	9.22
364.99	99.33
365.201	-11.26
365.412	205.82
365.623	-48.13
365.834	150.53
366.045	3.07
366.256	68.61
366.467	50.18
366.678	33.79
366.889	52.22
367.1	-33.79
367.311	138.24
367.522	72.7
367.733	82.94
367.944	80.89
368.155	52.22
368.366	80.89
368.577	185.34
368.788	80.89
368.999	9.22
369.209	44.03
369.42	191.49
369.631	171.01
369.842	109.57
370.053	123.9
370.264	128
370.474	-11.26
370.685	9.22
370.896	39.94
371.107	44.03
371.317	37.89
371.528	74.75
371.739	93.18
371.95	82.94
372.16	29.7
372.371	-72.7
372.582	-46.08
372.792	101.37
373.003	91.13
373.214	50.18
373.424	54.27
373.635	-58.37
373.846	121.85
374.056	48.13
374.267	72.7
374.477	97.28
374.688	-3.07
374.898	62.46
375.109	41.98
375.319	62.46
375.53	162.81
375.74	84.99
375.951	9.22
376.161	48.13
376.372	101.37
376.582	13.31
376.793	154.62
377.003	19.46
377.214	-11.26
377.424	50.18
377.635	72.7
377.845	31.74
378.055	128
378.266	-23.55
378.476	103.42
378.686	25.6
378.897	97.28
379.107	207.87
379.317	48.13
379.528	5.12
379.738	117.76
379.948	-21.5
380.158	130.05
380.369	74.75
380.579	95.23
380.789	64.51
380.999	68.61
381.21	117.76
381.42	216.06
381.63	64.51
381.84	19.46
382.05	50.18
382.261	109.57
382.471	146.43
382.681	-58.37
382.891	148.48
383.101	117.76
383.311	-1.02
383.521	39.94
383.731	91.13
383.941	119.81
384.151	111.61
384.361	-1.02
384.571	93.18
384.781	13.31
384.991	222.2
385.201	218.11
385.411	89.09
385.621	140.29
385.831	109.57
386.041	31.74
386.251	31.74
386.461	72.7
386.671	31.74
386.881	52.22
387.091	89.09
387.301	99.33
387.511	74.75
387.72	62.46
387.93	80.89
388.14	3.07
388.35	17.41
388.56	121.85
388.769	142.33
388.979	60.42
389.189	-15.36
389.399	-44.03
389.609	207.87
389.818	117.76
390.028	111.61
390.238	27.65
390.447	-1.02
390.657	50.18
390.867	-37.89
391.076	-17.41
391.286	37.89
391.496	-33.79
391.705	21.5
391.915	146.43
392.125	64.51
392.334	17.41
392.544	132.09
392.753	48.13
392.963	-60.42
393.172	119.81
393.382	-13.31
393.591	119.81
393.801	27.65
394.01	173.05
394.22	72.7
394.429	39.94
394.639	11.26
394.848	84.99
395.058	62.46
395.267	27.65
395.477	89.09
395.686	95.23
395.895	207.87
396.105	224.25
396.314	89.09
396.524	68.61
396.733	105.47
396.942	146.43
397.152	132.09
397.361	136.19
397.57	9.22
397.78	74.75
397.989	64.51
398.198	181.25
398.407	58.37
398.617	64.51
398.826	25.6
399.035	29.7
399.244	113.66
399.453	11.26
399.663	44.03
399.872	60.42
400.081	27.65
400.29	148.48
400.499	31.74
400.708	160.77
400.917	62.46
401.127	-5.12
401.336	68.61
401.545	234.49
401.754	177.15
401.963	74.75
402.172	3.07
402.381	-13.31
402.59	95.23
402.799	105.47
403.008	66.56
403.217	29.7
403.426	125.95
403.635	-54.27
403.844	-1.02
404.053	41.98
404.262	-29.7
404.471	238.59
404.68	-15.36
404.888	35.84
405.097	87.04
405.306	1.02
405.515	144.38
405.724	46.08
405.933	84.99
406.142	113.66
406.35	125.95
406.559	-29.7
406.768	44.03
406.977	62.46
407.185	11.26
407.394	160.77
407.603	-7.17
407.812	78.85
408.02	154.62
408.229	93.18
408.438	62.46
408.646	-56.32
408.855	44.03
409.064	29.7
409.272	52.22
409.481	148.48
409.69	-3.07
409.898	-89.09
410.107	84.99
410.315	91.13
410.524	-37.89
410.733	-1.02
410.941	68.61
411.15	60.42
411.358	138.24
411.567	123.9
411.775	31.74
411.984	54.27
412.192	62.46
412.401	13.31
412.609	138.24
412.818	76.8
413.026	82.94
413.234	-82.94
413.443	84.99
413.651	-44.03
413.86	56.32
414.068	160.77
414.276	173.05
414.485	46.08
414.693	162.81
414.901	195.58
415.11	109.57
415.318	56.32
415.526	68.61
415.734	95.23
415.943	82.94
416.151	130.05
416.359	48.13
416.567	46.08
416.776	150.53
416.984	103.42
417.192	121.85
417.4	41.98
417.608	-7.17
417.817	-31.74
418.025	105.47
418.233	117.76
418.441	19.46
418.649	44.03
418.857	132.09
419.065	138.24
419.273	35.84
419.481	50.18
419.689	48.13
419.897	84.99
420.105	-19.46
420.313	95.23
420.521	146.43
420.729	144.38
420.937	31.74
421.145	-15.36
421.353	111.61
421.561	146.43
421.769	105.47
421.977	82.94
422.185	105.47
422.393	80.89
422.601	179.2
422.809	148.48
423.017	41.98
423.224	101.37
423.432	138.24
423.64	27.65
423.848	115.71
424.056	21.5
424.263	183.29
424.471	-50.18
424.679	130.05
424.887	33.79
425.094	220.16
425.302	136.19
425.51	21.5
425.718	103.42
425.925	33.79
426.133	93.18
426.341	261.12
426.548	39.94
426.756	119.81
426.964	156.67
427.171	-35.84
427.379	82.94
427.586	132.09
427.794	115.71
428.001	152.57
428.209	166.91
428.417	115.71
428.624	134.14
428.832	99.33
429.039	111.61
429.247	25.6
429.454	48.13
429.662	166.91
429.869	101.37
430.076	179.2
430.284	91.13
430.491	203.77
430.699	95.23
430.906	234.49
431.114	78.85
431.321	224.25
431.528	56.32
431.736	130.05
431.943	146.43
432.15	117.76
432.358	189.44
432.565	361.47
432.772	-68.61
432.979	156.67
433.187	58.37
433.394	156.67
433.601	119.81
433.808	218.11
434.016	244.73
434.223	158.72
434.43	244.73
434.637	246.78
434.844	238.59
435.052	205.82
435.259	287.74
435.466	156.67
435.673	277.5
435.88	340.99
436.087	271.36
436.294	336.89
436.501	261.12
436.708	244.73
436.915	209.92
437.122	381.95
437.329	248.83
437.537	363.51
437.743	310.27
437.95	418.81
438.157	293.88
438.364	289.79
438.571	320.51
438.778	394.23
438.985	392.19
439.192	437.24
439.399	304.12
439.606	375.8
439.813	410.62
440.02	517.11
440.227	586.74
440.433	484.34
440.64	521.21
440.847	437.24
441.054	439.29
441.261	566.26
441.467	441.34
441.674	480.25
441.881	596.98
442.088	549.88
442.294	695.29
442.501	717.81
442.708	683
442.914	680.95
443.121	814.07
443.328	756.72
443.534	916.47
443.741	750.58
443.948	635.89
444.154	789.49
444.361	971.76
444.568	842.74
444.774	934.9
444.981	875.51
445.187	1006.58
445.394	992.24
445.6	818.16
445.807	1047.54
446.013	1029.1
446.22	1125.36
446.426	1113.07
446.633	1244.14
446.839	1418.22
447.046	1190.89
447.252	1412.07
447.459	1391.59
447.665	1332.2
447.871	1438.7
448.078	1620.97
448.284	1713.13
448.491	1698.79
448.697	1698.79
448.903	1840.1
449.11	1905.63
449.316	1962.98
449.522	1960.93
449.728	1979.36
449.935	2116.58
450.141	2169.82
450.347	2309.08
450.553	2237.41
450.76	2278.37
450.966	2354.14
451.172	2563.03
451.378	2624.47
451.584	2718.68
451.791	2911.19
451.997	2972.63
452.203	2970.58
452.409	3105.74
452.615	3369.93
452.821	3226.57
453.027	3236.81
453.233	3716.04
453.44	3544.01
453.646	3847.11
453.852	3814.34
454.058	4076.48
454.264	4185.02
454.47	4475.84
454.676	4416.44
454.882	4774.84
455.088	4705.21
455.294	4946.87
455.5	5215.15
455.705	5598.12
455.911	5596.07
456.117	5639.08
456.323	5788.58
456.529	5841.83
456.735	6343.58
456.941	6552.48
457.147	6669.21
457.352	6896.53
457.558	6957.97
457.764	7619.47
457.97	7869.32
458.176	8096.64
458.381	8467.33
458.587	8606.59
458.793	9051
458.999	8856.44
459.204	10136.42
459.41	10546.02
459.616	10351.46
459.821	10939.23
460.027	11375.44
460.233	12151.62
460.438	12118.86
460.644	12786.49
460.85	12821.31
461.055	13419.32
461.261	13790
461.466	13804.33
461.672	13931.31
461.878	15778.58
462.083	15391.51
462.289	15840.01
462.494	16163.59
462.7	16491.27
462.905	16751.36
463.111	17969.9
463.316	19118.81
463.522	19366.62
463.727	19837.65
463.932	20634.31
464.138	21363.39
464.343	22002.35
464.549	22307.5
464.754	24124.05
464.959	24502.92
465.165	24863.36
465.37	25010.82
465.575	24859.27
465.781	26534.51
465.986	27353.69
466.191	26655.34
466.397	27089.51
466.602	26303.09
466.807	27935.32
467.012	28293.71
467.218	28842.57
467.423	29166.15
467.628	29579.84
467.833	31535.65
468.038	30482.99
468.244	30042.68
468.449	31187.49
468.654	30943.78
468.859	30702.12
