Data from USB4F104151__18__09-25-28-022.txt Node

Date: Wed Feb 26 09:25:28 EST 2025
User: louis
Spectrometer: USB4F10415
Trigger mode: 4
Integration Time (sec): 1.000000E-1
Scans to average: 1
Electric dark correction enabled: true
Nonlinearity correction enabled: false
Boxcar width: 0
XAxis mode: Wavelengths
Number of Pixels in Spectrum: 3648
>>>>>Begin Spectral Data<<<<<
178.204	-302.59
178.424	-302.59
178.644	-302.59
178.864	-273.92
179.084	-310.78
179.304	-19.97
179.524	25.09
179.744	-56.83
179.964	80.38
180.184	33.28
180.404	25.09
180.624	-28.16
180.844	25.09
181.064	-56.83
181.283	41.47
181.503	-101.89
181.723	33.28
181.943	-58.88
182.163	209.4
182.383	57.86
182.602	92.67
182.822	156.16
183.042	31.23
183.262	-5.63
183.482	23.04
183.701	12.8
183.921	57.86
184.141	-9.73
184.361	80.38
184.58	61.95
184.8	25.09
185.02	2.56
185.239	92.67
185.459	129.53
185.679	135.68
185.898	0.51
186.118	78.33
186.338	33.28
186.557	115.2
186.777	-7.68
186.997	25.09
187.216	37.38
187.436	166.4
187.655	115.2
187.875	68.09
188.095	102.91
188.314	107.01
188.534	117.25
188.753	-13.82
188.973	107.01
189.192	180.73
189.412	86.53
189.631	27.14
189.851	123.39
190.07	129.53
190.29	-19.97
190.509	-58.88
190.729	2.56
190.948	109.05
191.168	213.5
191.387	16.9
191.607	88.57
191.826	20.99
192.045	102.91
192.265	-3.58
192.484	100.86
192.704	-56.83
192.923	-97.79
193.142	217.6
193.362	127.49
193.581	197.12
193.8	68.09
194.02	49.66
194.239	-9.73
194.458	94.72
194.678	6.66
194.897	49.66
195.116	23.04
195.335	-3.58
195.555	82.43
195.774	23.04
195.993	92.67
196.212	33.28
196.432	-9.73
196.651	76.29
196.87	107.01
197.089	238.08
197.308	133.63
197.528	86.53
197.747	16.9
197.966	129.53
198.185	145.92
198.404	25.09
198.623	96.77
198.842	98.81
199.062	133.63
199.281	123.39
199.5	23.04
199.719	57.86
199.938	61.95
200.157	90.62
200.376	107.01
200.595	78.33
200.814	-7.68
201.033	6.66
201.252	152.06
201.471	66.05
201.69	90.62
201.909	49.66
202.128	143.87
202.347	107.01
202.566	-7.68
202.785	-81.41
203.004	74.24
203.223	213.5
203.442	72.19
203.661	-42.5
203.879	61.95
204.098	152.06
204.317	72.19
204.536	70.14
204.755	104.96
204.974	68.09
205.193	-24.06
205.411	170.49
205.63	109.05
205.849	70.14
206.068	-11.78
206.287	53.76
206.505	100.86
206.724	2.56
206.943	-79.36
207.162	29.18
207.381	154.11
207.599	74.24
207.818	86.53
208.037	-3.58
208.255	47.62
208.474	115.2
208.693	115.2
208.911	27.14
209.13	86.53
209.349	33.28
209.567	180.73
209.786	43.52
210.005	82.43
210.223	98.81
210.442	-65.02
210.661	57.86
210.879	57.86
211.098	45.57
211.316	57.86
211.535	57.86
211.753	6.66
211.972	70.14
212.191	-9.73
212.409	74.24
212.628	88.57
212.846	0.51
213.065	59.9
213.283	49.66
213.502	35.33
213.72	35.33
213.938	31.23
214.157	33.28
214.375	98.81
214.594	57.86
214.812	70.14
215.031	33.28
215.249	76.29
215.467	74.24
215.686	51.71
215.904	137.73
216.122	129.53
216.341	109.05
216.559	131.58
216.778	88.57
216.996	131.58
217.214	23.04
217.432	51.71
217.651	-24.06
217.869	6.66
218.087	39.42
218.306	41.47
218.524	78.33
218.742	-13.82
218.96	-9.73
219.179	-32.26
219.397	2.56
219.615	205.31
219.833	74.24
220.051	-28.16
220.27	111.1
220.488	154.11
220.706	68.09
220.924	-7.68
221.142	78.33
221.36	25.09
221.578	57.86
221.796	41.47
222.015	78.33
222.233	68.09
222.451	170.49
222.669	14.85
222.887	102.91
223.105	-28.16
223.323	45.57
223.541	-105.98
223.759	45.57
223.977	86.53
224.195	152.06
224.413	86.53
224.631	57.86
224.849	66.05
225.067	172.54
225.285	-15.87
225.503	16.9
225.721	-65.02
225.939	119.29
226.157	18.94
226.375	219.64
226.592	-34.3
226.81	20.99
227.028	49.66
227.246	195.07
227.464	35.33
227.682	43.52
227.9	70.14
228.117	72.19
228.335	31.23
228.553	76.29
228.771	102.91
228.989	113.15
229.206	117.25
229.424	-3.58
229.642	-28.16
229.86	39.42
230.077	104.96
230.295	86.53
230.513	115.2
230.731	107.01
230.948	109.05
231.166	154.11
231.384	27.14
231.601	10.75
231.819	154.11
232.037	-46.59
232.254	-17.92
232.472	-34.3
232.689	25.09
232.907	82.43
233.125	18.94
233.342	-52.74
233.56	-36.35
233.777	41.47
233.995	-22.02
234.213	162.3
234.43	98.81
234.648	82.43
234.865	88.57
235.083	96.77
235.3	6.66
235.518	127.49
235.735	53.76
235.953	129.53
236.17	64
236.388	-7.68
236.605	14.85
236.822	94.72
237.04	137.73
237.257	82.43
237.475	23.04
237.692	80.38
237.909	72.19
238.127	72.19
238.344	64
238.562	66.05
238.779	64
238.996	23.04
239.214	31.23
239.431	125.44
239.648	0.51
239.865	113.15
240.083	66.05
240.3	37.38
240.517	55.81
240.735	25.09
240.952	131.58
241.169	90.62
241.386	117.25
241.603	33.28
241.821	-7.68
242.038	51.71
242.255	115.2
242.472	-3.58
242.689	135.68
242.907	117.25
243.124	90.62
243.341	43.52
243.558	29.18
243.775	-13.82
243.992	-24.06
244.209	123.39
244.426	117.25
244.643	74.24
244.86	107.01
245.078	98.81
245.295	33.28
245.512	2.56
245.729	33.28
245.946	125.44
246.163	74.24
246.38	-15.87
246.597	90.62
246.814	51.71
247.031	115.2
247.248	64
247.464	41.47
247.681	64
247.898	57.86
248.115	57.86
248.332	-7.68
248.549	143.87
248.766	164.35
248.983	78.33
249.2	121.34
249.417	125.44
249.633	16.9
249.85	66.05
250.067	0.51
250.284	88.57
250.501	49.66
250.717	82.43
250.934	-15.87
251.151	41.47
251.368	8.7
251.585	131.58
251.801	186.88
252.018	6.66
252.235	70.14
252.451	-36.35
252.668	33.28
252.885	137.73
253.102	64
253.318	57.86
253.535	37.38
253.752	70.14
253.968	25.09
254.185	-46.59
254.401	47.62
254.618	33.28
254.835	57.86
255.051	152.06
255.268	72.19
255.484	16.9
255.701	39.42
255.917	53.76
256.134	64
256.351	61.95
256.567	-9.73
256.784	68.09
257	2.56
257.217	23.04
257.433	39.42
257.65	8.7
257.866	107.01
258.082	-34.3
258.299	4.61
258.515	135.68
258.732	6.66
258.948	8.7
259.165	55.81
259.381	-9.73
259.597	64
259.814	-3.58
260.03	25.09
260.246	72.19
260.463	147.97
260.679	154.11
260.895	8.7
261.112	29.18
261.328	-5.63
261.544	-15.87
261.761	152.06
261.977	-13.82
262.193	16.9
262.409	23.04
262.626	16.9
262.842	86.53
263.058	61.95
263.274	193.02
263.49	82.43
263.707	102.91
263.923	113.15
264.139	-56.83
264.355	37.38
264.571	82.43
264.787	6.66
265.004	84.48
265.22	74.24
265.436	-3.58
265.652	16.9
265.868	45.57
266.084	14.85
266.3	90.62
266.516	45.57
266.732	29.18
266.948	107.01
267.164	59.9
267.38	76.29
267.596	90.62
267.812	170.49
268.028	35.33
268.244	-7.68
268.46	66.05
268.676	0.51
268.892	109.05
269.108	-3.58
269.324	86.53
269.54	-32.26
269.756	57.86
269.972	-15.87
270.188	27.14
270.403	20.99
270.619	37.38
270.835	119.29
271.051	39.42
271.267	33.28
271.483	-1.54
271.698	16.9
271.914	33.28
272.13	70.14
272.346	45.57
272.562	70.14
272.777	143.87
272.993	72.19
273.209	18.94
273.425	-15.87
273.64	-44.54
273.856	137.73
274.072	74.24
274.287	31.23
274.503	170.49
274.719	74.24
274.934	74.24
275.15	-65.02
275.366	57.86
275.581	-15.87
275.797	45.57
276.012	-26.11
276.228	84.48
276.444	41.47
276.659	64
276.875	14.85
277.09	70.14
277.306	78.33
277.521	98.81
277.737	47.62
277.952	129.53
278.168	35.33
278.383	131.58
278.599	72.19
278.814	111.1
279.03	8.7
279.245	123.39
279.461	57.86
279.676	72.19
279.892	-60.93
280.107	25.09
280.322	-71.17
280.538	51.71
280.753	-19.97
280.969	123.39
281.184	51.71
281.399	178.69
281.615	4.61
281.83	61.95
282.045	-40.45
282.26	35.33
282.476	94.72
282.691	70.14
282.906	123.39
283.122	39.42
283.337	-40.45
283.552	57.86
283.767	-5.63
283.983	102.91
284.198	6.66
284.413	94.72
284.628	-67.07
284.843	10.75
285.058	117.25
285.274	51.71
285.489	20.99
285.704	78.33
285.919	8.7
286.134	-46.59
286.349	102.91
286.564	-48.64
286.779	139.77
286.995	76.29
287.21	-110.08
287.425	90.62
287.64	-17.92
287.855	74.24
288.07	-3.58
288.285	51.71
288.5	98.81
288.715	57.86
288.93	72.19
289.145	43.52
289.36	100.86
289.575	-3.58
289.79	84.48
290.004	-50.69
290.219	-36.35
290.434	55.81
290.649	72.19
290.864	-32.26
291.079	51.71
291.294	55.81
291.509	121.34
291.724	23.04
291.938	45.57
292.153	55.81
292.368	41.47
292.583	102.91
292.798	115.2
293.012	90.62
293.227	-32.26
293.442	16.9
293.657	25.09
293.871	147.97
294.086	59.9
294.301	160.25
294.516	154.11
294.73	-24.06
294.945	16.9
295.16	-19.97
295.374	90.62
295.589	74.24
295.804	107.01
296.018	115.2
296.233	72.19
296.447	72.19
296.662	-15.87
296.877	66.05
297.091	59.9
297.306	90.62
297.52	4.61
297.735	121.34
297.949	96.77
298.164	6.66
298.378	80.38
298.593	39.42
298.807	25.09
299.022	80.38
299.236	86.53
299.451	29.18
299.665	94.72
299.88	35.33
300.094	70.14
300.309	72.19
300.523	61.95
300.737	92.67
300.952	131.58
301.166	131.58
301.381	45.57
301.595	0.51
301.809	41.47
302.024	23.04
302.238	-79.36
302.452	78.33
302.667	-50.69
302.881	123.39
303.095	47.62
303.309	123.39
303.524	61.95
303.738	43.52
303.952	33.28
304.166	94.72
304.381	-58.88
304.595	139.77
304.809	37.38
305.023	-19.97
305.237	-1.54
305.452	-19.97
305.666	135.68
305.88	143.87
306.094	137.73
306.308	111.1
306.522	90.62
306.736	64
306.95	49.66
307.164	2.56
307.379	55.81
307.593	195.07
307.807	215.55
308.021	70.14
308.235	88.57
308.449	-36.35
308.663	64
308.877	221.69
309.091	20.99
309.305	154.11
309.519	-19.97
309.733	109.05
309.947	-81.41
310.161	29.18
310.374	51.71
310.588	109.05
310.802	2.56
311.016	16.9
311.23	127.49
311.444	-73.21
311.658	53.76
311.872	115.2
312.085	0.51
312.299	121.34
312.513	129.53
312.727	119.29
312.941	37.38
313.154	53.76
313.368	88.57
313.582	6.66
313.796	53.76
314.009	-34.3
314.223	129.53
314.437	68.09
314.651	115.2
314.864	27.14
315.078	-32.26
315.292	-11.78
315.505	55.81
315.719	-9.73
315.933	43.52
316.146	-50.69
316.36	4.61
316.573	98.81
316.787	129.53
317.001	154.11
317.214	25.09
317.428	57.86
317.641	33.28
317.855	53.76
318.068	41.47
318.282	-7.68
318.495	201.21
318.709	20.99
318.922	10.75
319.136	180.73
319.349	68.09
319.563	-17.92
319.776	68.09
319.99	-85.5
320.203	76.29
320.417	27.14
320.63	98.81
320.843	147.97
321.057	66.05
321.27	18.94
321.483	107.01
321.697	100.86
321.91	82.43
322.124	82.43
322.337	164.35
322.55	27.14
322.763	29.18
322.977	-65.02
323.19	-40.45
323.403	98.81
323.617	72.19
323.83	107.01
324.043	8.7
324.256	45.57
324.469	33.28
324.683	119.29
324.896	72.19
325.109	33.28
325.322	-52.74
325.535	84.48
325.748	143.87
325.962	10.75
326.175	41.47
326.388	111.1
326.601	111.1
326.814	66.05
327.027	49.66
327.24	170.49
327.453	-65.02
327.666	88.57
327.879	156.16
328.092	49.66
328.305	109.05
328.518	-7.68
328.731	23.04
328.944	16.9
329.157	78.33
329.37	29.18
329.583	219.64
329.796	176.64
330.009	-73.21
330.222	104.96
330.435	111.1
330.648	31.23
330.861	109.05
331.073	115.2
331.286	90.62
331.499	82.43
331.712	23.04
331.925	80.38
332.138	4.61
332.35	119.29
332.563	47.62
332.776	115.2
332.989	4.61
333.202	-5.63
333.414	23.04
333.627	80.38
333.84	23.04
334.053	66.05
334.265	-7.68
334.478	33.28
334.691	27.14
334.903	39.42
335.116	4.61
335.329	29.18
335.541	123.39
335.754	145.92
335.966	-42.5
336.179	29.18
336.392	107.01
336.604	12.8
336.817	160.25
337.029	43.52
337.242	-7.68
337.454	96.77
337.667	29.18
337.88	100.86
338.092	90.62
338.305	35.33
338.517	12.8
338.729	64
338.942	131.58
339.154	0.51
339.367	-65.02
339.579	64
339.792	18.94
340.004	64
340.217	100.86
340.429	8.7
340.641	-13.82
340.854	2.56
341.066	27.14
341.278	127.49
341.491	154.11
341.703	18.94
341.915	-1.54
342.128	170.49
342.34	72.19
342.552	31.23
342.764	33.28
342.977	86.53
343.189	33.28
343.401	90.62
343.613	-85.5
343.826	119.29
344.038	-1.54
344.25	90.62
344.462	10.75
344.674	49.66
344.886	25.09
345.099	100.86
345.311	49.66
345.523	45.57
345.735	-44.54
345.947	10.75
346.159	29.18
346.371	129.53
346.583	72.19
346.795	217.6
347.007	64
347.219	49.66
347.431	55.81
347.643	143.87
347.855	49.66
348.067	104.96
348.279	-7.68
348.491	-7.68
348.703	94.72
348.915	41.47
349.127	6.66
349.339	-11.78
349.551	-44.54
349.763	102.91
349.975	25.09
350.187	94.72
350.399	139.77
350.61	102.91
350.822	31.23
351.034	111.1
351.246	98.81
351.458	98.81
351.669	86.53
351.881	139.77
352.093	123.39
352.305	59.9
352.517	-36.35
352.728	102.91
352.94	72.19
353.152	90.62
353.363	-36.35
353.575	61.95
353.787	64
353.999	127.49
354.21	166.4
354.422	29.18
354.633	-34.3
354.845	29.18
355.057	72.19
355.268	47.62
355.48	135.68
355.692	8.7
355.903	-7.68
356.115	-44.54
356.326	2.56
356.538	147.97
356.749	-3.58
356.961	98.81
357.172	-9.73
357.384	-34.3
357.595	156.16
357.807	-3.58
358.018	8.7
358.23	66.05
358.441	158.21
358.653	121.34
358.864	90.62
359.075	41.47
359.287	123.39
359.498	180.73
359.709	74.24
359.921	66.05
360.132	35.33
360.344	16.9
360.555	14.85
360.766	96.77
360.977	33.28
361.189	90.62
361.4	43.52
361.611	135.68
361.823	164.35
362.034	33.28
362.245	-50.69
362.456	-19.97
362.667	113.15
362.879	-48.64
363.09	152.06
363.301	20.99
363.512	25.09
363.723	-44.54
363.935	31.23
364.146	107.01
364.357	88.57
364.568	31.23
364.779	6.66
364.99	156.16
365.201	-19.97
365.412	115.2
365.623	27.14
365.834	61.95
366.045	61.95
366.256	143.87
366.467	66.05
366.678	2.56
366.889	57.86
367.1	12.8
367.311	70.14
367.522	33.28
367.733	70.14
367.944	88.57
368.155	23.04
368.366	133.63
368.577	74.24
368.788	104.96
368.999	39.42
369.209	88.57
369.42	174.59
369.631	184.83
369.842	59.9
370.053	18.94
370.264	160.25
370.474	59.9
370.685	74.24
370.896	107.01
371.107	123.39
371.317	49.66
371.528	14.85
371.739	193.02
371.95	164.35
372.16	129.53
372.371	-7.68
372.582	64
372.792	57.86
373.003	88.57
373.214	88.57
373.424	164.35
373.635	25.09
373.846	150.01
374.056	66.05
374.267	125.44
374.477	78.33
374.688	33.28
374.898	113.15
375.109	-48.64
375.319	127.49
375.53	102.91
375.74	70.14
375.951	16.9
376.161	72.19
376.372	170.49
376.582	4.61
376.793	64
377.003	-62.98
377.214	-17.92
377.424	35.33
377.635	-1.54
377.845	-15.87
378.055	168.45
378.266	0.51
378.476	45.57
378.686	8.7
378.897	51.71
379.107	104.96
379.317	109.05
379.528	70.14
379.738	104.96
379.948	-17.92
380.158	135.68
380.369	41.47
380.579	115.2
380.789	70.14
380.999	-54.78
381.21	23.04
381.42	264.7
381.63	80.38
381.84	72.19
382.05	74.24
382.261	76.29
382.471	113.15
382.681	127.49
382.891	123.39
383.101	107.01
383.311	-5.63
383.521	-19.97
383.731	16.9
383.941	117.25
384.151	-22.02
384.361	74.24
384.571	41.47
384.781	80.38
384.991	135.68
385.201	90.62
385.411	152.06
385.621	72.19
385.831	94.72
386.041	70.14
386.251	61.95
386.461	164.35
386.671	8.7
386.881	-34.3
387.091	29.18
387.301	121.34
387.511	68.09
387.72	33.28
387.93	49.66
388.14	-26.11
388.35	66.05
388.56	51.71
388.769	139.77
388.979	78.33
389.189	-24.06
389.399	53.76
389.609	74.24
389.818	180.73
390.028	84.48
390.238	49.66
390.447	33.28
390.657	-5.63
390.867	37.38
391.076	27.14
391.286	57.86
391.496	66.05
391.705	37.38
391.915	90.62
392.125	176.64
392.334	-48.64
392.544	219.64
392.753	45.57
392.963	90.62
393.172	59.9
393.382	-77.31
393.591	188.93
393.801	18.94
394.01	221.69
394.22	139.77
394.429	-44.54
394.639	53.76
394.848	121.34
395.058	78.33
395.267	-24.06
395.477	33.28
395.686	49.66
395.895	82.43
396.105	299.52
396.314	64
396.524	82.43
396.733	33.28
396.942	96.77
397.152	96.77
397.361	39.42
397.57	82.43
397.78	16.9
397.989	74.24
398.198	180.73
398.407	-5.63
398.617	-3.58
398.826	49.66
399.035	70.14
399.244	23.04
399.453	160.25
399.663	41.47
399.872	68.09
400.081	-32.26
400.29	107.01
400.499	-15.87
400.708	74.24
400.917	20.99
401.127	78.33
401.336	-26.11
401.545	193.02
401.754	131.58
401.963	72.19
402.172	76.29
402.381	18.94
402.59	14.85
402.799	70.14
403.008	156.16
403.217	119.29
403.426	109.05
403.635	-3.58
403.844	45.57
404.053	16.9
404.262	0.51
404.471	127.49
404.68	121.34
404.888	104.96
405.097	119.29
405.306	39.42
405.515	64
405.724	64
405.933	147.97
406.142	129.53
406.35	160.25
406.559	64
406.768	39.42
406.977	127.49
407.185	78.33
407.394	117.25
407.603	16.9
407.812	61.95
408.02	131.58
408.229	47.62
408.438	55.81
408.646	-48.64
408.855	104.96
409.064	61.95
409.272	23.04
409.481	72.19
409.69	61.95
409.898	-87.55
410.107	168.45
410.315	55.81
410.524	47.62
410.733	51.71
410.941	-24.06
411.15	107.01
411.358	90.62
411.567	113.15
411.775	45.57
411.984	16.9
412.192	14.85
412.401	47.62
412.609	178.69
412.818	94.72
413.026	162.3
413.234	18.94
413.443	12.8
413.651	90.62
413.86	102.91
414.068	170.49
414.276	229.88
414.485	-3.58
414.693	139.77
414.901	197.12
415.11	86.53
415.318	66.05
415.526	74.24
415.734	145.92
415.943	92.67
416.151	188.93
416.359	-54.78
416.567	115.2
416.776	127.49
416.984	111.1
417.192	141.82
417.4	10.75
417.608	125.44
417.817	78.33
418.025	107.01
418.233	236.03
418.441	14.85
418.649	-30.21
418.857	139.77
419.065	205.31
419.273	23.04
419.481	31.23
419.689	10.75
419.897	-5.63
420.105	12.8
420.313	176.64
420.521	129.53
420.729	82.43
420.937	-3.58
421.145	-3.58
421.353	123.39
421.561	197.12
421.769	55.81
421.977	29.18
422.185	107.01
422.393	70.14
422.601	162.3
422.809	47.62
423.017	66.05
423.224	121.34
423.432	80.38
423.64	37.38
423.848	98.81
424.056	6.66
424.263	129.53
424.471	27.14
424.679	147.97
424.887	20.99
425.094	145.92
425.302	156.16
425.51	94.72
425.718	98.81
425.925	131.58
426.133	47.62
426.341	160.25
426.548	57.86
426.756	37.38
426.964	68.09
427.171	80.38
427.379	59.9
427.586	109.05
427.794	94.72
428.001	125.44
428.209	147.97
428.417	184.83
428.624	115.2
428.832	162.3
429.039	133.63
429.247	92.67
429.454	115.2
429.662	170.49
429.869	137.73
430.076	141.82
430.284	119.29
430.491	201.21
430.699	115.2
430.906	158.21
431.114	123.39
431.321	94.72
431.528	121.34
431.736	203.26
431.943	98.81
432.15	174.59
432.358	184.83
432.565	248.32
432.772	82.43
432.979	188.93
433.187	160.25
433.394	203.26
433.601	113.15
433.808	250.36
434.016	287.23
434.223	262.65
434.43	264.7
434.637	242.17
434.844	338.43
435.052	209.4
435.259	225.79
435.466	285.18
435.673	233.98
435.88	209.4
436.087	283.13
436.294	299.52
436.501	365.05
436.708	223.74
436.915	305.66
437.122	356.86
437.329	307.71
437.537	342.52
437.743	365.05
437.95	442.87
438.157	377.34
438.364	311.8
438.571	410.11
438.778	393.72
438.985	453.11
439.192	520.7
439.399	438.78
439.606	395.77
439.813	610.81
440.02	483.83
440.227	598.52
440.433	516.6
440.64	516.6
440.847	465.4
441.054	561.66
441.261	721.4
441.467	553.46
441.674	619
441.881	745.97
442.088	764.4
442.294	754.16
442.501	741.88
442.708	825.84
442.914	766.45
443.121	795.12
443.328	840.18
443.534	924.15
443.741	879.09
443.948	834.04
444.154	958.96
444.361	1053.17
444.568	926.19
444.774	942.58
444.981	956.91
445.187	1286.64
445.394	1231.34
445.6	1184.24
445.807	1317.36
446.013	1241.58
446.22	1264.11
446.426	1524.2
446.633	1544.68
446.839	1618.41
447.046	1450.47
447.252	1655.27
447.459	1511.91
447.665	1534.44
447.871	1782.24
448.078	1905.12
448.284	1921.51
448.491	1898.98
448.697	2028
448.903	2222.56
449.11	2238.94
449.316	2224.61
449.522	2408.92
449.728	2288.09
449.935	2513.37
450.141	2462.17
450.347	2869.72
450.553	2519.51
450.76	2675.16
450.966	2773.46
451.172	3080.66
451.378	2937.3
451.584	3168.72
451.791	3375.56
451.997	3383.76
452.203	3340.75
452.409	3717.58
452.615	3834.31
452.821	3666.38
453.027	3862.98
453.233	4239.81
453.44	4250.05
453.646	4405.69
453.852	4344.25
454.058	4784.57
454.264	4985.27
454.47	5255.6
454.676	5036.47
454.882	5513.64
455.088	5405.1
455.294	5683.63
455.5	6119.84
455.705	6420.89
455.911	6599.07
456.117	6470.05
456.323	6859.16
456.529	6855.06
456.735	7348.62
456.941	7860.62
457.147	7950.73
457.352	8286.59
457.558	8466.81
457.764	9093.49
457.97	9191.8
458.176	9234.8
458.381	10068.33
458.587	10150.25
458.793	10617.18
458.999	10711.39
459.204	11704.65
459.41	12454.21
459.616	12108.1
459.821	12769.6
460.027	13752.62
460.233	14219.56
460.438	14129.45
460.644	15067.42
460.85	14848.29
461.055	15898.89
461.261	16161.03
461.466	16036.11
461.672	16312.58
461.878	18307.3
462.083	18041.07
462.289	18563.3
462.494	19374.3
462.7	19243.23
462.905	19452.12
463.111	21297.34
463.316	22298.8
463.522	22712.49
463.727	23468.19
463.932	24471.69
464.138	24995.97
464.343	25968.76
464.549	25993.33
464.754	28192.85
464.959	28952.65
465.165	29399.1
465.37	29214.79
465.575	28966.98
465.781	31508.51
465.986	31856.67
466.191	31088.68
466.397	31924.25
466.602	31283.23
466.807	33196.04
467.012	33417.22
467.218	33818.62
467.423	34224.12
467.628	35145.7
467.833	36966.35
468.038	36050.91
468.244	35395.56
468.449	37273.54
468.654	36407.25
468.859	36677.58
469.064	36679.63
469.269	35639.26
469.474	36276.18
469.679	37124.04
469.885	36243.41
