Data from USB4F104151__90__10-34-48-132.txt Node

Date: Wed Feb 26 10:34:48 EST 2025
User: louis
Spectrometer: USB4F10415
Trigger mode: 4
Integration Time (sec): 1.000000E-1
Scans to average: 1
Electric dark correction enabled: true
Nonlinearity correction enabled: false
Boxcar width: 0
XAxis mode: Wavelengths
Number of Pixels in Spectrum: 3648
>>>>>Begin Spectral Data<<<<<
178.204	-368.98
178.424	-368.98
178.644	-368.98
178.864	-471.37
179.084	-346.45
179.304	-12.63
179.524	-72.02
179.744	65.19
179.964	32.43
180.184	7.85
180.404	9.9
180.624	-24.92
180.844	-29.01
181.064	-69.97
181.283	40.62
181.503	-10.58
181.723	63.15
181.943	-41.3
182.163	165.54
182.383	-16.73
182.602	104.11
182.822	104.11
183.042	79.53
183.262	-53.59
183.482	44.71
183.701	32.43
183.921	71.34
184.141	-47.44
184.361	83.63
184.58	95.91
184.8	69.29
185.02	-0.34
185.239	34.47
185.459	83.63
185.679	89.77
185.898	-90.45
186.118	9.9
186.338	44.71
186.557	110.25
186.777	34.47
186.997	-55.64
187.216	24.23
187.436	247.46
187.655	16.04
187.875	65.19
188.095	44.71
188.314	83.63
188.534	138.92
188.753	30.38
188.973	81.58
189.192	116.39
189.412	-20.82
189.631	7.85
189.851	28.33
190.07	200.36
190.29	-51.54
190.509	-31.06
190.729	-4.44
190.948	177.83
191.168	292.52
191.387	63.15
191.607	24.23
191.826	71.34
192.045	5.8
192.265	36.52
192.484	110.25
192.704	30.38
192.923	-6.49
193.142	200.36
193.362	73.39
193.581	163.5
193.8	73.39
194.02	87.72
194.239	118.44
194.458	124.58
194.678	-0.34
194.897	16.04
195.116	63.15
195.335	140.97
195.555	63.15
195.774	32.43
195.993	116.39
196.212	61.1
196.432	11.95
196.651	-14.68
196.87	-29.01
197.089	218.79
197.308	30.38
197.528	63.15
197.747	-29.01
197.966	85.67
198.185	126.63
198.404	-14.68
198.623	143.02
198.842	116.39
199.062	89.77
199.281	32.43
199.5	63.15
199.719	71.34
199.938	20.14
200.157	79.53
200.376	118.44
200.595	122.54
200.814	71.34
201.033	36.52
201.252	140.97
201.471	57
201.69	93.87
201.909	-51.54
202.128	118.44
202.347	124.58
202.566	87.72
202.785	28.33
203.004	7.85
203.223	233.13
203.442	44.71
203.661	-47.44
203.879	75.43
204.098	89.77
204.317	22.19
204.536	134.82
204.755	44.71
204.974	186.02
205.193	34.47
205.411	194.22
205.63	100.01
205.849	52.91
206.068	28.33
206.287	1.71
206.505	210.6
206.724	100.01
206.943	-72.02
207.162	30.38
207.381	169.64
207.599	46.76
207.818	50.86
208.037	-39.25
208.255	-14.68
208.474	38.57
208.693	20.14
208.911	32.43
209.13	77.48
209.349	59.05
209.567	69.29
209.786	87.72
210.005	54.95
210.223	54.95
210.442	-6.49
210.661	36.52
210.879	91.82
211.098	9.9
211.316	42.67
211.535	118.44
211.753	16.04
211.972	159.4
212.191	-24.92
212.409	38.57
212.628	91.82
212.846	34.47
213.065	77.48
213.283	89.77
213.502	-0.34
213.72	130.73
213.938	7.85
214.157	-22.87
214.375	120.49
214.594	128.68
214.812	132.78
215.031	9.9
215.249	63.15
215.467	73.39
215.686	61.1
215.904	63.15
216.122	75.43
216.341	5.8
216.559	59.05
216.778	85.67
216.996	163.5
217.214	30.38
217.432	-18.77
217.651	-37.2
217.869	91.82
218.087	77.48
218.306	9.9
218.524	26.28
218.742	20.14
218.96	97.96
219.179	1.71
219.397	46.76
219.615	235.18
219.833	120.49
220.051	11.95
220.27	100.01
220.488	153.26
220.706	102.06
220.924	42.67
221.142	40.62
221.36	3.75
221.578	5.8
221.796	26.28
222.015	-47.44
222.233	52.91
222.451	151.21
222.669	-65.88
222.887	122.54
223.105	-10.58
223.323	67.24
223.541	-8.53
223.759	7.85
223.977	26.28
224.195	171.69
224.413	112.3
224.631	40.62
224.849	13.99
225.067	251.56
225.285	13.99
225.503	89.77
225.721	-49.49
225.939	71.34
226.157	16.04
226.375	218.79
226.592	1.71
226.81	54.95
227.028	63.15
227.246	97.96
227.464	1.71
227.682	38.57
227.9	44.71
228.117	42.67
228.335	95.91
228.553	36.52
228.771	36.52
228.989	104.11
229.206	61.1
229.424	38.57
229.642	100.01
229.86	-22.87
230.077	116.39
230.295	93.87
230.513	143.02
230.731	54.95
230.948	196.26
231.166	132.78
231.384	-20.82
231.601	16.04
231.819	159.4
232.037	38.57
232.254	-8.53
232.472	9.9
232.689	42.67
232.907	120.49
233.125	-4.44
233.342	-24.92
233.56	59.05
233.777	-33.11
233.995	44.71
234.213	114.34
234.43	126.63
234.648	57
234.865	-8.53
235.083	22.19
235.3	67.24
235.518	120.49
235.735	153.26
235.953	175.78
236.17	-8.53
236.388	87.72
236.605	1.71
236.822	165.54
237.04	151.21
237.257	48.81
237.475	-12.63
237.692	61.1
237.909	122.54
238.127	30.38
238.344	93.87
238.562	75.43
238.779	-59.73
238.996	-53.59
239.214	7.85
239.431	38.57
239.648	-49.49
239.865	89.77
240.083	85.67
240.3	-14.68
240.517	75.43
240.735	36.52
240.952	83.63
241.169	22.19
241.386	32.43
241.603	28.33
241.821	-20.82
242.038	7.85
242.255	42.67
242.472	-4.44
242.689	67.24
242.907	3.75
243.124	59.05
243.341	13.99
243.558	-14.68
243.775	-2.39
243.992	-33.11
244.209	106.15
244.426	212.65
244.643	67.24
244.86	48.81
245.078	26.28
245.295	38.57
245.512	-22.87
245.729	44.71
245.946	28.33
246.163	57
246.38	16.04
246.597	40.62
246.814	65.19
247.031	75.43
247.248	97.96
247.464	44.71
247.681	104.11
247.898	97.96
248.115	61.1
248.332	-86.36
248.549	110.25
248.766	173.74
248.983	81.58
249.2	100.01
249.417	77.48
249.633	9.9
249.85	124.58
250.067	-8.53
250.284	79.53
250.501	147.11
250.717	114.34
250.934	-59.73
251.151	-33.11
251.368	52.91
251.585	87.72
251.801	9.9
252.018	-20.82
252.235	11.95
252.451	9.9
252.668	-53.59
252.885	163.5
253.102	-16.73
253.318	-20.82
253.535	11.95
253.752	-10.58
253.968	-18.77
254.185	-47.44
254.401	32.43
254.618	54.95
254.835	63.15
255.051	97.96
255.268	97.96
255.484	77.48
255.701	3.75
255.917	69.29
256.134	40.62
256.351	95.91
256.567	-82.26
256.784	20.14
257	-59.73
257.217	171.69
257.433	34.47
257.65	42.67
257.866	147.11
258.082	-92.5
258.299	20.14
258.515	106.15
258.732	63.15
258.948	32.43
259.165	5.8
259.381	87.72
259.597	20.14
259.814	40.62
260.03	46.76
260.246	-31.06
260.463	196.26
260.679	134.82
260.895	44.71
261.112	93.87
261.328	7.85
261.544	9.9
261.761	153.26
261.977	-2.39
262.193	-18.77
262.409	71.34
262.626	85.67
262.842	85.67
263.058	-37.2
263.274	149.16
263.49	75.43
263.707	77.48
263.923	132.78
264.139	-108.88
264.355	81.58
264.571	79.53
264.787	89.77
265.004	251.56
265.22	11.95
265.436	-10.58
265.652	28.33
265.868	95.91
266.084	-12.63
266.3	77.48
266.516	9.9
266.732	48.81
266.948	134.82
267.164	-12.63
267.38	138.92
267.596	71.34
267.812	102.06
268.028	71.34
268.244	36.52
268.46	71.34
268.676	36.52
268.892	110.25
269.108	-35.16
269.324	-72.02
269.54	-43.35
269.756	87.72
269.972	-16.73
270.188	3.75
270.403	-78.16
270.619	-18.77
270.835	50.86
271.051	50.86
271.267	91.82
271.483	54.95
271.698	122.54
271.914	108.2
272.13	42.67
272.346	26.28
272.562	7.85
272.777	138.92
272.993	48.81
273.209	38.57
273.425	20.14
273.64	-6.49
273.856	130.73
274.072	-8.53
274.287	24.23
274.503	229.03
274.719	102.06
274.934	52.91
275.15	-74.07
275.366	34.47
275.581	-37.2
275.797	-4.44
276.012	93.87
276.228	-47.44
276.444	-37.2
276.659	52.91
276.875	-24.92
277.09	67.24
277.306	-16.73
277.521	126.63
277.737	93.87
277.952	69.29
278.168	38.57
278.383	95.91
278.599	40.62
278.814	61.1
279.03	104.11
279.245	91.82
279.461	81.58
279.676	157.35
279.892	-8.53
280.107	-67.92
280.322	5.8
280.538	24.23
280.753	-82.26
280.969	9.9
281.184	24.23
281.399	263.85
281.615	-4.44
281.83	87.72
282.045	-67.92
282.26	-90.45
282.476	118.44
282.691	122.54
282.906	50.86
283.122	36.52
283.337	13.99
283.552	122.54
283.767	52.91
283.983	93.87
284.198	40.62
284.413	42.67
284.628	-6.49
284.843	46.76
285.058	114.34
285.274	50.86
285.489	5.8
285.704	126.63
285.919	-69.97
286.134	85.67
286.349	11.95
286.564	-16.73
286.779	161.45
286.995	54.95
287.21	-59.73
287.425	67.24
287.64	13.99
287.855	57
288.07	-72.02
288.285	57
288.5	75.43
288.715	145.06
288.93	44.71
289.145	13.99
289.36	116.39
289.575	-16.73
289.79	126.63
290.004	52.91
290.219	132.78
290.434	11.95
290.649	-29.01
290.864	93.87
291.079	-12.63
291.294	87.72
291.509	67.24
291.724	-18.77
291.938	50.86
292.153	48.81
292.368	57
292.583	9.9
292.798	42.67
293.012	163.5
293.227	93.87
293.442	-22.87
293.657	75.43
293.871	157.35
294.086	-35.16
294.301	165.54
294.516	91.82
294.73	-0.34
294.945	-8.53
295.16	-29.01
295.374	161.45
295.589	95.91
295.804	36.52
296.018	52.91
296.233	42.67
296.447	95.91
296.662	-35.16
296.877	130.73
297.091	118.44
297.306	59.05
297.52	-4.44
297.735	85.67
297.949	108.2
298.164	75.43
298.378	67.24
298.593	32.43
298.807	-63.83
299.022	7.85
299.236	110.25
299.451	97.96
299.665	106.15
299.88	65.19
300.094	81.58
300.309	-12.63
300.523	91.82
300.737	-6.49
300.952	97.96
301.166	81.58
301.381	-55.64
301.595	-33.11
301.809	-29.01
302.024	65.19
302.238	-67.92
302.452	106.15
302.667	93.87
302.881	126.63
303.095	132.78
303.309	59.05
303.524	18.09
303.738	22.19
303.952	-12.63
304.166	87.72
304.381	-22.87
304.595	120.49
304.809	-45.4
305.023	52.91
305.237	42.67
305.452	-37.2
305.666	81.58
305.88	128.68
306.094	118.44
306.308	54.95
306.522	85.67
306.736	81.58
306.95	169.64
307.164	1.71
307.379	9.9
307.593	102.06
307.807	32.43
308.021	106.15
308.235	67.24
308.449	-33.11
308.663	9.9
308.877	224.94
309.091	52.91
309.305	110.25
309.519	-45.4
309.733	171.69
309.947	-49.49
310.161	59.05
310.374	120.49
310.588	153.26
310.802	9.9
311.016	-2.39
311.23	95.91
311.444	28.33
311.658	75.43
311.872	128.68
312.085	110.25
312.299	130.73
312.513	134.82
312.727	40.62
312.941	13.99
313.154	69.29
313.368	79.53
313.582	-18.77
313.796	46.76
314.009	50.86
314.223	124.58
314.437	120.49
314.651	61.1
314.864	5.8
315.078	-2.39
315.292	-67.92
315.505	38.57
315.719	30.38
315.933	87.72
316.146	104.11
316.36	20.14
316.573	159.4
316.787	61.1
317.001	79.53
317.214	-37.2
317.428	69.29
317.641	-26.96
317.855	63.15
318.068	61.1
318.282	30.38
318.495	188.07
318.709	75.43
318.922	32.43
319.136	183.98
319.349	108.2
319.563	75.43
319.776	46.76
319.99	-37.2
320.203	143.02
320.417	11.95
320.63	102.06
320.843	126.63
321.057	34.47
321.27	28.33
321.483	155.3
321.697	118.44
321.91	16.04
322.124	63.15
322.337	110.25
322.55	-24.92
322.763	34.47
322.977	24.23
323.19	-8.53
323.403	26.28
323.617	126.63
323.83	149.16
324.043	32.43
324.256	79.53
324.469	5.8
324.683	97.96
324.896	67.24
325.109	61.1
325.322	3.75
325.535	116.39
325.748	93.87
325.962	1.71
326.175	61.1
326.388	54.95
326.601	104.11
326.814	52.91
327.027	83.63
327.24	153.26
327.453	-59.73
327.666	36.52
327.879	106.15
328.092	108.2
328.305	106.15
328.518	30.38
328.731	9.9
328.944	-8.53
329.157	100.01
329.37	102.06
329.583	188.07
329.796	91.82
330.009	-65.88
330.222	159.4
330.435	100.01
330.648	59.05
330.861	-14.68
331.073	52.91
331.286	169.64
331.499	-26.96
331.712	-6.49
331.925	1.71
332.138	46.76
332.35	54.95
332.563	9.9
332.776	151.21
332.989	-82.26
333.202	16.04
333.414	42.67
333.627	16.04
333.84	-8.53
334.053	44.71
334.265	36.52
334.478	77.48
334.691	-59.73
334.903	79.53
335.116	32.43
335.329	22.19
335.541	52.91
335.754	87.72
335.966	11.95
336.179	34.47
336.392	3.75
336.604	71.34
336.817	106.15
337.029	36.52
337.242	54.95
337.454	85.67
337.667	63.15
337.88	134.82
338.092	-2.39
338.305	122.54
338.517	7.85
338.729	79.53
338.942	155.3
339.154	-67.92
339.367	-90.45
339.579	100.01
339.792	-31.06
340.004	95.91
340.217	73.39
340.429	122.54
340.641	28.33
340.854	32.43
341.066	48.81
341.278	143.02
341.491	202.41
341.703	28.33
341.915	52.91
342.128	30.38
342.34	73.39
342.552	-86.36
342.764	46.76
342.977	-14.68
343.189	73.39
343.401	7.85
343.613	-26.96
343.826	104.11
344.038	1.71
344.25	77.48
344.462	-24.92
344.674	100.01
344.886	42.67
345.099	-8.53
345.311	93.87
345.523	26.28
345.735	-135.51
345.947	61.1
346.159	65.19
346.371	54.95
346.583	42.67
346.795	181.93
347.007	22.19
347.219	134.82
347.431	57
347.643	83.63
347.855	63.15
348.067	171.69
348.279	-86.36
348.491	28.33
348.703	153.26
348.915	22.19
349.127	-24.92
349.339	1.71
349.551	28.33
349.763	124.58
349.975	73.39
350.187	44.71
350.399	116.39
350.61	104.11
350.822	34.47
351.034	114.34
351.246	50.86
351.458	77.48
351.669	85.67
351.881	30.38
352.093	108.2
352.305	91.82
352.517	79.53
352.728	93.87
352.94	65.19
353.152	124.58
353.363	-12.63
353.575	97.96
353.787	124.58
353.999	97.96
354.21	198.31
354.422	26.28
354.633	7.85
354.845	59.05
355.057	-2.39
355.268	95.91
355.48	89.77
355.692	-47.44
355.903	65.19
356.115	-22.87
356.326	-37.2
356.538	118.44
356.749	91.82
356.961	159.4
357.172	34.47
357.384	9.9
357.595	181.93
357.807	11.95
358.018	32.43
358.23	54.95
358.441	173.74
358.653	54.95
358.864	63.15
359.075	-33.11
359.287	130.73
359.498	118.44
359.709	108.2
359.921	36.52
360.132	116.39
360.344	28.33
360.555	42.67
360.766	24.23
360.977	-69.97
361.189	177.83
361.4	-24.92
361.611	140.97
361.823	124.58
362.034	-4.44
362.245	-86.36
362.456	46.76
362.667	59.05
362.879	-16.73
363.09	59.05
363.301	59.05
363.512	44.71
363.723	-33.11
363.935	11.95
364.146	118.44
364.357	13.99
364.568	89.77
364.779	-80.21
364.99	157.35
365.201	40.62
365.412	69.29
365.623	-6.49
365.834	126.63
366.045	36.52
366.256	83.63
366.467	85.67
366.678	26.28
366.889	-2.39
367.1	69.29
367.311	134.82
367.522	9.9
367.733	85.67
367.944	87.72
368.155	48.81
368.366	124.58
368.577	145.06
368.788	81.58
368.999	-6.49
369.209	52.91
369.42	196.26
369.631	231.08
369.842	97.96
370.053	91.82
370.264	102.06
370.474	-4.44
370.685	16.04
370.896	54.95
371.107	147.11
371.317	97.96
371.528	-61.78
371.739	114.34
371.95	89.77
372.16	65.19
372.371	-51.54
372.582	114.34
372.792	122.54
373.003	59.05
373.214	73.39
373.424	110.25
373.635	48.81
373.846	75.43
374.056	32.43
374.267	97.96
374.477	110.25
374.688	59.05
374.898	124.58
375.109	-14.68
375.319	77.48
375.53	140.97
375.74	116.39
375.951	42.67
376.161	13.99
376.372	179.88
376.582	-14.68
376.793	63.15
377.003	32.43
377.214	28.33
377.424	95.91
377.635	-14.68
377.845	59.05
378.055	134.82
378.266	-24.92
378.476	40.62
378.686	77.48
378.897	44.71
379.107	102.06
379.317	73.39
379.528	61.1
379.738	198.31
379.948	-33.11
380.158	157.35
380.369	48.81
380.579	116.39
380.789	24.23
380.999	110.25
381.21	114.34
381.42	106.15
381.63	20.14
381.84	116.39
382.05	28.33
382.261	212.65
382.471	143.02
382.681	28.33
382.891	190.12
383.101	75.43
383.311	-12.63
383.521	34.47
383.731	97.96
383.941	108.2
384.151	38.57
384.361	-0.34
384.571	73.39
384.781	190.12
384.991	157.35
385.201	118.44
385.411	73.39
385.621	138.92
385.831	73.39
386.041	34.47
386.251	1.71
386.461	104.11
386.671	-43.35
386.881	83.63
387.091	57
387.301	136.87
387.511	50.86
387.72	128.68
387.93	108.2
388.14	7.85
388.35	-14.68
388.56	116.39
388.769	122.54
388.979	9.9
389.189	-45.4
389.399	73.39
389.609	143.02
389.818	147.11
390.028	130.73
390.238	104.11
390.447	-33.11
390.657	79.53
390.867	7.85
391.076	-108.88
391.286	24.23
391.496	104.11
391.705	-18.77
391.915	177.83
392.125	46.76
392.334	22.19
392.544	159.4
392.753	71.34
392.963	7.85
393.172	40.62
393.382	-0.34
393.591	177.83
393.801	9.9
394.01	171.69
394.22	179.88
394.429	24.23
394.639	63.15
394.848	112.3
395.058	81.58
395.267	42.67
395.477	145.06
395.686	36.52
395.895	220.84
396.105	276.13
396.314	77.48
396.524	75.43
396.733	44.71
396.942	241.32
397.152	95.91
397.361	77.48
397.57	91.82
397.78	20.14
397.989	151.21
398.198	192.17
398.407	40.62
398.617	16.04
398.826	48.81
399.035	16.04
399.244	100.01
399.453	22.19
399.663	24.23
399.872	112.3
400.081	-35.16
400.29	159.4
400.499	-16.73
400.708	65.19
400.917	61.1
401.127	91.82
401.336	-14.68
401.545	169.64
401.754	179.88
401.963	75.43
402.172	26.28
402.381	-47.44
402.59	22.19
402.799	134.82
403.008	102.06
403.217	104.11
403.426	81.58
403.635	-69.97
403.844	71.34
404.053	44.71
404.262	40.62
404.471	161.45
404.68	95.91
404.888	57
405.097	75.43
405.306	26.28
405.515	97.96
405.724	34.47
405.933	116.39
406.142	106.15
406.35	104.11
406.559	28.33
406.768	50.86
406.977	120.49
407.185	120.49
407.394	124.58
407.603	32.43
407.812	61.1
408.02	145.06
408.229	3.75
408.438	28.33
408.646	-63.83
408.855	54.95
409.064	91.82
409.272	54.95
409.481	83.63
409.69	44.71
409.898	5.8
410.107	65.19
410.315	81.58
410.524	-18.77
410.733	75.43
410.941	-26.96
411.15	143.02
411.358	65.19
411.567	100.01
411.775	85.67
411.984	50.86
412.192	110.25
412.401	26.28
412.609	177.83
412.818	163.5
413.026	75.43
413.234	-45.4
413.443	18.09
413.651	28.33
413.86	44.71
414.068	145.06
414.276	143.02
414.485	73.39
414.693	186.02
414.901	186.02
415.11	71.34
415.318	104.11
415.526	30.38
415.734	132.78
415.943	73.39
416.151	179.88
416.359	16.04
416.567	110.25
416.776	87.72
416.984	145.06
417.192	192.17
417.4	3.75
417.608	65.19
417.817	-80.21
418.025	110.25
418.233	136.87
418.441	-65.88
418.649	-10.58
418.857	13.99
419.065	192.17
419.273	-22.87
419.481	28.33
419.689	-8.53
419.897	5.8
420.105	-12.63
420.313	106.15
420.521	132.78
420.729	177.83
420.937	30.38
421.145	-57.68
421.353	120.49
421.561	149.16
421.769	85.67
421.977	87.72
422.185	104.11
422.393	81.58
422.601	149.16
422.809	87.72
423.017	48.81
423.224	114.34
423.432	134.82
423.64	24.23
423.848	198.31
424.056	32.43
424.263	93.87
424.471	44.71
424.679	136.87
424.887	20.14
425.094	116.39
425.302	50.86
425.51	79.53
425.718	91.82
425.925	57
426.133	40.62
426.341	177.83
426.548	20.14
426.756	100.01
426.964	77.48
427.171	77.48
427.379	28.33
427.586	67.24
427.794	65.19
428.001	177.83
428.209	85.67
428.417	134.82
428.624	75.43
428.832	130.73
429.039	93.87
429.247	77.48
429.454	89.77
429.662	188.07
429.869	116.39
430.076	202.41
430.284	159.4
430.491	159.4
430.699	50.86
430.906	194.22
431.114	61.1
431.321	188.07
431.528	120.49
431.736	126.63
431.943	155.3
432.15	249.51
432.358	192.17
432.565	259.75
432.772	16.04
432.979	239.27
433.187	171.69
433.394	179.88
433.601	159.4
433.808	231.08
434.016	224.94
434.223	237.22
434.43	171.69
434.637	245.41
434.844	231.08
435.052	167.59
435.259	257.7
435.466	241.32
435.673	265.89
435.88	315.05
436.087	345.77
436.294	294.57
436.501	272.04
436.708	323.24
436.915	233.13
437.122	390.82
437.329	353.96
437.537	370.34
437.743	298.66
437.95	446.12
438.157	360.1
438.364	384.68
438.571	331.43
438.778	480.93
438.985	394.92
439.192	421.54
439.399	462.5
439.606	433.83
439.813	630.43
440.02	536.23
440.227	634.53
440.433	556.71
440.64	517.79
440.847	544.42
441.054	495.27
441.261	650.91
441.467	626.34
441.674	579.23
441.881	712.35
442.088	646.82
442.294	679.58
442.501	777.89
442.708	722.59
442.914	851.61
443.121	802.46
443.328	923.29
443.534	876.19
443.741	931.48
443.948	812.7
444.154	911
444.361	1179.29
444.568	947.87
444.774	1037.98
444.981	978.59
445.187	1203.86
445.394	1210.01
445.6	1117.85
445.807	1355.41
446.013	1312.41
446.22	1210.01
446.426	1386.13
446.633	1466
446.839	1597.07
447.046	1449.62
447.252	1554.07
447.459	1638.03
447.665	1646.23
447.871	1750.67
448.078	1994.38
448.284	1844.88
448.491	2002.57
448.697	2074.25
448.903	2233.99
449.11	2156.17
449.316	2096.78
449.522	2416.26
449.728	2385.54
449.935	2528.9
450.141	2576
450.347	2852.48
450.553	2565.76
450.76	2756.22
450.966	2850.43
451.172	2948.73
451.378	3098.24
451.584	3174.01
451.791	3335.8
451.997	3479.16
452.203	3452.53
452.409	3800.69
452.615	3841.65
452.821	3829.36
453.027	3880.56
453.233	4335.21
453.44	4140.65
453.646	4341.35
453.852	4632.16
454.058	4847.2
454.264	4968.03
454.47	5252.7
454.676	5203.55
454.882	5635.67
455.088	5379.67
455.294	5680.72
455.5	6065.74
455.705	6428.23
455.911	6383.18
456.117	6522.44
456.323	6921.79
456.529	6633.03
456.735	7566.9
456.941	7700.02
457.147	8089.14
457.352	8404.52
457.558	8578.6
457.764	9012.77
457.97	9365.02
458.176	9616.92
458.381	9870.87
458.587	10384.91
458.793	10712.58
458.999	10788.36
459.204	11855.35
459.41	12565.99
459.616	12242.42
459.821	13133.28
460.027	13837.78
460.233	14372.3
460.438	14122.45
460.644	14992.84
460.85	15148.48
461.055	15812.03
461.261	16725.42
461.466	16086.45
461.672	16412.08
461.878	18449.81
462.083	18374.03
462.289	18820.49
462.494	19758.46
462.7	19787.13
462.905	19797.37
463.111	21208.42
463.316	22400.34
463.522	22797.65
463.727	23477.57
463.932	24421.69
464.138	25300.26
464.343	26144.03
464.549	26369.3
464.754	28312.83
464.959	29072.62
465.165	29277.42
465.37	29392.11
465.575	29222.12
465.781	31311.05
465.986	32124.1
466.191	31663.3
466.397	31972.55
466.602	31081.68
466.807	32945.33
467.012	33281.2
467.218	33889.45
467.423	34323.61
467.628	35402.89
467.833	37207.15
468.038	35892.36
468.244	35644.55
468.449	37360.75
468.654	36658.3
468.859	36318.34
