Data from USB4F104151__22__11-24-41-706.txt Node

Date: Wed Feb 26 11:24:41 EST 2025
User: louis
Spectrometer: USB4F10415
Trigger mode: 4
Integration Time (sec): 1.000000E-1
Scans to average: 1
Electric dark correction enabled: true
Nonlinearity correction enabled: false
Boxcar width: 0
XAxis mode: Wavelengths
Number of Pixels in Spectrum: 3648
>>>>>Begin Spectral Data<<<<<
178.204	-395.26
178.424	-395.26
178.644	-395.26
178.864	-387.07
179.084	-417.79
179.304	-8.19
179.524	-16.38
179.744	18.43
179.964	16.38
180.184	26.62
180.404	63.49
180.624	26.62
180.844	-8.19
181.064	-77.82
181.283	-43.01
181.503	-57.34
181.723	59.39
181.943	-69.63
182.163	174.08
182.383	-77.82
182.602	38.91
182.822	137.21
183.042	51.2
183.262	59.39
183.482	0
183.701	0
183.921	-4.1
184.141	4.1
184.361	96.25
184.58	55.3
184.8	55.3
185.02	30.72
185.239	53.25
185.459	24.58
185.679	114.69
185.898	-71.68
186.118	77.82
186.338	40.96
186.557	106.49
186.777	-104.45
186.997	0
187.216	4.1
187.436	176.13
187.655	61.44
187.875	79.87
188.095	88.06
188.314	110.59
188.534	104.45
188.753	-43.01
188.973	137.21
189.192	157.69
189.412	65.54
189.631	4.1
189.851	-65.53
190.07	137.21
190.29	-57.34
190.509	-12.29
190.729	-43.01
190.948	51.2
191.168	198.65
191.387	88.06
191.607	-16.38
191.826	73.73
192.045	63.49
192.265	49.15
192.484	28.67
192.704	49.15
192.923	-65.53
193.142	219.13
193.362	88.06
193.581	161.79
193.8	6.14
194.02	75.77
194.239	45.06
194.458	139.26
194.678	8.19
194.897	2.05
195.116	69.63
195.335	-18.43
195.555	53.25
195.774	18.43
195.993	32.77
196.212	6.14
196.432	-43.01
196.651	-34.82
196.87	59.39
197.089	249.85
197.308	147.45
197.528	-12.29
197.747	0
197.966	49.15
198.185	126.97
198.404	-28.67
198.623	208.89
198.842	86.01
199.062	65.54
199.281	90.11
199.5	114.69
199.719	61.44
199.938	26.62
200.157	96.25
200.376	75.77
200.595	131.07
200.814	53.25
201.033	-69.63
201.252	143.36
201.471	77.82
201.69	79.87
201.909	110.59
202.128	167.93
202.347	8.19
202.566	73.73
202.785	-98.3
203.004	26.62
203.223	329.72
203.442	30.72
203.661	-108.54
203.879	45.06
204.098	108.54
204.317	73.73
204.536	167.93
204.755	133.12
204.974	90.11
205.193	-4.1
205.411	120.83
205.63	2.05
205.849	53.25
206.068	-2.05
206.287	-45.06
206.505	129.02
206.724	20.48
206.943	10.24
207.162	-30.72
207.381	14.34
207.599	-40.96
207.818	38.91
208.037	-38.91
208.255	20.48
208.474	75.77
208.693	18.43
208.911	8.19
209.13	-6.14
209.349	92.16
209.567	100.35
209.786	-12.29
210.005	100.35
210.223	-36.86
210.442	-71.68
210.661	-22.53
210.879	-55.3
211.098	75.77
211.316	28.67
211.535	83.97
211.753	28.67
211.972	79.87
212.191	51.2
212.409	12.29
212.628	114.69
212.846	-12.29
213.065	-14.34
213.283	106.49
213.502	61.44
213.72	77.82
213.938	30.72
214.157	10.24
214.375	169.98
214.594	71.68
214.812	114.69
215.031	49.15
215.249	-8.19
215.467	14.34
215.686	26.62
215.904	73.73
216.122	98.3
216.341	90.11
216.559	49.15
216.778	143.36
216.996	147.45
217.214	22.53
217.432	-38.91
217.651	-20.48
217.869	24.58
218.087	-8.19
218.306	2.05
218.524	28.67
218.742	22.53
218.96	63.49
219.179	-8.19
219.397	-69.63
219.615	286.72
219.833	131.07
220.051	2.05
220.27	75.77
220.488	124.93
220.706	43.01
220.924	79.87
221.142	79.87
221.36	83.97
221.578	57.34
221.796	-47.1
222.015	75.77
222.233	61.44
222.451	124.93
222.669	0
222.887	71.68
223.105	38.91
223.323	-26.62
223.541	34.82
223.759	6.14
223.977	24.58
224.195	112.64
224.413	77.82
224.631	71.68
224.849	129.02
225.067	233.47
225.285	26.62
225.503	34.82
225.721	-49.15
225.939	-26.62
226.157	53.25
226.375	200.7
226.592	118.78
226.81	-10.24
227.028	88.06
227.246	149.5
227.464	71.68
227.682	106.49
227.9	137.21
228.117	94.21
228.335	122.88
228.553	53.25
228.771	63.49
228.989	75.77
229.206	129.02
229.424	-2.05
229.642	-53.25
229.86	-126.97
230.077	147.45
230.295	106.49
230.513	81.92
230.731	75.77
230.948	161.79
231.166	231.42
231.384	34.82
231.601	104.45
231.819	86.01
232.037	-22.53
232.254	-71.68
232.472	-4.1
232.689	38.91
232.907	141.31
233.125	40.96
233.342	-2.05
233.56	-26.62
233.777	-73.73
233.995	67.58
234.213	32.77
234.43	55.3
234.648	20.48
234.865	-47.1
235.083	53.25
235.3	36.86
235.518	47.1
235.735	98.3
235.953	75.77
236.17	26.62
236.388	32.77
236.605	65.54
236.822	90.11
237.04	196.61
237.257	14.34
237.475	-49.15
237.692	-24.58
237.909	79.87
238.127	-36.86
238.344	71.68
238.562	36.86
238.779	-100.35
238.996	-10.24
239.214	6.14
239.431	137.21
239.648	14.34
239.865	59.39
240.083	79.87
240.3	38.91
240.517	4.1
240.735	71.68
240.952	81.92
241.169	122.88
241.386	184.32
241.603	28.67
241.821	24.58
242.038	102.4
242.255	118.78
242.472	-4.1
242.689	59.39
242.907	94.21
243.124	69.63
243.341	65.54
243.558	6.14
243.775	-12.29
243.992	-6.14
244.209	55.3
244.426	163.84
244.643	51.2
244.86	-6.14
245.078	81.92
245.295	43.01
245.512	53.25
245.729	24.58
245.946	124.93
246.163	104.45
246.38	43.01
246.597	96.25
246.814	14.34
247.031	-12.29
247.248	55.3
247.464	92.16
247.681	30.72
247.898	83.97
248.115	28.67
248.332	-10.24
248.549	133.12
248.766	178.17
248.983	49.15
249.2	114.69
249.417	59.39
249.633	12.29
249.85	71.68
250.067	-24.58
250.284	77.82
250.501	24.58
250.717	79.87
250.934	-88.06
251.151	94.21
251.368	67.58
251.585	57.34
251.801	96.25
252.018	-77.82
252.235	120.83
252.451	-2.05
252.668	43.01
252.885	81.92
253.102	47.1
253.318	-12.29
253.535	-4.1
253.752	-2.05
253.968	43.01
254.185	-96.25
254.401	57.34
254.618	4.1
254.835	-18.43
255.051	77.82
255.268	102.4
255.484	108.54
255.701	34.82
255.917	79.87
256.134	-30.72
256.351	-14.34
256.567	-47.1
256.784	12.29
257	-92.16
257.217	73.73
257.433	73.73
257.65	57.34
257.866	225.28
258.082	-55.3
258.299	45.06
258.515	153.6
258.732	-18.43
258.948	-4.1
259.165	59.39
259.381	-26.62
259.597	77.82
259.814	73.73
260.03	96.25
260.246	-12.29
260.463	120.83
260.679	114.69
260.895	118.78
261.112	45.06
261.328	-18.43
261.544	57.34
261.761	141.31
261.977	-63.49
262.193	4.1
262.409	83.97
262.626	129.02
262.842	40.96
263.058	47.1
263.274	77.82
263.49	71.68
263.707	22.53
263.923	131.07
264.139	-86.01
264.355	124.93
264.571	106.49
264.787	86.01
265.004	71.68
265.22	14.34
265.436	8.19
265.652	40.96
265.868	12.29
266.084	24.58
266.3	30.72
266.516	-18.43
266.732	49.15
266.948	47.1
267.164	14.34
267.38	126.97
267.596	73.73
267.812	163.84
268.028	6.14
268.244	57.34
268.46	51.2
268.676	20.48
268.892	-71.68
269.108	-16.38
269.324	6.14
269.54	16.38
269.756	161.79
269.972	-2.05
270.188	43.01
270.403	24.58
270.619	2.05
270.835	135.17
271.051	45.06
271.267	14.34
271.483	-59.39
271.698	83.97
271.914	104.45
272.13	16.38
272.346	-63.49
272.562	94.21
272.777	124.93
272.993	-18.43
273.209	45.06
273.425	126.97
273.64	-137.21
273.856	53.25
274.072	-20.48
274.287	-2.05
274.503	100.35
274.719	98.3
274.934	2.05
275.15	-28.67
275.366	26.62
275.581	-63.49
275.797	-4.1
276.012	77.82
276.228	-32.77
276.444	71.68
276.659	108.54
276.875	-34.82
277.09	-26.62
277.306	4.1
277.521	26.62
277.737	22.53
277.952	141.31
278.168	4.1
278.383	100.35
278.599	75.77
278.814	153.6
279.03	61.44
279.245	104.45
279.461	-2.05
279.676	6.14
279.892	-69.63
280.107	-18.43
280.322	38.91
280.538	49.15
280.753	14.34
280.969	30.72
281.184	20.48
281.399	112.64
281.615	92.16
281.83	53.25
282.045	-71.68
282.26	-2.05
282.476	28.67
282.691	92.16
282.906	47.1
283.122	40.96
283.337	-53.25
283.552	102.4
283.767	40.96
283.983	108.54
284.198	53.25
284.413	53.25
284.628	-36.86
284.843	-16.38
285.058	98.3
285.274	77.82
285.489	24.58
285.704	116.73
285.919	2.05
286.134	16.38
286.349	4.1
286.564	-67.58
286.779	163.84
286.995	12.29
287.21	-38.91
287.425	114.69
287.64	-40.96
287.855	26.62
288.07	-98.3
288.285	165.89
288.5	45.06
288.715	22.53
288.93	32.77
289.145	8.19
289.36	94.21
289.575	47.1
289.79	102.4
290.004	124.93
290.219	65.54
290.434	-32.77
290.649	38.91
290.864	-22.53
291.079	-28.67
291.294	104.45
291.509	79.87
291.724	79.87
291.938	-47.1
292.153	-6.14
292.368	-4.1
292.583	88.06
292.798	81.92
293.012	108.54
293.227	98.3
293.442	-36.86
293.657	81.92
293.871	133.12
294.086	63.49
294.301	204.8
294.516	129.02
294.73	73.73
294.945	-102.4
295.16	59.39
295.374	102.4
295.589	151.55
295.804	2.05
296.018	106.49
296.233	151.55
296.447	129.02
296.662	-32.77
296.877	110.59
297.091	8.19
297.306	22.53
297.52	45.06
297.735	116.73
297.949	12.29
298.164	43.01
298.378	28.67
298.593	59.39
298.807	-12.29
299.022	20.48
299.236	100.35
299.451	-38.91
299.665	2.05
299.88	-18.43
300.094	65.54
300.309	-71.68
300.523	104.45
300.737	-55.3
300.952	92.16
301.166	79.87
301.381	38.91
301.595	-53.25
301.809	49.15
302.024	10.24
302.238	14.34
302.452	114.69
302.667	106.49
302.881	202.75
303.095	110.59
303.309	86.01
303.524	-83.97
303.738	-18.43
303.952	2.05
304.166	71.68
304.381	-137.21
304.595	176.13
304.809	-6.14
305.023	104.45
305.237	47.1
305.452	26.62
305.666	141.31
305.88	57.34
306.094	100.35
306.308	83.97
306.522	69.63
306.736	36.86
306.95	53.25
307.164	34.82
307.379	-26.62
307.593	143.36
307.807	137.21
308.021	67.58
308.235	110.59
308.449	-77.82
308.663	6.14
308.877	202.75
309.091	73.73
309.305	47.1
309.519	-92.16
309.733	141.31
309.947	-79.87
310.161	65.54
310.374	73.73
310.588	53.25
310.802	-79.87
311.016	12.29
311.23	106.49
311.444	-36.86
311.658	34.82
311.872	100.35
312.085	165.89
312.299	53.25
312.513	104.45
312.727	26.62
312.941	20.48
313.154	57.34
313.368	24.58
313.582	63.49
313.796	49.15
314.009	16.38
314.223	159.74
314.437	-14.34
314.651	53.25
314.864	59.39
315.078	-16.38
315.292	-14.34
315.505	-16.38
315.719	16.38
315.933	77.82
316.146	-55.3
316.36	51.2
316.573	126.97
316.787	90.11
317.001	53.25
317.214	-36.86
317.428	45.06
317.641	-30.72
317.855	-2.05
318.068	86.01
318.282	34.82
318.495	129.02
318.709	67.58
318.922	-14.34
319.136	92.16
319.349	133.12
319.563	-40.96
319.776	73.73
319.99	-90.11
320.203	51.2
320.417	59.39
320.63	38.91
320.843	186.37
321.057	92.16
321.27	-10.24
321.483	151.55
321.697	90.11
321.91	96.25
322.124	86.01
322.337	73.73
322.55	-59.39
322.763	34.82
322.977	32.77
323.19	2.05
323.403	-20.48
323.617	102.4
323.83	34.82
324.043	34.82
324.256	32.77
324.469	24.58
324.683	141.31
324.896	-18.43
325.109	106.49
325.322	-69.63
325.535	96.25
325.748	131.07
325.962	28.67
326.175	73.73
326.388	53.25
326.601	167.93
326.814	22.53
327.027	92.16
327.24	141.31
327.453	-86.01
327.666	71.68
327.879	194.56
328.092	63.49
328.305	71.68
328.518	6.14
328.731	-4.1
328.944	24.58
329.157	43.01
329.37	-63.49
329.583	131.07
329.796	186.37
330.009	-67.58
330.222	100.35
330.435	108.54
330.648	57.34
330.861	30.72
331.073	38.91
331.286	73.73
331.499	104.45
331.712	65.54
331.925	-12.29
332.138	45.06
332.35	133.12
332.563	-26.62
332.776	149.5
332.989	30.72
333.202	8.19
333.414	12.29
333.627	92.16
333.84	-2.05
334.053	75.77
334.265	-16.38
334.478	22.53
334.691	67.58
334.903	28.67
335.116	4.1
335.329	32.77
335.541	-24.58
335.754	172.03
335.966	0
336.179	-6.14
336.392	79.87
336.604	10.24
336.817	77.82
337.029	81.92
337.242	-20.48
337.454	71.68
337.667	4.1
337.88	167.93
338.092	98.3
338.305	20.48
338.517	-16.38
338.729	79.87
338.942	143.36
339.154	-32.77
339.367	6.14
339.579	-12.29
339.792	-6.14
340.004	32.77
340.217	77.82
340.429	40.96
340.641	-22.53
340.854	-59.39
341.066	-45.06
341.278	155.65
341.491	159.74
341.703	49.15
341.915	-45.06
342.128	110.59
342.34	88.06
342.552	-2.05
342.764	20.48
342.977	-2.05
343.189	63.49
343.401	114.69
343.613	-53.25
343.826	57.34
344.038	-4.1
344.25	34.82
344.462	-40.96
344.674	43.01
344.886	43.01
345.099	67.58
345.311	61.44
345.523	-36.86
345.735	-77.82
345.947	32.77
346.159	49.15
346.371	12.29
346.583	-10.24
346.795	147.45
347.007	61.44
347.219	65.54
347.431	79.87
347.643	90.11
347.855	-8.19
348.067	147.45
348.279	-18.43
348.491	43.01
348.703	118.78
348.915	38.91
349.127	-61.44
349.339	36.86
349.551	-22.53
349.763	153.6
349.975	0
350.187	59.39
350.399	116.73
350.61	94.21
350.822	43.01
351.034	88.06
351.246	55.3
351.458	100.35
351.669	-10.24
351.881	36.86
352.093	167.93
352.305	96.25
352.517	32.77
352.728	102.4
352.94	69.63
353.152	106.49
353.363	86.01
353.575	34.82
353.787	161.79
353.999	81.92
354.21	165.89
354.422	-28.67
354.633	38.91
354.845	26.62
355.057	-8.19
355.268	-32.77
355.48	92.16
355.692	-59.39
355.903	-6.14
356.115	-2.05
356.326	-73.73
356.538	141.31
356.749	8.19
356.961	67.58
357.172	24.58
357.384	34.82
357.595	215.04
357.807	18.43
358.018	4.1
358.23	24.58
358.441	167.93
358.653	16.38
358.864	-47.1
359.075	6.14
359.287	38.91
359.498	151.55
359.709	88.06
359.921	51.2
360.132	67.58
360.344	98.3
360.555	10.24
360.766	81.92
360.977	14.34
361.189	61.44
361.4	14.34
361.611	49.15
361.823	122.88
362.034	81.92
362.245	-81.92
362.456	47.1
362.667	106.49
362.879	-22.53
363.09	131.07
363.301	79.87
363.512	51.2
363.723	-34.82
363.935	61.44
364.146	49.15
364.357	38.91
364.568	45.06
364.779	-92.16
364.99	131.07
365.201	28.67
365.412	51.2
365.623	-116.73
365.834	20.48
366.045	26.62
366.256	176.13
366.467	83.97
366.678	32.77
366.889	0
367.1	24.58
367.311	188.41
367.522	-2.05
367.733	63.49
367.944	135.17
368.155	-4.1
368.366	77.82
368.577	49.15
368.788	129.02
368.999	-73.73
369.209	22.53
369.42	221.18
369.631	155.65
369.842	116.73
370.053	22.53
370.264	167.93
370.474	-32.77
370.685	32.77
370.896	-28.67
371.107	122.88
371.317	129.02
371.528	16.38
371.739	94.21
371.95	-10.24
372.16	122.88
372.371	-38.91
372.582	-55.3
372.792	28.67
373.003	49.15
373.214	8.19
373.424	81.92
373.635	-24.58
373.846	139.26
374.056	69.63
374.267	112.64
374.477	40.96
374.688	18.43
374.898	28.67
375.109	-45.06
375.319	81.92
375.53	94.21
375.74	69.63
375.951	-59.39
376.161	124.93
376.372	36.86
376.582	12.29
376.793	-6.14
377.003	12.29
377.214	-51.2
377.424	53.25
377.635	-2.05
377.845	-32.77
378.055	180.22
378.266	2.05
378.476	38.91
378.686	59.39
378.897	81.92
379.107	112.64
379.317	65.54
379.528	18.43
379.738	55.3
379.948	26.62
380.158	118.78
380.369	-59.39
380.579	69.63
380.789	81.92
380.999	98.3
381.21	81.92
381.42	161.79
381.63	6.14
381.84	69.63
382.05	79.87
382.261	139.26
382.471	16.38
382.681	-8.19
382.891	157.69
383.101	30.72
383.311	6.14
383.521	-16.38
383.731	8.19
383.941	88.06
384.151	71.68
384.361	49.15
384.571	26.62
384.781	20.48
384.991	180.22
385.201	178.17
385.411	86.01
385.621	57.34
385.831	65.54
386.041	20.48
386.251	-30.72
386.461	180.22
386.671	-20.48
386.881	147.45
387.091	30.72
387.301	40.96
387.511	-55.3
387.72	147.45
387.93	112.64
388.14	-63.49
388.35	-24.58
388.56	139.26
388.769	137.21
388.979	-16.38
389.189	-34.82
389.399	65.54
389.609	116.73
389.818	51.2
390.028	184.32
390.238	131.07
390.447	20.48
390.657	96.25
390.867	20.48
391.076	-20.48
391.286	36.86
391.496	-8.19
391.705	36.86
391.915	108.54
392.125	83.97
392.334	6.14
392.544	110.59
392.753	12.29
392.963	-34.82
393.172	38.91
393.382	4.1
393.591	143.36
393.801	0
394.01	102.4
394.22	147.45
394.429	-10.24
394.639	77.82
394.848	14.34
395.058	38.91
395.267	10.24
395.477	73.73
395.686	14.34
395.895	256
396.105	104.45
396.314	126.97
396.524	-34.82
396.733	22.53
396.942	126.97
397.152	96.25
397.361	102.4
397.57	55.3
397.78	-10.24
397.989	92.16
398.198	219.13
398.407	26.62
398.617	-55.3
398.826	34.82
399.035	0
399.244	178.17
399.453	4.1
399.663	38.91
399.872	81.92
400.081	-57.34
400.29	135.17
400.499	12.29
400.708	217.08
400.917	-28.67
401.127	-16.38
401.336	0
401.545	188.41
401.754	43.01
401.963	71.68
402.172	-18.43
402.381	-18.43
402.59	-65.53
402.799	135.17
403.008	145.41
403.217	8.19
403.426	38.91
403.635	-59.39
403.844	16.38
404.053	-6.14
404.262	-4.1
404.471	141.31
404.68	57.34
404.888	45.06
405.097	63.49
405.306	38.91
405.515	141.31
405.724	65.54
405.933	73.73
406.142	122.88
406.35	112.64
406.559	83.97
406.768	88.06
406.977	190.46
407.185	67.58
407.394	77.82
407.603	-34.82
407.812	86.01
408.02	188.41
408.229	26.62
408.438	81.92
408.646	-71.68
408.855	38.91
409.064	61.44
409.272	-6.14
409.481	102.4
409.69	-8.19
409.898	28.67
410.107	26.62
410.315	71.68
410.524	63.49
410.733	114.69
410.941	6.14
411.15	77.82
411.358	79.87
411.567	178.17
411.775	143.36
411.984	36.86
412.192	24.58
412.401	10.24
412.609	139.26
412.818	172.03
413.026	45.06
413.234	14.34
413.443	59.39
413.651	-49.15
413.86	57.34
414.068	143.36
414.276	141.31
414.485	16.38
414.693	180.22
414.901	167.93
415.11	34.82
415.318	71.68
415.526	53.25
415.734	69.63
415.943	-12.29
416.151	133.12
416.359	40.96
416.567	100.35
416.776	110.59
416.984	94.21
417.192	120.83
417.4	24.58
417.608	16.38
417.817	-4.1
418.025	26.62
418.233	149.5
418.441	57.34
418.649	18.43
418.857	47.1
419.065	124.93
419.273	34.82
419.481	104.45
419.689	0
419.897	47.1
420.105	-63.49
420.313	155.65
420.521	139.26
420.729	43.01
420.937	51.2
421.145	-30.72
421.353	98.3
421.561	178.17
421.769	106.49
421.977	-2.05
422.185	32.77
422.393	104.45
422.601	133.12
422.809	47.1
423.017	55.3
423.224	77.82
423.432	157.69
423.64	28.67
423.848	157.69
424.056	32.77
424.263	65.54
424.471	-34.82
424.679	161.79
424.887	-6.14
425.094	94.21
425.302	137.21
425.51	92.16
425.718	88.06
425.925	26.62
426.133	-38.91
426.341	194.56
426.548	73.73
426.756	88.06
426.964	143.36
427.171	10.24
427.379	12.29
427.586	69.63
427.794	51.2
428.001	102.4
428.209	149.5
428.417	215.04
428.624	169.98
428.832	90.11
429.039	137.21
429.247	53.25
429.454	112.64
429.662	126.97
429.869	49.15
430.076	108.54
430.284	163.84
430.491	145.41
430.699	98.3
430.906	98.3
431.114	120.83
431.321	135.17
431.528	75.77
431.736	86.01
431.943	104.45
432.15	139.26
432.358	172.03
432.565	247.8
432.772	-49.15
432.979	163.84
433.187	63.49
433.394	198.65
433.601	81.92
433.808	210.94
434.016	118.78
434.223	204.8
434.43	239.61
434.637	245.76
434.844	151.55
435.052	174.08
435.259	165.89
435.466	270.33
435.673	286.72
435.88	278.52
436.087	309.24
436.294	348.15
436.501	292.86
436.708	237.56
436.915	161.79
437.122	346.11
437.329	161.79
437.537	262.14
437.743	210.94
437.95	274.43
438.157	339.96
438.364	323.58
438.571	288.76
438.778	305.15
438.985	403.45
439.192	405.5
439.399	362.49
439.606	380.92
439.813	403.45
440.02	479.22
440.227	481.27
440.433	468.98
440.64	387.07
440.847	290.81
441.054	432.12
441.261	559.1
441.467	481.27
441.674	415.74
441.881	524.28
442.088	456.7
442.294	536.57
442.501	530.42
442.708	610.29
442.914	536.57
443.121	655.35
443.328	585.72
443.534	641.01
443.741	649.21
443.948	479.22
444.154	761.84
444.361	890.87
444.568	722.93
444.774	731.12
444.981	684.02
445.187	960.5
445.394	847.86
445.6	792.56
445.807	978.93
446.013	847.86
446.22	960.5
446.426	890.87
446.633	1011.7
446.839	1249.26
447.046	1015.79
447.252	1210.35
447.459	1118.19
447.665	1165.29
447.871	1296.36
448.078	1341.42
448.284	1341.42
448.491	1470.44
448.697	1404.91
448.903	1558.5
449.11	1566.7
449.316	1566.7
449.522	1679.33
449.728	1740.77
449.935	1824.74
450.141	1800.16
450.347	2080.74
450.553	1925.09
450.76	1957.86
450.966	2119.65
451.172	2103.26
451.378	2195.42
451.584	2287.58
451.791	2404.32
451.997	2574.3
452.203	2572.25
452.409	2592.73
452.615	2779.09
452.821	2717.65
453.027	2797.53
453.233	3215.31
453.44	3033.04
453.646	3143.63
453.852	3266.51
454.058	3438.54
454.264	3483.59
454.47	3809.22
454.676	3669.96
454.882	4130.75
455.088	3889.09
455.294	4079.55
455.5	4222.91
455.705	4687.8
455.911	4687.8
456.117	4763.58
456.323	4943.8
456.529	4798.39
456.735	5255.09
456.941	5431.21
457.147	5887.91
457.352	5978.02
457.558	5922.73
457.764	6569.88
457.97	6494.11
458.176	6750.1
458.381	7245.71
458.587	7141.27
458.793	7638.92
458.999	7581.58
459.204	8689.53
459.41	8855.42
459.616	8724.35
459.821	9314.16
460.027	9725.8
460.233	10067.81
460.438	10125.16
460.644	10671.97
460.85	10770.27
461.055	11259.73
461.261	11734.86
461.466	11517.78
461.672	11800.4
461.878	13236.02
462.083	13078.33
462.289	13260.6
462.494	13838.12
462.7	13838.12
462.905	13993.77
463.111	15224.6
463.316	15824.65
463.522	16387.85
463.727	16834.3
463.932	17432.31
464.138	18081.52
464.343	18685.67
464.549	18878.18
464.754	20494.02
464.959	21028.54
465.165	21049.02
465.37	21184.19
465.575	20754.12
465.781	22365.87
465.986	23162.53
466.191	22711.97
466.397	23080.61
466.602	22460.07
466.807	23701.14
467.012	24583.82
467.218	24520.33
467.423	24544.91
467.628	25446.01
467.833	26695.27
468.038	26244.72
468.244	25607.8
468.449	26893.93
468.654	26519.15
468.859	26357.36
469.064	26889.83
469.269	25751.16
