Data from USB4F104151__88__10-34-42-833.txt Node

Date: Wed Feb 26 10:34:42 EST 2025
User: louis
Spectrometer: USB4F10415
Trigger mode: 4
Integration Time (sec): 1.000000E-1
Scans to average: 1
Electric dark correction enabled: true
Nonlinearity correction enabled: false
Boxcar width: 0
XAxis mode: Wavelengths
Number of Pixels in Spectrum: 3648
>>>>>Begin Spectral Data<<<<<
178.204	-322.9
178.424	-322.9
178.644	-322.9
178.864	-441.68
179.084	-355.66
179.304	6.83
179.524	-30.04
179.744	35.5
179.964	19.11
180.184	62.12
180.404	21.16
180.624	-48.47
180.844	-9.56
181.064	-42.32
181.283	25.26
181.503	-42.32
181.723	2.73
181.943	-83.28
182.163	174.76
182.383	-30.04
182.602	12.97
182.822	129.7
183.042	115.37
183.262	-11.61
183.482	17.07
183.701	53.93
183.921	72.36
184.141	-62.8
184.361	66.22
184.58	121.51
184.8	109.22
185.02	33.45
185.239	88.75
185.459	101.03
185.679	150.18
185.898	-79.19
186.118	107.18
186.338	60.07
186.557	117.42
186.777	10.92
186.997	-50.52
187.216	68.27
187.436	182.95
187.655	43.69
187.875	68.27
188.095	10.92
188.314	119.46
188.534	96.94
188.753	58.03
188.973	80.55
189.192	205.48
189.412	4.78
189.631	109.22
189.851	94.89
190.07	150.18
190.29	4.78
190.509	-71
190.729	58.03
190.948	39.59
191.168	258.73
191.387	51.88
191.607	15.02
191.826	49.83
192.045	31.4
192.265	-25.94
192.484	10.92
192.704	117.42
192.923	-71
193.142	137.9
193.362	84.65
193.581	193.19
193.8	98.99
194.02	86.7
194.239	47.79
194.458	154.28
194.678	0.68
194.897	17.07
195.116	33.45
195.335	12.97
195.555	47.79
195.774	31.4
195.993	129.7
196.212	27.31
196.432	2.73
196.651	-48.47
196.87	-3.41
197.089	258.73
197.308	33.45
197.528	121.51
197.747	-56.66
197.966	60.07
198.185	125.61
198.404	6.83
198.623	8.87
198.842	121.51
199.062	70.31
199.281	135.85
199.5	33.45
199.719	78.51
199.938	25.26
200.157	39.59
200.376	-23.89
200.595	168.62
200.814	133.8
201.033	-30.04
201.252	209.58
201.471	47.79
201.69	123.56
201.909	41.64
202.128	98.99
202.347	107.18
202.566	33.45
202.785	-34.13
203.004	-73.04
203.223	242.34
203.442	84.65
203.661	-1.37
203.879	31.4
204.098	166.57
204.317	-62.8
204.536	70.31
204.755	78.51
204.974	164.52
205.193	-11.61
205.411	189.1
205.63	133.8
205.849	15.02
206.068	84.65
206.287	19.11
206.505	125.61
206.724	45.74
206.943	4.78
207.162	-23.89
207.381	80.55
207.599	2.73
207.818	12.97
208.037	-1.37
208.255	62.12
208.474	6.83
208.693	123.56
208.911	23.21
209.13	72.36
209.349	98.99
209.567	158.38
209.786	109.22
210.005	88.75
210.223	33.45
210.442	-75.09
210.661	-5.46
210.879	35.5
211.098	-7.51
211.316	92.84
211.535	98.99
211.753	25.26
211.972	-11.61
212.191	-3.41
212.409	17.07
212.628	98.99
212.846	29.35
213.065	-21.85
213.283	139.94
213.502	96.94
213.72	-48.47
213.938	88.75
214.157	8.87
214.375	154.28
214.594	58.03
214.812	55.98
215.031	76.46
215.249	70.31
215.467	76.46
215.686	10.92
215.904	47.79
216.122	88.75
216.341	86.7
216.559	35.5
216.778	103.08
216.996	178.86
217.214	41.64
217.432	21.16
217.651	-40.28
217.869	31.4
218.087	-25.94
218.306	12.97
218.524	12.97
218.742	55.98
218.96	109.22
219.179	-46.42
219.397	12.97
219.615	225.96
219.833	92.84
220.051	-60.76
220.27	35.5
220.488	182.95
220.706	111.27
220.924	37.55
221.142	12.97
221.36	94.89
221.578	78.51
221.796	17.07
222.015	117.42
222.233	8.87
222.451	193.19
222.669	-38.23
222.887	70.31
223.105	-52.56
223.323	4.78
223.541	0.68
223.759	31.4
223.977	68.27
224.195	164.52
224.413	74.41
224.631	105.13
224.849	109.22
225.067	205.48
225.285	-25.94
225.503	25.26
225.721	-46.42
225.939	17.07
226.157	21.16
226.375	205.48
226.592	62.12
226.81	62.12
227.028	121.51
227.246	150.18
227.464	35.5
227.682	96.94
227.9	101.03
228.117	94.89
228.335	74.41
228.553	62.12
228.771	31.4
228.989	66.22
229.206	64.17
229.424	27.31
229.642	10.92
229.86	-5.46
230.077	125.61
230.295	41.64
230.513	107.18
230.731	160.42
230.948	182.95
231.166	156.33
231.384	25.26
231.601	45.74
231.819	185
232.037	-21.85
232.254	-13.65
232.472	37.55
232.689	-36.18
232.907	205.48
233.125	-87.38
233.342	-27.99
233.56	31.4
233.777	23.21
233.995	33.45
234.213	141.99
234.43	92.84
234.648	51.88
234.865	60.07
235.083	98.99
235.3	72.36
235.518	88.75
235.735	105.13
235.953	43.69
236.17	10.92
236.388	23.21
236.605	78.51
236.822	129.7
237.04	127.66
237.257	60.07
237.475	-7.51
237.692	23.21
237.909	109.22
238.127	-13.65
238.344	72.36
238.562	25.26
238.779	-17.75
238.996	-32.08
239.214	-17.75
239.431	135.85
239.648	37.55
239.865	31.4
240.083	144.04
240.3	-89.43
240.517	37.55
240.735	19.11
240.952	154.28
241.169	146.09
241.386	127.66
241.603	39.59
241.821	-58.71
242.038	101.03
242.255	164.52
242.472	-23.89
242.689	39.59
242.907	72.36
243.124	58.03
243.341	64.17
243.558	98.99
243.775	21.16
243.992	-95.57
244.209	94.89
244.426	103.08
244.643	117.42
244.86	-25.94
245.078	41.64
245.295	92.84
245.512	39.59
245.729	41.64
245.946	113.32
246.163	-5.46
246.38	21.16
246.597	133.8
246.814	60.07
247.031	-9.56
247.248	23.21
247.464	74.41
247.681	43.69
247.898	74.41
248.115	-3.41
248.332	19.11
248.549	176.81
248.766	148.14
248.983	150.18
249.2	88.75
249.417	113.32
249.633	-3.41
249.85	74.41
250.067	70.31
250.284	41.64
250.501	94.89
250.717	137.9
250.934	-50.52
251.151	82.6
251.368	-21.85
251.585	92.84
251.801	62.12
252.018	-13.65
252.235	86.7
252.451	-91.48
252.668	101.03
252.885	150.18
253.102	43.69
253.318	-58.71
253.535	2.73
253.752	45.74
253.968	58.03
254.185	31.4
254.401	60.07
254.618	113.32
254.835	12.97
255.051	123.56
255.268	127.66
255.484	-1.37
255.701	10.92
255.917	158.38
256.134	-5.46
256.351	31.4
256.567	12.97
256.784	47.79
257	-11.61
257.217	88.75
257.433	80.55
257.65	6.83
257.866	86.7
258.082	-50.52
258.299	-44.37
258.515	107.18
258.732	-23.89
258.948	29.35
259.165	96.94
259.381	47.79
259.597	101.03
259.814	-3.41
260.03	23.21
260.246	25.26
260.463	113.32
260.679	125.61
260.895	158.38
261.112	17.07
261.328	-30.04
261.544	-1.37
261.761	217.77
261.977	-30.04
262.193	17.07
262.409	127.66
262.626	64.17
262.842	43.69
263.058	37.55
263.274	148.14
263.49	55.98
263.707	78.51
263.923	10.92
264.139	-15.7
264.355	86.7
264.571	125.61
264.787	80.55
265.004	135.85
265.22	125.61
265.436	-124.24
265.652	88.75
265.868	45.74
266.084	-5.46
266.3	39.59
266.516	12.97
266.732	17.07
266.948	86.7
267.164	90.79
267.38	139.94
267.596	74.41
267.812	96.94
268.028	92.84
268.244	19.11
268.46	43.69
268.676	0.68
268.892	21.16
269.108	47.79
269.324	23.21
269.54	47.79
269.756	119.46
269.972	-17.75
270.188	82.6
270.403	-23.89
270.619	53.93
270.835	111.27
271.051	101.03
271.267	-60.76
271.483	25.26
271.698	141.99
271.914	8.87
272.13	60.07
272.346	70.31
272.562	31.4
272.777	107.18
272.993	-9.56
273.209	-11.61
273.425	139.94
273.64	-30.04
273.856	111.27
274.072	19.11
274.287	-50.52
274.503	51.88
274.719	88.75
274.934	-32.08
275.15	31.4
275.366	60.07
275.581	19.11
275.797	74.41
276.012	62.12
276.228	47.79
276.444	60.07
276.659	141.99
276.875	-11.61
277.09	21.16
277.306	8.87
277.521	64.17
277.737	-9.56
277.952	70.31
278.168	31.4
278.383	58.03
278.599	47.79
278.814	76.46
279.03	53.93
279.245	264.87
279.461	90.79
279.676	70.31
279.892	12.97
280.107	-46.42
280.322	0.68
280.538	25.26
280.753	10.92
280.969	98.99
281.184	21.16
281.399	154.28
281.615	4.78
281.83	121.51
282.045	-32.08
282.26	-30.04
282.476	68.27
282.691	119.46
282.906	-23.89
283.122	74.41
283.337	27.31
283.552	33.45
283.767	-7.51
283.983	62.12
284.198	35.5
284.413	72.36
284.628	-64.85
284.843	49.83
285.058	62.12
285.274	49.83
285.489	35.5
285.704	125.61
285.919	-38.23
286.134	25.26
286.349	60.07
286.564	15.02
286.779	113.32
286.995	43.69
287.21	-56.66
287.425	92.84
287.64	96.94
287.855	105.13
288.07	-17.75
288.285	127.66
288.5	117.42
288.715	123.56
288.93	15.02
289.145	123.56
289.36	178.86
289.575	53.93
289.79	137.9
290.004	4.78
290.219	127.66
290.434	0.68
290.649	-7.51
290.864	0.68
291.079	-17.75
291.294	12.97
291.509	8.87
291.724	-44.37
291.938	80.55
292.153	170.66
292.368	66.22
292.583	23.21
292.798	6.83
293.012	51.88
293.227	90.79
293.442	6.83
293.657	98.99
293.871	103.08
294.086	27.31
294.301	123.56
294.516	72.36
294.73	37.55
294.945	-50.52
295.16	129.7
295.374	107.18
295.589	117.42
295.804	49.83
296.018	76.46
296.233	131.75
296.447	62.12
296.662	-7.51
296.877	86.7
297.091	55.98
297.306	39.59
297.52	10.92
297.735	127.66
297.949	96.94
298.164	125.61
298.378	47.79
298.593	-34.13
298.807	37.55
299.022	90.79
299.236	150.18
299.451	90.79
299.665	35.5
299.88	39.59
300.094	74.41
300.309	58.03
300.523	96.94
300.737	78.51
300.952	62.12
301.166	12.97
301.381	-62.8
301.595	49.83
301.809	53.93
302.024	37.55
302.238	-30.04
302.452	160.42
302.667	-21.85
302.881	232.1
303.095	111.27
303.309	68.27
303.524	-11.61
303.738	41.64
303.952	68.27
304.166	47.79
304.381	-83.28
304.595	207.53
304.809	47.79
305.023	31.4
305.237	-9.56
305.452	-34.13
305.666	84.65
305.88	80.55
306.094	115.37
306.308	111.27
306.522	76.46
306.736	135.85
306.95	88.75
307.164	19.11
307.379	92.84
307.593	60.07
307.807	148.14
308.021	111.27
308.235	105.13
308.449	-17.75
308.663	86.7
308.877	199.34
309.091	58.03
309.305	70.31
309.519	-34.13
309.733	72.36
309.947	-68.95
310.161	58.03
310.374	96.94
310.588	84.65
310.802	37.55
311.016	-30.04
311.23	101.03
311.444	-56.66
311.658	47.79
311.872	80.55
312.085	94.89
312.299	135.85
312.513	101.03
312.727	12.97
312.941	-11.61
313.154	43.69
313.368	23.21
313.582	17.07
313.796	33.45
314.009	84.65
314.223	228.01
314.437	-11.61
314.651	166.57
314.864	25.26
315.078	-7.51
315.292	-1.37
315.505	-15.7
315.719	51.88
315.933	94.89
316.146	31.4
316.36	78.51
316.573	107.18
316.787	86.7
317.001	107.18
317.214	6.83
317.428	62.12
317.641	-3.41
317.855	58.03
318.068	31.4
318.282	123.56
318.495	242.34
318.709	64.17
318.922	84.65
319.136	92.84
319.349	195.24
319.563	-9.56
319.776	96.94
319.99	-58.71
320.203	39.59
320.417	58.03
320.63	111.27
320.843	191.14
321.057	51.88
321.27	68.27
321.483	47.79
321.697	164.52
321.91	27.31
322.124	101.03
322.337	80.55
322.55	-50.52
322.763	135.85
322.977	-1.37
323.19	12.97
323.403	23.21
323.617	76.46
323.83	113.32
324.043	17.07
324.256	8.87
324.469	-54.61
324.683	70.31
324.896	15.02
325.109	64.17
325.322	-71
325.535	43.69
325.748	262.82
325.962	17.07
326.175	0.68
326.388	86.7
326.601	135.85
326.814	6.83
327.027	80.55
327.24	195.24
327.453	-107.86
327.666	45.74
327.879	27.31
328.092	60.07
328.305	64.17
328.518	51.88
328.731	27.31
328.944	47.79
329.157	51.88
329.37	10.92
329.583	197.29
329.796	211.62
330.009	-83.28
330.222	121.51
330.435	119.46
330.648	45.74
330.861	27.31
331.073	70.31
331.286	127.66
331.499	4.78
331.712	23.21
331.925	88.75
332.138	90.79
332.35	174.76
332.563	21.16
332.776	137.9
332.989	8.87
333.202	64.17
333.414	-13.65
333.627	-23.89
333.84	15.02
334.053	84.65
334.265	41.64
334.478	-15.7
334.691	-9.56
334.903	45.74
335.116	15.02
335.329	152.23
335.541	21.16
335.754	195.24
335.966	21.16
336.179	58.03
336.392	-30.04
336.604	47.79
336.817	178.86
337.029	70.31
337.242	-13.65
337.454	76.46
337.667	62.12
337.88	127.66
338.092	35.5
338.305	94.89
338.517	21.16
338.729	121.51
338.942	127.66
339.154	-1.37
339.367	-85.33
339.579	115.37
339.792	8.87
340.004	-5.46
340.217	53.93
340.429	119.46
340.641	-21.85
340.854	12.97
341.066	-7.51
341.278	88.75
341.491	164.52
341.703	4.78
341.915	-3.41
342.128	78.51
342.34	86.7
342.552	-13.65
342.764	47.79
342.977	68.27
343.189	152.23
343.401	45.74
343.613	-46.42
343.826	55.98
344.038	-66.9
344.25	21.16
344.462	-21.85
344.674	111.27
344.886	29.35
345.099	39.59
345.311	107.18
345.523	-11.61
345.735	-68.95
345.947	60.07
346.159	94.89
346.371	105.13
346.583	-38.23
346.795	123.56
347.007	2.73
347.219	64.17
347.431	4.78
347.643	164.52
347.855	-3.41
348.067	152.23
348.279	-73.04
348.491	105.13
348.703	43.69
348.915	66.22
349.127	-62.8
349.339	105.13
349.551	55.98
349.763	111.27
349.975	103.08
350.187	105.13
350.399	96.94
350.61	144.04
350.822	80.55
351.034	80.55
351.246	84.65
351.458	135.85
351.669	29.35
351.881	111.27
352.093	74.41
352.305	158.38
352.517	170.66
352.728	137.9
352.94	70.31
353.152	86.7
353.363	-95.57
353.575	119.46
353.787	129.7
353.999	39.59
354.21	217.77
354.422	47.79
354.633	23.21
354.845	53.93
355.057	90.79
355.268	115.37
355.48	117.42
355.692	-68.95
355.903	68.27
356.115	-34.13
356.326	-73.04
356.538	127.66
356.749	80.55
356.961	111.27
357.172	19.11
357.384	-13.65
357.595	221.86
357.807	43.69
358.018	58.03
358.23	29.35
358.441	103.08
358.653	72.36
358.864	-11.61
359.075	15.02
359.287	105.13
359.498	107.18
359.709	86.7
359.921	12.97
360.132	60.07
360.344	137.9
360.555	19.11
360.766	101.03
360.977	15.02
361.189	117.42
361.4	80.55
361.611	74.41
361.823	88.75
362.034	-50.52
362.245	-50.52
362.456	37.55
362.667	66.22
362.879	-32.08
363.09	-25.94
363.301	41.64
363.512	113.32
363.723	33.45
363.935	12.97
364.146	90.79
364.357	103.08
364.568	62.12
364.779	-23.89
364.99	156.33
365.201	-11.61
365.412	68.27
365.623	-11.61
365.834	68.27
366.045	76.46
366.256	135.85
366.467	84.65
366.678	74.41
366.889	12.97
367.1	-36.18
367.311	70.31
367.522	-3.41
367.733	68.27
367.944	-11.61
368.155	-25.94
368.366	148.14
368.577	68.27
368.788	117.42
368.999	-32.08
369.209	4.78
369.42	205.48
369.631	217.77
369.842	92.84
370.053	39.59
370.264	160.42
370.474	15.02
370.685	127.66
370.896	2.73
371.107	107.18
371.317	109.22
371.528	51.88
371.739	80.55
371.95	66.22
372.16	96.94
372.371	6.83
372.582	58.03
372.792	74.41
373.003	78.51
373.214	-44.37
373.424	74.41
373.635	19.11
373.846	141.99
374.056	0.68
374.267	55.98
374.477	15.02
374.688	2.73
374.898	148.14
375.109	125.61
375.319	64.17
375.53	98.99
375.74	121.51
375.951	-46.42
376.161	101.03
376.372	117.42
376.582	37.55
376.793	23.21
377.003	-114
377.214	33.45
377.424	49.83
377.635	88.75
377.845	-68.95
378.055	152.23
378.266	-81.24
378.476	66.22
378.686	47.79
378.897	47.79
379.107	27.31
379.317	70.31
379.528	19.11
379.738	41.64
379.948	45.74
380.158	66.22
380.369	10.92
380.579	84.65
380.789	88.75
380.999	127.66
381.21	131.75
381.42	193.19
381.63	35.5
381.84	84.65
382.05	53.93
382.261	144.04
382.471	70.31
382.681	-50.52
382.891	207.53
383.101	0.68
383.311	4.78
383.521	12.97
383.731	94.89
383.941	29.35
384.151	88.75
384.361	10.92
384.571	123.56
384.781	-1.37
384.991	223.91
385.201	115.37
385.411	92.84
385.621	76.46
385.831	98.99
386.041	68.27
386.251	29.35
386.461	123.56
386.671	17.07
386.881	0.68
387.091	39.59
387.301	115.37
387.511	66.22
387.72	58.03
387.93	113.32
388.14	49.83
388.35	115.37
388.56	193.19
388.769	84.65
388.979	12.97
389.189	-27.99
389.399	29.35
389.609	74.41
389.818	129.7
390.028	66.22
390.238	125.61
390.447	39.59
390.657	68.27
390.867	21.16
391.076	-58.71
391.286	51.88
391.496	-13.65
391.705	60.07
391.915	144.04
392.125	129.7
392.334	41.64
392.544	96.94
392.753	-11.61
392.963	-36.18
393.172	29.35
393.382	-81.24
393.591	96.94
393.801	41.64
394.01	211.62
394.22	139.94
394.429	0.68
394.639	80.55
394.848	88.75
395.058	76.46
395.267	15.02
395.477	66.22
395.686	78.51
395.895	228.01
396.105	197.29
396.314	109.22
396.524	25.26
396.733	60.07
396.942	103.08
397.152	105.13
397.361	101.03
397.57	115.37
397.78	74.41
397.989	84.65
398.198	199.34
398.407	35.5
398.617	21.16
398.826	35.5
399.035	53.93
399.244	76.46
399.453	-9.56
399.663	-64.85
399.872	58.03
400.081	-50.52
400.29	144.04
400.499	51.88
400.708	72.36
400.917	55.98
401.127	82.6
401.336	66.22
401.545	107.18
401.754	86.7
401.963	146.09
402.172	12.97
402.381	-13.65
402.59	10.92
402.799	47.79
403.008	107.18
403.217	80.55
403.426	76.46
403.635	-97.62
403.844	27.31
404.053	4.78
404.262	103.08
404.471	129.7
404.68	60.07
404.888	119.46
405.097	53.93
405.306	76.46
405.515	29.35
405.724	109.22
405.933	158.38
406.142	60.07
406.35	111.27
406.559	43.69
406.768	8.87
406.977	242.34
407.185	129.7
407.394	119.46
407.603	-48.47
407.812	41.64
408.02	139.94
408.229	53.93
408.438	78.51
408.646	-120.15
408.855	60.07
409.064	84.65
409.272	-23.89
409.481	72.36
409.69	-48.47
409.898	21.16
410.107	80.55
410.315	74.41
410.524	-32.08
410.733	2.73
410.941	51.88
411.15	107.18
411.358	66.22
411.567	154.28
411.775	37.55
411.984	-5.46
412.192	115.37
412.401	21.16
412.609	191.14
412.818	127.66
413.026	55.98
413.234	-25.94
413.443	119.46
413.651	31.4
413.86	27.31
414.068	131.75
414.276	205.48
414.485	8.87
414.693	191.14
414.901	211.62
415.11	127.66
415.318	70.31
415.526	19.11
415.734	105.13
415.943	23.21
416.151	144.04
416.359	-13.65
416.567	74.41
416.776	115.37
416.984	137.9
417.192	191.14
417.4	23.21
417.608	33.45
417.817	27.31
418.025	103.08
418.233	148.14
418.441	-46.42
418.649	-44.37
418.857	55.98
419.065	162.47
419.273	23.21
419.481	37.55
419.689	-27.99
419.897	-30.04
420.105	2.73
420.313	139.94
420.521	178.86
420.729	92.84
420.937	-7.51
421.145	-21.85
421.353	135.85
421.561	168.62
421.769	47.79
421.977	78.51
422.185	53.93
422.393	15.02
422.601	176.81
422.809	109.22
423.017	33.45
423.224	107.18
423.432	86.7
423.64	53.93
423.848	117.42
424.056	64.17
424.263	74.41
424.471	51.88
424.679	172.71
424.887	53.93
425.094	72.36
425.302	-11.61
425.51	-9.56
425.718	146.09
425.925	78.51
426.133	-13.65
426.341	182.95
426.548	101.03
426.756	15.02
426.964	197.29
427.171	17.07
427.379	62.12
427.586	53.93
427.794	107.18
428.001	144.04
428.209	64.17
428.417	123.56
428.624	88.75
428.832	168.62
429.039	53.93
429.247	43.69
429.454	137.9
429.662	195.24
429.869	146.09
430.076	90.79
430.284	39.59
430.491	219.82
430.699	160.42
430.906	199.34
431.114	185
431.321	90.79
431.528	160.42
431.736	82.6
431.943	180.9
432.15	109.22
432.358	185
432.565	232.1
432.772	-66.9
432.979	131.75
433.187	55.98
433.394	174.76
433.601	35.5
433.808	154.28
434.016	148.14
434.223	217.77
434.43	234.15
434.637	215.72
434.844	248.49
435.052	187.05
435.259	258.73
435.466	217.77
435.673	219.82
435.88	207.53
436.087	248.49
436.294	287.4
436.501	211.62
436.708	262.82
436.915	279.21
437.122	287.4
437.329	242.34
437.537	256.68
437.743	242.34
437.95	389.8
438.157	221.86
438.364	318.12
438.571	320.17
438.778	330.41
438.985	389.8
439.192	391.84
439.399	369.32
439.606	326.31
439.813	406.18
440.02	451.24
440.227	502.44
440.433	465.57
440.64	445.09
440.847	346.79
441.054	436.9
441.261	561.83
441.467	484
441.674	393.89
441.881	436.9
442.088	500.39
442.294	576.16
442.501	572.07
442.708	651.94
442.914	639.65
443.121	649.89
443.328	635.55
443.534	709.28
443.741	651.94
443.948	682.66
444.154	703.14
444.361	895.64
444.568	690.85
444.774	809.63
444.981	684.7
445.187	846.49
445.394	846.49
445.6	817.82
445.807	967.32
446.013	899.74
446.22	897.69
446.426	1043.1
446.633	1016.48
446.839	1239.7
447.046	1010.33
447.252	1129.11
447.459	1204.89
447.665	1206.94
447.871	1360.53
448.078	1430.16
448.284	1354.39
448.491	1555.09
448.697	1495.7
448.903	1649.3
449.11	1471.12
449.316	1510.04
449.522	1747.6
449.728	1749.65
449.935	1806.99
450.141	1899.15
450.347	1991.31
450.553	1952.4
450.76	2060.94
450.966	2099.85
451.172	2124.43
451.378	2306.7
451.584	2296.46
451.791	2591.36
451.997	2501.25
452.203	2579.08
452.409	2747.01
452.615	2785.92
452.821	2738.82
453.027	2794.11
453.233	3023.48
453.44	3068.54
453.646	3117.69
453.852	3402.36
454.058	3502.71
454.264	3613.3
454.47	3762.8
454.676	3873.39
454.882	4366.95
455.088	3973.74
455.294	4139.63
455.5	4401.77
455.705	4723.3
455.911	4549.22
456.117	4858.46
456.323	4989.53
456.529	5020.25
456.735	5479
456.941	5661.27
457.147	5890.64
457.352	5917.26
457.558	6132.3
457.764	6511.18
457.97	6842.95
458.176	7117.37
458.381	7430.71
458.587	7432.76
458.793	7840.31
458.999	7733.81
459.204	8903.2
459.41	9114.14
459.616	8931.87
459.821	9556.5
460.027	9998.87
460.233	10461.71
460.438	10576.39
460.644	11004.42
460.85	11110.91
461.055	11371.01
461.261	12093.94
461.466	11934.2
461.672	11887.09
461.878	13482.46
462.083	13509.08
462.289	13490.65
462.494	14209.49
462.7	14379.47
462.905	14420.43
463.111	15403.46
463.316	16480.69
463.522	16712.11
463.727	17170.85
463.932	18133.4
464.138	18313.62
464.343	19444.1
464.549	19362.18
464.754	20556.14
464.959	21084.52
465.165	21576.03
465.37	21340.52
465.575	21383.52
465.781	22767.95
465.986	23570.75
466.191	23376.2
466.397	23449.92
466.602	22729.04
466.807	23828.8
467.012	24762.67
467.218	24963.37
467.423	24887.6
467.628	25807.14
467.833	27091.21
468.038	26368.28
468.244	26091.8
468.449	27658.5
468.654	26812.69
468.859	26882.32
