Data from USB4F104151__37__10-24-45-238.txt Node

Date: Wed Feb 26 10:24:45 EST 2025
User: louis
Spectrometer: USB4F10415
Trigger mode: 4
Integration Time (sec): 1.000000E-1
Scans to average: 1
Electric dark correction enabled: true
Nonlinearity correction enabled: false
Boxcar width: 0
XAxis mode: Wavelengths
Number of Pixels in Spectrum: 3648
>>>>>Begin Spectral Data<<<<<
178.204	-428.88
178.424	-428.88
178.644	-428.88
178.864	-336.72
179.084	-496.46
179.304	-4.95
179.524	27.82
179.744	3.24
179.964	66.73
180.184	-11.09
180.404	25.77
180.624	5.29
180.844	-50
181.064	-80.72
181.283	42.15
181.503	-4.95
181.723	-19.29
181.943	-146.26
182.163	160.94
182.383	-25.43
182.602	74.92
182.822	150.7
183.042	85.16
183.262	-47.96
183.482	5.29
183.701	27.82
183.921	79.02
184.141	-37.72
184.361	54.44
184.58	72.87
184.8	-2.9
185.02	-15.19
185.239	74.92
185.459	40.11
185.679	119.98
185.898	-97.11
186.118	85.16
186.338	46.25
186.557	93.35
186.777	-9.05
186.997	3.24
187.216	3.24
187.436	181.42
187.655	85.16
187.875	93.35
188.095	-23.38
188.314	48.3
188.534	117.93
188.753	-35.67
188.973	179.37
189.192	177.32
189.412	31.91
189.631	-4.95
189.851	31.91
190.07	136.36
190.29	-84.82
190.509	-117.59
190.729	19.63
190.948	93.35
191.168	230.57
191.387	38.06
191.607	58.54
191.826	56.49
192.045	85.16
192.265	64.68
192.484	46.25
192.704	46.25
192.923	-11.09
193.142	140.46
193.362	126.12
193.581	122.02
193.8	70.83
194.02	128.17
194.239	-7
194.458	44.2
194.678	-23.38
194.897	-68.44
195.116	-52.05
195.335	21.67
195.555	13.48
195.774	-54.1
195.993	144.55
196.212	23.72
196.432	5.29
196.651	-37.72
196.87	56.49
197.089	158.89
197.308	60.59
197.528	27.82
197.747	-47.96
197.966	115.88
198.185	58.54
198.404	-23.38
198.623	56.49
198.842	56.49
199.062	48.3
199.281	99.5
199.5	3.24
199.719	36.01
199.938	-35.67
200.157	91.31
200.376	97.45
200.595	103.59
200.814	23.72
201.033	9.39
201.252	101.55
201.471	46.25
201.69	97.45
201.909	7.34
202.128	83.11
202.347	162.98
202.566	-2.9
202.785	-54.1
203.004	-37.72
203.223	193.7
203.442	19.63
203.661	-0.85
203.879	66.73
204.098	111.78
204.317	-60.24
204.536	85.16
204.755	95.4
204.974	109.74
205.193	-9.05
205.411	105.64
205.63	64.68
205.849	62.63
206.068	33.96
206.287	-7
206.505	70.83
206.724	15.53
206.943	19.63
207.162	-0.85
207.381	33.96
207.599	54.44
207.818	87.21
208.037	-76.63
208.255	21.67
208.474	64.68
208.693	56.49
208.911	40.11
209.13	74.92
209.349	29.87
209.567	85.16
209.786	58.54
210.005	72.87
210.223	58.54
210.442	-68.44
210.661	11.43
210.879	58.54
211.098	44.2
211.316	-35.67
211.535	81.07
211.753	29.87
211.972	27.82
212.191	9.39
212.409	33.96
212.628	58.54
212.846	-37.72
213.065	13.48
213.283	183.46
213.502	56.49
213.72	46.25
213.938	58.54
214.157	48.3
214.375	122.02
214.594	1.19
214.812	58.54
215.031	29.87
215.249	58.54
215.467	36.01
215.686	-27.48
215.904	91.31
216.122	42.15
216.341	142.5
216.559	23.72
216.778	54.44
216.996	134.31
217.214	-23.38
217.432	-39.76
217.651	-7
217.869	136.36
218.087	9.39
218.306	-19.29
218.524	60.59
218.742	7.34
218.96	101.55
219.179	-31.57
219.397	23.72
219.615	210.09
219.833	50.35
220.051	-21.33
220.27	109.74
220.488	126.12
220.706	21.67
220.924	-41.81
221.142	-74.58
221.36	58.54
221.578	58.54
221.796	29.87
222.015	-23.38
222.233	-19.29
222.451	89.26
222.669	-80.72
222.887	87.21
223.105	-62.29
223.323	-21.33
223.541	-64.34
223.759	74.92
223.977	79.02
224.195	148.65
224.413	132.26
224.631	38.06
224.849	36.01
225.067	144.55
225.285	1.19
225.503	-17.24
225.721	-109.4
225.939	46.25
226.157	9.39
226.375	267.43
226.592	-19.29
226.81	46.25
227.028	74.92
227.246	68.78
227.464	79.02
227.682	128.17
227.9	25.77
228.117	15.53
228.335	66.73
228.553	124.07
228.771	13.48
228.989	48.3
229.206	31.91
229.424	-37.72
229.642	-29.52
229.86	-68.44
230.077	138.41
230.295	70.83
230.513	99.5
230.731	31.91
230.948	187.56
231.166	160.94
231.384	13.48
231.601	-29.52
231.819	150.7
232.037	-0.85
232.254	-27.48
232.472	-17.24
232.689	25.77
232.907	124.07
233.125	-17.24
233.342	-105.3
233.56	-39.76
233.777	-33.62
233.995	-11.09
234.213	99.5
234.43	38.06
234.648	36.01
234.865	-11.09
235.083	79.02
235.3	38.06
235.518	119.98
235.735	183.46
235.953	126.12
236.17	-13.14
236.388	-0.85
236.605	38.06
236.822	74.92
237.04	107.69
237.257	17.58
237.475	-97.11
237.692	21.67
237.909	85.16
238.127	-43.86
238.344	91.31
238.562	44.2
238.779	-13.14
238.996	-17.24
239.214	23.72
239.431	64.68
239.648	33.96
239.865	40.11
240.083	17.58
240.3	-43.86
240.517	21.67
240.735	44.2
240.952	124.07
241.169	36.01
241.386	7.34
241.603	-21.33
241.821	-78.68
242.038	122.02
242.255	124.07
242.472	-45.91
242.689	31.91
242.907	85.16
243.124	58.54
243.341	-4.95
243.558	-23.38
243.775	-80.72
243.992	9.39
244.209	56.49
244.426	134.31
244.643	56.49
244.86	-31.57
245.078	154.79
245.295	17.58
245.512	72.87
245.729	-4.95
245.946	42.15
246.163	48.3
246.38	-4.95
246.597	122.02
246.814	-9.05
247.031	25.77
247.248	33.96
247.464	42.15
247.681	15.53
247.898	38.06
248.115	-7
248.332	-56.15
248.549	89.26
248.766	171.18
248.983	46.25
249.2	72.87
249.417	85.16
249.633	-13.14
249.85	-2.9
250.067	38.06
250.284	85.16
250.501	66.73
250.717	105.64
250.934	-13.14
251.151	5.29
251.368	64.68
251.585	91.31
251.801	93.35
252.018	-56.15
252.235	23.72
252.451	-123.73
252.668	-0.85
252.885	162.98
253.102	31.91
253.318	-11.09
253.535	-2.9
253.752	1.19
253.968	-25.43
254.185	-45.91
254.401	29.87
254.618	113.83
254.835	-11.09
255.051	148.65
255.268	11.43
255.484	66.73
255.701	9.39
255.917	44.2
256.134	-15.19
256.351	17.58
256.567	-95.06
256.784	13.48
257	-74.58
257.217	72.87
257.433	50.35
257.65	122.02
257.866	64.68
258.082	-93.01
258.299	-88.92
258.515	-23.38
258.732	124.07
258.948	-9.05
259.165	58.54
259.381	-86.87
259.597	23.72
259.814	21.67
260.03	11.43
260.246	-64.34
260.463	89.26
260.679	160.94
260.895	-11.09
261.112	5.29
261.328	48.3
261.544	-39.76
261.761	134.31
261.977	-35.67
262.193	-11.09
262.409	36.01
262.626	91.31
262.842	13.48
263.058	-33.62
263.274	107.69
263.49	38.06
263.707	95.4
263.923	76.97
264.139	-7
264.355	15.53
264.571	175.27
264.787	13.48
265.004	70.83
265.22	-45.91
265.436	-52.05
265.652	-21.33
265.868	38.06
266.084	-68.44
266.3	38.06
266.516	-23.38
266.732	62.63
266.948	-41.81
267.164	-2.9
267.38	27.82
267.596	42.15
267.812	212.14
268.028	58.54
268.244	-19.29
268.46	81.07
268.676	17.58
268.892	60.59
269.108	-23.38
269.324	9.39
269.54	5.29
269.756	126.12
269.972	-56.15
270.188	81.07
270.403	-117.59
270.619	5.29
270.835	101.55
271.051	-17.24
271.267	-0.85
271.483	19.63
271.698	119.98
271.914	79.02
272.13	40.11
272.346	3.24
272.562	29.87
272.777	165.03
272.993	-70.48
273.209	-17.24
273.425	23.72
273.64	-62.29
273.856	95.4
274.072	-13.14
274.287	-115.54
274.503	87.21
274.719	74.92
274.934	-35.67
275.15	-115.54
275.366	70.83
275.581	-9.05
275.797	-76.63
276.012	7.34
276.228	-62.29
276.444	17.58
276.659	91.31
276.875	1.19
277.09	19.63
277.306	-37.72
277.521	64.68
277.737	29.87
277.952	85.16
278.168	38.06
278.383	46.25
278.599	19.63
278.814	40.11
279.03	-2.9
279.245	113.83
279.461	-41.81
279.676	72.87
279.892	-68.44
280.107	11.43
280.322	27.82
280.538	70.83
280.753	-13.14
280.969	76.97
281.184	-35.67
281.399	158.89
281.615	70.83
281.83	7.34
282.045	-19.29
282.26	1.19
282.476	38.06
282.691	66.73
282.906	33.96
283.122	52.39
283.337	-47.96
283.552	25.77
283.767	-0.85
283.983	103.59
284.198	54.44
284.413	-4.95
284.628	-0.85
284.843	-13.14
285.058	119.98
285.274	-52.05
285.489	-76.63
285.704	85.16
285.919	-15.19
286.134	21.67
286.349	-21.33
286.564	-70.48
286.779	208.04
286.995	31.91
287.21	-45.91
287.425	60.59
287.64	7.34
287.855	31.91
288.07	-93.01
288.285	97.45
288.5	113.83
288.715	42.15
288.93	36.01
289.145	1.19
289.36	140.46
289.575	3.24
289.79	83.11
290.004	31.91
290.219	89.26
290.434	-29.52
290.649	-19.29
290.864	-33.62
291.079	-0.85
291.294	33.96
291.509	27.82
291.724	68.78
291.938	42.15
292.153	58.54
292.368	13.48
292.583	25.77
292.798	134.31
293.012	19.63
293.227	115.88
293.442	-29.52
293.657	158.89
293.871	126.12
294.086	-2.9
294.301	128.17
294.516	142.5
294.73	15.53
294.945	-62.29
295.16	31.91
295.374	142.5
295.589	13.48
295.804	-60.24
296.018	-4.95
296.233	62.63
296.447	122.02
296.662	17.58
296.877	144.55
297.091	119.98
297.306	-74.58
297.52	50.35
297.735	-7
297.949	40.11
298.164	17.58
298.378	42.15
298.593	-21.33
298.807	-21.33
299.022	11.43
299.236	152.74
299.451	-25.43
299.665	-21.33
299.88	48.3
300.094	29.87
300.309	-33.62
300.523	70.83
300.737	-4.95
300.952	72.87
301.166	105.64
301.381	-17.24
301.595	3.24
301.809	-7
302.024	42.15
302.238	-41.81
302.452	83.11
302.667	42.15
302.881	70.83
303.095	27.82
303.309	76.97
303.524	15.53
303.738	70.83
303.952	-29.52
304.166	29.87
304.381	-133.97
304.595	173.22
304.809	62.63
305.023	7.34
305.237	13.48
305.452	48.3
305.666	33.96
305.88	11.43
306.094	124.07
306.308	46.25
306.522	-2.9
306.736	74.92
306.95	160.94
307.164	17.58
307.379	21.67
307.593	103.59
307.807	122.02
308.021	76.97
308.235	60.59
308.449	-45.91
308.663	-52.05
308.877	275.62
309.091	83.11
309.305	122.02
309.519	-136.02
309.733	93.35
309.947	-7
310.161	144.55
310.374	89.26
310.588	93.35
310.802	-56.15
311.016	17.58
311.23	29.87
311.444	-41.81
311.658	40.11
311.872	79.02
312.085	152.74
312.299	68.78
312.513	220.33
312.727	11.43
312.941	-47.96
313.154	76.97
313.368	76.97
313.582	-11.09
313.796	60.59
314.009	-7
314.223	140.46
314.437	31.91
314.651	132.26
314.864	74.92
315.078	-39.76
315.292	-111.44
315.505	-23.38
315.719	48.3
315.933	115.88
316.146	-21.33
316.36	-56.15
316.573	138.41
316.787	9.39
317.001	81.07
317.214	25.77
317.428	46.25
317.641	-58.2
317.855	-78.68
318.068	17.58
318.282	-11.09
318.495	46.25
318.709	42.15
318.922	66.73
319.136	152.74
319.349	62.63
319.563	-29.52
319.776	9.39
319.99	-127.83
320.203	107.69
320.417	31.91
320.63	101.55
320.843	191.66
321.057	36.01
321.27	11.43
321.483	76.97
321.697	183.46
321.91	91.31
322.124	9.39
322.337	44.2
322.55	-31.57
322.763	13.48
322.977	38.06
323.19	-62.29
323.403	9.39
323.617	40.11
323.83	162.98
324.043	54.44
324.256	64.68
324.469	11.43
324.683	101.55
324.896	103.59
325.109	36.01
325.322	-19.29
325.535	95.4
325.748	56.49
325.962	13.48
326.175	119.98
326.388	56.49
326.601	136.36
326.814	-43.86
327.027	21.67
327.24	99.5
327.453	-23.38
327.666	105.64
327.879	85.16
328.092	105.64
328.305	140.46
328.518	-21.33
328.731	-39.76
328.944	9.39
329.157	95.4
329.37	-0.85
329.583	117.93
329.796	50.35
330.009	-7
330.222	72.87
330.435	117.93
330.648	25.77
330.861	11.43
331.073	103.59
331.286	150.7
331.499	89.26
331.712	-68.44
331.925	-27.48
332.138	-50
332.35	173.22
332.563	-9.05
332.776	64.68
332.989	3.24
333.202	70.83
333.414	11.43
333.627	21.67
333.84	-70.48
334.053	17.58
334.265	81.07
334.478	42.15
334.691	95.4
334.903	93.35
335.116	-35.67
335.329	42.15
335.541	89.26
335.754	169.13
335.966	40.11
336.179	-39.76
336.392	-45.91
336.604	29.87
336.817	5.29
337.029	13.48
337.242	-25.43
337.454	40.11
337.667	66.73
337.88	238.76
338.092	74.92
338.305	58.54
338.517	-41.81
338.729	36.01
338.942	97.45
339.154	-82.77
339.367	-82.77
339.579	87.21
339.792	-37.72
340.004	64.68
340.217	13.48
340.429	83.11
340.641	-0.85
340.854	-15.19
341.066	13.48
341.278	124.07
341.491	144.55
341.703	42.15
341.915	33.96
342.128	-27.48
342.34	50.35
342.552	-25.43
342.764	33.96
342.977	79.02
343.189	97.45
343.401	44.2
343.613	-50
343.826	54.44
344.038	11.43
344.25	-25.43
344.462	-35.67
344.674	81.07
344.886	-31.57
345.099	13.48
345.311	44.2
345.523	-29.52
345.735	-76.63
345.947	60.59
346.159	54.44
346.371	27.82
346.583	38.06
346.795	179.37
347.007	-31.57
347.219	99.5
347.431	13.48
347.643	142.5
347.855	1.19
348.067	81.07
348.279	-2.9
348.491	17.58
348.703	13.48
348.915	44.2
349.127	19.63
349.339	-29.52
349.551	48.3
349.763	72.87
349.975	5.29
350.187	79.02
350.399	124.07
350.61	38.06
350.822	-31.57
351.034	128.17
351.246	91.31
351.458	97.45
351.669	140.46
351.881	46.25
352.093	74.92
352.305	117.93
352.517	1.19
352.728	162.98
352.94	50.35
353.152	46.25
353.363	-35.67
353.575	21.67
353.787	191.66
353.999	115.88
354.21	240.81
354.422	-33.62
354.633	-7
354.845	15.53
355.057	25.77
355.268	74.92
355.48	128.17
355.692	-66.39
355.903	93.35
356.115	-19.29
356.326	-86.87
356.538	134.31
356.749	91.31
356.961	79.02
357.172	38.06
357.384	-62.29
357.595	218.28
357.807	36.01
358.018	-60.24
358.23	-68.44
358.441	165.03
358.653	117.93
358.864	42.15
359.075	-50
359.287	19.63
359.498	169.13
359.709	93.35
359.921	-17.24
360.132	50.35
360.344	27.82
360.555	7.34
360.766	11.43
360.977	27.82
361.189	103.59
361.4	-27.48
361.611	60.59
361.823	115.88
362.034	85.16
362.245	-76.63
362.456	101.55
362.667	111.78
362.879	-0.85
363.09	44.2
363.301	64.68
363.512	-31.57
363.723	-39.76
363.935	9.39
364.146	101.55
364.357	58.54
364.568	-50
364.779	-33.62
364.99	74.92
365.201	-2.9
365.412	105.64
365.623	-109.4
365.834	62.63
366.045	66.73
366.256	31.91
366.467	42.15
366.678	50.35
366.889	5.29
367.1	-90.96
367.311	128.17
367.522	-2.9
367.733	70.83
367.944	52.39
368.155	-4.95
368.366	132.26
368.577	68.78
368.788	58.54
368.999	-60.24
369.209	52.39
369.42	205.99
369.631	146.6
369.842	42.15
370.053	-58.2
370.264	107.69
370.474	-39.76
370.685	126.12
370.896	-4.95
371.107	122.02
371.317	85.16
371.528	-35.67
371.739	132.26
371.95	19.63
372.16	36.01
372.371	-35.67
372.582	11.43
372.792	38.06
373.003	95.4
373.214	29.87
373.424	60.59
373.635	-70.48
373.846	97.45
374.056	58.54
374.267	44.2
374.477	21.67
374.688	-25.43
374.898	40.11
375.109	46.25
375.319	5.29
375.53	64.68
375.74	23.72
375.951	-21.33
376.161	9.39
376.372	122.02
376.582	13.48
376.793	87.21
377.003	-2.9
377.214	-60.24
377.424	38.06
377.635	44.2
377.845	-52.05
378.055	134.31
378.266	-84.82
378.476	38.06
378.686	1.19
378.897	-4.95
379.107	93.35
379.317	70.83
379.528	50.35
379.738	46.25
379.948	-56.15
380.158	134.31
380.369	79.02
380.579	81.07
380.789	56.49
380.999	23.72
381.21	124.07
381.42	158.89
381.63	72.87
381.84	95.4
382.05	33.96
382.261	128.17
382.471	95.4
382.681	-62.29
382.891	167.08
383.101	3.24
383.311	-50
383.521	-58.2
383.731	107.69
383.941	46.25
384.151	23.72
384.361	79.02
384.571	50.35
384.781	103.59
384.991	167.08
385.201	165.03
385.411	210.09
385.621	70.83
385.831	56.49
386.041	-15.19
386.251	-13.14
386.461	19.63
386.671	52.39
386.881	113.83
387.091	107.69
387.301	177.32
387.511	-13.14
387.72	31.91
387.93	117.93
388.14	-76.63
388.35	97.45
388.56	156.84
388.769	140.46
388.979	38.06
389.189	52.39
389.399	89.26
389.609	40.11
389.818	15.53
390.028	56.49
390.238	64.68
390.447	19.63
390.657	42.15
390.867	-17.24
391.076	-107.35
391.286	79.02
391.496	-13.14
391.705	97.45
391.915	128.17
392.125	113.83
392.334	13.48
392.544	29.87
392.753	66.73
392.963	1.19
393.172	56.49
393.382	-41.81
393.591	130.22
393.801	-31.57
394.01	68.78
394.22	113.83
394.429	113.83
394.639	76.97
394.848	-11.09
395.058	44.2
395.267	72.87
395.477	56.49
395.686	33.96
395.895	177.32
396.105	253.09
396.314	87.21
396.524	-41.81
396.733	44.2
396.942	95.4
397.152	40.11
397.361	60.59
397.57	-29.52
397.78	50.35
397.989	72.87
398.198	185.51
398.407	48.3
398.617	3.24
398.826	1.19
399.035	7.34
399.244	165.03
399.453	17.58
399.663	64.68
399.872	58.54
400.081	-27.48
400.29	72.87
400.499	-17.24
400.708	124.07
400.917	-33.62
401.127	-11.09
401.336	-9.05
401.545	79.02
401.754	115.88
401.963	46.25
402.172	42.15
402.381	-11.09
402.59	13.48
402.799	48.3
403.008	132.26
403.217	27.82
403.426	111.78
403.635	-47.96
403.844	48.3
404.053	60.59
404.262	-13.14
404.471	210.09
404.68	1.19
404.888	-9.05
405.097	-13.14
405.306	-7
405.515	109.74
405.724	64.68
405.933	58.54
406.142	21.67
406.35	46.25
406.559	11.43
406.768	70.83
406.977	93.35
407.185	17.58
407.394	122.02
407.603	-43.86
407.812	7.34
408.02	91.31
408.229	-0.85
408.438	103.59
408.646	-136.02
408.855	62.63
409.064	48.3
409.272	-52.05
409.481	85.16
409.69	25.77
409.898	-56.15
410.107	62.63
410.315	126.12
410.524	17.58
410.733	79.02
410.941	21.67
411.15	21.67
411.358	117.93
411.567	146.6
411.775	5.29
411.984	38.06
412.192	15.53
412.401	-11.09
412.609	146.6
412.818	150.7
413.026	60.59
413.234	58.54
413.443	-19.29
413.651	9.39
413.86	81.07
414.068	91.31
414.276	165.03
414.485	-35.67
414.693	150.7
414.901	130.22
415.11	15.53
415.318	115.88
415.526	54.44
415.734	140.46
415.943	83.11
416.151	128.17
416.359	-15.19
416.567	115.88
416.776	54.44
416.984	21.67
417.192	181.42
417.4	-70.48
417.608	-39.76
417.817	-64.34
418.025	56.49
418.233	152.74
418.441	-19.29
418.649	-2.9
418.857	50.35
419.065	138.41
419.273	13.48
419.481	89.26
419.689	38.06
419.897	52.39
420.105	-31.57
420.313	140.46
420.521	136.36
420.729	175.27
420.937	9.39
421.145	15.53
421.353	150.7
421.561	181.42
421.769	9.39
421.977	-41.81
422.185	119.98
422.393	17.58
422.601	83.11
422.809	40.11
423.017	60.59
423.224	103.59
423.432	105.64
423.64	13.48
423.848	7.34
424.056	-31.57
424.263	46.25
424.471	1.19
424.679	105.64
424.887	-29.52
425.094	122.02
425.302	46.25
425.51	5.29
425.718	138.41
425.925	72.87
426.133	99.5
426.341	156.84
426.548	48.3
426.756	13.48
426.964	154.79
427.171	9.39
427.379	130.22
427.586	-7
427.794	62.63
428.001	156.84
428.209	36.01
428.417	183.46
428.624	156.84
428.832	99.5
429.039	175.27
429.247	111.78
429.454	97.45
429.662	226.47
429.869	117.93
430.076	97.45
430.284	142.5
430.491	111.78
430.699	169.13
430.906	226.47
431.114	103.59
431.321	101.55
431.528	87.21
431.736	97.45
431.943	138.41
432.15	138.41
432.358	162.98
432.565	205.99
432.772	11.43
432.979	214.18
433.187	119.98
433.394	253.09
433.601	38.06
433.808	222.38
434.016	171.18
434.223	187.56
434.43	111.78
434.637	242.85
434.844	218.28
435.052	242.85
435.259	224.42
435.466	205.99
435.673	251.05
435.88	244.9
436.087	279.72
436.294	275.62
436.501	269.48
436.708	339.11
436.915	257.19
437.122	298.15
437.329	173.22
437.537	240.81
437.743	296.1
437.95	343.21
438.157	361.64
438.364	255.14
438.571	330.92
438.778	337.06
438.985	457.89
439.192	451.75
439.399	335.01
439.606	423.08
439.813	470.18
440.02	488.61
440.227	619.68
440.433	494.76
440.64	461.99
440.847	326.82
441.054	382.12
441.261	631.97
441.467	480.42
441.674	529.57
441.881	570.53
442.088	484.52
442.294	705.7
442.501	642.21
442.708	642.21
442.914	658.59
443.121	732.32
443.328	654.5
443.534	756.9
443.741	853.15
443.948	660.64
444.154	869.53
444.361	973.98
444.568	754.85
444.774	806.05
444.981	832.67
445.187	963.74
445.394	898.2
445.6	898.2
445.807	1150.11
446.013	1064.09
446.22	1014.94
446.426	1174.68
446.633	1219.74
446.839	1406.1
447.046	1256.6
447.252	1387.67
447.459	1418.39
447.665	1447.06
447.871	1574.03
448.078	1746.06
448.284	1596.56
448.491	1610.9
448.697	1692.82
448.903	1830.03
449.11	1840.27
449.316	1811.6
449.522	2049.16
449.728	2159.75
449.935	2184.33
450.141	2059.4
450.347	2241.67
450.553	2213
450.76	2331.78
450.966	2628.74
451.172	2522.24
451.378	2573.44
451.584	2751.62
451.791	2813.06
451.997	2970.75
452.203	3019.9
452.409	3116.16
452.615	3279.99
452.821	3247.23
453.027	3247.23
453.233	3785.84
453.44	3523.7
453.646	3662.96
453.852	3851.38
454.058	3894.38
454.264	4078.7
454.47	4426.86
454.676	4416.62
454.882	4877.41
455.088	4719.71
455.294	4889.7
455.5	5198.94
455.705	5510.23
455.911	5657.68
456.117	5735.51
456.323	5964.88
456.529	5887.06
456.735	6476.87
456.941	6710.34
457.147	7068.73
457.352	6947.9
457.558	7089.21
457.764	7703.61
457.97	7771.19
458.176	8080.43
458.381	8498.22
458.587	8791.08
458.793	9022.5
458.999	9229.34
459.204	10195.98
459.41	10437.64
459.616	10380.3
459.821	11103.23
460.027	11770.87
460.233	12202.99
460.438	12196.85
460.644	12788.71
460.85	12790.76
461.055	13394.91
461.261	14343.12
461.466	13669.34
461.672	14119.89
461.878	15938.49
462.083	15506.37
462.289	15860.66
462.494	16491.44
462.7	16642.99
462.905	16763.82
463.111	18056.09
463.316	19227.53
463.522	19647.36
463.727	20151.16
463.932	20757.36
464.138	21693.28
464.343	22506.32
464.549	22676.3
464.754	24243
464.959	24838.96
465.165	25183.02
465.37	24869.68
465.575	25312.04
465.781	26526.49
465.986	27751.17
466.191	27239.18
466.397	27587.33
466.602	26688.28
466.807	28275.45
467.012	28795.64
467.218	29113.07
467.423	29303.53
467.628	29960.93
467.833	31638.22
468.038	30851.8
468.244	30544.6
468.449	31959.75
468.654	31574.73
468.859	31474.38
469.064	31763.14
