Data from USB4F104151__28__11-24-51-405.txt Node

Date: Wed Feb 26 11:24:51 EST 2025
User: louis
Spectrometer: USB4F10415
Trigger mode: 4
Integration Time (sec): 1.000000E-1
Scans to average: 1
Electric dark correction enabled: true
Nonlinearity correction enabled: false
Boxcar width: 0
XAxis mode: Wavelengths
Number of Pixels in Spectrum: 3648
>>>>>Begin Spectral Data<<<<<
178.204	-390.48
178.424	-390.48
178.644	-390.48
178.864	-423.25
179.084	-400.72
179.304	51.88
179.524	-73.04
179.744	-34.13
179.964	33.45
180.184	31.4
180.404	45.74
180.624	-54.61
180.844	-79.19
181.064	-19.8
181.283	76.46
181.503	-52.56
181.723	74.41
181.943	-126.29
182.163	176.81
182.383	-66.9
182.602	76.46
182.822	252.58
183.042	53.93
183.262	-34.13
183.482	-66.9
183.701	43.69
183.921	84.65
184.141	-38.23
184.361	90.79
184.58	86.7
184.8	119.46
185.02	-42.32
185.239	17.07
185.459	33.45
185.679	115.37
185.898	-71
186.118	74.41
186.338	-9.56
186.557	68.27
186.777	-56.66
186.997	-68.95
187.216	58.03
187.436	185
187.655	109.22
187.875	92.84
188.095	53.93
188.314	64.17
188.534	180.9
188.753	-30.04
188.973	148.14
189.192	146.09
189.412	58.03
189.631	76.46
189.851	103.08
190.07	213.67
190.29	-27.99
190.509	17.07
190.729	156.33
190.948	141.99
191.168	215.72
191.387	117.42
191.607	84.65
191.826	66.22
192.045	-15.7
192.265	8.87
192.484	23.21
192.704	41.64
192.923	-5.46
193.142	160.42
193.362	121.51
193.581	78.51
193.8	70.31
194.02	29.35
194.239	86.7
194.458	53.93
194.678	33.45
194.897	39.59
195.116	23.21
195.335	49.83
195.555	123.56
195.774	-1.37
195.993	148.14
196.212	53.93
196.432	-17.75
196.651	17.07
196.87	-5.46
197.089	285.35
197.308	53.93
197.528	82.6
197.747	-68.95
197.966	41.64
198.185	88.75
198.404	47.79
198.623	111.27
198.842	129.7
199.062	90.79
199.281	105.13
199.5	12.97
199.719	33.45
199.938	-7.51
200.157	72.36
200.376	119.46
200.595	64.17
200.814	64.17
201.033	-11.61
201.252	111.27
201.471	-7.51
201.69	53.93
201.909	62.12
202.128	103.08
202.347	88.75
202.566	60.07
202.785	-7.51
203.004	-1.37
203.223	305.83
203.442	53.93
203.661	-15.7
203.879	23.21
204.098	53.93
204.317	19.11
204.536	90.79
204.755	15.02
204.974	74.41
205.193	113.32
205.411	86.7
205.63	76.46
205.849	86.7
206.068	-23.89
206.287	39.59
206.505	141.99
206.724	23.21
206.943	27.31
207.162	-7.51
207.381	82.6
207.599	-38.23
207.818	29.35
208.037	-21.85
208.255	39.59
208.474	68.27
208.693	2.73
208.911	80.55
209.13	127.66
209.349	131.75
209.567	88.75
209.786	109.22
210.005	107.18
210.223	39.59
210.442	-111.96
210.661	33.45
210.879	123.56
211.098	31.4
211.316	74.41
211.535	17.07
211.753	78.51
211.972	17.07
212.191	-40.28
212.409	23.21
212.628	33.45
212.846	-13.65
213.065	133.8
213.283	158.38
213.502	76.46
213.72	76.46
213.938	-1.37
214.157	-13.65
214.375	109.22
214.594	47.79
214.812	17.07
215.031	2.73
215.249	111.27
215.467	72.36
215.686	55.98
215.904	119.46
216.122	45.74
216.341	148.14
216.559	68.27
216.778	121.51
216.996	113.32
217.214	-1.37
217.432	37.55
217.651	-1.37
217.869	39.59
218.087	12.97
218.306	41.64
218.524	25.26
218.742	12.97
218.96	49.83
219.179	-19.8
219.397	-5.46
219.615	211.62
219.833	119.46
220.051	-81.24
220.27	58.03
220.488	115.37
220.706	141.99
220.924	4.78
221.142	4.78
221.36	141.99
221.578	101.03
221.796	-9.56
222.015	82.6
222.233	111.27
222.451	158.38
222.669	21.16
222.887	84.65
223.105	31.4
223.323	47.79
223.541	0.68
223.759	58.03
223.977	-34.13
224.195	109.22
224.413	125.61
224.631	35.5
224.849	107.18
225.067	279.21
225.285	6.83
225.503	39.59
225.721	-42.32
225.939	105.13
226.157	94.89
226.375	320.17
226.592	-42.32
226.81	72.36
227.028	166.57
227.246	70.31
227.464	78.51
227.682	154.28
227.9	66.22
228.117	86.7
228.335	80.55
228.553	-9.56
228.771	53.93
228.989	66.22
229.206	76.46
229.424	19.11
229.642	8.87
229.86	-11.61
230.077	86.7
230.295	41.64
230.513	41.64
230.731	86.7
230.948	191.14
231.166	90.79
231.384	-15.7
231.601	39.59
231.819	74.41
232.037	-56.66
232.254	4.78
232.472	45.74
232.689	10.92
232.907	172.71
233.125	-3.41
233.342	-15.7
233.56	19.11
233.777	33.45
233.995	68.27
234.213	58.03
234.43	94.89
234.648	39.59
234.865	-25.94
235.083	45.74
235.3	105.13
235.518	66.22
235.735	125.61
235.953	123.56
236.17	84.65
236.388	-75.09
236.605	60.07
236.822	107.18
237.04	101.03
237.257	47.79
237.475	-13.65
237.692	94.89
237.909	162.47
238.127	33.45
238.344	141.99
238.562	10.92
238.779	-40.28
238.996	-46.42
239.214	23.21
239.431	96.94
239.648	-15.7
239.865	98.99
240.083	74.41
240.3	-3.41
240.517	0.68
240.735	17.07
240.952	101.03
241.169	121.51
241.386	60.07
241.603	-15.7
241.821	-3.41
242.038	84.65
242.255	148.14
242.472	-109.91
242.689	105.13
242.907	154.28
243.124	115.37
243.341	92.84
243.558	-5.46
243.775	-32.08
243.992	-17.75
244.209	64.17
244.426	197.29
244.643	80.55
244.86	53.93
245.078	33.45
245.295	115.37
245.512	29.35
245.729	29.35
245.946	148.14
246.163	41.64
246.38	17.07
246.597	68.27
246.814	55.98
247.031	-40.28
247.248	84.65
247.464	96.94
247.681	78.51
247.898	90.79
248.115	113.32
248.332	21.16
248.549	152.23
248.766	152.23
248.983	96.94
249.2	-7.51
249.417	92.84
249.633	60.07
249.85	49.83
250.067	84.65
250.284	70.31
250.501	31.4
250.717	39.59
250.934	41.64
251.151	31.4
251.368	6.83
251.585	115.37
251.801	45.74
252.018	-68.95
252.235	107.18
252.451	-50.52
252.668	58.03
252.885	53.93
253.102	123.56
253.318	-7.51
253.535	76.46
253.752	4.78
253.968	-66.9
254.185	-66.9
254.401	-25.94
254.618	68.27
254.835	0.68
255.051	144.04
255.268	10.92
255.484	78.51
255.701	17.07
255.917	66.22
256.134	12.97
256.351	8.87
256.567	53.93
256.784	8.87
257	-44.37
257.217	68.27
257.433	90.79
257.65	4.78
257.866	131.75
258.082	-27.99
258.299	19.11
258.515	96.94
258.732	47.79
258.948	21.16
259.165	-23.89
259.381	19.11
259.597	131.75
259.814	68.27
260.03	82.6
260.246	-17.75
260.463	125.61
260.679	158.38
260.895	82.6
261.112	70.31
261.328	-5.46
261.544	-87.38
261.761	166.57
261.977	25.26
262.193	-58.71
262.409	98.99
262.626	88.75
262.842	49.83
263.058	19.11
263.274	129.7
263.49	21.16
263.707	141.99
263.923	92.84
264.139	-5.46
264.355	25.26
264.571	213.67
264.787	41.64
265.004	135.85
265.22	31.4
265.436	37.55
265.652	33.45
265.868	-7.51
266.084	-79.19
266.3	109.22
266.516	-54.61
266.732	37.55
266.948	113.32
267.164	15.02
267.38	131.75
267.596	55.98
267.812	172.71
268.028	123.56
268.244	2.73
268.46	92.84
268.676	-9.56
268.892	25.26
269.108	-5.46
269.324	-23.89
269.54	12.97
269.756	82.6
269.972	-71
270.188	37.55
270.403	-27.99
270.619	29.35
270.835	72.36
271.051	60.07
271.267	74.41
271.483	6.83
271.698	43.69
271.914	51.88
272.13	74.41
272.346	-1.37
272.562	121.51
272.777	144.04
272.993	10.92
273.209	-3.41
273.425	43.69
273.64	8.87
273.856	94.89
274.072	49.83
274.287	-17.75
274.503	109.22
274.719	111.27
274.934	-3.41
275.15	-87.38
275.366	141.99
275.581	21.16
275.797	60.07
276.012	94.89
276.228	23.21
276.444	98.99
276.659	172.71
276.875	-48.47
277.09	60.07
277.306	6.83
277.521	141.99
277.737	-3.41
277.952	129.7
278.168	-36.18
278.383	31.4
278.599	62.12
278.814	115.37
279.03	17.07
279.245	103.08
279.461	-13.65
279.676	35.5
279.892	-34.13
280.107	-23.89
280.322	41.64
280.538	4.78
280.753	33.45
280.969	82.6
281.184	84.65
281.399	182.95
281.615	80.55
281.83	62.12
282.045	-44.37
282.26	-64.85
282.476	23.21
282.691	135.85
282.906	88.75
283.122	70.31
283.337	66.22
283.552	66.22
283.767	-1.37
283.983	86.7
284.198	39.59
284.413	84.65
284.628	-71
284.843	-5.46
285.058	10.92
285.274	45.74
285.489	-34.13
285.704	111.27
285.919	39.59
286.134	19.11
286.349	64.17
286.564	-1.37
286.779	82.6
286.995	27.31
287.21	4.78
287.425	117.42
287.64	23.21
287.855	107.18
288.07	-60.76
288.285	160.42
288.5	176.81
288.715	82.6
288.93	8.87
289.145	25.26
289.36	29.35
289.575	27.31
289.79	148.14
290.004	25.26
290.219	158.38
290.434	-15.7
290.649	-40.28
290.864	39.59
291.079	12.97
291.294	51.88
291.509	70.31
291.724	-32.08
291.938	-19.8
292.153	45.74
292.368	45.74
292.583	86.7
292.798	51.88
293.012	4.78
293.227	92.84
293.442	-56.66
293.657	88.75
293.871	84.65
294.086	131.75
294.301	189.1
294.516	127.66
294.73	144.04
294.945	-52.56
295.16	58.03
295.374	141.99
295.589	154.28
295.804	6.83
296.018	37.55
296.233	62.12
296.447	62.12
296.662	-23.89
296.877	166.57
297.091	133.8
297.306	78.51
297.52	70.31
297.735	17.07
297.949	96.94
298.164	62.12
298.378	55.98
298.593	10.92
298.807	-56.66
299.022	8.87
299.236	129.7
299.451	53.93
299.665	51.88
299.88	39.59
300.094	74.41
300.309	70.31
300.523	49.83
300.737	41.64
300.952	162.47
301.166	88.75
301.381	-19.8
301.595	-19.8
301.809	2.73
302.024	10.92
302.238	-9.56
302.452	68.27
302.667	6.83
302.881	205.48
303.095	51.88
303.309	109.22
303.524	0.68
303.738	-25.94
303.952	-46.42
304.166	60.07
304.381	-81.24
304.595	115.37
304.809	45.74
305.023	29.35
305.237	33.45
305.452	21.16
305.666	119.46
305.88	76.46
306.094	84.65
306.308	107.18
306.522	84.65
306.736	101.03
306.95	62.12
307.164	8.87
307.379	21.16
307.593	135.85
307.807	162.47
308.021	33.45
308.235	45.74
308.449	-109.91
308.663	47.79
308.877	199.34
309.091	49.83
309.305	80.55
309.519	-75.09
309.733	172.71
309.947	-38.23
310.161	19.11
310.374	70.31
310.588	115.37
310.802	-36.18
311.016	21.16
311.23	70.31
311.444	47.79
311.658	-11.61
311.872	117.42
312.085	105.13
312.299	150.18
312.513	82.6
312.727	64.17
312.941	-54.61
313.154	12.97
313.368	82.6
313.582	51.88
313.796	23.21
314.009	37.55
314.223	154.28
314.437	45.74
314.651	72.36
314.864	-5.46
315.078	55.98
315.292	0.68
315.505	-7.51
315.719	-3.41
315.933	92.84
316.146	41.64
316.36	6.83
316.573	45.74
316.787	80.55
317.001	49.83
317.214	-103.76
317.428	37.55
317.641	6.83
317.855	41.64
318.068	8.87
318.282	39.59
318.495	176.81
318.709	127.66
318.922	60.07
319.136	164.52
319.349	113.32
319.563	-52.56
319.776	68.27
319.99	-36.18
320.203	82.6
320.417	15.02
320.63	164.52
320.843	113.32
321.057	-13.65
321.27	33.45
321.483	121.51
321.697	92.84
321.91	141.99
322.124	125.61
322.337	121.51
322.55	-89.43
322.763	33.45
322.977	70.31
323.19	-34.13
323.403	60.07
323.617	72.36
323.83	135.85
324.043	64.17
324.256	19.11
324.469	-11.61
324.683	109.22
324.896	-23.89
325.109	58.03
325.322	-58.71
325.535	33.45
325.748	199.34
325.962	33.45
326.175	41.64
326.388	86.7
326.601	90.79
326.814	21.16
327.027	78.51
327.24	135.85
327.453	-142.68
327.666	0.68
327.879	80.55
328.092	90.79
328.305	60.07
328.518	-52.56
328.731	-17.75
328.944	-1.37
329.157	135.85
329.37	-1.37
329.583	98.99
329.796	150.18
330.009	-97.62
330.222	113.32
330.435	96.94
330.648	76.46
330.861	78.51
331.073	21.16
331.286	94.89
331.499	53.93
331.712	-52.56
331.925	15.02
332.138	-25.94
332.35	127.66
332.563	39.59
332.776	150.18
332.989	10.92
333.202	90.79
333.414	96.94
333.627	31.4
333.84	53.93
334.053	76.46
334.265	2.73
334.478	-19.8
334.691	0.68
334.903	51.88
335.116	27.31
335.329	12.97
335.541	113.32
335.754	129.7
335.966	-17.75
336.179	27.31
336.392	53.93
336.604	-13.65
336.817	86.7
337.029	74.41
337.242	53.93
337.454	133.8
337.667	53.93
337.88	123.56
338.092	72.36
338.305	62.12
338.517	8.87
338.729	29.35
338.942	172.71
339.154	-58.71
339.367	-34.13
339.579	125.61
339.792	-30.04
340.004	107.18
340.217	0.68
340.429	55.98
340.641	-32.08
340.854	8.87
341.066	53.93
341.278	115.37
341.491	123.56
341.703	6.83
341.915	45.74
342.128	113.32
342.34	55.98
342.552	-40.28
342.764	60.07
342.977	-5.46
343.189	21.16
343.401	53.93
343.613	-44.37
343.826	35.5
344.038	-27.99
344.25	33.45
344.462	21.16
344.674	96.94
344.886	58.03
345.099	33.45
345.311	25.26
345.523	94.89
345.735	-3.41
345.947	72.36
346.159	19.11
346.371	17.07
346.583	64.17
346.795	152.23
347.007	29.35
347.219	129.7
347.431	86.7
347.643	129.7
347.855	39.59
348.067	158.38
348.279	8.87
348.491	35.5
348.703	162.47
348.915	-40.28
349.127	41.64
349.339	111.27
349.551	37.55
349.763	152.23
349.975	60.07
350.187	168.62
350.399	135.85
350.61	86.7
350.822	21.16
351.034	15.02
351.246	17.07
351.458	94.89
351.669	60.07
351.881	156.33
352.093	185
352.305	109.22
352.517	148.14
352.728	150.18
352.94	4.78
353.152	74.41
353.363	-27.99
353.575	35.5
353.787	115.37
353.999	68.27
354.21	195.24
354.422	-7.51
354.633	43.69
354.845	-25.94
355.057	47.79
355.268	25.26
355.48	172.71
355.692	-40.28
355.903	-5.46
356.115	-3.41
356.326	-79.19
356.538	148.14
356.749	55.98
356.961	178.86
357.172	86.7
357.384	-64.85
357.595	293.54
357.807	39.59
358.018	-5.46
358.23	98.99
358.441	176.81
358.653	78.51
358.864	76.46
359.075	-1.37
359.287	35.5
359.498	144.04
359.709	131.75
359.921	86.7
360.132	35.5
360.344	17.07
360.555	6.83
360.766	19.11
360.977	31.4
361.189	121.51
361.4	-1.37
361.611	92.84
361.823	133.8
362.034	80.55
362.245	21.16
362.456	70.31
362.667	49.83
362.879	-36.18
363.09	64.17
363.301	70.31
363.512	76.46
363.723	15.02
363.935	23.21
364.146	68.27
364.357	125.61
364.568	111.27
364.779	-34.13
364.99	189.1
365.201	21.16
365.412	137.9
365.623	-58.71
365.834	94.89
366.045	37.55
366.256	101.03
366.467	25.26
366.678	64.17
366.889	55.98
367.1	37.55
367.311	43.69
367.522	45.74
367.733	195.24
367.944	37.55
368.155	53.93
368.366	98.99
368.577	164.52
368.788	98.99
368.999	-11.61
369.209	45.74
369.42	176.81
369.631	238.25
369.842	103.08
370.053	53.93
370.264	154.28
370.474	-46.42
370.685	135.85
370.896	111.27
371.107	170.66
371.317	123.56
371.528	31.4
371.739	129.7
371.95	107.18
372.16	109.22
372.371	-44.37
372.582	6.83
372.792	115.37
373.003	70.31
373.214	49.83
373.424	146.09
373.635	-19.8
373.846	121.51
374.056	29.35
374.267	60.07
374.477	98.99
374.688	72.36
374.898	66.22
375.109	55.98
375.319	43.69
375.53	80.55
375.74	105.13
375.951	-15.7
376.161	105.13
376.372	174.76
376.582	58.03
376.793	-9.56
377.003	33.45
377.214	37.55
377.424	115.37
377.635	-17.75
377.845	12.97
378.055	60.07
378.266	0.68
378.476	-7.51
378.686	51.88
378.897	33.45
379.107	121.51
379.317	80.55
379.528	-15.7
379.738	144.04
379.948	-85.33
380.158	180.9
380.369	35.5
380.579	68.27
380.789	80.55
380.999	70.31
381.21	166.57
381.42	205.48
381.63	25.26
381.84	172.71
382.05	45.74
382.261	115.37
382.471	105.13
382.681	12.97
382.891	141.99
383.101	125.61
383.311	43.69
383.521	58.03
383.731	127.66
383.941	78.51
384.151	74.41
384.361	25.26
384.571	49.83
384.781	10.92
384.991	176.81
385.201	207.53
385.411	156.33
385.621	84.65
385.831	70.31
386.041	58.03
386.251	-1.37
386.461	144.04
386.671	10.92
386.881	90.79
387.091	15.02
387.301	137.9
387.511	39.59
387.72	23.21
387.93	64.17
388.14	-52.56
388.35	21.16
388.56	72.36
388.769	105.13
388.979	33.45
389.189	70.31
389.399	82.6
389.609	96.94
389.818	154.28
390.028	-44.37
390.238	4.78
390.447	-25.94
390.657	88.75
390.867	49.83
391.076	4.78
391.286	90.79
391.496	41.64
391.705	6.83
391.915	78.51
392.125	129.7
392.334	45.74
392.544	121.51
392.753	-17.75
392.963	-34.13
393.172	10.92
393.382	-9.56
393.591	125.61
393.801	70.31
394.01	185
394.22	111.27
394.429	33.45
394.639	86.7
394.848	62.12
395.058	115.37
395.267	27.31
395.477	105.13
395.686	51.88
395.895	223.91
396.105	191.14
396.314	121.51
396.524	-17.75
396.733	72.36
396.942	105.13
397.152	72.36
397.361	141.99
397.57	64.17
397.78	-95.57
397.989	123.56
398.198	221.86
398.407	8.87
398.617	74.41
398.826	144.04
399.035	29.35
399.244	150.18
399.453	92.84
399.663	0.68
399.872	39.59
400.081	51.88
400.29	94.89
400.499	74.41
400.708	55.98
400.917	25.26
401.127	58.03
401.336	43.69
401.545	199.34
401.754	103.08
401.963	82.6
402.172	41.64
402.381	-13.65
402.59	21.16
402.799	43.69
403.008	53.93
403.217	49.83
403.426	80.55
403.635	-25.94
403.844	68.27
404.053	-38.23
404.262	66.22
404.471	180.9
404.68	78.51
404.888	33.45
405.097	2.73
405.306	-30.04
405.515	84.65
405.724	-60.76
405.933	129.7
406.142	43.69
406.35	141.99
406.559	-15.7
406.768	78.51
406.977	141.99
407.185	64.17
407.394	133.8
407.603	-71
407.812	84.65
408.02	72.36
408.229	21.16
408.438	82.6
408.646	-27.99
408.855	53.93
409.064	98.99
409.272	82.6
409.481	76.46
409.69	-105.81
409.898	-3.41
410.107	47.79
410.315	88.75
410.524	19.11
410.733	166.57
410.941	82.6
411.15	41.64
411.358	135.85
411.567	148.14
411.775	43.69
411.984	-19.8
412.192	94.89
412.401	25.26
412.609	90.79
412.818	86.7
413.026	123.56
413.234	96.94
413.443	135.85
413.651	-11.61
413.86	29.35
414.068	94.89
414.276	158.38
414.485	-13.65
414.693	152.23
414.901	230.06
415.11	131.75
415.318	88.75
415.526	72.36
415.734	96.94
415.943	70.31
416.151	127.66
416.359	17.07
416.567	72.36
416.776	70.31
416.984	129.7
417.192	121.51
417.4	-40.28
417.608	19.11
417.817	-64.85
418.025	125.61
418.233	113.32
418.441	51.88
418.649	19.11
418.857	37.55
419.065	182.95
419.273	-60.76
419.481	68.27
419.689	53.93
419.897	23.21
420.105	49.83
420.313	80.55
420.521	148.14
420.729	144.04
420.937	35.5
421.145	6.83
421.353	156.33
421.561	197.29
421.769	103.08
421.977	-40.28
422.185	74.41
422.393	74.41
422.601	193.19
422.809	133.8
423.017	37.55
423.224	62.12
423.432	133.8
423.64	60.07
423.848	176.81
424.056	23.21
424.263	133.8
424.471	-1.37
424.679	225.96
424.887	19.11
425.094	205.48
425.302	78.51
425.51	62.12
425.718	176.81
425.925	74.41
426.133	-52.56
426.341	234.15
426.548	111.27
426.756	29.35
426.964	60.07
427.171	25.26
427.379	131.75
427.586	103.08
427.794	45.74
428.001	178.86
428.209	166.57
428.417	228.01
428.624	107.18
428.832	115.37
429.039	101.03
429.247	101.03
429.454	117.42
429.662	174.76
429.869	166.57
430.076	193.19
430.284	203.43
430.491	225.96
430.699	150.18
430.906	234.15
431.114	199.34
431.321	141.99
431.528	98.99
431.736	115.37
431.943	152.23
432.15	176.81
432.358	199.34
432.565	203.43
432.772	64.17
432.979	205.48
433.187	160.42
433.394	223.91
433.601	103.08
433.808	281.25
434.016	215.72
434.223	170.66
434.43	203.43
434.637	201.38
434.844	266.92
435.052	201.38
435.259	242.34
435.466	156.33
435.673	244.39
435.88	250.53
436.087	291.49
436.294	299.69
436.501	260.77
436.708	228.01
436.915	264.87
437.122	361.13
437.329	242.34
437.537	256.68
437.743	307.88
437.95	375.46
438.157	336.55
438.364	467.62
438.571	277.16
438.778	412.32
438.985	397.99
439.192	453.28
439.399	406.18
439.606	473.76
439.813	488.1
440.02	547.49
440.227	662.18
440.433	623.27
440.64	436.9
440.847	436.9
441.054	592.55
441.261	643.74
441.467	494.24
441.674	432.8
441.881	664.22
442.088	551.59
442.294	602.79
442.501	715.42
442.708	746.14
442.914	785.05
443.121	854.69
443.328	756.38
443.534	783.01
443.741	873.12
443.948	748.19
444.154	809.63
444.361	1024.67
444.568	860.83
444.774	889.5
444.981	740
445.187	1096.35
445.394	1057.43
445.6	1022.62
445.807	1213.08
446.013	1026.71
446.22	1108.63
446.426	1211.03
446.633	1331.86
446.839	1471.12
447.046	1235.61
447.252	1366.68
447.459	1436.31
447.665	1462.93
447.871	1618.58
448.078	1720.98
448.284	1667.73
448.491	1682.06
448.697	1819.28
448.903	1968.78
449.11	1923.73
449.316	1927.82
449.522	2144.91
449.728	2087.56
449.935	2194.06
450.141	2212.49
450.347	2542.21
450.553	2359.94
450.76	2388.61
450.966	2523.78
451.172	2642.56
451.378	2830.98
451.584	2794.11
451.791	3156.6
451.997	3084.92
452.203	3089.02
452.409	3330.68
452.615	3406.45
452.821	3324.54
453.027	3336.82
453.233	3869.3
453.44	3770.99
453.646	3887.73
453.852	4063.85
454.058	4219.5
454.264	4340.33
454.47	4674.15
454.676	4633.19
454.882	4997.73
455.088	4821.6
455.294	5001.82
455.5	5186.14
455.705	5614.16
455.911	5663.32
456.117	5855.83
456.323	6091.34
456.529	6122.06
456.735	6439.5
456.941	6754.88
457.147	7014.98
457.352	7164.48
457.558	7383.61
457.764	8073.78
457.97	8131.12
458.176	8294.96
458.381	9003.55
458.587	8997.41
458.793	9665.05
458.999	9364
459.204	10643.98
459.41	10805.77
459.616	10590.73
459.821	11336.19
460.027	11954.68
460.233	12431.85
460.438	12497.39
460.644	13230.56
460.85	13085.15
461.055	13894.1
461.261	14526.92
461.466	13971.93
461.672	14160.34
461.878	16185.78
462.083	16249.27
462.289	16490.93
462.494	17027.49
462.7	17140.13
462.905	17353.12
463.111	18796.94
463.316	19739.01
463.522	20128.12
463.727	20715.89
463.932	21641.57
464.138	22360.41
464.343	22948.17
464.549	23501.12
464.754	25245.99
464.959	25776.42
465.165	26190.11
465.37	25833.76
465.575	26009.89
465.781	27402.5
465.986	28651.77
466.191	28088.57
466.397	28334.33
466.602	27638.02
466.807	29436.14
467.012	29792.48
467.218	30318.81
467.423	30451.93
467.628	31107.28
467.833	32749.75
468.038	32501.95
468.244	31635.66
468.449	33253.55
468.654	33042.61
468.859	32659.64
