Data from USB4F104151__65__09-29-19-596.txt Node

Date: Wed Feb 26 09:29:19 EST 2025
User: louis
Spectrometer: USB4F10415
Trigger mode: 4
Integration Time (sec): 1.000000E-1
Scans to average: 1
Electric dark correction enabled: true
Nonlinearity correction enabled: false
Boxcar width: 0
XAxis mode: Wavelengths
Number of Pixels in Spectrum: 3648
>>>>>Begin Spectral Data<<<<<
178.204	-329.38
178.424	-329.38
178.644	-329.38
178.864	-409.25
179.084	-372.39
179.304	31.06
179.524	-67.24
179.744	-46.76
179.964	51.54
180.184	18.77
180.404	26.96
180.624	-30.38
180.844	-83.63
181.064	-26.28
181.283	106.84
181.503	-5.8
181.723	24.92
181.943	-100.01
182.163	143.7
182.383	18.77
182.602	47.44
182.822	100.69
183.042	24.92
183.262	-28.33
183.482	-22.19
183.701	-3.75
183.921	33.11
184.141	-95.91
184.361	67.92
184.58	82.26
184.8	4.44
185.02	55.64
185.239	82.26
185.459	24.92
185.679	84.31
185.898	-46.76
186.118	98.64
186.338	14.68
186.557	84.31
186.777	-46.76
186.997	-38.57
187.216	53.59
187.436	172.37
187.655	26.96
187.875	35.16
188.095	39.25
188.314	121.17
188.534	104.79
188.753	-65.19
188.973	35.16
189.192	84.31
189.412	29.01
189.631	-5.8
189.851	53.59
190.07	115.03
190.29	-28.33
190.509	14.68
190.729	16.73
190.948	108.88
191.168	153.94
191.387	59.73
191.607	14.68
191.826	39.25
192.045	-9.9
192.265	-32.43
192.484	65.88
192.704	-3.75
192.923	-179.88
193.142	125.27
193.362	102.74
193.581	121.17
193.8	-3.75
194.02	96.6
194.239	29.01
194.458	127.32
194.678	6.49
194.897	2.39
195.116	43.35
195.335	72.02
195.555	24.92
195.774	10.58
195.993	31.06
196.212	26.96
196.432	-40.62
196.651	-13.99
196.87	8.53
197.089	203.09
197.308	33.11
197.528	55.64
197.747	-3.75
197.966	37.2
198.185	125.27
198.404	-38.57
198.623	92.5
198.842	69.97
199.062	76.12
199.281	96.6
199.5	72.02
199.719	2.39
199.938	-46.76
200.157	104.79
200.376	-11.95
200.595	121.17
200.814	98.64
201.033	-5.8
201.252	125.27
201.471	88.4
201.69	90.45
201.909	-1.71
202.128	53.59
202.347	90.45
202.566	-34.47
202.785	-57
203.004	0.34
203.223	223.57
203.442	18.77
203.661	-13.99
203.879	16.73
204.098	125.27
204.317	-52.91
204.536	100.69
204.755	74.07
204.974	123.22
205.193	53.59
205.411	162.13
205.63	67.92
205.849	2.39
206.068	-32.43
206.287	2.39
206.505	49.49
206.724	6.49
206.943	31.06
207.162	-75.43
207.381	96.6
207.599	57.68
207.818	16.73
208.037	39.25
208.255	12.63
208.474	31.06
208.693	47.44
208.911	-1.71
209.13	80.21
209.349	98.64
209.567	49.49
209.786	22.87
210.005	67.92
210.223	-67.24
210.442	-85.67
210.661	59.73
210.879	-5.8
211.098	43.35
211.316	14.68
211.535	84.31
211.753	-30.38
211.972	49.49
212.191	22.87
212.409	10.58
212.628	80.21
212.846	-22.19
213.065	92.5
213.283	96.6
213.502	-38.57
213.72	-34.47
213.938	57.68
214.157	8.53
214.375	139.6
214.594	115.03
214.812	18.77
215.031	-71.34
215.249	-22.19
215.467	39.25
215.686	-42.67
215.904	8.53
216.122	20.82
216.341	129.36
216.559	61.78
216.778	100.69
216.996	84.31
217.214	-44.71
217.432	-79.53
217.651	-79.53
217.869	24.92
218.087	10.58
218.306	12.63
218.524	2.39
218.742	86.36
218.96	74.07
219.179	-18.09
219.397	-40.62
219.615	162.13
219.833	112.98
220.051	-83.63
220.27	137.56
220.488	160.08
220.706	76.12
220.924	-26.28
221.142	8.53
221.36	24.92
221.578	12.63
221.796	45.4
222.015	-18.09
222.233	43.35
222.451	158.03
222.669	-83.63
222.887	26.96
223.105	-42.67
223.323	47.44
223.541	43.35
223.759	65.88
223.977	-5.8
224.195	131.41
224.413	67.92
224.631	92.5
224.849	39.25
225.067	227.67
225.285	-83.63
225.503	-38.57
225.721	-110.25
225.939	-22.19
226.157	14.68
226.375	153.94
226.592	-18.09
226.81	-20.14
227.028	82.26
227.246	84.31
227.464	26.96
227.682	18.77
227.9	172.37
228.117	69.97
228.335	4.44
228.553	-34.47
228.771	14.68
228.989	31.06
229.206	31.06
229.424	-83.63
229.642	80.21
229.86	-48.81
230.077	80.21
230.295	-16.04
230.513	112.98
230.731	84.31
230.948	119.12
231.166	108.88
231.384	59.73
231.601	-26.28
231.819	108.88
232.037	26.96
232.254	-44.71
232.472	10.58
232.689	43.35
232.907	8.53
233.125	-1.71
233.342	16.73
233.56	-26.28
233.777	-13.99
233.995	8.53
234.213	115.03
234.43	10.58
234.648	-24.23
234.865	2.39
235.083	33.11
235.3	31.06
235.518	98.64
235.735	84.31
235.953	31.06
236.17	16.73
236.388	-28.33
236.605	26.96
236.822	35.16
237.04	153.94
237.257	33.11
237.475	-71.34
237.692	53.59
237.909	39.25
238.127	74.07
238.344	45.4
238.562	2.39
238.779	-106.15
238.996	-132.78
239.214	63.83
239.431	84.31
239.648	12.63
239.865	88.4
240.083	43.35
240.3	18.77
240.517	-57
240.735	-7.85
240.952	123.22
241.169	14.68
241.386	65.88
241.603	26.96
241.821	-87.72
242.038	24.92
242.255	84.31
242.472	2.39
242.689	-11.95
242.907	65.88
243.124	59.73
243.341	-69.29
243.558	74.07
243.775	-38.57
243.992	-81.58
244.209	90.45
244.426	186.71
244.643	74.07
244.86	-9.9
245.078	84.31
245.295	51.54
245.512	31.06
245.729	-32.43
245.946	41.3
246.163	16.73
246.38	0.34
246.597	39.25
246.814	-42.67
247.031	10.58
247.248	-13.99
247.464	102.74
247.681	6.49
247.898	16.73
248.115	61.78
248.332	-5.8
248.549	108.88
248.766	96.6
248.983	-16.04
249.2	47.44
249.417	43.35
249.633	18.77
249.85	78.16
250.067	-26.28
250.284	16.73
250.501	80.21
250.717	53.59
250.934	-54.95
251.151	-9.9
251.368	-42.67
251.585	2.39
251.801	-9.9
252.018	-85.67
252.235	-5.8
252.451	-81.58
252.668	0.34
252.885	96.6
253.102	49.49
253.318	-73.39
253.535	-38.57
253.752	-75.43
253.968	-81.58
254.185	-67.24
254.401	31.06
254.618	110.93
254.835	2.39
255.051	96.6
255.268	65.88
255.484	39.25
255.701	-26.28
255.917	65.88
256.134	-42.67
256.351	-7.85
256.567	-50.86
256.784	-1.71
257	-54.95
257.217	26.96
257.433	43.35
257.65	22.87
257.866	115.03
258.082	-75.43
258.299	31.06
258.515	-18.09
258.732	-54.95
258.948	10.58
259.165	84.31
259.381	-5.8
259.597	55.64
259.814	14.68
260.03	12.63
260.246	76.12
260.463	41.3
260.679	67.92
260.895	2.39
261.112	8.53
261.328	12.63
261.544	-97.96
261.761	92.5
261.977	10.58
262.193	-34.47
262.409	63.83
262.626	151.89
262.842	80.21
263.058	-54.95
263.274	-11.95
263.49	61.78
263.707	16.73
263.923	84.31
264.139	-16.04
264.355	4.44
264.571	96.6
264.787	16.73
265.004	33.11
265.22	47.44
265.436	-18.09
265.652	-13.99
265.868	18.77
266.084	0.34
266.3	-30.38
266.516	-97.96
266.732	8.53
266.948	-46.76
267.164	-7.85
267.38	53.59
267.596	-42.67
267.812	219.47
268.028	43.35
268.244	-63.15
268.46	47.44
268.676	-59.05
268.892	10.58
269.108	45.4
269.324	18.77
269.54	-63.15
269.756	26.96
269.972	-67.24
270.188	41.3
270.403	4.44
270.619	-40.62
270.835	84.31
271.051	-22.19
271.267	-57
271.483	-40.62
271.698	72.02
271.914	49.49
272.13	59.73
272.346	20.82
272.562	12.63
272.777	98.64
272.993	-24.23
273.209	-30.38
273.425	96.6
273.64	8.53
273.856	65.88
274.072	8.53
274.287	-22.19
274.503	59.73
274.719	82.26
274.934	-83.63
275.15	-67.24
275.366	26.96
275.581	-9.9
275.797	76.12
276.012	-22.19
276.228	31.06
276.444	0.34
276.659	100.69
276.875	-71.34
277.09	26.96
277.306	-30.38
277.521	63.83
277.737	76.12
277.952	0.34
278.168	4.44
278.383	6.49
278.599	35.16
278.814	26.96
279.03	55.64
279.245	119.12
279.461	67.92
279.676	92.5
279.892	-65.19
280.107	-38.57
280.322	-75.43
280.538	82.26
280.753	-52.91
280.969	20.82
281.184	-16.04
281.399	72.02
281.615	31.06
281.83	55.64
282.045	-89.77
282.26	-9.9
282.476	35.16
282.691	18.77
282.906	-38.57
283.122	100.69
283.337	47.44
283.552	65.88
283.767	-24.23
283.983	35.16
284.198	2.39
284.413	98.64
284.628	-26.28
284.843	133.46
285.058	37.2
285.274	6.49
285.489	-13.99
285.704	147.8
285.919	20.82
286.134	10.58
286.349	29.01
286.564	-34.47
286.779	39.25
286.995	-9.9
287.21	-114.34
287.425	-9.9
287.64	18.77
287.855	51.54
288.07	-24.23
288.285	-34.47
288.5	10.58
288.715	6.49
288.93	12.63
289.145	-42.67
289.36	69.97
289.575	-69.29
289.79	90.45
290.004	-48.81
290.219	127.32
290.434	-100.01
290.649	-75.43
290.864	0.34
291.079	-9.9
291.294	35.16
291.509	43.35
291.724	43.35
291.938	31.06
292.153	45.4
292.368	-20.14
292.583	74.07
292.798	47.44
293.012	55.64
293.227	65.88
293.442	-11.95
293.657	90.45
293.871	92.5
294.086	43.35
294.301	141.65
294.516	127.32
294.73	0.34
294.945	-40.62
295.16	22.87
295.374	35.16
295.589	80.21
295.804	-50.86
296.018	-24.23
296.233	18.77
296.447	-34.47
296.662	12.63
296.877	59.73
297.091	80.21
297.306	69.97
297.52	4.44
297.735	6.49
297.949	51.54
298.164	2.39
298.378	-63.15
298.593	-52.91
298.807	-36.52
299.022	2.39
299.236	100.69
299.451	20.82
299.665	31.06
299.88	-26.28
300.094	74.07
300.309	31.06
300.523	51.54
300.737	-32.43
300.952	80.21
301.166	51.54
301.381	-112.3
301.595	-26.28
301.809	31.06
302.024	-48.81
302.238	26.96
302.452	131.41
302.667	-5.8
302.881	72.02
303.095	67.92
303.309	12.63
303.524	-30.38
303.738	-13.99
303.952	10.58
304.166	92.5
304.381	-159.4
304.595	164.18
304.809	33.11
305.023	49.49
305.237	-13.99
305.452	-1.71
305.666	108.88
305.88	33.11
306.094	84.31
306.308	-9.9
306.522	37.2
306.736	8.53
306.95	92.5
307.164	-11.95
307.379	26.96
307.593	115.03
307.807	127.32
308.021	55.64
308.235	-63.15
308.449	-114.34
308.663	2.39
308.877	178.51
309.091	26.96
309.305	37.2
309.519	-89.77
309.733	82.26
309.947	-71.34
310.161	26.96
310.374	39.25
310.588	94.55
310.802	-3.75
311.016	-44.71
311.23	100.69
311.444	-38.57
311.658	12.63
311.872	94.55
312.085	72.02
312.299	53.59
312.513	57.68
312.727	67.92
312.941	-28.33
313.154	76.12
313.368	0.34
313.582	35.16
313.796	59.73
314.009	-22.19
314.223	108.88
314.437	14.68
314.651	57.68
314.864	-89.77
315.078	2.39
315.292	-65.19
315.505	-11.95
315.719	53.59
315.933	108.88
316.146	18.77
316.36	-71.34
316.573	92.5
316.787	16.73
317.001	-7.85
317.214	-83.63
317.428	57.68
317.641	4.44
317.855	-24.23
318.068	-46.76
318.282	53.59
318.495	139.6
318.709	108.88
318.922	-5.8
319.136	86.36
319.349	127.32
319.563	-50.86
319.776	63.83
319.99	-67.24
320.203	43.35
320.417	-40.62
320.63	76.12
320.843	117.08
321.057	67.92
321.27	37.2
321.483	47.44
321.697	100.69
321.91	49.49
322.124	-1.71
322.337	33.11
322.55	-50.86
322.763	37.2
322.977	-81.58
323.19	8.53
323.403	16.73
323.617	67.92
323.83	76.12
324.043	14.68
324.256	39.25
324.469	-95.91
324.683	90.45
324.896	-18.09
325.109	55.64
325.322	-67.24
325.535	78.16
325.748	14.68
325.962	-3.75
326.175	-13.99
326.388	53.59
326.601	55.64
326.814	10.58
327.027	37.2
327.24	164.18
327.453	-71.34
327.666	57.68
327.879	137.56
328.092	-36.52
328.305	18.77
328.518	-7.85
328.731	10.58
328.944	104.79
329.157	8.53
329.37	45.4
329.583	135.51
329.796	119.12
330.009	22.87
330.222	26.96
330.435	57.68
330.648	12.63
330.861	33.11
331.073	-34.47
331.286	84.31
331.499	72.02
331.712	-79.53
331.925	37.2
332.138	20.82
332.35	84.31
332.563	-11.95
332.776	149.84
332.989	-34.47
333.202	-7.85
333.414	-5.8
333.627	59.73
333.84	-28.33
334.053	117.08
334.265	-30.38
334.478	33.11
334.691	33.11
334.903	45.4
335.116	-73.39
335.329	-20.14
335.541	10.58
335.754	45.4
335.966	-30.38
336.179	39.25
336.392	-52.91
336.604	-36.52
336.817	108.88
337.029	8.53
337.242	-34.47
337.454	39.25
337.667	-7.85
337.88	2.39
338.092	125.27
338.305	18.77
338.517	-54.95
338.729	20.82
338.942	131.41
339.154	41.3
339.367	-40.62
339.579	49.49
339.792	-38.57
340.004	72.02
340.217	6.49
340.429	78.16
340.641	-73.39
340.854	-24.23
341.066	-7.85
341.278	127.32
341.491	184.66
341.703	72.02
341.915	-11.95
342.128	51.54
342.34	35.16
342.552	-7.85
342.764	-16.04
342.977	-18.09
343.189	63.83
343.401	26.96
343.613	-108.2
343.826	-16.04
344.038	26.96
344.25	-22.19
344.462	-38.57
344.674	12.63
344.886	24.92
345.099	14.68
345.311	67.92
345.523	31.06
345.735	-100.01
345.947	67.92
346.159	72.02
346.371	63.83
346.583	-71.34
346.795	164.18
347.007	51.54
347.219	18.77
347.431	-1.71
347.643	92.5
347.855	-20.14
348.067	125.27
348.279	-65.19
348.491	39.25
348.703	84.31
348.915	49.49
349.127	35.16
349.339	2.39
349.551	-71.34
349.763	94.55
349.975	-5.8
350.187	80.21
350.399	158.03
350.61	12.63
350.822	-5.8
351.034	22.87
351.246	2.39
351.458	-5.8
351.669	123.22
351.881	131.41
352.093	88.4
352.305	67.92
352.517	65.88
352.728	43.35
352.94	43.35
353.152	57.68
353.363	-11.95
353.575	53.59
353.787	147.8
353.999	14.68
354.21	76.12
354.422	31.06
354.633	-24.23
354.845	-3.75
355.057	-9.9
355.268	-30.38
355.48	63.83
355.692	29.01
355.903	51.54
356.115	-9.9
356.326	-69.29
356.538	96.6
356.749	10.58
356.961	117.08
357.172	-13.99
357.384	-57
357.595	131.41
357.807	8.53
358.018	-71.34
358.23	-28.33
358.441	98.64
358.653	55.64
358.864	67.92
359.075	-36.52
359.287	45.4
359.498	51.54
359.709	2.39
359.921	41.3
360.132	14.68
360.344	80.21
360.555	20.82
360.766	20.82
360.977	-16.04
361.189	119.12
361.4	-48.81
361.611	29.01
361.823	-46.76
362.034	24.92
362.245	-38.57
362.456	35.16
362.667	31.06
362.879	-69.29
363.09	26.96
363.301	-11.95
363.512	-95.91
363.723	-50.86
363.935	-46.76
364.146	51.54
364.357	-40.62
364.568	8.53
364.779	-116.39
364.99	94.55
365.201	-67.24
365.412	76.12
365.623	-108.2
365.834	-108.2
366.045	2.39
366.256	22.87
366.467	74.07
366.678	10.58
366.889	-3.75
367.1	6.49
367.311	82.26
367.522	-1.71
367.733	-22.19
367.944	74.07
368.155	45.4
368.366	176.47
368.577	37.2
368.788	31.06
368.999	-30.38
369.209	-28.33
369.42	186.71
369.631	115.03
369.842	76.12
370.053	37.2
370.264	31.06
370.474	-54.95
370.685	76.12
370.896	-34.47
371.107	67.92
371.317	76.12
371.528	-34.47
371.739	137.56
371.95	67.92
372.16	22.87
372.371	-24.23
372.582	61.78
372.792	43.35
373.003	94.55
373.214	43.35
373.424	63.83
373.635	-26.28
373.846	51.54
374.056	-3.75
374.267	63.83
374.477	45.4
374.688	8.53
374.898	-26.28
375.109	-7.85
375.319	26.96
375.53	86.36
375.74	149.84
375.951	-54.95
376.161	-57
376.372	74.07
376.582	-7.85
376.793	76.12
377.003	-22.19
377.214	-40.62
377.424	106.84
377.635	-30.38
377.845	2.39
378.055	72.02
378.266	-50.86
378.476	-9.9
378.686	94.55
378.897	12.63
379.107	67.92
379.317	96.6
379.528	-52.91
379.738	78.16
379.948	-97.96
380.158	43.35
380.369	2.39
380.579	26.96
380.789	-30.38
380.999	139.6
381.21	104.79
381.42	112.98
381.63	-26.28
381.84	29.01
382.05	76.12
382.261	51.54
382.471	35.16
382.681	-46.76
382.891	119.12
383.101	14.68
383.311	-42.67
383.521	22.87
383.731	53.59
383.941	65.88
384.151	18.77
384.361	-7.85
384.571	-32.43
384.781	-36.52
384.991	160.08
385.201	170.32
385.411	43.35
385.621	-1.71
385.831	49.49
386.041	-1.71
386.251	-26.28
386.461	72.02
386.671	82.26
386.881	59.73
387.091	-9.9
387.301	108.88
387.511	22.87
387.72	2.39
387.93	49.49
388.14	-71.34
388.35	-9.9
388.56	57.68
388.769	108.88
388.979	-20.14
389.189	-63.15
389.399	31.06
389.609	82.26
389.818	24.92
390.028	76.12
390.238	72.02
390.447	8.53
390.657	-26.28
390.867	-5.8
391.076	-118.44
391.286	-16.04
391.496	29.01
391.705	-16.04
391.915	51.54
392.125	104.79
392.334	-44.71
392.544	139.6
392.753	-46.76
392.963	33.11
393.172	10.58
393.382	-71.34
393.591	151.89
393.801	-18.09
394.01	115.03
394.22	86.36
394.429	-59.05
394.639	-54.95
394.848	108.88
395.058	-13.99
395.267	-63.15
395.477	53.59
395.686	59.73
395.895	104.79
396.105	223.57
396.314	10.58
396.524	12.63
396.733	24.92
396.942	137.56
397.152	63.83
397.361	74.07
397.57	-26.28
397.78	63.83
397.989	53.59
398.198	170.32
398.407	-38.57
398.617	37.2
398.826	14.68
399.035	39.25
399.244	92.5
399.453	-28.33
399.663	35.16
399.872	80.21
400.081	-18.09
400.29	88.4
400.499	-42.67
400.708	12.63
400.917	0.34
401.127	-61.1
401.336	16.73
401.545	151.89
401.754	78.16
401.963	41.3
402.172	-20.14
402.381	-52.91
402.59	31.06
402.799	-20.14
403.008	98.64
403.217	31.06
403.426	57.68
403.635	-36.52
403.844	24.92
404.053	26.96
404.262	14.68
404.471	80.21
404.68	-42.67
404.888	72.02
405.097	2.39
405.306	45.4
405.515	115.03
405.724	86.36
405.933	63.83
406.142	26.96
406.35	76.12
406.559	72.02
406.768	65.88
406.977	96.6
407.185	-1.71
407.394	61.78
407.603	-122.54
407.812	59.73
408.02	123.22
408.229	26.96
408.438	31.06
408.646	-69.29
408.855	67.92
409.064	74.07
409.272	26.96
409.481	67.92
409.69	-46.76
409.898	-32.43
410.107	57.68
410.315	41.3
410.524	29.01
410.733	82.26
410.941	18.77
411.15	94.55
411.358	33.11
411.567	86.36
411.775	16.73
411.984	10.58
412.192	41.3
412.401	-13.99
412.609	196.95
412.818	133.46
413.026	106.84
413.234	2.39
413.443	-18.09
413.651	-73.39
413.86	18.77
414.068	100.69
414.276	186.71
414.485	41.3
414.693	141.65
414.901	172.37
415.11	8.53
415.318	33.11
415.526	-50.86
415.734	100.69
415.943	0.34
416.151	135.51
416.359	22.87
416.567	39.25
416.776	59.73
416.984	65.88
417.192	63.83
417.4	-61.1
417.608	41.3
417.817	-13.99
418.025	98.64
418.233	133.46
418.441	-57
418.649	-40.62
418.857	67.92
419.065	190.8
419.273	-50.86
419.481	33.11
419.689	33.11
419.897	-18.09
420.105	-28.33
420.313	67.92
420.521	123.22
420.729	119.12
420.937	33.11
421.145	-73.39
421.353	74.07
421.561	90.45
421.769	-26.28
421.977	-30.38
422.185	104.79
422.393	26.96
422.601	92.5
422.809	69.97
423.017	18.77
423.224	10.58
423.432	92.5
423.64	-32.43
423.848	53.59
424.056	-22.19
424.263	67.92
424.471	-7.85
424.679	100.69
424.887	-13.99
425.094	35.16
425.302	18.77
425.51	-13.99
425.718	96.6
425.925	108.88
426.133	-42.67
426.341	188.75
426.548	76.12
426.756	76.12
426.964	74.07
427.171	-13.99
427.379	-5.8
427.586	59.73
427.794	51.54
428.001	110.93
428.209	35.16
428.417	100.69
428.624	170.32
428.832	141.65
429.039	-11.95
429.247	-36.52
429.454	26.96
429.662	129.36
429.869	119.12
430.076	63.83
430.284	115.03
430.491	268.63
430.699	143.7
430.906	125.27
431.114	127.32
431.321	151.89
431.528	80.21
431.736	100.69
431.943	137.56
432.15	82.26
432.358	117.08
432.565	223.57
432.772	-28.33
432.979	155.99
433.187	57.68
433.394	104.79
433.601	84.31
433.808	213.33
434.016	268.63
434.223	194.9
434.43	149.84
434.637	155.99
434.844	291.15
435.052	78.16
435.259	225.62
435.466	229.71
435.673	190.8
435.88	203.09
436.087	268.63
436.294	280.91
436.501	309.58
436.708	239.95
436.915	264.53
437.122	278.87
437.329	180.56
437.537	272.72
437.743	268.63
437.95	432.46
438.157	282.96
438.364	330.06
438.571	311.63
438.778	352.59
438.985	305.49
439.192	325.97
439.399	346.45
439.606	414.03
439.813	420.17
440.02	522.57
440.227	506.19
440.433	485.71
440.64	467.28
440.847	371.02
441.054	461.13
441.261	639.31
441.467	606.54
441.674	514.38
441.881	633.16
442.088	491.85
442.294	627.02
442.501	649.55
442.708	747.85
442.914	684.36
443.121	649.55
443.328	710.99
443.534	719.18
443.741	723.27
443.948	678.22
444.154	780.62
444.361	862.54
444.568	784.71
444.774	880.97
444.981	776.52
445.187	977.22
445.394	958.79
445.6	872.78
445.807	956.74
446.013	1057.09
446.22	1048.9
446.426	1116.48
446.633	1210.69
446.839	1376.58
447.046	1163.59
447.252	1462.59
447.459	1345.86
447.665	1458.5
447.871	1505.6
448.078	1704.25
448.284	1538.37
448.491	1603.9
448.697	1681.72
448.903	1706.3
449.11	1859.9
449.316	1915.19
449.522	1898.81
449.728	2064.69
449.935	2046.26
450.141	2079.03
450.347	2445.62
450.553	2214.2
450.76	2339.12
450.966	2418.99
451.172	2343.22
451.378	2578.73
451.584	2730.28
451.791	2828.59
451.997	2836.78
452.203	3012.9
452.409	3131.69
452.615	3115.3
452.821	3074.34
453.027	3027.24
453.233	3559.71
453.44	3451.17
453.646	3574.05
453.852	3674.4
454.058	3936.54
454.264	4194.58
454.47	4294.93
454.676	4319.51
454.882	4655.37
455.088	4702.48
455.294	4739.34
455.5	4964.62
455.705	5396.74
455.911	5327.11
456.117	5536
456.323	5585.15
456.529	5638.4
456.735	6172.92
456.941	6433.01
457.147	6639.86
457.352	6785.26
457.558	6887.66
457.764	7481.57
457.97	7536.87
458.176	7831.77
458.381	8169.69
458.587	8483.03
458.793	8870.09
458.999	8763.6
459.204	9877.69
459.41	10078.4
459.616	10160.31
459.821	10598.58
460.027	10999.98
460.233	11784.35
460.438	11733.15
460.644	12339.35
460.85	12484.76
461.055	13119.63
461.261	13424.78
461.466	13250.7
461.672	13635.72
461.878	15263.85
462.083	15229.04
462.289	15384.68
462.494	15982.69
462.7	16111.71
462.905	16334.94
463.111	17608.78
463.316	18292.8
463.522	18653.24
463.727	19312.69
463.932	20039.72
464.138	20815.9
464.343	21727.24
464.549	21934.09
464.754	23453.68
464.959	23883.75
465.165	24465.38
465.37	24381.41
465.575	24279.01
465.781	26234.82
465.986	27109.3
466.191	26554.3
466.397	26677.18
466.602	26513.34
466.807	27844.52
467.012	28266.41
467.218	28497.83
467.423	28538.79
467.628	29411.22
467.833	30885.76
468.038	30578.56
468.244	29941.64
468.449	31461.24
468.654	30711.68
468.859	30801.79
469.064	31321.98
469.269	30373.77
