Data from USB4F104151__76__10-33-07-344.txt Node

Date: Wed Feb 26 10:33:07 EST 2025
User: louis
Spectrometer: USB4F10415
Trigger mode: 4
Integration Time (sec): 1.000000E-1
Scans to average: 1
Electric dark correction enabled: true
Nonlinearity correction enabled: false
Boxcar width: 0
XAxis mode: Wavelengths
Number of Pixels in Spectrum: 3648
>>>>>Begin Spectral Data<<<<<
178.204	-346.62
178.424	-346.62
178.644	-346.62
178.864	-422.39
179.084	-334.33
179.304	-10.75
179.524	-2.56
179.744	-16.9
179.964	24.06
180.184	46.59
180.404	3.58
180.624	11.78
180.844	60.93
181.064	-80.38
181.283	56.83
181.503	-35.33
181.723	-57.86
181.943	42.5
182.163	194.05
182.383	40.45
182.602	69.12
182.822	122.37
183.042	110.08
183.262	17.92
183.482	87.55
183.701	110.08
183.921	185.85
184.141	-16.9
184.361	122.37
184.58	67.07
184.8	148.99
185.02	-0.51
185.239	130.56
185.459	28.16
185.679	245.24
185.898	-45.57
186.118	99.84
186.338	122.37
186.557	114.17
186.777	30.21
186.997	28.16
187.216	148.99
187.436	208.38
187.655	95.74
187.875	99.84
188.095	95.74
188.314	175.61
188.534	114.17
188.753	-25.09
188.973	126.46
189.192	153.09
189.412	28.16
189.631	52.74
189.851	122.37
190.07	198.14
190.29	-39.42
190.509	40.45
190.729	142.85
190.948	237.05
191.168	290.3
191.387	130.56
191.607	7.68
191.826	126.46
192.045	40.45
192.265	44.54
192.484	71.17
192.704	99.84
192.923	22.02
193.142	204.28
193.362	202.24
193.581	204.28
193.8	161.28
194.02	69.12
194.239	146.94
194.458	108.03
194.678	38.4
194.897	67.07
195.116	38.4
195.335	101.89
195.555	38.4
195.774	9.73
195.993	192
196.212	28.16
196.432	28.16
196.651	58.88
196.87	103.93
197.089	306.68
197.308	56.83
197.528	130.56
197.747	-0.51
197.966	75.26
198.185	148.99
198.404	15.87
198.623	97.79
198.842	134.65
199.062	198.14
199.281	124.41
199.5	77.31
199.719	140.8
199.938	181.76
200.157	151.04
200.376	148.99
200.595	136.7
200.814	116.22
201.033	38.4
201.252	183.81
201.471	95.74
201.69	99.84
201.909	118.27
202.128	38.4
202.347	89.6
202.566	30.21
202.785	-41.47
203.004	77.31
203.223	251.39
203.442	28.16
203.661	-16.9
203.879	146.94
204.098	237.05
204.317	13.82
204.536	132.61
204.755	85.5
204.974	157.18
205.193	65.02
205.411	155.13
205.63	114.17
205.849	153.09
206.068	83.45
206.287	36.35
206.505	163.33
206.724	161.28
206.943	26.11
207.162	24.06
207.381	77.31
207.599	116.22
207.818	48.64
208.037	11.78
208.255	89.6
208.474	105.98
208.693	138.75
208.911	-2.56
209.13	185.85
209.349	132.61
209.567	114.17
209.786	108.03
210.005	173.57
210.223	62.98
210.442	32.26
210.661	7.68
210.879	108.03
211.098	148.99
211.316	110.08
211.535	122.37
211.753	136.7
211.972	167.42
212.191	73.21
212.409	11.78
212.628	112.13
212.846	54.78
213.065	99.84
213.283	130.56
213.502	46.59
213.72	93.69
213.938	169.47
214.157	28.16
214.375	138.75
214.594	-33.28
214.812	101.89
215.031	91.65
215.249	67.07
215.467	144.89
215.686	77.31
215.904	75.26
216.122	75.26
216.341	226.81
216.559	60.93
216.778	148.99
216.996	171.52
217.214	89.6
217.432	-31.23
217.651	-2.56
217.869	58.88
218.087	112.13
218.306	110.08
218.524	44.54
218.742	38.4
218.96	142.85
219.179	30.21
219.397	36.35
219.615	278.01
219.833	167.42
220.051	52.74
220.27	112.13
220.488	169.47
220.706	138.75
220.924	28.16
221.142	42.5
221.36	-55.81
221.578	97.79
221.796	73.21
222.015	38.4
222.233	142.85
222.451	153.09
222.669	87.55
222.887	126.46
223.105	89.6
223.323	120.32
223.541	32.26
223.759	93.69
223.977	83.45
224.195	165.37
224.413	67.07
224.631	126.46
224.849	116.22
225.067	214.52
225.285	44.54
225.503	9.73
225.721	5.63
225.939	97.79
226.157	202.24
226.375	226.81
226.592	44.54
226.81	91.65
227.028	153.09
227.246	196.09
227.464	157.18
227.682	128.51
227.9	73.21
228.117	81.41
228.335	97.79
228.553	105.98
228.771	36.35
228.989	134.65
229.206	85.5
229.424	120.32
229.642	108.03
229.86	26.11
230.077	171.52
230.295	169.47
230.513	165.37
230.731	110.08
230.948	60.93
231.166	181.76
231.384	-33.28
231.601	11.78
231.819	228.86
232.037	44.54
232.254	26.11
232.472	93.69
232.689	7.68
232.907	140.8
233.125	93.69
233.342	-39.42
233.56	50.69
233.777	11.78
233.995	46.59
234.213	177.66
234.43	189.95
234.648	60.93
234.865	24.06
235.083	75.26
235.3	142.85
235.518	62.98
235.735	126.46
235.953	153.09
236.17	105.98
236.388	69.12
236.605	105.98
236.822	69.12
237.04	122.37
237.257	3.58
237.475	-10.75
237.692	15.87
237.909	130.56
238.127	71.17
238.344	148.99
238.562	81.41
238.779	-8.7
238.996	3.58
239.214	71.17
239.431	97.79
239.648	40.45
239.865	122.37
240.083	173.57
240.3	15.87
240.517	-20.99
240.735	7.68
240.952	95.74
241.169	67.07
241.386	71.17
241.603	54.78
241.821	-6.66
242.038	128.51
242.255	175.61
242.472	30.21
242.689	46.59
242.907	85.5
243.124	56.83
243.341	81.41
243.558	11.78
243.775	15.87
243.992	58.88
244.209	116.22
244.426	151.04
244.643	179.71
244.86	46.59
245.078	122.37
245.295	136.7
245.512	75.26
245.729	36.35
245.946	91.65
246.163	97.79
246.38	77.31
246.597	138.75
246.814	34.3
247.031	65.02
247.248	95.74
247.464	138.75
247.681	34.3
247.898	103.93
248.115	112.13
248.332	-4.61
248.549	159.23
248.766	122.37
248.983	173.57
249.2	95.74
249.417	136.7
249.633	-12.8
249.85	108.03
250.067	105.98
250.284	85.5
250.501	73.21
250.717	112.13
250.934	-6.66
251.151	95.74
251.368	40.45
251.585	108.03
251.801	89.6
252.018	62.98
252.235	67.07
252.451	38.4
252.668	46.59
252.885	103.93
253.102	44.54
253.318	60.93
253.535	-0.51
253.752	22.02
253.968	32.26
254.185	-14.85
254.401	130.56
254.618	75.26
254.835	65.02
255.051	146.94
255.268	132.61
255.484	95.74
255.701	67.07
255.917	56.83
256.134	48.64
256.351	-29.18
256.567	-8.7
256.784	38.4
257	-43.52
257.217	81.41
257.433	198.14
257.65	134.65
257.866	153.09
258.082	-14.85
258.299	56.83
258.515	108.03
258.732	73.21
258.948	110.08
259.165	91.65
259.381	11.78
259.597	118.27
259.814	58.88
260.03	48.64
260.246	36.35
260.463	85.5
260.679	167.42
260.895	155.13
261.112	87.55
261.328	138.75
261.544	62.98
261.761	173.57
261.977	79.36
262.193	22.02
262.409	169.47
262.626	91.65
262.842	126.46
263.058	50.69
263.274	151.04
263.49	130.56
263.707	101.89
263.923	116.22
264.139	-33.28
264.355	105.98
264.571	136.7
264.787	126.46
265.004	110.08
265.22	112.13
265.436	24.06
265.652	34.3
265.868	52.74
266.084	32.26
266.3	50.69
266.516	-49.66
266.732	54.78
266.948	108.03
267.164	163.33
267.38	95.74
267.596	130.56
267.812	187.9
268.028	183.81
268.244	17.92
268.46	93.69
268.676	38.4
268.892	130.56
269.108	19.97
269.324	91.65
269.54	1.54
269.756	157.18
269.972	40.45
270.188	3.58
270.403	60.93
270.619	87.55
270.835	142.85
271.051	50.69
271.267	97.79
271.483	28.16
271.698	122.37
271.914	42.5
272.13	75.26
272.346	155.13
272.562	19.97
272.777	175.61
272.993	-47.62
273.209	-6.66
273.425	71.17
273.64	36.35
273.856	124.41
274.072	73.21
274.287	75.26
274.503	161.28
274.719	103.93
274.934	46.59
275.15	28.16
275.366	101.89
275.581	5.63
275.797	28.16
276.012	9.73
276.228	81.41
276.444	159.23
276.659	175.61
276.875	52.74
277.09	15.87
277.306	22.02
277.521	105.98
277.737	50.69
277.952	89.6
278.168	124.41
278.383	73.21
278.599	71.17
278.814	146.94
279.03	-10.75
279.245	192
279.461	22.02
279.676	105.98
279.892	19.97
280.107	-25.09
280.322	95.74
280.538	118.27
280.753	-2.56
280.969	58.88
281.184	60.93
281.399	194.05
281.615	46.59
281.83	95.74
282.045	-59.9
282.26	114.17
282.476	118.27
282.691	142.85
282.906	50.69
283.122	32.26
283.337	67.07
283.552	110.08
283.767	65.02
283.983	89.6
284.198	62.98
284.413	71.17
284.628	-45.57
284.843	77.31
285.058	124.41
285.274	36.35
285.489	-0.51
285.704	116.22
285.919	24.06
286.134	114.17
286.349	30.21
286.564	81.41
286.779	185.85
286.995	89.6
287.21	-39.42
287.425	99.84
287.64	99.84
287.855	110.08
288.07	-86.53
288.285	216.57
288.5	105.98
288.715	130.56
288.93	95.74
289.145	56.83
289.36	138.75
289.575	48.64
289.79	126.46
290.004	19.97
290.219	138.75
290.434	40.45
290.649	77.31
290.864	75.26
291.079	56.83
291.294	87.55
291.509	75.26
291.724	69.12
291.938	148.99
292.153	54.78
292.368	101.89
292.583	52.74
292.798	165.37
293.012	132.61
293.227	73.21
293.442	118.27
293.657	126.46
293.871	155.13
294.086	77.31
294.301	140.8
294.516	146.94
294.73	99.84
294.945	-10.75
295.16	62.98
295.374	169.47
295.589	130.56
295.804	71.17
296.018	-8.7
296.233	134.65
296.447	181.76
296.662	5.63
296.877	187.9
297.091	54.78
297.306	54.78
297.52	56.83
297.735	56.83
297.949	105.98
298.164	112.13
298.378	22.02
298.593	22.02
298.807	-12.8
299.022	67.07
299.236	247.29
299.451	3.58
299.665	-2.56
299.88	79.36
300.094	151.04
300.309	97.79
300.523	67.07
300.737	60.93
300.952	142.85
301.166	105.98
301.381	48.64
301.595	62.98
301.809	87.55
302.024	112.13
302.238	9.73
302.452	99.84
302.667	30.21
302.881	128.51
303.095	105.98
303.309	157.18
303.524	7.68
303.738	56.83
303.952	15.87
304.166	71.17
304.381	-133.63
304.595	175.61
304.809	118.27
305.023	157.18
305.237	85.5
305.452	44.54
305.666	148.99
305.88	134.65
306.094	124.41
306.308	91.65
306.522	118.27
306.736	153.09
306.95	97.79
307.164	67.07
307.379	169.47
307.593	87.55
307.807	130.56
308.021	173.57
308.235	140.8
308.449	-0.51
308.663	126.46
308.877	290.3
309.091	81.41
309.305	83.45
309.519	-92.67
309.733	165.37
309.947	-8.7
310.161	122.37
310.374	120.32
310.588	187.9
310.802	-6.66
311.016	-8.7
311.23	87.55
311.444	56.83
311.658	81.41
311.872	134.65
312.085	148.99
312.299	148.99
312.513	120.32
312.727	206.33
312.941	34.3
313.154	65.02
313.368	132.61
313.582	32.26
313.796	81.41
314.009	67.07
314.223	105.98
314.437	112.13
314.651	159.23
314.864	26.11
315.078	11.78
315.292	-66.05
315.505	73.21
315.719	81.41
315.933	73.21
316.146	93.69
316.36	5.63
316.573	130.56
316.787	165.37
317.001	157.18
317.214	17.92
317.428	93.69
317.641	19.97
317.855	105.98
318.068	93.69
318.282	81.41
318.495	263.68
318.709	167.42
318.922	7.68
319.136	175.61
319.349	171.52
319.563	30.21
319.776	79.36
319.99	11.78
320.203	56.83
320.417	95.74
320.63	101.89
320.843	165.37
321.057	118.27
321.27	-20.99
321.483	69.12
321.697	124.41
321.91	144.89
322.124	114.17
322.337	151.04
322.55	7.68
322.763	161.28
322.977	17.92
323.19	46.59
323.403	144.89
323.617	157.18
323.83	99.84
324.043	99.84
324.256	118.27
324.469	46.59
324.683	224.76
324.896	87.55
325.109	77.31
325.322	-10.75
325.535	183.81
325.748	132.61
325.962	42.5
326.175	146.94
326.388	46.59
326.601	132.61
326.814	101.89
327.027	142.85
327.24	204.28
327.453	-49.66
327.666	171.52
327.879	192
328.092	122.37
328.305	65.02
328.518	40.45
328.731	-12.8
328.944	75.26
329.157	151.04
329.37	81.41
329.583	261.63
329.796	255.48
330.009	-35.33
330.222	36.35
330.435	120.32
330.648	81.41
330.861	-10.75
331.073	32.26
331.286	144.89
331.499	142.85
331.712	56.83
331.925	54.78
332.138	77.31
332.35	105.98
332.563	28.16
332.776	148.99
332.989	32.26
333.202	11.78
333.414	87.55
333.627	3.58
333.84	83.45
334.053	138.75
334.265	65.02
334.478	52.74
334.691	15.87
334.903	144.89
335.116	32.26
335.329	17.92
335.541	81.41
335.754	247.29
335.966	19.97
336.179	93.69
336.392	77.31
336.604	91.65
336.817	101.89
337.029	60.93
337.242	130.56
337.454	56.83
337.667	126.46
337.88	173.57
338.092	144.89
338.305	67.07
338.517	69.12
338.729	159.23
338.942	206.33
339.154	19.97
339.367	7.68
339.579	159.23
339.792	3.58
340.004	169.47
340.217	30.21
340.429	95.74
340.641	-45.57
340.854	26.11
341.066	60.93
341.278	208.38
341.491	269.82
341.703	15.87
341.915	34.3
342.128	179.71
342.34	128.51
342.552	15.87
342.764	40.45
342.977	3.58
343.189	114.17
343.401	95.74
343.613	22.02
343.826	105.98
344.038	75.26
344.25	52.74
344.462	62.98
344.674	120.32
344.886	50.69
345.099	167.42
345.311	163.33
345.523	83.45
345.735	-25.09
345.947	65.02
346.159	128.51
346.371	81.41
346.583	32.26
346.795	261.63
347.007	38.4
347.219	146.94
347.431	32.26
347.643	218.62
347.855	-23.04
348.067	165.37
348.279	-18.94
348.491	116.22
348.703	58.88
348.915	50.69
349.127	85.5
349.339	46.59
349.551	-14.85
349.763	183.81
349.975	26.11
350.187	185.85
350.399	210.43
350.61	79.36
350.822	97.79
351.034	99.84
351.246	71.17
351.458	155.13
351.669	151.04
351.881	105.98
352.093	81.41
352.305	187.9
352.517	167.42
352.728	171.52
352.94	140.8
353.152	83.45
353.363	5.63
353.575	65.02
353.787	153.09
353.999	91.65
354.21	198.14
354.422	65.02
354.633	5.63
354.845	103.93
355.057	24.06
355.268	69.12
355.48	112.13
355.692	36.35
355.903	167.42
356.115	40.45
356.326	1.54
356.538	183.81
356.749	83.45
356.961	120.32
357.172	67.07
357.384	-2.56
357.595	237.05
357.807	75.26
358.018	19.97
358.23	87.55
358.441	183.81
358.653	85.5
358.864	69.12
359.075	46.59
359.287	108.03
359.498	167.42
359.709	87.55
359.921	105.98
360.132	169.47
360.344	103.93
360.555	83.45
360.766	91.65
360.977	28.16
361.189	128.51
361.4	87.55
361.611	136.7
361.823	171.52
362.034	136.7
362.245	-14.85
362.456	144.89
362.667	103.93
362.879	71.17
363.09	54.78
363.301	91.65
363.512	69.12
363.723	-55.81
363.935	52.74
364.146	126.46
364.357	130.56
364.568	198.14
364.779	24.06
364.99	214.52
365.201	32.26
365.412	167.42
365.623	-43.52
365.834	67.07
366.045	38.4
366.256	85.5
366.467	75.26
366.678	30.21
366.889	77.31
367.1	26.11
367.311	24.06
367.522	-45.57
367.733	153.09
367.944	52.74
368.155	46.59
368.366	138.75
368.577	126.46
368.788	194.05
368.999	30.21
369.209	134.65
369.42	259.58
369.631	220.67
369.842	91.65
370.053	19.97
370.264	194.05
370.474	-20.99
370.685	77.31
370.896	79.36
371.107	179.71
371.317	142.85
371.528	-8.7
371.739	181.76
371.95	101.89
372.16	112.13
372.371	-6.66
372.582	95.74
372.792	130.56
373.003	34.3
373.214	126.46
373.424	163.33
373.635	73.21
373.846	159.23
374.056	91.65
374.267	99.84
374.477	97.79
374.688	77.31
374.898	165.37
375.109	83.45
375.319	153.09
375.53	118.27
375.74	105.98
375.951	95.74
376.161	159.23
376.372	159.23
376.582	28.16
376.793	60.93
377.003	54.78
377.214	95.74
377.424	169.47
377.635	60.93
377.845	24.06
378.055	169.47
378.266	-39.42
378.476	22.02
378.686	83.45
378.897	132.61
379.107	159.23
379.317	132.61
379.528	56.83
379.738	216.57
379.948	38.4
380.158	142.85
380.369	85.5
380.579	185.85
380.789	91.65
380.999	101.89
381.21	146.94
381.42	237.05
381.63	120.32
381.84	157.18
382.05	142.85
382.261	185.85
382.471	177.66
382.681	-33.28
382.891	192
383.101	108.03
383.311	19.97
383.521	75.26
383.731	126.46
383.941	187.9
384.151	122.37
384.361	89.6
384.571	124.41
384.781	155.13
384.991	148.99
385.201	267.77
385.411	114.17
385.621	93.69
385.831	101.89
386.041	103.93
386.251	11.78
386.461	122.37
386.671	93.69
386.881	140.8
387.091	67.07
387.301	93.69
387.511	146.94
387.72	159.23
387.93	138.75
388.14	-102.91
388.35	110.08
388.56	161.28
388.769	69.12
388.979	97.79
389.189	11.78
389.399	34.3
389.609	118.27
389.818	93.69
390.028	83.45
390.238	144.89
390.447	44.54
390.657	112.13
390.867	65.02
391.076	-12.8
391.286	132.61
391.496	40.45
391.705	181.76
391.915	169.47
392.125	105.98
392.334	32.26
392.544	187.9
392.753	101.89
392.963	-2.56
393.172	105.98
393.382	89.6
393.591	292.35
393.801	11.78
394.01	157.18
394.22	120.32
394.429	89.6
394.639	44.54
394.848	95.74
395.058	171.52
395.267	65.02
395.477	153.09
395.686	36.35
395.895	194.05
396.105	235
396.314	126.46
396.524	89.6
396.733	93.69
396.942	157.18
397.152	73.21
397.361	130.56
397.57	28.16
397.78	128.51
397.989	85.5
398.198	204.28
398.407	126.46
398.617	50.69
398.826	146.94
399.035	69.12
399.244	185.85
399.453	62.98
399.663	73.21
399.872	151.04
400.081	54.78
400.29	161.28
400.499	9.73
400.708	181.76
400.917	65.02
401.127	120.32
401.336	62.98
401.545	196.09
401.754	73.21
401.963	112.13
402.172	-49.66
402.381	40.45
402.59	50.69
402.799	30.21
403.008	204.28
403.217	142.85
403.426	91.65
403.635	-45.57
403.844	83.45
404.053	54.78
404.262	112.13
404.471	224.76
404.68	99.84
404.888	71.17
405.097	89.6
405.306	161.28
405.515	132.61
405.724	91.65
405.933	138.75
406.142	77.31
406.35	222.72
406.559	95.74
406.768	108.03
406.977	189.95
407.185	103.93
407.394	93.69
407.603	56.83
407.812	75.26
408.02	167.42
408.229	124.41
408.438	157.18
408.646	-29.18
408.855	22.02
409.064	146.94
409.272	103.93
409.481	165.37
409.69	26.11
409.898	52.74
410.107	161.28
410.315	142.85
410.524	30.21
410.733	91.65
410.941	97.79
411.15	116.22
411.358	71.17
411.567	194.05
411.775	65.02
411.984	75.26
412.192	196.09
412.401	44.54
412.609	265.72
412.818	241.15
413.026	153.09
413.234	46.59
413.443	155.13
413.651	-10.75
413.86	114.17
414.068	187.9
414.276	267.77
414.485	32.26
414.693	177.66
414.901	239.1
415.11	93.69
415.318	87.55
415.526	116.22
415.734	153.09
415.943	52.74
416.151	157.18
416.359	46.59
416.567	124.41
416.776	120.32
416.984	91.65
417.192	243.2
417.4	40.45
417.608	114.17
417.817	34.3
418.025	122.37
418.233	212.48
418.441	5.63
418.649	-4.61
418.857	65.02
419.065	179.71
419.273	93.69
419.481	132.61
419.689	42.5
419.897	65.02
420.105	103.93
420.313	177.66
420.521	132.61
420.729	185.85
420.937	-0.51
421.145	-0.51
421.353	116.22
421.561	173.57
421.769	42.5
421.977	40.45
422.185	165.37
422.393	110.08
422.601	132.61
422.809	140.8
423.017	132.61
423.224	99.84
423.432	153.09
423.64	48.64
423.848	189.95
424.056	36.35
424.263	189.95
424.471	79.36
424.679	259.58
424.887	77.31
425.094	214.52
425.302	95.74
425.51	120.32
425.718	169.47
425.925	132.61
426.133	62.98
426.341	218.62
426.548	130.56
426.756	34.3
426.964	124.41
427.171	97.79
427.379	169.47
427.586	97.79
427.794	159.23
428.001	171.52
428.209	222.72
428.417	235
428.624	89.6
428.832	155.13
429.039	124.41
429.247	169.47
429.454	159.23
429.662	202.24
429.869	189.95
430.076	87.55
430.284	173.57
430.491	249.34
430.699	204.28
430.906	249.34
431.114	151.04
431.321	155.13
431.528	153.09
431.736	216.57
431.943	140.8
432.15	212.48
432.358	282.11
432.565	284.16
432.772	15.87
432.979	335.35
433.187	132.61
433.394	327.16
433.601	132.61
433.808	153.09
434.016	300.54
434.223	263.68
434.43	222.72
434.637	300.54
434.844	288.25
435.052	302.59
435.259	308.73
435.466	306.68
435.673	263.68
435.88	316.92
436.087	417.27
436.294	390.65
436.501	349.69
436.708	337.4
436.915	382.46
437.122	458.23
437.329	339.45
437.537	380.41
437.743	505.34
437.95	579.06
438.157	486.9
438.364	454.14
438.571	484.86
438.778	536.06
438.985	478.71
439.192	544.25
439.399	562.68
439.606	515.58
439.813	591.35
440.02	615.93
440.227	749.04
440.433	679.41
440.64	656.89
440.847	642.55
441.054	703.99
441.261	701.94
441.467	730.61
441.674	767.48
441.881	841.2
442.088	769.52
442.294	916.98
442.501	759.28
442.708	863.73
442.914	839.16
443.121	916.98
443.328	945.65
443.534	1076.72
443.741	904.69
443.948	890.35
444.154	1068.53
444.361	1218.03
444.568	1152.49
444.774	1203.69
444.981	1134.06
445.187	1326.57
445.394	1265.13
445.6	1189.36
445.807	1512.94
446.013	1416.68
446.22	1381.87
446.426	1562.09
446.633	1723.88
446.839	1887.72
447.046	1545.7
447.252	1793.51
447.459	1713.64
447.665	1746.41
447.871	1945.06
448.078	2106.85
448.284	2057.7
448.491	2133.47
448.697	2266.59
448.903	2424.28
449.11	2436.57
449.316	2352.6
449.522	2555.35
449.728	2708.95
449.935	2772.44
450.141	2715.09
450.347	2975.19
450.553	2909.65
450.76	3022.29
450.966	3139.02
451.172	3405.26
451.378	3521.99
451.584	3474.89
451.791	3780.04
451.997	3726.79
452.203	3800.52
452.409	4103.62
452.615	4054.47
452.821	4177.34
453.027	4216.26
453.233	4736.44
453.44	4484.54
453.646	4785.59
453.852	5023.16
454.058	5395.89
454.264	5326.25
454.47	5889.45
454.676	5676.46
454.882	6348.19
455.088	6198.69
455.294	6538.65
455.5	6645.15
455.705	7249.3
455.911	6905.24
456.117	7095.7
456.323	7634.32
456.529	7517.58
456.735	8248.71
456.941	8430.98
457.147	8885.62
457.352	9028.98
457.558	9336.18
457.764	9874.79
457.97	10331.49
458.176	10497.38
458.381	10829.15
458.587	11459.92
458.793	12055.88
458.999	11865.42
459.204	13266.23
459.41	13710.64
459.616	13534.51
459.821	14204.2
460.027	15117.59
460.233	15713.55
460.438	15756.56
460.644	16661.76
460.85	16637.19
461.055	17439.99
461.261	18072.81
461.466	18199.79
461.672	18320.62
461.878	20589.77
462.083	20032.72
462.289	20724.93
462.494	21386.43
462.7	21583.03
462.905	21970.1
463.111	23927.95
463.316	24865.92
463.522	25224.32
463.727	26088.56
463.932	27210.85
464.138	27520.09
464.343	29025.35
464.549	29158.47
464.754	30932.01
464.959	31935.51
465.165	32850.95
465.37	32072.73
465.575	32191.51
465.781	34348.02
465.986	35759.07
466.191	35226.6
466.397	35349.48
466.602	34546.67
466.807	36152.28
