Data from USB4F104151__55__09-28-25-802.txt Node

Date: Wed Feb 26 09:28:25 EST 2025
User: louis
Spectrometer: USB4F10415
Trigger mode: 4
Integration Time (sec): 1.000000E-1
Scans to average: 1
Electric dark correction enabled: true
Nonlinearity correction enabled: false
Boxcar width: 0
XAxis mode: Wavelengths
Number of Pixels in Spectrum: 3648
>>>>>Begin Spectral Data<<<<<
178.204	-396.28
178.424	-396.28
178.644	-396.28
178.864	-275.45
179.084	-357.37
179.304	-19.46
179.524	-19.46
179.744	41.98
179.964	48.13
180.184	-25.6
180.404	7.17
180.624	3.07
180.844	25.6
181.064	-35.84
181.283	46.08
181.503	-74.75
181.723	3.07
181.943	-60.42
182.163	150.53
182.383	11.26
182.602	-25.6
182.822	41.98
183.042	60.42
183.262	-15.36
183.482	39.94
183.701	-5.12
183.921	84.99
184.141	37.89
184.361	148.48
184.58	37.89
184.8	66.56
185.02	37.89
185.239	44.03
185.459	41.98
185.679	-3.07
185.898	-60.42
186.118	95.23
186.338	50.18
186.557	46.08
186.777	-23.55
186.997	-19.46
187.216	82.94
187.436	119.81
187.655	64.51
187.875	95.23
188.095	82.94
188.314	93.18
188.534	160.77
188.753	-60.42
188.973	87.04
189.192	128
189.412	-3.07
189.631	21.5
189.851	58.37
190.07	111.61
190.29	-19.46
190.509	29.7
190.729	-1.02
190.948	109.57
191.168	267.26
191.387	140.29
191.607	-25.6
191.826	91.13
192.045	33.79
192.265	3.07
192.484	17.41
192.704	21.5
192.923	-31.74
193.142	95.23
193.362	54.27
193.581	175.1
193.8	-21.5
194.02	91.13
194.239	-3.07
194.458	-3.07
194.678	11.26
194.897	-9.22
195.116	-17.41
195.335	11.26
195.555	29.7
195.774	-5.12
195.993	87.04
196.212	21.5
196.432	-80.89
196.651	-72.7
196.87	21.5
197.089	181.25
197.308	80.89
197.528	56.32
197.747	-60.42
197.966	33.79
198.185	121.85
198.404	15.36
198.623	130.05
198.842	70.65
199.062	68.61
199.281	82.94
199.5	62.46
199.719	1.02
199.938	95.23
200.157	70.65
200.376	70.65
200.595	84.99
200.814	58.37
201.033	-11.26
201.252	109.57
201.471	-15.36
201.69	128
201.909	66.56
202.128	84.99
202.347	35.84
202.566	-19.46
202.785	-5.12
203.004	-48.13
203.223	267.26
203.442	113.66
203.661	-35.84
203.879	37.89
204.098	107.52
204.317	-62.46
204.536	66.56
204.755	33.79
204.974	66.56
205.193	-44.03
205.411	128
205.63	-7.17
205.849	70.65
206.068	44.03
206.287	-41.98
206.505	103.42
206.724	-44.03
206.943	13.31
207.162	-15.36
207.381	46.08
207.599	-23.55
207.818	-64.51
208.037	1.02
208.255	39.94
208.474	-15.36
208.693	66.56
208.911	78.85
209.13	95.23
209.349	70.65
209.567	101.37
209.786	48.13
210.005	15.36
210.223	76.8
210.442	-130.05
210.661	-15.36
210.879	17.41
211.098	66.56
211.316	-23.55
211.535	82.94
211.753	3.07
211.972	11.26
212.191	-7.17
212.409	1.02
212.628	33.79
212.846	-121.85
213.065	25.6
213.283	152.57
213.502	-23.55
213.72	82.94
213.938	11.26
214.157	50.18
214.375	99.33
214.594	123.9
214.812	31.74
215.031	-11.26
215.249	91.13
215.467	13.31
215.686	44.03
215.904	54.27
216.122	70.65
216.341	93.18
216.559	58.37
216.778	56.32
216.996	150.53
217.214	35.84
217.432	46.08
217.651	19.46
217.869	9.22
218.087	93.18
218.306	-80.89
218.524	31.74
218.742	11.26
218.96	148.48
219.179	27.65
219.397	-3.07
219.615	173.05
219.833	58.37
220.051	-3.07
220.27	33.79
220.488	144.38
220.706	46.08
220.924	-58.37
221.142	5.12
221.36	82.94
221.578	58.37
221.796	23.55
222.015	-7.17
222.233	60.42
222.451	171.01
222.669	-17.41
222.887	19.46
223.105	11.26
223.323	-44.03
223.541	3.07
223.759	56.32
223.977	-11.26
224.195	13.31
224.413	87.04
224.631	54.27
224.849	62.46
225.067	154.62
225.285	89.09
225.503	17.41
225.721	-166.91
225.939	87.04
226.157	109.57
226.375	207.87
226.592	37.89
226.81	35.84
227.028	87.04
227.246	82.94
227.464	54.27
227.682	64.51
227.9	62.46
228.117	-35.84
228.335	23.55
228.553	-60.42
228.771	128
228.989	17.41
229.206	95.23
229.424	-37.89
229.642	3.07
229.86	5.12
230.077	78.85
230.295	52.22
230.513	23.55
230.731	48.13
230.948	185.34
231.166	195.58
231.384	-5.12
231.601	-80.89
231.819	111.61
232.037	-44.03
232.254	-54.27
232.472	37.89
232.689	-27.65
232.907	80.89
233.125	-19.46
233.342	1.02
233.56	-54.27
233.777	17.41
233.995	44.03
234.213	50.18
234.43	99.33
234.648	27.65
234.865	3.07
235.083	101.37
235.3	87.04
235.518	107.52
235.735	52.22
235.953	-9.22
236.17	76.8
236.388	52.22
236.605	19.46
236.822	140.29
237.04	111.61
237.257	17.41
237.475	-15.36
237.692	29.7
237.909	111.61
238.127	5.12
238.344	78.85
238.562	93.18
238.779	54.27
238.996	-89.09
239.214	25.6
239.431	54.27
239.648	50.18
239.865	82.94
240.083	101.37
240.3	9.22
240.517	11.26
240.735	91.13
240.952	91.13
241.169	56.32
241.386	27.65
241.603	-58.37
241.821	-17.41
242.038	72.7
242.255	109.57
242.472	13.31
242.689	54.27
242.907	54.27
243.124	46.08
243.341	39.94
243.558	-50.18
243.775	-39.94
243.992	41.98
244.209	82.94
244.426	117.76
244.643	97.28
244.86	103.42
245.078	41.98
245.295	33.79
245.512	27.65
245.729	-11.26
245.946	52.22
246.163	13.31
246.38	-29.7
246.597	37.89
246.814	95.23
247.031	35.84
247.248	56.32
247.464	95.23
247.681	-11.26
247.898	52.22
248.115	62.46
248.332	-11.26
248.549	60.42
248.766	168.96
248.983	101.37
249.2	-3.07
249.417	72.7
249.633	58.37
249.85	168.96
250.067	3.07
250.284	97.28
250.501	68.61
250.717	111.61
250.934	-50.18
251.151	-33.79
251.368	-11.26
251.585	9.22
251.801	50.18
252.018	60.42
252.235	76.8
252.451	-56.32
252.668	15.36
252.885	146.43
253.102	46.08
253.318	46.08
253.535	46.08
253.752	58.37
253.968	3.07
254.185	-68.61
254.401	115.71
254.618	99.33
254.835	-64.51
255.051	128
255.268	50.18
255.484	37.89
255.701	121.85
255.917	121.85
256.134	-89.09
256.351	-44.03
256.567	-19.46
256.784	-15.36
257	-62.46
257.217	144.38
257.433	111.61
257.65	62.46
257.866	179.2
258.082	-76.8
258.299	-19.46
258.515	5.12
258.732	21.5
258.948	29.7
259.165	-3.07
259.381	13.31
259.597	101.37
259.814	-52.22
260.03	-78.85
260.246	9.22
260.463	121.85
260.679	158.72
260.895	-7.17
261.112	15.36
261.328	-7.17
261.544	-11.26
261.761	199.68
261.977	-39.94
262.193	-78.85
262.409	66.56
262.626	-19.46
262.842	58.37
263.058	21.5
263.274	60.42
263.49	27.65
263.707	99.33
263.923	70.65
264.139	-62.46
264.355	29.7
264.571	140.29
264.787	44.03
265.004	99.33
265.22	23.55
265.436	-19.46
265.652	-15.36
265.868	-50.18
266.084	-21.5
266.3	11.26
266.516	-31.74
266.732	-25.6
266.948	-23.55
267.164	-13.31
267.38	-3.07
267.596	33.79
267.812	164.86
268.028	21.5
268.244	35.84
268.46	23.55
268.676	-11.26
268.892	19.46
269.108	-27.65
269.324	-23.55
269.54	17.41
269.756	97.28
269.972	-35.84
270.188	-7.17
270.403	23.55
270.619	-9.22
270.835	54.27
271.051	62.46
271.267	21.5
271.483	9.22
271.698	3.07
271.914	97.28
272.13	41.98
272.346	-82.94
272.562	7.17
272.777	48.13
272.993	-25.6
273.209	56.32
273.425	-3.07
273.64	-84.99
273.856	54.27
274.072	-52.22
274.287	-46.08
274.503	107.52
274.719	89.09
274.934	-7.17
275.15	-111.61
275.366	35.84
275.581	-27.65
275.797	-7.17
276.012	72.7
276.228	13.31
276.444	66.56
276.659	89.09
276.875	-39.94
277.09	66.56
277.306	-37.89
277.521	48.13
277.737	109.57
277.952	74.75
278.168	-5.12
278.383	62.46
278.599	21.5
278.814	101.37
279.03	-21.5
279.245	62.46
279.461	3.07
279.676	50.18
279.892	-27.65
280.107	-74.75
280.322	-3.07
280.538	52.22
280.753	-37.89
280.969	58.37
281.184	41.98
281.399	70.65
281.615	13.31
281.83	111.61
282.045	-78.85
282.26	-1.02
282.476	101.37
282.691	56.32
282.906	5.12
283.122	115.71
283.337	17.41
283.552	-13.31
283.767	-60.42
283.983	111.61
284.198	56.32
284.413	95.23
284.628	-91.13
284.843	87.04
285.058	11.26
285.274	-7.17
285.489	23.55
285.704	74.75
285.919	-15.36
286.134	-31.74
286.349	7.17
286.564	-91.13
286.779	148.48
286.995	-27.65
287.21	17.41
287.425	93.18
287.64	13.31
287.855	25.6
288.07	-97.28
288.285	76.8
288.5	95.23
288.715	74.75
288.93	29.7
289.145	17.41
289.36	119.81
289.575	44.03
289.79	123.9
290.004	50.18
290.219	115.71
290.434	35.84
290.649	-39.94
290.864	19.46
291.079	3.07
291.294	25.6
291.509	37.89
291.724	-5.12
291.938	5.12
292.153	138.24
292.368	-25.6
292.583	-11.26
292.798	111.61
293.012	25.6
293.227	66.56
293.442	25.6
293.657	70.65
293.871	68.61
294.086	21.5
294.301	156.67
294.516	103.42
294.73	58.37
294.945	-72.7
295.16	15.36
295.374	68.61
295.589	89.09
295.804	93.18
296.018	-19.46
296.233	35.84
296.447	60.42
296.662	5.12
296.877	72.7
297.091	41.98
297.306	-13.31
297.52	78.85
297.735	17.41
297.949	52.22
298.164	-52.22
298.378	1.02
298.593	-23.55
298.807	-84.99
299.022	-19.46
299.236	107.52
299.451	41.98
299.665	-5.12
299.88	44.03
300.094	115.71
300.309	35.84
300.523	78.85
300.737	7.17
300.952	64.51
301.166	70.65
301.381	-19.46
301.595	-103.42
301.809	-19.46
302.024	-27.65
302.238	-80.89
302.452	58.37
302.667	-19.46
302.881	50.18
303.095	125.95
303.309	70.65
303.524	13.31
303.738	-15.36
303.952	-87.04
304.166	41.98
304.381	-37.89
304.595	205.82
304.809	11.26
305.023	29.7
305.237	-35.84
305.452	1.02
305.666	78.85
305.88	13.31
306.094	117.76
306.308	111.61
306.522	123.9
306.736	33.79
306.95	95.23
307.164	1.02
307.379	72.7
307.593	91.13
307.807	109.57
308.021	72.7
308.235	128
308.449	-93.18
308.663	13.31
308.877	128
309.091	62.46
309.305	13.31
309.519	-84.99
309.733	123.9
309.947	-113.66
310.161	50.18
310.374	23.55
310.588	130.05
310.802	-99.33
311.016	-3.07
311.23	35.84
311.444	21.5
311.658	58.37
311.872	78.85
312.085	109.57
312.299	56.32
312.513	99.33
312.727	119.81
312.941	19.46
313.154	76.8
313.368	35.84
313.582	17.41
313.796	54.27
314.009	74.75
314.223	66.56
314.437	37.89
314.651	9.22
314.864	-62.46
315.078	-27.65
315.292	-7.17
315.505	-15.36
315.719	-5.12
315.933	39.94
316.146	-58.37
316.36	-31.74
316.573	111.61
316.787	84.99
317.001	46.08
317.214	-66.56
317.428	39.94
317.641	11.26
317.855	-56.32
318.068	29.7
318.282	130.05
318.495	82.94
318.709	29.7
318.922	37.89
319.136	48.13
319.349	80.89
319.563	-68.61
319.776	58.37
319.99	-91.13
320.203	103.42
320.417	11.26
320.63	78.85
320.843	134.14
321.057	62.46
321.27	-17.41
321.483	115.71
321.697	50.18
321.91	29.7
322.124	76.8
322.337	93.18
322.55	-44.03
322.763	3.07
322.977	46.08
323.19	-9.22
323.403	23.55
323.617	107.52
323.83	160.77
324.043	15.36
324.256	17.41
324.469	-35.84
324.683	46.08
324.896	41.98
325.109	46.08
325.322	-11.26
325.535	87.04
325.748	95.23
325.962	41.98
326.175	72.7
326.388	105.47
326.601	91.13
326.814	-48.13
327.027	70.65
327.24	132.09
327.453	-39.94
327.666	95.23
327.879	109.57
328.092	80.89
328.305	19.46
328.518	-52.22
328.731	52.22
328.944	-27.65
329.157	46.08
329.37	27.65
329.583	162.81
329.796	105.47
330.009	21.5
330.222	84.99
330.435	140.29
330.648	21.5
330.861	72.7
331.073	48.13
331.286	78.85
331.499	48.13
331.712	-44.03
331.925	-23.55
332.138	58.37
332.35	70.65
332.563	1.02
332.776	101.37
332.989	-54.27
333.202	21.5
333.414	52.22
333.627	54.27
333.84	62.46
334.053	9.22
334.265	46.08
334.478	-15.36
334.691	3.07
334.903	-21.5
335.116	15.36
335.329	-60.42
335.541	62.46
335.754	201.72
335.966	-52.22
336.179	35.84
336.392	13.31
336.604	-5.12
336.817	132.09
337.029	52.22
337.242	-7.17
337.454	37.89
337.667	21.5
337.88	111.61
338.092	87.04
338.305	107.52
338.517	70.65
338.729	87.04
338.942	35.84
339.154	-105.47
339.367	-21.5
339.579	115.71
339.792	-62.46
340.004	97.28
340.217	-7.17
340.429	41.98
340.641	-5.12
340.854	-60.42
341.066	37.89
341.278	136.19
341.491	46.08
341.703	31.74
341.915	1.02
342.128	62.46
342.34	-44.03
342.552	-52.22
342.764	80.89
342.977	44.03
343.189	113.66
343.401	21.5
343.613	-84.99
343.826	11.26
344.038	-21.5
344.25	99.33
344.462	-9.22
344.674	76.8
344.886	5.12
345.099	46.08
345.311	-19.46
345.523	-89.09
345.735	-125.95
345.947	-66.56
346.159	13.31
346.371	13.31
346.583	56.32
346.795	107.52
347.007	-23.55
347.219	33.79
347.431	33.79
347.643	52.22
347.855	13.31
348.067	113.66
348.279	-60.42
348.491	46.08
348.703	80.89
348.915	25.6
349.127	-3.07
349.339	5.12
349.551	33.79
349.763	107.52
349.975	78.85
350.187	84.99
350.399	60.42
350.61	35.84
350.822	5.12
351.034	78.85
351.246	7.17
351.458	-15.36
351.669	68.61
351.881	62.46
352.093	136.19
352.305	70.65
352.517	17.41
352.728	150.53
352.94	-1.02
353.152	123.9
353.363	-78.85
353.575	78.85
353.787	109.57
353.999	21.5
354.21	74.75
354.422	-54.27
354.633	1.02
354.845	93.18
355.057	58.37
355.268	103.42
355.48	95.23
355.692	-103.42
355.903	76.8
356.115	52.22
356.326	-113.66
356.538	173.05
356.749	109.57
356.961	113.66
357.172	9.22
357.384	-7.17
357.595	199.68
357.807	1.02
358.018	46.08
358.23	21.5
358.441	150.53
358.653	70.65
358.864	-19.46
359.075	13.31
359.287	44.03
359.498	60.42
359.709	62.46
359.921	62.46
360.132	15.36
360.344	-21.5
360.555	-13.31
360.766	23.55
360.977	25.6
361.189	9.22
361.4	21.5
361.611	62.46
361.823	115.71
362.034	3.07
362.245	-5.12
362.456	7.17
362.667	78.85
362.879	-76.8
363.09	95.23
363.301	107.52
363.512	54.27
363.723	-41.98
363.935	62.46
364.146	95.23
364.357	1.02
364.568	46.08
364.779	-68.61
364.99	91.13
365.201	-78.85
365.412	111.61
365.623	-78.85
365.834	-15.36
366.045	74.75
366.256	193.53
366.467	48.13
366.678	-5.12
366.889	60.42
367.1	-9.22
367.311	125.95
367.522	-33.79
367.733	121.85
367.944	25.6
368.155	-23.55
368.366	78.85
368.577	70.65
368.788	35.84
368.999	-44.03
369.209	-21.5
369.42	181.25
369.631	267.26
369.842	-3.07
370.053	33.79
370.264	48.13
370.474	-87.04
370.685	13.31
370.896	70.65
371.107	109.57
371.317	13.31
371.528	78.85
371.739	150.53
371.95	35.84
372.16	93.18
372.371	-70.65
372.582	37.89
372.792	-68.61
373.003	76.8
373.214	84.99
373.424	146.43
373.635	-11.26
373.846	82.94
374.056	62.46
374.267	21.5
374.477	-15.36
374.688	1.02
374.898	46.08
375.109	19.46
375.319	5.12
375.53	87.04
375.74	119.81
375.951	-35.84
376.161	21.5
376.372	125.95
376.582	-35.84
376.793	44.03
377.003	17.41
377.214	-11.26
377.424	29.7
377.635	-39.94
377.845	-35.84
378.055	136.19
378.266	-44.03
378.476	41.98
378.686	5.12
378.897	41.98
379.107	80.89
379.317	48.13
379.528	13.31
379.738	148.48
379.948	-11.26
380.158	125.95
380.369	72.7
380.579	54.27
380.789	25.6
380.999	46.08
381.21	68.61
381.42	191.49
381.63	-11.26
381.84	66.56
382.05	5.12
382.261	113.66
382.471	78.85
382.681	21.5
382.891	78.85
383.101	74.75
383.311	11.26
383.521	-70.65
383.731	37.89
383.941	48.13
384.151	27.65
384.361	9.22
384.571	-13.31
384.781	78.85
384.991	93.18
385.201	154.62
385.411	144.38
385.621	27.65
385.831	111.61
386.041	58.37
386.251	39.94
386.461	82.94
386.671	-48.13
386.881	19.46
387.091	17.41
387.301	60.42
387.511	-93.18
387.72	48.13
387.93	1.02
388.14	-84.99
388.35	50.18
388.56	99.33
388.769	60.42
388.979	-37.89
389.189	-21.5
389.399	66.56
389.609	25.6
389.818	66.56
390.028	21.5
390.238	-15.36
390.447	-31.74
390.657	138.24
390.867	39.94
391.076	-80.89
391.286	72.7
391.496	-23.55
391.705	27.65
391.915	72.7
392.125	58.37
392.334	13.31
392.544	95.23
392.753	-11.26
392.963	-72.7
393.172	58.37
393.382	-11.26
393.591	144.38
393.801	5.12
394.01	171.01
394.22	70.65
394.429	-44.03
394.639	-27.65
394.848	103.42
395.058	44.03
395.267	-21.5
395.477	130.05
395.686	76.8
395.895	101.37
396.105	152.57
396.314	91.13
396.524	-13.31
396.733	-11.26
396.942	72.7
397.152	41.98
397.361	82.94
397.57	27.65
397.78	101.37
397.989	15.36
398.198	115.71
398.407	1.02
398.617	68.61
398.826	-46.08
399.035	31.74
399.244	70.65
399.453	13.31
399.663	80.89
399.872	33.79
400.081	7.17
400.29	99.33
400.499	-41.98
400.708	87.04
400.917	62.46
401.127	-11.26
401.336	37.89
401.545	166.91
401.754	115.71
401.963	52.22
402.172	76.8
402.381	-37.89
402.59	7.17
402.799	27.65
403.008	29.7
403.217	5.12
403.426	41.98
403.635	-74.75
403.844	-13.31
404.053	19.46
404.262	56.32
404.471	138.24
404.68	60.42
404.888	-1.02
405.097	-52.22
405.306	52.22
405.515	66.56
405.724	17.41
405.933	74.75
406.142	11.26
406.35	46.08
406.559	46.08
406.768	-39.94
406.977	128
407.185	3.07
407.394	25.6
407.603	-41.98
407.812	58.37
408.02	50.18
408.229	-21.5
408.438	-17.41
408.646	13.31
408.855	13.31
409.064	87.04
409.272	31.74
409.481	87.04
409.69	27.65
409.898	-60.42
410.107	107.52
410.315	33.79
410.524	-50.18
410.733	76.8
410.941	66.56
411.15	48.13
411.358	97.28
411.567	78.85
411.775	44.03
411.984	23.55
412.192	84.99
412.401	37.89
412.609	130.05
412.818	89.09
413.026	56.32
413.234	-31.74
413.443	5.12
413.651	-9.22
413.86	80.89
414.068	78.85
414.276	224.25
414.485	-48.13
414.693	148.48
414.901	132.09
415.11	54.27
415.318	95.23
415.526	46.08
415.734	160.77
415.943	29.7
416.151	156.67
416.359	54.27
416.567	21.5
416.776	78.85
416.984	21.5
417.192	177.15
417.4	-19.46
417.608	39.94
417.817	-46.08
418.025	62.46
418.233	111.61
418.441	68.61
418.649	-29.7
418.857	74.75
419.065	87.04
419.273	5.12
419.481	23.55
419.689	11.26
419.897	-11.26
420.105	-54.27
420.313	115.71
420.521	146.43
420.729	103.42
420.937	-31.74
421.145	39.94
421.353	109.57
421.561	35.84
421.769	-23.55
421.977	-37.89
422.185	68.61
422.393	37.89
422.601	132.09
422.809	29.7
423.017	101.37
423.224	37.89
423.432	-19.46
423.64	39.94
423.848	54.27
424.056	21.5
424.263	97.28
424.471	48.13
424.679	62.46
424.887	107.52
425.094	99.33
425.302	97.28
425.51	52.22
425.718	74.75
425.925	-13.31
426.133	19.46
426.341	136.19
426.548	-1.02
426.756	52.22
426.964	115.71
427.171	13.31
427.379	21.5
427.586	91.13
427.794	80.89
428.001	119.81
428.209	56.32
428.417	109.57
428.624	56.32
428.832	150.53
429.039	23.55
429.247	142.33
429.454	78.85
429.662	238.59
429.869	62.46
430.076	33.79
430.284	214.01
430.491	168.96
430.699	142.33
430.906	117.76
431.114	52.22
431.321	173.05
431.528	101.37
431.736	99.33
431.943	136.19
432.15	93.18
432.358	128
432.565	238.59
432.772	-37.89
432.979	164.86
433.187	158.72
433.394	191.49
433.601	52.22
433.808	240.64
434.016	207.87
434.223	132.09
434.43	205.82
434.637	218.11
434.844	277.5
435.052	156.67
435.259	209.92
435.466	218.11
435.673	209.92
435.88	214.01
436.087	252.92
436.294	259.07
436.501	240.64
436.708	148.48
436.915	257.02
437.122	369.66
437.329	228.35
437.537	226.3
437.743	171.01
437.95	316.41
438.157	257.02
438.364	322.56
438.571	273.4
438.778	330.75
438.985	322.56
439.192	349.18
439.399	304.12
439.606	314.36
439.813	478.2
440.02	500.73
440.227	521.21
440.433	373.75
440.64	386.04
440.847	349.18
441.054	396.28
441.261	539.64
441.467	492.54
441.674	443.39
441.881	541.69
442.088	459.77
442.294	549.88
442.501	564.22
442.708	580.6
442.914	537.59
443.121	578.55
443.328	482.3
443.534	685.05
443.741	605.17
443.948	504.82
444.154	717.81
444.361	879.6
444.568	758.77
444.774	734.2
444.981	660.47
445.187	947.19
445.394	814.07
445.6	879.6
445.807	963.57
446.013	887.79
446.22	877.55
446.426	1031.15
446.633	1068.02
446.839	1258.48
447.046	1063.92
447.252	1250.28
447.459	1119.21
447.665	1203.18
447.871	1364.97
448.078	1330.16
448.284	1364.97
448.491	1479.66
448.697	1516.52
448.903	1524.71
449.11	1610.73
449.316	1512.42
449.522	1690.6
449.728	1780.71
449.935	1833.96
450.141	1788.9
450.347	2112.48
450.553	1872.87
450.76	1995.75
450.966	2024.42
451.172	2243.55
451.378	2278.37
451.584	2241.5
451.791	2497.5
451.997	2479.07
452.203	2534.36
452.409	2743.25
452.615	2853.84
452.821	2827.22
453.027	2724.82
453.233	3118.03
453.44	3124.18
453.646	3191.76
453.852	3326.93
454.058	3265.49
454.264	3470.28
454.47	3761.09
454.676	3875.78
454.882	3990.47
455.088	3951.56
455.294	4191.17
455.5	4449.21
455.705	4711.35
455.911	4719.54
456.117	4811.7
456.323	5059.51
456.529	5057.46
456.735	5434.29
456.941	5692.33
457.147	5784.49
457.352	5968.8
457.558	5962.66
457.764	6372.25
457.97	6724.51
458.176	6894.49
458.381	7261.07
458.587	7531.41
458.793	7680.91
458.999	7601.04
459.204	8622.97
459.41	8858.49
459.616	8772.47
459.821	9384.82
460.027	9905
460.233	10165.09
460.438	10333.03
460.644	11031.38
460.85	10965.85
461.055	11326.29
461.261	11983.69
461.466	11887.43
461.672	11869
461.878	13404.98
462.083	13108.02
462.289	13443.89
462.494	13876.01
462.7	14199.59
462.905	14119.72
463.111	15452.95
463.316	16227.08
463.522	16478.98
463.727	17015.55
463.932	17769.2
464.138	18504.42
464.343	18965.21
464.549	18954.97
464.754	20591.3
464.959	20916.93
465.165	21418.68
465.37	20970.18
465.575	21332.67
465.781	22565.54
465.986	23333.53
466.191	23106.21
466.397	23278.24
466.602	22811.3
466.807	24058.51
467.012	24392.33
467.218	24623.75
467.423	25012.87
467.628	25916.02
467.833	27009.64
468.038	26245.74
468.244	26141.3
468.449	27400.8
468.654	27060.84
468.859	26767.98
469.064	26909.29
469.269	25934.45
469.474	26581.61
469.679	26813.03
