Data from USB4F104151__5__09-24-30-727.txt Node

Date: Wed Feb 26 09:24:30 EST 2025
User: louis
Spectrometer: USB4F10415
Trigger mode: 4
Integration Time (sec): 1.000000E-1
Scans to average: 1
Electric dark correction enabled: true
Nonlinearity correction enabled: false
Boxcar width: 0
XAxis mode: Wavelengths
Number of Pixels in Spectrum: 3648
>>>>>Begin Spectral Data<<<<<
178.204	-347.47
178.424	-347.47
178.644	-347.47
178.864	-370
179.084	-308.56
179.304	-77.14
179.524	-19.8
179.744	-9.56
179.964	105.13
180.184	25.26
180.404	39.59
180.624	25.26
180.844	-9.56
181.064	-34.13
181.283	27.31
181.503	-62.8
181.723	-9.56
181.943	-62.8
182.163	113.32
182.383	-21.84
182.602	133.8
182.822	135.85
183.042	101.03
183.262	-19.8
183.482	94.89
183.701	23.21
183.921	98.99
184.141	15.02
184.361	23.21
184.58	53.93
184.8	35.5
185.02	-19.8
185.239	111.27
185.459	105.13
185.679	121.51
185.898	-157.01
186.118	115.37
186.338	58.03
186.557	74.41
186.777	-42.32
186.997	6.83
187.216	45.74
187.436	176.81
187.655	70.31
187.875	60.07
188.095	4.78
188.314	182.95
188.534	135.85
188.753	-11.61
188.973	135.85
189.192	164.52
189.412	23.21
189.631	37.55
189.851	43.69
190.07	96.94
190.29	6.83
190.509	-40.28
190.729	17.07
190.948	80.55
191.168	252.58
191.387	47.79
191.607	-7.51
191.826	80.55
192.045	-21.84
192.265	31.4
192.484	47.79
192.704	-34.13
192.923	-79.19
193.142	201.38
193.362	55.98
193.581	168.62
193.8	96.94
194.02	84.65
194.239	6.83
194.458	64.17
194.678	27.31
194.897	45.74
195.116	62.12
195.335	43.69
195.555	8.87
195.774	72.36
195.993	166.57
196.212	27.31
196.432	-34.13
196.651	25.26
196.87	25.26
197.089	209.58
197.308	121.51
197.528	82.6
197.747	-9.56
197.966	41.64
198.185	154.28
198.404	2.73
198.623	105.13
198.842	92.84
199.062	150.18
199.281	121.51
199.5	27.31
199.719	101.03
199.938	86.7
200.157	-1.37
200.376	15.02
200.595	129.7
200.814	47.79
201.033	72.36
201.252	119.46
201.471	33.45
201.69	39.59
201.909	8.87
202.128	31.4
202.347	96.94
202.566	119.46
202.785	-64.85
203.004	-1.37
203.223	195.24
203.442	72.36
203.661	-34.13
203.879	41.64
204.098	146.09
204.317	33.45
204.536	98.99
204.755	111.27
204.974	51.88
205.193	58.03
205.411	101.03
205.63	94.89
205.849	-3.41
206.068	76.46
206.287	60.07
206.505	113.32
206.724	72.36
206.943	27.31
207.162	58.03
207.381	-9.56
207.599	72.36
207.818	-48.47
208.037	2.73
208.255	-5.46
208.474	51.88
208.693	76.46
208.911	51.88
209.13	119.46
209.349	2.73
209.567	137.9
209.786	-9.56
210.005	74.41
210.223	10.92
210.442	-85.33
210.661	105.13
210.879	62.12
211.098	-17.75
211.316	12.97
211.535	88.75
211.753	12.97
211.972	43.69
212.191	-27.99
212.409	23.21
212.628	94.89
212.846	-21.84
213.065	131.75
213.283	107.18
213.502	4.78
213.72	78.51
213.938	-17.75
214.157	78.51
214.375	105.13
214.594	45.74
214.812	27.31
215.031	-27.99
215.249	80.55
215.467	6.83
215.686	60.07
215.904	92.84
216.122	109.23
216.341	127.66
216.559	51.88
216.778	107.18
216.996	107.18
217.214	31.4
217.432	-40.28
217.651	-48.47
217.869	39.59
218.087	133.8
218.306	-34.13
218.524	88.75
218.742	6.83
218.96	154.28
219.179	-9.56
219.397	31.4
219.615	254.63
219.833	55.98
220.051	-25.94
220.27	103.08
220.488	92.84
220.706	78.51
220.924	29.35
221.142	25.26
221.36	72.36
221.578	78.51
221.796	146.09
222.015	55.98
222.233	84.65
222.451	84.65
222.669	-11.61
222.887	90.79
223.105	-19.8
223.323	-34.13
223.541	-23.89
223.759	12.97
223.977	74.41
224.195	146.09
224.413	55.98
224.631	45.74
224.849	64.17
225.067	189.1
225.285	47.79
225.503	-36.18
225.721	-68.95
225.939	29.35
226.157	35.5
226.375	318.12
226.592	-23.89
226.81	-42.32
227.028	92.84
227.246	135.85
227.464	-3.41
227.682	150.18
227.9	-11.61
228.117	33.45
228.335	72.36
228.553	39.59
228.771	25.26
228.989	90.79
229.206	68.27
229.424	49.83
229.642	88.75
229.86	-3.41
230.077	62.12
230.295	33.45
230.513	41.64
230.731	162.47
230.948	125.61
231.166	170.66
231.384	80.55
231.601	-1.37
231.819	144.04
232.037	60.07
232.254	-1.37
232.472	123.56
232.689	23.21
232.907	62.12
233.125	-15.7
233.342	2.73
233.56	15.02
233.777	101.03
233.995	60.07
234.213	84.65
234.43	107.18
234.648	8.87
234.865	6.83
235.083	47.79
235.3	101.03
235.518	80.55
235.735	148.14
235.953	47.79
236.17	96.94
236.388	80.55
236.605	105.13
236.822	64.17
237.04	-50.52
237.257	-44.37
237.475	17.07
237.692	41.64
237.909	96.94
238.127	-30.04
238.344	55.98
238.562	117.42
238.779	-89.43
238.996	-36.18
239.214	64.17
239.431	129.7
239.648	15.02
239.865	55.98
240.083	80.55
240.3	21.16
240.517	25.26
240.735	70.31
240.952	88.75
241.169	182.95
241.386	80.55
241.603	92.84
241.821	27.31
242.038	47.79
242.255	62.12
242.472	-42.32
242.689	53.93
242.907	84.65
243.124	47.79
243.341	80.55
243.558	-1.37
243.775	-46.42
243.992	17.07
244.209	105.13
244.426	209.58
244.643	62.12
244.86	33.45
245.078	80.55
245.295	41.64
245.512	39.59
245.729	29.35
245.946	72.36
246.163	64.17
246.38	19.11
246.597	55.98
246.814	31.4
247.031	72.36
247.248	-27.99
247.464	-9.56
247.681	139.94
247.898	90.79
248.115	15.02
248.332	-9.56
248.549	160.42
248.766	178.86
248.983	86.7
249.2	64.17
249.417	31.4
249.633	-1.37
249.85	94.89
250.067	47.79
250.284	29.35
250.501	64.17
250.717	84.65
250.934	39.59
251.151	64.17
251.368	-3.41
251.585	23.21
251.801	103.08
252.018	53.93
252.235	84.65
252.451	-87.38
252.668	21.16
252.885	72.36
253.102	-27.99
253.318	37.55
253.535	37.55
253.752	0.68
253.968	-5.46
254.185	-71
254.401	107.18
254.618	35.5
254.835	-52.56
255.051	162.47
255.268	94.89
255.484	76.46
255.701	-30.04
255.917	103.08
256.134	12.97
256.351	-1.37
256.567	-19.8
256.784	-3.41
257	12.97
257.217	47.79
257.433	105.13
257.65	64.17
257.866	92.84
258.082	51.88
258.299	31.4
258.515	121.51
258.732	68.27
258.948	66.22
259.165	141.99
259.381	35.5
259.597	45.74
259.814	-17.75
260.03	-44.37
260.246	-3.41
260.463	39.59
260.679	94.89
260.895	-17.75
261.112	60.07
261.328	37.55
261.544	2.73
261.761	152.23
261.977	-79.19
262.193	-48.47
262.409	51.88
262.626	121.51
262.842	60.07
263.058	-1.37
263.274	111.27
263.49	76.46
263.707	62.12
263.923	92.84
264.139	-32.08
264.355	72.36
264.571	146.09
264.787	109.23
265.004	105.13
265.22	31.4
265.436	21.16
265.652	72.36
265.868	146.09
266.084	-64.85
266.3	76.46
266.516	-25.94
266.732	84.65
266.948	10.92
267.164	37.55
267.38	103.08
267.596	82.6
267.812	154.28
268.028	23.21
268.244	15.02
268.46	88.75
268.676	25.26
268.892	-21.84
269.108	37.55
269.324	-58.71
269.54	-25.94
269.756	60.07
269.972	-13.65
270.188	-34.13
270.403	-19.8
270.619	31.4
270.835	141.99
271.051	74.41
271.267	29.35
271.483	19.11
271.698	144.04
271.914	60.07
272.13	96.94
272.346	23.21
272.562	27.31
272.777	47.79
272.993	25.26
273.209	10.92
273.425	-1.37
273.64	-79.19
273.856	15.02
274.072	10.92
274.287	-32.08
274.503	49.83
274.719	90.79
274.934	-7.51
275.15	-25.94
275.366	-17.75
275.581	-56.66
275.797	33.45
276.012	78.51
276.228	-83.28
276.444	21.16
276.659	105.13
276.875	31.4
277.09	47.79
277.306	62.12
277.521	43.69
277.737	84.65
277.952	94.89
278.168	98.99
278.383	80.55
278.599	8.87
278.814	62.12
279.03	55.98
279.245	121.51
279.461	72.36
279.676	27.31
279.892	-38.23
280.107	-21.84
280.322	-1.37
280.538	119.46
280.753	101.03
280.969	12.97
281.184	74.41
281.399	103.08
281.615	39.59
281.83	43.69
282.045	-3.41
282.26	6.83
282.476	-17.75
282.691	45.74
282.906	107.18
283.122	15.02
283.337	-21.84
283.552	111.27
283.767	-13.65
283.983	144.04
284.198	-1.37
284.413	109.23
284.628	-32.08
284.843	39.59
285.058	66.22
285.274	-17.75
285.489	-1.37
285.704	78.51
285.919	-7.51
286.134	23.21
286.349	23.21
286.564	21.16
286.779	129.7
286.995	15.02
287.21	-19.8
287.425	88.75
287.64	19.11
287.855	-25.94
288.07	-36.18
288.285	55.98
288.5	39.59
288.715	23.21
288.93	21.16
289.145	-27.99
289.36	88.75
289.575	29.35
289.79	135.85
290.004	82.6
290.219	31.4
290.434	-13.65
290.649	-19.8
290.864	82.6
291.079	76.46
291.294	111.27
291.509	53.93
291.724	55.98
291.938	6.83
292.153	-42.32
292.368	23.21
292.583	60.07
292.798	88.75
293.012	-5.46
293.227	53.93
293.442	-50.52
293.657	121.51
293.871	166.57
294.086	68.27
294.301	119.46
294.516	94.89
294.73	82.6
294.945	-42.32
295.16	70.31
295.374	213.67
295.589	135.85
295.804	-3.41
296.018	21.16
296.233	129.7
296.447	39.59
296.662	68.27
296.877	135.85
297.091	80.55
297.306	6.83
297.52	43.69
297.735	31.4
297.949	98.99
298.164	23.21
298.378	146.09
298.593	-107.86
298.807	-25.94
299.022	29.35
299.236	113.32
299.451	6.83
299.665	-30.04
299.88	-25.94
300.094	55.98
300.309	31.4
300.523	121.51
300.737	72.36
300.952	76.46
301.166	15.02
301.381	27.31
301.595	17.07
301.809	35.5
302.024	51.88
302.238	10.92
302.452	191.14
302.667	23.21
302.881	92.84
303.095	137.9
303.309	70.31
303.524	-50.52
303.738	27.31
303.952	21.16
304.166	105.13
304.381	-148.82
304.595	150.18
304.809	55.98
305.023	4.78
305.237	-17.75
305.452	55.98
305.666	98.99
305.88	8.87
306.094	51.88
306.308	-25.94
306.522	119.46
306.736	113.32
306.95	66.22
307.164	55.98
307.379	-5.46
307.593	144.04
307.807	105.13
308.021	74.41
308.235	125.61
308.449	-103.76
308.663	33.45
308.877	154.28
309.091	64.17
309.305	72.36
309.519	-1.37
309.733	109.23
309.947	-5.46
310.161	60.07
310.374	60.07
310.588	144.04
310.802	-9.56
311.016	10.92
311.23	103.08
311.444	2.73
311.658	117.42
311.872	113.32
312.085	129.7
312.299	55.98
312.513	78.51
312.727	-9.56
312.941	-19.8
313.154	66.22
313.368	55.98
313.582	47.79
313.796	129.7
314.009	10.92
314.223	119.46
314.437	66.22
314.651	23.21
314.864	-19.8
315.078	-1.37
315.292	4.78
315.505	86.7
315.719	29.35
315.933	45.74
316.146	-27.99
316.36	-17.75
316.573	86.7
316.787	39.59
317.001	111.27
317.214	-54.61
317.428	-85.33
317.641	21.16
317.855	-54.61
318.068	-40.28
318.282	-46.42
318.495	180.9
318.709	101.03
318.922	15.02
319.136	182.95
319.349	141.99
319.563	10.92
319.776	37.55
319.99	-5.46
320.203	80.55
320.417	43.69
320.63	111.27
320.843	154.28
321.057	78.51
321.27	15.02
321.483	84.65
321.697	86.7
321.91	39.59
322.124	43.69
322.337	12.97
322.55	4.78
322.763	98.99
322.977	45.74
323.19	47.79
323.403	47.79
323.617	117.42
323.83	80.55
324.043	43.69
324.256	51.88
324.469	-1.37
324.683	64.17
324.896	62.12
325.109	76.46
325.322	-77.14
325.535	96.94
325.748	37.55
325.962	96.94
326.175	80.55
326.388	133.8
326.601	119.46
326.814	70.31
327.027	82.6
327.24	105.13
327.453	-79.19
327.666	78.51
327.879	119.46
328.092	92.84
328.305	21.16
328.518	23.21
328.731	39.59
328.944	60.07
329.157	78.51
329.37	113.32
329.583	154.28
329.796	209.58
330.009	-25.94
330.222	88.75
330.435	39.59
330.648	88.75
330.861	35.5
331.073	51.88
331.286	137.9
331.499	55.98
331.712	55.98
331.925	33.45
332.138	43.69
332.35	80.55
332.563	31.4
332.776	148.14
332.989	-58.71
333.202	4.78
333.414	27.31
333.627	-9.56
333.84	62.12
334.053	2.73
334.265	4.78
334.478	47.79
334.691	12.97
334.903	80.55
335.116	6.83
335.329	6.83
335.541	31.4
335.754	111.27
335.966	39.59
336.179	-38.23
336.392	64.17
336.604	27.31
336.817	121.51
337.029	64.17
337.242	37.55
337.454	105.13
337.667	-1.37
337.88	23.21
338.092	113.32
338.305	72.36
338.517	-1.37
338.729	31.4
338.942	109.23
339.154	-36.18
339.367	-34.13
339.579	133.8
339.792	-1.37
340.004	150.18
340.217	49.83
340.429	60.07
340.641	-44.37
340.854	12.97
341.066	31.4
341.278	60.07
341.491	109.23
341.703	33.45
341.915	33.45
342.128	150.18
342.34	51.88
342.552	-85.33
342.764	31.4
342.977	19.11
343.189	-23.89
343.401	43.69
343.613	-30.04
343.826	68.27
344.038	10.92
344.25	88.75
344.462	55.98
344.674	23.21
344.886	-3.41
345.099	80.55
345.311	23.21
345.523	-68.95
345.735	-30.04
345.947	113.32
346.159	103.08
346.371	72.36
346.583	31.4
346.795	125.61
347.007	-42.32
347.219	49.83
347.431	55.98
347.643	144.04
347.855	23.21
348.067	74.41
348.279	-25.94
348.491	51.88
348.703	119.46
348.915	-11.61
349.127	-62.8
349.339	23.21
349.551	-27.99
349.763	27.31
349.975	29.35
350.187	55.98
350.399	55.98
350.61	144.04
350.822	8.87
351.034	64.17
351.246	62.12
351.458	53.93
351.669	37.55
351.881	121.51
352.093	113.32
352.305	105.13
352.517	166.57
352.728	135.85
352.94	119.46
353.152	66.22
353.363	-21.84
353.575	66.22
353.787	78.51
353.999	-30.04
354.21	193.19
354.422	23.21
354.633	15.02
354.845	55.98
355.057	37.55
355.268	45.74
355.48	96.94
355.692	-42.32
355.903	39.59
356.115	-60.76
356.326	-34.13
356.538	103.08
356.749	33.45
356.961	150.18
357.172	12.97
357.384	-23.89
357.595	133.8
357.807	-19.8
358.018	-38.23
358.23	21.16
358.441	158.38
358.653	17.07
358.864	80.55
359.075	43.69
359.287	21.16
359.498	109.23
359.709	131.75
359.921	-50.52
360.132	51.88
360.344	33.45
360.555	-54.61
360.766	-30.04
360.977	17.07
361.189	70.31
361.4	-30.04
361.611	90.79
361.823	103.08
362.034	49.83
362.245	-13.65
362.456	101.03
362.667	94.89
362.879	-17.75
363.09	39.59
363.301	27.31
363.512	37.55
363.723	64.17
363.935	8.87
364.146	113.32
364.357	41.64
364.568	51.88
364.779	12.97
364.99	119.46
365.201	60.07
365.412	47.79
365.623	-25.94
365.834	35.5
366.045	-9.56
366.256	45.74
366.467	31.4
366.678	62.12
366.889	60.07
367.1	6.83
367.311	70.31
367.522	41.64
367.733	88.75
367.944	47.79
368.155	82.6
368.366	60.07
368.577	170.66
368.788	141.99
368.999	78.51
369.209	101.03
369.42	170.66
369.631	185
369.842	60.07
370.053	43.69
370.264	109.23
370.474	53.93
370.685	49.83
370.896	37.55
371.107	125.61
371.317	80.55
371.528	55.98
371.739	123.56
371.95	47.79
372.16	88.75
372.371	-9.56
372.582	-50.52
372.792	137.9
373.003	103.08
373.214	53.93
373.424	35.5
373.635	10.92
373.846	27.31
374.056	84.65
374.267	-5.46
374.477	78.51
374.688	47.79
374.898	78.51
375.109	-17.75
375.319	80.55
375.53	178.86
375.74	84.65
375.951	78.51
376.161	25.26
376.372	72.36
376.582	-66.9
376.793	105.13
377.003	2.73
377.214	31.4
377.424	84.65
377.635	10.92
377.845	-25.94
378.055	125.61
378.266	-21.84
378.476	12.97
378.686	37.55
378.897	78.51
379.107	105.13
379.317	29.35
379.528	35.5
379.738	131.75
379.948	-15.7
380.158	158.38
380.369	72.36
380.579	15.02
380.789	-3.41
380.999	47.79
381.21	117.42
381.42	228.01
381.63	78.51
381.84	101.03
382.05	92.84
382.261	101.03
382.471	64.17
382.681	111.27
382.891	164.52
383.101	23.21
383.311	-3.41
383.521	2.73
383.731	62.12
383.941	70.31
384.151	74.41
384.361	25.26
384.571	78.51
384.781	43.69
384.991	137.9
385.201	123.56
385.411	60.07
385.621	58.03
385.831	98.99
386.041	21.16
386.251	53.93
386.461	170.66
386.671	-1.37
386.881	37.55
387.091	78.51
387.301	62.12
387.511	64.17
387.72	94.89
387.93	55.98
388.14	-27.99
388.35	76.46
388.56	88.75
388.769	47.79
388.979	19.11
389.189	29.35
389.399	76.46
389.609	76.46
389.818	19.11
390.028	41.64
390.238	86.7
390.447	39.59
390.657	51.88
390.867	39.59
391.076	-68.95
391.286	-1.37
391.496	29.35
391.705	-11.61
391.915	105.13
392.125	80.55
392.334	-1.37
392.544	144.04
392.753	43.69
392.963	12.97
393.172	35.5
393.382	0.68
393.591	199.34
393.801	6.83
394.01	92.84
394.22	60.07
394.429	-34.13
394.639	15.02
394.848	62.12
395.058	23.21
395.267	10.92
395.477	70.31
395.686	82.6
395.895	275.11
396.105	191.14
396.314	51.88
396.524	47.79
396.733	-36.18
396.942	103.08
397.152	31.4
397.361	180.9
397.57	121.51
397.78	49.83
397.989	129.7
398.198	217.77
398.407	96.94
398.617	76.46
398.826	25.26
399.035	47.79
399.244	105.13
399.453	47.79
399.663	55.98
399.872	64.17
400.081	-13.65
400.29	80.55
400.499	15.02
400.708	92.84
400.917	12.97
401.127	29.35
401.336	6.83
401.545	203.43
401.754	105.13
401.963	10.92
402.172	19.11
402.381	-1.37
402.59	121.51
402.799	15.02
403.008	113.32
403.217	35.5
403.426	119.46
403.635	-46.42
403.844	94.89
404.053	53.93
404.262	66.22
404.471	119.46
404.68	47.79
404.888	23.21
405.097	45.74
405.306	119.46
405.515	55.98
405.724	27.31
405.933	64.17
406.142	2.73
406.35	66.22
406.559	-1.37
406.768	164.52
406.977	119.46
407.185	103.08
407.394	47.79
407.603	-42.32
407.812	47.79
408.02	123.56
408.229	29.35
408.438	94.89
408.646	15.02
408.855	25.26
409.064	156.33
409.272	-52.56
409.481	88.75
409.69	60.07
409.898	-62.8
410.107	72.36
410.315	72.36
410.524	47.79
410.733	96.94
410.941	49.83
411.15	141.99
411.358	88.75
411.567	127.66
411.775	60.07
411.984	72.36
412.192	107.18
412.401	-34.13
412.609	113.32
412.818	123.56
413.026	70.31
413.234	6.83
413.443	19.11
413.651	-17.75
413.86	10.92
414.068	146.09
414.276	88.75
414.485	60.07
414.693	158.38
414.901	178.86
415.11	47.79
415.318	55.98
415.526	-9.56
415.734	146.09
415.943	47.79
416.151	137.9
416.359	117.42
416.567	96.94
416.776	211.62
416.984	107.18
417.192	152.23
417.4	43.69
417.608	-58.71
417.817	-46.42
418.025	156.33
418.233	193.19
418.441	41.64
418.649	-27.99
418.857	76.46
419.065	191.14
419.273	27.31
419.481	55.98
419.689	29.35
419.897	84.65
420.105	-3.41
420.313	137.9
420.521	119.46
420.729	148.14
420.937	6.83
421.145	31.4
421.353	86.7
421.561	197.29
421.769	129.7
421.977	-3.41
422.185	92.84
422.393	21.16
422.601	96.94
422.809	80.55
423.017	35.5
423.224	47.79
423.432	172.71
423.64	-9.56
423.848	135.85
424.056	10.92
424.263	148.14
424.471	154.28
424.679	117.42
424.887	8.87
425.094	96.94
425.302	127.66
425.51	84.65
425.718	96.94
425.925	113.32
426.133	4.78
426.341	154.28
426.548	64.17
426.756	43.69
426.964	170.66
427.171	62.12
427.379	94.89
427.586	31.4
427.794	80.55
428.001	133.8
428.209	109.23
428.417	146.09
428.624	43.69
428.832	162.47
429.039	29.35
429.247	103.08
429.454	121.51
429.662	193.19
429.869	121.51
430.076	101.03
430.284	182.95
430.491	258.73
430.699	137.9
430.906	156.33
431.114	135.85
431.321	123.56
431.528	103.08
431.736	109.23
431.943	154.28
432.15	219.82
432.358	234.15
432.565	250.53
432.772	49.83
432.979	191.14
433.187	129.7
433.394	178.86
433.601	150.18
433.808	283.3
434.016	215.72
434.223	248.49
434.43	191.14
434.637	223.91
434.844	324.26
435.052	318.12
435.259	228.01
435.466	293.54
435.673	291.49
435.88	260.77
436.087	350.89
436.294	395.94
436.501	307.88
436.708	309.93
436.915	318.12
437.122	400.04
437.329	285.35
437.537	381.6
437.743	359.08
437.95	406.18
438.157	402.08
438.364	393.89
438.571	379.56
438.778	379.56
438.985	471.72
439.192	481.96
439.399	531.11
439.606	481.96
439.813	514.72
440.02	580.26
440.227	719.52
440.433	578.21
440.64	510.63
440.847	479.91
441.054	561.83
441.261	653.98
441.467	602.79
441.674	744.1
441.881	705.18
442.088	678.56
442.294	737.95
442.501	758.43
442.708	817.82
442.914	815.77
443.121	903.84
443.328	840.35
443.534	963.23
443.741	858.78
443.948	924.32
444.154	946.84
444.361	1120.92
444.568	1010.33
444.774	1006.24
444.981	955.04
445.187	1260.18
445.394	1219.22
445.6	1170.07
445.807	1368.73
446.013	1333.91
446.22	1360.53
446.426	1520.28
446.633	1516.18
446.839	1759.89
447.046	1464.98
447.252	1657.49
447.459	1692.3
447.665	1776.27
447.871	1895.05
448.078	2028.17
448.284	1979.02
448.491	2056.84
448.697	2153.1
448.903	2212.49
449.11	2161.29
449.316	2230.92
449.522	2415.24
449.728	2538.12
449.935	2609.79
450.141	2628.23
450.347	2923.13
450.553	2757.25
450.76	2822.78
450.966	2912.89
451.172	3084.92
451.378	3197.56
451.584	3342.97
451.791	3506.81
451.997	3709.55
452.203	3605.11
452.409	3854.96
452.615	4037.23
452.821	3795.57
453.027	3928.69
453.233	4475.49
453.44	4332.14
453.646	4565.6
453.852	4584.04
454.058	4872.8
454.264	5132.89
454.47	5567.06
454.676	5470.81
454.882	5962.32
455.088	5847.63
455.294	5982.8
455.5	6410.82
455.705	6773.32
455.911	6740.55
456.117	6924.86
456.323	7242.3
456.529	7266.88
456.735	7868.98
456.941	8114.73
457.147	8376.87
457.352	8456.75
457.558	8897.06
457.764	9540.12
457.97	9622.04
458.176	10062.35
458.381	10373.64
458.587	10744.33
458.793	11293.18
458.999	11254.27
459.204	12534.25
459.41	13132.26
459.616	12769.77
459.821	13695.45
460.027	14238.16
460.233	15004.1
460.438	15104.45
460.644	15954.36
460.85	15815.1
461.055	16460.21
461.261	17418.66
461.466	16798.12
461.672	17381.79
461.878	19255.68
462.083	19001.74
462.289	19317.12
462.494	20226.42
462.7	20502.9
462.905	20480.37
463.111	22184.28
463.316	23550.28
463.522	23957.82
463.727	24731.95
463.932	25669.92
464.138	26310.94
464.343	27615.49
464.549	27351.31
464.754	29753.57
464.959	30374.11
465.165	30707.93
465.37	30734.55
465.575	30859.48
465.781	32850.1
465.986	33974.44
466.191	33134.77
466.397	33585.32
466.602	32817.33
466.807	34754.71
467.012	35145.87
467.218	35756.17
467.423	35731.59
467.628	36786.3
467.833	38510.69
468.038	37773.42
468.244	37154.93
468.449	39032.92
468.654	38187.11
468.859	38420.58
