Data from USB4F104151__85__10-34-29-535.txt Node

Date: Wed Feb 26 10:34:29 EST 2025
User: louis
Spectrometer: USB4F10415
Trigger mode: 4
Integration Time (sec): 1.000000E-1
Scans to average: 1
Electric dark correction enabled: true
Nonlinearity correction enabled: false
Boxcar width: 0
XAxis mode: Wavelengths
Number of Pixels in Spectrum: 3648
>>>>>Begin Spectral Data<<<<<
178.204	-422.91
178.424	-422.91
178.644	-422.91
178.864	-467.96
179.084	-484.34
179.304	19.46
179.524	-46.08
179.744	17.41
179.964	9.22
180.184	-17.41
180.404	-64.51
180.624	19.46
180.844	58.37
181.064	-23.55
181.283	11.26
181.503	-23.55
181.723	39.94
181.943	-123.9
182.163	119.81
182.383	-130.05
182.602	82.94
182.822	146.43
183.042	-15.36
183.262	17.41
183.482	-46.08
183.701	7.17
183.921	44.03
184.141	-91.13
184.361	39.94
184.58	62.46
184.8	13.31
185.02	-44.03
185.239	64.51
185.459	74.75
185.679	173.05
185.898	-80.89
186.118	99.33
186.338	91.13
186.557	5.12
186.777	-64.51
186.997	-3.07
187.216	-5.12
187.436	103.42
187.655	64.51
187.875	60.42
188.095	-29.7
188.314	80.89
188.534	89.09
188.753	-134.14
188.973	60.42
189.192	185.34
189.412	33.79
189.631	-7.17
189.851	7.17
190.07	128
190.29	-105.47
190.509	-54.27
190.729	13.31
190.948	58.37
191.168	185.34
191.387	64.51
191.607	-9.22
191.826	134.14
192.045	7.17
192.265	19.46
192.484	121.85
192.704	62.46
192.923	-99.33
193.142	119.81
193.362	146.43
193.581	97.28
193.8	-5.12
194.02	76.8
194.239	5.12
194.458	37.89
194.678	-15.36
194.897	48.13
195.116	66.56
195.335	17.41
195.555	41.98
195.774	-31.74
195.993	91.13
196.212	19.46
196.432	-21.5
196.651	-15.36
196.87	-25.6
197.089	164.86
197.308	23.55
197.528	78.85
197.747	-35.84
197.966	33.79
198.185	93.18
198.404	-7.17
198.623	56.32
198.842	117.76
199.062	95.23
199.281	74.75
199.5	89.09
199.719	103.42
199.938	62.46
200.157	111.61
200.376	173.05
200.595	105.47
200.814	1.02
201.033	-35.84
201.252	97.28
201.471	80.89
201.69	19.46
201.909	-33.79
202.128	70.65
202.347	50.18
202.566	29.7
202.785	-15.36
203.004	-11.26
203.223	244.73
203.442	48.13
203.661	-66.56
203.879	39.94
204.098	82.94
204.317	-41.98
204.536	87.04
204.755	35.84
204.974	125.95
205.193	-27.65
205.411	152.57
205.63	52.22
205.849	70.65
206.068	13.31
206.287	15.36
206.505	125.95
206.724	97.28
206.943	-27.65
207.162	-31.74
207.381	44.03
207.599	54.27
207.818	97.28
208.037	-17.41
208.255	99.33
208.474	52.22
208.693	5.12
208.911	54.27
209.13	150.53
209.349	-5.12
209.567	89.09
209.786	80.89
210.005	46.08
210.223	19.46
210.442	-101.37
210.661	23.55
210.879	-19.46
211.098	60.42
211.316	48.13
211.535	5.12
211.753	62.46
211.972	-29.7
212.191	-54.27
212.409	27.65
212.628	109.57
212.846	35.84
213.065	-3.07
213.283	128
213.502	46.08
213.72	80.89
213.938	-19.46
214.157	-11.26
214.375	107.52
214.594	29.7
214.812	107.52
215.031	-5.12
215.249	33.79
215.467	3.07
215.686	25.6
215.904	132.09
216.122	54.27
216.341	115.71
216.559	23.55
216.778	91.13
216.996	111.61
217.214	84.99
217.432	13.31
217.651	-64.51
217.869	46.08
218.087	76.8
218.306	11.26
218.524	-13.31
218.742	11.26
218.96	-56.32
219.179	58.37
219.397	29.7
219.615	197.63
219.833	56.32
220.051	-9.22
220.27	46.08
220.488	121.85
220.706	35.84
220.924	-56.32
221.142	-64.51
221.36	31.74
221.578	46.08
221.796	-29.7
222.015	17.41
222.233	103.42
222.451	158.72
222.669	-46.08
222.887	107.52
223.105	29.7
223.323	-3.07
223.541	-7.17
223.759	46.08
223.977	-35.84
224.195	177.15
224.413	11.26
224.631	19.46
224.849	-9.22
225.067	220.16
225.285	3.07
225.503	-9.22
225.721	-136.19
225.939	-11.26
226.157	64.51
226.375	183.29
226.592	-39.94
226.81	3.07
227.028	101.37
227.246	97.28
227.464	70.65
227.682	103.42
227.9	91.13
228.117	62.46
228.335	66.56
228.553	46.08
228.771	64.51
228.989	39.94
229.206	52.22
229.424	-48.13
229.642	-1.02
229.86	-37.89
230.077	31.74
230.295	-3.07
230.513	162.81
230.731	54.27
230.948	164.86
231.166	154.62
231.384	-13.31
231.601	-1.02
231.819	166.91
232.037	39.94
232.254	-13.31
232.472	31.74
232.689	1.02
232.907	105.47
233.125	3.07
233.342	7.17
233.56	64.51
233.777	-1.02
233.995	1.02
234.213	80.89
234.43	113.66
234.648	99.33
234.865	-1.02
235.083	60.42
235.3	-37.89
235.518	72.7
235.735	107.52
235.953	70.65
236.17	3.07
236.388	15.36
236.605	-52.22
236.822	52.22
237.04	119.81
237.257	5.12
237.475	-111.61
237.692	62.46
237.909	56.32
238.127	-29.7
238.344	-23.55
238.562	48.13
238.779	-56.32
238.996	-3.07
239.214	7.17
239.431	74.75
239.648	25.6
239.865	76.8
240.083	58.37
240.3	-5.12
240.517	-9.22
240.735	-11.26
240.952	95.23
241.169	70.65
241.386	19.46
241.603	19.46
241.821	-3.07
242.038	80.89
242.255	115.71
242.472	-13.31
242.689	21.5
242.907	113.66
243.124	97.28
243.341	1.02
243.558	-5.12
243.775	-70.65
243.992	-138.24
244.209	89.09
244.426	250.88
244.643	91.13
244.86	31.74
245.078	123.9
245.295	93.18
245.512	15.36
245.729	-25.6
245.946	-29.7
246.163	48.13
246.38	33.79
246.597	-9.22
246.814	115.71
247.031	1.02
247.248	15.36
247.464	-21.5
247.681	46.08
247.898	31.74
248.115	-21.5
248.332	-17.41
248.549	93.18
248.766	132.09
248.983	29.7
249.2	25.6
249.417	158.72
249.633	-23.55
249.85	37.89
250.067	-39.94
250.284	19.46
250.501	15.36
250.717	123.9
250.934	-66.56
251.151	-7.17
251.368	44.03
251.585	66.56
251.801	48.13
252.018	-3.07
252.235	68.61
252.451	-74.75
252.668	27.65
252.885	76.8
253.102	33.79
253.318	-21.5
253.535	-33.79
253.752	62.46
253.968	-62.46
254.185	-17.41
254.401	44.03
254.618	-19.46
254.835	-1.02
255.051	91.13
255.268	82.94
255.484	-7.17
255.701	37.89
255.917	-23.55
256.134	-50.18
256.351	-3.07
256.567	-74.75
256.784	56.32
257	-35.84
257.217	134.14
257.433	82.94
257.65	-7.17
257.866	78.85
258.082	-84.99
258.299	-21.5
258.515	-9.22
258.732	-7.17
258.948	-70.65
259.165	58.37
259.381	-48.13
259.597	54.27
259.814	7.17
260.03	52.22
260.246	-25.6
260.463	87.04
260.679	76.8
260.895	125.95
261.112	101.37
261.328	-9.22
261.544	-91.13
261.761	134.14
261.977	9.22
262.193	-46.08
262.409	89.09
262.626	-44.03
262.842	52.22
263.058	31.74
263.274	103.42
263.49	15.36
263.707	62.46
263.923	109.57
264.139	-50.18
264.355	89.09
264.571	82.94
264.787	21.5
265.004	72.7
265.22	21.5
265.436	-91.13
265.652	-23.55
265.868	35.84
266.084	-66.56
266.3	3.07
266.516	-7.17
266.732	44.03
266.948	-15.36
267.164	13.31
267.38	68.61
267.596	33.79
267.812	113.66
268.028	-58.37
268.244	-46.08
268.46	9.22
268.676	-9.22
268.892	97.28
269.108	-23.55
269.324	-13.31
269.54	-11.26
269.756	154.62
269.972	-62.46
270.188	-41.98
270.403	-13.31
270.619	25.6
270.835	-64.51
271.051	-35.84
271.267	5.12
271.483	-41.98
271.698	91.13
271.914	58.37
272.13	72.7
272.346	27.65
272.562	23.55
272.777	152.57
272.993	19.46
273.209	1.02
273.425	11.26
273.64	-91.13
273.856	39.94
274.072	19.46
274.287	-13.31
274.503	35.84
274.719	107.52
274.934	-46.08
275.15	-70.65
275.366	21.5
275.581	-39.94
275.797	50.18
276.012	-3.07
276.228	-50.18
276.444	39.94
276.659	154.62
276.875	-21.5
277.09	70.65
277.306	19.46
277.521	-17.41
277.737	29.7
277.952	72.7
278.168	31.74
278.383	-25.6
278.599	66.56
278.814	11.26
279.03	11.26
279.245	150.53
279.461	31.74
279.676	76.8
279.892	-56.32
280.107	-7.17
280.322	-11.26
280.538	76.8
280.753	-80.89
280.969	-58.37
281.184	-33.79
281.399	152.57
281.615	-11.26
281.83	56.32
282.045	-103.42
282.26	-15.36
282.476	29.7
282.691	166.91
282.906	44.03
283.122	3.07
283.337	-54.27
283.552	78.85
283.767	-23.55
283.983	46.08
284.198	-21.5
284.413	136.19
284.628	-37.89
284.843	19.46
285.058	60.42
285.274	29.7
285.489	-46.08
285.704	78.85
285.919	11.26
286.134	-29.7
286.349	109.57
286.564	15.36
286.779	48.13
286.995	-52.22
287.21	-62.46
287.425	115.71
287.64	-7.17
287.855	19.46
288.07	-80.89
288.285	31.74
288.5	103.42
288.715	93.18
288.93	27.65
289.145	-84.99
289.36	89.09
289.575	-1.02
289.79	140.29
290.004	54.27
290.219	93.18
290.434	-17.41
290.649	19.46
290.864	-9.22
291.079	27.65
291.294	56.32
291.509	64.51
291.724	107.52
291.938	37.89
292.153	35.84
292.368	-39.94
292.583	35.84
292.798	31.74
293.012	82.94
293.227	41.98
293.442	-25.6
293.657	64.51
293.871	99.33
294.086	-50.18
294.301	152.57
294.516	134.14
294.73	-39.94
294.945	-37.89
295.16	13.31
295.374	119.81
295.589	60.42
295.804	29.7
296.018	82.94
296.233	185.34
296.447	152.57
296.662	17.41
296.877	109.57
297.091	58.37
297.306	39.94
297.52	11.26
297.735	23.55
297.949	-31.74
298.164	21.5
298.378	7.17
298.593	-72.7
298.807	-33.79
299.022	37.89
299.236	117.76
299.451	23.55
299.665	35.84
299.88	-27.65
300.094	132.09
300.309	-58.37
300.523	56.32
300.737	35.84
300.952	95.23
301.166	66.56
301.381	-62.46
301.595	-17.41
301.809	39.94
302.024	5.12
302.238	-70.65
302.452	64.51
302.667	-9.22
302.881	105.47
303.095	68.61
303.309	-33.79
303.524	-78.85
303.738	15.36
303.952	15.36
304.166	91.13
304.381	-162.81
304.595	132.09
304.809	-33.79
305.023	44.03
305.237	-62.46
305.452	-41.98
305.666	144.38
305.88	87.04
306.094	80.89
306.308	27.65
306.522	66.56
306.736	41.98
306.95	48.13
307.164	35.84
307.379	-54.27
307.593	132.09
307.807	76.8
308.021	37.89
308.235	56.32
308.449	-76.8
308.663	-109.57
308.877	195.58
309.091	35.84
309.305	25.6
309.519	-41.98
309.733	72.7
309.947	-39.94
310.161	95.23
310.374	13.31
310.588	93.18
310.802	-41.98
311.016	-58.37
311.23	66.56
311.444	-56.32
311.658	15.36
311.872	50.18
312.085	119.81
312.299	115.71
312.513	111.61
312.727	15.36
312.941	-64.51
313.154	13.31
313.368	-11.26
313.582	35.84
313.796	13.31
314.009	80.89
314.223	66.56
314.437	48.13
314.651	35.84
314.864	-1.02
315.078	29.7
315.292	-74.75
315.505	19.46
315.719	80.89
315.933	44.03
316.146	25.6
316.36	25.6
316.573	109.57
316.787	46.08
317.001	84.99
317.214	-113.66
317.428	37.89
317.641	-109.57
317.855	-29.7
318.068	9.22
318.282	48.13
318.495	185.34
318.709	46.08
318.922	-5.12
319.136	144.38
319.349	52.22
319.563	-25.6
319.776	93.18
319.99	-64.51
320.203	111.61
320.417	-9.22
320.63	105.47
320.843	168.96
321.057	50.18
321.27	29.7
321.483	60.42
321.697	146.43
321.91	-5.12
322.124	25.6
322.337	97.28
322.55	-54.27
322.763	44.03
322.977	-44.03
323.19	-99.33
323.403	23.55
323.617	44.03
323.83	33.79
324.043	89.09
324.256	95.23
324.469	54.27
324.683	171.01
324.896	119.81
325.109	-27.65
325.322	-91.13
325.535	115.71
325.748	68.61
325.962	5.12
326.175	19.46
326.388	72.7
326.601	105.47
326.814	-15.36
327.027	107.52
327.24	91.13
327.453	-97.28
327.666	23.55
327.879	78.85
328.092	91.13
328.305	37.89
328.518	-66.56
328.731	-9.22
328.944	3.07
329.157	9.22
329.37	-11.26
329.583	203.77
329.796	162.81
330.009	-35.84
330.222	109.57
330.435	80.89
330.648	-25.6
330.861	27.65
331.073	-17.41
331.286	56.32
331.499	9.22
331.712	-44.03
331.925	-74.75
332.138	-25.6
332.35	74.75
332.563	-103.42
332.776	138.24
332.989	-80.89
333.202	-9.22
333.414	19.46
333.627	113.66
333.84	-3.07
334.053	15.36
334.265	35.84
334.478	-87.04
334.691	3.07
334.903	15.36
335.116	-7.17
335.329	33.79
335.541	103.42
335.754	111.61
335.966	39.94
336.179	113.66
336.392	-50.18
336.604	33.79
336.817	82.94
337.029	58.37
337.242	13.31
337.454	95.23
337.667	13.31
337.88	171.01
338.092	15.36
338.305	78.85
338.517	-87.04
338.729	54.27
338.942	115.71
339.154	-60.42
339.367	-39.94
339.579	62.46
339.792	-17.41
340.004	35.84
340.217	3.07
340.429	87.04
340.641	-31.74
340.854	-19.46
341.066	35.84
341.278	62.46
341.491	168.96
341.703	9.22
341.915	-11.26
342.128	64.51
342.34	1.02
342.552	9.22
342.764	66.56
342.977	29.7
343.189	7.17
343.401	19.46
343.613	-52.22
343.826	27.65
344.038	-72.7
344.25	58.37
344.462	-111.61
344.674	84.99
344.886	5.12
345.099	76.8
345.311	74.75
345.523	-35.84
345.735	-48.13
345.947	19.46
346.159	54.27
346.371	5.12
346.583	-52.22
346.795	115.71
347.007	1.02
347.219	31.74
347.431	64.51
347.643	121.85
347.855	15.36
348.067	138.24
348.279	13.31
348.491	78.85
348.703	89.09
348.915	-25.6
349.127	-1.02
349.339	-9.22
349.551	-23.55
349.763	58.37
349.975	-66.56
350.187	113.66
350.399	162.81
350.61	46.08
350.822	-58.37
351.034	-31.74
351.246	87.04
351.458	37.89
351.669	68.61
351.881	130.05
352.093	121.85
352.305	113.66
352.517	25.6
352.728	117.76
352.94	-13.31
353.152	103.42
353.363	-29.7
353.575	76.8
353.787	144.38
353.999	60.42
354.21	166.91
354.422	23.55
354.633	-15.36
354.845	-17.41
355.057	7.17
355.268	-39.94
355.48	128
355.692	-82.94
355.903	-56.32
356.115	-7.17
356.326	-154.62
356.538	64.51
356.749	93.18
356.961	128
357.172	25.6
357.384	-5.12
357.595	166.91
357.807	-9.22
358.018	-68.61
358.23	64.51
358.441	121.85
358.653	-9.22
358.864	3.07
359.075	-117.76
359.287	13.31
359.498	109.57
359.709	107.52
359.921	31.74
360.132	52.22
360.344	11.26
360.555	-17.41
360.766	-15.36
360.977	5.12
361.189	74.75
361.4	-33.79
361.611	52.22
361.823	121.85
362.034	35.84
362.245	-64.51
362.456	-19.46
362.667	44.03
362.879	-15.36
363.09	35.84
363.301	56.32
363.512	44.03
363.723	-41.98
363.935	11.26
364.146	60.42
364.357	-23.55
364.568	70.65
364.779	19.46
364.99	119.81
365.201	23.55
365.412	162.81
365.623	-58.37
365.834	56.32
366.045	48.13
366.256	130.05
366.467	37.89
366.678	-68.61
366.889	39.94
367.1	-11.26
367.311	56.32
367.522	19.46
367.733	25.6
367.944	44.03
368.155	1.02
368.366	60.42
368.577	66.56
368.788	76.8
368.999	-99.33
369.209	1.02
369.42	195.58
369.631	199.68
369.842	109.57
370.053	-21.5
370.264	130.05
370.474	-21.5
370.685	72.7
370.896	33.79
371.107	64.51
371.317	1.02
371.528	-58.37
371.739	62.46
371.95	72.7
372.16	60.42
372.371	-87.04
372.582	21.5
372.792	39.94
373.003	66.56
373.214	1.02
373.424	99.33
373.635	-15.36
373.846	150.53
374.056	-29.7
374.267	50.18
374.477	48.13
374.688	-84.99
374.898	27.65
375.109	15.36
375.319	-5.12
375.53	7.17
375.74	70.65
375.951	3.07
376.161	46.08
376.372	101.37
376.582	-70.65
376.793	35.84
377.003	3.07
377.214	-21.5
377.424	154.62
377.635	-64.51
377.845	-13.31
378.055	121.85
378.266	-31.74
378.476	19.46
378.686	-17.41
378.897	56.32
379.107	185.34
379.317	56.32
379.528	39.94
379.738	54.27
379.948	-72.7
380.158	128
380.369	3.07
380.579	95.23
380.789	23.55
380.999	13.31
381.21	5.12
381.42	252.92
381.63	84.99
381.84	95.23
382.05	44.03
382.261	107.52
382.471	66.56
382.681	11.26
382.891	117.76
383.101	97.28
383.311	-29.7
383.521	-11.26
383.731	80.89
383.941	89.09
384.151	68.61
384.361	-44.03
384.571	25.6
384.781	50.18
384.991	265.21
385.201	199.68
385.411	19.46
385.621	117.76
385.831	109.57
386.041	80.89
386.251	-60.42
386.461	44.03
386.671	-1.02
386.881	33.79
387.091	-29.7
387.301	54.27
387.511	29.7
387.72	91.13
387.93	105.47
388.14	-44.03
388.35	107.52
388.56	80.89
388.769	-15.36
388.979	-68.61
389.189	-56.32
389.399	56.32
389.609	76.8
389.818	72.7
390.028	72.7
390.238	62.46
390.447	-78.85
390.657	46.08
390.867	-113.66
391.076	-89.09
391.286	91.13
391.496	35.84
391.705	52.22
391.915	35.84
392.125	50.18
392.334	35.84
392.544	173.05
392.753	23.55
392.963	-7.17
393.172	-3.07
393.382	-5.12
393.591	201.72
393.801	-52.22
394.01	56.32
394.22	154.62
394.429	50.18
394.639	-11.26
394.848	15.36
395.058	62.46
395.267	33.79
395.477	48.13
395.686	41.98
395.895	195.58
396.105	291.84
396.314	93.18
396.524	-11.26
396.733	-35.84
396.942	93.18
397.152	103.42
397.361	113.66
397.57	37.89
397.78	128
397.989	31.74
398.198	218.11
398.407	27.65
398.617	41.98
398.826	87.04
399.035	9.22
399.244	82.94
399.453	13.31
399.663	62.46
399.872	52.22
400.081	-39.94
400.29	115.71
400.499	-29.7
400.708	89.09
400.917	27.65
401.127	41.98
401.336	-35.84
401.545	197.63
401.754	89.09
401.963	82.94
402.172	21.5
402.381	-1.02
402.59	13.31
402.799	-5.12
403.008	13.31
403.217	52.22
403.426	113.66
403.635	-54.27
403.844	-15.36
404.053	80.89
404.262	46.08
404.471	128
404.68	117.76
404.888	89.09
405.097	58.37
405.306	23.55
405.515	56.32
405.724	33.79
405.933	89.09
406.142	-7.17
406.35	150.53
406.559	-7.17
406.768	17.41
406.977	195.58
407.185	37.89
407.394	125.95
407.603	-99.33
407.812	27.65
408.02	62.46
408.229	62.46
408.438	15.36
408.646	-11.26
408.855	1.02
409.064	29.7
409.272	80.89
409.481	60.42
409.69	-5.12
409.898	-50.18
410.107	-9.22
410.315	80.89
410.524	1.02
410.733	64.51
410.941	44.03
411.15	74.75
411.358	130.05
411.567	166.91
411.775	23.55
411.984	21.5
412.192	35.84
412.401	33.79
412.609	263.16
412.818	72.7
413.026	107.52
413.234	-31.74
413.443	-1.02
413.651	-44.03
413.86	33.79
414.068	121.85
414.276	185.34
414.485	-23.55
414.693	183.29
414.901	171.01
415.11	84.99
415.318	27.65
415.526	17.41
415.734	144.38
415.943	-25.6
416.151	91.13
416.359	-9.22
416.567	80.89
416.776	56.32
416.984	52.22
417.192	156.67
417.4	35.84
417.608	9.22
417.817	-68.61
418.025	93.18
418.233	152.57
418.441	-52.22
418.649	29.7
418.857	80.89
419.065	97.28
419.273	-80.89
419.481	78.85
419.689	-13.31
419.897	-25.6
420.105	-46.08
420.313	84.99
420.521	183.29
420.729	113.66
420.937	-7.17
421.145	-19.46
421.353	58.37
421.561	72.7
421.769	9.22
421.977	50.18
422.185	146.43
422.393	41.98
422.601	125.95
422.809	48.13
423.017	-27.65
423.224	103.42
423.432	54.27
423.64	5.12
423.848	144.38
424.056	-52.22
424.263	35.84
424.471	60.42
424.679	46.08
424.887	-25.6
425.094	166.91
425.302	60.42
425.51	78.85
425.718	48.13
425.925	33.79
426.133	37.89
426.341	199.68
426.548	78.85
426.756	-1.02
426.964	132.09
427.171	37.89
427.379	64.51
427.586	50.18
427.794	130.05
428.001	166.91
428.209	74.75
428.417	156.67
428.624	58.37
428.832	50.18
429.039	80.89
429.247	107.52
429.454	93.18
429.662	209.92
429.869	158.72
430.076	99.33
430.284	164.86
430.491	183.29
430.699	140.29
430.906	224.25
431.114	119.81
431.321	68.61
431.528	74.75
431.736	89.09
431.943	162.81
432.15	152.57
432.358	162.81
432.565	271.36
432.772	41.98
432.979	156.67
433.187	72.7
433.394	146.43
433.601	99.33
433.808	203.77
434.016	168.96
434.223	183.29
434.43	177.15
434.637	242.68
434.844	277.5
435.052	228.35
435.259	209.92
435.466	209.92
435.673	261.12
435.88	334.84
436.087	263.16
436.294	306.17
436.501	306.17
436.708	162.81
436.915	285.69
437.122	314.36
437.329	269.31
437.537	252.92
437.743	240.64
437.95	406.52
438.157	394.23
438.364	340.99
438.571	359.42
438.778	330.75
438.985	396.28
439.192	412.67
439.399	390.14
439.606	345.08
439.813	396.28
440.02	498.68
440.227	578.55
440.433	527.35
440.64	396.28
440.847	424.95
441.054	558.07
441.261	652.28
441.467	525.3
441.674	492.54
441.881	609.27
442.088	572.41
442.294	642.04
442.501	738.29
442.708	744.44
442.914	615.41
443.121	779.25
443.328	779.25
443.534	766.96
443.741	773.11
443.948	646.13
444.154	838.64
444.361	1106.93
444.568	879.6
444.774	906.23
444.981	893.94
445.187	1104.88
445.394	1063.92
445.6	951.28
445.807	1199.09
446.013	1178.61
446.22	1035.25
446.426	1211.37
446.633	1438.7
446.839	1516.52
447.046	1299.44
447.252	1508.33
447.459	1479.66
447.665	1588.2
447.871	1653.73
448.078	1774.56
448.284	1674.21
448.491	1919.97
448.697	1749.99
448.903	1942.5
449.11	2096.1
449.316	1977.31
449.522	2026.47
449.728	2196.45
449.935	2315.23
450.141	2186.21
450.347	2556.89
450.553	2307.04
450.76	2524.12
450.966	2528.22
451.172	2706.39
451.378	2937.81
451.584	2905.04
451.791	3177.42
451.997	3320.78
452.203	3468.24
452.409	3361.74
452.615	3584.97
452.821	3449.8
453.027	3443.66
453.233	4056
453.44	3750.85
453.646	4115.39
453.852	4221.89
454.058	4240.32
454.264	4479.93
454.47	4848.57
454.676	4832.18
454.882	5358.51
455.088	5129.14
455.294	5325.74
455.5	5505.96
455.705	5856.17
455.911	5874.6
456.117	6210.47
456.323	6394.78
456.529	6470.56
456.735	7039.89
456.941	7205.78
457.147	7310.22
457.352	7560.08
457.558	7715.72
457.764	8344.45
457.97	8618.88
458.176	9106.29
458.381	9458.54
458.587	9548.65
458.793	9808.75
458.999	9898.86
459.204	11203.41
459.41	11539.28
459.616	11322.2
459.821	12155.72
460.027	12249.93
460.233	13288.25
460.438	13112.12
460.644	14232.36
460.85	14052.14
461.055	14811.93
461.261	15373.08
461.466	15055.64
461.672	15317.78
461.878	17150.71
462.083	17122.04
462.289	17361.66
462.494	18019.05
462.7	18031.34
462.905	18307.82
463.111	20060.88
463.316	20822.72
463.522	21095.1
463.727	21684.92
463.932	22530.73
464.138	23642.78
464.343	24380.04
464.549	24193.68
464.754	26323.57
464.959	26972.77
465.165	27247.2
465.37	27198.05
465.575	27513.44
465.781	29039.17
465.986	30183.99
466.191	29319.74
466.397	29702.71
466.602	29166.15
466.807	30693.93
467.012	31502.88
467.218	31754.78
467.423	31752.73
467.628	32875.02
467.833	34267.64
468.038	33757.69
468.244	33057.29
468.449	34922.99
468.654	34128.38
