Data from USB4F104151__10__11-24-21-408.txt Node

Date: Wed Feb 26 11:24:21 EST 2025
User: louis
Spectrometer: USB4F10415
Trigger mode: 4
Integration Time (sec): 1.000000E-1
Scans to average: 1
Electric dark correction enabled: true
Nonlinearity correction enabled: false
Boxcar width: 0
XAxis mode: Wavelengths
Number of Pixels in Spectrum: 3648
>>>>>Begin Spectral Data<<<<<
178.204	-351.57
178.424	-351.57
178.644	-351.57
178.864	-396.62
179.084	-404.82
179.304	-1.37
179.524	-71
179.744	0.68
179.964	-23.89
180.184	51.88
180.404	35.5
180.624	-19.8
180.844	101.03
181.064	-93.52
181.283	68.27
181.503	-91.48
181.723	43.69
181.943	-93.52
182.163	135.85
182.383	49.83
182.602	55.98
182.822	82.6
183.042	98.99
183.262	-87.38
183.482	33.45
183.701	29.35
183.921	41.64
184.141	0.68
184.361	6.83
184.58	-36.18
184.8	111.27
185.02	-66.9
185.239	166.57
185.459	90.79
185.679	119.46
185.898	-60.76
186.118	80.55
186.338	47.79
186.557	164.52
186.777	-81.24
186.997	29.35
187.216	19.11
187.436	219.82
187.655	62.12
187.875	166.57
188.095	55.98
188.314	43.69
188.534	90.79
188.753	-1.37
188.973	121.51
189.192	217.77
189.412	-1.37
189.631	33.45
189.851	6.83
190.07	121.51
190.29	-66.9
190.509	12.97
190.729	6.83
190.948	60.07
191.168	217.77
191.387	47.79
191.607	-11.61
191.826	45.74
192.045	21.16
192.265	-15.7
192.484	107.18
192.704	51.88
192.923	-3.41
193.142	185
193.362	86.7
193.581	158.38
193.8	45.74
194.02	74.41
194.239	107.18
194.458	115.37
194.678	8.87
194.897	4.78
195.116	64.17
195.335	45.74
195.555	60.07
195.774	15.02
195.993	111.27
196.212	39.59
196.432	10.92
196.651	21.16
196.87	35.5
197.089	176.81
197.308	-11.61
197.528	29.35
197.747	-36.18
197.966	49.83
198.185	148.14
198.404	-19.8
198.623	150.18
198.842	92.84
199.062	45.74
199.281	86.7
199.5	0.68
199.719	58.03
199.938	80.55
200.157	37.55
200.376	156.33
200.595	68.27
200.814	15.02
201.033	33.45
201.252	158.38
201.471	41.64
201.69	88.75
201.909	4.78
202.128	156.33
202.347	121.51
202.566	70.31
202.785	-52.56
203.004	37.55
203.223	264.87
203.442	6.83
203.661	-95.57
203.879	-7.51
204.098	127.66
204.317	-3.41
204.536	31.4
204.755	141.99
204.974	121.51
205.193	21.16
205.411	137.9
205.63	62.12
205.849	-87.38
206.068	31.4
206.287	-40.28
206.505	82.6
206.724	12.97
206.943	-60.76
207.162	-21.85
207.381	55.98
207.599	-1.37
207.818	-7.51
208.037	-3.41
208.255	58.03
208.474	68.27
208.693	29.35
208.911	68.27
209.13	41.64
209.349	96.94
209.567	70.31
209.786	103.08
210.005	47.79
210.223	72.36
210.442	-58.71
210.661	17.07
210.879	96.94
211.098	31.4
211.316	45.74
211.535	43.69
211.753	76.46
211.972	70.31
212.191	-52.56
212.409	-34.13
212.628	66.22
212.846	-38.23
213.065	47.79
213.283	109.22
213.502	62.12
213.72	35.5
213.938	98.99
214.157	15.02
214.375	131.75
214.594	-27.99
214.812	86.7
215.031	-19.8
215.249	25.26
215.467	-13.65
215.686	8.87
215.904	17.07
216.122	43.69
216.341	92.84
216.559	111.27
216.778	82.6
216.996	180.9
217.214	27.31
217.432	-1.37
217.651	-25.94
217.869	101.03
218.087	74.41
218.306	60.07
218.524	10.92
218.742	53.93
218.96	94.89
219.179	51.88
219.397	8.87
219.615	205.48
219.833	90.79
220.051	-56.66
220.27	127.66
220.488	76.46
220.706	47.79
220.924	-17.75
221.142	-11.61
221.36	47.79
221.578	53.93
221.796	31.4
222.015	119.46
222.233	12.97
222.451	111.27
222.669	-38.23
222.887	92.84
223.105	-25.94
223.323	29.35
223.541	-27.99
223.759	45.74
223.977	101.03
224.195	123.56
224.413	101.03
224.631	-5.46
224.849	90.79
225.067	234.15
225.285	4.78
225.503	-9.56
225.721	-30.04
225.939	41.64
226.157	41.64
226.375	256.68
226.592	15.02
226.81	53.93
227.028	82.6
227.246	96.94
227.464	66.22
227.682	172.71
227.9	113.32
228.117	64.17
228.335	86.7
228.553	43.69
228.771	60.07
228.989	84.65
229.206	76.46
229.424	35.5
229.642	-48.47
229.86	-5.46
230.077	141.99
230.295	10.92
230.513	172.71
230.731	119.46
230.948	168.62
231.166	174.76
231.384	-103.76
231.601	27.31
231.819	197.29
232.037	-36.18
232.254	-7.51
232.472	2.73
232.689	35.5
232.907	121.51
233.125	-1.37
233.342	-5.46
233.56	-60.76
233.777	90.79
233.995	41.64
234.213	82.6
234.43	117.42
234.648	90.79
234.865	2.73
235.083	45.74
235.3	53.93
235.518	94.89
235.735	90.79
235.953	98.99
236.17	49.83
236.388	74.41
236.605	90.79
236.822	111.27
237.04	105.13
237.257	12.97
237.475	-13.65
237.692	72.36
237.909	43.69
238.127	-21.85
238.344	68.27
238.562	-38.23
238.779	-11.61
238.996	-75.09
239.214	94.89
239.431	111.27
239.648	23.21
239.865	98.99
240.083	129.7
240.3	37.55
240.517	39.59
240.735	-5.46
240.952	109.22
241.169	60.07
241.386	64.17
241.603	21.16
241.821	15.02
242.038	88.75
242.255	133.8
242.472	-23.89
242.689	119.46
242.907	76.46
243.124	123.56
243.341	0.68
243.558	33.45
243.775	-77.14
243.992	-79.19
244.209	125.61
244.426	180.9
244.643	74.41
244.86	-7.51
245.078	139.94
245.295	-1.37
245.512	19.11
245.729	21.16
245.946	74.41
246.163	39.59
246.38	25.26
246.597	23.21
246.814	72.36
247.031	60.07
247.248	58.03
247.464	127.66
247.681	27.31
247.898	15.02
248.115	148.14
248.332	-15.7
248.549	98.99
248.766	86.7
248.983	29.35
249.2	150.18
249.417	55.98
249.633	19.11
249.85	90.79
250.067	76.46
250.284	10.92
250.501	94.89
250.717	60.07
250.934	-64.85
251.151	12.97
251.368	-3.41
251.585	90.79
251.801	96.94
252.018	23.21
252.235	111.27
252.451	-56.66
252.668	-23.89
252.885	41.64
253.102	72.36
253.318	43.69
253.535	-7.51
253.752	-27.99
253.968	-32.08
254.185	-52.56
254.401	127.66
254.618	37.55
254.835	-40.28
255.051	107.18
255.268	43.69
255.484	135.85
255.701	49.83
255.917	23.21
256.134	33.45
256.351	-1.37
256.567	27.31
256.784	8.87
257	-21.85
257.217	146.09
257.433	101.03
257.65	49.83
257.866	148.14
258.082	-111.96
258.299	-11.61
258.515	76.46
258.732	33.45
258.948	-46.42
259.165	31.4
259.381	-36.18
259.597	43.69
259.814	58.03
260.03	45.74
260.246	35.5
260.463	170.66
260.679	121.51
260.895	10.92
261.112	6.83
261.328	4.78
261.544	49.83
261.761	166.57
261.977	-3.41
262.193	-27.99
262.409	98.99
262.626	45.74
262.842	25.26
263.058	-50.52
263.274	125.61
263.49	94.89
263.707	103.08
263.923	41.64
264.139	-68.95
264.355	88.75
264.571	74.41
264.787	49.83
265.004	119.46
265.22	68.27
265.436	-13.65
265.652	17.07
265.868	92.84
266.084	-60.76
266.3	25.26
266.516	-85.33
266.732	43.69
266.948	-3.41
267.164	-42.32
267.38	84.65
267.596	64.17
267.812	119.46
268.028	88.75
268.244	64.17
268.46	-27.99
268.676	-27.99
268.892	98.99
269.108	45.74
269.324	-11.61
269.54	-81.24
269.756	78.51
269.972	-85.33
270.188	23.21
270.403	4.78
270.619	45.74
270.835	137.9
271.051	80.55
271.267	17.07
271.483	-36.18
271.698	125.61
271.914	43.69
272.13	37.55
272.346	-19.8
272.562	19.11
272.777	96.94
272.993	19.11
273.209	-5.46
273.425	17.07
273.64	-60.76
273.856	88.75
274.072	-60.76
274.287	0.68
274.503	58.03
274.719	90.79
274.934	35.5
275.15	-73.04
275.366	86.7
275.581	-68.95
275.797	-36.18
276.012	111.27
276.228	-34.13
276.444	37.55
276.659	94.89
276.875	15.02
277.09	-48.47
277.306	80.55
277.521	84.65
277.737	29.35
277.952	51.88
278.168	15.02
278.383	12.97
278.599	33.45
278.814	125.61
279.03	15.02
279.245	55.98
279.461	25.26
279.676	154.28
279.892	-111.96
280.107	-40.28
280.322	15.02
280.538	109.22
280.753	0.68
280.969	-46.42
281.184	55.98
281.399	55.98
281.615	-36.18
281.83	-9.56
282.045	39.59
282.26	21.16
282.476	-17.75
282.691	105.13
282.906	62.12
283.122	62.12
283.337	-46.42
283.552	107.18
283.767	-7.51
283.983	119.46
284.198	60.07
284.413	45.74
284.628	2.73
284.843	37.55
285.058	113.32
285.274	41.64
285.489	-50.52
285.704	152.23
285.919	-3.41
286.134	82.6
286.349	-13.65
286.564	-40.28
286.779	166.57
286.995	68.27
287.21	6.83
287.425	135.85
287.64	-66.9
287.855	55.98
288.07	-62.8
288.285	144.04
288.5	123.56
288.715	68.27
288.93	10.92
289.145	-5.46
289.36	35.5
289.575	-3.41
289.79	144.04
290.004	19.11
290.219	107.18
290.434	-68.95
290.649	23.21
290.864	-50.52
291.079	23.21
291.294	15.02
291.509	-68.95
291.724	68.27
291.938	45.74
292.153	78.51
292.368	66.22
292.583	17.07
292.798	31.4
293.012	12.97
293.227	47.79
293.442	58.03
293.657	94.89
293.871	84.65
294.086	29.35
294.301	199.34
294.516	82.6
294.73	10.92
294.945	-62.8
295.16	19.11
295.374	133.8
295.589	152.23
295.804	12.97
296.018	12.97
296.233	150.18
296.447	45.74
296.662	-13.65
296.877	187.05
297.091	53.93
297.306	2.73
297.52	101.03
297.735	21.16
297.949	39.59
298.164	33.45
298.378	25.26
298.593	-34.13
298.807	-7.51
299.022	10.92
299.236	158.38
299.451	-21.85
299.665	62.12
299.88	70.31
300.094	70.31
300.309	29.35
300.523	25.26
300.737	84.65
300.952	31.4
301.166	41.64
301.381	58.03
301.595	-56.66
301.809	33.45
302.024	0.68
302.238	-107.86
302.452	96.94
302.667	74.41
302.881	90.79
303.095	37.55
303.309	19.11
303.524	-44.37
303.738	53.93
303.952	8.87
304.166	98.99
304.381	-79.19
304.595	127.66
304.809	-83.28
305.023	64.17
305.237	15.02
305.452	64.17
305.666	60.07
305.88	86.7
306.094	133.8
306.308	29.35
306.522	90.79
306.736	68.27
306.95	105.13
307.164	-15.7
307.379	55.98
307.593	27.31
307.807	90.79
308.021	62.12
308.235	82.6
308.449	-95.57
308.663	19.11
308.877	211.62
309.091	58.03
309.305	70.31
309.519	-103.76
309.733	17.07
309.947	27.31
310.161	60.07
310.374	111.27
310.588	141.99
310.802	-23.89
311.016	-68.95
311.23	37.55
311.444	-62.8
311.658	39.59
311.872	170.66
312.085	105.13
312.299	55.98
312.513	92.84
312.727	41.64
312.941	-42.32
313.154	37.55
313.368	8.87
313.582	31.4
313.796	78.51
314.009	51.88
314.223	156.33
314.437	84.65
314.651	-7.51
314.864	58.03
315.078	41.64
315.292	-48.47
315.505	-30.04
315.719	76.46
315.933	55.98
316.146	10.92
316.36	-64.85
316.573	131.75
316.787	72.36
317.001	19.11
317.214	-111.96
317.428	109.22
317.641	4.78
317.855	-5.46
318.068	82.6
318.282	-9.56
318.495	125.61
318.709	86.7
318.922	8.87
319.136	162.47
319.349	119.46
319.563	8.87
319.776	111.27
319.99	-167.25
320.203	131.75
320.417	98.99
320.63	109.22
320.843	168.62
321.057	4.78
321.27	86.7
321.483	49.83
321.697	150.18
321.91	109.22
322.124	105.13
322.337	78.51
322.55	-13.65
322.763	51.88
322.977	10.92
323.19	53.93
323.403	-36.18
323.617	62.12
323.83	82.6
324.043	6.83
324.256	33.45
324.469	-64.85
324.683	109.22
324.896	94.89
325.109	33.45
325.322	-71
325.535	58.03
325.748	41.64
325.962	29.35
326.175	64.17
326.388	94.89
326.601	152.23
326.814	-17.75
327.027	8.87
327.24	135.85
327.453	-87.38
327.666	55.98
327.879	154.28
328.092	19.11
328.305	96.94
328.518	-42.32
328.731	-5.46
328.944	55.98
329.157	66.22
329.37	12.97
329.583	170.66
329.796	141.99
330.009	0.68
330.222	23.21
330.435	66.22
330.648	68.27
330.861	64.17
331.073	76.46
331.286	129.7
331.499	27.31
331.712	21.16
331.925	62.12
332.138	12.97
332.35	113.32
332.563	-54.61
332.776	176.81
332.989	17.07
333.202	-3.41
333.414	39.59
333.627	41.64
333.84	45.74
334.053	29.35
334.265	-3.41
334.478	0.68
334.691	86.7
334.903	-1.37
335.116	-34.13
335.329	-5.46
335.541	88.75
335.754	119.46
335.966	-3.41
336.179	12.97
336.392	103.08
336.604	-15.7
336.817	148.14
337.029	62.12
337.242	82.6
337.454	101.03
337.667	43.69
337.88	193.19
338.092	19.11
338.305	137.9
338.517	25.26
338.729	41.64
338.942	203.43
339.154	-27.99
339.367	-60.76
339.579	88.75
339.792	-27.99
340.004	135.85
340.217	-54.61
340.429	39.59
340.641	6.83
340.854	-52.56
341.066	-21.85
341.278	86.7
341.491	144.04
341.703	37.55
341.915	-60.76
342.128	51.88
342.34	41.64
342.552	-87.38
342.764	64.17
342.977	-11.61
343.189	6.83
343.401	-7.51
343.613	-56.66
343.826	37.55
344.038	-7.51
344.25	-1.37
344.462	29.35
344.674	29.35
344.886	10.92
345.099	66.22
345.311	90.79
345.523	-23.89
345.735	-48.47
345.947	58.03
346.159	55.98
346.371	70.31
346.583	15.02
346.795	135.85
347.007	17.07
347.219	8.87
347.431	19.11
347.643	146.09
347.855	6.83
348.067	160.42
348.279	-50.52
348.491	23.21
348.703	58.03
348.915	23.21
349.127	62.12
349.339	62.12
349.551	-32.08
349.763	17.07
349.975	-9.56
350.187	64.17
350.399	119.46
350.61	62.12
350.822	23.21
351.034	27.31
351.246	25.26
351.458	51.88
351.669	86.7
351.881	12.97
352.093	21.16
352.305	129.7
352.517	82.6
352.728	98.99
352.94	6.83
353.152	113.32
353.363	-48.47
353.575	146.09
353.787	162.47
353.999	43.69
354.21	199.34
354.422	12.97
354.633	17.07
354.845	-15.7
355.057	33.45
355.268	-11.61
355.48	117.42
355.692	-75.09
355.903	45.74
356.115	-46.42
356.326	-68.95
356.538	119.46
356.749	45.74
356.961	182.95
357.172	78.51
357.384	-89.43
357.595	211.62
357.807	23.21
358.018	0.68
358.23	76.46
358.441	152.23
358.653	139.94
358.864	107.18
359.075	-34.13
359.287	41.64
359.498	84.65
359.709	53.93
359.921	27.31
360.132	144.04
360.344	23.21
360.555	0.68
360.766	111.27
360.977	27.31
361.189	101.03
361.4	51.88
361.611	90.79
361.823	164.52
362.034	49.83
362.245	-23.89
362.456	80.55
362.667	127.66
362.879	-81.24
363.09	31.4
363.301	49.83
363.512	70.31
363.723	15.02
363.935	-7.51
364.146	86.7
364.357	45.74
364.568	51.88
364.779	-34.13
364.99	98.99
365.201	-52.56
365.412	76.46
365.623	-103.76
365.834	80.55
366.045	135.85
366.256	148.14
366.467	98.99
366.678	-91.48
366.889	29.35
367.1	58.03
367.311	37.55
367.522	45.74
367.733	68.27
367.944	84.65
368.155	8.87
368.366	127.66
368.577	33.45
368.788	35.5
368.999	21.16
369.209	53.93
369.42	258.73
369.631	182.95
369.842	82.6
370.053	37.55
370.264	29.35
370.474	-9.56
370.685	68.27
370.896	58.03
371.107	127.66
371.317	62.12
371.528	17.07
371.739	127.66
371.95	68.27
372.16	37.55
372.371	-42.32
372.582	19.11
372.792	45.74
373.003	60.07
373.214	39.59
373.424	107.18
373.635	-54.61
373.846	158.38
374.056	-9.56
374.267	62.12
374.477	98.99
374.688	66.22
374.898	115.37
375.109	-36.18
375.319	-42.32
375.53	43.69
375.74	58.03
375.951	90.79
376.161	103.08
376.372	129.7
376.582	25.26
376.793	152.23
377.003	-17.75
377.214	-60.76
377.424	70.31
377.635	-17.75
377.845	64.17
378.055	125.61
378.266	-42.32
378.476	62.12
378.686	76.46
378.897	35.5
379.107	86.7
379.317	101.03
379.528	-56.66
379.738	29.35
379.948	-95.57
380.158	101.03
380.369	80.55
380.579	78.51
380.789	60.07
380.999	137.9
381.21	47.79
381.42	152.23
381.63	55.98
381.84	137.9
382.05	47.79
382.261	148.14
382.471	86.7
382.681	12.97
382.891	125.61
383.101	109.22
383.311	-52.56
383.521	-46.42
383.731	101.03
383.941	58.03
384.151	8.87
384.361	-30.04
384.571	-11.61
384.781	123.56
384.991	189.1
385.201	185
385.411	45.74
385.621	101.03
385.831	21.16
386.041	4.78
386.251	101.03
386.461	92.84
386.671	12.97
386.881	62.12
387.091	41.64
387.301	119.46
387.511	105.13
387.72	88.75
387.93	160.42
388.14	-32.08
388.35	72.36
388.56	123.56
388.769	123.56
388.979	80.55
389.189	8.87
389.399	84.65
389.609	66.22
389.818	39.59
390.028	68.27
390.238	141.99
390.447	4.78
390.657	29.35
390.867	-1.37
391.076	-105.81
391.286	51.88
391.496	37.55
391.705	10.92
391.915	127.66
392.125	55.98
392.334	17.07
392.544	174.76
392.753	-1.37
392.963	-34.13
393.172	31.4
393.382	23.21
393.591	168.62
393.801	12.97
394.01	141.99
394.22	6.83
394.429	-38.23
394.639	80.55
394.848	53.93
395.058	109.22
395.267	10.92
395.477	146.09
395.686	-1.37
395.895	103.08
396.105	84.65
396.314	127.66
396.524	47.79
396.733	-1.37
396.942	137.9
397.152	17.07
397.361	74.41
397.57	60.07
397.78	58.03
397.989	58.03
398.198	164.52
398.407	96.94
398.617	-27.99
398.826	0.68
399.035	72.36
399.244	-9.56
399.453	33.45
399.663	15.02
399.872	25.26
400.081	-9.56
400.29	127.66
400.499	8.87
400.708	82.6
400.917	47.79
401.127	43.69
401.336	-30.04
401.545	148.14
401.754	78.51
401.963	121.51
402.172	2.73
402.381	-44.37
402.59	12.97
402.799	41.64
403.008	111.27
403.217	70.31
403.426	133.8
403.635	-25.94
403.844	84.65
404.053	37.55
404.262	-56.66
404.471	199.34
404.68	58.03
404.888	-23.89
405.097	-3.41
405.306	68.27
405.515	94.89
405.724	92.84
405.933	121.51
406.142	51.88
406.35	144.04
406.559	-52.56
406.768	51.88
406.977	146.09
407.185	96.94
407.394	88.75
407.603	15.02
407.812	19.11
408.02	207.53
408.229	19.11
408.438	47.79
408.646	-46.42
408.855	53.93
409.064	47.79
409.272	-17.75
409.481	121.51
409.69	-1.37
409.898	-11.61
410.107	41.64
410.315	49.83
410.524	-3.41
410.733	88.75
410.941	21.16
411.15	19.11
411.358	178.86
411.567	98.99
411.775	-1.37
411.984	-19.8
412.192	121.51
412.401	-13.65
412.609	185
412.818	123.56
413.026	-1.37
413.234	19.11
413.443	113.32
413.651	-46.42
413.86	-23.89
414.068	55.98
414.276	160.42
414.485	8.87
414.693	146.09
414.901	273.06
415.11	117.42
415.318	-5.46
415.526	-5.46
415.734	62.12
415.943	0.68
416.151	185
416.359	107.18
416.567	119.46
416.776	144.04
416.984	80.55
417.192	189.1
417.4	53.93
417.608	-44.37
417.817	29.35
418.025	84.65
418.233	203.43
418.441	-64.85
418.649	-15.7
418.857	66.22
419.065	150.18
419.273	-60.76
419.481	96.94
419.689	84.65
419.897	49.83
420.105	-19.8
420.313	92.84
420.521	139.94
420.729	92.84
420.937	29.35
421.145	-50.52
421.353	62.12
421.561	160.42
421.769	31.4
421.977	-15.7
422.185	49.83
422.393	12.97
422.601	88.75
422.809	39.59
423.017	21.16
423.224	49.83
423.432	133.8
423.64	-21.85
423.848	115.37
424.056	55.98
424.263	66.22
424.471	15.02
424.679	121.51
424.887	29.35
425.094	133.8
425.302	90.79
425.51	64.17
425.718	119.46
425.925	25.26
426.133	-5.46
426.341	127.66
426.548	27.31
426.756	37.55
426.964	80.55
427.171	31.4
427.379	62.12
427.586	62.12
427.794	144.04
428.001	174.76
428.209	74.41
428.417	156.33
428.624	125.61
428.832	90.79
429.039	64.17
429.247	133.8
429.454	113.32
429.662	185
429.869	127.66
430.076	25.26
430.284	146.09
430.491	131.75
430.699	168.62
430.906	125.61
431.114	111.27
431.321	33.45
431.528	141.99
431.736	166.57
431.943	141.99
432.15	137.9
432.358	180.9
432.565	217.77
432.772	21.16
432.979	168.62
433.187	182.95
433.394	178.86
433.601	84.65
433.808	123.56
434.016	215.72
434.223	223.91
434.43	166.57
434.637	205.48
434.844	150.18
435.052	187.05
435.259	236.2
435.466	225.96
435.673	199.34
435.88	283.3
436.087	254.63
436.294	266.92
436.501	314.02
436.708	148.14
436.915	252.58
437.122	256.68
437.329	156.33
437.537	199.34
437.743	309.93
437.95	441
438.157	309.93
438.364	299.69
438.571	326.31
438.778	279.21
438.985	414.37
439.192	447.14
439.399	367.27
439.606	385.7
439.813	373.41
440.02	494.24
440.227	453.28
440.433	481.96
440.64	432.8
440.847	357.03
441.054	479.91
441.261	678.56
441.467	473.76
441.674	465.57
441.881	535.2
442.088	469.67
442.294	551.59
442.501	635.55
442.708	651.94
442.914	580.26
443.121	664.22
443.328	680.61
443.534	772.77
443.741	694.94
443.948	615.07
444.154	780.96
444.361	1010.33
444.568	895.64
444.774	813.73
444.981	787.1
445.187	1008.28
445.394	873.12
445.6	950.94
445.807	1018.52
446.013	1098.39
446.22	930.46
446.426	1073.82
446.633	1180.31
446.839	1262.23
447.046	1139.35
447.252	1321.62
447.459	1272.47
447.665	1313.43
447.871	1430.16
448.078	1518.23
448.284	1534.61
448.491	1594
448.697	1655.44
448.903	1794.7
449.11	1725.07
449.316	1802.9
449.522	1985.16
449.728	2001.55
449.935	1958.54
450.141	2040.46
450.347	2101.9
450.553	2142.86
450.76	2118.28
450.966	2316.94
451.172	2452.1
451.378	2450.05
451.584	2394.76
451.791	2845.31
451.997	2962.05
452.203	2814.59
452.409	3076.73
452.615	3123.84
452.821	2892.41
453.027	3166.84
453.233	3547.76
453.44	3318.39
453.646	3525.24
453.852	3664.5
454.058	3842.67
454.264	3861.1
454.47	4233.83
454.676	4065.9
454.882	4524.65
455.088	4377.19
455.294	4684.39
455.5	5016.16
455.705	5364.31
455.911	5136.99
456.117	5255.77
456.323	5538.39
456.529	5560.92
456.735	6126.16
456.941	6343.24
457.147	6490.7
457.352	6691.4
457.558	6863.43
457.764	7422.52
457.97	7488.06
458.176	7688.76
458.381	8000.05
458.587	8417.83
458.793	8583.72
458.999	8509.99
459.204	9589.27
459.41	9865.75
459.616	9974.29
459.821	10646.02
460.027	10775.05
460.233	11508.22
460.438	11469.31
460.644	12032.5
460.85	12372.46
461.055	12974.56
461.261	13445.6
461.466	12978.66
461.672	13328.86
461.878	15118.79
462.083	14553.55
462.289	15020.49
462.494	15827.39
462.7	15733.18
462.905	15856.06
463.111	17224.1
463.316	18145.69
463.522	18170.26
463.727	18911.63
463.932	19579.26
464.138	20619.63
464.343	21174.63
464.549	21211.49
464.754	23017.8
464.959	23511.36
465.165	23468.36
465.37	23746.88
465.575	23736.64
465.781	25207.08
465.986	25887.01
466.191	25936.16
466.397	25817.38
466.602	25295.14
466.807	26728.72
467.012	27113.74
467.218	27740.42
467.423	27783.43
467.628	28387.58
467.833	29954.27
468.038	29391.08
468.244	28614.9
468.449	30415.07
468.654	29530.34
468.859	29769.96
469.064	29716.71
