Data from USB4F104151__72__09-29-46-293.txt Node

Date: Wed Feb 26 09:29:46 EST 2025
User: louis
Spectrometer: USB4F10415
Trigger mode: 4
Integration Time (sec): 1.000000E-1
Scans to average: 1
Electric dark correction enabled: true
Nonlinearity correction enabled: false
Boxcar width: 0
XAxis mode: Wavelengths
Number of Pixels in Spectrum: 3648
>>>>>Begin Spectral Data<<<<<
178.204	-329.38
178.424	-329.38
178.644	-329.38
178.864	-343.72
179.084	-333.48
179.304	-22.19
179.524	-11.95
179.744	49.49
179.964	35.16
180.184	-18.09
180.404	37.2
180.624	-16.04
180.844	-79.53
181.064	-18.09
181.283	16.73
181.503	-20.14
181.723	47.44
181.943	-20.14
182.163	158.03
182.383	-28.33
182.602	76.12
182.822	135.51
183.042	67.92
183.262	24.92
183.482	59.73
183.701	100.69
183.921	-18.09
184.141	-73.39
184.361	72.02
184.58	-20.14
184.8	147.8
185.02	0.34
185.239	88.4
185.459	115.03
185.679	127.32
185.898	-26.28
186.118	53.59
186.338	43.35
186.557	63.83
186.777	-65.19
186.997	-5.8
187.216	35.16
187.436	221.52
187.655	139.6
187.875	69.97
188.095	-24.23
188.314	106.84
188.534	164.18
188.753	-93.87
188.973	108.88
189.192	135.51
189.412	35.16
189.631	86.36
189.851	72.02
190.07	162.13
190.29	-63.15
190.509	39.25
190.729	41.3
190.948	115.03
191.168	291.15
191.387	74.07
191.607	20.82
191.826	10.58
192.045	98.64
192.265	78.16
192.484	100.69
192.704	2.39
192.923	-24.23
193.142	180.56
193.362	10.58
193.581	186.71
193.8	102.74
194.02	106.84
194.239	39.25
194.458	92.5
194.678	0.34
194.897	-13.99
195.116	123.22
195.335	67.92
195.555	90.45
195.774	-11.95
195.993	151.89
196.212	8.53
196.432	-3.75
196.651	-24.23
196.87	35.16
197.089	168.27
197.308	45.4
197.528	53.59
197.747	-44.71
197.966	74.07
198.185	104.79
198.404	-11.95
198.623	117.08
198.842	84.31
199.062	115.03
199.281	90.45
199.5	-26.28
199.719	67.92
199.938	29.01
200.157	98.64
200.376	65.88
200.595	98.64
200.814	49.49
201.033	78.16
201.252	166.23
201.471	8.53
201.69	63.83
201.909	-13.99
202.128	63.83
202.347	-16.04
202.566	49.49
202.785	-59.05
203.004	10.58
203.223	174.42
203.442	78.16
203.661	-36.52
203.879	59.73
204.098	43.35
204.317	12.63
204.536	94.55
204.755	39.25
204.974	125.27
205.193	-5.8
205.411	143.7
205.63	69.97
205.849	29.01
206.068	127.32
206.287	47.44
206.505	139.6
206.724	8.53
206.943	-11.95
207.162	-11.95
207.381	129.36
207.599	26.96
207.818	31.06
208.037	0.34
208.255	-13.99
208.474	84.31
208.693	88.4
208.911	8.53
209.13	76.12
209.349	100.69
209.567	31.06
209.786	74.07
210.005	141.65
210.223	51.54
210.442	-81.58
210.661	63.83
210.879	20.82
211.098	41.3
211.316	74.07
211.535	110.93
211.753	63.83
211.972	119.12
212.191	-20.14
212.409	35.16
212.628	74.07
212.846	24.92
213.065	31.06
213.283	250.19
213.502	14.68
213.72	100.69
213.938	29.01
214.157	18.77
214.375	143.7
214.594	123.22
214.812	133.46
215.031	35.16
215.249	88.4
215.467	96.6
215.686	53.59
215.904	88.4
216.122	12.63
216.341	160.08
216.559	108.88
216.778	112.98
216.996	133.46
217.214	43.35
217.432	-69.29
217.651	-28.33
217.869	31.06
218.087	92.5
218.306	-9.9
218.524	55.64
218.742	8.53
218.96	110.93
219.179	10.58
219.397	80.21
219.615	225.62
219.833	117.08
220.051	-13.99
220.27	90.45
220.488	59.73
220.706	84.31
220.924	4.44
221.142	92.5
221.36	57.68
221.578	45.4
221.796	18.77
222.015	12.63
222.233	125.27
222.451	65.88
222.669	45.4
222.887	63.83
223.105	37.2
223.323	24.92
223.541	24.92
223.759	16.73
223.977	12.63
224.195	143.7
224.413	98.64
224.631	65.88
224.849	53.59
225.067	139.6
225.285	26.96
225.503	98.64
225.721	-69.29
225.939	-38.57
226.157	80.21
226.375	153.94
226.592	-30.38
226.81	37.2
227.028	117.08
227.246	168.27
227.464	41.3
227.682	65.88
227.9	78.16
228.117	41.3
228.335	63.83
228.553	39.25
228.771	61.78
228.989	96.6
229.206	20.82
229.424	41.3
229.642	84.31
229.86	41.3
230.077	151.89
230.295	33.11
230.513	129.36
230.731	160.08
230.948	207.19
231.166	127.32
231.384	-20.14
231.601	12.63
231.819	168.27
232.037	6.49
232.254	-11.95
232.472	4.44
232.689	-26.28
232.907	92.5
233.125	39.25
233.342	-13.99
233.56	-9.9
233.777	63.83
233.995	33.11
234.213	129.36
234.43	110.93
234.648	49.49
234.865	35.16
235.083	78.16
235.3	78.16
235.518	86.36
235.735	127.32
235.953	96.6
236.17	104.79
236.388	49.49
236.605	12.63
236.822	98.64
237.04	78.16
237.257	74.07
237.475	16.73
237.692	10.58
237.909	92.5
238.127	125.27
238.344	172.37
238.562	45.4
238.779	-22.19
238.996	26.96
239.214	43.35
239.431	63.83
239.648	18.77
239.865	98.64
240.083	72.02
240.3	37.2
240.517	45.4
240.735	69.97
240.952	78.16
241.169	72.02
241.386	61.78
241.603	-9.9
241.821	8.53
242.038	67.92
242.255	76.12
242.472	-97.96
242.689	108.88
242.907	88.4
243.124	88.4
243.341	14.68
243.558	20.82
243.775	12.63
243.992	-22.19
244.209	57.68
244.426	233.81
244.643	104.79
244.86	-20.14
245.078	112.98
245.295	69.97
245.512	8.53
245.729	10.58
245.946	67.92
246.163	72.02
246.38	67.92
246.597	69.97
246.814	49.49
247.031	158.03
247.248	6.49
247.464	98.64
247.681	-20.14
247.898	155.99
248.115	47.44
248.332	-46.76
248.549	133.46
248.766	205.14
248.983	94.55
249.2	90.45
249.417	90.45
249.633	49.49
249.85	90.45
250.067	39.25
250.284	106.84
250.501	98.64
250.717	121.17
250.934	88.4
251.151	18.77
251.368	-28.33
251.585	100.69
251.801	4.44
252.018	-9.9
252.235	72.02
252.451	-54.95
252.668	117.08
252.885	194.9
253.102	33.11
253.318	24.92
253.535	45.4
253.752	57.68
253.968	6.49
254.185	-75.43
254.401	61.78
254.618	104.79
254.835	12.63
255.051	141.65
255.268	0.34
255.484	43.35
255.701	86.36
255.917	72.02
256.134	-40.62
256.351	45.4
256.567	-9.9
256.784	33.11
257	-44.71
257.217	33.11
257.433	92.5
257.65	149.84
257.866	145.75
258.082	-32.43
258.299	-38.57
258.515	90.45
258.732	76.12
258.948	-3.75
259.165	14.68
259.381	-46.76
259.597	129.36
259.814	0.34
260.03	-20.14
260.246	88.4
260.463	104.79
260.679	78.16
260.895	-18.09
261.112	33.11
261.328	90.45
261.544	31.06
261.761	162.13
261.977	16.73
262.193	2.39
262.409	125.27
262.626	45.4
262.842	67.92
263.058	-65.19
263.274	53.59
263.49	59.73
263.707	182.61
263.923	35.16
264.139	-11.95
264.355	29.01
264.571	121.17
264.787	35.16
265.004	127.32
265.22	-36.52
265.436	-24.23
265.652	-1.71
265.868	78.16
266.084	-36.52
266.3	-7.85
266.516	24.92
266.732	76.12
266.948	14.68
267.164	6.49
267.38	119.12
267.596	84.31
267.812	209.23
268.028	39.25
268.244	-28.33
268.46	55.64
268.676	-42.67
268.892	76.12
269.108	10.58
269.324	-32.43
269.54	-75.43
269.756	129.36
269.972	-61.1
270.188	57.68
270.403	-13.99
270.619	39.25
270.835	147.8
271.051	76.12
271.267	-67.24
271.483	18.77
271.698	80.21
271.914	61.78
272.13	69.97
272.346	-65.19
272.562	94.55
272.777	84.31
272.993	49.49
273.209	14.68
273.425	20.82
273.64	-3.75
273.856	47.44
274.072	-9.9
274.287	-1.71
274.503	41.3
274.719	108.88
274.934	37.2
275.15	-77.48
275.366	24.92
275.581	29.01
275.797	76.12
276.012	86.36
276.228	37.2
276.444	115.03
276.659	16.73
276.875	31.06
277.09	41.3
277.306	-32.43
277.521	43.35
277.737	69.97
277.952	74.07
278.168	67.92
278.383	-11.95
278.599	33.11
278.814	-7.85
279.03	37.2
279.245	174.42
279.461	10.58
279.676	110.93
279.892	-18.09
280.107	-11.95
280.322	18.77
280.538	80.21
280.753	-52.91
280.969	84.31
281.184	24.92
281.399	160.08
281.615	4.44
281.83	110.93
282.045	-30.38
282.26	-46.76
282.476	47.44
282.691	80.21
282.906	18.77
283.122	53.59
283.337	20.82
283.552	86.36
283.767	45.4
283.983	102.74
284.198	45.4
284.413	69.97
284.628	-34.47
284.843	76.12
285.058	47.44
285.274	24.92
285.489	43.35
285.704	137.56
285.919	41.3
286.134	29.01
286.349	49.49
286.564	-28.33
286.779	115.03
286.995	51.54
287.21	26.96
287.425	2.39
287.64	108.88
287.855	117.08
288.07	-54.95
288.285	94.55
288.5	100.69
288.715	112.98
288.93	-32.43
289.145	78.16
289.36	104.79
289.575	6.49
289.79	170.32
290.004	29.01
290.219	131.41
290.434	-36.52
290.649	14.68
290.864	41.3
291.079	37.2
291.294	84.31
291.509	-11.95
291.724	74.07
291.938	39.25
292.153	63.83
292.368	100.69
292.583	39.25
292.798	41.3
293.012	153.94
293.227	84.31
293.442	-28.33
293.657	43.35
293.871	88.4
294.086	145.75
294.301	170.32
294.516	74.07
294.73	67.92
294.945	24.92
295.16	-34.47
295.374	106.84
295.589	47.44
295.804	-26.28
296.018	61.78
296.233	188.75
296.447	86.36
296.662	65.88
296.877	49.49
297.091	123.22
297.306	78.16
297.52	-30.38
297.735	49.49
297.949	16.73
298.164	65.88
298.378	-3.75
298.593	-28.33
298.807	33.11
299.022	67.92
299.236	131.41
299.451	49.49
299.665	82.26
299.88	-20.14
300.094	12.63
300.309	35.16
300.523	47.44
300.737	74.07
300.952	110.93
301.166	51.54
301.381	-67.24
301.595	-16.04
301.809	102.74
302.024	-36.52
302.238	-20.14
302.452	53.59
302.667	110.93
302.881	149.84
303.095	102.74
303.309	45.4
303.524	-5.8
303.738	53.59
303.952	-22.19
304.166	-24.23
304.381	-65.19
304.595	147.8
304.809	24.92
305.023	112.98
305.237	80.21
305.452	74.07
305.666	115.03
305.88	127.32
306.094	80.21
306.308	98.64
306.522	168.27
306.736	41.3
306.95	102.74
307.164	39.25
307.379	-36.52
307.593	178.51
307.807	100.69
308.021	125.27
308.235	72.02
308.449	-46.76
308.663	37.2
308.877	207.19
309.091	-32.43
309.305	100.69
309.519	-44.71
309.733	115.03
309.947	-1.71
310.161	84.31
310.374	51.54
310.588	153.94
310.802	-9.9
311.016	4.44
311.23	74.07
311.444	0.34
311.658	16.73
311.872	4.44
312.085	119.12
312.299	18.77
312.513	160.08
312.727	92.5
312.941	-30.38
313.154	61.78
313.368	0.34
313.582	55.64
313.796	82.26
314.009	26.96
314.223	92.5
314.437	78.16
314.651	65.88
314.864	-93.87
315.078	-40.62
315.292	-28.33
315.505	31.06
315.719	106.84
315.933	123.22
316.146	6.49
316.36	-5.8
316.573	90.45
316.787	45.4
317.001	53.59
317.214	-28.33
317.428	92.5
317.641	-36.52
317.855	20.82
318.068	24.92
318.282	22.87
318.495	209.23
318.709	67.92
318.922	47.44
319.136	39.25
319.349	59.73
319.563	-28.33
319.776	63.83
319.99	-110.25
320.203	135.51
320.417	45.4
320.63	57.68
320.843	141.65
321.057	49.49
321.27	16.73
321.483	53.59
321.697	98.64
321.91	29.01
322.124	55.64
322.337	76.12
322.55	20.82
322.763	74.07
322.977	24.92
323.19	-1.71
323.403	24.92
323.617	127.32
323.83	133.46
324.043	43.35
324.256	12.63
324.469	-11.95
324.683	61.78
324.896	57.68
325.109	-44.71
325.322	-126.63
325.535	117.08
325.748	37.2
325.962	-73.39
326.175	88.4
326.388	4.44
326.601	88.4
326.814	45.4
327.027	102.74
327.24	125.27
327.453	-83.63
327.666	55.64
327.879	115.03
328.092	94.55
328.305	88.4
328.518	6.49
328.731	26.96
328.944	-42.67
329.157	69.97
329.37	-59.05
329.583	74.07
329.796	143.7
330.009	-5.8
330.222	84.31
330.435	108.88
330.648	-20.14
330.861	94.55
331.073	74.07
331.286	127.32
331.499	18.77
331.712	35.16
331.925	53.59
332.138	26.96
332.35	137.56
332.563	-50.86
332.776	112.98
332.989	-44.71
333.202	59.73
333.414	51.54
333.627	110.93
333.84	41.3
334.053	133.46
334.265	-48.81
334.478	4.44
334.691	117.08
334.903	57.68
335.116	6.49
335.329	49.49
335.541	35.16
335.754	102.74
335.966	2.39
336.179	45.4
336.392	106.84
336.604	76.12
336.817	63.83
337.029	123.22
337.242	-20.14
337.454	86.36
337.667	20.82
337.88	201.04
338.092	12.63
338.305	41.3
338.517	8.53
338.729	37.2
338.942	164.18
339.154	-89.77
339.367	-30.38
339.579	63.83
339.792	37.2
340.004	90.45
340.217	-18.09
340.429	47.44
340.641	0.34
340.854	10.58
341.066	24.92
341.278	94.55
341.491	178.51
341.703	33.11
341.915	-7.85
342.128	41.3
342.34	61.78
342.552	-38.57
342.764	43.35
342.977	51.54
343.189	102.74
343.401	-20.14
343.613	-79.53
343.826	12.63
344.038	-97.96
344.25	35.16
344.462	29.01
344.674	139.6
344.886	20.82
345.099	53.59
345.311	94.55
345.523	2.39
345.735	-38.57
345.947	82.26
346.159	110.93
346.371	45.4
346.583	80.21
346.795	141.65
347.007	29.01
347.219	41.3
347.431	12.63
347.643	76.12
347.855	-3.75
348.067	117.08
348.279	-44.71
348.491	26.96
348.703	180.56
348.915	-1.71
349.127	29.01
349.339	12.63
349.551	-22.19
349.763	10.58
349.975	20.82
350.187	86.36
350.399	110.93
350.61	39.25
350.822	35.16
351.034	-24.23
351.246	-11.95
351.458	-26.28
351.669	94.55
351.881	100.69
352.093	155.99
352.305	51.54
352.517	18.77
352.728	145.75
352.94	-3.75
353.152	67.92
353.363	-13.99
353.575	41.3
353.787	149.84
353.999	8.53
354.21	141.65
354.422	-20.14
354.633	45.4
354.845	59.73
355.057	29.01
355.268	43.35
355.48	131.41
355.692	8.53
355.903	31.06
356.115	8.53
356.326	-138.92
356.538	160.08
356.749	63.83
356.961	133.46
357.172	14.68
357.384	-54.95
357.595	262.48
357.807	-3.75
358.018	18.77
358.23	90.45
358.441	151.89
358.653	6.49
358.864	16.73
359.075	-11.95
359.287	102.74
359.498	35.16
359.709	57.68
359.921	78.16
360.132	37.2
360.344	-9.9
360.555	31.06
360.766	76.12
360.977	39.25
361.189	90.45
361.4	-3.75
361.611	125.27
361.823	102.74
362.034	45.4
362.245	-44.71
362.456	8.53
362.667	78.16
362.879	45.4
363.09	65.88
363.301	106.84
363.512	24.92
363.723	29.01
363.935	20.82
364.146	117.08
364.357	29.01
364.568	-16.04
364.779	18.77
364.99	127.32
365.201	-81.58
365.412	149.84
365.623	-46.76
365.834	61.78
366.045	51.54
366.256	112.98
366.467	63.83
366.678	16.73
366.889	35.16
367.1	123.22
367.311	67.92
367.522	63.83
367.733	86.36
367.944	100.69
368.155	26.96
368.366	100.69
368.577	63.83
368.788	88.4
368.999	12.63
369.209	2.39
369.42	129.36
369.631	180.56
369.842	45.4
370.053	18.77
370.264	164.18
370.474	-65.19
370.685	33.11
370.896	6.49
371.107	117.08
371.317	12.63
371.528	-3.75
371.739	143.7
371.95	98.64
372.16	82.26
372.371	-18.09
372.582	49.49
372.792	-1.71
373.003	0.34
373.214	16.73
373.424	151.89
373.635	-5.8
373.846	94.55
374.056	-22.19
374.267	-24.23
374.477	74.07
374.688	10.58
374.898	22.87
375.109	6.49
375.319	53.59
375.53	135.51
375.74	43.35
375.951	53.59
376.161	20.82
376.372	106.84
376.582	-16.04
376.793	78.16
377.003	-48.81
377.214	18.77
377.424	39.25
377.635	76.12
377.845	47.44
378.055	104.79
378.266	-34.47
378.476	8.53
378.686	-9.9
378.897	8.53
379.107	92.5
379.317	92.5
379.528	43.35
379.738	59.73
379.948	-22.19
380.158	129.36
380.369	53.59
380.579	20.82
380.789	67.92
380.999	145.75
381.21	117.08
381.42	43.35
381.63	-5.8
381.84	8.53
382.05	78.16
382.261	86.36
382.471	88.4
382.681	-52.91
382.891	127.32
383.101	84.31
383.311	-16.04
383.521	-7.85
383.731	14.68
383.941	151.89
384.151	-20.14
384.361	-32.43
384.571	67.92
384.781	49.49
384.991	172.37
385.201	198.99
385.411	92.5
385.621	82.26
385.831	4.44
386.041	-13.99
386.251	-22.19
386.461	-11.95
386.671	-24.23
386.881	37.2
387.091	-36.52
387.301	110.93
387.511	53.59
387.72	80.21
387.93	57.68
388.14	-30.38
388.35	-32.43
388.56	139.6
388.769	84.31
388.979	20.82
389.189	-54.95
389.399	-44.71
389.609	69.97
389.818	168.27
390.028	12.63
390.238	20.82
390.447	-77.48
390.657	76.12
390.867	12.63
391.076	-7.85
391.286	37.2
391.496	8.53
391.705	-73.39
391.915	151.89
392.125	78.16
392.334	10.58
392.544	65.88
392.753	39.25
392.963	-28.33
393.172	8.53
393.382	53.59
393.591	123.22
393.801	92.5
394.01	160.08
394.22	84.31
394.429	10.58
394.639	43.35
394.848	72.02
395.058	49.49
395.267	-28.33
395.477	112.98
395.686	88.4
395.895	147.8
396.105	194.9
396.314	16.73
396.524	84.31
396.733	0.34
396.942	100.69
397.152	123.22
397.361	117.08
397.57	18.77
397.78	51.54
397.989	74.07
398.198	160.08
398.407	49.49
398.617	-11.95
398.826	43.35
399.035	86.36
399.244	184.66
399.453	59.73
399.663	69.97
399.872	117.08
400.081	47.44
400.29	112.98
400.499	-28.33
400.708	135.51
400.917	-42.67
401.127	37.2
401.336	29.01
401.545	205.14
401.754	67.92
401.963	149.84
402.172	37.2
402.381	35.16
402.59	72.02
402.799	20.82
403.008	149.84
403.217	67.92
403.426	59.73
403.635	-63.15
403.844	-7.85
404.053	72.02
404.262	74.07
404.471	110.93
404.68	119.12
404.888	-20.14
405.097	88.4
405.306	26.96
405.515	94.55
405.724	29.01
405.933	94.55
406.142	8.53
406.35	92.5
406.559	53.59
406.768	16.73
406.977	98.64
407.185	72.02
407.394	100.69
407.603	-16.04
407.812	37.2
408.02	16.73
408.229	47.44
408.438	8.53
408.646	-48.81
408.855	6.49
409.064	63.83
409.272	20.82
409.481	45.4
409.69	2.39
409.898	-5.8
410.107	69.97
410.315	59.73
410.524	20.82
410.733	4.44
410.941	6.49
411.15	26.96
411.358	49.49
411.567	135.51
411.775	-34.47
411.984	65.88
412.192	76.12
412.401	20.82
412.609	98.64
412.818	98.64
413.026	37.2
413.234	33.11
413.443	-1.71
413.651	-40.62
413.86	84.31
414.068	98.64
414.276	78.16
414.485	-11.95
414.693	139.6
414.901	65.88
415.11	102.74
415.318	63.83
415.526	-20.14
415.734	45.4
415.943	90.45
416.151	147.8
416.359	-3.75
416.567	63.83
416.776	24.92
416.984	61.78
417.192	127.32
417.4	-13.99
417.608	67.92
417.817	-52.91
418.025	4.44
418.233	108.88
418.441	-11.95
418.649	16.73
418.857	26.96
419.065	143.7
419.273	-7.85
419.481	29.01
419.689	18.77
419.897	29.01
420.105	-59.05
420.313	88.4
420.521	194.9
420.729	135.51
420.937	12.63
421.145	-26.28
421.353	61.78
421.561	84.31
421.769	14.68
421.977	57.68
422.185	117.08
422.393	4.44
422.601	92.5
422.809	35.16
423.017	12.63
423.224	57.68
423.432	125.27
423.64	26.96
423.848	135.51
424.056	-24.23
424.263	110.93
424.471	26.96
424.679	135.51
424.887	18.77
425.094	123.22
425.302	37.2
425.51	12.63
425.718	74.07
425.925	92.5
426.133	-67.24
426.341	209.23
426.548	2.39
426.756	65.88
426.964	76.12
427.171	-26.28
427.379	102.74
427.586	18.77
427.794	35.16
428.001	117.08
428.209	43.35
428.417	151.89
428.624	53.59
428.832	72.02
429.039	90.45
429.247	2.39
429.454	57.68
429.662	178.51
429.869	74.07
430.076	57.68
430.284	94.55
430.491	139.6
430.699	57.68
430.906	123.22
431.114	110.93
431.321	37.2
431.528	39.25
431.736	69.97
431.943	47.44
432.15	131.41
432.358	33.11
432.565	166.23
432.772	-24.23
432.979	149.84
433.187	24.92
433.394	102.74
433.601	78.16
433.808	135.51
434.016	207.19
434.223	82.26
434.43	139.6
434.637	264.53
434.844	168.27
435.052	121.17
435.259	170.32
435.466	215.38
435.673	174.42
435.88	227.67
436.087	127.32
436.294	176.47
436.501	192.85
436.708	106.84
436.915	211.28
437.122	201.04
437.329	168.27
437.537	180.56
437.743	162.13
437.95	198.99
438.157	221.52
438.364	225.62
438.571	127.32
438.778	266.58
438.985	205.14
439.192	307.54
439.399	170.32
439.606	244.05
439.813	297.3
440.02	293.2
440.227	350.54
440.433	313.68
440.64	295.25
440.847	190.8
441.054	360.78
441.261	432.46
441.467	289.1
441.674	225.62
441.881	356.69
442.088	289.1
442.294	401.74
442.501	399.7
442.708	471.37
442.914	395.6
443.121	373.07
443.328	422.22
443.534	467.28
443.741	373.07
443.948	375.12
444.154	371.02
444.361	661.84
444.568	538.96
444.774	543.05
444.981	428.37
445.187	581.96
445.394	549.2
445.6	461.13
445.807	627.02
446.013	571.72
446.22	428.37
446.426	641.36
446.633	629.07
446.839	848.2
447.046	581.96
447.252	696.65
447.459	758.09
447.665	751.95
447.871	825.67
448.078	880.97
448.284	964.93
448.491	969.03
448.697	942.41
448.903	1007.94
449.11	928.07
449.316	952.65
449.522	977.22
449.728	1032.52
449.935	1190.21
450.141	1085.76
450.347	1294.66
450.553	1122.63
450.76	1212.74
450.966	1198.4
451.172	1286.47
451.378	1397.06
451.584	1419.58
451.791	1550.65
451.997	1548.61
452.203	1556.8
452.409	1630.52
452.615	1741.11
452.821	1618.24
453.027	1753.4
453.233	1896.76
453.44	1888.57
453.646	1976.63
453.852	2074.93
454.058	2074.93
454.264	2259.25
454.47	2253.11
454.676	2134.32
454.882	2494.77
455.088	2412.85
455.294	2507.06
455.5	2668.84
455.705	2756.91
455.911	2814.25
456.117	2869.55
456.323	3004.71
456.529	2957.61
456.735	3252.52
456.941	3377.44
457.147	3440.93
457.352	3625.25
457.558	3623.2
457.764	3981.59
457.97	3946.78
458.176	4131.09
458.381	4313.36
458.587	4436.24
458.793	4714.77
458.999	4534.54
459.204	5292.29
459.41	5388.55
459.616	5265.67
459.821	5634.3
460.027	5945.59
460.233	6140.15
460.438	6215.93
460.644	6574.32
460.85	6516.98
461.055	6772.97
461.261	7094.51
461.466	7026.92
461.672	6949.1
461.878	8065.24
462.083	7758.05
462.289	8040.67
462.494	8401.11
462.7	8581.33
462.905	8519.89
463.111	9375.94
463.316	9615.55
463.522	9969.85
463.727	10160.31
463.932	10737.84
464.138	10913.97
464.343	11350.18
464.549	11325.61
464.754	12030.11
464.959	12687.51
465.165	12939.41
465.37	12978.32
465.575	12478.61
465.781	13541.51
465.986	13971.58
466.191	13891.71
466.397	13840.51
466.602	13805.7
466.807	14512.25
467.012	14735.48
467.218	14983.28
467.423	14944.37
467.628	15405.16
467.833	15962.21
468.038	15933.54
468.244	15597.67
468.449	16492.63
468.654	16228.45
468.859	15974.5
469.064	16310.36
469.269	15698.02
469.474	16351.32
469.679	16457.82
469.885	16253.02
470.09	16236.64
