Data from USB4F104151__60__11-30-50-265.txt Node

Date: Wed Feb 26 11:30:50 EST 2025
User: louis
Spectrometer: USB4F10415
Trigger mode: 4
Integration Time (sec): 1.000000E-1
Scans to average: 1
Electric dark correction enabled: true
Nonlinearity correction enabled: false
Boxcar width: 0
XAxis mode: Wavelengths
Number of Pixels in Spectrum: 3648
>>>>>Begin Spectral Data<<<<<
178.204	-449.53
178.424	-449.53
178.644	-449.53
178.864	-424.95
179.084	-398.33
179.304	31.74
179.524	-3.07
179.744	-50.18
179.964	-25.6
180.184	-21.5
180.404	50.18
180.624	19.46
180.844	-25.6
181.064	44.03
181.283	7.17
181.503	-44.03
181.723	17.41
181.943	-158.72
182.163	128
182.383	-7.17
182.602	103.42
182.822	175.1
183.042	117.76
183.262	-11.26
183.482	-84.99
183.701	5.12
183.921	37.89
184.141	31.74
184.361	130.05
184.58	9.22
184.8	50.18
185.02	-62.46
185.239	35.84
185.459	70.65
185.679	97.28
185.898	-68.61
186.118	97.28
186.338	-1.02
186.557	39.94
186.777	-82.94
186.997	-64.51
187.216	9.22
187.436	207.87
187.655	70.65
187.875	64.51
188.095	-27.65
188.314	76.8
188.534	113.66
188.753	-9.22
188.973	117.76
189.192	142.33
189.412	-50.18
189.631	5.12
189.851	76.8
190.07	160.77
190.29	-1.02
190.509	-37.89
190.729	19.46
190.948	72.7
191.168	246.78
191.387	56.32
191.607	-35.84
191.826	87.04
192.045	-41.98
192.265	-84.99
192.484	99.33
192.704	87.04
192.923	46.08
193.142	220.16
193.362	87.04
193.581	91.13
193.8	3.07
194.02	66.56
194.239	11.26
194.458	132.09
194.678	44.03
194.897	-27.65
195.116	82.94
195.335	17.41
195.555	25.6
195.774	50.18
195.993	130.05
196.212	13.31
196.432	-7.17
196.651	41.98
196.87	27.65
197.089	232.44
197.308	1.02
197.528	107.52
197.747	-93.18
197.966	19.46
198.185	56.32
198.404	-37.89
198.623	64.51
198.842	64.51
199.062	7.17
199.281	113.66
199.5	-3.07
199.719	60.42
199.938	72.7
200.157	39.94
200.376	70.65
200.595	144.38
200.814	29.7
201.033	-56.32
201.252	140.29
201.471	-1.02
201.69	80.89
201.909	-3.07
202.128	70.65
202.347	29.7
202.566	-9.22
202.785	-31.74
203.004	-52.22
203.223	226.3
203.442	-23.55
203.661	-74.75
203.879	50.18
204.098	142.33
204.317	58.37
204.536	152.57
204.755	21.5
204.974	27.65
205.193	-33.79
205.411	82.94
205.63	158.72
205.849	107.52
206.068	48.13
206.287	-9.22
206.505	123.9
206.724	-1.02
206.943	-9.22
207.162	56.32
207.381	60.42
207.599	-17.41
207.818	-21.5
208.037	-66.56
208.255	19.46
208.474	64.51
208.693	19.46
208.911	41.98
209.13	29.7
209.349	50.18
209.567	66.56
209.786	31.74
210.005	136.19
210.223	19.46
210.442	-166.91
210.661	52.22
210.879	87.04
211.098	72.7
211.316	50.18
211.535	44.03
211.753	-46.08
211.972	56.32
212.191	-52.22
212.409	-56.32
212.628	93.18
212.846	27.65
213.065	21.5
213.283	95.23
213.502	25.6
213.72	9.22
213.938	35.84
214.157	46.08
214.375	66.56
214.594	21.5
214.812	33.79
215.031	19.46
215.249	60.42
215.467	111.61
215.686	-5.12
215.904	68.61
216.122	13.31
216.341	148.48
216.559	33.79
216.778	68.61
216.996	146.43
217.214	33.79
217.432	-17.41
217.651	-29.7
217.869	39.94
218.087	3.07
218.306	-1.02
218.524	15.36
218.742	1.02
218.96	64.51
219.179	44.03
219.397	-87.04
219.615	285.69
219.833	109.57
220.051	-89.09
220.27	72.7
220.488	78.85
220.706	31.74
220.924	-29.7
221.142	-9.22
221.36	84.99
221.578	27.65
221.796	54.27
222.015	1.02
222.233	-15.36
222.451	150.53
222.669	-23.55
222.887	78.85
223.105	-7.17
223.323	3.07
223.541	3.07
223.759	76.8
223.977	9.22
224.195	164.86
224.413	60.42
224.631	97.28
224.849	-29.7
225.067	191.49
225.285	-33.79
225.503	-19.46
225.721	-128
225.939	21.5
226.157	21.5
226.375	185.34
226.592	19.46
226.81	62.46
227.028	54.27
227.246	107.52
227.464	52.22
227.682	138.24
227.9	78.85
228.117	58.37
228.335	33.79
228.553	97.28
228.771	41.98
228.989	44.03
229.206	111.61
229.424	-89.09
229.642	37.89
229.86	-29.7
230.077	121.85
230.295	-48.13
230.513	82.94
230.731	5.12
230.948	195.58
231.166	195.58
231.384	19.46
231.601	-11.26
231.819	166.91
232.037	1.02
232.254	-23.55
232.472	48.13
232.689	13.31
232.907	87.04
233.125	62.46
233.342	15.36
233.56	19.46
233.777	9.22
233.995	93.18
234.213	148.48
234.43	80.89
234.648	35.84
234.865	-37.89
235.083	97.28
235.3	56.32
235.518	91.13
235.735	60.42
235.953	93.18
236.17	5.12
236.388	70.65
236.605	31.74
236.822	87.04
237.04	105.47
237.257	-3.07
237.475	-54.27
237.692	84.99
237.909	117.76
238.127	-54.27
238.344	78.85
238.562	11.26
238.779	-15.36
238.996	-58.37
239.214	35.84
239.431	68.61
239.648	-66.56
239.865	115.71
240.083	117.76
240.3	64.51
240.517	95.23
240.735	-31.74
240.952	78.85
241.169	68.61
241.386	46.08
241.603	3.07
241.821	-41.98
242.038	80.89
242.255	72.7
242.472	-91.13
242.689	-58.37
242.907	48.13
243.124	31.74
243.341	33.79
243.558	-58.37
243.775	-41.98
243.992	-39.94
244.209	5.12
244.426	179.2
244.643	74.75
244.86	27.65
245.078	35.84
245.295	64.51
245.512	-15.36
245.729	-29.7
245.946	23.55
246.163	46.08
246.38	37.89
246.597	76.8
246.814	-11.26
247.031	25.6
247.248	68.61
247.464	107.52
247.681	5.12
247.898	78.85
248.115	109.57
248.332	-25.6
248.549	62.46
248.766	74.75
248.983	19.46
249.2	11.26
249.417	128
249.633	-44.03
249.85	3.07
250.067	62.46
250.284	115.71
250.501	31.74
250.717	84.99
250.934	-3.07
251.151	54.27
251.368	-21.5
251.585	37.89
251.801	105.47
252.018	-1.02
252.235	84.99
252.451	-60.42
252.668	-52.22
252.885	146.43
253.102	70.65
253.318	9.22
253.535	25.6
253.752	-46.08
253.968	-5.12
254.185	-99.33
254.401	44.03
254.618	-50.18
254.835	-13.31
255.051	162.81
255.268	74.75
255.484	119.81
255.701	48.13
255.917	99.33
256.134	15.36
256.351	21.5
256.567	1.02
256.784	-33.79
257	-82.94
257.217	44.03
257.433	80.89
257.65	82.94
257.866	107.52
258.082	-107.52
258.299	-29.7
258.515	72.7
258.732	-1.02
258.948	-7.17
259.165	76.8
259.381	3.07
259.597	23.55
259.814	31.74
260.03	-1.02
260.246	39.94
260.463	160.77
260.679	164.86
260.895	64.51
261.112	93.18
261.328	48.13
261.544	37.89
261.761	142.33
261.977	-25.6
262.193	-115.71
262.409	54.27
262.626	44.03
262.842	-13.31
263.058	-95.23
263.274	7.17
263.49	5.12
263.707	44.03
263.923	130.05
264.139	-13.31
264.355	23.55
264.571	117.76
264.787	-13.31
265.004	121.85
265.22	-44.03
265.436	-7.17
265.652	-46.08
265.868	105.47
266.084	-46.08
266.3	17.41
266.516	-44.03
266.732	44.03
266.948	-46.08
267.164	-1.02
267.38	66.56
267.596	87.04
267.812	140.29
268.028	97.28
268.244	37.89
268.46	46.08
268.676	52.22
268.892	48.13
269.108	-103.42
269.324	-29.7
269.54	-68.61
269.756	68.61
269.972	-70.65
270.188	84.99
270.403	13.31
270.619	87.04
270.835	93.18
271.051	31.74
271.267	-11.26
271.483	-3.07
271.698	70.65
271.914	-11.26
272.13	-33.79
272.346	37.89
272.562	15.36
272.777	87.04
272.993	-11.26
273.209	-46.08
273.425	158.72
273.64	-97.28
273.856	144.38
274.072	-25.6
274.287	58.37
274.503	54.27
274.719	150.53
274.934	-48.13
275.15	-52.22
275.366	25.6
275.581	31.74
275.797	37.89
276.012	74.75
276.228	-1.02
276.444	76.8
276.659	113.66
276.875	-19.46
277.09	19.46
277.306	-58.37
277.521	58.37
277.737	5.12
277.952	52.22
278.168	52.22
278.383	-19.46
278.599	62.46
278.814	62.46
279.03	-27.65
279.245	132.09
279.461	17.41
279.676	48.13
279.892	-39.94
280.107	-60.42
280.322	-56.32
280.538	99.33
280.753	5.12
280.969	107.52
281.184	52.22
281.399	134.14
281.615	39.94
281.83	62.46
282.045	-91.13
282.26	70.65
282.476	-70.65
282.691	84.99
282.906	64.51
283.122	76.8
283.337	37.89
283.552	101.37
283.767	15.36
283.983	175.1
284.198	-13.31
284.413	80.89
284.628	-5.12
284.843	29.7
285.058	140.29
285.274	39.94
285.489	-33.79
285.704	125.95
285.919	-7.17
286.134	93.18
286.349	37.89
286.564	7.17
286.779	123.9
286.995	31.74
287.21	-56.32
287.425	50.18
287.64	-1.02
287.855	23.55
288.07	-29.7
288.285	-29.7
288.5	113.66
288.715	91.13
288.93	-93.18
289.145	-25.6
289.36	41.98
289.575	31.74
289.79	168.96
290.004	-13.31
290.219	109.57
290.434	-44.03
290.649	-80.89
290.864	-13.31
291.079	74.75
291.294	5.12
291.509	113.66
291.724	-11.26
291.938	70.65
292.153	-5.12
292.368	17.41
292.583	13.31
292.798	54.27
293.012	76.8
293.227	41.98
293.442	-56.32
293.657	66.56
293.871	35.84
294.086	27.65
294.301	150.53
294.516	117.76
294.73	21.5
294.945	-41.98
295.16	29.7
295.374	105.47
295.589	107.52
295.804	-50.18
296.018	48.13
296.233	113.66
296.447	19.46
296.662	7.17
296.877	150.53
297.091	31.74
297.306	21.5
297.52	-5.12
297.735	35.84
297.949	62.46
298.164	-31.74
298.378	66.56
298.593	-66.56
298.807	-37.89
299.022	19.46
299.236	154.62
299.451	31.74
299.665	39.94
299.88	25.6
300.094	107.52
300.309	29.7
300.523	13.31
300.737	74.75
300.952	64.51
301.166	134.14
301.381	-115.71
301.595	11.26
301.809	-9.22
302.024	21.5
302.238	-60.42
302.452	168.96
302.667	-33.79
302.881	136.19
303.095	39.94
303.309	74.75
303.524	-52.22
303.738	-3.07
303.952	-23.55
304.166	-17.41
304.381	-68.61
304.595	128
304.809	-3.07
305.023	74.75
305.237	62.46
305.452	17.41
305.666	54.27
305.88	171.01
306.094	97.28
306.308	130.05
306.522	87.04
306.736	60.42
306.95	41.98
307.164	52.22
307.379	-11.26
307.593	150.53
307.807	60.42
308.021	111.61
308.235	97.28
308.449	-113.66
308.663	-35.84
308.877	185.34
309.091	23.55
309.305	52.22
309.519	-103.42
309.733	70.65
309.947	-13.31
310.161	44.03
310.374	78.85
310.588	93.18
310.802	-52.22
311.016	-60.42
311.23	105.47
311.444	-23.55
311.658	-41.98
311.872	64.51
312.085	125.95
312.299	115.71
312.513	189.44
312.727	7.17
312.941	21.5
313.154	35.84
313.368	-54.27
313.582	5.12
313.796	21.5
314.009	64.51
314.223	113.66
314.437	64.51
314.651	21.5
314.864	-60.42
315.078	50.18
315.292	-50.18
315.505	-9.22
315.719	117.76
315.933	76.8
316.146	-11.26
316.36	11.26
316.573	128
316.787	93.18
317.001	44.03
317.214	44.03
317.428	37.89
317.641	-17.41
317.855	62.46
318.068	74.75
318.282	-5.12
318.495	58.37
318.709	35.84
318.922	-60.42
319.136	162.81
319.349	11.26
319.563	-48.13
319.776	35.84
319.99	-48.13
320.203	35.84
320.417	52.22
320.63	134.14
320.843	197.63
321.057	-9.22
321.27	89.09
321.483	93.18
321.697	128
321.91	46.08
322.124	17.41
322.337	39.94
322.55	-7.17
322.763	-33.79
322.977	-1.02
323.19	23.55
323.403	101.37
323.617	35.84
323.83	95.23
324.043	-113.66
324.256	113.66
324.469	-76.8
324.683	136.19
324.896	62.46
325.109	37.89
325.322	-50.18
325.535	19.46
325.748	74.75
325.962	-39.94
326.175	-48.13
326.388	78.85
326.601	138.24
326.814	1.02
327.027	41.98
327.24	166.91
327.453	-89.09
327.666	31.74
327.879	123.9
328.092	134.14
328.305	97.28
328.518	-58.37
328.731	15.36
328.944	44.03
329.157	31.74
329.37	11.26
329.583	164.86
329.796	105.47
330.009	-50.18
330.222	173.05
330.435	117.76
330.648	-19.46
330.861	48.13
331.073	33.79
331.286	33.79
331.499	46.08
331.712	-89.09
331.925	7.17
332.138	64.51
332.35	142.33
332.563	-15.36
332.776	107.52
332.989	-35.84
333.202	44.03
333.414	9.22
333.627	41.98
333.84	19.46
334.053	3.07
334.265	-39.94
334.478	-23.55
334.691	70.65
334.903	78.85
335.116	-91.13
335.329	78.85
335.541	78.85
335.754	156.67
335.966	44.03
336.179	56.32
336.392	46.08
336.604	-84.99
336.817	50.18
337.029	-9.22
337.242	-21.5
337.454	146.43
337.667	1.02
337.88	150.53
338.092	70.65
338.305	62.46
338.517	37.89
338.729	93.18
338.942	109.57
339.154	-58.37
339.367	-31.74
339.579	103.42
339.792	-27.65
340.004	107.52
340.217	-33.79
340.429	15.36
340.641	-3.07
340.854	13.31
341.066	-64.51
341.278	168.96
341.491	93.18
341.703	-17.41
341.915	-80.89
342.128	119.81
342.34	152.57
342.552	-17.41
342.764	41.98
342.977	62.46
343.189	70.65
343.401	15.36
343.613	-15.36
343.826	15.36
344.038	-70.65
344.25	78.85
344.462	-3.07
344.674	31.74
344.886	17.41
345.099	78.85
345.311	19.46
345.523	13.31
345.735	-60.42
345.947	54.27
346.159	64.51
346.371	-13.31
346.583	-50.18
346.795	185.34
347.007	-101.37
347.219	-3.07
347.431	-29.7
347.643	130.05
347.855	5.12
348.067	64.51
348.279	-97.28
348.491	84.99
348.703	84.99
348.915	64.51
349.127	-37.89
349.339	44.03
349.551	-5.12
349.763	84.99
349.975	19.46
350.187	152.57
350.399	76.8
350.61	132.09
350.822	21.5
351.034	37.89
351.246	80.89
351.458	144.38
351.669	50.18
351.881	115.71
352.093	93.18
352.305	162.81
352.517	76.8
352.728	60.42
352.94	54.27
353.152	3.07
353.363	-31.74
353.575	50.18
353.787	162.81
353.999	25.6
354.21	154.62
354.422	-105.47
354.633	89.09
354.845	-54.27
355.057	50.18
355.268	17.41
355.48	142.33
355.692	9.22
355.903	91.13
356.115	31.74
356.326	-15.36
356.538	125.95
356.749	113.66
356.961	84.99
357.172	72.7
357.384	-21.5
357.595	240.64
357.807	56.32
358.018	-52.22
358.23	19.46
358.441	107.52
358.653	7.17
358.864	46.08
359.075	-13.31
359.287	56.32
359.498	123.9
359.709	99.33
359.921	13.31
360.132	62.46
360.344	68.61
360.555	-17.41
360.766	21.5
360.977	70.65
361.189	101.37
361.4	-39.94
361.611	113.66
361.823	136.19
362.034	19.46
362.245	-95.23
362.456	19.46
362.667	66.56
362.879	-41.98
363.09	62.46
363.301	111.61
363.512	-37.89
363.723	9.22
363.935	-52.22
364.146	142.33
364.357	-48.13
364.568	58.37
364.779	-9.22
364.99	91.13
365.201	39.94
365.412	128
365.623	-1.02
365.834	52.22
366.045	58.37
366.256	64.51
366.467	11.26
366.678	-46.08
366.889	25.6
367.1	11.26
367.311	166.91
367.522	-41.98
367.733	27.65
367.944	23.55
368.155	-21.5
368.366	111.61
368.577	166.91
368.788	142.33
368.999	-33.79
369.209	89.09
369.42	150.53
369.631	173.05
369.842	46.08
370.053	-9.22
370.264	23.55
370.474	37.89
370.685	70.65
370.896	93.18
371.107	107.52
371.317	5.12
371.528	-17.41
371.739	144.38
371.95	64.51
372.16	158.72
372.371	3.07
372.582	109.57
372.792	39.94
373.003	-15.36
373.214	123.9
373.424	64.51
373.635	-56.32
373.846	99.33
374.056	66.56
374.267	101.37
374.477	64.51
374.688	5.12
374.898	80.89
375.109	74.75
375.319	-1.02
375.53	68.61
375.74	70.65
375.951	-46.08
376.161	103.42
376.372	140.29
376.582	-13.31
376.793	52.22
377.003	23.55
377.214	-101.37
377.424	70.65
377.635	82.94
377.845	-54.27
378.055	173.05
378.266	-76.8
378.476	-19.46
378.686	56.32
378.897	66.56
379.107	91.13
379.317	101.37
379.528	78.85
379.738	60.42
379.948	-54.27
380.158	150.53
380.369	39.94
380.579	123.9
380.789	27.65
380.999	78.85
381.21	154.62
381.42	138.24
381.63	60.42
381.84	132.09
382.05	68.61
382.261	171.01
382.471	113.66
382.681	-27.65
382.891	179.2
383.101	56.32
383.311	7.17
383.521	-58.37
383.731	23.55
383.941	48.13
384.151	46.08
384.361	-5.12
384.571	56.32
384.781	13.31
384.991	209.92
385.201	107.52
385.411	97.28
385.621	58.37
385.831	123.9
386.041	91.13
386.251	46.08
386.461	121.85
386.671	31.74
386.881	97.28
387.091	11.26
387.301	107.52
387.511	-1.02
387.72	33.79
387.93	64.51
388.14	37.89
388.35	21.5
388.56	154.62
388.769	37.89
388.979	-39.94
389.189	-35.84
389.399	39.94
389.609	76.8
389.818	31.74
390.028	56.32
390.238	15.36
390.447	-31.74
390.657	19.46
390.867	50.18
391.076	-121.85
391.286	82.94
391.496	64.51
391.705	76.8
391.915	121.85
392.125	168.96
392.334	3.07
392.544	101.37
392.753	21.5
392.963	11.26
393.172	64.51
393.382	-56.32
393.591	150.53
393.801	15.36
394.01	107.52
394.22	66.56
394.429	-7.17
394.639	-48.13
394.848	125.95
395.058	52.22
395.267	7.17
395.477	95.23
395.686	46.08
395.895	271.36
396.105	144.38
396.314	54.27
396.524	50.18
396.733	21.5
396.942	130.05
397.152	72.7
397.361	109.57
397.57	50.18
397.78	87.04
397.989	115.71
398.198	238.59
398.407	91.13
398.617	19.46
398.826	66.56
399.035	-60.42
399.244	134.14
399.453	50.18
399.663	144.38
399.872	25.6
400.081	-31.74
400.29	150.53
400.499	-1.02
400.708	150.53
400.917	1.02
401.127	56.32
401.336	-19.46
401.545	162.81
401.754	125.95
401.963	99.33
402.172	62.46
402.381	-89.09
402.59	-58.37
402.799	62.46
403.008	58.37
403.217	68.61
403.426	62.46
403.635	-25.6
403.844	101.37
404.053	-9.22
404.262	46.08
404.471	187.39
404.68	15.36
404.888	29.7
405.097	21.5
405.306	123.9
405.515	99.33
405.724	-1.02
405.933	56.32
406.142	62.46
406.35	109.57
406.559	-68.61
406.768	82.94
406.977	164.86
407.185	27.65
407.394	128
407.603	15.36
407.812	-5.12
408.02	160.77
408.229	46.08
408.438	78.85
408.646	7.17
408.855	68.61
409.064	111.61
409.272	44.03
409.481	99.33
409.69	25.6
409.898	-29.7
410.107	72.7
410.315	158.72
410.524	-33.79
410.733	113.66
410.941	33.79
411.15	128
411.358	128
411.567	148.48
411.775	15.36
411.984	15.36
412.192	148.48
412.401	74.75
412.609	132.09
412.818	166.91
413.026	91.13
413.234	-13.31
413.443	74.75
413.651	-46.08
413.86	27.65
414.068	115.71
414.276	199.68
414.485	-41.98
414.693	115.71
414.901	234.49
415.11	60.42
415.318	52.22
415.526	87.04
415.734	76.8
415.943	64.51
416.151	142.33
416.359	78.85
416.567	128
416.776	134.14
416.984	58.37
417.192	222.2
417.4	95.23
417.608	76.8
417.817	-1.02
418.025	105.47
418.233	154.62
418.441	3.07
418.649	3.07
418.857	64.51
419.065	166.91
419.273	74.75
419.481	76.8
419.689	58.37
419.897	60.42
420.105	-39.94
420.313	74.75
420.521	113.66
420.729	128
420.937	3.07
421.145	-27.65
421.353	132.09
421.561	230.4
421.769	113.66
421.977	70.65
422.185	107.52
422.393	39.94
422.601	191.49
422.809	80.89
423.017	68.61
423.224	35.84
423.432	99.33
423.64	56.32
423.848	130.05
424.056	-9.22
424.263	152.57
424.471	68.61
424.679	150.53
424.887	37.89
425.094	179.2
425.302	142.33
425.51	76.8
425.718	160.77
425.925	76.8
426.133	29.7
426.341	201.72
426.548	29.7
426.756	82.94
426.964	166.91
427.171	-23.55
427.379	56.32
427.586	64.51
427.794	195.58
428.001	62.46
428.209	103.42
428.417	244.73
428.624	142.33
428.832	142.33
429.039	80.89
429.247	109.57
429.454	191.49
429.662	224.25
429.869	130.05
430.076	156.67
430.284	179.2
430.491	214.01
430.699	160.77
430.906	216.06
431.114	111.61
431.321	226.3
431.528	179.2
431.736	91.13
431.943	125.95
432.15	177.15
432.358	199.68
432.565	273.4
432.772	-7.17
432.979	316.41
433.187	201.72
433.394	234.49
433.601	185.34
433.808	267.26
434.016	236.54
434.223	273.4
434.43	244.73
434.637	279.55
434.844	295.93
435.052	283.64
435.259	267.26
435.466	330.75
435.673	283.64
435.88	373.75
436.087	373.75
436.294	386.04
436.501	322.56
436.708	345.08
436.915	379.9
437.122	422.91
437.329	330.75
437.537	398.33
437.743	408.57
437.95	535.54
438.157	439.29
438.364	429.05
438.571	470.01
438.778	496.63
438.985	408.57
439.192	517.11
439.399	502.78
439.606	603.13
439.813	644.09
440.02	646.13
440.227	801.78
440.433	646.13
440.64	601.08
440.847	592.89
441.054	738.29
441.261	777.2
441.467	779.25
441.674	693.24
441.881	922.61
442.088	779.25
442.294	801.78
442.501	852.98
442.708	943.09
442.914	986.1
443.121	988.14
443.328	1090.54
443.534	1147.89
443.741	1131.5
443.948	1041.39
444.154	1227.76
444.361	1281
444.568	1219.57
444.774	1254.38
444.981	1129.45
445.187	1373.16
445.394	1407.98
445.6	1407.98
445.807	1627.11
446.013	1465.32
446.22	1561.58
446.426	1745.89
446.633	1836
446.839	1962.98
447.046	1725.41
447.252	2046.94
447.459	2114.53
447.665	2061.28
447.871	2159.58
448.078	2341.85
448.284	2384.86
448.491	2442.2
448.697	2597.85
448.903	2630.62
449.11	2704.34
449.316	2692.05
449.522	2900.95
449.728	3085.26
449.935	3091.41
450.141	3107.79
450.347	3439.56
450.553	3294.16
450.76	3580.87
450.966	3627.98
451.172	3623.88
451.378	3886.02
451.584	3894.21
451.791	4197.31
451.997	4387.77
452.203	4416.44
452.409	4717.5
452.615	4799.41
452.821	4643.77
453.027	4772.79
453.233	5360.56
453.44	5133.23
453.646	5548.97
453.852	5684.14
454.058	6144.93
454.264	6048.68
454.47	6382.49
454.676	6640.54
454.882	7158.67
455.088	6912.92
455.294	7295.89
455.5	7740.3
455.705	8190.85
455.911	8305.54
456.117	8491.9
456.323	9022.33
456.529	8940.41
456.735	9360.24
456.941	9735.02
457.147	10150.76
457.352	10419.04
457.558	10845.02
457.764	11502.42
457.97	11731.79
458.176	12307.27
458.381	12528.45
458.587	13308.72
458.793	13445.94
458.999	13833
459.204	15340.31
459.41	15874.83
459.616	15477.52
459.821	16667.39
460.027	17390.33
460.233	18313.96
460.438	18193.13
460.644	19122.91
460.85	19647.19
461.055	20415.18
461.261	21369.53
461.466	20638.41
461.672	21056.19
461.878	23767.7
462.083	23306.91
462.289	24097.42
462.494	24787.59
462.7	25156.22
462.905	25285.25
463.111	27400.8
463.316	28797.51
463.522	29188.67
463.727	30106.16
463.932	31484.45
464.138	32225.81
464.343	33604.1
464.549	34292.21
464.754	36217.3
464.959	37071.31
465.165	37958.08
465.37	37757.38
465.575	37534.15
465.781	40198.55
465.986	41148.81
466.191	40751.51
466.397	41023.89
466.602	40051.1
466.807	42473.85
467.012	42905.97
467.218	43690.34
467.423	43807.08
467.628	44906.83
467.833	47116.59
468.038	46094.66
468.244	45261.13
468.449	47986.98
468.654	46707
