Data from USB4F104151__79__09-30-24-389.txt Node

Date: Wed Feb 26 09:30:24 EST 2025
User: louis
Spectrometer: USB4F10415
Trigger mode: 4
Integration Time (sec): 1.000000E-1
Scans to average: 1
Electric dark correction enabled: true
Nonlinearity correction enabled: false
Boxcar width: 0
XAxis mode: Wavelengths
Number of Pixels in Spectrum: 3648
>>>>>Begin Spectral Data<<<<<
178.204	-282.96
178.424	-282.96
178.644	-282.96
178.864	-389.46
179.084	-305.49
179.304	-47.44
179.524	1.71
179.744	67.24
179.964	40.62
180.184	-33.11
180.404	40.62
180.624	7.85
180.844	-22.87
181.064	-61.78
181.283	46.76
181.503	-82.26
181.723	42.67
181.943	-117.08
182.163	173.74
182.383	32.43
182.602	118.44
182.822	87.72
183.042	7.85
183.262	67.24
183.482	16.04
183.701	-43.35
183.921	108.2
184.141	-4.44
184.361	3.75
184.58	26.28
184.8	26.28
185.02	-8.53
185.239	87.72
185.459	100.01
185.679	87.72
185.898	-100.69
186.118	75.43
186.338	54.95
186.557	124.58
186.777	30.38
186.997	67.24
187.216	57
187.436	167.59
187.655	-26.96
187.875	100.01
188.095	42.67
188.314	77.48
188.534	34.47
188.753	-33.11
188.973	169.64
189.192	177.83
189.412	61.1
189.631	-10.58
189.851	104.11
190.07	130.73
190.29	-39.25
190.509	46.76
190.729	-12.63
190.948	122.54
191.168	265.89
191.387	112.3
191.607	20.14
191.826	30.38
192.045	36.52
192.265	7.85
192.484	61.1
192.704	34.47
192.923	13.99
193.142	126.63
193.362	71.34
193.581	159.4
193.8	42.67
194.02	112.3
194.239	83.63
194.458	40.62
194.678	57
194.897	44.71
195.116	-49.49
195.335	126.63
195.555	140.97
195.774	-2.39
195.993	102.06
196.212	65.19
196.432	26.28
196.651	-41.3
196.87	89.77
197.089	235.18
197.308	75.43
197.528	73.39
197.747	-14.68
197.966	67.24
198.185	157.35
198.404	67.24
198.623	102.06
198.842	85.67
199.062	147.11
199.281	83.63
199.5	134.82
199.719	87.72
199.938	108.2
200.157	108.2
200.376	106.15
200.595	134.82
200.814	100.01
201.033	-65.88
201.252	198.31
201.471	42.67
201.69	102.06
201.909	73.39
202.128	22.19
202.347	79.53
202.566	42.67
202.785	-41.3
203.004	26.28
203.223	257.7
203.442	1.71
203.661	32.43
203.879	138.92
204.098	116.39
204.317	50.86
204.536	48.81
204.755	132.78
204.974	118.44
205.193	11.95
205.411	177.83
205.63	38.57
205.849	100.01
206.068	46.76
206.287	40.62
206.505	171.69
206.724	30.38
206.943	16.04
207.162	44.71
207.381	71.34
207.599	-37.2
207.818	-0.34
208.037	-37.2
208.255	-12.63
208.474	140.97
208.693	59.05
208.911	73.39
209.13	73.39
209.349	91.82
209.567	44.71
209.786	18.09
210.005	42.67
210.223	28.33
210.442	-55.64
210.661	-14.68
210.879	91.82
211.098	26.28
211.316	71.34
211.535	114.34
211.753	-0.34
211.972	42.67
212.191	-57.68
212.409	59.05
212.628	73.39
212.846	1.71
213.065	65.19
213.283	97.96
213.502	75.43
213.72	130.73
213.938	42.67
214.157	26.28
214.375	93.87
214.594	-39.25
214.812	169.64
215.031	48.81
215.249	57
215.467	-6.49
215.686	-2.39
215.904	77.48
216.122	63.15
216.341	100.01
216.559	89.77
216.778	104.11
216.996	102.06
217.214	24.23
217.432	59.05
217.651	-59.73
217.869	46.76
218.087	30.38
218.306	36.52
218.524	13.99
218.742	-49.49
218.96	63.15
219.179	-51.54
219.397	112.3
219.615	138.92
219.833	83.63
220.051	-45.4
220.27	132.78
220.488	138.92
220.706	93.87
220.924	-31.06
221.142	-6.49
221.36	85.67
221.578	-10.58
221.796	26.28
222.015	42.67
222.233	54.95
222.451	161.45
222.669	-16.73
222.887	32.43
223.105	-84.31
223.323	7.85
223.541	32.43
223.759	26.28
223.977	7.85
224.195	163.5
224.413	71.34
224.631	124.58
224.849	83.63
225.067	278.18
225.285	-31.06
225.503	-24.92
225.721	-35.16
225.939	89.77
226.157	38.57
226.375	210.6
226.592	-63.83
226.81	126.63
227.028	73.39
227.246	151.21
227.464	24.23
227.682	46.76
227.9	73.39
228.117	38.57
228.335	63.15
228.553	130.73
228.771	-24.92
228.989	44.71
229.206	-18.77
229.424	87.72
229.642	16.04
229.86	38.57
230.077	120.49
230.295	18.09
230.513	171.69
230.731	116.39
230.948	114.34
231.166	153.26
231.384	24.23
231.601	-24.92
231.819	210.6
232.037	-10.58
232.254	59.05
232.472	48.81
232.689	38.57
232.907	145.06
233.125	-20.82
233.342	46.76
233.56	26.28
233.777	52.91
233.995	57
234.213	95.91
234.43	73.39
234.648	57
234.865	32.43
235.083	95.91
235.3	171.69
235.518	124.58
235.735	132.78
235.953	73.39
236.17	89.77
236.388	52.91
236.605	59.05
236.822	89.77
237.04	59.05
237.257	128.68
237.475	1.71
237.692	-2.39
237.909	71.34
238.127	59.05
238.344	108.2
238.562	-31.06
238.779	-12.63
238.996	-76.12
239.214	36.52
239.431	93.87
239.648	-10.58
239.865	46.76
240.083	44.71
240.3	11.95
240.517	3.75
240.735	9.9
240.952	157.35
241.169	50.86
241.386	73.39
241.603	26.28
241.821	24.23
242.038	79.53
242.255	100.01
242.472	46.76
242.689	32.43
242.907	73.39
243.124	-10.58
243.341	22.19
243.558	-55.64
243.775	32.43
243.992	18.09
244.209	38.57
244.426	102.06
244.643	52.91
244.86	32.43
245.078	151.21
245.295	91.82
245.512	44.71
245.729	-125.27
245.946	114.34
246.163	81.58
246.38	28.33
246.597	59.05
246.814	79.53
247.031	89.77
247.248	149.16
247.464	118.44
247.681	7.85
247.898	9.9
248.115	81.58
248.332	1.71
248.549	75.43
248.766	177.83
248.983	67.24
249.2	104.11
249.417	100.01
249.633	-4.44
249.85	26.28
250.067	34.47
250.284	57
250.501	169.64
250.717	130.73
250.934	-2.39
251.151	26.28
251.368	1.71
251.585	71.34
251.801	63.15
252.018	7.85
252.235	30.38
252.451	-43.35
252.668	5.8
252.885	67.24
253.102	89.77
253.318	46.76
253.535	-6.49
253.752	-39.25
253.968	26.28
254.185	-59.73
254.401	81.58
254.618	42.67
254.835	-43.35
255.051	181.93
255.268	89.77
255.484	73.39
255.701	-20.82
255.917	67.24
256.134	7.85
256.351	-0.34
256.567	16.04
256.784	48.81
257	52.91
257.217	71.34
257.433	112.3
257.65	50.86
257.866	171.69
258.082	18.09
258.299	40.62
258.515	9.9
258.732	11.95
258.948	9.9
259.165	75.43
259.381	-4.44
259.597	100.01
259.814	-29.01
260.03	-2.39
260.246	7.85
260.463	63.15
260.679	100.01
260.895	106.15
261.112	114.34
261.328	-10.58
261.544	-14.68
261.761	218.79
261.977	-82.26
262.193	-39.25
262.409	67.24
262.626	83.63
262.842	46.76
263.058	40.62
263.274	69.29
263.49	46.76
263.707	73.39
263.923	75.43
264.139	-65.88
264.355	77.48
264.571	93.87
264.787	67.24
265.004	122.54
265.22	-22.87
265.436	18.09
265.652	26.28
265.868	38.57
266.084	-31.06
266.3	-6.49
266.516	-0.34
266.732	13.99
266.948	67.24
267.164	-20.82
267.38	36.52
267.596	71.34
267.812	171.69
268.028	11.95
268.244	-4.44
268.46	54.95
268.676	48.81
268.892	-14.68
269.108	97.96
269.324	-26.96
269.54	-0.34
269.756	157.35
269.972	-16.73
270.188	-22.87
270.403	-39.25
270.619	9.9
270.835	-6.49
271.051	13.99
271.267	-39.25
271.483	54.95
271.698	69.29
271.914	1.71
272.13	85.67
272.346	30.38
272.562	73.39
272.777	59.05
272.993	-16.73
273.209	-2.39
273.425	73.39
273.64	-39.25
273.856	79.53
274.072	81.58
274.287	-2.39
274.503	71.34
274.719	71.34
274.934	97.96
275.15	-2.39
275.366	126.63
275.581	59.05
275.797	20.14
276.012	32.43
276.228	-22.87
276.444	59.05
276.659	120.49
276.875	38.57
277.09	63.15
277.306	52.91
277.521	38.57
277.737	81.58
277.952	93.87
278.168	-57.68
278.383	65.19
278.599	71.34
278.814	87.72
279.03	69.29
279.245	126.63
279.461	61.1
279.676	63.15
279.892	-4.44
280.107	-53.59
280.322	32.43
280.538	85.67
280.753	-0.34
280.969	16.04
281.184	118.44
281.399	188.07
281.615	36.52
281.83	75.43
282.045	-82.26
282.26	-47.44
282.476	79.53
282.691	30.38
282.906	26.28
283.122	13.99
283.337	42.67
283.552	50.86
283.767	-2.39
283.983	95.91
284.198	-8.53
284.413	95.91
284.628	-24.92
284.843	91.82
285.058	65.19
285.274	26.28
285.489	-22.87
285.704	100.01
285.919	-37.2
286.134	13.99
286.349	24.23
286.564	1.71
286.779	126.63
286.995	-2.39
287.21	-143.7
287.425	95.91
287.64	-35.16
287.855	-10.58
288.07	-112.98
288.285	67.24
288.5	114.34
288.715	95.91
288.93	73.39
289.145	7.85
289.36	130.73
289.575	50.86
289.79	155.3
290.004	79.53
290.219	124.58
290.434	-29.01
290.649	-14.68
290.864	3.75
291.079	24.23
291.294	30.38
291.509	106.15
291.724	38.57
291.938	-14.68
292.153	57
292.368	42.67
292.583	59.05
292.798	95.91
293.012	126.63
293.227	18.09
293.442	75.43
293.657	63.15
293.871	136.87
294.086	128.68
294.301	181.93
294.516	100.01
294.73	100.01
294.945	7.85
295.16	-29.01
295.374	132.78
295.589	143.02
295.804	100.01
296.018	26.28
296.233	130.73
296.447	32.43
296.662	54.95
296.877	124.58
297.091	79.53
297.306	83.63
297.52	-53.59
297.735	116.39
297.949	9.9
298.164	7.85
298.378	-55.64
298.593	-67.92
298.807	-2.39
299.022	63.15
299.236	173.74
299.451	-22.87
299.665	24.23
299.88	38.57
300.094	104.11
300.309	-24.92
300.523	57
300.737	1.71
300.952	42.67
301.166	83.63
301.381	-37.2
301.595	-39.25
301.809	59.05
302.024	7.85
302.238	11.95
302.452	95.91
302.667	61.1
302.881	81.58
303.095	30.38
303.309	18.09
303.524	1.71
303.738	42.67
303.952	-45.4
304.166	34.47
304.381	-37.2
304.595	120.49
304.809	-4.44
305.023	-65.88
305.237	-6.49
305.452	75.43
305.666	126.63
305.88	87.72
306.094	126.63
306.308	108.2
306.522	108.2
306.736	120.49
306.95	3.75
307.164	1.71
307.379	-31.06
307.593	85.67
307.807	83.63
308.021	93.87
308.235	124.58
308.449	-112.98
308.663	9.9
308.877	151.21
309.091	36.52
309.305	77.48
309.519	-55.64
309.733	116.39
309.947	-51.54
310.161	108.2
310.374	83.63
310.588	100.01
310.802	-35.16
311.016	-63.83
311.23	63.15
311.444	1.71
311.658	-41.3
311.872	93.87
312.085	136.87
312.299	161.45
312.513	100.01
312.727	50.86
312.941	3.75
313.154	120.49
313.368	-16.73
313.582	63.15
313.796	54.95
314.009	67.24
314.223	132.78
314.437	75.43
314.651	67.24
314.864	9.9
315.078	30.38
315.292	-49.49
315.505	40.62
315.719	54.95
315.933	42.67
316.146	22.19
316.36	-39.25
316.573	46.76
316.787	30.38
317.001	63.15
317.214	-37.2
317.428	50.86
317.641	-39.25
317.855	50.86
318.068	50.86
318.282	16.04
318.495	153.26
318.709	9.9
318.922	7.85
319.136	77.48
319.349	171.69
319.563	104.11
319.776	106.15
319.99	-61.78
320.203	118.44
320.417	-14.68
320.63	153.26
320.843	173.74
321.057	32.43
321.27	34.47
321.483	73.39
321.697	140.97
321.91	18.09
322.124	75.43
322.337	97.96
322.55	3.75
322.763	122.54
322.977	36.52
323.19	-8.53
323.403	1.71
323.617	73.39
323.83	83.63
324.043	-6.49
324.256	34.47
324.469	-39.25
324.683	167.59
324.896	65.19
325.109	83.63
325.322	-39.25
325.535	77.48
325.748	120.49
325.962	59.05
326.175	140.97
326.388	52.91
326.601	116.39
326.814	-20.82
327.027	91.82
327.24	34.47
327.453	-76.12
327.666	46.76
327.879	116.39
328.092	69.29
328.305	36.52
328.518	30.38
328.731	16.04
328.944	18.09
329.157	59.05
329.37	13.99
329.583	155.3
329.796	145.06
330.009	-39.25
330.222	79.53
330.435	108.2
330.648	5.8
330.861	5.8
331.073	50.86
331.286	102.06
331.499	100.01
331.712	-10.58
331.925	63.15
332.138	-10.58
332.35	136.87
332.563	-55.64
332.776	118.44
332.989	11.95
333.202	32.43
333.414	13.99
333.627	28.33
333.84	22.19
334.053	114.34
334.265	28.33
334.478	13.99
334.691	63.15
334.903	85.67
335.116	-39.25
335.329	-10.58
335.541	110.25
335.754	159.4
335.966	16.04
336.179	42.67
336.392	67.24
336.604	-16.73
336.817	85.67
337.029	30.38
337.242	65.19
337.454	161.45
337.667	7.85
337.88	155.3
338.092	81.58
338.305	63.15
338.517	-49.49
338.729	143.02
338.942	124.58
339.154	-35.16
339.367	-43.35
339.579	-2.39
339.792	-16.73
340.004	54.95
340.217	32.43
340.429	69.29
340.641	16.04
340.854	5.8
341.066	11.95
341.278	140.97
341.491	140.97
341.703	20.14
341.915	7.85
342.128	140.97
342.34	63.15
342.552	-57.68
342.764	-10.58
342.977	-22.87
343.189	40.62
343.401	30.38
343.613	-6.49
343.826	124.58
344.038	-72.02
344.25	-18.77
344.462	5.8
344.674	54.95
344.886	-0.34
345.099	18.09
345.311	87.72
345.523	-2.39
345.735	-51.54
345.947	63.15
346.159	59.05
346.371	67.24
346.583	-6.49
346.795	110.25
347.007	-4.44
347.219	24.23
347.431	5.8
347.643	42.67
347.855	-33.11
348.067	120.49
348.279	-4.44
348.491	-2.39
348.703	100.01
348.915	-39.25
349.127	3.75
349.339	7.85
349.551	-10.58
349.763	63.15
349.975	77.48
350.187	100.01
350.399	149.16
350.61	91.82
350.822	38.57
351.034	71.34
351.246	73.39
351.458	102.06
351.669	75.43
351.881	153.26
352.093	140.97
352.305	106.15
352.517	61.1
352.728	173.74
352.94	79.53
353.152	79.53
353.363	1.71
353.575	20.14
353.787	173.74
353.999	34.47
354.21	186.02
354.422	-10.58
354.633	26.28
354.845	42.67
355.057	128.68
355.268	89.77
355.48	42.67
355.692	36.52
355.903	128.68
356.115	5.8
356.326	-39.25
356.538	102.06
356.749	157.35
356.961	124.58
357.172	71.34
357.384	-117.08
357.595	153.26
357.807	18.09
358.018	-14.68
358.23	-10.58
358.441	97.96
358.653	79.53
358.864	52.91
359.075	52.91
359.287	79.53
359.498	42.67
359.709	34.47
359.921	-12.63
360.132	32.43
360.344	3.75
360.555	3.75
360.766	-0.34
360.977	7.85
361.189	100.01
361.4	44.71
361.611	138.92
361.823	138.92
362.034	40.62
362.245	-80.21
362.456	22.19
362.667	100.01
362.879	38.57
363.09	38.57
363.301	161.45
363.512	26.28
363.723	-26.96
363.935	30.38
364.146	87.72
364.357	-6.49
364.568	36.52
364.779	3.75
364.99	100.01
365.201	-2.39
365.412	140.97
365.623	-12.63
365.834	11.95
366.045	7.85
366.256	71.34
366.467	71.34
366.678	-6.49
366.889	59.05
367.1	-12.63
367.311	67.24
367.522	-14.68
367.733	100.01
367.944	118.44
368.155	46.76
368.366	89.77
368.577	79.53
368.788	112.3
368.999	9.9
369.209	75.43
369.42	200.36
369.631	208.55
369.842	59.05
370.053	-8.53
370.264	73.39
370.474	3.75
370.685	24.23
370.896	57
371.107	108.2
371.317	104.11
371.528	-2.39
371.739	132.78
371.95	61.1
372.16	34.47
372.371	-47.44
372.582	75.43
372.792	11.95
373.003	30.38
373.214	77.48
373.424	38.57
373.635	-55.64
373.846	132.78
374.056	65.19
374.267	40.62
374.477	91.82
374.688	36.52
374.898	11.95
375.109	32.43
375.319	-14.68
375.53	54.95
375.74	26.28
375.951	32.43
376.161	65.19
376.372	100.01
376.582	13.99
376.793	83.63
377.003	24.23
377.214	-24.92
377.424	-8.53
377.635	81.58
377.845	-63.83
378.055	122.54
378.266	5.8
378.476	73.39
378.686	22.19
378.897	40.62
379.107	91.82
379.317	42.67
379.528	9.9
379.738	91.82
379.948	-6.49
380.158	65.19
380.369	59.05
380.579	50.86
380.789	42.67
380.999	108.2
381.21	81.58
381.42	196.26
381.63	63.15
381.84	81.58
382.05	65.19
382.261	124.58
382.471	91.82
382.681	-6.49
382.891	202.41
383.101	89.77
383.311	-6.49
383.521	73.39
383.731	155.3
383.941	104.11
384.151	-8.53
384.361	9.9
384.571	114.34
384.781	120.49
384.991	128.68
385.201	128.68
385.411	67.24
385.621	42.67
385.831	44.71
386.041	46.76
386.251	-31.06
386.461	124.58
386.671	42.67
386.881	30.38
387.091	18.09
387.301	65.19
387.511	-0.34
387.72	16.04
387.93	32.43
388.14	5.8
388.35	69.29
388.56	134.82
388.769	73.39
388.979	40.62
389.189	-14.68
389.399	104.11
389.609	79.53
389.818	73.39
390.028	-39.25
390.238	67.24
390.447	-49.49
390.657	91.82
390.867	59.05
391.076	-55.64
391.286	20.14
391.496	67.24
391.705	46.76
391.915	108.2
392.125	108.2
392.334	1.71
392.544	157.35
392.753	59.05
392.963	-149.84
393.172	67.24
393.382	36.52
393.591	140.97
393.801	65.19
394.01	165.54
394.22	116.39
394.429	89.77
394.639	22.19
394.848	57
395.058	7.85
395.267	79.53
395.477	130.73
395.686	42.67
395.895	194.22
396.105	200.36
396.314	143.02
396.524	44.71
396.733	-0.34
396.942	128.68
397.152	130.73
397.361	108.2
397.57	130.73
397.78	69.29
397.989	16.04
398.198	206.5
398.407	-22.87
398.617	79.53
398.826	89.77
399.035	50.86
399.244	44.71
399.453	112.3
399.663	9.9
399.872	52.91
400.081	-47.44
400.29	175.78
400.499	-2.39
400.708	24.23
400.917	77.48
401.127	79.53
401.336	161.45
401.545	89.77
401.754	122.54
401.963	104.11
402.172	-78.16
402.381	-22.87
402.59	-16.73
402.799	87.72
403.008	81.58
403.217	20.14
403.426	120.49
403.635	-43.35
403.844	-37.2
404.053	77.48
404.262	-8.53
404.471	181.93
404.68	104.11
404.888	77.48
405.097	-18.77
405.306	102.06
405.515	1.71
405.724	-10.58
405.933	38.57
406.142	9.9
406.35	102.06
406.559	1.71
406.768	24.23
406.977	140.97
407.185	46.76
407.394	61.1
407.603	-96.6
407.812	112.3
408.02	136.87
408.229	32.43
408.438	52.91
408.646	13.99
408.855	61.1
409.064	73.39
409.272	20.14
409.481	87.72
409.69	-51.54
409.898	44.71
410.107	40.62
410.315	100.01
410.524	-24.92
410.733	24.23
410.941	100.01
411.15	87.72
411.358	67.24
411.567	75.43
411.775	67.24
411.984	9.9
412.192	112.3
412.401	-31.06
412.609	69.29
412.818	100.01
413.026	145.06
413.234	24.23
413.443	34.47
413.651	3.75
413.86	34.47
414.068	122.54
414.276	95.91
414.485	-12.63
414.693	190.12
414.901	128.68
415.11	106.15
415.318	50.86
415.526	91.82
415.734	175.78
415.943	36.52
416.151	157.35
416.359	93.87
416.567	40.62
416.776	91.82
416.984	97.96
417.192	173.74
417.4	-16.73
417.608	85.67
417.817	-96.6
418.025	132.78
418.233	126.63
418.441	-10.58
418.649	-10.58
418.857	120.49
419.065	108.2
419.273	-10.58
419.481	-45.4
419.689	50.86
419.897	52.91
420.105	5.8
420.313	112.3
420.521	120.49
420.729	128.68
420.937	22.19
421.145	18.09
421.353	83.63
421.561	140.97
421.769	116.39
421.977	50.86
422.185	79.53
422.393	63.15
422.601	32.43
422.809	79.53
423.017	50.86
423.224	69.29
423.432	77.48
423.64	22.19
423.848	91.82
424.056	118.44
424.263	54.95
424.471	81.58
424.679	194.22
424.887	7.85
425.094	83.63
425.302	85.67
425.51	24.23
425.718	89.77
425.925	138.92
426.133	63.15
426.341	173.74
426.548	24.23
426.756	16.04
426.964	124.58
427.171	-8.53
427.379	95.91
427.586	-6.49
427.794	73.39
428.001	91.82
428.209	128.68
428.417	198.31
428.624	136.87
428.832	106.15
429.039	173.74
429.247	71.34
429.454	116.39
429.662	188.07
429.869	81.58
430.076	157.35
430.284	140.97
430.491	155.3
430.699	138.92
430.906	222.89
431.114	140.97
431.321	153.26
431.528	138.92
431.736	177.83
431.943	194.22
432.15	126.63
432.358	167.59
432.565	226.98
432.772	-31.06
432.979	206.5
433.187	87.72
433.394	194.22
433.601	85.67
433.808	210.6
434.016	251.56
434.223	194.22
434.43	151.21
434.637	214.7
434.844	253.61
435.052	181.93
435.259	235.18
435.466	284.33
435.673	269.99
435.88	226.98
436.087	333.48
436.294	323.24
436.501	245.41
436.708	165.54
436.915	226.98
437.122	296.61
437.329	222.89
437.537	214.7
437.743	206.5
437.95	419.49
438.157	327.33
438.364	345.77
438.571	382.63
438.778	405.16
438.985	446.12
439.192	419.49
439.399	376.48
439.606	435.88
439.813	517.79
440.02	558.75
440.227	536.23
440.433	501.41
440.64	466.6
440.847	419.49
441.054	575.14
441.261	671.39
441.467	583.33
441.674	503.46
441.881	618.15
442.088	579.23
442.294	661.15
442.501	689.82
442.708	685.73
442.914	685.73
443.121	822.94
443.328	802.46
443.534	833.18
443.741	761.5
443.948	751.26
444.154	908.96
444.361	951.96
444.568	859.81
444.774	964.25
444.981	872.09
445.187	1054.36
445.394	1070.75
445.6	1076.89
445.807	1164.95
446.013	1056.41
446.22	1050.27
446.426	1269.4
446.633	1316.5
446.839	1482.39
447.046	1287.83
447.252	1457.81
447.459	1457.81
447.665	1418.9
447.871	1515.16
448.078	1744.53
448.284	1685.14
448.491	1750.67
448.697	1851.02
448.903	1926.8
449.11	1896.08
449.316	1975.95
449.522	2135.69
449.728	2188.94
449.935	2252.42
450.141	2266.76
450.347	2356.87
450.553	2348.68
450.76	2332.3
450.966	2612.87
451.172	2553.48
451.378	2770.56
451.584	2844.29
451.791	2987.65
451.997	3167.87
452.203	3208.83
452.409	3364.47
452.615	3397.24
452.821	3329.66
453.027	3409.53
453.233	3890.8
453.44	3749.49
453.646	3937.9
453.852	4081.26
454.058	4345.45
454.264	4245.1
454.47	4716.13
454.676	4732.51
454.882	5070.43
455.088	4914.78
455.294	5086.81
455.5	5441.11
455.705	5727.83
455.911	5815.89
456.117	5961.3
456.323	6149.71
456.529	6233.68
456.735	6749.76
456.941	6923.84
457.147	7071.29
457.352	7247.42
457.558	7480.89
457.764	8187.44
457.97	8142.38
458.176	8590.89
458.381	8959.52
458.587	9149.98
458.793	9465.37
458.999	9563.67
459.204	10761.73
459.41	11218.43
459.616	11025.92
459.821	11527.67
460.027	11986.42
460.233	12553.71
460.438	12711.4
460.644	13559.26
460.85	13927.89
461.055	13948.37
461.261	14730.7
461.466	14681.55
461.672	14777.8
461.878	16522.67
462.083	16459.18
462.289	16752.04
462.494	17364.39
462.7	17573.28
462.905	17847.71
463.111	19389.83
463.316	20315.51
463.522	20503.92
463.727	21036.39
463.932	22060.38
464.138	22353.24
464.343	23399.75
464.549	23594.31
464.754	25695.52
464.959	25945.37
465.165	26635.54
465.37	26342.68
465.575	26420.5
465.781	28103.93
465.986	29218.03
466.191	28591.35
466.397	28607.73
466.602	27862.27
466.807	29787.36
467.012	30639.32
467.218	31087.82
467.423	30948.56
467.628	32009.41
467.833	33381.55
468.038	32836.79
468.244	32398.52
468.449	33596.59
468.654	33383.6
468.859	33041.59
469.064	32974
469.269	32341.18
