Data from USB4F104151__77__11-31-07-363.txt Node

Date: Wed Feb 26 11:31:07 EST 2025
User: louis
Spectrometer: USB4F10415
Trigger mode: 4
Integration Time (sec): 1.000000E-1
Scans to average: 1
Electric dark correction enabled: true
Nonlinearity correction enabled: false
Boxcar width: 0
XAxis mode: Wavelengths
Number of Pixels in Spectrum: 3648
>>>>>Begin Spectral Data<<<<<
178.204	-394.58
178.424	-394.58
178.644	-394.58
178.864	-402.77
179.084	-404.82
179.304	-66.9
179.524	21.16
179.744	-5.46
179.964	98.99
180.184	4.78
180.404	101.03
180.624	-9.56
180.844	-52.56
181.064	-132.44
181.283	27.31
181.503	-13.65
181.723	27.31
181.943	-62.8
182.163	166.57
182.383	-15.7
182.602	2.73
182.822	141.99
183.042	74.41
183.262	-7.51
183.482	-30.04
183.701	74.41
183.921	146.09
184.141	-40.28
184.361	141.99
184.58	37.55
184.8	35.5
185.02	-71
185.239	33.45
185.459	72.36
185.679	103.08
185.898	-21.85
186.118	0.68
186.338	86.7
186.557	131.75
186.777	8.87
186.997	86.7
187.216	37.55
187.436	180.9
187.655	33.45
187.875	80.55
188.095	19.11
188.314	125.61
188.534	213.67
188.753	-13.65
188.973	96.94
189.192	234.15
189.412	29.35
189.631	-52.56
189.851	98.99
190.07	217.77
190.29	-75.09
190.509	6.83
190.729	49.83
190.948	125.61
191.168	185
191.387	74.41
191.607	-7.51
191.826	33.45
192.045	-25.94
192.265	-62.8
192.484	31.4
192.704	53.93
192.923	-52.56
193.142	189.1
193.362	111.27
193.581	148.14
193.8	25.26
194.02	141.99
194.239	-48.47
194.458	53.93
194.678	45.74
194.897	10.92
195.116	41.64
195.335	82.6
195.555	107.18
195.774	12.97
195.993	90.79
196.212	10.92
196.432	12.97
196.651	51.88
196.87	19.11
197.089	242.34
197.308	88.75
197.528	64.17
197.747	-23.89
197.966	-3.41
198.185	228.01
198.404	-30.04
198.623	223.91
198.842	21.16
199.062	105.13
199.281	82.6
199.5	49.83
199.719	96.94
199.938	35.5
200.157	72.36
200.376	98.99
200.595	111.27
200.814	146.09
201.033	23.21
201.252	51.88
201.471	94.89
201.69	12.97
201.909	88.75
202.128	78.51
202.347	154.28
202.566	8.87
202.785	-17.75
203.004	-27.99
203.223	209.58
203.442	45.74
203.661	-3.41
203.879	88.75
204.098	92.84
204.317	-56.66
204.536	166.57
204.755	-34.13
204.974	172.71
205.193	78.51
205.411	70.31
205.63	148.14
205.849	43.69
206.068	-46.42
206.287	12.97
206.505	152.23
206.724	49.83
206.943	66.22
207.162	55.98
207.381	70.31
207.599	68.27
207.818	8.87
208.037	19.11
208.255	101.03
208.474	137.9
208.693	51.88
208.911	2.73
209.13	82.6
209.349	51.88
209.567	103.08
209.786	84.65
210.005	129.7
210.223	25.26
210.442	-91.48
210.661	37.55
210.879	125.61
211.098	21.16
211.316	21.16
211.535	98.99
211.753	27.31
211.972	101.03
212.191	107.18
212.409	43.69
212.628	94.89
212.846	43.69
213.065	4.78
213.283	35.5
213.502	53.93
213.72	82.6
213.938	49.83
214.157	17.07
214.375	139.94
214.594	33.45
214.812	19.11
215.031	25.26
215.249	80.55
215.467	55.98
215.686	37.55
215.904	105.13
216.122	17.07
216.341	127.66
216.559	41.64
216.778	115.37
216.996	168.62
217.214	39.59
217.432	17.07
217.651	-62.8
217.869	55.98
218.087	17.07
218.306	45.74
218.524	6.83
218.742	2.73
218.96	19.11
219.179	133.8
219.397	86.7
219.615	240.29
219.833	84.65
220.051	12.97
220.27	80.55
220.488	113.32
220.706	98.99
220.924	2.73
221.142	2.73
221.36	64.17
221.578	23.21
221.796	-36.18
222.015	35.5
222.233	35.5
222.451	144.04
222.669	-13.65
222.887	37.55
223.105	58.03
223.323	90.79
223.541	-75.09
223.759	51.88
223.977	37.55
224.195	141.99
224.413	137.9
224.631	-11.61
224.849	41.64
225.067	256.68
225.285	-42.32
225.503	19.11
225.721	-163.15
225.939	21.16
226.157	-7.51
226.375	240.29
226.592	-5.46
226.81	12.97
227.028	80.55
227.246	92.84
227.464	68.27
227.682	131.75
227.9	6.83
228.117	84.65
228.335	25.26
228.553	70.31
228.771	82.6
228.989	53.93
229.206	127.66
229.424	47.79
229.642	-9.56
229.86	25.26
230.077	123.56
230.295	70.31
230.513	123.56
230.731	78.51
230.948	133.8
231.166	84.65
231.384	43.69
231.601	-71
231.819	156.33
232.037	31.4
232.254	51.88
232.472	49.83
232.689	72.36
232.907	127.66
233.125	-54.61
233.342	-5.46
233.56	-17.75
233.777	74.41
233.995	-30.04
234.213	170.66
234.43	176.81
234.648	4.78
234.865	119.46
235.083	90.79
235.3	64.17
235.518	141.99
235.735	125.61
235.953	62.12
236.17	64.17
236.388	-3.41
236.605	25.26
236.822	160.42
237.04	105.13
237.257	10.92
237.475	-62.8
237.692	19.11
237.909	49.83
238.127	37.55
238.344	72.36
238.562	78.51
238.779	-40.28
238.996	4.78
239.214	-13.65
239.431	98.99
239.648	74.41
239.865	62.12
240.083	58.03
240.3	37.55
240.517	-25.94
240.735	33.45
240.952	182.95
241.169	119.46
241.386	111.27
241.603	29.35
241.821	-54.61
242.038	4.78
242.255	123.56
242.472	-36.18
242.689	74.41
242.907	105.13
243.124	68.27
243.341	74.41
243.558	-42.32
243.775	-17.75
243.992	-17.75
244.209	12.97
244.426	195.24
244.643	148.14
244.86	-23.89
245.078	115.37
245.295	0.68
245.512	51.88
245.729	-7.51
245.946	47.79
246.163	39.59
246.38	-46.42
246.597	68.27
246.814	64.17
247.031	-40.28
247.248	76.46
247.464	135.85
247.681	17.07
247.898	23.21
248.115	51.88
248.332	29.35
248.549	127.66
248.766	205.48
248.983	-7.51
249.2	92.84
249.417	133.8
249.633	8.87
249.85	117.42
250.067	27.31
250.284	25.26
250.501	23.21
250.717	60.07
250.934	-42.32
251.151	23.21
251.368	8.87
251.585	68.27
251.801	33.45
252.018	-58.71
252.235	146.09
252.451	-7.51
252.668	72.36
252.885	98.99
253.102	78.51
253.318	4.78
253.535	96.94
253.752	62.12
253.968	35.5
254.185	-48.47
254.401	78.51
254.618	92.84
254.835	-42.32
255.051	127.66
255.268	45.74
255.484	53.93
255.701	0.68
255.917	-7.51
256.134	-48.47
256.351	-21.85
256.567	4.78
256.784	129.7
257	21.16
257.217	35.5
257.433	139.94
257.65	41.64
257.866	164.52
258.082	-71
258.299	8.87
258.515	53.93
258.732	27.31
258.948	8.87
259.165	113.32
259.381	-13.65
259.597	49.83
259.814	6.83
260.03	37.55
260.246	-75.09
260.463	68.27
260.679	105.13
260.895	94.89
261.112	109.22
261.328	72.36
261.544	23.21
261.761	158.38
261.977	-25.94
262.193	78.51
262.409	148.14
262.626	27.31
262.842	101.03
263.058	70.31
263.274	101.03
263.49	98.99
263.707	191.14
263.923	8.87
264.139	-52.56
264.355	12.97
264.571	141.99
264.787	150.18
265.004	101.03
265.22	-15.7
265.436	-3.41
265.652	103.08
265.868	37.55
266.084	-79.19
266.3	47.79
266.516	-40.28
266.732	35.5
266.948	66.22
267.164	92.84
267.38	156.33
267.596	115.37
267.812	135.85
268.028	117.42
268.244	111.27
268.46	0.68
268.676	-54.61
268.892	27.31
269.108	-97.62
269.324	4.78
269.54	-17.75
269.756	185
269.972	-40.28
270.188	39.59
270.403	-54.61
270.619	72.36
270.835	139.94
271.051	96.94
271.267	-36.18
271.483	-11.61
271.698	146.09
271.914	53.93
272.13	55.98
272.346	45.74
272.562	90.79
272.777	123.56
272.993	31.4
273.209	-73.04
273.425	82.6
273.64	-21.85
273.856	37.55
274.072	25.26
274.287	-38.23
274.503	74.41
274.719	98.99
274.934	-56.66
275.15	-89.43
275.366	49.83
275.581	-27.99
275.797	-34.13
276.012	121.51
276.228	41.64
276.444	-42.32
276.659	111.27
276.875	-34.13
277.09	-11.61
277.306	-27.99
277.521	37.55
277.737	-36.18
277.952	62.12
278.168	39.59
278.383	37.55
278.599	37.55
278.814	148.14
279.03	31.4
279.245	133.8
279.461	98.99
279.676	129.7
279.892	-46.42
280.107	-19.8
280.322	25.26
280.538	84.65
280.753	-42.32
280.969	43.69
281.184	51.88
281.399	123.56
281.615	35.5
281.83	148.14
282.045	-99.67
282.26	12.97
282.476	96.94
282.691	117.42
282.906	37.55
283.122	15.02
283.337	-79.19
283.552	68.27
283.767	17.07
283.983	125.61
284.198	12.97
284.413	117.42
284.628	-46.42
284.843	43.69
285.058	80.55
285.274	-19.8
285.489	-19.8
285.704	90.79
285.919	43.69
286.134	109.22
286.349	31.4
286.564	-38.23
286.779	98.99
286.995	17.07
287.21	-89.43
287.425	-11.61
287.64	-11.61
287.855	62.12
288.07	-38.23
288.285	111.27
288.5	31.4
288.715	68.27
288.93	78.51
289.145	8.87
289.36	113.32
289.575	68.27
289.79	162.47
290.004	39.59
290.219	62.12
290.434	27.31
290.649	-54.61
290.864	25.26
291.079	21.16
291.294	33.45
291.509	51.88
291.724	-11.61
291.938	-19.8
292.153	103.08
292.368	-19.8
292.583	45.74
292.798	68.27
293.012	-7.51
293.227	115.37
293.442	25.26
293.657	92.84
293.871	109.22
294.086	68.27
294.301	217.77
294.516	92.84
294.73	103.08
294.945	-30.04
295.16	49.83
295.374	131.75
295.589	125.61
295.804	53.93
296.018	121.51
296.233	160.42
296.447	49.83
296.662	-21.85
296.877	119.46
297.091	103.08
297.306	29.35
297.52	-32.08
297.735	154.28
297.949	41.64
298.164	17.07
298.378	25.26
298.593	-52.56
298.807	-11.61
299.022	45.74
299.236	160.42
299.451	-58.71
299.665	51.88
299.88	37.55
300.094	84.65
300.309	60.07
300.523	111.27
300.737	-15.7
300.952	31.4
301.166	101.03
301.381	51.88
301.595	35.5
301.809	82.6
302.024	12.97
302.238	-48.47
302.452	154.28
302.667	25.26
302.881	189.1
303.095	103.08
303.309	84.65
303.524	-30.04
303.738	-21.85
303.952	-1.37
304.166	139.94
304.381	-79.19
304.595	215.72
304.809	-56.66
305.023	43.69
305.237	39.59
305.452	12.97
305.666	137.9
305.88	125.61
306.094	113.32
306.308	80.55
306.522	76.46
306.736	103.08
306.95	90.79
307.164	60.07
307.379	15.02
307.593	78.51
307.807	111.27
308.021	127.66
308.235	96.94
308.449	-81.24
308.663	53.93
308.877	234.15
309.091	-62.8
309.305	62.12
309.519	-71
309.733	148.14
309.947	-87.38
310.161	111.27
310.374	49.83
310.588	164.52
310.802	-7.51
311.016	-36.18
311.23	74.41
311.444	-68.95
311.658	-25.94
311.872	195.24
312.085	154.28
312.299	94.89
312.513	156.33
312.727	64.17
312.941	-11.61
313.154	35.5
313.368	2.73
313.582	8.87
313.796	68.27
314.009	19.11
314.223	133.8
314.437	113.32
314.651	76.46
314.864	43.69
315.078	62.12
315.292	-44.37
315.505	-38.23
315.719	76.46
315.933	98.99
316.146	-5.46
316.36	-52.56
316.573	176.81
316.787	96.94
317.001	109.22
317.214	-1.37
317.428	103.08
317.641	58.03
317.855	-25.94
318.068	6.83
318.282	62.12
318.495	170.66
318.709	53.93
318.922	66.22
319.136	152.23
319.349	103.08
319.563	37.55
319.776	47.79
319.99	-38.23
320.203	125.61
320.417	33.45
320.63	78.51
320.843	197.29
321.057	10.92
321.27	35.5
321.483	80.55
321.697	127.66
321.91	21.16
322.124	103.08
322.337	19.11
322.55	-27.99
322.763	-3.41
322.977	-23.89
323.19	-7.51
323.403	123.56
323.617	154.28
323.83	164.52
324.043	-27.99
324.256	23.21
324.469	4.78
324.683	160.42
324.896	74.41
325.109	45.74
325.322	-114
325.535	107.18
325.748	96.94
325.962	29.35
326.175	121.51
326.388	-27.99
326.601	88.75
326.814	-11.61
327.027	107.18
327.24	144.04
327.453	-21.85
327.666	84.65
327.879	119.46
328.092	39.59
328.305	45.74
328.518	21.16
328.731	-21.85
328.944	35.5
329.157	49.83
329.37	12.97
329.583	223.91
329.796	94.89
330.009	-50.52
330.222	74.41
330.435	66.22
330.648	76.46
330.861	35.5
331.073	82.6
331.286	162.47
331.499	35.5
331.712	-97.62
331.925	35.5
332.138	-46.42
332.35	92.84
332.563	-95.57
332.776	141.99
332.989	23.21
333.202	12.97
333.414	60.07
333.627	-13.65
333.84	-60.76
334.053	31.4
334.265	-9.56
334.478	-13.65
334.691	-32.08
334.903	164.52
335.116	-34.13
335.329	45.74
335.541	107.18
335.754	164.52
335.966	-15.7
336.179	27.31
336.392	27.31
336.604	105.13
336.817	111.27
337.029	27.31
337.242	45.74
337.454	25.26
337.667	72.36
337.88	178.86
338.092	17.07
338.305	66.22
338.517	25.26
338.729	119.46
338.942	94.89
339.154	-19.8
339.367	45.74
339.579	119.46
339.792	-58.71
340.004	41.64
340.217	117.42
340.429	76.46
340.641	-42.32
340.854	64.17
341.066	-23.89
341.278	74.41
341.491	209.58
341.703	8.87
341.915	-27.99
342.128	72.36
342.34	123.56
342.552	-5.46
342.764	101.03
342.977	62.12
343.189	168.62
343.401	31.4
343.613	-58.71
343.826	60.07
344.038	23.21
344.25	94.89
344.462	-95.57
344.674	64.17
344.886	-7.51
345.099	53.93
345.311	137.9
345.523	35.5
345.735	-54.61
345.947	86.7
346.159	10.92
346.371	115.37
346.583	70.31
346.795	281.25
347.007	37.55
347.219	-3.41
347.431	35.5
347.643	101.03
347.855	23.21
348.067	176.81
348.279	-25.94
348.491	41.64
348.703	103.08
348.915	10.92
349.127	-5.46
349.339	80.55
349.551	-36.18
349.763	51.88
349.975	-19.8
350.187	129.7
350.399	98.99
350.61	78.51
350.822	19.11
351.034	131.75
351.246	-9.56
351.458	119.46
351.669	168.62
351.881	29.35
352.093	117.42
352.305	31.4
352.517	127.66
352.728	101.03
352.94	10.92
353.152	117.42
353.363	27.31
353.575	43.69
353.787	250.53
353.999	80.55
354.21	180.9
354.422	-3.41
354.633	-34.13
354.845	60.07
355.057	21.16
355.268	33.45
355.48	144.04
355.692	-73.04
355.903	-5.46
356.115	-46.42
356.326	-15.7
356.538	117.42
356.749	90.79
356.961	137.9
357.172	62.12
357.384	2.73
357.595	250.53
357.807	-1.37
358.018	37.55
358.23	105.13
358.441	150.18
358.653	25.26
358.864	-3.41
359.075	4.78
359.287	47.79
359.498	121.51
359.709	66.22
359.921	-52.56
360.132	94.89
360.344	25.26
360.555	-21.85
360.766	98.99
360.977	27.31
361.189	76.46
361.4	-11.61
361.611	68.27
361.823	154.28
362.034	10.92
362.245	-75.09
362.456	25.26
362.667	80.55
362.879	-34.13
363.09	66.22
363.301	47.79
363.512	82.6
363.723	-15.7
363.935	19.11
364.146	78.51
364.357	-3.41
364.568	76.46
364.779	-68.95
364.99	84.65
365.201	-1.37
365.412	131.75
365.623	-73.04
365.834	68.27
366.045	43.69
366.256	66.22
366.467	103.08
366.678	-7.51
366.889	39.59
367.1	-44.37
367.311	115.37
367.522	-27.99
367.733	135.85
367.944	68.27
368.155	33.45
368.366	123.56
368.577	176.81
368.788	180.9
368.999	12.97
369.209	113.32
369.42	262.82
369.631	209.58
369.842	121.51
370.053	35.5
370.264	76.46
370.474	-87.38
370.685	43.69
370.896	27.31
371.107	101.03
371.317	98.99
371.528	-42.32
371.739	160.42
371.95	29.35
372.16	92.84
372.371	15.02
372.582	58.03
372.792	121.51
373.003	72.36
373.214	170.66
373.424	80.55
373.635	66.22
373.846	137.9
374.056	88.75
374.267	25.26
374.477	70.31
374.688	37.55
374.898	195.24
375.109	29.35
375.319	29.35
375.53	113.32
375.74	168.62
375.951	-50.52
376.161	94.89
376.372	109.22
376.582	41.64
376.793	10.92
377.003	31.4
377.214	-5.46
377.424	98.99
377.635	74.41
377.845	8.87
378.055	117.42
378.266	-42.32
378.476	31.4
378.686	90.79
378.897	141.99
379.107	107.18
379.317	105.13
379.528	68.27
379.738	105.13
379.948	-44.37
380.158	109.22
380.369	8.87
380.579	21.16
380.789	29.35
380.999	162.47
381.21	86.7
381.42	156.33
381.63	66.22
381.84	119.46
382.05	72.36
382.261	172.71
382.471	133.8
382.681	2.73
382.891	217.77
383.101	78.51
383.311	-11.61
383.521	-13.65
383.731	123.56
383.941	117.42
384.151	164.52
384.361	25.26
384.571	70.31
384.781	66.22
384.991	215.72
385.201	207.53
385.411	141.99
385.621	15.02
385.831	109.22
386.041	51.88
386.251	45.74
386.461	113.32
386.671	58.03
386.881	53.93
387.091	6.83
387.301	150.18
387.511	47.79
387.72	84.65
387.93	146.09
388.14	-38.23
388.35	17.07
388.56	43.69
388.769	76.46
388.979	29.35
389.189	-64.85
389.399	86.7
389.609	82.6
389.818	33.45
390.028	6.83
390.238	-3.41
390.447	35.5
390.657	68.27
390.867	29.35
391.076	-19.8
391.286	58.03
391.496	78.51
391.705	47.79
391.915	84.65
392.125	82.6
392.334	29.35
392.544	215.72
392.753	23.21
392.963	-7.51
393.172	98.99
393.382	6.83
393.591	182.95
393.801	-27.99
394.01	193.19
394.22	74.41
394.429	66.22
394.639	66.22
394.848	68.27
395.058	35.5
395.267	33.45
395.477	92.84
395.686	10.92
395.895	158.38
396.105	221.86
396.314	58.03
396.524	92.84
396.733	27.31
396.942	62.12
397.152	98.99
397.361	131.75
397.57	66.22
397.78	62.12
397.989	94.89
398.198	193.19
398.407	74.41
398.617	109.22
398.826	111.27
399.035	55.98
399.244	107.18
399.453	66.22
399.663	146.09
399.872	39.59
400.081	12.97
400.29	154.28
400.499	60.07
400.708	88.75
400.917	0.68
401.127	115.37
401.336	66.22
401.545	195.24
401.754	41.64
401.963	148.14
402.172	94.89
402.381	-56.66
402.59	-9.56
402.799	76.46
403.008	119.46
403.217	76.46
403.426	62.12
403.635	-56.66
403.844	64.17
404.053	27.31
404.262	45.74
404.471	144.04
404.68	39.59
404.888	76.46
405.097	76.46
405.306	62.12
405.515	115.37
405.724	-25.94
405.933	80.55
406.142	2.73
406.35	64.17
406.559	45.74
406.768	78.51
406.977	135.85
407.185	41.64
407.394	27.31
407.603	-17.75
407.812	62.12
408.02	135.85
408.229	45.74
408.438	94.89
408.646	-71
408.855	86.7
409.064	51.88
409.272	-3.41
409.481	76.46
409.69	-34.13
409.898	-17.75
410.107	103.08
410.315	117.42
410.524	72.36
410.733	-1.37
410.941	15.02
411.15	144.04
411.358	62.12
411.567	135.85
411.775	25.26
411.984	103.08
412.192	109.22
412.401	45.74
412.609	49.83
412.818	96.94
413.026	109.22
413.234	39.59
413.443	31.4
413.651	43.69
413.86	66.22
414.068	144.04
414.276	166.57
414.485	35.5
414.693	133.8
414.901	197.29
415.11	111.27
415.318	35.5
415.526	96.94
415.734	172.71
415.943	115.37
416.151	164.52
416.359	55.98
416.567	45.74
416.776	158.38
416.984	90.79
417.192	125.61
417.4	-77.14
417.608	45.74
417.817	-77.14
418.025	88.75
418.233	166.57
418.441	-15.7
418.649	10.92
418.857	68.27
419.065	250.53
419.273	-1.37
419.481	133.8
419.689	-19.8
419.897	-25.94
420.105	-73.04
420.313	115.37
420.521	176.81
420.729	117.42
420.937	-54.61
421.145	-38.23
421.353	117.42
421.561	144.04
421.769	129.7
421.977	23.21
422.185	98.99
422.393	66.22
422.601	0.68
422.809	166.57
423.017	33.45
423.224	84.65
423.432	123.56
423.64	60.07
423.848	129.7
424.056	-3.41
424.263	21.16
424.471	2.73
424.679	203.43
424.887	-91.48
425.094	103.08
425.302	119.46
425.51	88.75
425.718	109.22
425.925	60.07
426.133	8.87
426.341	182.95
426.548	17.07
426.756	19.11
426.964	150.18
427.171	21.16
427.379	158.38
427.586	86.7
427.794	131.75
428.001	129.7
428.209	117.42
428.417	137.9
428.624	152.23
428.832	66.22
429.039	111.27
429.247	90.79
429.454	189.1
429.662	182.95
429.869	150.18
430.076	23.21
430.284	49.83
430.491	178.86
430.699	125.61
430.906	156.33
431.114	133.8
431.321	152.23
431.528	137.9
431.736	55.98
431.943	150.18
432.15	189.1
432.358	219.82
432.565	193.19
432.772	49.83
432.979	176.81
433.187	121.51
433.394	180.9
433.601	107.18
433.808	193.19
434.016	203.43
434.223	256.68
434.43	230.06
434.637	207.53
434.844	264.87
435.052	162.47
435.259	185
435.466	185
435.673	217.77
435.88	225.96
436.087	285.35
436.294	279.21
436.501	334.5
436.708	228.01
436.915	230.06
437.122	291.49
437.329	178.86
437.537	264.87
437.743	363.17
437.95	412.32
438.157	281.25
438.364	316.07
438.571	316.07
438.778	402.08
438.985	406.18
439.192	303.78
439.399	367.27
439.606	316.07
439.813	342.69
440.02	516.77
440.227	598.69
440.433	496.29
440.64	422.56
440.847	443.04
441.054	457.38
441.261	656.03
441.467	524.96
441.674	473.76
441.881	539.3
442.088	453.28
442.294	584.35
442.501	590.5
442.708	692.9
442.914	576.16
443.121	664.22
443.328	780.96
443.534	733.86
443.741	676.51
443.948	561.83
444.154	764.58
444.361	852.64
444.568	766.62
444.774	926.36
444.981	744.1
445.187	950.94
445.394	924.32
445.6	963.23
445.807	1049.24
446.013	952.99
446.22	946.84
446.426	1049.24
446.633	1174.17
446.839	1360.53
447.046	1127.07
447.252	1299.09
447.459	1260.18
447.665	1272.47
447.871	1518.23
448.078	1571.47
448.284	1530.52
448.491	1571.47
448.697	1716.88
448.903	1639.06
449.11	1786.51
449.316	1708.69
449.522	1938.06
449.728	1942.16
449.935	1940.11
450.141	1938.06
450.347	2210.44
450.553	2128.52
450.76	2263.69
450.966	2269.83
451.172	2359.94
451.378	2599.56
451.584	2548.36
451.791	2679.43
451.997	2777.73
452.203	2802.3
452.409	3033.72
452.615	3046.01
452.821	3033.72
453.027	2931.33
453.233	3439.22
453.44	3320.44
453.646	3510.9
453.852	3756.66
454.058	3793.52
454.264	3930.73
454.47	4233.83
454.676	4237.93
454.882	4553.32
455.088	4414.06
455.294	4625
455.5	4973.15
455.705	5210.72
455.911	5247.58
456.117	5333.59
456.323	5632.6
456.529	5505.62
456.735	5993.04
456.941	6267.47
457.147	6638.15
457.352	6568.52
457.558	6984.26
457.764	7184.96
457.97	7537.21
458.176	7801.4
458.381	8215.09
458.587	8460.84
458.793	8700.45
458.999	8946.21
459.204	9808.4
459.41	10324.49
459.616	9857.56
459.821	10377.74
460.027	10856.96
460.233	11510.27
460.438	11661.82
460.644	12302.83
460.85	12517.87
461.055	12933.61
461.261	13631.96
461.466	13101.54
461.672	13511.13
461.878	15436.22
462.083	15018.44
462.289	15051.2
462.494	15770.04
462.7	16110
462.905	16259.51
463.111	17439.14
463.316	18485.65
463.522	18794.89
463.727	19245.44
463.932	20294.01
464.138	20687.22
464.343	21426.53
464.549	21535.07
464.754	23161.16
464.959	23834.94
465.165	24533.3
465.37	24240.44
465.575	24074.56
465.781	25762.08
465.986	26501.4
466.191	26073.37
466.397	26427.67
466.602	26009.89
466.807	26880.27
467.012	27947.26
467.218	28195.07
467.423	28229.88
467.628	29141.23
467.833	30583
468.038	30200.03
468.244	29413.61
468.449	31047.89
468.654	30472.41
