Data from USB4F104151__114__10-36-28-410.txt Node

Date: Wed Feb 26 10:36:28 EST 2025
User: louis
Spectrometer: USB4F10415
Trigger mode: 4
Integration Time (sec): 1.000000E-1
Scans to average: 1
Electric dark correction enabled: true
Nonlinearity correction enabled: false
Boxcar width: 0
XAxis mode: Wavelengths
Number of Pixels in Spectrum: 3648
>>>>>Begin Spectral Data<<<<<
178.204	-456.19
178.424	-456.19
178.644	-456.19
178.864	-402.94
179.084	-353.79
179.304	12.8
179.524	8.7
179.744	18.94
179.964	74.24
180.184	2.56
180.404	14.85
180.624	-54.78
180.844	-13.82
181.064	-112.13
181.283	74.24
181.503	-32.26
181.723	6.66
181.943	-110.08
182.163	213.5
182.383	-7.68
182.602	-1.54
182.822	152.06
183.042	37.38
183.262	31.23
183.482	-52.74
183.701	33.28
183.921	-1.54
184.141	-65.02
184.361	117.25
184.58	49.66
184.8	25.09
185.02	8.7
185.239	37.38
185.459	119.29
185.679	133.63
185.898	-77.31
186.118	35.33
186.338	61.95
186.557	139.77
186.777	-56.83
186.997	-13.82
187.216	29.18
187.436	254.46
187.655	92.67
187.875	96.77
188.095	41.47
188.314	129.53
188.534	88.57
188.753	-38.4
188.973	70.14
189.192	135.68
189.412	16.9
189.631	10.75
189.851	152.06
190.07	219.64
190.29	-24.06
190.509	41.47
190.729	14.85
190.948	139.77
191.168	221.69
191.387	23.04
191.607	25.09
191.826	51.71
192.045	61.95
192.265	90.62
192.484	20.99
192.704	82.43
192.923	-103.93
193.142	141.82
193.362	166.4
193.581	195.07
193.8	96.77
194.02	88.57
194.239	-15.87
194.458	92.67
194.678	84.48
194.897	-26.11
195.116	53.76
195.335	84.48
195.555	10.75
195.774	-15.87
195.993	102.91
196.212	51.71
196.432	4.61
196.651	29.18
196.87	35.33
197.089	256.51
197.308	39.42
197.528	80.38
197.747	-89.6
197.966	31.23
198.185	184.83
198.404	-15.87
198.623	137.73
198.842	121.34
199.062	57.86
199.281	135.68
199.5	33.28
199.719	64
199.938	59.9
200.157	68.09
200.376	127.49
200.595	139.77
200.814	35.33
201.033	31.23
201.252	182.78
201.471	57.86
201.69	90.62
201.909	53.76
202.128	102.91
202.347	141.82
202.566	57.86
202.785	-75.26
203.004	-9.73
203.223	268.8
203.442	66.05
203.661	-60.93
203.879	133.63
204.098	82.43
204.317	-30.21
204.536	53.76
204.755	59.9
204.974	115.2
205.193	-34.3
205.411	135.68
205.63	168.45
205.849	59.9
206.068	-7.68
206.287	-22.02
206.505	168.45
206.724	78.33
206.943	-46.59
207.162	-13.82
207.381	68.09
207.599	-9.73
207.818	74.24
208.037	-32.26
208.255	-11.78
208.474	119.29
208.693	98.81
208.911	8.7
209.13	123.39
209.349	23.04
209.567	100.86
209.786	33.28
210.005	180.73
210.223	82.43
210.442	-60.93
210.661	27.14
210.879	49.66
211.098	2.56
211.316	41.47
211.535	98.81
211.753	33.28
211.972	49.66
212.191	-11.78
212.409	18.94
212.628	107.01
212.846	25.09
213.065	-1.54
213.283	88.57
213.502	6.66
213.72	98.81
213.938	66.05
214.157	41.47
214.375	102.91
214.594	33.28
214.812	111.1
215.031	4.61
215.249	37.38
215.467	88.57
215.686	33.28
215.904	61.95
216.122	41.47
216.341	133.63
216.559	39.42
216.778	182.78
216.996	186.88
217.214	37.38
217.432	23.04
217.651	-30.21
217.869	-32.26
218.087	61.95
218.306	16.9
218.524	59.9
218.742	-19.97
218.96	188.93
219.179	76.29
219.397	33.28
219.615	270.84
219.833	41.47
220.051	-28.16
220.27	100.86
220.488	131.58
220.706	66.05
220.924	-30.21
221.142	-7.68
221.36	123.39
221.578	117.25
221.796	-32.26
222.015	35.33
222.233	43.52
222.451	174.59
222.669	23.04
222.887	80.38
223.105	18.94
223.323	23.04
223.541	-22.02
223.759	72.19
223.977	39.42
224.195	162.3
224.413	139.77
224.631	61.95
224.849	82.43
225.067	317.95
225.285	-1.54
225.503	-17.92
225.721	-75.26
225.939	84.48
226.157	76.29
226.375	219.64
226.592	-58.88
226.81	49.66
227.028	186.88
227.246	182.78
227.464	90.62
227.682	70.14
227.9	6.66
228.117	43.52
228.335	27.14
228.553	-15.87
228.771	90.62
228.989	104.96
229.206	66.05
229.424	47.62
229.642	53.76
229.86	-30.21
230.077	88.57
230.295	80.38
230.513	84.48
230.731	125.44
230.948	201.21
231.166	135.68
231.384	39.42
231.601	-44.54
231.819	207.36
232.037	4.61
232.254	8.7
232.472	33.28
232.689	6.66
232.907	152.06
233.125	10.75
233.342	-108.03
233.56	16.9
233.777	113.15
233.995	-87.55
234.213	172.54
234.43	107.01
234.648	113.15
234.865	-9.73
235.083	102.91
235.3	29.18
235.518	111.1
235.735	152.06
235.953	64
236.17	27.14
236.388	64
236.605	68.09
236.822	109.05
237.04	100.86
237.257	133.63
237.475	-30.21
237.692	64
237.909	49.66
238.127	53.76
238.344	70.14
238.562	61.95
238.779	2.56
238.996	-77.31
239.214	104.96
239.431	109.05
239.648	25.09
239.865	133.63
240.083	127.49
240.3	74.24
240.517	20.99
240.735	49.66
240.952	119.29
241.169	-32.26
241.386	123.39
241.603	-65.02
241.821	-124.41
242.038	115.2
242.255	229.88
242.472	43.52
242.689	119.29
242.907	80.38
243.124	61.95
243.341	41.47
243.558	4.61
243.775	-77.31
243.992	2.56
244.209	90.62
244.426	131.58
244.643	127.49
244.86	-69.12
245.078	199.16
245.295	2.56
245.512	37.38
245.729	-42.5
245.946	115.2
246.163	39.42
246.38	88.57
246.597	33.28
246.814	84.48
247.031	76.29
247.248	61.95
247.464	86.53
247.681	113.15
247.898	59.9
248.115	90.62
248.332	6.66
248.549	166.4
248.766	127.49
248.983	121.34
249.2	139.77
249.417	135.68
249.633	23.04
249.85	68.09
250.067	-3.58
250.284	33.28
250.501	180.73
250.717	41.47
250.934	-9.73
251.151	14.85
251.368	0.51
251.585	94.72
251.801	37.38
252.018	27.14
252.235	152.06
252.451	-56.83
252.668	31.23
252.885	102.91
253.102	59.9
253.318	43.52
253.535	61.95
253.752	51.71
253.968	39.42
254.185	-101.89
254.401	31.23
254.618	78.33
254.835	-52.74
255.051	170.49
255.268	78.33
255.484	-7.68
255.701	39.42
255.917	8.7
256.134	10.75
256.351	23.04
256.567	-13.82
256.784	6.66
257	-87.55
257.217	166.4
257.433	57.86
257.65	39.42
257.866	170.49
258.082	-50.69
258.299	-11.78
258.515	115.2
258.732	0.51
258.948	0.51
259.165	82.43
259.381	-73.21
259.597	96.77
259.814	45.57
260.03	-62.98
260.246	-7.68
260.463	127.49
260.679	127.49
260.895	45.57
261.112	100.86
261.328	27.14
261.544	43.52
261.761	156.16
261.977	8.7
262.193	-1.54
262.409	96.77
262.626	53.76
262.842	78.33
263.058	27.14
263.274	195.07
263.49	109.05
263.707	49.66
263.923	98.81
264.139	-48.64
264.355	6.66
264.571	131.58
264.787	45.57
265.004	170.49
265.22	2.56
265.436	23.04
265.652	-3.58
265.868	61.95
266.084	-46.59
266.3	51.71
266.516	8.7
266.732	109.05
266.948	84.48
267.164	-56.83
267.38	100.86
267.596	109.05
267.812	152.06
268.028	68.09
268.244	39.42
268.46	61.95
268.676	-54.78
268.892	39.42
269.108	51.71
269.324	47.62
269.54	-24.06
269.756	197.12
269.972	-17.92
270.188	57.86
270.403	-44.54
270.619	16.9
270.835	107.01
271.051	41.47
271.267	35.33
271.483	10.75
271.698	80.38
271.914	8.7
272.13	86.53
272.346	18.94
272.562	147.97
272.777	57.86
272.993	-1.54
273.209	8.7
273.425	113.15
273.64	-73.21
273.856	70.14
274.072	-81.41
274.287	-13.82
274.503	121.34
274.719	135.68
274.934	-17.92
275.15	-15.87
275.366	49.66
275.581	-60.93
275.797	-7.68
276.012	43.52
276.228	-11.78
276.444	20.99
276.659	195.07
276.875	6.66
277.09	-34.3
277.306	4.61
277.521	143.87
277.737	90.62
277.952	164.35
278.168	39.42
278.383	115.2
278.599	31.23
278.814	70.14
279.03	47.62
279.245	150.01
279.461	43.52
279.676	184.83
279.892	-122.37
280.107	-26.11
280.322	6.66
280.538	164.35
280.753	-24.06
280.969	131.58
281.184	45.57
281.399	135.68
281.615	76.29
281.83	49.66
282.045	-105.98
282.26	41.47
282.476	27.14
282.691	72.19
282.906	0.51
283.122	10.75
283.337	-17.92
283.552	68.09
283.767	-67.07
283.983	4.61
284.198	16.9
284.413	113.15
284.628	-17.92
284.843	39.42
285.058	156.16
285.274	12.8
285.489	70.14
285.704	172.54
285.919	31.23
286.134	23.04
286.349	107.01
286.564	-24.06
286.779	162.3
286.995	-15.87
287.21	-50.69
287.425	74.24
287.64	10.75
287.855	14.85
288.07	-48.64
288.285	123.39
288.5	102.91
288.715	51.71
288.93	-17.92
289.145	-9.73
289.36	150.01
289.575	-11.78
289.79	233.98
290.004	68.09
290.219	96.77
290.434	-1.54
290.649	-40.45
290.864	-24.06
291.079	41.47
291.294	107.01
291.509	29.18
291.724	-32.26
291.938	-3.58
292.153	121.34
292.368	-36.35
292.583	111.1
292.798	68.09
293.012	35.33
293.227	55.81
293.442	0.51
293.657	113.15
293.871	80.38
294.086	94.72
294.301	131.58
294.516	35.33
294.73	109.05
294.945	16.9
295.16	27.14
295.374	184.83
295.589	125.44
295.804	-36.35
296.018	43.52
296.233	78.33
296.447	66.05
296.662	-44.54
296.877	100.86
297.091	64
297.306	-1.54
297.52	53.76
297.735	92.67
297.949	68.09
298.164	74.24
298.378	61.95
298.593	-46.59
298.807	-7.68
299.022	-13.82
299.236	178.69
299.451	20.99
299.665	16.9
299.88	4.61
300.094	-52.74
300.309	4.61
300.523	47.62
300.737	33.28
300.952	76.29
301.166	55.81
301.381	-19.97
301.595	35.33
301.809	61.95
302.024	88.57
302.238	-17.92
302.452	121.34
302.667	109.05
302.881	166.4
303.095	135.68
303.309	92.67
303.524	37.38
303.738	76.29
303.952	-3.58
304.166	119.29
304.381	-116.22
304.595	119.29
304.809	-24.06
305.023	39.42
305.237	94.72
305.452	86.53
305.666	47.62
305.88	74.24
306.094	94.72
306.308	111.1
306.522	61.95
306.736	68.09
306.95	66.05
307.164	-9.73
307.379	-11.78
307.593	143.87
307.807	61.95
308.021	117.25
308.235	55.81
308.449	4.61
308.663	82.43
308.877	190.97
309.091	4.61
309.305	80.38
309.519	-95.74
309.733	127.49
309.947	2.56
310.161	45.57
310.374	123.39
310.588	115.2
310.802	-93.69
311.016	8.7
311.23	57.86
311.444	113.15
311.658	43.52
311.872	195.07
312.085	133.63
312.299	172.54
312.513	68.09
312.727	41.47
312.941	-114.17
313.154	41.47
313.368	47.62
313.582	107.01
313.796	102.91
314.009	-9.73
314.223	162.3
314.437	78.33
314.651	45.57
314.864	12.8
315.078	29.18
315.292	-19.97
315.505	-11.78
315.719	76.29
315.933	35.33
316.146	104.96
316.36	-1.54
316.573	92.67
316.787	12.8
317.001	82.43
317.214	-62.98
317.428	20.99
317.641	-73.21
317.855	90.62
318.068	41.47
318.282	92.67
318.495	131.58
318.709	51.71
318.922	66.05
319.136	217.6
319.349	119.29
319.563	-24.06
319.776	96.77
319.99	-24.06
320.203	184.83
320.417	-7.68
320.63	27.14
320.843	131.58
321.057	45.57
321.27	4.61
321.483	70.14
321.697	119.29
321.91	49.66
322.124	45.57
322.337	10.75
322.55	-40.45
322.763	88.57
322.977	-5.63
323.19	35.33
323.403	-89.6
323.617	90.62
323.83	125.44
324.043	35.33
324.256	55.81
324.469	-79.36
324.683	141.82
324.896	49.66
325.109	53.76
325.322	-5.63
325.535	143.87
325.748	145.92
325.962	-34.3
326.175	18.94
326.388	47.62
326.601	150.01
326.814	18.94
327.027	100.86
327.24	154.11
327.453	-103.93
327.666	-3.58
327.879	72.19
328.092	80.38
328.305	121.34
328.518	-3.58
328.731	10.75
328.944	47.62
329.157	66.05
329.37	33.28
329.583	147.97
329.796	133.63
330.009	4.61
330.222	158.21
330.435	164.35
330.648	137.73
330.861	107.01
331.073	33.28
331.286	107.01
331.499	47.62
331.712	-3.58
331.925	49.66
332.138	18.94
332.35	84.48
332.563	-1.54
332.776	70.14
332.989	2.56
333.202	47.62
333.414	27.14
333.627	55.81
333.84	-28.16
334.053	18.94
334.265	16.9
334.478	8.7
334.691	64
334.903	70.14
335.116	64
335.329	-40.45
335.541	96.77
335.754	107.01
335.966	-19.97
336.179	84.48
336.392	10.75
336.604	4.61
336.817	115.2
337.029	84.48
337.242	107.01
337.454	45.57
337.667	74.24
337.88	147.97
338.092	-9.73
338.305	123.39
338.517	45.57
338.729	72.19
338.942	123.39
339.154	-22.02
339.367	-38.4
339.579	135.68
339.792	47.62
340.004	74.24
340.217	-15.87
340.429	98.81
340.641	-48.64
340.854	-34.3
341.066	59.9
341.278	147.97
341.491	287.23
341.703	84.48
341.915	53.76
342.128	57.86
342.34	92.67
342.552	27.14
342.764	127.49
342.977	-19.97
343.189	102.91
343.401	78.33
343.613	-26.11
343.826	88.57
344.038	10.75
344.25	61.95
344.462	53.76
344.674	127.49
344.886	16.9
345.099	61.95
345.311	104.96
345.523	-32.26
345.735	-67.07
345.947	25.09
346.159	76.29
346.371	8.7
346.583	94.72
346.795	141.82
347.007	-48.64
347.219	80.38
347.431	-44.54
347.643	143.87
347.855	4.61
348.067	115.2
348.279	-13.82
348.491	113.15
348.703	119.29
348.915	14.85
349.127	-48.64
349.339	66.05
349.551	-5.63
349.763	66.05
349.975	35.33
350.187	45.57
350.399	119.29
350.61	107.01
350.822	0.51
351.034	61.95
351.246	8.7
351.458	115.2
351.669	66.05
351.881	207.36
352.093	127.49
352.305	115.2
352.517	57.86
352.728	213.5
352.94	123.39
353.152	80.38
353.363	-7.68
353.575	125.44
353.787	213.5
353.999	64
354.21	186.88
354.422	-15.87
354.633	-7.68
354.845	72.19
355.057	-22.02
355.268	14.85
355.48	82.43
355.692	-93.69
355.903	51.71
356.115	20.99
356.326	-73.21
356.538	98.81
356.749	152.06
356.961	92.67
357.172	29.18
357.384	-65.02
357.595	266.75
357.807	-32.26
358.018	-13.82
358.23	33.28
358.441	137.73
358.653	43.52
358.864	2.56
359.075	-1.54
359.287	147.97
359.498	117.25
359.709	51.71
359.921	98.81
360.132	82.43
360.344	150.01
360.555	18.94
360.766	57.86
360.977	-58.88
361.189	135.68
361.4	-11.78
361.611	68.09
361.823	133.63
362.034	115.2
362.245	-5.63
362.456	51.71
362.667	33.28
362.879	-22.02
363.09	57.86
363.301	139.77
363.512	74.24
363.723	-67.07
363.935	-30.21
364.146	74.24
364.357	-9.73
364.568	-7.68
364.779	29.18
364.99	90.62
365.201	0.51
365.412	150.01
365.623	-71.17
365.834	31.23
366.045	16.9
366.256	88.57
366.467	49.66
366.678	57.86
366.889	68.09
367.1	53.76
367.311	131.58
367.522	14.85
367.733	74.24
367.944	70.14
368.155	-22.02
368.366	104.96
368.577	147.97
368.788	127.49
368.999	-62.98
369.209	127.49
369.42	268.8
369.631	270.84
369.842	53.76
370.053	53.76
370.264	57.86
370.474	-79.36
370.685	100.86
370.896	96.77
371.107	98.81
371.317	64
371.528	45.57
371.739	107.01
371.95	100.86
372.16	66.05
372.371	-87.55
372.582	25.09
372.792	74.24
373.003	76.29
373.214	82.43
373.424	107.01
373.635	-56.83
373.846	82.43
374.056	27.14
374.267	147.97
374.477	119.29
374.688	-77.31
374.898	64
375.109	64
375.319	8.7
375.53	125.44
375.74	64
375.951	12.8
376.161	117.25
376.372	156.16
376.582	53.76
376.793	90.62
377.003	-48.64
377.214	-48.64
377.424	94.72
377.635	47.62
377.845	-40.45
378.055	102.91
378.266	-26.11
378.476	20.99
378.686	119.29
378.897	41.47
379.107	162.3
379.317	76.29
379.528	102.91
379.738	74.24
379.948	27.14
380.158	66.05
380.369	78.33
380.579	94.72
380.789	6.66
380.999	107.01
381.21	98.81
381.42	131.58
381.63	47.62
381.84	156.16
382.05	70.14
382.261	127.49
382.471	170.49
382.681	39.42
382.891	90.62
383.101	57.86
383.311	8.7
383.521	-7.68
383.731	43.52
383.941	66.05
384.151	86.53
384.361	61.95
384.571	109.05
384.781	74.24
384.991	211.45
385.201	201.21
385.411	168.45
385.621	49.66
385.831	107.01
386.041	18.94
386.251	117.25
386.461	133.63
386.671	45.57
386.881	55.81
387.091	66.05
387.301	131.58
387.511	45.57
387.72	98.81
387.93	70.14
388.14	6.66
388.35	86.53
388.56	127.49
388.769	133.63
388.979	70.14
389.189	-28.16
389.399	-1.54
389.609	94.72
389.818	51.71
390.028	66.05
390.238	94.72
390.447	-24.06
390.657	74.24
390.867	14.85
391.076	-50.69
391.286	68.09
391.496	37.38
391.705	10.75
391.915	193.02
392.125	135.68
392.334	35.33
392.544	195.07
392.753	72.19
392.963	33.28
393.172	119.29
393.382	-38.4
393.591	205.31
393.801	37.38
394.01	170.49
394.22	135.68
394.429	51.71
394.639	31.23
394.848	84.48
395.058	121.34
395.267	57.86
395.477	76.29
395.686	84.48
395.895	188.93
396.105	209.4
396.314	14.85
396.524	47.62
396.733	61.95
396.942	86.53
397.152	57.86
397.361	55.81
397.57	113.15
397.78	86.53
397.989	-1.54
398.198	186.88
398.407	66.05
398.617	70.14
398.826	37.38
399.035	-13.82
399.244	164.35
399.453	92.67
399.663	12.8
399.872	123.39
400.081	-91.65
400.29	86.53
400.499	16.9
400.708	117.25
400.917	47.62
401.127	78.33
401.336	-48.64
401.545	180.73
401.754	141.82
401.963	109.05
402.172	33.28
402.381	-17.92
402.59	-1.54
402.799	-19.97
403.008	92.67
403.217	6.66
403.426	8.7
403.635	-26.11
403.844	61.95
404.053	-32.26
404.262	33.28
404.471	211.45
404.68	33.28
404.888	23.04
405.097	37.38
405.306	6.66
405.515	64
405.724	113.15
405.933	111.1
406.142	20.99
406.35	96.77
406.559	-3.58
406.768	57.86
406.977	139.77
407.185	57.86
407.394	16.9
407.603	6.66
407.812	82.43
408.02	147.97
408.229	74.24
408.438	6.66
408.646	-83.45
408.855	61.95
409.064	82.43
409.272	-52.74
409.481	43.52
409.69	14.85
409.898	-71.17
410.107	117.25
410.315	78.33
410.524	37.38
410.733	76.29
410.941	64
411.15	70.14
411.358	123.39
411.567	137.73
411.775	41.47
411.984	107.01
412.192	143.87
412.401	23.04
412.609	127.49
412.818	139.77
413.026	94.72
413.234	113.15
413.443	90.62
413.651	6.66
413.86	-22.02
414.068	180.73
414.276	160.25
414.485	68.09
414.693	84.48
414.901	176.64
415.11	-13.82
415.318	16.9
415.526	20.99
415.734	131.58
415.943	68.09
416.151	180.73
416.359	74.24
416.567	-3.58
416.776	160.25
416.984	43.52
417.192	172.54
417.4	8.7
417.608	14.85
417.817	-5.63
418.025	92.67
418.233	180.73
418.441	-89.6
418.649	-71.17
418.857	94.72
419.065	154.11
419.273	-3.58
419.481	25.09
419.689	72.19
419.897	20.99
420.105	-3.58
420.313	197.12
420.521	150.01
420.729	94.72
420.937	35.33
421.145	14.85
421.353	119.29
421.561	152.06
421.769	78.33
421.977	-30.21
422.185	141.82
422.393	29.18
422.601	70.14
422.809	143.87
423.017	152.06
423.224	74.24
423.432	137.73
423.64	43.52
423.848	147.97
424.056	20.99
424.263	113.15
424.471	39.42
424.679	207.36
424.887	-62.98
425.094	121.34
425.302	170.49
425.51	104.96
425.718	76.29
425.925	84.48
426.133	53.76
426.341	150.01
426.548	37.38
426.756	47.62
426.964	98.81
427.171	10.75
427.379	129.53
427.586	23.04
427.794	160.25
428.001	133.63
428.209	125.44
428.417	156.16
428.624	72.19
428.832	147.97
429.039	68.09
429.247	31.23
429.454	154.11
429.662	229.88
429.869	55.81
430.076	64
430.284	188.93
430.491	201.21
430.699	31.23
430.906	217.6
431.114	92.67
431.321	176.64
431.528	76.29
431.736	119.29
431.943	154.11
432.15	137.73
432.358	184.83
432.565	166.4
432.772	-5.63
432.979	205.31
433.187	135.68
433.394	213.5
433.601	129.53
433.808	186.88
434.016	193.02
434.223	158.21
434.43	135.68
434.637	236.03
434.844	317.95
435.052	188.93
435.259	229.88
435.466	258.56
435.673	285.18
435.88	276.99
436.087	315.9
436.294	369.15
436.501	375.29
436.708	188.93
436.915	283.13
437.122	322.04
437.329	176.64
437.537	262.65
437.743	268.8
437.95	354.81
438.157	346.62
438.364	336.38
438.571	266.75
438.778	336.38
438.985	379.39
439.192	453.11
439.399	471.54
439.606	387.58
439.813	446.97
440.02	545.27
440.227	627.19
440.433	492.02
440.64	479.74
440.847	401.91
441.054	543.22
441.261	619
441.467	516.6
441.674	516.6
441.881	639.48
442.088	555.51
442.294	643.57
442.501	635.38
442.708	682.49
442.914	578.04
443.121	707.06
443.328	772.6
443.534	846.32
443.741	739.83
443.948	735.73
444.154	819.7
444.361	993.78
444.568	840.18
444.774	854.51
444.981	815.6
445.187	1004.02
445.394	967.15
445.6	958.96
445.807	1139.18
446.013	1188.33
446.22	1008.11
446.426	1128.94
446.633	1200.62
446.839	1354.22
447.046	1225.2
447.252	1442.28
447.459	1337.84
447.665	1370.6
447.871	1505.77
448.078	1466.86
448.284	1536.49
448.491	1651.17
448.697	1796.58
448.903	1849.83
449.11	1866.21
449.316	1716.71
449.522	1982.95
449.728	2048.48
449.935	2077.15
450.141	1982.95
450.347	2294.24
450.553	2255.33
450.76	2275.81
450.966	2349.53
451.172	2453.98
451.378	2632.15
451.584	2644.44
451.791	2873.81
451.997	2873.81
452.203	3008.98
452.409	3203.54
452.615	3256.78
452.821	3097.04
453.027	3285.45
453.233	3707.34
453.44	3475.91
453.646	3770.82
453.852	3742.15
454.058	4049.35
454.264	4164.03
454.47	4549.05
454.676	4411.84
454.882	4800.95
455.088	4604.35
455.294	4819.38
455.5	5188.02
455.705	5476.78
455.911	5468.59
456.117	5642.67
456.323	5613.99
456.529	5726.63
456.735	6209.95
456.941	6551.96
457.147	6793.62
457.352	7016.85
457.558	7008.66
457.764	7506.32
457.97	7838.09
458.176	7958.92
458.381	8495.49
458.587	8589.69
458.793	9097.59
458.999	9007.48
459.204	10086.76
459.41	10537.31
459.616	10551.65
459.821	10910.04
460.027	11299.16
460.233	11811.15
460.438	11899.21
460.644	12699.97
460.85	12874.04
461.055	13465.91
461.261	13941.04
461.466	13615.41
461.672	13842.73
461.878	15495.44
462.083	15493.4
462.289	15794.45
462.494	16392.45
462.7	16335.11
462.905	16564.48
463.111	18227.43
463.316	18954.46
463.522	19314.91
463.727	19935.44
463.932	20478.15
464.138	21455.03
464.343	22306.99
464.549	22294.7
464.754	23898.26
464.959	24488.07
465.165	24856.71
465.37	24676.49
465.575	25041.03
465.781	26507.37
465.986	27091.04
466.191	27045.99
466.397	26841.19
466.602	25985.14
466.807	27965.53
467.012	28620.88
467.218	29112.39
467.423	28997.7
467.628	29837.37
467.833	31373.35
468.038	30730.28
468.244	30095.41
468.449	31473.7
468.654	31242.28
