Data from USB4F104151__66__09-29-22-696.txt Node

Date: Wed Feb 26 09:29:22 EST 2025
User: louis
Spectrometer: USB4F10415
Trigger mode: 4
Integration Time (sec): 1.000000E-1
Scans to average: 1
Electric dark correction enabled: true
Nonlinearity correction enabled: false
Boxcar width: 0
XAxis mode: Wavelengths
Number of Pixels in Spectrum: 3648
>>>>>Begin Spectral Data<<<<<
178.204	-336.89
178.424	-336.89
178.644	-336.89
178.864	-316.41
179.084	-310.27
179.304	-7.17
179.524	33.79
179.744	39.94
179.964	-1.02
180.184	66.56
180.404	58.37
180.624	-23.55
180.844	-97.28
181.064	-115.71
181.283	72.7
181.503	25.6
181.723	-52.22
181.943	5.12
182.163	211.96
182.383	50.18
182.602	117.76
182.822	138.24
183.042	99.33
183.262	-52.22
183.482	82.94
183.701	58.37
183.921	56.32
184.141	-80.89
184.361	105.47
184.58	54.27
184.8	64.51
185.02	56.32
185.239	189.44
185.459	148.48
185.679	125.95
185.898	-99.33
186.118	35.84
186.338	109.57
186.557	68.61
186.777	9.22
186.997	46.08
187.216	105.47
187.436	199.68
187.655	89.09
187.875	21.5
188.095	-13.31
188.314	150.53
188.534	119.81
188.753	25.6
188.973	164.86
189.192	128
189.412	111.61
189.631	13.31
189.851	5.12
190.07	160.77
190.29	7.17
190.509	-11.26
190.729	52.22
190.948	138.24
191.168	275.45
191.387	76.8
191.607	29.7
191.826	89.09
192.045	7.17
192.265	58.37
192.484	46.08
192.704	64.51
192.923	-72.7
193.142	205.82
193.362	164.86
193.581	191.49
193.8	119.81
194.02	121.85
194.239	46.08
194.458	74.75
194.678	48.13
194.897	-7.17
195.116	91.13
195.335	70.65
195.555	23.55
195.774	13.31
195.993	128
196.212	78.85
196.432	-41.98
196.651	29.7
196.87	70.65
197.089	199.68
197.308	87.04
197.528	91.13
197.747	-89.09
197.966	138.24
198.185	89.09
198.404	-29.7
198.623	128
198.842	93.18
199.062	62.46
199.281	121.85
199.5	37.89
199.719	5.12
199.938	25.6
200.157	68.61
200.376	31.74
200.595	99.33
200.814	48.13
201.033	60.42
201.252	138.24
201.471	-9.22
201.69	72.7
201.909	31.74
202.128	152.57
202.347	101.37
202.566	66.56
202.785	-19.46
203.004	-1.02
203.223	232.44
203.442	74.75
203.661	56.32
203.879	93.18
204.098	160.77
204.317	-19.46
204.536	177.15
204.755	52.22
204.974	72.7
205.193	9.22
205.411	132.09
205.63	173.05
205.849	46.08
206.068	33.79
206.287	-41.98
206.505	150.53
206.724	25.6
206.943	62.46
207.162	17.41
207.381	132.09
207.599	17.41
207.818	-15.36
208.037	-15.36
208.255	95.23
208.474	74.75
208.693	5.12
208.911	-15.36
209.13	56.32
209.349	119.81
209.567	13.31
209.786	103.42
210.005	140.29
210.223	50.18
210.442	-39.94
210.661	29.7
210.879	82.94
211.098	82.94
211.316	72.7
211.535	105.47
211.753	-23.55
211.972	119.81
212.191	5.12
212.409	-27.65
212.628	80.89
212.846	-5.12
213.065	82.94
213.283	99.33
213.502	60.42
213.72	82.94
213.938	74.75
214.157	-23.55
214.375	148.48
214.594	89.09
214.812	117.76
215.031	33.79
215.249	9.22
215.467	44.03
215.686	84.99
215.904	101.37
216.122	58.37
216.341	138.24
216.559	60.42
216.778	74.75
216.996	80.89
217.214	13.31
217.432	31.74
217.651	-58.37
217.869	82.94
218.087	29.7
218.306	17.41
218.524	70.65
218.742	9.22
218.96	82.94
219.179	33.79
219.397	87.04
219.615	154.62
219.833	66.56
220.051	31.74
220.27	-25.6
220.488	105.47
220.706	39.94
220.924	41.98
221.142	84.99
221.36	136.19
221.578	11.26
221.796	107.52
222.015	54.27
222.233	72.7
222.451	60.42
222.669	17.41
222.887	95.23
223.105	31.74
223.323	107.52
223.541	21.5
223.759	82.94
223.977	89.09
224.195	99.33
224.413	150.53
224.631	27.65
224.849	78.85
225.067	144.38
225.285	66.56
225.503	62.46
225.721	41.98
225.939	54.27
226.157	68.61
226.375	193.53
226.592	7.17
226.81	29.7
227.028	80.89
227.246	162.81
227.464	54.27
227.682	62.46
227.9	41.98
228.117	179.2
228.335	56.32
228.553	82.94
228.771	48.13
228.989	95.23
229.206	123.9
229.424	-7.17
229.642	25.6
229.86	23.55
230.077	103.42
230.295	140.29
230.513	97.28
230.731	130.05
230.948	197.63
231.166	132.09
231.384	-29.7
231.601	46.08
231.819	138.24
232.037	3.07
232.254	-50.18
232.472	80.89
232.689	17.41
232.907	160.77
233.125	27.65
233.342	109.57
233.56	-5.12
233.777	91.13
233.995	132.09
234.213	150.53
234.43	78.85
234.648	13.31
234.865	37.89
235.083	39.94
235.3	25.6
235.518	70.65
235.735	105.47
235.953	70.65
236.17	7.17
236.388	19.46
236.605	66.56
236.822	185.34
237.04	128
237.257	82.94
237.475	-15.36
237.692	-11.26
237.909	91.13
238.127	-13.31
238.344	25.6
238.562	78.85
238.779	17.41
238.996	-13.31
239.214	50.18
239.431	78.85
239.648	7.17
239.865	70.65
240.083	56.32
240.3	41.98
240.517	-3.07
240.735	87.04
240.952	123.9
241.169	70.65
241.386	111.61
241.603	95.23
241.821	-82.94
242.038	78.85
242.255	125.95
242.472	-15.36
242.689	136.19
242.907	146.43
243.124	21.5
243.341	-35.84
243.558	-17.41
243.775	-78.85
243.992	13.31
244.209	99.33
244.426	177.15
244.643	56.32
244.86	35.84
245.078	111.61
245.295	82.94
245.512	35.84
245.729	27.65
245.946	107.52
246.163	101.37
246.38	54.27
246.597	113.66
246.814	87.04
247.031	21.5
247.248	-3.07
247.464	76.8
247.681	64.51
247.898	91.13
248.115	89.09
248.332	82.94
248.549	164.86
248.766	201.72
248.983	99.33
249.2	37.89
249.417	125.95
249.633	-9.22
249.85	105.47
250.067	48.13
250.284	29.7
250.501	103.42
250.717	152.57
250.934	-9.22
251.151	52.22
251.368	72.7
251.585	48.13
251.801	-1.02
252.018	-11.26
252.235	89.09
252.451	19.46
252.668	-17.41
252.885	117.76
253.102	25.6
253.318	-39.94
253.535	13.31
253.752	82.94
253.968	99.33
254.185	-3.07
254.401	58.37
254.618	99.33
254.835	-19.46
255.051	177.15
255.268	142.33
255.484	99.33
255.701	58.37
255.917	152.57
256.134	-5.12
256.351	68.61
256.567	-17.41
256.784	-11.26
257	-7.17
257.217	74.75
257.433	72.7
257.65	58.37
257.866	74.75
258.082	-7.17
258.299	107.52
258.515	58.37
258.732	15.36
258.948	19.46
259.165	125.95
259.381	-1.02
259.597	56.32
259.814	33.79
260.03	50.18
260.246	58.37
260.463	162.81
260.679	68.61
260.895	111.61
261.112	115.71
261.328	33.79
261.544	23.55
261.761	187.39
261.977	7.17
262.193	-3.07
262.409	39.94
262.626	97.28
262.842	74.75
263.058	-33.79
263.274	119.81
263.49	-1.02
263.707	11.26
263.923	39.94
264.139	-39.94
264.355	17.41
264.571	144.38
264.787	93.18
265.004	44.03
265.22	37.89
265.436	-11.26
265.652	74.75
265.868	68.61
266.084	-74.75
266.3	91.13
266.516	-27.65
266.732	60.42
266.948	29.7
267.164	29.7
267.38	105.47
267.596	64.51
267.812	173.05
268.028	80.89
268.244	74.75
268.46	37.89
268.676	11.26
268.892	134.14
269.108	7.17
269.324	-5.12
269.54	-15.36
269.756	66.56
269.972	31.74
270.188	72.7
270.403	13.31
270.619	25.6
270.835	148.48
271.051	35.84
271.267	-76.8
271.483	35.84
271.698	70.65
271.914	37.89
272.13	76.8
272.346	64.51
272.562	41.98
272.777	80.89
272.993	15.36
273.209	5.12
273.425	74.75
273.64	-15.36
273.856	156.67
274.072	-13.31
274.287	37.89
274.503	70.65
274.719	140.29
274.934	82.94
275.15	-41.98
275.366	70.65
275.581	-7.17
275.797	29.7
276.012	23.55
276.228	31.74
276.444	66.56
276.659	84.99
276.875	17.41
277.09	33.79
277.306	82.94
277.521	80.89
277.737	80.89
277.952	64.51
278.168	37.89
278.383	56.32
278.599	46.08
278.814	121.85
279.03	15.36
279.245	168.96
279.461	58.37
279.676	64.51
279.892	-31.74
280.107	-1.02
280.322	-15.36
280.538	23.55
280.753	41.98
280.969	74.75
281.184	62.46
281.399	70.65
281.615	91.13
281.83	-9.22
282.045	-17.41
282.26	21.5
282.476	54.27
282.691	33.79
282.906	93.18
283.122	68.61
283.337	27.65
283.552	109.57
283.767	-27.65
283.983	70.65
284.198	80.89
284.413	82.94
284.628	-105.47
284.843	48.13
285.058	132.09
285.274	58.37
285.489	-60.42
285.704	95.23
285.919	1.02
286.134	39.94
286.349	68.61
286.564	-9.22
286.779	130.05
286.995	113.66
287.21	-7.17
287.425	41.98
287.64	13.31
287.855	91.13
288.07	15.36
288.285	113.66
288.5	164.86
288.715	60.42
288.93	82.94
289.145	11.26
289.36	56.32
289.575	11.26
289.79	164.86
290.004	13.31
290.219	117.76
290.434	37.89
290.649	-52.22
290.864	66.56
291.079	9.22
291.294	46.08
291.509	-19.46
291.724	48.13
291.938	27.65
292.153	-23.55
292.368	41.98
292.583	78.85
292.798	101.37
293.012	64.51
293.227	119.81
293.442	-27.65
293.657	56.32
293.871	144.38
294.086	93.18
294.301	121.85
294.516	130.05
294.73	93.18
294.945	-35.84
295.16	74.75
295.374	99.33
295.589	132.09
295.804	-17.41
296.018	-11.26
296.233	168.96
296.447	99.33
296.662	82.94
296.877	160.77
297.091	37.89
297.306	84.99
297.52	41.98
297.735	99.33
297.949	17.41
298.164	101.37
298.378	89.09
298.593	54.27
298.807	-72.7
299.022	21.5
299.236	123.9
299.451	41.98
299.665	46.08
299.88	50.18
300.094	150.53
300.309	103.42
300.523	41.98
300.737	46.08
300.952	50.18
301.166	82.94
301.381	3.07
301.595	33.79
301.809	50.18
302.024	13.31
302.238	-19.46
302.452	97.28
302.667	56.32
302.881	152.57
303.095	60.42
303.309	60.42
303.524	-29.7
303.738	82.94
303.952	29.7
304.166	111.61
304.381	-66.56
304.595	166.91
304.809	-48.13
305.023	9.22
305.237	99.33
305.452	54.27
305.666	70.65
305.88	84.99
306.094	136.19
306.308	97.28
306.522	91.13
306.736	105.47
306.95	185.34
307.164	13.31
307.379	-7.17
307.593	136.19
307.807	60.42
308.021	125.95
308.235	113.66
308.449	-70.65
308.663	27.65
308.877	179.2
309.091	39.94
309.305	95.23
309.519	-62.46
309.733	138.24
309.947	-1.02
310.161	95.23
310.374	31.74
310.588	203.77
310.802	-35.84
311.016	103.42
311.23	39.94
311.444	33.79
311.658	5.12
311.872	154.62
312.085	142.33
312.299	76.8
312.513	199.68
312.727	-15.36
312.941	-82.94
313.154	78.85
313.368	25.6
313.582	113.66
313.796	64.51
314.009	46.08
314.223	82.94
314.437	-44.03
314.651	142.33
314.864	29.7
315.078	97.28
315.292	-3.07
315.505	-23.55
315.719	123.9
315.933	97.28
316.146	-58.37
316.36	-46.08
316.573	113.66
316.787	130.05
317.001	130.05
317.214	5.12
317.428	60.42
317.641	17.41
317.855	37.89
318.068	9.22
318.282	123.9
318.495	160.77
318.709	23.55
318.922	-23.55
319.136	216.06
319.349	140.29
319.563	48.13
319.776	46.08
319.99	-44.03
320.203	107.52
320.417	56.32
320.63	91.13
320.843	162.81
321.057	68.61
321.27	115.71
321.483	109.57
321.697	125.95
321.91	91.13
322.124	107.52
322.337	54.27
322.55	-39.94
322.763	87.04
322.977	-3.07
323.19	17.41
323.403	13.31
323.617	132.09
323.83	173.05
324.043	82.94
324.256	97.28
324.469	-84.99
324.683	70.65
324.896	44.03
325.109	-13.31
325.322	-164.86
325.535	115.71
325.748	103.42
325.962	105.47
326.175	50.18
326.388	1.02
326.601	162.81
326.814	82.94
327.027	89.09
327.24	144.38
327.453	-130.05
327.666	115.71
327.879	62.46
328.092	125.95
328.305	15.36
328.518	-11.26
328.731	1.02
328.944	5.12
329.157	103.42
329.37	35.84
329.583	171.01
329.796	132.09
330.009	25.6
330.222	64.51
330.435	66.56
330.648	11.26
330.861	89.09
331.073	66.56
331.286	74.75
331.499	50.18
331.712	-9.22
331.925	13.31
332.138	-1.02
332.35	164.86
332.563	33.79
332.776	144.38
332.989	-39.94
333.202	27.65
333.414	48.13
333.627	39.94
333.84	13.31
334.053	91.13
334.265	-7.17
334.478	70.65
334.691	-5.12
334.903	78.85
335.116	3.07
335.329	123.9
335.541	62.46
335.754	211.96
335.966	-35.84
336.179	39.94
336.392	19.46
336.604	46.08
336.817	3.07
337.029	99.33
337.242	152.57
337.454	25.6
337.667	76.8
337.88	119.81
338.092	82.94
338.305	33.79
338.517	17.41
338.729	80.89
338.942	136.19
339.154	3.07
339.367	37.89
339.579	97.28
339.792	21.5
340.004	87.04
340.217	-27.65
340.429	132.09
340.641	1.02
340.854	9.22
341.066	91.13
341.278	148.48
341.491	173.05
341.703	64.51
341.915	17.41
342.128	62.46
342.34	105.47
342.552	-91.13
342.764	3.07
342.977	-7.17
343.189	-3.07
343.401	35.84
343.613	-84.99
343.826	68.61
344.038	-19.46
344.25	66.56
344.462	46.08
344.674	101.37
344.886	1.02
345.099	111.61
345.311	76.8
345.523	54.27
345.735	-23.55
345.947	23.55
346.159	66.56
346.371	23.55
346.583	-17.41
346.795	152.57
347.007	58.37
347.219	-3.07
347.431	-23.55
347.643	156.67
347.855	-15.36
348.067	121.85
348.279	-7.17
348.491	107.52
348.703	7.17
348.915	66.56
349.127	17.41
349.339	-29.7
349.551	-41.98
349.763	136.19
349.975	109.57
350.187	115.71
350.399	181.25
350.61	25.6
350.822	19.46
351.034	44.03
351.246	56.32
351.458	52.22
351.669	84.99
351.881	123.9
352.093	111.61
352.305	158.72
352.517	70.65
352.728	175.1
352.94	68.61
353.152	54.27
353.363	89.09
353.575	64.51
353.787	123.9
353.999	89.09
354.21	128
354.422	21.5
354.633	-11.26
354.845	25.6
355.057	97.28
355.268	87.04
355.48	107.52
355.692	-50.18
355.903	-17.41
356.115	1.02
356.326	-27.65
356.538	101.37
356.749	166.91
356.961	162.81
357.172	82.94
357.384	48.13
357.595	285.69
357.807	78.85
358.018	-41.98
358.23	27.65
358.441	218.11
358.653	62.46
358.864	29.7
359.075	27.65
359.287	177.15
359.498	37.89
359.709	87.04
359.921	74.75
360.132	48.13
360.344	66.56
360.555	-11.26
360.766	123.9
360.977	46.08
361.189	189.44
361.4	27.65
361.611	117.76
361.823	107.52
362.034	123.9
362.245	-72.7
362.456	93.18
362.667	54.27
362.879	-27.65
363.09	37.89
363.301	89.09
363.512	-7.17
363.723	33.79
363.935	78.85
364.146	66.56
364.357	52.22
364.568	25.6
364.779	58.37
364.99	130.05
365.201	-11.26
365.412	156.67
365.623	-25.6
365.834	60.42
366.045	72.7
366.256	125.95
366.467	146.43
366.678	17.41
366.889	70.65
367.1	7.17
367.311	111.61
367.522	-56.32
367.733	128
367.944	119.81
368.155	72.7
368.366	121.85
368.577	162.81
368.788	146.43
368.999	74.75
369.209	-9.22
369.42	173.05
369.631	252.92
369.842	162.81
370.053	21.5
370.264	134.14
370.474	17.41
370.685	54.27
370.896	58.37
371.107	138.24
371.317	29.7
371.528	54.27
371.739	97.28
371.95	107.52
372.16	97.28
372.371	-7.17
372.582	17.41
372.792	56.32
373.003	64.51
373.214	64.51
373.424	171.01
373.635	-27.65
373.846	74.75
374.056	70.65
374.267	111.61
374.477	23.55
374.688	-35.84
374.898	-15.36
375.109	89.09
375.319	93.18
375.53	214.01
375.74	84.99
375.951	50.18
376.161	60.42
376.372	156.67
376.582	-66.56
376.793	82.94
377.003	41.98
377.214	-31.74
377.424	115.71
377.635	33.79
377.845	15.36
378.055	138.24
378.266	-17.41
378.476	46.08
378.686	1.02
378.897	80.89
379.107	146.43
379.317	113.66
379.528	5.12
379.738	144.38
379.948	5.12
380.158	150.53
380.369	97.28
380.579	132.09
380.789	52.22
380.999	76.8
381.21	87.04
381.42	154.62
381.63	15.36
381.84	132.09
382.05	99.33
382.261	72.7
382.471	140.29
382.681	46.08
382.891	134.14
383.101	56.32
383.311	-23.55
383.521	23.55
383.731	121.85
383.941	162.81
384.151	101.37
384.361	29.7
384.571	158.72
384.781	41.98
384.991	109.57
385.201	121.85
385.411	87.04
385.621	103.42
385.831	99.33
386.041	15.36
386.251	17.41
386.461	105.47
386.671	1.02
386.881	70.65
387.091	-7.17
387.301	113.66
387.511	23.55
387.72	62.46
387.93	117.76
388.14	-13.31
388.35	109.57
388.56	74.75
388.769	144.38
388.979	44.03
389.189	21.5
389.399	48.13
389.609	164.86
389.818	84.99
390.028	33.79
390.238	46.08
390.447	-35.84
390.657	48.13
390.867	87.04
391.076	-23.55
391.286	80.89
391.496	48.13
391.705	3.07
391.915	89.09
392.125	39.94
392.334	62.46
392.544	89.09
392.753	13.31
392.963	21.5
393.172	13.31
393.382	-41.98
393.591	201.72
393.801	15.36
394.01	230.4
394.22	91.13
394.429	21.5
394.639	60.42
394.848	50.18
395.058	99.33
395.267	111.61
395.477	183.29
395.686	50.18
395.895	234.49
396.105	248.83
396.314	74.75
396.524	41.98
396.733	-7.17
396.942	189.44
397.152	11.26
397.361	107.52
397.57	19.46
397.78	62.46
397.989	-62.46
398.198	168.96
398.407	66.56
398.617	130.05
398.826	62.46
399.035	76.8
399.244	89.09
399.453	64.51
399.663	-25.6
399.872	89.09
400.081	17.41
400.29	123.9
400.499	-3.07
400.708	111.61
400.917	93.18
401.127	31.74
401.336	-27.65
401.545	115.71
401.754	66.56
401.963	103.42
402.172	1.02
402.381	-19.46
402.59	62.46
402.799	64.51
403.008	123.9
403.217	70.65
403.426	82.94
403.635	19.46
403.844	46.08
404.053	-23.55
404.262	44.03
404.471	136.19
404.68	7.17
404.888	70.65
405.097	-1.02
405.306	146.43
405.515	82.94
405.724	-48.13
405.933	58.37
406.142	74.75
406.35	111.61
406.559	-27.65
406.768	68.61
406.977	158.72
407.185	11.26
407.394	128
407.603	5.12
407.812	130.05
408.02	123.9
408.229	-25.6
408.438	9.22
408.646	-27.65
408.855	46.08
409.064	115.71
409.272	11.26
409.481	80.89
409.69	50.18
409.898	-48.13
410.107	78.85
410.315	171.01
410.524	-11.26
410.733	70.65
410.941	56.32
411.15	95.23
411.358	97.28
411.567	93.18
411.775	54.27
411.984	80.89
412.192	132.09
412.401	-3.07
412.609	128
412.818	101.37
413.026	66.56
413.234	78.85
413.443	46.08
413.651	66.56
413.86	52.22
414.068	109.57
414.276	144.38
414.485	78.85
414.693	117.76
414.901	142.33
415.11	29.7
415.318	1.02
415.526	99.33
415.734	78.85
415.943	23.55
416.151	111.61
416.359	70.65
416.567	99.33
416.776	56.32
416.984	175.1
417.192	238.59
417.4	-33.79
417.608	58.37
417.817	58.37
418.025	138.24
418.233	197.63
418.441	37.89
418.649	25.6
418.857	119.81
419.065	134.14
419.273	23.55
419.481	123.9
419.689	70.65
419.897	-7.17
420.105	-15.36
420.313	107.52
420.521	119.81
420.729	89.09
420.937	78.85
421.145	-99.33
421.353	91.13
421.561	173.05
421.769	72.7
421.977	52.22
422.185	25.6
422.393	52.22
422.601	156.67
422.809	48.13
423.017	87.04
423.224	58.37
423.432	27.65
423.64	72.7
423.848	148.48
424.056	15.36
424.263	136.19
424.471	95.23
424.679	164.86
424.887	-1.02
425.094	93.18
425.302	99.33
425.51	99.33
425.718	125.95
425.925	72.7
426.133	25.6
426.341	154.62
426.548	80.89
426.756	23.55
426.964	60.42
427.171	21.5
427.379	62.46
427.586	101.37
427.794	82.94
428.001	80.89
428.209	87.04
428.417	244.73
428.624	89.09
428.832	138.24
429.039	132.09
429.247	5.12
429.454	148.48
429.662	181.25
429.869	70.65
430.076	54.27
430.284	189.44
430.491	267.26
430.699	142.33
430.906	222.2
431.114	89.09
431.321	113.66
431.528	74.75
431.736	95.23
431.943	136.19
432.15	35.84
432.358	119.81
432.565	164.86
432.772	-95.23
432.979	80.89
433.187	87.04
433.394	93.18
433.601	70.65
433.808	160.77
434.016	209.92
434.223	103.42
434.43	168.96
434.637	214.01
434.844	166.91
435.052	195.58
435.259	226.3
435.466	189.44
435.673	181.25
435.88	177.15
436.087	232.44
436.294	238.59
436.501	218.11
436.708	197.63
436.915	179.2
437.122	318.46
437.329	205.82
437.537	263.16
437.743	205.82
437.95	365.56
438.157	214.01
438.364	300.03
438.571	254.97
438.778	324.6
438.985	259.07
439.192	320.51
439.399	285.69
439.606	345.08
439.813	353.27
440.02	375.8
440.227	560.12
440.433	369.66
440.64	365.56
440.847	295.93
441.054	531.45
441.261	392.19
441.467	519.16
441.674	431.1
441.881	535.54
442.088	457.72
442.294	508.92
442.501	590.84
442.708	527.35
442.914	476.15
443.121	564.22
443.328	623.61
443.534	510.97
443.741	629.75
443.948	427
444.154	691.19
444.361	738.29
444.568	648.18
444.774	674.81
444.981	683
445.187	799.73
445.394	758.77
445.6	783.35
445.807	844.79
446.013	826.36
446.22	752.63
446.426	893.94
446.633	943.09
446.839	1098.74
447.046	967.67
447.252	1022.96
447.459	973.81
447.665	1065.97
447.871	1217.52
448.078	1270.76
448.284	1250.28
448.491	1315.82
448.697	1393.64
448.903	1422.31
449.11	1426.41
449.316	1469.42
449.522	1530.86
449.728	1588.2
449.935	1676.26
450.141	1680.36
450.347	1809.38
450.553	1709.03
450.76	1838.05
450.966	1741.8
451.172	1969.12
451.378	1975.27
451.584	2116.58
451.791	2235.36
451.997	2130.91
452.203	2225.12
452.409	2446.3
452.615	2589.66
452.821	2454.49
453.027	2429.91
453.233	2790.36
453.44	2681.82
453.646	2851.8
453.852	2966.48
454.058	2995.15
454.264	3144.66
454.47	3257.29
454.676	3347.4
454.882	3507.15
455.088	3611.59
455.294	3736.52
455.5	3922.88
455.705	4094.91
455.911	4146.11
456.117	4363.2
456.323	4312
456.529	4418.49
456.735	4662.2
456.941	4944.82
457.147	5108.66
457.352	5252.02
457.558	5268.4
457.764	5680.04
457.97	6038.44
458.176	6157.22
458.381	6402.97
458.587	6552.48
458.793	6828.95
458.999	6882.2
459.204	7609.23
459.41	7943.05
459.616	7701.39
459.821	8219.52
460.027	8594.3
460.233	9063.29
460.438	9061.24
460.644	9431.92
460.85	9450.35
461.055	9982.82
461.261	10503.01
461.466	10310.5
461.672	10525.54
461.878	11658.06
462.083	11563.86
462.289	11826
462.494	12276.55
462.7	12378.95
462.905	12761.92
463.111	13511.47
463.316	14261.03
463.522	14463.78
463.727	15256.34
463.932	15399.7
464.138	16026.38
464.343	16843.52
464.549	16771.84
464.754	17924.85
464.959	18453.22
465.165	18778.85
465.37	18848.48
465.575	18526.95
465.781	19851.99
465.986	20431.56
466.191	20077.26
466.397	20599.49
466.602	19821.27
466.807	21267.13
467.012	21418.68
467.218	21779.12
467.423	21975.73
467.628	22289.07
467.833	23544.47
468.038	23313.05
468.244	22880.93
468.449	23923.35
468.654	23732.89
468.859	23448.22
469.064	23779.99
469.269	22743.72
469.474	23386.78
469.679	23765.65
