Data from USB4F104151__75__11-31-06-063.txt Node

Date: Wed Feb 26 11:31:06 EST 2025
User: louis
Spectrometer: USB4F10415
Trigger mode: 4
Integration Time (sec): 1.000000E-1
Scans to average: 1
Electric dark correction enabled: true
Nonlinearity correction enabled: false
Boxcar width: 0
XAxis mode: Wavelengths
Number of Pixels in Spectrum: 3648
>>>>>Begin Spectral Data<<<<<
178.204	-369.83
178.424	-369.83
178.644	-369.83
178.864	-384.16
179.084	-427.17
179.304	27.48
179.524	-56.49
179.744	37.72
179.964	29.52
180.184	4.95
180.404	-17.58
180.624	-13.48
180.844	66.39
181.064	-23.72
181.283	0.85
181.503	-36.01
181.723	-19.63
181.943	-128.17
182.163	90.96
182.383	-31.91
182.602	17.24
182.822	201.55
183.042	52.05
183.262	-38.06
183.482	19.29
183.701	21.33
183.921	64.34
184.141	-44.2
184.361	86.87
184.58	45.91
184.8	29.52
185.02	15.19
185.239	101.2
185.459	17.24
185.679	193.36
185.898	-162.98
186.118	31.57
186.338	80.72
186.557	123.73
186.777	7
186.997	52.05
187.216	-15.53
187.436	93.01
187.655	90.96
187.875	158.55
188.095	58.2
188.314	99.16
188.534	93.01
188.753	0.85
188.973	154.45
189.192	215.89
189.412	-36.01
189.631	-25.77
189.851	103.25
190.07	117.59
190.29	-72.87
190.509	-40.11
190.729	64.34
190.948	127.83
191.168	252.75
191.387	68.44
191.607	29.52
191.826	60.24
192.045	41.81
192.265	-42.15
192.484	54.1
192.704	50
192.923	-9.39
193.142	201.55
193.362	117.59
193.581	166.74
193.8	27.48
194.02	129.88
194.239	78.68
194.458	43.86
194.678	-62.63
194.897	-1.19
195.116	68.44
195.335	93.01
195.555	43.86
195.774	-11.43
195.993	174.93
196.212	62.29
196.432	13.14
196.651	23.38
196.87	58.2
197.089	215.89
197.308	111.44
197.528	84.82
197.747	-36.01
197.966	23.38
198.185	74.58
198.404	-21.67
198.623	136.02
198.842	133.97
199.062	97.11
199.281	152.4
199.5	31.57
199.719	15.19
199.938	66.39
200.157	54.1
200.376	123.73
200.595	154.45
200.814	52.05
201.033	45.91
201.252	181.07
201.471	47.96
201.69	93.01
201.909	-19.63
202.128	150.36
202.347	144.21
202.566	25.43
202.785	-46.25
203.004	78.68
203.223	252.75
203.442	68.44
203.661	-56.49
203.879	47.96
204.098	156.5
204.317	4.95
204.536	72.53
204.755	121.68
204.974	60.24
205.193	11.09
205.411	179.03
205.63	62.29
205.849	88.92
206.068	-9.39
206.287	-17.58
206.505	148.31
206.724	105.3
206.943	11.09
207.162	-54.44
207.381	60.24
207.599	35.67
207.818	47.96
208.037	-70.83
208.255	-19.63
208.474	66.39
208.693	64.34
208.911	23.38
209.13	62.29
209.349	47.96
209.567	54.1
209.786	105.3
210.005	129.88
210.223	54.1
210.442	-128.17
210.661	54.1
210.879	111.44
211.098	107.35
211.316	27.48
211.535	117.59
211.753	31.57
211.972	27.48
212.191	-27.82
212.409	33.62
212.628	123.73
212.846	54.1
213.065	-1.19
213.283	64.34
213.502	60.24
213.72	76.63
213.938	-11.43
214.157	-13.48
214.375	56.15
214.594	-3.24
214.812	76.63
215.031	76.63
215.249	60.24
215.467	50
215.686	11.09
215.904	0.85
216.122	66.39
216.341	72.53
216.559	9.05
216.778	72.53
216.996	133.97
217.214	13.14
217.432	31.57
217.651	-40.11
217.869	56.15
218.087	-3.24
218.306	-40.11
218.524	93.01
218.742	107.35
218.96	111.44
219.179	56.15
219.397	29.52
219.615	238.42
219.833	93.01
220.051	-42.15
220.27	109.4
220.488	72.53
220.706	80.72
220.924	-29.87
221.142	9.05
221.36	127.83
221.578	4.95
221.796	-21.67
222.015	29.52
222.233	123.73
222.451	146.26
222.669	-27.82
222.887	39.76
223.105	88.92
223.323	84.82
223.541	-29.87
223.759	35.67
223.977	111.44
224.195	172.88
224.413	58.2
224.631	74.58
224.849	76.63
225.067	256.85
225.285	66.39
225.503	-19.63
225.721	-150.7
225.939	56.15
226.157	60.24
226.375	260.95
226.592	-17.58
226.81	86.87
227.028	121.68
227.246	189.27
227.464	70.48
227.682	37.72
227.9	101.2
228.117	31.57
228.335	64.34
228.553	-3.24
228.771	-23.72
228.989	107.35
229.206	119.64
229.424	-15.53
229.642	4.95
229.86	-85.16
230.077	162.64
230.295	80.72
230.513	103.25
230.731	119.64
230.948	187.22
231.166	193.36
231.384	-15.53
231.601	35.67
231.819	181.07
232.037	50
232.254	17.24
232.472	23.38
232.689	-76.97
232.907	107.35
233.125	-5.29
233.342	-54.44
233.56	-5.29
233.777	27.48
233.995	70.48
234.213	111.44
234.43	66.39
234.648	60.24
234.865	17.24
235.083	90.96
235.3	97.11
235.518	84.82
235.735	146.26
235.953	76.63
236.17	78.68
236.388	-42.15
236.605	74.58
236.822	160.59
237.04	121.68
237.257	72.53
237.475	-9.39
237.692	64.34
237.909	136.02
238.127	-1.19
238.344	148.31
238.562	37.72
238.779	21.33
238.996	-42.15
239.214	41.81
239.431	125.78
239.648	-31.91
239.865	90.96
240.083	88.92
240.3	33.62
240.517	39.76
240.735	13.14
240.952	179.03
241.169	131.92
241.386	74.58
241.603	72.53
241.821	-60.59
242.038	99.16
242.255	158.55
242.472	-33.96
242.689	131.92
242.907	119.64
243.124	103.25
243.341	43.86
243.558	33.62
243.775	-25.77
243.992	-54.44
244.209	117.59
244.426	156.5
244.643	76.63
244.86	54.1
245.078	170.83
245.295	78.68
245.512	31.57
245.729	-42.15
245.946	25.43
246.163	13.14
246.38	31.57
246.597	160.59
246.814	19.29
247.031	93.01
247.248	33.62
247.464	95.06
247.681	43.86
247.898	52.05
248.115	113.49
248.332	-52.39
248.549	131.92
248.766	84.82
248.983	86.87
249.2	62.29
249.417	72.53
249.633	17.24
249.85	60.24
250.067	82.77
250.284	50
250.501	95.06
250.717	2.9
250.934	-64.68
251.151	66.39
251.368	86.87
251.585	74.58
251.801	58.2
252.018	-9.39
252.235	90.96
252.451	-154.79
252.668	121.68
252.885	174.93
253.102	115.54
253.318	107.35
253.535	11.09
253.752	-46.25
253.968	76.63
254.185	-15.53
254.401	43.86
254.618	105.3
254.835	-19.63
255.051	168.79
255.268	56.15
255.484	15.19
255.701	60.24
255.917	41.81
256.134	-36.01
256.351	78.68
256.567	11.09
256.784	41.81
257	-85.16
257.217	131.92
257.433	150.36
257.65	41.81
257.866	217.94
258.082	-56.49
258.299	19.29
258.515	25.43
258.732	84.82
258.948	19.29
259.165	86.87
259.381	-38.06
259.597	54.1
259.814	-40.11
260.03	-9.39
260.246	-13.48
260.463	162.64
260.679	152.4
260.895	4.95
261.112	25.43
261.328	-40.11
261.544	45.91
261.761	166.74
261.977	11.09
262.193	0.85
262.409	156.5
262.626	107.35
262.842	29.52
263.058	19.29
263.274	164.69
263.49	99.16
263.707	72.53
263.923	95.06
264.139	-3.24
264.355	86.87
264.571	131.92
264.787	160.59
265.004	117.59
265.22	60.24
265.436	-95.4
265.652	37.72
265.868	35.67
266.084	-5.29
266.3	33.62
266.516	15.19
266.732	95.06
266.948	4.95
267.164	60.24
267.38	58.2
267.596	156.5
267.812	209.75
268.028	33.62
268.244	27.48
268.46	33.62
268.676	95.06
268.892	60.24
269.108	-48.3
269.324	2.9
269.54	-68.78
269.756	150.36
269.972	17.24
270.188	19.29
270.403	23.38
270.619	35.67
270.835	43.86
271.051	52.05
271.267	9.05
271.483	-33.96
271.698	142.16
271.914	95.06
272.13	88.92
272.346	-42.15
272.562	11.09
272.777	119.64
272.993	52.05
273.209	52.05
273.425	115.54
273.64	23.38
273.856	138.07
274.072	-15.53
274.287	2.9
274.503	80.72
274.719	35.67
274.934	-36.01
275.15	-40.11
275.366	-25.77
275.581	-9.39
275.797	29.52
276.012	66.39
276.228	33.62
276.444	-11.43
276.659	123.73
276.875	-81.07
277.09	-33.96
277.306	-7.34
277.521	37.72
277.737	-11.43
277.952	66.39
278.168	105.3
278.383	66.39
278.599	4.95
278.814	84.82
279.03	152.4
279.245	119.64
279.461	-13.48
279.676	74.58
279.892	-50.35
280.107	-5.29
280.322	15.19
280.538	90.96
280.753	35.67
280.969	109.4
281.184	43.86
281.399	195.41
281.615	101.2
281.83	58.2
282.045	-17.58
282.26	-74.92
282.476	-31.91
282.691	93.01
282.906	19.29
283.122	29.52
283.337	-17.58
283.552	103.25
283.767	4.95
283.983	76.63
284.198	54.1
284.413	60.24
284.628	-46.25
284.843	43.86
285.058	97.11
285.274	76.63
285.489	0.85
285.704	115.54
285.919	-38.06
286.134	37.72
286.349	47.96
286.564	9.05
286.779	113.49
286.995	4.95
287.21	-13.48
287.425	76.63
287.64	0.85
287.855	80.72
288.07	-50.35
288.285	74.58
288.5	168.79
288.715	56.15
288.93	-17.58
289.145	19.29
289.36	123.73
289.575	19.29
289.79	203.6
290.004	31.57
290.219	248.66
290.434	-46.25
290.649	-1.19
290.864	2.9
291.079	2.9
291.294	115.54
291.509	45.91
291.724	-1.19
291.938	-5.29
292.153	86.87
292.368	58.2
292.583	82.77
292.798	84.82
293.012	31.57
293.227	23.38
293.442	-50.35
293.657	117.59
293.871	97.11
294.086	78.68
294.301	275.28
294.516	113.49
294.73	111.44
294.945	-15.53
295.16	29.52
295.374	109.4
295.589	76.63
295.804	45.91
296.018	72.53
296.233	156.5
296.447	62.29
296.662	-9.39
296.877	117.59
297.091	43.86
297.306	31.57
297.52	27.48
297.735	185.17
297.949	9.05
298.164	58.2
298.378	60.24
298.593	-29.87
298.807	0.85
299.022	45.91
299.236	136.02
299.451	-13.48
299.665	50
299.88	21.33
300.094	78.68
300.309	127.83
300.523	-5.29
300.737	0.85
300.952	113.49
301.166	93.01
301.381	-58.54
301.595	41.81
301.809	117.59
302.024	43.86
302.238	15.19
302.452	60.24
302.667	74.58
302.881	99.16
303.095	52.05
303.309	58.2
303.524	4.95
303.738	15.19
303.952	-29.87
304.166	174.93
304.381	-107.69
304.595	125.78
304.809	29.52
305.023	68.44
305.237	-5.29
305.452	-13.48
305.666	76.63
305.88	29.52
306.094	66.39
306.308	144.21
306.522	97.11
306.736	113.49
306.95	70.48
307.164	13.14
307.379	74.58
307.593	166.74
307.807	197.46
308.021	45.91
308.235	174.93
308.449	-11.43
308.663	47.96
308.877	273.23
309.091	27.48
309.305	111.44
309.519	-17.58
309.733	93.01
309.947	-76.97
310.161	99.16
310.374	78.68
310.588	101.2
310.802	37.72
311.016	23.38
311.23	121.68
311.444	-48.3
311.658	101.2
311.872	101.2
312.085	78.68
312.299	152.4
312.513	144.21
312.727	90.96
312.941	4.95
313.154	50
313.368	95.06
313.582	107.35
313.796	19.29
314.009	37.72
314.223	133.97
314.437	-3.24
314.651	105.3
314.864	-1.19
315.078	74.58
315.292	-42.15
315.505	56.15
315.719	64.34
315.933	68.44
316.146	23.38
316.36	56.15
316.573	121.68
316.787	150.36
317.001	62.29
317.214	-36.01
317.428	82.77
317.641	-17.58
317.855	-31.91
318.068	0.85
318.282	-54.44
318.495	209.75
318.709	21.33
318.922	60.24
319.136	146.26
319.349	119.64
319.563	-70.83
319.776	113.49
319.99	-48.3
320.203	115.54
320.417	-25.77
320.63	136.02
320.843	191.31
321.057	21.33
321.27	29.52
321.483	60.24
321.697	183.12
321.91	76.63
322.124	-7.34
322.337	39.76
322.55	-3.24
322.763	88.92
322.977	-7.34
323.19	23.38
323.403	-62.63
323.617	74.58
323.83	86.87
324.043	-33.96
324.256	101.2
324.469	-19.63
324.683	60.24
324.896	82.77
325.109	52.05
325.322	-48.3
325.535	88.92
325.748	103.25
325.962	56.15
326.175	119.64
326.388	23.38
326.601	103.25
326.814	-36.01
327.027	56.15
327.24	158.55
327.453	-64.68
327.666	127.83
327.879	123.73
328.092	121.68
328.305	129.88
328.518	-11.43
328.731	52.05
328.944	-1.19
329.157	25.43
329.37	13.14
329.583	248.66
329.796	113.49
330.009	-33.96
330.222	43.86
330.435	84.82
330.648	80.72
330.861	72.53
331.073	2.9
331.286	133.97
331.499	21.33
331.712	-15.53
331.925	82.77
332.138	-7.34
332.35	113.49
332.563	47.96
332.776	84.82
332.989	-70.83
333.202	17.24
333.414	7
333.627	58.2
333.84	9.05
334.053	11.09
334.265	9.05
334.478	-50.35
334.691	33.62
334.903	-79.02
335.116	0.85
335.329	23.38
335.541	168.79
335.754	195.41
335.966	-3.24
336.179	19.29
336.392	-58.54
336.604	7
336.817	117.59
337.029	19.29
337.242	4.95
337.454	54.1
337.667	35.67
337.88	107.35
338.092	95.06
338.305	21.33
338.517	-7.34
338.729	105.3
338.942	172.88
339.154	-42.15
339.367	-68.78
339.579	11.09
339.792	-11.43
340.004	107.35
340.217	17.24
340.429	45.91
340.641	-52.39
340.854	-21.67
341.066	23.38
341.278	152.4
341.491	224.08
341.703	115.54
341.915	15.19
342.128	131.92
342.34	56.15
342.552	-93.35
342.764	37.72
342.977	27.48
343.189	95.06
343.401	68.44
343.613	-66.73
343.826	62.29
344.038	-122.02
344.25	41.81
344.462	66.39
344.674	121.68
344.886	70.48
345.099	23.38
345.311	162.64
345.523	13.14
345.735	-81.07
345.947	86.87
346.159	82.77
346.371	72.53
346.583	-44.2
346.795	121.68
347.007	86.87
347.219	105.3
347.431	133.97
347.643	50
347.855	58.2
348.067	162.64
348.279	-50.35
348.491	33.62
348.703	23.38
348.915	84.82
349.127	-46.25
349.339	41.81
349.551	17.24
349.763	117.59
349.975	86.87
350.187	121.68
350.399	52.05
350.61	133.97
350.822	54.1
351.034	31.57
351.246	31.57
351.458	115.54
351.669	129.88
351.881	56.15
352.093	197.46
352.305	80.72
352.517	115.54
352.728	176.98
352.94	150.36
353.152	97.11
353.363	39.76
353.575	80.72
353.787	209.75
353.999	41.81
354.21	219.99
354.422	0.85
354.633	33.62
354.845	4.95
355.057	27.48
355.268	80.72
355.48	41.81
355.692	17.24
355.903	4.95
356.115	15.19
356.326	-72.87
356.538	187.22
356.749	136.02
356.961	213.84
357.172	27.48
357.384	11.09
357.595	168.79
357.807	0.85
358.018	13.14
358.23	39.76
358.441	191.31
358.653	-17.58
358.864	103.25
359.075	66.39
359.287	93.01
359.498	99.16
359.709	123.73
359.921	17.24
360.132	121.68
360.344	4.95
360.555	31.57
360.766	93.01
360.977	2.9
361.189	50
361.4	-33.96
361.611	115.54
361.823	125.78
362.034	101.2
362.245	-17.58
362.456	-33.96
362.667	117.59
362.879	76.63
363.09	101.2
363.301	93.01
363.512	131.92
363.723	-11.43
363.935	35.67
364.146	4.95
364.357	123.73
364.568	52.05
364.779	-68.78
364.99	127.83
365.201	4.95
365.412	113.49
365.623	-7.34
365.834	72.53
366.045	15.19
366.256	113.49
366.467	64.34
366.678	23.38
366.889	70.48
367.1	45.91
367.311	127.83
367.522	23.38
367.733	68.44
367.944	27.48
368.155	-11.43
368.366	70.48
368.577	72.53
368.788	154.45
368.999	-9.39
369.209	35.67
369.42	172.88
369.631	209.75
369.842	93.01
370.053	90.96
370.264	144.21
370.474	-15.53
370.685	107.35
370.896	41.81
371.107	117.59
371.317	82.77
371.528	54.1
371.739	148.31
371.95	82.77
372.16	97.11
372.371	-29.87
372.582	-21.67
372.792	70.48
373.003	58.2
373.214	52.05
373.424	101.2
373.635	50
373.846	152.4
374.056	-25.77
374.267	78.68
374.477	142.16
374.688	-5.29
374.898	33.62
375.109	13.14
375.319	97.11
375.53	93.01
375.74	95.06
375.951	-27.82
376.161	60.24
376.372	78.68
376.582	-29.87
376.793	140.12
377.003	25.43
377.214	11.09
377.424	9.05
377.635	33.62
377.845	-36.01
378.055	146.26
378.266	-23.72
378.476	-7.34
378.686	41.81
378.897	115.54
379.107	99.16
379.317	62.29
379.528	-21.67
379.738	146.26
379.948	-17.58
380.158	129.88
380.369	50
380.579	117.59
380.789	56.15
380.999	97.11
381.21	170.83
381.42	201.55
381.63	39.76
381.84	121.68
382.05	72.53
382.261	107.35
382.471	131.92
382.681	50
382.891	125.78
383.101	47.96
383.311	-15.53
383.521	-1.19
383.731	35.67
383.941	74.58
384.151	121.68
384.361	70.48
384.571	93.01
384.781	58.2
384.991	164.69
385.201	244.56
385.411	131.92
385.621	152.4
385.831	13.14
386.041	21.33
386.251	27.48
386.461	127.83
386.671	-40.11
386.881	33.62
387.091	33.62
387.301	113.49
387.511	113.49
387.72	43.86
387.93	146.26
388.14	-79.02
388.35	47.96
388.56	119.64
388.769	142.16
388.979	17.24
389.189	-33.96
389.399	-5.29
389.609	99.16
389.818	54.1
390.028	76.63
390.238	72.53
390.447	-58.54
390.657	21.33
390.867	27.48
391.076	-70.83
391.286	37.72
391.496	47.96
391.705	62.29
391.915	76.63
392.125	187.22
392.334	66.39
392.544	172.88
392.753	54.1
392.963	50
393.172	47.96
393.382	-3.24
393.591	205.65
393.801	13.14
394.01	150.36
394.22	95.06
394.429	-13.48
394.639	-52.39
394.848	123.73
395.058	95.06
395.267	72.53
395.477	164.69
395.686	66.39
395.895	256.85
396.105	232.27
396.314	82.77
396.524	15.19
396.733	82.77
396.942	181.07
397.152	142.16
397.361	88.92
397.57	37.72
397.78	54.1
397.989	101.2
398.198	213.84
398.407	93.01
398.617	84.82
398.826	95.06
399.035	-31.91
399.244	60.24
399.453	25.43
399.663	105.3
399.872	78.68
400.081	-50.35
400.29	234.32
400.499	56.15
400.708	183.12
400.917	7
401.127	41.81
401.336	-5.29
401.545	183.12
401.754	115.54
401.963	160.59
402.172	21.33
402.381	-42.15
402.59	86.87
402.799	50
403.008	72.53
403.217	152.4
403.426	93.01
403.635	-33.96
403.844	29.52
404.053	7
404.262	84.82
404.471	201.55
404.68	109.4
404.888	66.39
405.097	17.24
405.306	13.14
405.515	66.39
405.724	31.57
405.933	62.29
406.142	43.86
406.35	86.87
406.559	19.29
406.768	43.86
406.977	136.02
407.185	97.11
407.394	45.91
407.603	-54.44
407.812	160.59
408.02	117.59
408.229	101.2
408.438	93.01
408.646	-68.78
408.855	-17.58
409.064	90.96
409.272	11.09
409.481	97.11
409.69	-27.82
409.898	-42.15
410.107	78.68
410.315	78.68
410.524	-9.39
410.733	88.92
410.941	11.09
411.15	119.64
411.358	62.29
411.567	119.64
411.775	37.72
411.984	74.58
412.192	133.97
412.401	-9.39
412.609	201.55
412.818	187.22
413.026	97.11
413.234	13.14
413.443	19.29
413.651	0.85
413.86	66.39
414.068	129.88
414.276	189.27
414.485	62.29
414.693	246.61
414.901	62.29
415.11	68.44
415.318	86.87
415.526	11.09
415.734	125.78
415.943	127.83
416.151	60.24
416.359	76.63
416.567	41.81
416.776	9.05
416.984	131.92
417.192	222.03
417.4	4.95
417.608	-25.77
417.817	2.9
418.025	150.36
418.233	217.94
418.441	-29.87
418.649	13.14
418.857	76.63
419.065	146.26
419.273	-17.58
419.481	21.33
419.689	95.06
419.897	25.43
420.105	27.48
420.313	29.52
420.521	129.88
420.729	138.07
420.937	9.05
421.145	-7.34
421.353	148.31
421.561	136.02
421.769	2.9
421.977	7
422.185	127.83
422.393	29.52
422.601	86.87
422.809	170.83
423.017	99.16
423.224	27.48
423.432	58.2
423.64	25.43
423.848	82.77
424.056	70.48
424.263	119.64
424.471	-1.19
424.679	166.74
424.887	-27.82
425.094	150.36
425.302	113.49
425.51	45.91
425.718	148.31
425.925	68.44
426.133	-3.24
426.341	197.46
426.548	45.91
426.756	0.85
426.964	105.3
427.171	52.05
427.379	82.77
427.586	37.72
427.794	95.06
428.001	105.3
428.209	70.48
428.417	160.59
428.624	144.21
428.832	68.44
429.039	95.06
429.247	107.35
429.454	144.21
429.662	193.36
429.869	121.68
430.076	35.67
430.284	150.36
430.491	172.88
430.699	211.79
430.906	162.64
431.114	193.36
431.321	174.93
431.528	205.65
431.736	109.4
431.943	166.74
432.15	136.02
432.358	209.75
432.565	211.79
432.772	7
432.979	172.88
433.187	76.63
433.394	179.03
433.601	64.34
433.808	176.98
434.016	260.95
434.223	152.4
434.43	123.73
434.637	244.56
434.844	252.75
435.052	267.09
435.259	265.04
435.466	281.43
435.673	211.79
435.88	273.23
436.087	291.66
436.294	297.81
436.501	381.78
436.708	209.75
436.915	199.51
437.122	342.86
437.329	197.46
437.537	285.52
437.743	326.48
437.95	336.72
438.157	308.05
438.364	267.09
438.571	367.44
438.778	344.91
438.985	328.53
439.192	367.44
439.399	322.38
439.606	308.05
439.813	439.12
440.02	469.84
440.227	615.24
440.433	480.08
440.64	430.93
440.847	365.39
441.054	473.93
441.261	609.1
441.467	555.85
441.674	398.16
441.881	549.71
442.088	562
442.294	570.19
442.501	668.49
442.708	658.25
442.914	619.34
443.121	676.68
443.328	752.46
443.534	774.99
443.741	758.6
443.948	584.52
444.154	791.37
444.361	1033.03
444.568	811.85
444.774	822.09
444.981	824.14
445.187	1024.84
445.394	990.02
445.6	949.06
445.807	1106.76
446.013	912.2
446.22	965.45
446.426	1094.47
446.633	1243.97
446.839	1327.94
447.046	1135.43
447.252	1463.1
447.459	1305.41
447.665	1356.61
447.871	1481.53
448.078	1686.33
448.284	1504.06
448.491	1725.24
448.697	1700.67
448.903	1813.31
449.11	1790.78
449.316	1663.8
449.522	1913.66
449.728	1946.42
449.935	2085.69
450.141	2057.01
450.347	2298.67
450.553	2161.46
450.76	2183.99
450.966	2384.69
451.172	2485.04
451.378	2470.7
451.584	2657.07
451.791	2779.95
451.997	2798.38
452.203	2689.84
452.409	3048.23
452.615	3169.06
452.821	3037.99
453.027	3214.12
453.233	3664.67
453.44	3398.43
453.646	3619.61
453.852	3783.45
454.058	3912.47
454.264	4045.59
454.47	4197.14
454.676	4322.07
454.882	4772.62
455.088	4543.25
455.294	4696.85
455.5	4993.8
455.705	5274.37
455.911	5354.24
456.117	5548.8
456.323	5556.99
456.529	5595.9
456.735	6230.77
456.941	6288.12
457.147	6548.21
457.352	6896.36
457.558	6861.55
457.764	7289.57
457.97	7482.08
458.176	7901.92
458.381	8254.17
458.587	8184.54
458.793	8819.41
458.999	8655.57
459.204	9769.66
459.41	10502.84
459.616	10001.08
459.821	10744.5
460.027	11242.15
460.233	11623.08
460.438	11801.25
460.644	12401.3
460.85	12599.96
461.055	13054.61
461.261	13750.92
461.466	13564.55
461.672	13486.73
461.878	15463.02
462.083	15051.38
462.289	15430.25
462.494	15854.18
462.7	16341.6
462.905	16386.65
463.111	17773.13
463.316	18752.06
463.522	19231.28
463.727	19427.88
463.932	19952.16
464.138	20982.29
464.343	21688.84
464.549	21948.93
464.754	23454.19
464.959	24109.54
465.165	24320.48
465.37	24496.61
465.575	24523.23
465.781	26089.93
465.986	26814.91
466.191	26264
466.397	26759.61
466.602	26327.49
466.807	27568.56
467.012	28101.03
467.218	28498.34
467.423	28445.09
467.628	29424.02
467.833	30978.43
468.038	30433.67
468.244	29661.58
468.449	31463.8
468.654	30624.13
468.859	30783.87
469.064	30624.13
