Data from USB4F104151__5__11-24-14-209.txt Node

Date: Wed Feb 26 11:24:14 EST 2025
User: louis
Spectrometer: USB4F10415
Trigger mode: 4
Integration Time (sec): 1.000000E-1
Scans to average: 1
Electric dark correction enabled: true
Nonlinearity correction enabled: false
Boxcar width: 0
XAxis mode: Wavelengths
Number of Pixels in Spectrum: 3648
>>>>>Begin Spectral Data<<<<<
178.204	-366.42
178.424	-366.42
178.644	-366.42
178.864	-405.33
179.084	-393.04
179.304	22.7
179.524	-14.17
179.744	37.03
179.964	24.75
180.184	-51.03
180.404	-20.31
180.624	-59.22
180.844	-16.21
181.064	-16.21
181.283	30.89
181.503	-24.4
181.723	86.19
181.943	-5.97
182.163	166.06
182.383	-28.5
182.602	118.95
182.822	168.1
183.042	100.52
183.262	-10.07
183.482	22.7
183.701	94.38
183.921	6.31
184.141	8.36
184.361	112.81
184.58	114.86
184.8	94.38
185.02	-28.5
185.239	59.56
185.459	102.57
185.679	90.28
185.898	-36.69
186.118	37.03
186.338	112.81
186.557	172.2
186.777	43.18
186.997	24.75
187.216	22.7
187.436	202.92
187.655	63.66
187.875	139.43
188.095	26.79
188.314	188.58
188.534	98.47
188.753	-10.07
188.973	143.53
189.192	141.48
189.412	2.22
189.631	32.94
189.851	37.03
190.07	186.54
190.29	-36.69
190.509	-38.74
190.729	-22.36
190.948	172.2
191.168	254.12
191.387	77.99
191.607	-42.84
191.826	43.18
192.045	12.46
192.265	59.56
192.484	65.71
192.704	18.6
192.923	-145.24
193.142	254.12
193.362	104.62
193.581	135.34
193.8	116.9
194.02	18.6
194.239	71.85
194.458	80.04
194.678	61.61
194.897	-20.31
195.116	69.8
195.335	47.27
195.555	20.65
195.774	-48.98
195.993	84.14
196.212	98.47
196.432	6.31
196.651	32.94
196.87	59.56
197.089	217.26
197.308	59.56
197.528	34.99
197.747	-44.88
197.966	67.75
198.185	229.54
198.404	32.94
198.623	71.85
198.842	98.47
199.062	131.24
199.281	135.34
199.5	41.13
199.719	155.82
199.938	34.99
200.157	127.14
200.376	106.67
200.595	143.53
200.814	94.38
201.033	-14.17
201.252	102.57
201.471	157.86
201.69	114.86
201.909	51.37
202.128	131.24
202.347	155.82
202.566	22.7
202.785	-53.08
203.004	-26.45
203.223	264.36
203.442	102.57
203.661	-42.84
203.879	104.62
204.098	106.67
204.317	30.89
204.536	149.67
204.755	59.56
204.974	92.33
205.193	4.27
205.411	139.43
205.63	77.99
205.849	96.43
206.068	-12.12
206.287	-3.93
206.505	178.34
206.724	49.32
206.943	-42.84
207.162	-24.4
207.381	106.67
207.599	86.19
207.818	65.71
208.037	-16.21
208.255	-1.88
208.474	51.37
208.693	131.24
208.911	94.38
209.13	75.95
209.349	184.49
209.567	170.15
209.786	108.71
210.005	69.8
210.223	96.43
210.442	-94.04
210.661	22.7
210.879	84.14
211.098	14.51
211.316	55.47
211.535	88.23
211.753	30.89
211.972	143.53
212.191	39.08
212.409	129.19
212.628	92.33
212.846	28.84
213.065	67.75
213.283	135.34
213.502	86.19
213.72	16.55
213.938	45.23
214.157	53.42
214.375	178.34
214.594	18.6
214.812	90.28
215.031	-3.93
215.249	75.95
215.467	69.8
215.686	63.66
215.904	149.67
216.122	75.95
216.341	133.29
216.559	6.31
216.778	141.48
216.996	166.06
217.214	77.99
217.432	-5.97
217.651	-1.88
217.869	77.99
218.087	20.65
218.306	53.42
218.524	24.75
218.742	77.99
218.96	45.23
219.179	8.36
219.397	34.99
219.615	235.69
219.833	102.57
220.051	32.94
220.27	168.1
220.488	198.82
220.706	127.14
220.924	30.89
221.142	-26.45
221.36	45.23
221.578	24.75
221.796	92.33
222.015	-5.97
222.233	77.99
222.451	190.63
222.669	16.55
222.887	88.23
223.105	12.46
223.323	67.75
223.541	14.51
223.759	121
223.977	88.23
224.195	178.34
224.413	147.62
224.631	94.38
224.849	96.43
225.067	301.22
225.285	61.61
225.503	18.6
225.721	-30.55
225.939	49.32
226.157	116.9
226.375	170.15
226.592	-55.12
226.81	55.47
227.028	106.67
227.246	106.67
227.464	-1.88
227.682	69.8
227.9	59.56
228.117	190.63
228.335	94.38
228.553	82.09
228.771	47.27
228.989	63.66
229.206	92.33
229.424	49.32
229.642	-10.07
229.86	45.23
230.077	141.48
230.295	47.27
230.513	155.82
230.731	77.99
230.948	231.59
231.166	219.3
231.384	41.13
231.601	26.79
231.819	243.88
232.037	112.81
232.254	12.46
232.472	-5.97
232.689	-5.97
232.907	116.9
233.125	55.47
233.342	24.75
233.56	-42.84
233.777	98.47
233.995	49.32
234.213	69.8
234.43	106.67
234.648	106.67
234.865	-10.07
235.083	102.57
235.3	139.43
235.518	67.75
235.735	202.92
235.953	98.47
236.17	55.47
236.388	-59.22
236.605	24.75
236.822	123.05
237.04	116.9
237.257	71.85
237.475	2.22
237.692	92.33
237.909	96.43
238.127	39.08
238.344	92.33
238.562	41.13
238.779	-42.84
238.996	20.65
239.214	92.33
239.431	194.73
239.648	6.31
239.865	143.53
240.083	100.52
240.3	37.03
240.517	63.66
240.735	80.04
240.952	121
241.169	94.38
241.386	151.72
241.603	57.51
241.821	-22.36
242.038	200.87
242.255	94.38
242.472	-12.12
242.689	57.51
242.907	98.47
243.124	-1.88
243.341	-36.69
243.558	-30.55
243.775	-3.93
243.992	-10.07
244.209	139.43
244.426	170.15
244.643	90.28
244.86	12.46
245.078	151.72
245.295	75.95
245.512	88.23
245.729	86.19
245.946	94.38
246.163	102.57
246.38	63.66
246.597	114.86
246.814	69.8
247.031	49.32
247.248	96.43
247.464	125.1
247.681	12.46
247.898	127.14
248.115	112.81
248.332	61.61
248.549	170.15
248.766	127.14
248.983	69.8
249.2	67.75
249.417	143.53
249.633	4.27
249.85	127.14
250.067	51.37
250.284	45.23
250.501	121
250.717	114.86
250.934	-30.55
251.151	37.03
251.368	-10.07
251.585	47.27
251.801	77.99
252.018	-48.98
252.235	139.43
252.451	-28.5
252.668	2.22
252.885	178.34
253.102	123.05
253.318	71.85
253.535	63.66
253.752	-5.97
253.968	28.84
254.185	-59.22
254.401	63.66
254.618	57.51
254.835	-28.5
255.051	47.27
255.268	145.58
255.484	71.85
255.701	100.52
255.917	73.9
256.134	14.51
256.351	12.46
256.567	-57.17
256.784	45.23
257	-61.27
257.217	159.91
257.433	100.52
257.65	116.9
257.866	116.9
258.082	-71.51
258.299	39.08
258.515	94.38
258.732	84.14
258.948	-36.69
259.165	61.61
259.381	65.71
259.597	102.57
259.814	86.19
260.03	47.27
260.246	65.71
260.463	147.62
260.679	129.19
260.895	-1.88
261.112	106.67
261.328	30.89
261.544	49.32
261.761	143.53
261.977	18.6
262.193	-32.6
262.409	71.85
262.626	106.67
262.842	69.8
263.058	12.46
263.274	143.53
263.49	34.99
263.707	12.46
263.923	34.99
264.139	-55.12
264.355	63.66
264.571	96.43
264.787	73.9
265.004	166.06
265.22	4.27
265.436	16.55
265.652	-63.32
265.868	28.84
266.084	-34.64
266.3	53.42
266.516	22.7
266.732	172.2
266.948	90.28
267.164	8.36
267.38	108.71
267.596	90.28
267.812	194.73
268.028	88.23
268.244	47.27
268.46	47.27
268.676	-22.36
268.892	30.89
269.108	-26.45
269.324	14.51
269.54	-63.32
269.756	194.73
269.972	-14.17
270.188	-32.6
270.403	30.89
270.619	34.99
270.835	131.24
271.051	86.19
271.267	-5.97
271.483	-20.31
271.698	129.19
271.914	100.52
272.13	176.3
272.346	77.99
272.562	61.61
272.777	147.62
272.993	86.19
273.209	-1.88
273.425	127.14
273.64	8.36
273.856	37.03
274.072	4.27
274.287	-16.21
274.503	129.19
274.719	106.67
274.934	-18.26
275.15	-75.6
275.366	2.22
275.581	26.79
275.797	61.61
276.012	65.71
276.228	2.22
276.444	47.27
276.659	161.96
276.875	14.51
277.09	57.51
277.306	-34.64
277.521	92.33
277.737	43.18
277.952	39.08
278.168	-8.02
278.383	39.08
278.599	51.37
278.814	41.13
279.03	39.08
279.245	170.15
279.461	43.18
279.676	149.67
279.892	-20.31
280.107	4.27
280.322	34.99
280.538	61.61
280.753	-10.07
280.969	92.33
281.184	12.46
281.399	131.24
281.615	67.75
281.83	129.19
282.045	-46.93
282.26	10.41
282.476	73.9
282.691	67.75
282.906	88.23
283.122	37.03
283.337	51.37
283.552	30.89
283.767	45.23
283.983	121
284.198	86.19
284.413	49.32
284.628	71.85
284.843	77.99
285.058	98.47
285.274	34.99
285.489	-110.42
285.704	112.81
285.919	8.36
286.134	26.79
286.349	22.7
286.564	-16.21
286.779	125.1
286.995	-32.6
287.21	4.27
287.425	12.46
287.64	16.55
287.855	77.99
288.07	80.04
288.285	168.1
288.5	131.24
288.715	75.95
288.93	65.71
289.145	12.46
289.36	147.62
289.575	28.84
289.79	94.38
290.004	-14.17
290.219	82.09
290.434	-8.02
290.649	-12.12
290.864	20.65
291.079	-3.93
291.294	49.32
291.509	34.99
291.724	82.09
291.938	47.27
292.153	84.14
292.368	30.89
292.583	106.67
292.798	110.76
293.012	34.99
293.227	47.27
293.442	41.13
293.657	67.75
293.871	133.29
294.086	147.62
294.301	161.96
294.516	116.9
294.73	-10.07
294.945	-51.03
295.16	4.27
295.374	145.58
295.589	100.52
295.804	51.37
296.018	30.89
296.233	135.34
296.447	123.05
296.662	-22.36
296.877	172.2
297.091	108.71
297.306	30.89
297.52	108.71
297.735	57.51
297.949	178.34
298.164	-24.4
298.378	47.27
298.593	16.55
298.807	34.99
299.022	37.03
299.236	164.01
299.451	22.7
299.665	63.66
299.88	18.6
300.094	100.52
300.309	71.85
300.523	77.99
300.737	104.62
300.952	49.32
301.166	77.99
301.381	-46.93
301.595	41.13
301.809	129.19
302.024	59.56
302.238	22.7
302.452	161.96
302.667	-16.21
302.881	55.47
303.095	110.76
303.309	-12.12
303.524	10.41
303.738	47.27
303.952	65.71
304.166	100.52
304.381	-89.94
304.595	194.73
304.809	2.22
305.023	80.04
305.237	-63.32
305.452	49.32
305.666	106.67
305.88	14.51
306.094	82.09
306.308	47.27
306.522	161.96
306.736	104.62
306.95	123.05
307.164	73.9
307.379	106.67
307.593	86.19
307.807	90.28
308.021	178.34
308.235	114.86
308.449	-65.36
308.663	67.75
308.877	223.4
309.091	69.8
309.305	69.8
309.519	-122.71
309.733	94.38
309.947	12.46
310.161	182.44
310.374	67.75
310.588	182.44
310.802	-16.21
311.016	51.37
311.23	34.99
311.444	-14.17
311.658	10.41
311.872	161.96
312.085	110.76
312.299	114.86
312.513	141.48
312.727	32.94
312.941	-18.26
313.154	26.79
313.368	94.38
313.582	47.27
313.796	112.81
314.009	-30.55
314.223	90.28
314.437	147.62
314.651	90.28
314.864	6.31
315.078	6.31
315.292	-71.51
315.505	82.09
315.719	34.99
315.933	57.51
316.146	-14.17
316.36	6.31
316.573	102.57
316.787	118.95
317.001	112.81
317.214	-18.26
317.428	37.03
317.641	51.37
317.855	59.56
318.068	51.37
318.282	69.8
318.495	202.92
318.709	90.28
318.922	88.23
319.136	143.53
319.349	184.49
319.563	49.32
319.776	96.43
319.99	-20.31
320.203	10.41
320.417	20.65
320.63	53.42
320.843	153.77
321.057	39.08
321.27	-1.88
321.483	96.43
321.697	225.45
321.91	61.61
322.124	137.38
322.337	155.82
322.55	-1.88
322.763	112.81
322.977	-10.07
323.19	32.94
323.403	69.8
323.617	86.19
323.83	172.2
324.043	26.79
324.256	-5.97
324.469	-14.17
324.683	80.04
324.896	26.79
325.109	-18.26
325.322	24.75
325.535	88.23
325.748	82.09
325.962	28.84
326.175	34.99
326.388	108.71
326.601	104.62
326.814	75.95
327.027	30.89
327.24	131.24
327.453	-40.79
327.666	102.57
327.879	96.43
328.092	129.19
328.305	67.75
328.518	63.66
328.731	12.46
328.944	-53.08
329.157	71.85
329.37	-38.74
329.583	211.11
329.796	123.05
330.009	-57.17
330.222	110.76
330.435	123.05
330.648	92.33
330.861	92.33
331.073	24.75
331.286	164.01
331.499	133.29
331.712	-26.45
331.925	37.03
332.138	20.65
332.35	149.67
332.563	39.08
332.776	147.62
332.989	51.37
333.202	12.46
333.414	47.27
333.627	65.71
333.84	82.09
334.053	114.86
334.265	43.18
334.478	0.17
334.691	51.37
334.903	55.47
335.116	-30.55
335.329	71.85
335.541	82.09
335.754	196.78
335.966	-38.74
336.179	92.33
336.392	45.23
336.604	47.27
336.817	127.14
337.029	129.19
337.242	-10.07
337.454	96.43
337.667	73.9
337.88	118.95
338.092	45.23
338.305	73.9
338.517	0.17
338.729	80.04
338.942	164.01
339.154	24.75
339.367	20.65
339.579	116.9
339.792	-22.36
340.004	141.48
340.217	123.05
340.429	69.8
340.641	-3.93
340.854	20.65
341.066	61.61
341.278	161.96
341.491	204.97
341.703	57.51
341.915	-34.64
342.128	129.19
342.34	51.37
342.552	-71.51
342.764	0.17
342.977	-22.36
343.189	-34.64
343.401	20.65
343.613	-26.45
343.826	92.33
344.038	-24.4
344.25	80.04
344.462	-59.22
344.674	30.89
344.886	102.57
345.099	55.47
345.311	57.51
345.523	2.22
345.735	-10.07
345.947	86.19
346.159	59.56
346.371	26.79
346.583	73.9
346.795	235.69
347.007	22.7
347.219	123.05
347.431	0.17
347.643	131.24
347.855	98.47
348.067	211.11
348.279	-30.55
348.491	32.94
348.703	88.23
348.915	67.75
349.127	16.55
349.339	65.71
349.551	22.7
349.763	147.62
349.975	106.67
350.187	104.62
350.399	151.72
350.61	106.67
350.822	-3.93
351.034	57.51
351.246	45.23
351.458	51.37
351.669	118.95
351.881	102.57
352.093	75.95
352.305	108.71
352.517	131.24
352.728	88.23
352.94	166.06
353.152	123.05
353.363	-28.5
353.575	39.08
353.787	159.91
353.999	100.52
354.21	170.15
354.422	37.03
354.633	53.42
354.845	55.47
355.057	39.08
355.268	43.18
355.48	45.23
355.692	16.55
355.903	-3.93
356.115	-48.98
356.326	-1.88
356.538	186.54
356.749	153.77
356.961	219.3
357.172	55.47
357.384	-8.02
357.595	186.54
357.807	20.65
358.018	47.27
358.23	51.37
358.441	204.97
358.653	137.38
358.864	-5.97
359.075	-16.21
359.287	86.19
359.498	133.29
359.709	30.89
359.921	88.23
360.132	55.47
360.344	-38.74
360.555	16.55
360.766	49.32
360.977	4.27
361.189	118.95
361.4	39.08
361.611	196.78
361.823	43.18
362.034	63.66
362.245	-77.65
362.456	-67.41
362.667	110.76
362.879	-3.93
363.09	51.37
363.301	84.14
363.512	98.47
363.723	-3.93
363.935	-44.88
364.146	102.57
364.357	53.42
364.568	86.19
364.779	-51.03
364.99	104.62
365.201	14.51
365.412	123.05
365.623	-73.56
365.834	39.08
366.045	75.95
366.256	139.43
366.467	65.71
366.678	43.18
366.889	77.99
367.1	82.09
367.311	75.95
367.522	34.99
367.733	159.91
367.944	141.48
368.155	75.95
368.366	237.74
368.577	170.15
368.788	137.38
368.999	-63.32
369.209	28.84
369.42	235.69
369.631	247.97
369.842	28.84
370.053	12.46
370.264	135.34
370.474	43.18
370.685	100.52
370.896	32.94
371.107	129.19
371.317	80.04
371.528	106.67
371.739	135.34
371.95	153.77
372.16	159.91
372.371	-46.93
372.582	-10.07
372.792	49.32
373.003	137.38
373.214	112.81
373.424	204.97
373.635	-5.97
373.846	137.38
374.056	-5.97
374.267	53.42
374.477	98.47
374.688	22.7
374.898	94.38
375.109	102.57
375.319	61.61
375.53	112.81
375.74	92.33
375.951	-28.5
376.161	80.04
376.372	82.09
376.582	-32.6
376.793	172.2
377.003	-18.26
377.214	-38.74
377.424	80.04
377.635	61.61
377.845	-20.31
378.055	301.22
378.266	-71.51
378.476	71.85
378.686	82.09
378.897	53.42
379.107	129.19
379.317	77.99
379.528	67.75
379.738	129.19
379.948	-10.07
380.158	184.49
380.369	30.89
380.579	82.09
380.789	-3.93
380.999	67.75
381.21	67.75
381.42	252.07
381.63	98.47
381.84	139.43
382.05	57.51
382.261	94.38
382.471	164.01
382.681	12.46
382.891	153.77
383.101	129.19
383.311	-10.07
383.521	43.18
383.731	61.61
383.941	92.33
384.151	110.76
384.361	6.31
384.571	123.05
384.781	102.57
384.991	178.34
385.201	252.07
385.411	82.09
385.621	96.43
385.831	34.99
386.041	45.23
386.251	100.52
386.461	182.44
386.671	4.27
386.881	6.31
387.091	43.18
387.301	92.33
387.511	67.75
387.72	22.7
387.93	10.41
388.14	24.75
388.35	45.23
388.56	243.88
388.769	149.67
388.979	16.55
389.189	28.84
389.399	73.9
389.609	100.52
389.818	77.99
390.028	63.66
390.238	112.81
390.447	10.41
390.657	96.43
390.867	43.18
391.076	-67.41
391.286	39.08
391.496	84.14
391.705	114.86
391.915	110.76
392.125	106.67
392.334	55.47
392.544	92.33
392.753	57.51
392.963	39.08
393.172	26.79
393.382	102.57
393.591	188.58
393.801	51.37
394.01	254.12
394.22	143.53
394.429	47.27
394.639	94.38
394.848	65.71
395.058	84.14
395.267	-8.02
395.477	155.82
395.686	53.42
395.895	227.5
396.105	194.73
396.314	73.9
396.524	53.42
396.733	57.51
396.942	151.72
397.152	73.9
397.361	96.43
397.57	49.32
397.78	129.19
397.989	170.15
398.198	190.63
398.407	82.09
398.617	45.23
398.826	39.08
399.035	57.51
399.244	106.67
399.453	61.61
399.663	104.62
399.872	86.19
400.081	61.61
400.29	209.06
400.499	69.8
400.708	133.29
400.917	-26.45
401.127	94.38
401.336	55.47
401.545	225.45
401.754	125.1
401.963	116.9
402.172	49.32
402.381	43.18
402.59	-69.46
402.799	100.52
403.008	129.19
403.217	73.9
403.426	8.36
403.635	-122.71
403.844	30.89
404.053	-3.93
404.262	82.09
404.471	202.92
404.68	198.82
404.888	45.23
405.097	16.55
405.306	-3.93
405.515	108.71
405.724	22.7
405.933	106.67
406.142	49.32
406.35	178.34
406.559	-34.64
406.768	131.24
406.977	110.76
407.185	94.38
407.394	106.67
407.603	-10.07
407.812	73.9
408.02	131.24
408.229	80.04
408.438	112.81
408.646	-38.74
408.855	-16.21
409.064	116.9
409.272	51.37
409.481	106.67
409.69	69.8
409.898	-44.88
410.107	86.19
410.315	73.9
410.524	-57.17
410.733	69.8
410.941	49.32
411.15	39.08
411.358	116.9
411.567	186.54
411.775	59.56
411.984	110.76
412.192	147.62
412.401	-28.5
412.609	204.97
412.818	108.71
413.026	108.71
413.234	24.75
413.443	34.99
413.651	53.42
413.86	67.75
414.068	180.39
414.276	235.69
414.485	-53.08
414.693	137.38
414.901	192.68
415.11	96.43
415.318	116.9
415.526	80.04
415.734	192.68
415.943	96.43
416.151	172.2
416.359	135.34
416.567	55.47
416.776	141.48
416.984	108.71
417.192	225.45
417.4	65.71
417.608	41.13
417.817	34.99
418.025	49.32
418.233	82.09
418.441	20.65
418.649	-69.46
418.857	135.34
419.065	194.73
419.273	159.91
419.481	127.14
419.689	51.37
419.897	69.8
420.105	-5.97
420.313	184.49
420.521	209.06
420.729	184.49
420.937	24.75
421.145	-36.69
421.353	116.9
421.561	166.06
421.769	131.24
421.977	37.03
422.185	98.47
422.393	43.18
422.601	168.1
422.809	71.85
423.017	53.42
423.224	88.23
423.432	67.75
423.64	18.6
423.848	202.92
424.056	22.7
424.263	211.11
424.471	69.8
424.679	243.88
424.887	100.52
425.094	161.96
425.302	112.81
425.51	61.61
425.718	131.24
425.925	133.29
426.133	94.38
426.341	116.9
426.548	75.95
426.756	8.36
426.964	235.69
427.171	110.76
427.379	55.47
427.586	114.86
427.794	104.62
428.001	133.29
428.209	108.71
428.417	182.44
428.624	110.76
428.832	149.67
429.039	151.72
429.247	110.76
429.454	157.86
429.662	313.51
429.869	164.01
430.076	84.14
430.284	174.25
430.491	178.34
430.699	125.1
430.906	256.17
431.114	161.96
431.321	172.2
431.528	131.24
431.736	180.39
431.943	188.58
432.15	223.4
432.358	184.49
432.565	317.61
432.772	63.66
432.979	204.97
433.187	231.59
433.394	264.36
433.601	159.91
433.808	215.21
434.016	276.65
434.223	293.03
434.43	243.88
434.637	286.89
434.844	268.45
435.052	227.5
435.259	270.5
435.466	366.76
435.673	293.03
435.88	225.45
436.087	424.1
436.294	360.61
436.501	262.31
436.708	354.47
436.915	325.8
437.122	356.52
437.329	260.26
437.537	374.95
437.743	381.09
437.95	485.54
438.157	413.86
438.364	415.91
438.571	434.34
438.778	458.92
438.985	536.74
439.192	501.92
439.399	563.36
439.606	469.16
439.813	528.55
440.02	632.99
440.227	698.53
440.433	598.18
440.64	536.74
440.847	491.68
441.054	596.13
441.261	735.39
441.467	673.95
441.674	622.75
441.881	716.96
442.088	657.57
442.294	755.87
442.501	821.41
442.708	792.73
442.914	811.17
443.121	852.13
443.328	932
443.534	1003.68
443.741	925.85
443.948	893.09
444.154	1015.96
444.361	1261.72
444.568	1124.51
444.774	1101.98
444.981	1130.65
445.187	1247.38
445.394	1179.8
445.6	1269.91
445.807	1341.59
446.013	1374.36
446.22	1251.48
446.426	1472.66
446.633	1425.56
446.839	1687.7
447.046	1544.34
447.252	1704.08
447.459	1679.51
447.665	1691.79
447.871	1892.49
448.078	2101.39
448.284	2019.47
448.491	2191.5
448.697	2070.67
448.903	2242.7
449.11	2355.33
449.316	2273.42
449.522	2457.73
449.728	2617.47
449.935	2533.51
450.141	2746.5
450.347	2848.9
450.553	2918.53
450.76	2934.91
450.966	3059.84
451.172	3131.51
451.378	3317.88
451.584	3235.96
451.791	3580.02
451.997	3719.28
452.203	3752.05
452.409	3967.09
452.615	4173.93
452.821	3993.71
453.027	4075.63
453.233	4565.09
453.44	4255.85
453.646	4579.43
453.852	4745.31
454.058	4943.97
454.264	5007.45
454.47	5511.25
454.676	5480.54
454.882	5972.05
455.088	5703.76
455.294	6000.72
455.5	6246.48
455.705	6807.62
455.911	6987.84
456.117	6934.59
456.323	7149.63
456.529	7231.55
456.735	7782.45
456.941	7927.86
457.147	8396.84
457.352	8583.21
457.558	8763.43
457.764	9308.19
457.97	9603.1
458.176	10086.42
458.381	10471.43
458.587	10588.17
458.793	11120.64
458.999	11399.16
459.204	12742.63
459.41	13283.3
459.616	12842.98
459.821	13367.26
460.027	13862.87
460.233	14761.93
460.438	14952.39
460.644	15585.21
460.85	15923.13
461.055	16519.09
461.261	17203.11
461.466	16953.26
461.672	17424.29
461.878	19425.15
462.083	19013.51
462.289	19464.07
462.494	20219.77
462.7	20350.84
462.905	20823.92
463.111	22476.63
463.316	23588.67
463.522	23719.74
463.727	24559.41
463.932	25534.25
464.138	26664.72
464.343	27827.97
464.549	27434.76
464.754	29677.29
464.959	30394.07
465.165	30818
465.37	30654.17
465.575	30734.04
465.781	32683.7
465.986	33627.82
466.191	33050.29
466.397	33660.59
466.602	32403.13
466.807	34803.35
467.012	35151.51
467.218	35817.1
467.423	36122.24
467.628	36650.62
467.833	39042.65
