Data from USB4F104151__92__10-35-14-830.txt Node

Date: Wed Feb 26 10:35:14 EST 2025
User: louis
Spectrometer: USB4F10415
Trigger mode: 4
Integration Time (sec): 1.000000E-1
Scans to average: 1
Electric dark correction enabled: true
Nonlinearity correction enabled: false
Boxcar width: 0
XAxis mode: Wavelengths
Number of Pixels in Spectrum: 3648
>>>>>Begin Spectral Data<<<<<
178.204	-368.98
178.424	-368.98
178.644	-368.98
178.864	-420.17
179.084	-362.83
179.304	52.91
179.524	-74.07
179.744	16.04
179.964	-31.06
180.184	40.62
180.404	13.99
180.624	18.09
180.844	-24.92
181.064	-57.68
181.283	20.14
181.503	-33.11
181.723	59.05
181.943	-47.44
182.163	210.6
182.383	91.82
182.602	61.1
182.822	75.43
183.042	44.71
183.262	-0.34
183.482	-6.49
183.701	40.62
183.921	34.47
184.141	11.95
184.361	42.67
184.58	22.19
184.8	36.52
185.02	5.8
185.239	57
185.459	57
185.679	122.54
185.898	-135.51
186.118	5.8
186.338	-26.96
186.557	155.3
186.777	-2.39
186.997	-37.2
187.216	61.1
187.436	130.73
187.655	77.48
187.875	54.95
188.095	106.15
188.314	7.85
188.534	120.49
188.753	-39.25
188.973	97.96
189.192	169.64
189.412	59.05
189.631	16.04
189.851	97.96
190.07	179.88
190.29	-4.44
190.509	32.43
190.729	65.19
190.948	89.77
191.168	222.89
191.387	79.53
191.607	5.8
191.826	91.82
192.045	-10.58
192.265	3.75
192.484	67.24
192.704	9.9
192.923	-63.83
193.142	204.46
193.362	-16.73
193.581	116.39
193.8	24.23
194.02	59.05
194.239	-20.82
194.458	143.02
194.678	-35.16
194.897	65.19
195.116	100.01
195.335	112.3
195.555	40.62
195.774	-92.5
195.993	128.68
196.212	5.8
196.432	79.53
196.651	13.99
196.87	67.24
197.089	251.56
197.308	122.54
197.528	48.81
197.747	-49.49
197.966	87.72
198.185	140.97
198.404	-10.58
198.623	102.06
198.842	167.59
199.062	18.09
199.281	114.34
199.5	28.33
199.719	104.11
199.938	57
200.157	50.86
200.376	87.72
200.595	130.73
200.814	3.75
201.033	63.15
201.252	122.54
201.471	28.33
201.69	73.39
201.909	24.23
202.128	34.47
202.347	112.3
202.566	38.57
202.785	-29.01
203.004	5.8
203.223	212.65
203.442	-2.39
203.661	-47.44
203.879	102.06
204.098	106.15
204.317	1.71
204.536	83.63
204.755	59.05
204.974	122.54
205.193	-16.73
205.411	130.73
205.63	163.5
205.849	26.28
206.068	16.04
206.287	-86.36
206.505	204.46
206.724	44.71
206.943	-14.68
207.162	-2.39
207.381	112.3
207.599	-26.96
207.818	-26.96
208.037	18.09
208.255	63.15
208.474	48.81
208.693	18.09
208.911	32.43
209.13	50.86
209.349	67.24
209.567	28.33
209.786	171.69
210.005	85.67
210.223	91.82
210.442	-94.55
210.661	26.28
210.879	26.28
211.098	100.01
211.316	54.95
211.535	24.23
211.753	110.25
211.972	97.96
212.191	48.81
212.409	-24.92
212.628	122.54
212.846	-69.97
213.065	9.9
213.283	151.21
213.502	71.34
213.72	44.71
213.938	44.71
214.157	24.23
214.375	50.86
214.594	20.14
214.812	73.39
215.031	-8.53
215.249	1.71
215.467	79.53
215.686	18.09
215.904	50.86
216.122	69.29
216.341	104.11
216.559	13.99
216.778	83.63
216.996	134.82
217.214	54.95
217.432	32.43
217.651	7.85
217.869	34.47
218.087	87.72
218.306	1.71
218.524	54.95
218.742	20.14
218.96	114.34
219.179	38.57
219.397	67.24
219.615	216.74
219.833	81.58
220.051	-26.96
220.27	95.91
220.488	116.39
220.706	24.23
220.924	63.15
221.142	26.28
221.36	24.23
221.578	75.43
221.796	-8.53
222.015	34.47
222.233	52.91
222.451	233.13
222.669	-69.97
222.887	40.62
223.105	42.67
223.323	83.63
223.541	13.99
223.759	69.29
223.977	81.58
224.195	220.84
224.413	89.77
224.631	-18.77
224.849	5.8
225.067	210.6
225.285	7.85
225.503	-8.53
225.721	-94.55
225.939	59.05
226.157	44.71
226.375	233.13
226.592	34.47
226.81	38.57
227.028	138.92
227.246	138.92
227.464	36.52
227.682	130.73
227.9	136.87
228.117	61.1
228.335	108.2
228.553	59.05
228.771	-31.06
228.989	75.43
229.206	73.39
229.424	57
229.642	-51.54
229.86	30.38
230.077	138.92
230.295	-24.92
230.513	87.72
230.731	89.77
230.948	114.34
231.166	237.22
231.384	48.81
231.601	-92.5
231.819	132.78
232.037	-22.87
232.254	-35.16
232.472	-6.49
232.689	9.9
232.907	110.25
233.125	9.9
233.342	-45.4
233.56	-33.11
233.777	22.19
233.995	18.09
234.213	93.87
234.43	61.1
234.648	-22.87
234.865	7.85
235.083	34.47
235.3	46.76
235.518	73.39
235.735	157.35
235.953	118.44
236.17	169.64
236.388	7.85
236.605	-4.44
236.822	140.97
237.04	143.02
237.257	9.9
237.475	-41.3
237.692	24.23
237.909	48.81
238.127	36.52
238.344	100.01
238.562	16.04
238.779	-43.35
238.996	-37.2
239.214	-0.34
239.431	108.2
239.648	-31.06
239.865	-0.34
240.083	147.11
240.3	3.75
240.517	16.04
240.735	20.14
240.952	116.39
241.169	50.86
241.386	57
241.603	-55.64
241.821	52.91
242.038	79.53
242.255	194.22
242.472	-43.35
242.689	22.19
242.907	104.11
243.124	59.05
243.341	20.14
243.558	-53.59
243.775	-117.08
243.992	-127.32
244.209	161.45
244.426	124.58
244.643	73.39
244.86	38.57
245.078	134.82
245.295	36.52
245.512	44.71
245.729	26.28
245.946	61.1
246.163	13.99
246.38	-22.87
246.597	79.53
246.814	-18.77
247.031	32.43
247.248	30.38
247.464	71.34
247.681	48.81
247.898	85.67
248.115	91.82
248.332	-29.01
248.549	87.72
248.766	143.02
248.983	106.15
249.2	81.58
249.417	165.54
249.633	-63.83
249.85	95.91
250.067	75.43
250.284	79.53
250.501	46.76
250.717	71.34
250.934	-8.53
251.151	5.8
251.368	-18.77
251.585	67.24
251.801	28.33
252.018	-8.53
252.235	83.63
252.451	-8.53
252.668	138.92
252.885	79.53
253.102	57
253.318	-16.73
253.535	89.77
253.752	-35.16
253.968	38.57
254.185	3.75
254.401	38.57
254.618	9.9
254.835	40.62
255.051	112.3
255.268	26.28
255.484	75.43
255.701	22.19
255.917	65.19
256.134	1.71
256.351	44.71
256.567	20.14
256.784	24.23
257	-41.3
257.217	63.15
257.433	93.87
257.65	61.1
257.866	112.3
258.082	-20.82
258.299	-47.44
258.515	54.95
258.732	59.05
258.948	-18.77
259.165	32.43
259.381	-14.68
259.597	104.11
259.814	16.04
260.03	104.11
260.246	-0.34
260.463	75.43
260.679	157.35
260.895	16.04
261.112	57
261.328	57
261.544	-16.73
261.761	140.97
261.977	-26.96
262.193	-67.92
262.409	97.96
262.626	36.52
262.842	-14.68
263.058	1.71
263.274	34.47
263.49	85.67
263.707	136.87
263.923	93.87
264.139	-16.73
264.355	-6.49
264.571	42.67
264.787	57
265.004	196.26
265.22	44.71
265.436	-94.55
265.652	-51.54
265.868	102.06
266.084	-18.77
266.3	32.43
266.516	-100.69
266.732	114.34
266.948	85.67
267.164	-57.68
267.38	136.87
267.596	16.04
267.812	145.06
268.028	5.8
268.244	24.23
268.46	18.09
268.676	42.67
268.892	3.75
269.108	-39.25
269.324	-6.49
269.54	-80.21
269.756	100.01
269.972	16.04
270.188	50.86
270.403	-39.25
270.619	24.23
270.835	91.82
271.051	104.11
271.267	-55.64
271.483	-39.25
271.698	52.91
271.914	122.54
272.13	22.19
272.346	-26.96
272.562	54.95
272.777	145.06
272.993	54.95
273.209	-10.58
273.425	89.77
273.64	-147.8
273.856	110.25
274.072	-8.53
274.287	-29.01
274.503	132.78
274.719	179.88
274.934	-2.39
275.15	-33.11
275.366	110.25
275.581	-121.17
275.797	40.62
276.012	38.57
276.228	-22.87
276.444	30.38
276.659	59.05
276.875	-33.11
277.09	-24.92
277.306	16.04
277.521	97.96
277.737	54.95
277.952	122.54
278.168	54.95
278.383	32.43
278.599	24.23
278.814	83.63
279.03	59.05
279.245	71.34
279.461	36.52
279.676	108.2
279.892	34.47
280.107	-12.63
280.322	-14.68
280.538	120.49
280.753	-37.2
280.969	44.71
281.184	95.91
281.399	165.54
281.615	87.72
281.83	-12.63
282.045	-45.4
282.26	-84.31
282.476	52.91
282.691	147.11
282.906	79.53
283.122	34.47
283.337	-14.68
283.552	40.62
283.767	-37.2
283.983	75.43
284.198	104.11
284.413	81.58
284.628	-106.84
284.843	61.1
285.058	32.43
285.274	32.43
285.489	54.95
285.704	106.15
285.919	-0.34
286.134	-29.01
286.349	30.38
286.564	-37.2
286.779	97.96
286.995	65.19
287.21	-24.92
287.425	-6.49
287.64	54.95
287.855	52.91
288.07	-86.36
288.285	167.59
288.5	87.72
288.715	108.2
288.93	28.33
289.145	54.95
289.36	77.48
289.575	-69.97
289.79	120.49
290.004	38.57
290.219	104.11
290.434	-6.49
290.649	30.38
290.864	18.09
291.079	83.63
291.294	-0.34
291.509	75.43
291.724	11.95
291.938	9.9
292.153	57
292.368	40.62
292.583	118.44
292.798	124.58
293.012	114.34
293.227	81.58
293.442	-26.96
293.657	75.43
293.871	126.63
294.086	24.23
294.301	126.63
294.516	87.72
294.73	-6.49
294.945	-10.58
295.16	-4.44
295.374	214.7
295.589	44.71
295.804	-14.68
296.018	11.95
296.233	116.39
296.447	42.67
296.662	30.38
296.877	159.4
297.091	112.3
297.306	30.38
297.52	22.19
297.735	69.29
297.949	38.57
298.164	24.23
298.378	67.24
298.593	-29.01
298.807	-67.92
299.022	42.67
299.236	120.49
299.451	18.09
299.665	44.71
299.88	-35.16
300.094	138.92
300.309	81.58
300.523	-39.25
300.737	38.57
300.952	63.15
301.166	102.06
301.381	20.14
301.595	9.9
301.809	116.39
302.024	38.57
302.238	-80.21
302.452	149.16
302.667	-14.68
302.881	183.98
303.095	177.83
303.309	79.53
303.524	3.75
303.738	126.63
303.952	48.81
304.166	163.5
304.381	-100.69
304.595	128.68
304.809	28.33
305.023	81.58
305.237	22.19
305.452	112.3
305.666	59.05
305.88	54.95
306.094	61.1
306.308	95.91
306.522	71.34
306.736	61.1
306.95	73.39
307.164	48.81
307.379	-43.35
307.593	134.82
307.807	83.63
308.021	124.58
308.235	-20.82
308.449	-59.73
308.663	13.99
308.877	212.65
309.091	5.8
309.305	110.25
309.519	-137.56
309.733	77.48
309.947	-37.2
310.161	69.29
310.374	134.82
310.588	151.21
310.802	-84.31
311.016	-43.35
311.23	132.78
311.444	7.85
311.658	28.33
311.872	93.87
312.085	89.77
312.299	169.64
312.513	93.87
312.727	7.85
312.941	5.8
313.154	-14.68
313.368	73.39
313.582	16.04
313.796	-10.58
314.009	-47.44
314.223	159.4
314.437	-12.63
314.651	32.43
314.864	-6.49
315.078	-12.63
315.292	-53.59
315.505	48.81
315.719	-6.49
315.933	50.86
316.146	28.33
316.36	-2.39
316.573	71.34
316.787	89.77
317.001	52.91
317.214	-4.44
317.428	-10.58
317.641	3.75
317.855	28.33
318.068	59.05
318.282	97.96
318.495	79.53
318.709	42.67
318.922	22.19
319.136	110.25
319.349	104.11
319.563	30.38
319.776	108.2
319.99	-29.01
320.203	-14.68
320.417	36.52
320.63	149.16
320.843	147.11
321.057	44.71
321.27	3.75
321.483	48.81
321.697	132.78
321.91	9.9
322.124	161.45
322.337	67.24
322.55	34.47
322.763	85.67
322.977	-67.92
323.19	-35.16
323.403	24.23
323.617	3.75
323.83	83.63
324.043	44.71
324.256	13.99
324.469	-2.39
324.683	77.48
324.896	77.48
325.109	26.28
325.322	-61.78
325.535	159.4
325.748	147.11
325.962	3.75
326.175	97.96
326.388	73.39
326.601	28.33
326.814	46.76
327.027	38.57
327.24	157.35
327.453	-47.44
327.666	44.71
327.879	124.58
328.092	169.64
328.305	22.19
328.518	-26.96
328.731	30.38
328.944	30.38
329.157	54.95
329.37	24.23
329.583	161.45
329.796	151.21
330.009	-29.01
330.222	104.11
330.435	116.39
330.648	149.16
330.861	24.23
331.073	71.34
331.286	91.82
331.499	87.72
331.712	-59.73
331.925	28.33
332.138	24.23
332.35	183.98
332.563	-8.53
332.776	147.11
332.989	5.8
333.202	28.33
333.414	20.14
333.627	16.04
333.84	20.14
334.053	34.47
334.265	-96.6
334.478	61.1
334.691	54.95
334.903	71.34
335.116	-18.77
335.329	32.43
335.541	169.64
335.754	171.69
335.966	34.47
336.179	34.47
336.392	18.09
336.604	3.75
336.817	177.83
337.029	118.44
337.242	24.23
337.454	-24.92
337.667	36.52
337.88	196.26
338.092	73.39
338.305	116.39
338.517	13.99
338.729	32.43
338.942	198.31
339.154	-92.5
339.367	-26.96
339.579	91.82
339.792	26.28
340.004	126.63
340.217	22.19
340.429	54.95
340.641	-78.16
340.854	-78.16
341.066	11.95
341.278	85.67
341.491	173.74
341.703	44.71
341.915	-80.21
342.128	65.19
342.34	57
342.552	5.8
342.764	32.43
342.977	50.86
343.189	67.24
343.401	65.19
343.613	-26.96
343.826	126.63
344.038	-61.78
344.25	5.8
344.462	-76.12
344.674	155.3
344.886	40.62
345.099	59.05
345.311	102.06
345.523	5.8
345.735	-96.6
345.947	44.71
346.159	54.95
346.371	-2.39
346.583	5.8
346.795	147.11
347.007	-20.82
347.219	-33.11
347.431	-29.01
347.643	126.63
347.855	-43.35
348.067	110.25
348.279	28.33
348.491	20.14
348.703	91.82
348.915	9.9
349.127	-51.54
349.339	24.23
349.551	-2.39
349.763	40.62
349.975	50.86
350.187	134.82
350.399	46.76
350.61	83.63
350.822	-14.68
351.034	-0.34
351.246	69.29
351.458	118.44
351.669	71.34
351.881	77.48
352.093	100.01
352.305	132.78
352.517	93.87
352.728	124.58
352.94	73.39
353.152	22.19
353.363	16.04
353.575	128.68
353.787	188.07
353.999	100.01
354.21	138.92
354.422	-10.58
354.633	59.05
354.845	75.43
355.057	50.86
355.268	71.34
355.48	77.48
355.692	-108.88
355.903	38.57
356.115	20.14
356.326	-51.54
356.538	126.63
356.749	87.72
356.961	161.45
357.172	22.19
357.384	-74.07
357.595	202.41
357.807	-53.59
358.018	28.33
358.23	52.91
358.441	175.78
358.653	79.53
358.864	59.05
359.075	-47.44
359.287	18.09
359.498	57
359.709	147.11
359.921	100.01
360.132	67.24
360.344	7.85
360.555	81.58
360.766	85.67
360.977	-10.58
361.189	50.86
361.4	5.8
361.611	126.63
361.823	116.39
362.034	100.01
362.245	-149.84
362.456	-10.58
362.667	54.95
362.879	-47.44
363.09	32.43
363.301	87.72
363.512	89.77
363.723	-10.58
363.935	-12.63
364.146	73.39
364.357	46.76
364.568	95.91
364.779	-57.68
364.99	143.02
365.201	-6.49
365.412	165.54
365.623	-31.06
365.834	5.8
366.045	57
366.256	32.43
366.467	1.71
366.678	7.85
366.889	18.09
367.1	26.28
367.311	136.87
367.522	9.9
367.733	110.25
367.944	91.82
368.155	5.8
368.366	183.98
368.577	140.97
368.788	140.97
368.999	-69.97
369.209	16.04
369.42	212.65
369.631	120.49
369.842	163.5
370.053	63.15
370.264	65.19
370.474	-8.53
370.685	97.96
370.896	73.39
371.107	104.11
371.317	34.47
371.528	5.8
371.739	65.19
371.95	22.19
372.16	95.91
372.371	-112.98
372.582	71.34
372.792	102.06
373.003	11.95
373.214	71.34
373.424	108.2
373.635	-10.58
373.846	126.63
374.056	20.14
374.267	28.33
374.477	130.73
374.688	-43.35
374.898	42.67
375.109	26.28
375.319	143.02
375.53	112.3
375.74	153.26
375.951	-22.87
376.161	44.71
376.372	159.4
376.582	32.43
376.793	38.57
377.003	71.34
377.214	11.95
377.424	106.15
377.635	44.71
377.845	46.76
378.055	89.77
378.266	-92.5
378.476	65.19
378.686	32.43
378.897	59.05
379.107	108.2
379.317	38.57
379.528	1.71
379.738	38.57
379.948	-10.58
380.158	83.63
380.369	40.62
380.579	63.15
380.789	-26.96
380.999	97.96
381.21	61.1
381.42	165.54
381.63	54.95
381.84	-6.49
382.05	67.24
382.261	104.11
382.471	153.26
382.681	69.29
382.891	110.25
383.101	48.81
383.311	65.19
383.521	-80.21
383.731	18.09
383.941	102.06
384.151	63.15
384.361	46.76
384.571	83.63
384.781	93.87
384.991	237.22
385.201	118.44
385.411	173.74
385.621	173.74
385.831	38.57
386.041	71.34
386.251	42.67
386.461	147.11
386.671	5.8
386.881	108.2
387.091	30.38
387.301	44.71
387.511	-6.49
387.72	128.68
387.93	3.75
388.14	-31.06
388.35	65.19
388.56	175.78
388.769	169.64
388.979	-102.74
389.189	-14.68
389.399	-10.58
389.609	79.53
389.818	69.29
390.028	20.14
390.238	95.91
390.447	-0.34
390.657	34.47
390.867	65.19
391.076	-47.44
391.286	102.06
391.496	-22.87
391.705	48.81
391.915	138.92
392.125	124.58
392.334	-18.77
392.544	91.82
392.753	-0.34
392.963	63.15
393.172	67.24
393.382	44.71
393.591	169.64
393.801	34.47
394.01	165.54
394.22	81.58
394.429	-2.39
394.639	40.62
394.848	57
395.058	40.62
395.267	24.23
395.477	120.49
395.686	97.96
395.895	251.56
396.105	274.09
396.314	106.15
396.524	87.72
396.733	77.48
396.942	102.06
397.152	116.39
397.361	93.87
397.57	130.73
397.78	-0.34
397.989	-2.39
398.198	183.98
398.407	50.86
398.617	30.38
398.826	57
399.035	32.43
399.244	57
399.453	57
399.663	100.01
399.872	38.57
400.081	-29.01
400.29	183.98
400.499	-78.16
400.708	59.05
400.917	59.05
401.127	85.67
401.336	16.04
401.545	220.84
401.754	71.34
401.963	104.11
402.172	-6.49
402.381	13.99
402.59	16.04
402.799	18.09
403.008	93.87
403.217	79.53
403.426	69.29
403.635	-63.83
403.844	40.62
404.053	91.82
404.262	-59.73
404.471	140.97
404.68	140.97
404.888	11.95
405.097	61.1
405.306	16.04
405.515	95.91
405.724	-14.68
405.933	63.15
406.142	87.72
406.35	138.92
406.559	13.99
406.768	85.67
406.977	149.16
407.185	48.81
407.394	89.77
407.603	-72.02
407.812	36.52
408.02	-2.39
408.229	34.47
408.438	104.11
408.646	-18.77
408.855	5.8
409.064	40.62
409.272	95.91
409.481	7.85
409.69	18.09
409.898	-45.4
410.107	20.14
410.315	132.78
410.524	-16.73
410.733	16.04
410.941	116.39
411.15	102.06
411.358	65.19
411.567	122.54
411.775	75.43
411.984	28.33
412.192	112.3
412.401	18.09
412.609	202.41
412.818	130.73
413.026	85.67
413.234	77.48
413.443	34.47
413.651	-22.87
413.86	32.43
414.068	169.64
414.276	161.45
414.485	-63.83
414.693	255.65
414.901	143.02
415.11	126.63
415.318	46.76
415.526	30.38
415.734	89.77
415.943	30.38
416.151	116.39
416.359	18.09
416.567	85.67
416.776	143.02
416.984	106.15
417.192	210.6
417.4	-47.44
417.608	1.71
417.817	-43.35
418.025	42.67
418.233	149.16
418.441	24.23
418.649	-22.87
418.857	30.38
419.065	114.34
419.273	79.53
419.481	18.09
419.689	5.8
419.897	26.28
420.105	1.71
420.313	93.87
420.521	202.41
420.729	167.59
420.937	7.85
421.145	-0.34
421.353	79.53
421.561	198.31
421.769	89.77
421.977	-29.01
422.185	175.78
422.393	71.34
422.601	161.45
422.809	54.95
423.017	126.63
423.224	28.33
423.432	153.26
423.64	42.67
423.848	108.2
424.056	32.43
424.263	104.11
424.471	34.47
424.679	91.82
424.887	18.09
425.094	122.54
425.302	89.77
425.51	5.8
425.718	122.54
425.925	83.63
426.133	40.62
426.341	216.74
426.548	-2.39
426.756	-39.25
426.964	104.11
427.171	-10.58
427.379	95.91
427.586	67.24
427.794	122.54
428.001	126.63
428.209	102.06
428.417	155.3
428.624	110.25
428.832	116.39
429.039	87.72
429.247	106.15
429.454	67.24
429.662	194.22
429.869	69.29
430.076	120.49
430.284	173.74
430.491	183.98
430.699	149.16
430.906	247.46
431.114	140.97
431.321	128.68
431.528	108.2
431.736	140.97
431.943	181.93
432.15	136.87
432.358	286.37
432.565	267.94
432.772	40.62
432.979	253.61
433.187	198.31
433.394	173.74
433.601	104.11
433.808	218.79
434.016	216.74
434.223	69.29
434.43	251.56
434.637	241.32
434.844	286.37
435.052	263.85
435.259	231.08
435.466	259.75
435.673	278.18
435.88	272.04
436.087	319.14
436.294	386.72
436.501	317.09
436.708	274.09
436.915	310.95
437.122	364.2
437.329	247.46
437.537	413.35
437.743	356.01
437.95	433.83
438.157	378.53
438.364	407.2
438.571	392.87
438.778	425.64
438.985	462.5
439.192	423.59
439.399	429.73
439.606	495.27
439.813	542.37
440.02	626.34
440.227	710.3
440.433	595.62
440.64	538.27
440.847	513.7
441.054	642.72
441.261	648.86
441.467	603.81
441.674	646.82
441.881	728.74
442.088	669.34
442.294	730.78
442.501	874.14
442.708	814.75
442.914	808.61
443.121	845.47
443.328	906.91
443.534	1025.69
443.741	931.48
443.948	863.9
444.154	1001.12
444.361	1175.19
444.568	1154.71
444.774	1107.61
444.981	1017.5
445.187	1322.65
445.394	1193.62
445.6	1255.06
445.807	1427.09
446.013	1410.71
446.22	1355.41
446.426	1423
446.633	1588.88
446.839	1771.15
447.046	1599.12
447.252	1826.45
447.459	1707.66
447.665	1775.25
447.871	1992.33
448.078	2006.67
448.284	1955.47
448.491	2027.15
448.697	2270.86
448.903	2291.34
449.11	2285.19
449.316	2315.91
449.522	2561.67
449.728	2676.35
449.935	2717.31
450.141	2811.52
450.347	2961.02
450.553	2858.62
450.76	2903.68
450.966	3159.67
451.172	3315.32
451.378	3352.18
451.584	3417.72
451.791	3544.69
451.997	3585.65
452.203	3890.8
452.409	4011.63
452.615	4273.77
452.821	4007.53
453.027	3788.4
453.233	4683.36
453.44	4447.85
453.646	4752.99
453.852	5062.24
454.058	5113.44
454.264	5314.14
454.47	5428.82
454.676	5561.94
454.882	6270.54
455.088	5813.84
455.294	6338.12
455.5	6673.99
455.705	6755.91
455.911	6862.4
456.117	7190.08
456.323	7398.97
456.529	7335.48
456.735	8175.15
456.941	8275.5
457.147	8611.37
457.352	8724.01
457.558	9053.73
457.764	9596.44
457.97	9729.56
458.176	10206.73
458.381	10565.13
458.587	11070.98
458.793	11593.21
458.999	11677.18
459.204	12928.49
459.41	13469.15
459.616	13223.39
459.821	13870.55
460.027	14362.06
460.233	15085
460.438	15484.35
460.644	15961.53
460.85	16225.72
461.055	16754.09
461.261	17745.31
461.466	17431.97
461.672	17786.27
461.878	19670.4
462.083	19524.99
462.289	20032.89
462.494	20890.99
462.7	21003.63
462.905	21099.88
463.111	22818.13
463.316	23838.01
463.522	24702.26
463.727	25148.71
463.932	26279.19
464.138	27100.43
464.343	28312.83
464.549	28007.68
464.754	30411.99
464.959	30786.77
465.165	31528.14
465.37	31608.01
465.575	31337.68
465.781	33698.98
465.986	34507.93
466.191	34006.18
466.397	34067.62
466.602	33612.97
466.807	35339.41
467.012	36005
467.218	36480.13
467.423	36979.83
467.628	37749.87
467.833	39961.67
468.038	38988.89
468.244	38397.02
468.449	40262.72
468.654	39623.76
468.859	39265.36
469.064	39373.91
