Data from USB4F104151__37__09-27-23-209.txt Node

Date: Wed Feb 26 09:27:23 EST 2025
User: louis
Spectrometer: USB4F10415
Trigger mode: 4
Integration Time (sec): 1.000000E-1
Scans to average: 1
Electric dark correction enabled: true
Nonlinearity correction enabled: false
Boxcar width: 0
XAxis mode: Wavelengths
Number of Pixels in Spectrum: 3648
>>>>>Begin Spectral Data<<<<<
178.204	-317.61
178.424	-317.61
178.644	-317.61
178.864	-329.89
179.084	-315.56
179.304	-0.17
179.524	-59.56
179.744	18.26
179.964	-34.99
180.184	24.4
180.404	53.08
180.624	-53.42
180.844	-12.46
181.064	-22.7
181.283	102.23
181.503	-4.27
181.723	-10.41
181.943	-82.09
182.163	145.24
182.383	28.5
182.602	100.18
182.822	110.42
183.042	40.79
183.262	-20.65
183.482	-53.42
183.701	24.4
183.921	67.41
184.141	-0.17
184.361	85.84
184.58	22.36
184.8	32.6
185.02	-34.99
185.239	165.71
185.459	8.02
185.679	55.12
185.898	-61.61
186.118	73.56
186.338	38.74
186.557	65.36
186.777	-18.6
186.997	28.5
187.216	46.93
187.436	186.19
187.655	85.84
187.875	108.37
188.095	22.36
188.314	83.8
188.534	53.08
188.753	-61.61
188.973	65.36
189.192	137.04
189.412	63.32
189.631	12.12
189.851	46.93
190.07	171.86
190.29	1.88
190.509	63.32
190.729	42.84
190.948	55.12
191.168	282.45
191.387	100.18
191.607	28.5
191.826	8.02
192.045	38.74
192.265	-26.79
192.484	104.28
192.704	77.65
192.923	-43.18
193.142	163.67
193.362	94.04
193.581	186.19
193.8	75.6
194.02	161.62
194.239	-6.31
194.458	122.71
194.678	3.93
194.897	-18.6
195.116	59.22
195.335	46.93
195.555	28.5
195.774	34.64
195.993	63.32
196.212	63.32
196.432	30.55
196.651	20.31
196.87	-39.08
197.089	231.25
197.308	71.51
197.528	100.18
197.747	-12.46
197.966	85.84
198.185	167.76
198.404	24.4
198.623	38.74
198.842	112.47
199.062	65.36
199.281	32.6
199.5	87.89
199.719	116.56
199.938	28.5
200.157	110.42
200.376	87.89
200.595	96.08
200.814	94.04
201.033	-16.55
201.252	143.19
201.471	36.69
201.69	3.93
201.909	63.32
202.128	100.18
202.347	75.6
202.566	5.97
202.785	-2.22
203.004	-32.94
203.223	178
203.442	-14.51
203.661	-18.6
203.879	67.41
204.098	91.99
204.317	16.21
204.536	96.08
204.755	149.33
204.974	106.32
205.193	-18.6
205.411	128.85
205.63	190.29
205.849	44.88
206.068	102.23
206.287	28.5
206.505	147.28
206.724	8.02
206.943	-30.89
207.162	-26.79
207.381	26.45
207.599	38.74
207.818	46.93
208.037	-10.41
208.255	-10.41
208.474	69.46
208.693	28.5
208.911	48.98
209.13	75.6
209.349	67.41
209.567	116.56
209.786	77.65
210.005	100.18
210.223	42.84
210.442	-67.75
210.661	26.45
210.879	28.5
211.098	-26.79
211.316	32.6
211.535	51.03
211.753	85.84
211.972	30.55
212.191	34.64
212.409	38.74
212.628	87.89
212.846	-26.79
213.065	12.12
213.283	89.94
213.502	-2.22
213.72	100.18
213.938	63.32
214.157	-6.31
214.375	91.99
214.594	10.07
214.812	-2.22
215.031	42.84
215.249	8.02
215.467	34.64
215.686	18.26
215.904	79.7
216.122	46.93
216.341	128.85
216.559	16.21
216.778	30.55
216.996	143.19
217.214	55.12
217.432	-37.03
217.651	-2.22
217.869	16.21
218.087	20.31
218.306	-18.6
218.524	85.84
218.742	73.56
218.96	75.6
219.179	61.27
219.397	5.97
219.615	198.48
219.833	116.56
220.051	5.97
220.27	40.79
220.488	89.94
220.706	79.7
220.924	-26.79
221.142	-2.22
221.36	81.75
221.578	22.36
221.796	26.45
222.015	85.84
222.233	34.64
222.451	94.04
222.669	-88.23
222.887	75.6
223.105	44.88
223.323	-2.22
223.541	-30.89
223.759	65.36
223.977	44.88
224.195	71.51
224.413	118.61
224.631	51.03
224.849	61.27
225.067	202.58
225.285	-73.9
225.503	51.03
225.721	-96.43
225.939	-2.22
226.157	71.51
226.375	239.44
226.592	5.97
226.81	28.5
227.028	163.67
227.246	135
227.464	96.08
227.682	61.27
227.9	61.27
228.117	5.97
228.335	5.97
228.553	26.45
228.771	55.12
228.989	44.88
229.206	75.6
229.424	14.17
229.642	-28.84
229.86	-55.47
230.077	120.66
230.295	87.89
230.513	104.28
230.731	51.03
230.948	186.19
231.166	135
231.384	42.84
231.601	30.55
231.819	235.35
232.037	5.97
232.254	-133.29
232.472	22.36
232.689	-2.22
232.907	77.65
233.125	75.6
233.342	73.56
233.56	-4.27
233.777	-51.37
233.995	46.93
234.213	73.56
234.43	91.99
234.648	12.12
234.865	44.88
235.083	65.36
235.3	28.5
235.518	69.46
235.735	192.34
235.953	106.32
236.17	79.7
236.388	-32.94
236.605	5.97
236.822	55.12
237.04	69.46
237.257	3.93
237.475	-2.22
237.692	83.8
237.909	8.02
238.127	-39.08
238.344	110.42
238.562	-24.75
238.779	-16.55
238.996	-71.85
239.214	42.84
239.431	40.79
239.648	3.93
239.865	79.7
240.083	110.42
240.3	20.31
240.517	-8.36
240.735	75.6
240.952	96.08
241.169	-18.6
241.386	116.56
241.603	24.4
241.821	-47.27
242.038	63.32
242.255	18.26
242.472	-77.99
242.689	30.55
242.907	89.94
243.124	-10.41
243.341	5.97
243.558	14.17
243.775	-49.32
243.992	-49.32
244.209	36.69
244.426	137.04
244.643	48.98
244.86	-84.14
245.078	42.84
245.295	-61.61
245.512	26.45
245.729	-82.09
245.946	10.07
246.163	87.89
246.38	1.88
246.597	32.6
246.814	48.98
247.031	44.88
247.248	1.88
247.464	96.08
247.681	18.26
247.898	57.17
248.115	28.5
248.332	-34.99
248.549	165.71
248.766	159.57
248.983	87.89
249.2	116.56
249.417	100.18
249.633	69.46
249.85	75.6
250.067	-39.08
250.284	20.31
250.501	28.5
250.717	79.7
250.934	-43.18
251.151	46.93
251.368	-39.08
251.585	-12.46
251.801	48.98
252.018	-18.6
252.235	145.24
252.451	-59.56
252.668	55.12
252.885	116.56
253.102	67.41
253.318	-8.36
253.535	38.74
253.752	73.56
253.968	5.97
254.185	-63.66
254.401	63.32
254.618	67.41
254.835	-30.89
255.051	89.94
255.268	48.98
255.484	61.27
255.701	44.88
255.917	104.28
256.134	30.55
256.351	28.5
256.567	-18.6
256.784	116.56
257	-12.46
257.217	55.12
257.433	77.65
257.65	24.4
257.866	96.08
258.082	-57.51
258.299	-39.08
258.515	42.84
258.732	-59.56
258.948	5.97
259.165	38.74
259.381	-2.22
259.597	91.99
259.814	71.51
260.03	-4.27
260.246	8.02
260.463	83.8
260.679	112.47
260.895	22.36
261.112	46.93
261.328	77.65
261.544	36.69
261.761	132.95
261.977	-4.27
262.193	8.02
262.409	53.08
262.626	91.99
262.842	12.12
263.058	-10.41
263.274	137.04
263.49	34.64
263.707	53.08
263.923	36.69
264.139	-67.75
264.355	79.7
264.571	48.98
264.787	42.84
265.004	118.61
265.22	22.36
265.436	-6.31
265.652	10.07
265.868	44.88
266.084	-14.51
266.3	-39.08
266.516	-10.41
266.732	91.99
266.948	38.74
267.164	-32.94
267.38	98.13
267.596	18.26
267.812	188.24
268.028	-2.22
268.244	10.07
268.46	63.32
268.676	22.36
268.892	106.32
269.108	-10.41
269.324	-34.99
269.54	-61.61
269.756	87.89
269.972	-75.95
270.188	8.02
270.403	-84.14
270.619	28.5
270.835	44.88
271.051	22.36
271.267	-63.66
271.483	26.45
271.698	116.56
271.914	46.93
272.13	-26.79
272.346	55.12
272.562	96.08
272.777	46.93
272.993	91.99
273.209	-51.37
273.425	149.33
273.64	-39.08
273.856	75.6
274.072	18.26
274.287	63.32
274.503	100.18
274.719	104.28
274.934	-34.99
275.15	-43.18
275.366	63.32
275.581	-59.56
275.797	57.17
276.012	24.4
276.228	12.12
276.444	5.97
276.659	73.56
276.875	-22.7
277.09	22.36
277.306	10.07
277.521	53.08
277.737	10.07
277.952	71.51
278.168	59.22
278.383	79.7
278.599	44.88
278.814	130.9
279.03	-10.41
279.245	155.47
279.461	12.12
279.676	30.55
279.892	-108.71
280.107	57.17
280.322	20.31
280.538	102.23
280.753	83.8
280.969	44.88
281.184	5.97
281.399	159.57
281.615	32.6
281.83	48.98
282.045	10.07
282.26	28.5
282.476	22.36
282.691	73.56
282.906	-41.13
283.122	24.4
283.337	-4.27
283.552	-6.31
283.767	1.88
283.983	116.56
284.198	77.65
284.413	30.55
284.628	-104.62
284.843	65.36
285.058	30.55
285.274	96.08
285.489	12.12
285.704	108.37
285.919	-18.6
286.134	-2.22
286.349	73.56
286.564	40.79
286.779	30.55
286.995	-0.17
287.21	-82.09
287.425	53.08
287.64	-92.33
287.855	42.84
288.07	34.64
288.285	167.76
288.5	67.41
288.715	34.64
288.93	-67.75
289.145	-28.84
289.36	116.56
289.575	-16.55
289.79	130.9
290.004	-34.99
290.219	110.42
290.434	22.36
290.649	83.8
290.864	75.6
291.079	-39.08
291.294	34.64
291.509	36.69
291.724	-12.46
291.938	48.98
292.153	36.69
292.368	-34.99
292.583	36.69
292.798	85.84
293.012	14.17
293.227	24.4
293.442	-59.56
293.657	132.95
293.871	102.23
294.086	137.04
294.301	128.85
294.516	147.28
294.73	69.46
294.945	-37.03
295.16	-12.46
295.374	132.95
295.589	75.6
295.804	-2.22
296.018	91.99
296.233	130.9
296.447	91.99
296.662	-45.23
296.877	124.76
297.091	102.23
297.306	-2.22
297.52	-18.6
297.735	83.8
297.949	-18.6
298.164	-2.22
298.378	53.08
298.593	-43.18
298.807	-55.47
299.022	22.36
299.236	89.94
299.451	-8.36
299.665	-53.42
299.88	77.65
300.094	98.13
300.309	-86.19
300.523	38.74
300.737	10.07
300.952	77.65
301.166	14.17
301.381	-22.7
301.595	-10.41
301.809	20.31
302.024	-34.99
302.238	-51.37
302.452	75.6
302.667	42.84
302.881	153.43
303.095	61.27
303.309	57.17
303.524	-0.17
303.738	-10.41
303.952	77.65
304.166	34.64
304.381	-145.58
304.595	169.81
304.809	-14.51
305.023	48.98
305.237	-12.46
305.452	-24.75
305.666	79.7
305.88	18.26
306.094	63.32
306.308	61.27
306.522	48.98
306.736	55.12
306.95	30.55
307.164	-4.27
307.379	-6.31
307.593	104.28
307.807	128.85
308.021	55.12
308.235	165.71
308.449	-26.79
308.663	57.17
308.877	231.25
309.091	38.74
309.305	65.36
309.519	-77.99
309.733	94.04
309.947	-80.04
310.161	81.75
310.374	26.45
310.588	77.65
310.802	-8.36
311.016	34.64
311.23	38.74
311.444	14.17
311.658	28.5
311.872	102.23
312.085	112.47
312.299	100.18
312.513	75.6
312.727	-2.22
312.941	1.88
313.154	73.56
313.368	8.02
313.582	61.27
313.796	42.84
314.009	65.36
314.223	96.08
314.437	112.47
314.651	14.17
314.864	48.98
315.078	106.32
315.292	-14.51
315.505	-61.61
315.719	71.51
315.933	71.51
316.146	30.55
316.36	-8.36
316.573	91.99
316.787	55.12
317.001	10.07
317.214	-51.37
317.428	87.89
317.641	1.88
317.855	46.93
318.068	53.08
318.282	96.08
318.495	118.61
318.709	128.85
318.922	38.74
319.136	81.75
319.349	63.32
319.563	-24.75
319.776	10.07
319.99	5.97
320.203	104.28
320.417	53.08
320.63	75.6
320.843	110.42
321.057	87.89
321.27	30.55
321.483	-2.22
321.697	83.8
321.91	61.27
322.124	81.75
322.337	20.31
322.55	-2.22
322.763	61.27
322.977	24.4
323.19	10.07
323.403	14.17
323.617	116.56
323.83	87.89
324.043	-14.51
324.256	20.31
324.469	-55.47
324.683	104.28
324.896	-28.84
325.109	126.8
325.322	-104.62
325.535	120.66
325.748	44.88
325.962	3.93
326.175	51.03
326.388	91.99
326.601	135
326.814	22.36
327.027	46.93
327.24	139.09
327.453	-67.75
327.666	38.74
327.879	22.36
328.092	51.03
328.305	46.93
328.518	-43.18
328.731	-45.23
328.944	61.27
329.157	28.5
329.37	10.07
329.583	161.62
329.796	112.47
330.009	-47.27
330.222	91.99
330.435	46.93
330.648	96.08
330.861	30.55
331.073	12.12
331.286	55.12
331.499	67.41
331.712	-86.19
331.925	26.45
332.138	73.56
332.35	46.93
332.563	-34.99
332.776	30.55
332.989	-26.79
333.202	34.64
333.414	71.51
333.627	28.5
333.84	83.8
334.053	48.98
334.265	-22.7
334.478	-26.79
334.691	20.31
334.903	104.28
335.116	-39.08
335.329	14.17
335.541	55.12
335.754	149.33
335.966	20.31
336.179	38.74
336.392	-14.51
336.604	34.64
336.817	79.7
337.029	-2.22
337.242	5.97
337.454	73.56
337.667	46.93
337.88	75.6
338.092	-16.55
338.305	61.27
338.517	-18.6
338.729	34.64
338.942	137.04
339.154	-2.22
339.367	-12.46
339.579	69.46
339.792	-59.56
340.004	126.8
340.217	-6.31
340.429	18.26
340.641	28.5
340.854	-10.41
341.066	108.37
341.278	48.98
341.491	175.95
341.703	32.6
341.915	-59.56
342.128	91.99
342.34	30.55
342.552	-59.56
342.764	38.74
342.977	-10.41
343.189	22.36
343.401	67.41
343.613	-14.51
343.826	77.65
344.038	30.55
344.25	12.12
344.462	51.03
344.674	32.6
344.886	-51.37
345.099	51.03
345.311	69.46
345.523	-39.08
345.735	-67.75
345.947	46.93
346.159	42.84
346.371	36.69
346.583	24.4
346.795	198.48
347.007	57.17
347.219	26.45
347.431	63.32
347.643	87.89
347.855	8.02
348.067	100.18
348.279	-77.99
348.491	57.17
348.703	22.36
348.915	53.08
349.127	-47.27
349.339	48.98
349.551	5.97
349.763	122.71
349.975	65.36
350.187	69.46
350.399	178
350.61	85.84
350.822	12.12
351.034	75.6
351.246	-10.41
351.458	94.04
351.669	91.99
351.881	106.32
352.093	137.04
352.305	87.89
352.517	118.61
352.728	130.9
352.94	73.56
353.152	67.41
353.363	-4.27
353.575	10.07
353.787	102.23
353.999	48.98
354.21	161.62
354.422	20.31
354.633	10.07
354.845	36.69
355.057	143.19
355.268	44.88
355.48	124.76
355.692	10.07
355.903	26.45
356.115	-41.13
356.326	-24.75
356.538	161.62
356.749	71.51
356.961	128.85
357.172	32.6
357.384	-37.03
357.595	194.39
357.807	-43.18
358.018	-14.51
358.23	12.12
358.441	184.15
358.653	81.75
358.864	42.84
359.075	8.02
359.287	-10.41
359.498	71.51
359.709	48.98
359.921	12.12
360.132	-12.46
360.344	3.93
360.555	-22.7
360.766	18.26
360.977	-20.65
361.189	132.95
361.4	8.02
361.611	96.08
361.823	165.71
362.034	116.56
362.245	63.32
362.456	20.31
362.667	137.04
362.879	10.07
363.09	75.6
363.301	22.36
363.512	18.26
363.723	-92.33
363.935	-34.99
364.146	85.84
364.357	57.17
364.568	59.22
364.779	-92.33
364.99	241.49
365.201	14.17
365.412	83.8
365.623	-26.79
365.834	63.32
366.045	-12.46
366.256	55.12
366.467	57.17
366.678	59.22
366.889	44.88
367.1	89.94
367.311	71.51
367.522	59.22
367.733	75.6
367.944	48.98
368.155	63.32
368.366	141.14
368.577	46.93
368.788	34.64
368.999	-0.17
369.209	112.47
369.42	208.72
369.631	200.53
369.842	22.36
370.053	-22.7
370.264	108.37
370.474	-75.95
370.685	108.37
370.896	24.4
371.107	169.81
371.317	96.08
371.528	-10.41
371.739	128.85
371.95	26.45
372.16	104.28
372.371	-37.03
372.582	102.23
372.792	1.88
373.003	46.93
373.214	63.32
373.424	32.6
373.635	16.21
373.846	73.56
374.056	53.08
374.267	38.74
374.477	73.56
374.688	-43.18
374.898	38.74
375.109	61.27
375.319	36.69
375.53	137.04
375.74	59.22
375.951	-6.31
376.161	91.99
376.372	118.61
376.582	48.98
376.793	65.36
377.003	-18.6
377.214	-34.99
377.424	120.66
377.635	104.28
377.845	69.46
378.055	135
378.266	-53.42
378.476	-26.79
378.686	5.97
378.897	5.97
379.107	178
379.317	42.84
379.528	-45.23
379.738	24.4
379.948	-26.79
380.158	106.32
380.369	71.51
380.579	79.7
380.789	42.84
380.999	53.08
381.21	81.75
381.42	112.47
381.63	1.88
381.84	141.14
382.05	77.65
382.261	112.47
382.471	71.51
382.681	16.21
382.891	145.24
383.101	75.6
383.311	-39.08
383.521	81.75
383.731	87.89
383.941	128.85
384.151	-14.51
384.361	-34.99
384.571	44.88
384.781	34.64
384.991	141.14
385.201	110.42
385.411	108.37
385.621	100.18
385.831	26.45
386.041	96.08
386.251	53.08
386.461	130.9
386.671	-20.65
386.881	59.22
387.091	-20.65
387.301	85.84
387.511	71.51
387.72	79.7
387.93	143.19
388.14	1.88
388.35	36.69
388.56	116.56
388.769	87.89
388.979	30.55
389.189	38.74
389.399	12.12
389.609	114.52
389.818	128.85
390.028	61.27
390.238	-2.22
390.447	-43.18
390.657	77.65
390.867	63.32
391.076	-86.19
391.286	36.69
391.496	-24.75
391.705	61.27
391.915	75.6
392.125	128.85
392.334	-14.51
392.544	112.47
392.753	40.79
392.963	-10.41
393.172	-20.65
393.382	40.79
393.591	112.47
393.801	28.5
394.01	100.18
394.22	51.03
394.429	32.6
394.639	38.74
394.848	51.03
395.058	36.69
395.267	-10.41
395.477	3.93
395.686	61.27
395.895	112.47
396.105	149.33
396.314	-2.22
396.524	-47.27
396.733	14.17
396.942	116.56
397.152	61.27
397.361	55.12
397.57	44.88
397.78	-12.46
397.989	18.26
398.198	194.39
398.407	20.31
398.617	79.7
398.826	69.46
399.035	-0.17
399.244	108.37
399.453	30.55
399.663	-18.6
399.872	30.55
400.081	-73.9
400.29	102.23
400.499	-47.27
400.708	67.41
400.917	14.17
401.127	94.04
401.336	-34.99
401.545	194.39
401.754	94.04
401.963	38.74
402.172	-51.37
402.381	-30.89
402.59	-37.03
402.799	102.23
403.008	63.32
403.217	-10.41
403.426	18.26
403.635	-53.42
403.844	20.31
404.053	75.6
404.262	126.8
404.471	169.81
404.68	5.97
404.888	32.6
405.097	14.17
405.306	-6.31
405.515	135
405.724	-20.65
405.933	79.7
406.142	112.47
406.35	106.32
406.559	71.51
406.768	83.8
406.977	132.95
407.185	28.5
407.394	132.95
407.603	-143.53
407.812	-22.7
408.02	38.74
408.229	18.26
408.438	77.65
408.646	-26.79
408.855	16.21
409.064	48.98
409.272	-12.46
409.481	110.42
409.69	22.36
409.898	-57.51
410.107	104.28
410.315	163.67
410.524	-6.31
410.733	36.69
410.941	28.5
411.15	143.19
411.358	94.04
411.567	153.43
411.775	94.04
411.984	57.17
412.192	106.32
412.401	55.12
412.609	100.18
412.818	128.85
413.026	20.31
413.234	-6.31
413.443	5.97
413.651	-32.94
413.86	75.6
414.068	73.56
414.276	186.19
414.485	24.4
414.693	135
414.901	229.2
415.11	30.55
415.318	124.76
415.526	73.56
415.734	85.84
415.943	36.69
416.151	186.19
416.359	34.64
416.567	34.64
416.776	38.74
416.984	112.47
417.192	159.57
417.4	-75.95
417.608	77.65
417.817	32.6
418.025	53.08
418.233	120.66
418.441	48.98
418.649	12.12
418.857	83.8
419.065	157.52
419.273	36.69
419.481	28.5
419.689	79.7
419.897	100.18
420.105	-2.22
420.313	53.08
420.521	161.62
420.729	151.38
420.937	-12.46
421.145	-96.43
421.353	100.18
421.561	157.52
421.769	96.08
421.977	-49.32
422.185	79.7
422.393	5.97
422.601	149.33
422.809	59.22
423.017	104.28
423.224	53.08
423.432	132.95
423.64	32.6
423.848	145.24
424.056	5.97
424.263	44.88
424.471	38.74
424.679	167.76
424.887	-84.14
425.094	94.04
425.302	104.28
425.51	38.74
425.718	73.56
425.925	120.66
426.133	-26.79
426.341	163.67
426.548	30.55
426.756	38.74
426.964	85.84
427.171	22.36
427.379	-2.22
427.586	102.23
427.794	14.17
428.001	89.94
428.209	20.31
428.417	61.27
428.624	112.47
428.832	22.36
429.039	83.8
429.247	30.55
429.454	159.57
429.662	143.19
429.869	57.17
430.076	116.56
430.284	69.46
430.491	128.85
430.699	106.32
430.906	149.33
431.114	-0.17
431.321	71.51
431.528	110.42
431.736	137.04
431.943	184.15
432.15	44.88
432.358	135
432.565	153.43
432.772	-63.66
432.979	135
433.187	184.15
433.394	143.19
433.601	65.36
433.808	108.37
434.016	184.15
434.223	198.48
434.43	225.11
434.637	178
434.844	161.62
435.052	178
435.259	178
435.466	223.06
435.673	147.28
435.88	163.67
436.087	276.31
436.294	227.15
436.501	208.72
436.708	208.72
436.915	229.2
437.122	194.39
437.329	122.71
437.537	186.19
437.743	214.87
437.95	335.7
438.157	245.59
438.364	218.96
438.571	212.82
438.778	259.92
438.985	257.87
439.192	374.61
439.399	241.49
439.606	292.69
439.813	347.98
440.02	399.18
440.227	438.09
440.433	423.76
440.64	304.98
440.847	257.87
441.054	513.87
441.261	536.4
441.467	468.81
441.674	352.08
441.881	509.77
442.088	390.99
442.294	460.62
442.501	534.35
442.708	544.59
442.914	565.07
443.121	608.08
443.328	571.21
443.534	653.13
443.741	550.73
443.948	493.39
444.154	683.85
444.361	757.58
444.568	612.17
444.774	710.47
444.981	677.71
445.187	851.78
445.394	737.1
445.6	710.47
445.807	831.3
446.013	849.74
446.22	743.24
446.426	954.18
446.633	1015.62
446.839	1062.73
447.046	902.98
447.252	1081.16
447.459	1005.38
447.665	1001.29
447.871	1181.51
448.078	1308.48
448.284	1281.86
448.491	1374.02
448.697	1324.87
448.903	1386.3
449.11	1427.26
449.316	1388.35
449.522	1693.5
449.728	1738.55
449.935	1584.96
450.141	1634.11
450.347	1849.15
450.553	1711.93
450.76	1849.15
450.966	1904.44
451.172	1992.5
451.378	2080.57
451.584	2025.27
451.791	2182.96
451.997	2311.99
452.203	2285.36
452.409	2346.8
452.615	2623.28
452.821	2434.86
453.027	2469.68
453.233	2942.76
453.44	2729.77
453.646	3006.25
453.852	3077.93
454.058	3118.89
454.264	3172.13
454.47	3536.67
454.676	3577.63
454.882	3878.68
455.088	3528.48
455.294	3903.26
455.5	4097.81
455.705	4450.07
455.911	4331.28
456.117	4329.24
456.323	4515.6
456.529	4476.69
456.735	4953.87
456.941	4996.87
457.147	5248.77
457.352	5402.37
457.558	5701.37
457.764	5912.32
457.97	5983.99
458.176	6405.88
458.381	6555.38
458.587	6872.81
458.793	7112.42
458.999	7141.1
459.204	7945.95
459.41	8277.72
459.616	8077.02
459.821	8498.9
460.027	9047.76
460.233	9279.18
460.438	9461.44
460.644	10092.22
460.85	9969.34
461.055	10251.96
461.261	10968.75
461.466	10837.68
461.672	11001.52
461.878	12107.42
462.083	12084.89
462.289	12269.21
462.494	12707.48
462.7	12844.69
462.905	12981.9
463.111	13942.4
463.316	14726.77
463.522	14802.55
463.727	15533.67
463.932	16244.32
464.138	16938.58
464.343	17374.8
464.549	17487.43
464.754	18843.19
464.959	19084.85
465.165	19645.99
465.37	19394.09
465.575	19398.19
465.781	20715.03
465.986	21405.2
466.191	21298.7
466.397	21388.81
466.602	20919.83
466.807	21790.22
467.012	22517.25
467.218	22590.97
467.423	22840.82
467.628	23434.74
467.833	24976.86
468.038	24006.12
468.244	24018.41
468.449	25165.27
468.654	24716.76
468.859	24577.5
469.064	24849.88
469.269	23774.7
469.474	24323.55
469.679	25083.35
469.885	24294.88
