Data from USB4F104151__49__10-25-27-933.txt Node

Date: Wed Feb 26 10:25:27 EST 2025
User: louis
Spectrometer: USB4F10415
Trigger mode: 4
Integration Time (sec): 1.000000E-1
Scans to average: 1
Electric dark correction enabled: true
Nonlinearity correction enabled: false
Boxcar width: 0
XAxis mode: Wavelengths
Number of Pixels in Spectrum: 3648
>>>>>Begin Spectral Data<<<<<
178.204	-364.37
178.424	-364.37
178.644	-364.37
178.864	-427.85
179.084	-339.79
179.304	2.22
179.524	-40.79
179.744	-48.98
179.964	39.08
180.184	34.99
180.404	49.32
180.624	30.89
180.844	18.6
181.064	-116.56
181.283	51.37
181.503	-81.75
181.723	61.61
181.943	-55.12
182.163	241.83
182.383	18.6
182.602	92.33
182.822	127.14
183.042	4.27
183.262	30.89
183.482	63.66
183.701	55.47
183.921	84.14
184.141	18.6
184.361	96.43
184.58	63.66
184.8	32.94
185.02	-42.84
185.239	86.19
185.459	135.34
185.679	129.19
185.898	-130.9
186.118	20.65
186.338	90.28
186.557	96.43
186.777	-34.64
186.997	20.65
187.216	45.23
187.436	143.53
187.655	71.85
187.875	108.71
188.095	53.42
188.314	118.95
188.534	125.1
188.753	-53.08
188.973	43.18
189.192	204.97
189.412	18.6
189.631	55.47
189.851	84.14
190.07	211.11
190.29	-36.69
190.509	-34.64
190.729	-8.02
190.948	182.44
191.168	211.11
191.387	112.81
191.607	39.08
191.826	55.47
192.045	28.84
192.265	-38.74
192.484	77.99
192.704	45.23
192.923	-42.84
193.142	223.4
193.362	71.85
193.581	69.8
193.8	88.23
194.02	71.85
194.239	8.36
194.458	28.84
194.678	-8.02
194.897	45.23
195.116	80.04
195.335	20.65
195.555	26.79
195.774	2.22
195.993	123.05
196.212	4.27
196.432	-16.21
196.651	20.65
196.87	43.18
197.089	200.87
197.308	198.82
197.528	71.85
197.747	-59.22
197.966	155.82
198.185	73.9
198.404	10.41
198.623	63.66
198.842	131.24
199.062	90.28
199.281	77.99
199.5	-8.02
199.719	129.19
199.938	69.8
200.157	77.99
200.376	39.08
200.595	92.33
200.814	180.39
201.033	53.42
201.252	108.71
201.471	106.67
201.69	80.04
201.909	112.81
202.128	161.96
202.347	102.57
202.566	39.08
202.785	-48.98
203.004	-28.5
203.223	272.55
203.442	18.6
203.661	-85.84
203.879	67.75
204.098	241.83
204.317	-20.31
204.536	65.71
204.755	88.23
204.974	159.91
205.193	-51.03
205.411	84.14
205.63	164.01
205.849	61.61
206.068	18.6
206.287	41.13
206.505	131.24
206.724	57.51
206.943	-18.26
207.162	14.51
207.381	159.91
207.599	-89.94
207.818	14.51
208.037	55.47
208.255	18.6
208.474	41.13
208.693	16.55
208.911	12.46
209.13	125.1
209.349	114.86
209.567	86.19
209.786	112.81
210.005	84.14
210.223	67.75
210.442	-108.37
210.661	6.31
210.879	57.51
211.098	45.23
211.316	121
211.535	53.42
211.753	37.03
211.972	112.81
212.191	45.23
212.409	37.03
212.628	84.14
212.846	0.17
213.065	-22.36
213.283	121
213.502	28.84
213.72	69.8
213.938	30.89
214.157	-5.97
214.375	94.38
214.594	110.76
214.812	10.41
215.031	10.41
215.249	39.08
215.467	30.89
215.686	20.65
215.904	125.1
216.122	63.66
216.341	110.76
216.559	30.89
216.778	145.58
216.996	88.23
217.214	16.55
217.432	-57.17
217.651	20.65
217.869	71.85
218.087	43.18
218.306	49.32
218.524	65.71
218.742	104.62
218.96	43.18
219.179	-18.26
219.397	14.51
219.615	223.4
219.833	145.58
220.051	-59.22
220.27	168.1
220.488	108.71
220.706	57.51
220.924	88.23
221.142	65.71
221.36	141.48
221.578	121
221.796	65.71
222.015	39.08
222.233	88.23
222.451	153.77
222.669	-81.75
222.887	110.76
223.105	-3.93
223.323	41.13
223.541	-59.22
223.759	157.86
223.977	22.7
224.195	116.9
224.413	112.81
224.631	-46.93
224.849	86.19
225.067	237.74
225.285	20.65
225.503	-94.04
225.721	-71.51
225.939	16.55
226.157	69.8
226.375	209.06
226.592	28.84
226.81	73.9
227.028	104.62
227.246	143.53
227.464	8.36
227.682	143.53
227.9	71.85
228.117	30.89
228.335	71.85
228.553	55.47
228.771	28.84
228.989	45.23
229.206	129.19
229.424	73.9
229.642	32.94
229.86	-42.84
230.077	59.56
230.295	88.23
230.513	82.09
230.731	22.7
230.948	198.82
231.166	161.96
231.384	-12.12
231.601	-26.45
231.819	114.86
232.037	-20.31
232.254	-38.74
232.472	8.36
232.689	37.03
232.907	176.3
233.125	24.75
233.342	8.36
233.56	-10.07
233.777	22.7
233.995	73.9
234.213	92.33
234.43	34.99
234.648	12.46
234.865	69.8
235.083	145.58
235.3	65.71
235.518	92.33
235.735	133.29
235.953	57.51
236.17	45.23
236.388	-8.02
236.605	51.37
236.822	102.57
237.04	135.34
237.257	-30.55
237.475	-14.17
237.692	73.9
237.909	161.96
238.127	20.65
238.344	71.85
238.562	77.99
238.779	-40.79
238.996	-20.31
239.214	49.32
239.431	77.99
239.648	30.89
239.865	166.06
240.083	20.65
240.3	98.47
240.517	2.22
240.735	84.14
240.952	121
241.169	125.1
241.386	75.95
241.603	53.42
241.821	-5.97
242.038	141.48
242.255	143.53
242.472	-102.23
242.689	96.43
242.907	73.9
243.124	82.09
243.341	0.17
243.558	51.37
243.775	8.36
243.992	-12.12
244.209	-14.17
244.426	219.3
244.643	100.52
244.86	-61.27
245.078	159.91
245.295	55.47
245.512	2.22
245.729	-28.5
245.946	16.55
246.163	63.66
246.38	96.43
246.597	71.85
246.814	49.32
247.031	110.76
247.248	-38.74
247.464	98.47
247.681	69.8
247.898	82.09
248.115	102.57
248.332	22.7
248.549	188.58
248.766	168.1
248.983	147.62
249.2	82.09
249.417	57.51
249.633	-12.12
249.85	102.57
250.067	59.56
250.284	18.6
250.501	22.7
250.717	43.18
250.934	-53.08
251.151	-16.21
251.368	-3.93
251.585	114.86
251.801	26.79
252.018	18.6
252.235	131.24
252.451	-40.79
252.668	-18.26
252.885	180.39
253.102	90.28
253.318	127.14
253.535	-14.17
253.752	-24.4
253.968	-3.93
254.185	-51.03
254.401	45.23
254.618	86.19
254.835	45.23
255.051	102.57
255.268	94.38
255.484	34.99
255.701	-8.02
255.917	102.57
256.134	6.31
256.351	28.84
256.567	-46.93
256.784	-53.08
257	-91.99
257.217	59.56
257.433	131.24
257.65	71.85
257.866	139.43
258.082	-26.45
258.299	49.32
258.515	67.75
258.732	90.28
258.948	22.7
259.165	37.03
259.381	49.32
259.597	118.95
259.814	-18.26
260.03	32.94
260.246	100.52
260.463	102.57
260.679	166.06
260.895	80.04
261.112	106.67
261.328	-28.5
261.544	-3.93
261.761	129.19
261.977	-14.17
262.193	-20.31
262.409	147.62
262.626	6.31
262.842	45.23
263.058	-28.5
263.274	104.62
263.49	57.51
263.707	71.85
263.923	22.7
264.139	-59.22
264.355	61.61
264.571	149.67
264.787	170.15
265.004	121
265.22	22.7
265.436	45.23
265.652	30.89
265.868	135.34
266.084	-16.21
266.3	-38.74
266.516	69.8
266.732	45.23
266.948	59.56
267.164	-24.4
267.38	143.53
267.596	92.33
267.812	213.16
268.028	69.8
268.244	22.7
268.46	26.79
268.676	-5.97
268.892	84.14
269.108	37.03
269.324	-85.84
269.54	-73.56
269.756	69.8
269.972	-12.12
270.188	88.23
270.403	-14.17
270.619	92.33
270.835	55.47
271.051	-8.02
271.267	-55.12
271.483	-38.74
271.698	94.38
271.914	129.19
272.13	4.27
272.346	-36.69
272.562	77.99
272.777	80.04
272.993	-38.74
273.209	-79.7
273.425	34.99
273.64	-53.08
273.856	108.71
274.072	20.65
274.287	-36.69
274.503	116.9
274.719	108.71
274.934	-36.69
275.15	-71.51
275.366	84.14
275.581	-51.03
275.797	-1.88
276.012	143.53
276.228	10.41
276.444	30.89
276.659	168.1
276.875	32.94
277.09	28.84
277.306	71.85
277.521	94.38
277.737	65.71
277.952	98.47
278.168	59.56
278.383	106.67
278.599	118.95
278.814	104.62
279.03	8.36
279.245	170.15
279.461	92.33
279.676	92.33
279.892	-5.97
280.107	47.27
280.322	-30.55
280.538	96.43
280.753	26.79
280.969	121
281.184	71.85
281.399	121
281.615	37.03
281.83	94.38
282.045	-46.93
282.26	0.17
282.476	59.56
282.691	69.8
282.906	77.99
283.122	37.03
283.337	71.85
283.552	51.37
283.767	4.27
283.983	198.82
284.198	-1.88
284.413	77.99
284.628	4.27
284.843	61.61
285.058	88.23
285.274	-14.17
285.489	-14.17
285.704	69.8
285.919	-26.45
286.134	14.51
286.349	59.56
286.564	41.13
286.779	104.62
286.995	16.55
287.21	39.08
287.425	-16.21
287.64	24.75
287.855	127.14
288.07	-77.65
288.285	159.91
288.5	157.86
288.715	116.9
288.93	32.94
289.145	-59.22
289.36	45.23
289.575	8.36
289.79	106.67
290.004	2.22
290.219	196.78
290.434	45.23
290.649	53.42
290.864	-14.17
291.079	55.47
291.294	-53.08
291.509	108.71
291.724	45.23
291.938	-3.93
292.153	39.08
292.368	8.36
292.583	98.47
292.798	49.32
293.012	-1.88
293.227	-12.12
293.442	8.36
293.657	39.08
293.871	161.96
294.086	94.38
294.301	161.96
294.516	190.63
294.73	49.32
294.945	-28.5
295.16	45.23
295.374	121
295.589	24.75
295.804	88.23
296.018	22.7
296.233	94.38
296.447	77.99
296.662	-3.93
296.877	129.19
297.091	135.34
297.306	98.47
297.52	-16.21
297.735	14.51
297.949	86.19
298.164	104.62
298.378	65.71
298.593	-3.93
298.807	-32.6
299.022	67.75
299.236	139.43
299.451	106.67
299.665	51.37
299.88	102.57
300.094	10.41
300.309	-30.55
300.523	10.41
300.737	51.37
300.952	57.51
301.166	73.9
301.381	-16.21
301.595	-51.03
301.809	75.95
302.024	16.55
302.238	10.41
302.452	131.24
302.667	53.42
302.881	155.82
303.095	53.42
303.309	61.61
303.524	57.51
303.738	63.66
303.952	0.17
304.166	180.39
304.381	-106.32
304.595	147.62
304.809	-63.32
305.023	57.51
305.237	-1.88
305.452	-3.93
305.666	6.31
305.88	69.8
306.094	-3.93
306.308	30.89
306.522	37.03
306.736	53.42
306.95	82.09
307.164	0.17
307.379	49.32
307.593	116.9
307.807	69.8
308.021	114.86
308.235	53.42
308.449	-55.12
308.663	43.18
308.877	213.16
309.091	59.56
309.305	114.86
309.519	-44.88
309.733	110.76
309.947	51.37
310.161	82.09
310.374	4.27
310.588	90.28
310.802	2.22
311.016	129.19
311.23	67.75
311.444	43.18
311.658	84.14
311.872	135.34
312.085	104.62
312.299	131.24
312.513	202.92
312.727	94.38
312.941	-48.98
313.154	88.23
313.368	125.1
313.582	67.75
313.796	129.19
314.009	84.14
314.223	92.33
314.437	57.51
314.651	131.24
314.864	51.37
315.078	65.71
315.292	-110.42
315.505	6.31
315.719	94.38
315.933	39.08
316.146	-10.07
316.36	-126.8
316.573	168.1
316.787	90.28
317.001	53.42
317.214	30.89
317.428	59.56
317.641	-40.79
317.855	-1.88
318.068	90.28
318.282	8.36
318.495	135.34
318.709	71.85
318.922	43.18
319.136	108.71
319.349	92.33
319.563	37.03
319.776	90.28
319.99	-71.51
320.203	118.95
320.417	71.85
320.63	51.37
320.843	188.58
321.057	41.13
321.27	57.51
321.483	118.95
321.697	145.58
321.91	20.65
322.124	22.7
322.337	39.08
322.55	0.17
322.763	71.85
322.977	69.8
323.19	-3.93
323.403	-36.69
323.617	82.09
323.83	86.19
324.043	49.32
324.256	137.38
324.469	-57.17
324.683	139.43
324.896	24.75
325.109	61.61
325.322	-36.69
325.535	102.57
325.748	211.11
325.962	69.8
326.175	75.95
326.388	88.23
326.601	164.01
326.814	10.41
327.027	63.66
327.24	211.11
327.453	28.84
327.666	30.89
327.879	121
328.092	143.53
328.305	90.28
328.518	4.27
328.731	84.14
328.944	45.23
329.157	26.79
329.37	-22.36
329.583	254.12
329.796	139.43
330.009	24.75
330.222	94.38
330.435	147.62
330.648	90.28
330.861	4.27
331.073	118.95
331.286	71.85
331.499	53.42
331.712	-24.4
331.925	61.61
332.138	96.43
332.35	100.52
332.563	-24.4
332.776	98.47
332.989	-16.21
333.202	37.03
333.414	-34.64
333.627	26.79
333.84	41.13
334.053	104.62
334.265	-28.5
334.478	71.85
334.691	49.32
334.903	49.32
335.116	41.13
335.329	-28.5
335.541	77.99
335.754	164.01
335.966	75.95
336.179	73.9
336.392	102.57
336.604	125.1
336.817	114.86
337.029	108.71
337.242	67.75
337.454	82.09
337.667	65.71
337.88	98.47
338.092	94.38
338.305	88.23
338.517	57.51
338.729	106.67
338.942	77.99
339.154	-53.08
339.367	-69.46
339.579	102.57
339.792	-30.55
340.004	118.95
340.217	18.6
340.429	75.95
340.641	-30.55
340.854	14.51
341.066	94.38
341.278	202.92
341.491	190.63
341.703	37.03
341.915	18.6
342.128	71.85
342.34	86.19
342.552	12.46
342.764	55.47
342.977	14.51
343.189	100.52
343.401	59.56
343.613	-36.69
343.826	4.27
344.038	-65.36
344.25	67.75
344.462	-75.6
344.674	32.94
344.886	37.03
345.099	47.27
345.311	55.47
345.523	30.89
345.735	-53.08
345.947	47.27
346.159	86.19
346.371	16.55
346.583	32.94
346.795	243.88
347.007	69.8
347.219	86.19
347.431	8.36
347.643	159.91
347.855	12.46
348.067	127.14
348.279	-73.56
348.491	49.32
348.703	98.47
348.915	12.46
349.127	-51.03
349.339	34.99
349.551	34.99
349.763	118.95
349.975	34.99
350.187	82.09
350.399	104.62
350.61	53.42
350.822	20.65
351.034	86.19
351.246	114.86
351.458	59.56
351.669	155.82
351.881	30.89
352.093	102.57
352.305	135.34
352.517	22.7
352.728	102.57
352.94	57.51
353.152	88.23
353.363	-114.52
353.575	61.61
353.787	127.14
353.999	37.03
354.21	211.11
354.422	-22.36
354.633	-40.79
354.845	34.99
355.057	28.84
355.268	22.7
355.48	118.95
355.692	51.37
355.903	41.13
356.115	-34.64
356.326	-38.74
356.538	155.82
356.749	92.33
356.961	118.95
357.172	67.75
357.384	-69.46
357.595	180.39
357.807	-5.97
358.018	45.23
358.23	30.89
358.441	123.05
358.653	88.23
358.864	53.42
359.075	-8.02
359.287	51.37
359.498	123.05
359.709	121
359.921	125.1
360.132	131.24
360.344	32.94
360.555	4.27
360.766	80.04
360.977	4.27
361.189	88.23
361.4	-42.84
361.611	110.76
361.823	145.58
362.034	90.28
362.245	43.18
362.456	61.61
362.667	77.99
362.879	4.27
363.09	108.71
363.301	164.01
363.512	6.31
363.723	43.18
363.935	-18.26
364.146	108.71
364.357	8.36
364.568	67.75
364.779	-10.07
364.99	100.52
365.201	-10.07
365.412	65.71
365.623	-26.45
365.834	2.22
366.045	26.79
366.256	49.32
366.467	112.81
366.678	-30.55
366.889	53.42
367.1	12.46
367.311	164.01
367.522	-51.03
367.733	39.08
367.944	28.84
368.155	55.47
368.366	102.57
368.577	92.33
368.788	114.86
368.999	65.71
369.209	125.1
369.42	211.11
369.631	247.97
369.842	51.37
370.053	30.89
370.264	104.62
370.474	20.65
370.685	86.19
370.896	16.55
371.107	133.29
371.317	114.86
371.528	-10.07
371.739	59.56
371.95	110.76
372.16	18.6
372.371	-46.93
372.582	30.89
372.792	39.08
373.003	2.22
373.214	73.9
373.424	135.34
373.635	37.03
373.846	125.1
374.056	90.28
374.267	114.86
374.477	110.76
374.688	57.51
374.898	82.09
375.109	2.22
375.319	73.9
375.53	92.33
375.74	8.36
375.951	2.22
376.161	71.85
376.372	88.23
376.582	-3.93
376.793	92.33
377.003	4.27
377.214	45.23
377.424	67.75
377.635	77.99
377.845	-30.55
378.055	86.19
378.266	-8.02
378.476	8.36
378.686	131.24
378.897	104.62
379.107	73.9
379.317	82.09
379.528	10.41
379.738	121
379.948	-61.27
380.158	145.58
380.369	30.89
380.579	-12.12
380.789	28.84
380.999	129.19
381.21	108.71
381.42	192.68
381.63	24.75
381.84	123.05
382.05	71.85
382.261	178.34
382.471	32.94
382.681	-48.98
382.891	235.69
383.101	102.57
383.311	-22.36
383.521	16.55
383.731	32.94
383.941	131.24
384.151	43.18
384.361	51.37
384.571	96.43
384.781	-1.88
384.991	157.86
385.201	114.86
385.411	86.19
385.621	49.32
385.831	118.95
386.041	110.76
386.251	67.75
386.461	106.67
386.671	32.94
386.881	82.09
387.091	10.41
387.301	18.6
387.511	80.04
387.72	22.7
387.93	164.01
388.14	-12.12
388.35	49.32
388.56	108.71
388.769	92.33
388.979	57.51
389.189	37.03
389.399	-5.97
389.609	16.55
389.818	133.29
390.028	-42.84
390.238	108.71
390.447	59.56
390.657	41.13
390.867	47.27
391.076	-63.32
391.286	41.13
391.496	45.23
391.705	63.66
391.915	174.25
392.125	139.43
392.334	129.19
392.544	127.14
392.753	65.71
392.963	-3.93
393.172	18.6
393.382	-3.93
393.591	170.15
393.801	86.19
394.01	133.29
394.22	102.57
394.429	-10.07
394.639	-10.07
394.848	80.04
395.058	153.77
395.267	0.17
395.477	135.34
395.686	98.47
395.895	153.77
396.105	196.78
396.314	32.94
396.524	-22.36
396.733	41.13
396.942	98.47
397.152	24.75
397.361	145.58
397.57	98.47
397.78	59.56
397.989	18.6
398.198	194.73
398.407	49.32
398.617	43.18
398.826	98.47
399.035	43.18
399.244	112.81
399.453	112.81
399.663	59.56
399.872	86.19
400.081	-34.64
400.29	168.1
400.499	14.51
400.708	102.57
400.917	12.46
401.127	88.23
401.336	6.31
401.545	235.69
401.754	106.67
401.963	65.71
402.172	28.84
402.381	0.17
402.59	61.61
402.799	37.03
403.008	147.62
403.217	114.86
403.426	24.75
403.635	26.79
403.844	98.47
404.053	20.65
404.262	88.23
404.471	161.96
404.68	67.75
404.888	63.66
405.097	22.7
405.306	77.99
405.515	145.58
405.724	47.27
405.933	84.14
406.142	82.09
406.35	49.32
406.559	51.37
406.768	80.04
406.977	237.74
407.185	57.51
407.394	110.76
407.603	-18.26
407.812	77.99
408.02	153.77
408.229	59.56
408.438	47.27
408.646	-34.64
408.855	39.08
409.064	77.99
409.272	73.9
409.481	135.34
409.69	-32.6
409.898	20.65
410.107	75.95
410.315	123.05
410.524	51.37
410.733	75.95
410.941	123.05
411.15	98.47
411.358	32.94
411.567	204.97
411.775	77.99
411.984	4.27
412.192	65.71
412.401	-18.26
412.609	211.11
412.818	149.67
413.026	166.06
413.234	8.36
413.443	12.46
413.651	-28.5
413.86	108.71
414.068	223.4
414.276	223.4
414.485	-12.12
414.693	75.95
414.901	164.01
415.11	57.51
415.318	59.56
415.526	75.95
415.734	98.47
415.943	94.38
416.151	198.82
416.359	143.53
416.567	37.03
416.776	166.06
416.984	161.96
417.192	170.15
417.4	59.56
417.608	77.99
417.817	-44.88
418.025	125.1
418.233	143.53
418.441	32.94
418.649	75.95
418.857	166.06
419.065	98.47
419.273	86.19
419.481	55.47
419.689	63.66
419.897	24.75
420.105	-20.31
420.313	196.78
420.521	73.9
420.729	141.48
420.937	-67.41
421.145	-16.21
421.353	204.97
421.561	159.91
421.769	32.94
421.977	-3.93
422.185	139.43
422.393	43.18
422.601	147.62
422.809	67.75
423.017	0.17
423.224	86.19
423.432	159.91
423.64	-40.79
423.848	198.82
424.056	16.55
424.263	133.29
424.471	127.14
424.679	159.91
424.887	-40.79
425.094	243.88
425.302	86.19
425.51	82.09
425.718	110.76
425.925	106.67
426.133	49.32
426.341	198.82
426.548	84.14
426.756	49.32
426.964	129.19
427.171	-87.89
427.379	137.38
427.586	49.32
427.794	135.34
428.001	157.86
428.209	129.19
428.417	178.34
428.624	168.1
428.832	129.19
429.039	45.23
429.247	116.9
429.454	145.58
429.662	209.06
429.869	108.71
430.076	180.39
430.284	159.91
430.491	188.58
430.699	155.82
430.906	258.21
431.114	96.43
431.321	127.14
431.528	104.62
431.736	233.64
431.943	112.81
432.15	102.57
432.358	176.3
432.565	290.98
432.772	32.94
432.979	282.79
433.187	149.67
433.394	202.92
433.601	172.2
433.808	239.78
434.016	227.5
434.223	217.26
434.43	151.72
434.637	303.27
434.844	336.04
435.052	213.16
435.259	356.52
435.466	307.37
435.673	270.5
435.88	389.28
436.087	338.09
436.294	395.43
436.501	290.98
436.708	247.97
436.915	303.27
437.122	391.33
437.329	237.74
437.537	358.57
437.743	288.93
437.95	477.35
438.157	319.65
438.364	350.37
438.571	372.9
438.778	360.61
438.985	446.63
439.192	546.98
439.399	389.28
439.606	487.59
439.813	573.6
440.02	676
440.227	731.3
440.433	649.38
440.64	489.64
440.847	446.63
441.054	569.51
441.261	796.83
441.467	684.19
441.674	616.61
441.881	704.67
442.088	673.95
442.294	772.25
442.501	823.45
442.708	823.45
442.914	872.61
443.121	809.12
443.328	915.61
443.534	893.09
443.741	938.14
443.948	872.61
444.154	884.89
444.361	1167.51
444.568	1028.25
444.774	1106.07
444.981	999.58
445.187	1151.13
445.394	1173.66
445.6	1171.61
445.807	1276.06
446.013	1376.41
446.22	1343.64
446.426	1429.65
446.633	1507.48
446.839	1687.7
447.046	1437.84
447.252	1661.07
447.459	1663.12
447.665	1634.45
447.871	1970.32
448.078	2058.38
448.284	1882.25
448.491	2107.53
448.697	2203.79
448.903	2271.37
449.11	2236.55
449.316	2232.46
449.522	2515.08
449.728	2467.97
449.935	2564.23
450.141	2640
450.347	2791.55
450.553	2758.78
450.76	2936.96
450.966	2922.62
451.172	3094.65
451.378	3176.57
451.584	3180.67
451.791	3512.44
451.997	3623.03
452.203	3668.08
452.409	3866.74
452.615	4112.49
452.821	3876.98
453.027	3950.7
453.233	4462.69
453.44	4393.06
453.646	4642.92
453.852	4616.29
454.058	4810.85
454.264	5064.8
454.47	5505.11
454.676	5290.07
454.882	5845.07
455.088	5752.91
455.294	5963.86
455.5	6150.22
455.705	6781
455.911	6508.62
456.117	6803.52
456.323	7108.67
456.529	6981.7
456.735	7714.87
456.941	7872.56
457.147	8355.88
457.352	8476.71
457.558	8575.02
457.764	9332.76
457.97	9685.01
458.176	9820.18
458.381	10317.84
458.587	10618.89
458.793	11100.16
458.999	11134.98
459.204	12531.69
459.41	12826.6
459.616	12423.15
459.821	13350.88
460.027	14149.59
460.233	14569.42
460.438	14782.41
460.644	15525.82
460.85	15599.55
461.055	16123.83
461.261	16940.97
461.466	16709.55
461.672	17131.43
461.878	18972.55
462.083	18837.39
462.289	19265.41
462.494	19781.5
462.7	20189.05
462.905	20567.92
463.111	22468.44
463.316	23052.11
463.522	23476.04
463.727	24289.08
463.932	24962.86
464.138	26208.03
464.343	27219.72
464.549	27025.17
464.754	29148.91
464.959	29761.25
465.165	30455.51
465.37	29980.39
465.575	30379.74
465.781	32091.84
465.986	33081.01
466.191	32874.17
466.397	33109.68
466.602	32241.34
466.807	33871.53
467.012	34758.3
467.218	35118.74
467.423	35425.93
467.628	36462.21
467.833	38172.26
468.038	37078.64
468.244	37000.82
468.449	38635.1
468.654	37609.07
