Data from USB4F104151__32__10-24-29-040.txt Node

Date: Wed Feb 26 10:24:29 EST 2025
User: louis
Spectrometer: USB4F10415
Trigger mode: 4
Integration Time (sec): 1.000000E-1
Scans to average: 1
Electric dark correction enabled: true
Nonlinearity correction enabled: false
Boxcar width: 0
XAxis mode: Wavelengths
Number of Pixels in Spectrum: 3648
>>>>>Begin Spectral Data<<<<<
178.204	-433.32
178.424	-433.32
178.644	-433.32
178.864	-367.78
179.084	-363.69
179.304	13.14
179.524	7
179.744	-17.58
179.964	56.15
180.184	72.53
180.404	7
180.624	0.85
180.844	-11.43
181.064	-122.02
181.283	25.43
181.503	-95.4
181.723	64.34
181.943	-62.63
182.163	254.8
182.383	-33.96
182.602	78.68
182.822	119.64
183.042	41.81
183.262	7
183.482	15.19
183.701	0.85
183.921	66.39
184.141	45.91
184.361	101.2
184.58	9.05
184.8	80.72
185.02	-31.91
185.239	111.44
185.459	29.52
185.679	76.63
185.898	17.24
186.118	62.29
186.338	90.96
186.557	95.06
186.777	-58.54
186.997	21.33
187.216	9.05
187.436	174.93
187.655	105.3
187.875	93.01
188.095	47.96
188.314	74.58
188.534	105.3
188.753	50
188.973	156.5
189.192	168.79
189.412	27.48
189.631	15.19
189.851	68.44
190.07	105.3
190.29	-60.59
190.509	47.96
190.729	115.54
190.948	117.59
191.168	258.9
191.387	125.78
191.607	17.24
191.826	76.63
192.045	47.96
192.265	39.76
192.484	-3.24
192.704	45.91
192.923	-40.11
193.142	152.4
193.362	144.21
193.581	176.98
193.8	25.43
194.02	154.45
194.239	115.54
194.458	64.34
194.678	21.33
194.897	76.63
195.116	62.29
195.335	68.44
195.555	43.86
195.774	17.24
195.993	138.07
196.212	39.76
196.432	17.24
196.651	-7.34
196.87	19.29
197.089	258.9
197.308	82.77
197.528	66.39
197.747	11.09
197.966	115.54
198.185	56.15
198.404	-50.35
198.623	86.87
198.842	101.2
199.062	80.72
199.281	140.12
199.5	82.77
199.719	50
199.938	47.96
200.157	31.57
200.376	129.88
200.595	90.96
200.814	31.57
201.033	9.05
201.252	203.6
201.471	148.31
201.69	117.59
201.909	39.76
202.128	103.25
202.347	41.81
202.566	72.53
202.785	56.15
203.004	7
203.223	201.55
203.442	13.14
203.661	-48.3
203.879	45.91
204.098	80.72
204.317	17.24
204.536	129.88
204.755	68.44
204.974	72.53
205.193	43.86
205.411	133.97
205.63	68.44
205.849	62.29
206.068	45.91
206.287	-83.11
206.505	125.78
206.724	35.67
206.943	-1.19
207.162	13.14
207.381	21.33
207.599	-38.06
207.818	45.91
208.037	11.09
208.255	78.68
208.474	105.3
208.693	35.67
208.911	21.33
209.13	101.2
209.349	90.96
209.567	174.93
209.786	111.44
210.005	119.64
210.223	70.48
210.442	-89.26
210.661	43.86
210.879	2.9
211.098	19.29
211.316	76.63
211.535	88.92
211.753	31.57
211.972	72.53
212.191	-21.67
212.409	-17.58
212.628	97.11
212.846	-42.15
213.065	72.53
213.283	174.93
213.502	37.72
213.72	11.09
213.938	-11.43
214.157	33.62
214.375	99.16
214.594	9.05
214.812	93.01
215.031	37.72
215.249	123.73
215.467	64.34
215.686	68.44
215.904	35.67
216.122	31.57
216.341	174.93
216.559	76.63
216.778	43.86
216.996	95.06
217.214	9.05
217.432	-64.68
217.651	-52.39
217.869	47.96
218.087	82.77
218.306	4.95
218.524	101.2
218.742	-40.11
218.96	117.59
219.179	-3.24
219.397	43.86
219.615	144.21
219.833	150.36
220.051	-62.63
220.27	97.11
220.488	88.92
220.706	76.63
220.924	9.05
221.142	-27.82
221.36	47.96
221.578	99.16
221.796	25.43
222.015	2.9
222.233	209.75
222.451	105.3
222.669	-27.82
222.887	105.3
223.105	-1.19
223.323	43.86
223.541	-21.67
223.759	76.63
223.977	64.34
224.195	244.56
224.413	111.44
224.631	2.9
224.849	62.29
225.067	205.65
225.285	-48.3
225.503	7
225.721	0.85
225.939	-23.72
226.157	-17.58
226.375	150.36
226.592	-13.48
226.81	95.06
227.028	95.06
227.246	76.63
227.464	76.63
227.682	97.11
227.9	101.2
228.117	19.29
228.335	95.06
228.553	52.05
228.771	90.96
228.989	33.62
229.206	45.91
229.424	39.76
229.642	-29.87
229.86	-60.59
230.077	99.16
230.295	29.52
230.513	127.83
230.731	70.48
230.948	144.21
231.166	70.48
231.384	4.95
231.601	-38.06
231.819	176.98
232.037	29.52
232.254	-91.31
232.472	35.67
232.689	109.4
232.907	133.97
233.125	21.33
233.342	-70.83
233.56	-5.29
233.777	-23.72
233.995	35.67
234.213	148.31
234.43	138.07
234.648	-17.58
234.865	17.24
235.083	25.43
235.3	107.35
235.518	90.96
235.735	131.92
235.953	154.45
236.17	117.59
236.388	23.38
236.605	23.38
236.822	107.35
237.04	62.29
237.257	54.1
237.475	-48.3
237.692	125.78
237.909	113.49
238.127	-17.58
238.344	21.33
238.562	41.81
238.779	-48.3
238.996	23.38
239.214	23.38
239.431	76.63
239.648	23.38
239.865	93.01
240.083	109.4
240.3	41.81
240.517	-17.58
240.735	-9.39
240.952	93.01
241.169	27.48
241.386	113.49
241.603	31.57
241.821	54.1
242.038	129.88
242.255	47.96
242.472	-44.2
242.689	62.29
242.907	31.57
243.124	25.43
243.341	58.2
243.558	-46.25
243.775	-95.4
243.992	-64.68
244.209	78.68
244.426	193.36
244.643	121.68
244.86	86.87
245.078	152.4
245.295	56.15
245.512	62.29
245.729	-25.77
245.946	64.34
246.163	47.96
246.38	-62.63
246.597	84.82
246.814	78.68
247.031	107.35
247.248	58.2
247.464	115.54
247.681	50
247.898	-7.34
248.115	39.76
248.332	-60.59
248.549	148.31
248.766	197.46
248.983	131.92
249.2	136.02
249.417	86.87
249.633	33.62
249.85	146.26
250.067	50
250.284	23.38
250.501	56.15
250.717	60.24
250.934	-58.54
251.151	109.4
251.368	58.2
251.585	93.01
251.801	45.91
252.018	-81.07
252.235	154.45
252.451	-74.92
252.668	0.85
252.885	156.5
253.102	76.63
253.318	-27.82
253.535	2.9
253.752	9.05
253.968	2.9
254.185	-109.74
254.401	4.95
254.618	115.54
254.835	27.48
255.051	101.2
255.268	82.77
255.484	101.2
255.701	33.62
255.917	21.33
256.134	27.48
256.351	45.91
256.567	-40.11
256.784	35.67
257	-40.11
257.217	76.63
257.433	97.11
257.65	11.09
257.866	152.4
258.082	-66.73
258.299	33.62
258.515	144.21
258.732	-33.96
258.948	-21.67
259.165	31.57
259.381	35.67
259.597	15.19
259.814	119.64
260.03	50
260.246	19.29
260.463	90.96
260.679	90.96
260.895	129.88
261.112	33.62
261.328	-42.15
261.544	-13.48
261.761	222.03
261.977	33.62
262.193	15.19
262.409	103.25
262.626	2.9
262.842	72.53
263.058	-21.67
263.274	136.02
263.49	13.14
263.707	37.72
263.923	47.96
264.139	-15.53
264.355	103.25
264.571	123.73
264.787	64.34
265.004	88.92
265.22	19.29
265.436	0.85
265.652	78.68
265.868	0.85
266.084	-31.91
266.3	70.48
266.516	-13.48
266.732	23.38
266.948	113.49
267.164	13.14
267.38	136.02
267.596	64.34
267.812	68.44
268.028	58.2
268.244	-66.73
268.46	-31.91
268.676	-1.19
268.892	35.67
269.108	-3.24
269.324	-36.01
269.54	-42.15
269.756	133.97
269.972	-42.15
270.188	15.19
270.403	-52.39
270.619	84.82
270.835	9.05
271.051	60.24
271.267	-40.11
271.483	-1.19
271.698	58.2
271.914	136.02
272.13	17.24
272.346	-29.87
272.562	17.24
272.777	179.03
272.993	-19.63
273.209	25.43
273.425	84.82
273.64	-93.35
273.856	82.77
274.072	-9.39
274.287	31.57
274.503	72.53
274.719	50
274.934	-11.43
275.15	-40.11
275.366	74.58
275.581	-11.43
275.797	33.62
276.012	39.76
276.228	-76.97
276.444	76.63
276.659	97.11
276.875	17.24
277.09	41.81
277.306	27.48
277.521	41.81
277.737	56.15
277.952	19.29
278.168	101.2
278.383	74.58
278.599	27.48
278.814	88.92
279.03	39.76
279.245	183.12
279.461	17.24
279.676	185.17
279.892	-9.39
280.107	-23.72
280.322	7
280.538	86.87
280.753	0.85
280.969	119.64
281.184	62.29
281.399	152.4
281.615	37.72
281.83	52.05
282.045	-52.39
282.26	31.57
282.476	84.82
282.691	101.2
282.906	95.06
283.122	82.77
283.337	-38.06
283.552	127.83
283.767	-3.24
283.983	142.16
284.198	39.76
284.413	148.31
284.628	-60.59
284.843	-21.67
285.058	58.2
285.274	-15.53
285.489	4.95
285.704	101.2
285.919	-62.63
286.134	0.85
286.349	33.62
286.564	4.95
286.779	99.16
286.995	41.81
287.21	-27.82
287.425	56.15
287.64	-62.63
287.855	21.33
288.07	-29.87
288.285	101.2
288.5	115.54
288.715	50
288.93	54.1
289.145	-15.53
289.36	113.49
289.575	-3.24
289.79	86.87
290.004	-50.35
290.219	78.68
290.434	21.33
290.649	29.52
290.864	-15.53
291.079	-27.82
291.294	68.44
291.509	19.29
291.724	54.1
291.938	23.38
292.153	-9.39
292.368	33.62
292.583	66.39
292.798	70.48
293.012	15.19
293.227	101.2
293.442	-19.63
293.657	127.83
293.871	107.35
294.086	50
294.301	166.74
294.516	140.12
294.73	-5.29
294.945	-33.96
295.16	-29.87
295.374	144.21
295.589	131.92
295.804	0.85
296.018	15.19
296.233	133.97
296.447	64.34
296.662	-17.58
296.877	80.72
297.091	119.64
297.306	80.72
297.52	23.38
297.735	76.63
297.949	70.48
298.164	13.14
298.378	31.57
298.593	9.05
298.807	-29.87
299.022	82.77
299.236	236.37
299.451	25.43
299.665	35.67
299.88	29.52
300.094	56.15
300.309	23.38
300.523	101.2
300.737	35.67
300.952	74.58
301.166	72.53
301.381	-56.49
301.595	-46.25
301.809	19.29
302.024	31.57
302.238	-74.92
302.452	199.51
302.667	66.39
302.881	193.36
303.095	158.55
303.309	70.48
303.524	-42.15
303.738	-27.82
303.952	-7.34
304.166	103.25
304.381	-97.45
304.595	78.68
304.809	-9.39
305.023	39.76
305.237	-27.82
305.452	19.29
305.666	117.59
305.88	23.38
306.094	70.48
306.308	93.01
306.522	127.83
306.736	70.48
306.95	99.16
307.164	123.73
307.379	-21.67
307.593	154.45
307.807	144.21
308.021	127.83
308.235	88.92
308.449	-36.01
308.663	-5.29
308.877	205.65
309.091	4.95
309.305	103.25
309.519	-93.35
309.733	172.88
309.947	-101.55
310.161	66.39
310.374	158.55
310.588	142.16
310.802	-62.63
311.016	54.1
311.23	-3.24
311.444	74.58
311.658	-9.39
311.872	70.48
312.085	121.68
312.299	115.54
312.513	150.36
312.727	35.67
312.941	-11.43
313.154	11.09
313.368	0.85
313.582	25.43
313.796	7
314.009	80.72
314.223	97.11
314.437	-9.39
314.651	82.77
314.864	13.14
315.078	-19.63
315.292	-13.48
315.505	47.96
315.719	19.29
315.933	68.44
316.146	2.9
316.36	-33.96
316.573	199.51
316.787	74.58
317.001	64.34
317.214	33.62
317.428	21.33
317.641	-27.82
317.855	90.96
318.068	39.76
318.282	17.24
318.495	140.12
318.709	68.44
318.922	-1.19
319.136	131.92
319.349	103.25
319.563	9.05
319.776	119.64
319.99	-85.16
320.203	54.1
320.417	33.62
320.63	88.92
320.843	156.5
321.057	47.96
321.27	35.67
321.483	154.45
321.697	109.4
321.91	54.1
322.124	103.25
322.337	95.06
322.55	-19.63
322.763	60.24
322.977	37.72
323.19	-40.11
323.403	15.19
323.617	35.67
323.83	99.16
324.043	41.81
324.256	-5.29
324.469	-11.43
324.683	109.4
324.896	19.29
325.109	105.3
325.322	-21.67
325.535	174.93
325.748	179.03
325.962	-40.11
326.175	50
326.388	109.4
326.601	76.63
326.814	-21.67
327.027	111.44
327.24	158.55
327.453	-58.54
327.666	-9.39
327.879	97.11
328.092	125.78
328.305	74.58
328.518	4.95
328.731	-3.24
328.944	-42.15
329.157	105.3
329.37	41.81
329.583	162.64
329.796	172.88
330.009	-93.35
330.222	97.11
330.435	125.78
330.648	-21.67
330.861	41.81
331.073	43.86
331.286	140.12
331.499	15.19
331.712	-38.06
331.925	86.87
332.138	113.49
332.35	144.21
332.563	25.43
332.776	93.01
332.989	-36.01
333.202	-33.96
333.414	113.49
333.627	2.9
333.84	31.57
334.053	15.19
334.265	-7.34
334.478	-3.24
334.691	52.05
334.903	80.72
335.116	37.72
335.329	-7.34
335.541	179.03
335.754	170.83
335.966	31.57
336.179	47.96
336.392	-9.39
336.604	41.81
336.817	54.1
337.029	50
337.242	50
337.454	117.59
337.667	78.68
337.88	150.36
338.092	93.01
338.305	82.77
338.517	-38.06
338.729	115.54
338.942	179.03
339.154	-50.35
339.367	-48.3
339.579	84.82
339.792	23.38
340.004	-13.48
340.217	-38.06
340.429	80.72
340.641	58.2
340.854	-62.63
341.066	52.05
341.278	111.44
341.491	193.36
341.703	27.48
341.915	-40.11
342.128	62.29
342.34	119.64
342.552	-81.07
342.764	17.24
342.977	47.96
343.189	140.12
343.401	66.39
343.613	-3.24
343.826	37.72
344.038	64.34
344.25	70.48
344.462	-56.49
344.674	33.62
344.886	68.44
345.099	82.77
345.311	58.2
345.523	-19.63
345.735	-62.63
345.947	29.52
346.159	70.48
346.371	41.81
346.583	-27.82
346.795	226.13
347.007	-17.58
347.219	58.2
347.431	19.29
347.643	179.03
347.855	11.09
348.067	133.97
348.279	-58.54
348.491	58.2
348.703	50
348.915	78.68
349.127	-64.68
349.339	-27.82
349.551	13.14
349.763	9.05
349.975	117.59
350.187	160.59
350.399	99.16
350.61	54.1
350.822	78.68
351.034	111.44
351.246	150.36
351.458	7
351.669	60.24
351.881	93.01
352.093	160.59
352.305	86.87
352.517	68.44
352.728	148.31
352.94	76.63
353.152	58.2
353.363	19.29
353.575	25.43
353.787	131.92
353.999	35.67
354.21	176.98
354.422	-3.24
354.633	15.19
354.845	121.68
355.057	13.14
355.268	-3.24
355.48	84.82
355.692	-50.35
355.903	21.33
356.115	-23.72
356.326	-23.72
356.538	115.54
356.749	119.64
356.961	105.3
357.172	107.35
357.384	45.91
357.595	148.31
357.807	35.67
358.018	17.24
358.23	9.05
358.441	185.17
358.653	33.62
358.864	109.4
359.075	17.24
359.287	13.14
359.498	80.72
359.709	99.16
359.921	76.63
360.132	103.25
360.344	17.24
360.555	-60.59
360.766	27.48
360.977	4.95
361.189	185.17
361.4	-23.72
361.611	95.06
361.823	107.35
362.034	93.01
362.245	-27.82
362.456	23.38
362.667	68.44
362.879	-33.96
363.09	66.39
363.301	95.06
363.512	-3.24
363.723	23.38
363.935	2.9
364.146	95.06
364.357	11.09
364.568	33.62
364.779	56.15
364.99	121.68
365.201	-62.63
365.412	156.5
365.623	-85.16
365.834	113.49
366.045	35.67
366.256	90.96
366.467	162.64
366.678	84.82
366.889	9.05
367.1	-62.63
367.311	197.46
367.522	-21.67
367.733	23.38
367.944	95.06
368.155	21.33
368.366	74.58
368.577	138.07
368.788	176.98
368.999	70.48
369.209	74.58
369.42	179.03
369.631	142.16
369.842	142.16
370.053	54.1
370.264	148.31
370.474	103.25
370.685	37.72
370.896	113.49
371.107	13.14
371.317	15.19
371.528	-15.53
371.739	193.36
371.95	47.96
372.16	84.82
372.371	-50.35
372.582	21.33
372.792	121.68
373.003	13.14
373.214	70.48
373.424	47.96
373.635	-70.83
373.846	154.45
374.056	95.06
374.267	86.87
374.477	17.24
374.688	15.19
374.898	95.06
375.109	64.34
375.319	80.72
375.53	205.65
375.74	47.96
375.951	140.12
376.161	93.01
376.372	138.07
376.582	-17.58
376.793	105.3
377.003	17.24
377.214	41.81
377.424	64.34
377.635	68.44
377.845	-36.01
378.055	80.72
378.266	-31.91
378.476	31.57
378.686	47.96
378.897	45.91
379.107	88.92
379.317	13.14
379.528	-48.3
379.738	54.1
379.948	-62.63
380.158	76.63
380.369	117.59
380.579	74.58
380.789	101.2
380.999	101.2
381.21	142.16
381.42	193.36
381.63	70.48
381.84	140.12
382.05	25.43
382.261	172.88
382.471	154.45
382.681	35.67
382.891	174.93
383.101	80.72
383.311	-9.39
383.521	-3.24
383.731	99.16
383.941	156.5
384.151	47.96
384.361	58.2
384.571	66.39
384.781	52.05
384.991	205.65
385.201	234.32
385.411	54.1
385.621	97.11
385.831	142.16
386.041	13.14
386.251	86.87
386.461	121.68
386.671	29.52
386.881	54.1
387.091	117.59
387.301	78.68
387.511	37.72
387.72	86.87
387.93	101.2
388.14	-36.01
388.35	103.25
388.56	127.83
388.769	138.07
388.979	25.43
389.189	-7.34
389.399	-7.34
389.609	111.44
389.818	115.54
390.028	9.05
390.238	127.83
390.447	27.48
390.657	133.97
390.867	-38.06
391.076	-27.82
391.286	78.68
391.496	31.57
391.705	72.53
391.915	123.73
392.125	129.88
392.334	90.96
392.544	166.74
392.753	-40.11
392.963	17.24
393.172	41.81
393.382	-33.96
393.591	119.64
393.801	47.96
394.01	148.31
394.22	82.77
394.429	25.43
394.639	27.48
394.848	47.96
395.058	86.87
395.267	52.05
395.477	95.06
395.686	93.01
395.895	205.65
396.105	181.07
396.314	125.78
396.524	99.16
396.733	-29.87
396.942	119.64
397.152	138.07
397.361	41.81
397.57	50
397.78	47.96
397.989	78.68
398.198	121.68
398.407	58.2
398.617	109.4
398.826	39.76
399.035	113.49
399.244	148.31
399.453	17.24
399.663	76.63
399.872	90.96
400.081	-3.24
400.29	58.2
400.499	13.14
400.708	90.96
400.917	99.16
401.127	23.38
401.336	29.52
401.545	97.11
401.754	174.93
401.963	74.58
402.172	23.38
402.381	19.29
402.59	54.1
402.799	33.62
403.008	88.92
403.217	133.97
403.426	101.2
403.635	15.19
403.844	27.48
404.053	-3.24
404.262	7
404.471	127.83
404.68	109.4
404.888	54.1
405.097	129.88
405.306	52.05
405.515	74.58
405.724	11.09
405.933	80.72
406.142	-5.29
406.35	176.98
406.559	15.19
406.768	84.82
406.977	199.51
407.185	66.39
407.394	123.73
407.603	-60.59
407.812	33.62
408.02	138.07
408.229	35.67
408.438	60.24
408.646	-99.5
408.855	21.33
409.064	119.64
409.272	31.57
409.481	97.11
409.69	47.96
409.898	-36.01
410.107	99.16
410.315	115.54
410.524	31.57
410.733	13.14
410.941	47.96
411.15	176.98
411.358	109.4
411.567	154.45
411.775	4.95
411.984	105.3
412.192	123.73
412.401	62.29
412.609	82.77
412.818	78.68
413.026	131.92
413.234	121.68
413.443	117.59
413.651	17.24
413.86	54.1
414.068	119.64
414.276	144.21
414.485	111.44
414.693	181.07
414.901	174.93
415.11	131.92
415.318	-21.67
415.526	43.86
415.734	111.44
415.943	144.21
416.151	174.93
416.359	9.05
416.567	105.3
416.776	121.68
416.984	90.96
417.192	193.36
417.4	86.87
417.608	39.76
417.817	-9.39
418.025	133.97
418.233	142.16
418.441	74.58
418.649	-21.67
418.857	64.34
419.065	170.83
419.273	97.11
419.481	84.82
419.689	115.54
419.897	117.59
420.105	-17.58
420.313	80.72
420.521	201.55
420.729	133.97
420.937	39.76
421.145	-3.24
421.353	174.93
421.561	138.07
421.769	11.09
421.977	43.86
422.185	160.59
422.393	21.33
422.601	146.26
422.809	70.48
423.017	58.2
423.224	47.96
423.432	76.63
423.64	72.53
423.848	119.64
424.056	-79.02
424.263	191.31
424.471	11.09
424.679	222.03
424.887	-54.44
425.094	107.35
425.302	99.16
425.51	54.1
425.718	105.3
425.925	54.1
426.133	2.9
426.341	195.41
426.548	93.01
426.756	127.83
426.964	133.97
427.171	54.1
427.379	195.41
427.586	158.55
427.794	60.24
428.001	129.88
428.209	56.15
428.417	213.84
428.624	31.57
428.832	86.87
429.039	127.83
429.247	103.25
429.454	88.92
429.662	197.46
429.869	88.92
430.076	138.07
430.284	136.02
430.491	269.14
430.699	152.4
430.906	205.65
431.114	111.44
431.321	205.65
431.528	84.82
431.736	152.4
431.943	246.61
432.15	136.02
432.358	156.5
432.565	336.72
432.772	9.05
432.979	197.46
433.187	107.35
433.394	185.17
433.601	52.05
433.808	297.81
434.016	156.5
434.223	226.13
434.43	107.35
434.637	234.32
434.844	187.22
435.052	176.98
435.259	246.61
435.466	322.38
435.673	267.09
435.88	328.53
436.087	353.1
436.294	318.29
436.501	295.76
436.708	242.51
436.915	236.37
437.122	322.38
437.329	265.04
437.537	285.52
437.743	416.59
437.95	392.02
438.157	328.53
438.364	351.06
438.571	392.02
438.778	404.3
438.985	430.93
439.192	514.89
439.399	379.73
439.606	506.7
439.813	523.09
440.02	586.57
440.227	645.96
440.433	578.38
440.64	498.51
440.847	504.65
441.054	508.75
441.261	623.44
441.467	617.29
441.674	600.91
441.881	715.59
442.088	605
442.294	666.44
442.501	707.4
442.708	768.84
442.914	777.03
443.121	828.23
443.328	805.71
443.534	848.71
443.741	940.87
443.948	877.38
444.154	981.83
444.361	1080.13
444.568	987.97
444.774	1041.22
444.981	887.62
445.187	1168.2
445.394	1127.24
445.6	1057.61
445.807	1254.21
446.013	1117
446.22	1071.94
446.426	1348.42
446.633	1377.09
446.839	1631.04
447.046	1291.07
447.252	1610.56
447.459	1643.32
447.665	1579.84
447.871	1698.62
448.078	1792.83
448.284	1747.77
448.491	1975.1
448.697	1934.14
448.903	2069.3
449.11	2085.69
449.316	2034.49
449.522	2304.82
449.728	2388.78
449.935	2384.69
450.141	2495.28
450.347	2595.63
450.553	2546.48
450.76	2652.97
450.966	2859.82
451.172	2810.67
451.378	2966.31
451.584	3044.13
451.791	3287.84
451.997	3293.99
452.203	3457.82
452.409	3617.57
452.615	3668.77
452.821	3605.28
453.027	3756.83
453.233	4184.85
453.44	3988.25
453.646	4330.26
453.852	4336.4
454.058	4709.13
454.264	4803.34
454.47	5010.18
454.676	5020.42
454.882	5403.39
455.088	5325.57
455.294	5585.66
455.5	5804.8
455.705	6179.58
455.911	6308.6
456.117	6460.15
456.323	6619.89
456.529	6818.54
456.735	7383.78
456.941	7588.58
457.147	7824.09
457.352	8063.71
457.558	7992.03
457.764	8749.78
457.97	8782.54
458.176	9095.88
458.381	9644.74
458.587	9841.34
458.793	10365.62
458.999	10179.26
459.204	11780.77
459.41	12161.69
459.616	11811.49
459.821	12604.05
460.027	13167.24
460.233	13660.8
460.438	14086.78
460.644	14598.77
460.85	14873.2
461.055	15600.23
461.261	16106.08
461.466	15792.74
461.672	16149.09
461.878	17900.1
462.083	17683.02
462.289	17971.78
462.494	18823.73
462.7	19171.89
462.905	19431.98
463.111	20929.05
463.316	22061.57
463.522	22346.24
463.727	22837.75
463.932	23816.68
464.138	24523.23
464.343	25663.95
464.549	25616.85
464.754	27554.22
464.959	28477.86
465.165	28727.71
465.37	28643.74
465.575	28258.73
465.781	30441.86
465.986	31500.66
466.191	31287.67
466.397	31185.27
466.602	30476.68
466.807	32471.4
467.012	32797.02
467.218	33782.1
467.423	33630.55
467.628	34324.81
467.833	36469.03
468.038	35526.97
468.244	34949.44
468.449	36931.87
468.654	36180.27
468.859	36319.53
469.064	36124.97
469.269	35105.09
