Data from USB4F104151__56__09-28-28-001.txt Node

Date: Wed Feb 26 09:28:28 EST 2025
User: louis
Spectrometer: USB4F10415
Trigger mode: 4
Integration Time (sec): 1.000000E-1
Scans to average: 1
Electric dark correction enabled: true
Nonlinearity correction enabled: false
Boxcar width: 0
XAxis mode: Wavelengths
Number of Pixels in Spectrum: 3648
>>>>>Begin Spectral Data<<<<<
178.204	-362.83
178.424	-362.83
178.644	-362.83
178.864	-371.02
179.084	-350.54
179.304	-6.49
179.524	-29.01
179.744	28.33
179.964	118.44
180.184	22.19
180.404	7.85
180.624	-72.02
180.844	5.8
181.064	-22.87
181.283	9.9
181.503	-88.4
181.723	26.28
181.943	-39.25
182.163	155.3
182.383	-63.83
182.602	136.87
182.822	163.5
183.042	24.23
183.262	-37.2
183.482	52.91
183.701	61.1
183.921	1.71
184.141	-20.82
184.361	116.39
184.58	30.38
184.8	7.85
185.02	3.75
185.239	85.67
185.459	7.85
185.679	91.82
185.898	-112.98
186.118	3.75
186.338	52.91
186.557	106.15
186.777	-45.4
186.997	-49.49
187.216	-37.2
187.436	89.77
187.655	-20.82
187.875	13.99
188.095	44.71
188.314	81.58
188.534	138.92
188.753	-8.53
188.973	83.63
189.192	132.78
189.412	9.9
189.631	28.33
189.851	85.67
190.07	179.88
190.29	-10.58
190.509	1.71
190.729	85.67
190.948	159.4
191.168	306.85
191.387	151.21
191.607	42.67
191.826	75.43
192.045	7.85
192.265	-49.49
192.484	134.82
192.704	44.71
192.923	-20.82
193.142	143.02
193.362	77.48
193.581	116.39
193.8	118.44
194.02	73.39
194.239	95.91
194.458	32.43
194.678	44.71
194.897	26.28
195.116	118.44
195.335	97.96
195.555	77.48
195.774	-33.11
195.993	83.63
196.212	-8.53
196.432	-31.06
196.651	-49.49
196.87	-4.44
197.089	188.07
197.308	73.39
197.528	75.43
197.747	-53.59
197.966	-2.39
198.185	95.91
198.404	-63.83
198.623	122.54
198.842	100.01
199.062	89.77
199.281	110.25
199.5	50.86
199.719	40.62
199.938	61.1
200.157	130.73
200.376	102.06
200.595	155.3
200.814	36.52
201.033	-4.44
201.252	138.92
201.471	28.33
201.69	106.15
201.909	50.86
202.128	124.58
202.347	69.29
202.566	114.34
202.785	-57.68
203.004	32.43
203.223	265.89
203.442	28.33
203.661	-45.4
203.879	-31.06
204.098	179.88
204.317	-37.2
204.536	83.63
204.755	165.54
204.974	77.48
205.193	26.28
205.411	124.58
205.63	13.99
205.849	106.15
206.068	26.28
206.287	-20.82
206.505	130.73
206.724	-33.11
206.943	22.19
207.162	24.23
207.381	91.82
207.599	26.28
207.818	91.82
208.037	-22.87
208.255	3.75
208.474	83.63
208.693	30.38
208.911	-35.16
209.13	57
209.349	63.15
209.567	126.63
209.786	104.11
210.005	151.21
210.223	48.81
210.442	-131.41
210.661	30.38
210.879	-10.58
211.098	42.67
211.316	36.52
211.535	67.24
211.753	75.43
211.972	28.33
212.191	44.71
212.409	102.06
212.628	110.25
212.846	52.91
213.065	42.67
213.283	67.24
213.502	-8.53
213.72	9.9
213.938	24.23
214.157	-14.68
214.375	65.19
214.594	-4.44
214.812	106.15
215.031	48.81
215.249	85.67
215.467	48.81
215.686	48.81
215.904	153.26
216.122	89.77
216.341	114.34
216.559	75.43
216.778	114.34
216.996	85.67
217.214	11.95
217.432	50.86
217.651	1.71
217.869	7.85
218.087	-39.25
218.306	-51.54
218.524	65.19
218.742	34.47
218.96	44.71
219.179	38.57
219.397	38.57
219.615	163.5
219.833	11.95
220.051	24.23
220.27	95.91
220.488	24.23
220.706	-2.39
220.924	28.33
221.142	34.47
221.36	36.52
221.578	38.57
221.796	61.1
222.015	-12.63
222.233	7.85
222.451	157.35
222.669	-12.63
222.887	136.87
223.105	-20.82
223.323	-20.82
223.541	-57.68
223.759	67.24
223.977	77.48
224.195	143.02
224.413	26.28
224.631	95.91
224.849	69.29
225.067	110.25
225.285	-0.34
225.503	-2.39
225.721	-74.07
225.939	71.34
226.157	22.19
226.375	177.83
226.592	73.39
226.81	57
227.028	34.47
227.246	69.29
227.464	50.86
227.682	122.54
227.9	91.82
228.117	-8.53
228.335	102.06
228.553	63.15
228.771	59.05
228.989	69.29
229.206	110.25
229.424	-72.02
229.642	-41.3
229.86	3.75
230.077	118.44
230.295	52.91
230.513	124.58
230.731	42.67
230.948	118.44
231.166	183.98
231.384	77.48
231.601	-10.58
231.819	118.44
232.037	50.86
232.254	-106.84
232.472	63.15
232.689	-16.73
232.907	165.54
233.125	-41.3
233.342	-49.49
233.56	-41.3
233.777	5.8
233.995	13.99
234.213	151.21
234.43	77.48
234.648	13.99
234.865	-6.49
235.083	118.44
235.3	50.86
235.518	143.02
235.735	87.72
235.953	93.87
236.17	-10.58
236.388	34.47
236.605	52.91
236.822	124.58
237.04	42.67
237.257	73.39
237.475	34.47
237.692	65.19
237.909	65.19
238.127	3.75
238.344	100.01
238.562	13.99
238.779	-6.49
238.996	28.33
239.214	24.23
239.431	134.82
239.648	13.99
239.865	147.11
240.083	77.48
240.3	-4.44
240.517	32.43
240.735	-80.21
240.952	188.07
241.169	-20.82
241.386	61.1
241.603	-33.11
241.821	-29.01
242.038	79.53
242.255	69.29
242.472	-65.88
242.689	65.19
242.907	69.29
243.124	71.34
243.341	38.57
243.558	28.33
243.775	-4.44
243.992	-10.58
244.209	100.01
244.426	179.88
244.643	44.71
244.86	65.19
245.078	-12.63
245.295	16.04
245.512	36.52
245.729	34.47
245.946	-0.34
246.163	-20.82
246.38	-67.92
246.597	110.25
246.814	22.19
247.031	20.14
247.248	81.58
247.464	24.23
247.681	67.24
247.898	-53.59
248.115	61.1
248.332	-39.25
248.549	112.3
248.766	130.73
248.983	71.34
249.2	79.53
249.417	75.43
249.633	73.39
249.85	85.67
250.067	-37.2
250.284	77.48
250.501	81.58
250.717	132.78
250.934	-4.44
251.151	3.75
251.368	1.71
251.585	147.11
251.801	110.25
252.018	3.75
252.235	11.95
252.451	-20.82
252.668	-45.4
252.885	143.02
253.102	87.72
253.318	24.23
253.535	69.29
253.752	22.19
253.968	42.67
254.185	-76.12
254.401	73.39
254.618	112.3
254.835	-55.64
255.051	77.48
255.268	106.15
255.484	73.39
255.701	30.38
255.917	36.52
256.134	77.48
256.351	22.19
256.567	-29.01
256.784	-8.53
257	11.95
257.217	26.28
257.433	108.2
257.65	-43.35
257.866	46.76
258.082	-131.41
258.299	-61.78
258.515	-20.82
258.732	13.99
258.948	-12.63
259.165	83.63
259.381	-37.2
259.597	95.91
259.814	114.34
260.03	-16.73
260.246	77.48
260.463	120.49
260.679	104.11
260.895	67.24
261.112	50.86
261.328	-10.58
261.544	20.14
261.761	159.4
261.977	-6.49
262.193	-63.83
262.409	61.1
262.626	54.95
262.842	13.99
263.058	-24.92
263.274	83.63
263.49	18.09
263.707	-0.34
263.923	118.44
264.139	-37.2
264.355	-12.63
264.571	50.86
264.787	77.48
265.004	77.48
265.22	-6.49
265.436	-0.34
265.652	-0.34
265.868	24.23
266.084	-76.12
266.3	54.95
266.516	-20.82
266.732	46.76
266.948	28.33
267.164	69.29
267.38	81.58
267.596	40.62
267.812	212.65
268.028	134.82
268.244	52.91
268.46	40.62
268.676	75.43
268.892	-0.34
269.108	-72.02
269.324	1.71
269.54	-82.26
269.756	87.72
269.972	-82.26
270.188	-121.17
270.403	-24.92
270.619	52.91
270.835	79.53
271.051	77.48
271.267	57
271.483	-16.73
271.698	81.58
271.914	24.23
272.13	77.48
272.346	16.04
272.562	52.91
272.777	132.78
272.993	-22.87
273.209	-61.78
273.425	50.86
273.64	-82.26
273.856	85.67
274.072	-20.82
274.287	-51.54
274.503	110.25
274.719	132.78
274.934	-16.73
275.15	-37.2
275.366	32.43
275.581	-4.44
275.797	93.87
276.012	73.39
276.228	100.01
276.444	38.57
276.659	104.11
276.875	-102.74
277.09	24.23
277.306	9.9
277.521	28.33
277.737	32.43
277.952	-8.53
278.168	50.86
278.383	36.52
278.599	-4.44
278.814	48.81
279.03	67.24
279.245	93.87
279.461	-24.92
279.676	122.54
279.892	-72.02
280.107	-78.16
280.322	-51.54
280.538	89.77
280.753	67.24
280.969	89.77
281.184	57
281.399	85.67
281.615	7.85
281.83	79.53
282.045	-31.06
282.26	-12.63
282.476	-6.49
282.691	143.02
282.906	83.63
283.122	57
283.337	44.71
283.552	85.67
283.767	-20.82
283.983	95.91
284.198	20.14
284.413	95.91
284.628	-53.59
284.843	77.48
285.058	26.28
285.274	36.52
285.489	-82.26
285.704	-33.11
285.919	-4.44
286.134	-37.2
286.349	48.81
286.564	61.1
286.779	198.31
286.995	-22.87
287.21	36.52
287.425	106.15
287.64	1.71
287.855	81.58
288.07	-43.35
288.285	140.97
288.5	171.69
288.715	122.54
288.93	102.06
289.145	22.19
289.36	57
289.575	22.19
289.79	128.68
290.004	-43.35
290.219	69.29
290.434	-69.97
290.649	-72.02
290.864	-35.16
291.079	30.38
291.294	42.67
291.509	77.48
291.724	-69.97
291.938	26.28
292.153	89.77
292.368	44.71
292.583	153.26
292.798	9.9
293.012	73.39
293.227	59.05
293.442	-24.92
293.657	102.06
293.871	85.67
294.086	42.67
294.301	206.5
294.516	151.21
294.73	44.71
294.945	-2.39
295.16	59.05
295.374	97.96
295.589	77.48
295.804	-29.01
296.018	69.29
296.233	69.29
296.447	134.82
296.662	28.33
296.877	100.01
297.091	77.48
297.306	-49.49
297.52	110.25
297.735	-12.63
297.949	57
298.164	112.3
298.378	110.25
298.593	40.62
298.807	85.67
299.022	73.39
299.236	198.31
299.451	93.87
299.665	26.28
299.88	13.99
300.094	44.71
300.309	46.76
300.523	-20.82
300.737	79.53
300.952	26.28
301.166	126.63
301.381	-31.06
301.595	-69.97
301.809	69.29
302.024	13.99
302.238	-53.59
302.452	149.16
302.667	-16.73
302.881	100.01
303.095	89.77
303.309	102.06
303.524	-4.44
303.738	-4.44
303.952	9.9
304.166	22.19
304.381	-88.4
304.595	151.21
304.809	-45.4
305.023	44.71
305.237	16.04
305.452	-53.59
305.666	83.63
305.88	91.82
306.094	104.11
306.308	42.67
306.522	110.25
306.736	85.67
306.95	89.77
307.164	-22.87
307.379	-2.39
307.593	147.11
307.807	130.73
308.021	69.29
308.235	136.87
308.449	7.85
308.663	24.23
308.877	100.01
309.091	89.77
309.305	32.43
309.519	-94.55
309.733	67.24
309.947	-69.97
310.161	114.34
310.374	18.09
310.588	116.39
310.802	-22.87
311.016	-37.2
311.23	61.1
311.444	73.39
311.658	44.71
311.872	102.06
312.085	91.82
312.299	169.64
312.513	95.91
312.727	36.52
312.941	-24.92
313.154	95.91
313.368	-39.25
313.582	44.71
313.796	-24.92
314.009	44.71
314.223	83.63
314.437	5.8
314.651	77.48
314.864	-41.3
315.078	-53.59
315.292	-112.98
315.505	24.23
315.719	95.91
315.933	40.62
316.146	20.14
316.36	18.09
316.573	122.54
316.787	32.43
317.001	20.14
317.214	36.52
317.428	59.05
317.641	-112.98
317.855	26.28
318.068	28.33
318.282	13.99
318.495	175.78
318.709	40.62
318.922	-37.2
319.136	100.01
319.349	52.91
319.563	-45.4
319.776	132.78
319.99	-55.64
320.203	83.63
320.417	57
320.63	108.2
320.843	163.5
321.057	32.43
321.27	85.67
321.483	91.82
321.697	114.34
321.91	44.71
322.124	48.81
322.337	28.33
322.55	-8.53
322.763	132.78
322.977	89.77
323.19	-12.63
323.403	69.29
323.617	77.48
323.83	100.01
324.043	-22.87
324.256	-22.87
324.469	-16.73
324.683	73.39
324.896	116.39
325.109	16.04
325.322	-45.4
325.535	157.35
325.748	59.05
325.962	-8.53
326.175	5.8
326.388	110.25
326.601	91.82
326.814	-10.58
327.027	1.71
327.24	75.43
327.453	-18.77
327.666	67.24
327.879	61.1
328.092	132.78
328.305	48.81
328.518	-45.4
328.731	-31.06
328.944	11.95
329.157	7.85
329.37	22.19
329.583	175.78
329.796	97.96
330.009	-94.55
330.222	61.1
330.435	-37.2
330.648	-14.68
330.861	67.24
331.073	11.95
331.286	202.41
331.499	7.85
331.712	-24.92
331.925	-24.92
332.138	67.24
332.35	106.15
332.563	-43.35
332.776	120.49
332.989	-8.53
333.202	26.28
333.414	40.62
333.627	20.14
333.84	57
334.053	126.63
334.265	-47.44
334.478	20.14
334.691	89.77
334.903	67.24
335.116	-24.92
335.329	65.19
335.541	87.72
335.754	155.3
335.966	-37.2
336.179	28.33
336.392	28.33
336.604	1.71
336.817	97.96
337.029	79.53
337.242	3.75
337.454	69.29
337.667	1.71
337.88	132.78
338.092	97.96
338.305	143.02
338.517	-65.88
338.729	69.29
338.942	138.92
339.154	-33.11
339.367	-55.64
339.579	116.39
339.792	24.23
340.004	89.77
340.217	38.57
340.429	89.77
340.641	9.9
340.854	30.38
341.066	44.71
341.278	126.63
341.491	130.73
341.703	38.57
341.915	-8.53
342.128	110.25
342.34	57
342.552	-14.68
342.764	11.95
342.977	24.23
343.189	11.95
343.401	67.24
343.613	-88.4
343.826	54.95
344.038	24.23
344.25	36.52
344.462	-22.87
344.674	73.39
344.886	26.28
345.099	77.48
345.311	81.58
345.523	-10.58
345.735	-94.55
345.947	106.15
346.159	97.96
346.371	44.71
346.583	-0.34
346.795	151.21
347.007	42.67
347.219	57
347.431	42.67
347.643	81.58
347.855	46.76
348.067	143.02
348.279	-63.83
348.491	73.39
348.703	114.34
348.915	85.67
349.127	-18.77
349.339	18.09
349.551	-20.82
349.763	95.91
349.975	11.95
350.187	61.1
350.399	100.01
350.61	79.53
350.822	7.85
351.034	69.29
351.246	16.04
351.458	57
351.669	97.96
351.881	165.54
352.093	116.39
352.305	134.82
352.517	-14.68
352.728	145.06
352.94	11.95
353.152	63.15
353.363	9.9
353.575	59.05
353.787	134.82
353.999	52.91
354.21	153.26
354.422	-45.4
354.633	50.86
354.845	30.38
355.057	32.43
355.268	69.29
355.48	83.63
355.692	22.19
355.903	3.75
356.115	65.19
356.326	3.75
356.538	116.39
356.749	61.1
356.961	138.92
357.172	1.71
357.384	9.9
357.595	243.37
357.807	5.8
358.018	-22.87
358.23	44.71
358.441	104.11
358.653	97.96
358.864	36.52
359.075	11.95
359.287	112.3
359.498	102.06
359.709	59.05
359.921	40.62
360.132	28.33
360.344	-49.49
360.555	-57.68
360.766	46.76
360.977	-8.53
361.189	81.58
361.4	16.04
361.611	114.34
361.823	151.21
362.034	28.33
362.245	-31.06
362.456	36.52
362.667	65.19
362.879	-31.06
363.09	52.91
363.301	73.39
363.512	-6.49
363.723	-41.3
363.935	61.1
364.146	85.67
364.357	3.75
364.568	42.67
364.779	-35.16
364.99	161.45
365.201	36.52
365.412	85.67
365.623	-39.25
365.834	77.48
366.045	61.1
366.256	198.31
366.467	67.24
366.678	52.91
366.889	65.19
367.1	13.99
367.311	97.96
367.522	-20.82
367.733	67.24
367.944	57
368.155	-8.53
368.366	50.86
368.577	116.39
368.788	26.28
368.999	11.95
369.209	34.47
369.42	147.11
369.631	313
369.842	71.34
370.053	-6.49
370.264	97.96
370.474	-96.6
370.685	-14.68
370.896	87.72
371.107	108.2
371.317	52.91
371.528	-61.78
371.739	85.67
371.95	120.49
372.16	108.2
372.371	-84.31
372.582	-39.25
372.792	57
373.003	52.91
373.214	110.25
373.424	16.04
373.635	-74.07
373.846	114.34
374.056	11.95
374.267	48.81
374.477	128.68
374.688	9.9
374.898	5.8
375.109	-35.16
375.319	24.23
375.53	130.73
375.74	85.67
375.951	26.28
376.161	42.67
376.372	67.24
376.582	-31.06
376.793	59.05
377.003	-0.34
377.214	-49.49
377.424	50.86
377.635	11.95
377.845	-2.39
378.055	85.67
378.266	-67.92
378.476	50.86
378.686	100.01
378.897	83.63
379.107	44.71
379.317	57
379.528	-4.44
379.738	163.5
379.948	-20.82
380.158	87.72
380.369	69.29
380.579	32.43
380.789	54.95
380.999	95.91
381.21	77.48
381.42	161.45
381.63	13.99
381.84	145.06
382.05	30.38
382.261	169.64
382.471	128.68
382.681	16.04
382.891	126.63
383.101	63.15
383.311	-8.53
383.521	1.71
383.731	20.14
383.941	128.68
384.151	100.01
384.361	-20.82
384.571	48.81
384.781	59.05
384.991	134.82
385.201	175.78
385.411	83.63
385.621	69.29
385.831	57
386.041	75.43
386.251	57
386.461	147.11
386.671	-20.82
386.881	34.47
387.091	118.44
387.301	81.58
387.511	83.63
387.72	9.9
387.93	83.63
388.14	-12.63
388.35	3.75
388.56	118.44
388.769	157.35
388.979	34.47
389.189	-33.11
389.399	40.62
389.609	85.67
389.818	110.25
390.028	61.1
390.238	175.78
390.447	-6.49
390.657	163.5
390.867	-39.25
391.076	-43.35
391.286	77.48
391.496	-14.68
391.705	24.23
391.915	93.87
392.125	145.06
392.334	-10.58
392.544	120.49
392.753	52.91
392.963	-8.53
393.172	52.91
393.382	-4.44
393.591	122.54
393.801	18.09
394.01	155.3
394.22	57
394.429	93.87
394.639	28.33
394.848	81.58
395.058	22.19
395.267	28.33
395.477	85.67
395.686	95.91
395.895	163.5
396.105	143.02
396.314	44.71
396.524	50.86
396.733	28.33
396.942	93.87
397.152	50.86
397.361	104.11
397.57	44.71
397.78	11.95
397.989	52.91
398.198	229.03
398.407	42.67
398.617	46.76
398.826	-10.58
399.035	16.04
399.244	81.58
399.453	61.1
399.663	52.91
399.872	85.67
400.081	-61.78
400.29	69.29
400.499	40.62
400.708	118.44
400.917	-16.73
401.127	-12.63
401.336	50.86
401.545	188.07
401.754	83.63
401.963	79.53
402.172	44.71
402.381	-24.92
402.59	54.95
402.799	5.8
403.008	75.43
403.217	50.86
403.426	61.1
403.635	-145.75
403.844	11.95
404.053	30.38
404.262	85.67
404.471	198.31
404.68	77.48
404.888	42.67
405.097	83.63
405.306	11.95
405.515	100.01
405.724	44.71
405.933	108.2
406.142	97.96
406.35	155.3
406.559	-24.92
406.768	-4.44
406.977	63.15
407.185	140.97
407.394	83.63
407.603	-8.53
407.812	61.1
408.02	110.25
408.229	13.99
408.438	50.86
408.646	-24.92
408.855	-4.44
409.064	114.34
409.272	-8.53
409.481	16.04
409.69	-45.4
409.898	-100.69
410.107	18.09
410.315	100.01
410.524	-20.82
410.733	38.57
410.941	54.95
411.15	40.62
411.358	65.19
411.567	145.06
411.775	52.91
411.984	97.96
412.192	34.47
412.401	-4.44
412.609	110.25
412.818	59.05
413.026	112.3
413.234	100.01
413.443	77.48
413.651	52.91
413.86	65.19
414.068	112.3
414.276	138.92
414.485	-22.87
414.693	157.35
414.901	143.02
415.11	130.73
415.318	-4.44
415.526	38.57
415.734	143.02
415.943	1.71
416.151	169.64
416.359	-10.58
416.567	42.67
416.776	73.39
416.984	112.3
417.192	177.83
417.4	22.19
417.608	26.28
417.817	-63.83
418.025	132.78
418.233	132.78
418.441	11.95
418.649	-8.53
418.857	89.77
419.065	140.97
419.273	-29.01
419.481	50.86
419.689	50.86
419.897	-12.63
420.105	-43.35
420.313	130.73
420.521	93.87
420.729	200.36
420.937	13.99
421.145	11.95
421.353	97.96
421.561	30.38
421.769	59.05
421.977	-8.53
422.185	50.86
422.393	13.99
422.601	157.35
422.809	91.82
423.017	59.05
423.224	97.96
423.432	188.07
423.64	26.28
423.848	183.98
424.056	77.48
424.263	83.63
424.471	-8.53
424.679	151.21
424.887	26.28
425.094	110.25
425.302	61.1
425.51	83.63
425.718	85.67
425.925	106.15
426.133	3.75
426.341	175.78
426.548	13.99
426.756	44.71
426.964	157.35
427.171	13.99
427.379	73.39
427.586	77.48
427.794	38.57
428.001	132.78
428.209	204.46
428.417	132.78
428.624	126.63
428.832	106.15
429.039	52.91
429.247	134.82
429.454	93.87
429.662	257.7
429.869	106.15
430.076	44.71
430.284	138.92
430.491	122.54
430.699	208.55
430.906	130.73
431.114	147.11
431.321	206.5
431.528	188.07
431.736	143.02
431.943	69.29
432.15	163.5
432.358	161.45
432.565	292.52
432.772	7.85
432.979	181.93
433.187	153.26
433.394	200.36
433.601	128.68
433.808	206.5
434.016	298.66
434.223	208.55
434.43	235.18
434.637	216.74
434.844	218.79
435.052	102.06
435.259	241.32
435.466	243.37
435.673	224.94
435.88	272.04
436.087	302.76
436.294	241.32
436.501	302.76
436.708	294.57
436.915	329.38
437.122	396.96
437.329	300.71
437.537	310.95
437.743	294.57
437.95	384.68
438.157	308.9
438.364	274.09
438.571	351.91
438.778	470.69
438.985	454.31
439.192	411.3
439.399	374.44
439.606	456.36
439.813	466.6
440.02	532.13
440.227	566.95
440.433	519.84
440.64	448.16
440.847	480.93
441.054	552.61
441.261	652.96
441.467	562.85
441.674	593.57
441.881	710.3
442.088	655.01
442.294	695.97
442.501	695.97
442.708	777.89
442.914	667.3
443.121	759.46
443.328	849.57
443.534	872.09
443.741	859.81
443.948	769.69
444.154	894.62
444.361	1093.27
444.568	1011.36
444.774	1070.75
444.981	956.06
445.187	1056.41
445.394	1138.33
445.6	1056.41
445.807	1277.59
446.013	1191.58
446.22	1140.38
446.426	1388.18
446.633	1437.33
446.839	1527.44
447.046	1277.59
447.252	1459.86
447.459	1592.98
447.665	1654.42
447.871	1709.71
448.078	1822.35
448.284	1746.58
448.491	1875.6
448.697	1922.7
448.903	2074.25
449.11	2180.75
449.316	1980.04
449.522	2188.94
449.728	2320.01
449.935	2356.87
450.141	2424.45
450.347	2541.19
450.553	2553.48
450.76	2547.33
450.966	2856.58
451.172	2836.1
451.378	2899.58
451.584	2989.69
451.791	3188.35
451.997	3174.01
452.203	3450.49
452.409	3610.23
452.615	3796.59
452.821	3567.22
453.027	3696.24
453.233	4120.17
453.44	3997.29
453.646	4050.54
453.852	4277.87
454.058	4439.65
454.264	4763.23
454.47	5181.02
454.676	4863.58
454.882	5336.67
455.088	5111.39
455.294	5494.36
455.5	5750.35
455.705	6049.36
455.911	6202.96
456.117	6368.84
456.323	6633.03
456.529	6727.24
456.735	7171.65
456.941	7349.82
457.147	7554.62
457.352	7908.91
457.558	8109.61
457.764	8580.65
457.97	8826.4
458.176	8932.9
458.381	9535
458.587	9885.2
458.793	10104.34
458.999	10149.39
459.204	11347.45
459.41	11890.17
459.616	11800.05
459.821	12365.29
460.027	12879.33
460.233	13467.1
460.438	13557.21
460.644	14241.23
460.85	14312.91
461.055	15089.09
461.261	15797.69
461.466	15254.98
461.672	15672.76
461.878	17548.7
462.083	17374.63
462.289	17714.59
462.494	18513.3
462.7	18374.03
462.905	18851.21
463.111	20282.74
463.316	21271.91
463.522	21755.23
463.727	22547.79
463.932	23360.84
464.138	23858.49
464.343	25025.84
464.549	24751.41
464.754	26696.98
464.959	27407.62
465.165	28228.86
465.37	27940.1
465.575	27997.44
465.781	29820.13
465.986	30543.06
466.191	30405.85
466.397	30549.21
466.602	29891.81
466.807	31591.62
467.012	32195.78
467.218	32339.13
467.423	32847.03
467.628	33739.94
467.833	35372.17
468.038	34552.99
468.244	33887.4
468.449	35759.24
468.654	35419.28
468.859	35083.41
469.064	35351.7
469.269	34612.38
