Data from USB4F104151__17__10-23-21-848.txt Node

Date: Wed Feb 26 10:23:21 EST 2025
User: louis
Spectrometer: USB4F10415
Trigger mode: 4
Integration Time (sec): 1.000000E-1
Scans to average: 1
Electric dark correction enabled: true
Nonlinearity correction enabled: false
Boxcar width: 0
XAxis mode: Wavelengths
Number of Pixels in Spectrum: 3648
>>>>>Begin Spectral Data<<<<<
178.204	-439.12
178.424	-439.12
178.644	-439.12
178.864	-359.25
179.084	-381.78
179.304	-43.86
179.524	-62.29
179.744	36.01
179.964	48.3
180.184	-11.09
180.404	23.72
180.624	-29.52
180.844	31.91
181.064	-66.39
181.283	95.4
181.503	-11.09
181.723	-11.09
181.943	-86.87
182.163	199.85
182.383	-64.34
182.602	29.87
182.822	212.14
183.042	33.96
183.262	-4.95
183.482	9.39
183.701	-54.1
183.921	36.01
184.141	-0.85
184.361	97.45
184.58	31.91
184.8	38.06
185.02	36.01
185.239	99.5
185.459	89.26
185.679	93.35
185.898	-97.11
186.118	93.35
186.338	7.34
186.557	122.02
186.777	13.48
186.997	19.63
187.216	38.06
187.436	148.65
187.655	79.02
187.875	60.59
188.095	13.48
188.314	132.26
188.534	117.93
188.753	-111.44
188.973	64.68
189.192	150.7
189.412	1.19
189.631	60.59
189.851	9.39
190.07	181.42
190.29	7.34
190.509	23.72
190.729	68.78
190.948	185.51
191.168	263.33
191.387	52.39
191.607	5.29
191.826	87.21
192.045	-39.76
192.265	1.19
192.484	48.3
192.704	97.45
192.923	-66.39
193.142	244.9
193.362	91.31
193.581	197.8
193.8	64.68
194.02	76.97
194.239	23.72
194.458	11.43
194.678	-0.85
194.897	52.39
195.116	21.67
195.335	33.96
195.555	91.31
195.774	-0.85
195.993	79.02
196.212	46.25
196.432	-9.05
196.651	-15.19
196.87	17.58
197.089	214.18
197.308	29.87
197.528	76.97
197.747	-19.29
197.966	21.67
198.185	158.89
198.404	-70.48
198.623	60.59
198.842	95.4
199.062	87.21
199.281	122.02
199.5	-2.9
199.719	15.53
199.938	85.16
200.157	38.06
200.376	119.98
200.595	122.02
200.814	74.92
201.033	-2.9
201.252	142.5
201.471	83.11
201.69	17.58
201.909	-2.9
202.128	95.4
202.347	126.12
202.566	33.96
202.785	-84.82
203.004	-41.81
203.223	220.33
203.442	97.45
203.661	-37.72
203.879	70.83
204.098	158.89
204.317	3.24
204.536	48.3
204.755	105.64
204.974	99.5
205.193	-27.48
205.411	101.55
205.63	103.59
205.849	40.11
206.068	-2.9
206.287	-23.38
206.505	117.93
206.724	25.77
206.943	-31.57
207.162	3.24
207.381	85.16
207.599	70.83
207.818	91.31
208.037	-27.48
208.255	-21.33
208.474	54.44
208.693	83.11
208.911	31.91
209.13	66.73
209.349	13.48
209.567	128.17
209.786	76.97
210.005	101.55
210.223	-9.05
210.442	-62.29
210.661	72.87
210.879	40.11
211.098	17.58
211.316	40.11
211.535	156.84
211.753	54.44
211.972	38.06
212.191	-17.24
212.409	13.48
212.628	56.49
212.846	-11.09
213.065	36.01
213.283	128.17
213.502	36.01
213.72	-11.09
213.938	62.63
214.157	15.53
214.375	79.02
214.594	42.15
214.812	33.96
215.031	58.54
215.249	-15.19
215.467	31.91
215.686	23.72
215.904	48.3
216.122	91.31
216.341	117.93
216.559	23.72
216.778	52.39
216.996	165.03
217.214	76.97
217.432	-17.24
217.651	7.34
217.869	54.44
218.087	-15.19
218.306	-39.76
218.524	76.97
218.742	66.73
218.96	101.55
219.179	42.15
219.397	5.29
219.615	203.94
219.833	128.17
220.051	13.48
220.27	70.83
220.488	148.65
220.706	119.98
220.924	52.39
221.142	-4.95
221.36	60.59
221.578	64.68
221.796	9.39
222.015	62.63
222.233	89.26
222.451	128.17
222.669	-68.44
222.887	87.21
223.105	5.29
223.323	74.92
223.541	-21.33
223.759	128.17
223.977	-27.48
224.195	130.22
224.413	33.96
224.631	107.69
224.849	-21.33
225.067	230.57
225.285	13.48
225.503	-72.53
225.721	-68.44
225.939	79.02
226.157	25.77
226.375	185.51
226.592	95.4
226.81	19.63
227.028	85.16
227.246	183.46
227.464	68.78
227.682	105.64
227.9	95.4
228.117	97.45
228.335	66.73
228.553	74.92
228.771	40.11
228.989	91.31
229.206	97.45
229.424	-60.24
229.642	40.11
229.86	-37.72
230.077	169.13
230.295	48.3
230.513	128.17
230.731	33.96
230.948	165.03
231.166	189.61
231.384	58.54
231.601	72.87
231.819	156.84
232.037	25.77
232.254	19.63
232.472	-9.05
232.689	56.49
232.907	162.98
233.125	-11.09
233.342	-35.67
233.56	-33.62
233.777	50.35
233.995	66.73
234.213	107.69
234.43	27.82
234.648	124.07
234.865	29.87
235.083	68.78
235.3	72.87
235.518	23.72
235.735	136.36
235.953	42.15
236.17	64.68
236.388	27.82
236.605	38.06
236.822	36.01
237.04	146.6
237.257	66.73
237.475	7.34
237.692	97.45
237.909	44.2
238.127	29.87
238.344	38.06
238.562	70.83
238.779	-50
238.996	-66.39
239.214	144.55
239.431	111.78
239.648	-29.52
239.865	64.68
240.083	58.54
240.3	31.91
240.517	46.25
240.735	162.98
240.952	70.83
241.169	-45.91
241.386	58.54
241.603	72.87
241.821	31.91
242.038	85.16
242.255	44.2
242.472	-52.05
242.689	-17.24
242.907	52.39
243.124	132.26
243.341	-66.39
243.558	-66.39
243.775	48.3
243.992	-41.81
244.209	38.06
244.426	181.42
244.643	105.64
244.86	-13.14
245.078	25.77
245.295	3.24
245.512	68.78
245.729	19.63
245.946	79.02
246.163	48.3
246.38	19.63
246.597	124.07
246.814	68.78
247.031	-17.24
247.248	38.06
247.464	132.26
247.681	17.58
247.898	81.07
248.115	-9.05
248.332	31.91
248.549	136.36
248.766	158.89
248.983	23.72
249.2	132.26
249.417	138.41
249.633	50.35
249.85	9.39
250.067	93.35
250.284	23.72
250.501	-29.52
250.717	95.4
250.934	-25.43
251.151	44.2
251.368	15.53
251.585	89.26
251.801	62.63
252.018	-35.67
252.235	144.55
252.451	-27.48
252.668	-0.85
252.885	152.74
253.102	31.91
253.318	56.49
253.535	-11.09
253.752	-70.48
253.968	13.48
254.185	-35.67
254.401	60.59
254.618	81.07
254.835	23.72
255.051	97.45
255.268	52.39
255.484	87.21
255.701	-11.09
255.917	126.12
256.134	9.39
256.351	23.72
256.567	-37.72
256.784	11.43
257	-47.96
257.217	146.6
257.433	3.24
257.65	54.44
257.866	134.31
258.082	-58.2
258.299	-43.86
258.515	101.55
258.732	17.58
258.948	42.15
259.165	58.54
259.381	-52.05
259.597	56.49
259.814	95.4
260.03	9.39
260.246	23.72
260.463	58.54
260.679	27.82
260.895	-25.43
261.112	3.24
261.328	50.35
261.544	-23.38
261.761	234.66
261.977	31.91
262.193	27.82
262.409	17.58
262.626	17.58
262.842	83.11
263.058	-19.29
263.274	128.17
263.49	31.91
263.707	44.2
263.923	101.55
264.139	-45.91
264.355	44.2
264.571	46.25
264.787	19.63
265.004	95.4
265.22	1.19
265.436	36.01
265.652	85.16
265.868	83.11
266.084	-0.85
266.3	13.48
266.516	-50
266.732	15.53
266.948	119.98
267.164	-4.95
267.38	119.98
267.596	83.11
267.812	115.88
268.028	70.83
268.244	-4.95
268.46	93.35
268.676	17.58
268.892	38.06
269.108	-99.16
269.324	38.06
269.54	-99.16
269.756	105.64
269.972	-0.85
270.188	76.97
270.403	31.91
270.619	46.25
270.835	56.49
271.051	31.91
271.267	-2.9
271.483	-37.72
271.698	97.45
271.914	56.49
272.13	66.73
272.346	62.63
272.562	40.11
272.777	140.46
272.993	-64.34
273.209	-45.91
273.425	74.92
273.64	-93.01
273.856	21.67
274.072	27.82
274.287	-11.09
274.503	115.88
274.719	85.16
274.934	-33.62
275.15	9.39
275.366	7.34
275.581	-76.63
275.797	79.02
276.012	66.73
276.228	-72.53
276.444	52.39
276.659	130.22
276.875	-162.64
277.09	99.5
277.306	31.91
277.521	36.01
277.737	50.35
277.952	99.5
278.168	60.59
278.383	-2.9
278.599	-56.15
278.814	162.98
279.03	-31.57
279.245	156.84
279.461	-39.76
279.676	91.31
279.892	-47.96
280.107	-60.24
280.322	-15.19
280.538	46.25
280.753	5.29
280.969	126.12
281.184	66.73
281.399	136.36
281.615	66.73
281.83	50.35
282.045	-54.1
282.26	-60.24
282.476	132.26
282.691	93.35
282.906	-13.14
283.122	64.68
283.337	40.11
283.552	17.58
283.767	-37.72
283.983	31.91
284.198	-0.85
284.413	142.5
284.628	-23.38
284.843	36.01
285.058	132.26
285.274	36.01
285.489	33.96
285.704	109.74
285.919	13.48
286.134	74.92
286.349	-23.38
286.564	38.06
286.779	122.02
286.995	72.87
287.21	-37.72
287.425	48.3
287.64	64.68
287.855	25.77
288.07	9.39
288.285	154.79
288.5	81.07
288.715	29.87
288.93	9.39
289.145	13.48
289.36	68.78
289.575	-50
289.79	128.17
290.004	-58.2
290.219	203.94
290.434	-7
290.649	-56.15
290.864	76.97
291.079	-39.76
291.294	56.49
291.509	117.93
291.724	-7
291.938	17.58
292.153	87.21
292.368	64.68
292.583	142.5
292.798	87.21
293.012	-21.33
293.227	122.02
293.442	-0.85
293.657	85.16
293.871	48.3
294.086	52.39
294.301	187.56
294.516	128.17
294.73	62.63
294.945	13.48
295.16	29.87
295.374	136.36
295.589	95.4
295.804	13.48
296.018	60.59
296.233	99.5
296.447	7.34
296.662	87.21
296.877	134.31
297.091	99.5
297.306	31.91
297.52	-7
297.735	126.12
297.949	42.15
298.164	44.2
298.378	107.69
298.593	-52.05
298.807	-17.24
299.022	79.02
299.236	156.84
299.451	5.29
299.665	124.07
299.88	25.77
300.094	5.29
300.309	7.34
300.523	40.11
300.737	-25.43
300.952	87.21
301.166	48.3
301.381	19.63
301.595	3.24
301.809	-47.96
302.024	25.77
302.238	-35.67
302.452	107.69
302.667	76.97
302.881	132.26
303.095	138.41
303.309	72.87
303.524	17.58
303.738	5.29
303.952	21.67
304.166	44.2
304.381	-101.2
304.595	183.46
304.809	-47.96
305.023	68.78
305.237	9.39
305.452	-4.95
305.666	154.79
305.88	85.16
306.094	130.22
306.308	113.83
306.522	101.55
306.736	-9.05
306.95	87.21
307.164	-29.52
307.379	25.77
307.593	87.21
307.807	150.7
308.021	46.25
308.235	70.83
308.449	-131.92
308.663	134.31
308.877	208.04
309.091	9.39
309.305	19.63
309.519	-105.3
309.733	130.22
309.947	-33.62
310.161	21.67
310.374	175.27
310.588	103.59
310.802	-19.29
311.016	-19.29
311.23	-13.14
311.444	11.43
311.658	68.78
311.872	130.22
312.085	175.27
312.299	208.04
312.513	132.26
312.727	79.02
312.941	-31.57
313.154	48.3
313.368	93.35
313.582	-17.24
313.796	13.48
314.009	13.48
314.223	134.31
314.437	76.97
314.651	79.02
314.864	-9.05
315.078	64.68
315.292	29.87
315.505	-54.1
315.719	44.2
315.933	62.63
316.146	-9.05
316.36	-27.48
316.573	115.88
316.787	46.25
317.001	66.73
317.214	31.91
317.428	148.65
317.641	-13.14
317.855	-11.09
318.068	113.83
318.282	48.3
318.495	220.33
318.709	66.73
318.922	19.63
319.136	160.94
319.349	173.22
319.563	-33.62
319.776	93.35
319.99	-21.33
320.203	142.5
320.417	70.83
320.63	48.3
320.843	165.03
321.057	126.12
321.27	23.72
321.483	72.87
321.697	130.22
321.91	83.11
322.124	87.21
322.337	83.11
322.55	-27.48
322.763	66.73
322.977	-13.14
323.19	21.67
323.403	54.44
323.617	46.25
323.83	150.7
324.043	31.91
324.256	97.45
324.469	40.11
324.683	138.41
324.896	29.87
325.109	15.53
325.322	-95.06
325.535	97.45
325.748	107.69
325.962	-9.05
326.175	25.77
326.388	87.21
326.601	83.11
326.814	-0.85
327.027	36.01
327.24	140.46
327.453	-86.87
327.666	68.78
327.879	21.67
328.092	54.44
328.305	101.55
328.518	25.77
328.731	-2.9
328.944	29.87
329.157	66.73
329.37	5.29
329.583	107.69
329.796	220.33
330.009	-88.92
330.222	79.02
330.435	48.3
330.648	40.11
330.861	105.64
331.073	52.39
331.286	122.02
331.499	15.53
331.712	42.15
331.925	-17.24
332.138	91.31
332.35	134.31
332.563	-60.24
332.776	87.21
332.989	-56.15
333.202	72.87
333.414	25.77
333.627	60.59
333.84	31.91
334.053	-25.43
334.265	-7
334.478	-58.2
334.691	-19.29
334.903	122.02
335.116	-68.44
335.329	52.39
335.541	115.88
335.754	152.74
335.966	-35.67
336.179	44.2
336.392	89.26
336.604	68.78
336.817	44.2
337.029	-0.85
337.242	76.97
337.454	81.07
337.667	72.87
337.88	93.35
338.092	46.25
338.305	87.21
338.517	9.39
338.729	91.31
338.942	128.17
339.154	-82.77
339.367	9.39
339.579	76.97
339.792	33.96
340.004	79.02
340.217	11.43
340.429	31.91
340.641	-13.14
340.854	-29.52
341.066	31.91
341.278	107.69
341.491	205.99
341.703	58.54
341.915	-2.9
342.128	81.07
342.34	89.26
342.552	25.77
342.764	70.83
342.977	-58.2
343.189	-0.85
343.401	85.16
343.613	-97.11
343.826	9.39
344.038	-11.09
344.25	89.26
344.462	-74.58
344.674	79.02
344.886	27.82
345.099	119.98
345.311	70.83
345.523	52.39
345.735	-95.06
345.947	107.69
346.159	105.64
346.371	15.53
346.583	1.19
346.795	255.14
347.007	54.44
347.219	52.39
347.431	23.72
347.643	91.31
347.855	-66.39
348.067	99.5
348.279	-47.96
348.491	56.49
348.703	52.39
348.915	-2.9
349.127	-60.24
349.339	48.3
349.551	-25.43
349.763	48.3
349.975	19.63
350.187	21.67
350.399	185.51
350.61	66.73
350.822	-37.72
351.034	58.54
351.246	19.63
351.458	97.45
351.669	25.77
351.881	79.02
352.093	128.17
352.305	76.97
352.517	25.77
352.728	132.26
352.94	48.3
353.152	91.31
353.363	-39.76
353.575	56.49
353.787	154.79
353.999	19.63
354.21	122.02
354.422	-2.9
354.633	105.64
354.845	68.78
355.057	93.35
355.268	13.48
355.48	119.98
355.692	-113.49
355.903	-27.48
356.115	-29.52
356.326	-47.96
356.538	142.5
356.749	46.25
356.961	177.32
357.172	-37.72
357.384	3.24
357.595	214.18
357.807	-11.09
358.018	13.48
358.23	38.06
358.441	158.89
358.653	126.12
358.864	15.53
359.075	-43.86
359.287	11.43
359.498	111.78
359.709	58.54
359.921	79.02
360.132	66.73
360.344	29.87
360.555	-47.96
360.766	62.63
360.977	-35.67
361.189	144.55
361.4	-7
361.611	134.31
361.823	148.65
362.034	95.4
362.245	-64.34
362.456	36.01
362.667	-4.95
362.879	13.48
363.09	21.67
363.301	95.4
363.512	42.15
363.723	-35.67
363.935	-25.43
364.146	74.92
364.357	23.72
364.568	97.45
364.779	-11.09
364.99	97.45
365.201	-121.68
365.412	117.93
365.623	-27.48
365.834	48.3
366.045	-0.85
366.256	48.3
366.467	58.54
366.678	-9.05
366.889	58.54
367.1	-35.67
367.311	142.5
367.522	79.02
367.733	11.43
367.944	25.77
368.155	83.11
368.366	81.07
368.577	128.17
368.788	50.35
368.999	13.48
369.209	40.11
369.42	218.28
369.631	173.22
369.842	103.59
370.053	44.2
370.264	62.63
370.474	5.29
370.685	60.59
370.896	89.26
371.107	128.17
371.317	50.35
371.528	36.01
371.739	126.12
371.95	50.35
372.16	119.98
372.371	-95.06
372.582	-13.14
372.792	38.06
373.003	91.31
373.214	87.21
373.424	50.35
373.635	-80.72
373.846	89.26
374.056	25.77
374.267	-9.05
374.477	105.64
374.688	-52.05
374.898	17.58
375.109	95.4
375.319	-11.09
375.53	134.31
375.74	117.93
375.951	42.15
376.161	64.68
376.372	85.16
376.582	-9.05
376.793	134.31
377.003	-31.57
377.214	-37.72
377.424	103.59
377.635	-2.9
377.845	29.87
378.055	144.55
378.266	-60.24
378.476	17.58
378.686	91.31
378.897	97.45
379.107	81.07
379.317	-21.33
379.528	-60.24
379.738	68.78
379.948	-17.24
380.158	156.84
380.369	-21.33
380.579	23.72
380.789	19.63
380.999	-9.05
381.21	36.01
381.42	175.27
381.63	13.48
381.84	64.68
382.05	1.19
382.261	122.02
382.471	167.08
382.681	-33.62
382.891	156.84
383.101	66.73
383.311	-7
383.521	52.39
383.731	76.97
383.941	83.11
384.151	29.87
384.361	9.39
384.571	66.73
384.781	58.54
384.991	187.56
385.201	244.9
385.411	66.73
385.621	79.02
385.831	140.46
386.041	-7
386.251	72.87
386.461	148.65
386.671	-31.57
386.881	97.45
387.091	1.19
387.301	95.4
387.511	62.63
387.72	25.77
387.93	13.48
388.14	-47.96
388.35	13.48
388.56	66.73
388.769	132.26
388.979	36.01
389.189	25.77
389.399	19.63
389.609	152.74
389.818	109.74
390.028	85.16
390.238	72.87
390.447	-7
390.657	44.2
390.867	7.34
391.076	3.24
391.286	89.26
391.496	-41.81
391.705	81.07
391.915	126.12
392.125	130.22
392.334	7.34
392.544	99.5
392.753	62.63
392.963	-0.85
393.172	79.02
393.382	17.58
393.591	197.8
393.801	42.15
394.01	105.64
394.22	81.07
394.429	-7
394.639	23.72
394.848	136.36
395.058	76.97
395.267	85.16
395.477	79.02
395.686	-7
395.895	187.56
396.105	124.07
396.314	99.5
396.524	56.49
396.733	79.02
396.942	89.26
397.152	89.26
397.361	113.83
397.57	91.31
397.78	44.2
397.989	101.55
398.198	189.61
398.407	-29.52
398.617	52.39
398.826	17.58
399.035	-17.24
399.244	148.65
399.453	21.67
399.663	68.78
399.872	122.02
400.081	-23.38
400.29	136.36
400.499	-41.81
400.708	122.02
400.917	83.11
401.127	132.26
401.336	72.87
401.545	234.66
401.754	111.78
401.963	160.94
402.172	36.01
402.381	40.11
402.59	9.39
402.799	44.2
403.008	156.84
403.217	23.72
403.426	107.69
403.635	-72.53
403.844	-17.24
404.053	52.39
404.262	11.43
404.471	212.14
404.68	60.59
404.888	11.43
405.097	-35.67
405.306	44.2
405.515	117.93
405.724	50.35
405.933	27.82
406.142	111.78
406.35	179.37
406.559	3.24
406.768	54.44
406.977	101.55
407.185	54.44
407.394	33.96
407.603	38.06
407.812	122.02
408.02	38.06
408.229	66.73
408.438	9.39
408.646	-11.09
408.855	-27.48
409.064	76.97
409.272	-9.05
409.481	97.45
409.69	-25.43
409.898	-52.05
410.107	60.59
410.315	95.4
410.524	70.83
410.733	-29.52
410.941	5.29
411.15	193.7
411.358	29.87
411.567	222.38
411.775	54.44
411.984	111.78
412.192	101.55
412.401	58.54
412.609	195.75
412.818	109.74
413.026	89.26
413.234	70.83
413.443	97.45
413.651	-74.58
413.86	9.39
414.068	109.74
414.276	158.89
414.485	93.35
414.693	64.68
414.901	171.18
415.11	40.11
415.318	44.2
415.526	68.78
415.734	154.79
415.943	54.44
416.151	101.55
416.359	36.01
416.567	122.02
416.776	-13.14
416.984	126.12
417.192	148.65
417.4	9.39
417.608	21.67
417.817	36.01
418.025	156.84
418.233	218.28
418.441	42.15
418.649	-7
418.857	56.49
419.065	171.18
419.273	-17.24
419.481	119.98
419.689	72.87
419.897	42.15
420.105	-21.33
420.313	132.26
420.521	146.6
420.729	95.4
420.937	42.15
421.145	-13.14
421.353	246.95
421.561	195.75
421.769	111.78
421.977	-70.48
422.185	83.11
422.393	70.83
422.601	226.47
422.809	52.39
423.017	93.35
423.224	62.63
423.432	50.35
423.64	52.39
423.848	58.54
424.056	-11.09
424.263	19.63
424.471	31.91
424.679	140.46
424.887	29.87
425.094	189.61
425.302	54.44
425.51	60.59
425.718	144.55
425.925	27.82
426.133	-2.9
426.341	167.08
426.548	29.87
426.756	79.02
426.964	70.83
427.171	83.11
427.379	101.55
427.586	83.11
427.794	124.07
428.001	83.11
428.209	97.45
428.417	142.5
428.624	87.21
428.832	111.78
429.039	165.03
429.247	162.98
429.454	169.13
429.662	175.27
429.869	60.59
430.076	89.26
430.284	130.22
430.491	185.51
430.699	62.63
430.906	232.62
431.114	175.27
431.321	158.89
431.528	81.07
431.736	195.75
431.943	158.89
432.15	177.32
432.358	205.99
432.565	238.76
432.772	-19.29
432.979	132.26
433.187	136.36
433.394	171.18
433.601	38.06
433.808	298.15
434.016	222.38
434.223	191.66
434.43	189.61
434.637	330.92
434.844	255.14
435.052	240.81
435.259	240.81
435.466	298.15
435.673	287.91
435.88	224.42
436.087	378.02
436.294	328.87
436.501	304.29
436.708	240.81
436.915	275.62
437.122	351.4
437.329	214.18
437.537	271.53
437.743	330.92
437.95	343.21
438.157	322.73
438.364	345.25
438.571	388.26
438.778	427.17
438.985	455.84
439.192	474.28
439.399	418.98
439.606	492.71
439.813	427.17
440.02	685.22
440.227	564.39
440.433	496.8
440.64	521.38
440.847	480.42
441.054	556.19
441.261	711.84
441.467	617.63
441.674	578.72
441.881	715.94
442.088	588.96
442.294	672.93
442.501	742.56
442.708	724.13
442.914	720.03
443.121	748.7
443.328	844.96
443.534	928.92
443.741	801.95
443.948	783.52
444.154	853.15
444.361	996.51
444.568	961.69
444.774	982.17
444.981	824.48
445.187	1174.68
445.394	1094.81
445.6	1176.73
445.807	1195.16
446.013	1221.78
446.22	1131.67
446.426	1256.6
446.633	1369.24
446.839	1561.75
447.046	1264.79
447.252	1541.27
447.459	1442.96
447.665	1541.27
447.871	1649.81
448.078	1840.27
448.284	1653.91
448.491	1873.04
448.697	1901.71
448.903	2053.26
449.11	2088.07
449.316	1975.44
449.522	2288.78
449.728	2200.71
449.935	2305.16
450.141	2333.83
450.347	2628.74
450.553	2548.87
450.76	2522.24
450.966	2681.99
451.172	2790.53
451.378	2813.06
451.584	2995.32
451.791	3183.74
451.997	3241.08
452.203	3349.62
452.409	3671.15
452.615	3619.96
452.821	3507.32
453.027	3478.65
453.233	4181.1
453.44	3982.45
453.646	4134
453.852	4281.45
454.058	4267.11
454.264	4615.27
454.47	4998.24
454.676	4732
454.882	5395.54
455.088	5149.79
455.294	5450.84
455.5	5737.56
455.705	6104.14
455.911	6054.99
456.117	6286.41
456.323	6677.57
456.529	6437.96
456.735	7107.65
456.941	7308.35
457.147	7574.58
457.352	7797.81
457.558	8025.14
457.764	8504.36
457.97	8633.38
458.176	9106.46
458.381	9376.8
458.587	9759.77
458.793	9985.04
458.999	10206.22
459.204	11136
459.41	11766.78
459.616	11447.29
459.821	12264.43
460.027	12864.49
460.233	13341.66
460.438	13204.45
460.644	14072.79
460.85	13937.62
461.055	14812.1
461.261	15616.96
461.466	15147.97
461.672	15498.17
461.878	17077.16
462.083	17128.36
462.289	17488.8
462.494	17978.26
462.7	18123.67
462.905	18738.06
463.111	19987.32
463.316	21068.65
463.522	21238.63
463.727	22322.01
463.932	22954.83
464.138	23970.62
464.343	24247.1
464.549	24769.33
464.754	26370.84
464.959	27124.49
465.165	27400.97
465.37	27671.3
465.575	27306.76
465.781	29168.37
465.986	30313.18
466.191	29469.42
466.397	30180.06
466.602	29256.43
466.807	30855.89
467.012	31494.86
467.218	31933.12
467.423	31759.05
467.628	32791.22
467.833	34495.13
468.038	33794.73
468.244	32987.83
468.449	35369.61
468.654	34288.29
468.859	34380.45
469.064	34464.41
