Data from USB4F104151__27__11-24-50-805.txt Node

Date: Wed Feb 26 11:24:50 EST 2025
User: louis
Spectrometer: USB4F10415
Trigger mode: 4
Integration Time (sec): 1.000000E-1
Scans to average: 1
Electric dark correction enabled: true
Nonlinearity correction enabled: false
Boxcar width: 0
XAxis mode: Wavelengths
Number of Pixels in Spectrum: 3648
>>>>>Begin Spectral Data<<<<<
178.204	-348.5
178.424	-348.5
178.644	-348.5
178.864	-403.79
179.084	-328.02
179.304	-22.87
179.524	44.71
179.744	38.57
179.964	48.81
180.184	16.04
180.404	79.53
180.624	-2.39
180.844	-45.4
181.064	-82.26
181.283	-82.26
181.503	3.75
181.723	3.75
181.943	-96.6
182.163	128.68
182.383	85.67
182.602	65.19
182.822	251.56
183.042	89.77
183.262	-22.87
183.482	73.39
183.701	13.99
183.921	-6.49
184.141	9.9
184.361	44.71
184.58	89.77
184.8	77.48
185.02	16.04
185.239	85.67
185.459	106.15
185.679	179.88
185.898	-39.25
186.118	67.24
186.338	157.35
186.557	206.5
186.777	3.75
186.997	-20.82
187.216	65.19
187.436	138.92
187.655	46.76
187.875	126.63
188.095	-59.73
188.314	235.18
188.534	85.67
188.753	-35.16
188.973	83.63
189.192	87.72
189.412	40.62
189.631	93.87
189.851	149.16
190.07	222.89
190.29	-29.01
190.509	5.8
190.729	61.1
190.948	190.12
191.168	298.66
191.387	38.57
191.607	-45.4
191.826	173.74
192.045	24.23
192.265	-43.35
192.484	59.05
192.704	114.34
192.923	-49.49
193.142	186.02
193.362	124.58
193.581	204.46
193.8	22.19
194.02	116.39
194.239	54.95
194.458	104.11
194.678	-41.3
194.897	36.52
195.116	95.91
195.335	116.39
195.555	40.62
195.774	44.71
195.993	102.06
196.212	9.9
196.432	38.57
196.651	5.8
196.87	26.28
197.089	304.81
197.308	106.15
197.528	108.2
197.747	11.95
197.966	81.58
198.185	145.06
198.404	-53.59
198.623	83.63
198.842	87.72
199.062	116.39
199.281	128.68
199.5	83.63
199.719	95.91
199.938	128.68
200.157	89.77
200.376	214.7
200.595	73.39
200.814	22.19
201.033	16.04
201.252	147.11
201.471	102.06
201.69	124.58
201.909	73.39
202.128	106.15
202.347	155.3
202.566	7.85
202.785	61.1
203.004	-55.64
203.223	210.6
203.442	48.81
203.661	-24.92
203.879	32.43
204.098	181.93
204.317	-41.3
204.536	104.11
204.755	81.58
204.974	118.44
205.193	-4.44
205.411	208.55
205.63	44.71
205.849	147.11
206.068	85.67
206.287	24.23
206.505	132.78
206.724	54.95
206.943	9.9
207.162	20.14
207.381	73.39
207.599	26.28
207.818	97.96
208.037	48.81
208.255	-10.58
208.474	108.2
208.693	87.72
208.911	-12.63
209.13	138.92
209.349	161.45
209.567	102.06
209.786	126.63
210.005	110.25
210.223	118.44
210.442	-55.64
210.661	57
210.879	71.34
211.098	67.24
211.316	22.19
211.535	34.47
211.753	155.3
211.972	50.86
212.191	40.62
212.409	120.49
212.628	134.82
212.846	18.09
213.065	114.34
213.283	138.92
213.502	7.85
213.72	132.78
213.938	130.73
214.157	48.81
214.375	159.4
214.594	114.34
214.812	71.34
215.031	50.86
215.249	85.67
215.467	85.67
215.686	143.02
215.904	85.67
216.122	63.15
216.341	229.03
216.559	108.2
216.778	114.34
216.996	87.72
217.214	61.1
217.432	24.23
217.651	11.95
217.869	81.58
218.087	-2.39
218.306	83.63
218.524	87.72
218.742	24.23
218.96	91.82
219.179	11.95
219.397	95.91
219.615	218.79
219.833	81.58
220.051	69.29
220.27	77.48
220.488	42.67
220.706	106.15
220.924	-22.87
221.142	-10.58
221.36	112.3
221.578	128.68
221.796	85.67
222.015	67.24
222.233	95.91
222.451	171.69
222.669	7.85
222.887	93.87
223.105	-10.58
223.323	73.39
223.541	28.33
223.759	104.11
223.977	69.29
224.195	292.52
224.413	77.48
224.631	106.15
224.849	57
225.067	181.93
225.285	50.86
225.503	-18.77
225.721	-63.83
225.939	75.43
226.157	81.58
226.375	255.65
226.592	42.67
226.81	71.34
227.028	102.06
227.246	126.63
227.464	61.1
227.682	136.87
227.9	100.01
228.117	95.91
228.335	153.26
228.553	34.47
228.771	20.14
228.989	91.82
229.206	173.74
229.424	93.87
229.642	67.24
229.86	-35.16
230.077	186.02
230.295	110.25
230.513	190.12
230.731	89.77
230.948	165.54
231.166	222.89
231.384	38.57
231.601	1.71
231.819	214.7
232.037	-37.2
232.254	11.95
232.472	61.1
232.689	-18.77
232.907	143.02
233.125	44.71
233.342	-10.58
233.56	7.85
233.777	26.28
233.995	-14.68
234.213	126.63
234.43	181.93
234.648	118.44
234.865	28.33
235.083	122.54
235.3	52.91
235.518	71.34
235.735	179.88
235.953	122.54
236.17	110.25
236.388	67.24
236.605	46.76
236.822	91.82
237.04	147.11
237.257	75.43
237.475	-0.34
237.692	11.95
237.909	122.54
238.127	3.75
238.344	116.39
238.562	128.68
238.779	1.71
238.996	-10.58
239.214	81.58
239.431	20.14
239.648	1.71
239.865	116.39
240.083	161.45
240.3	5.8
240.517	81.58
240.735	138.92
240.952	149.16
241.169	69.29
241.386	130.73
241.603	140.97
241.821	-37.2
242.038	63.15
242.255	95.91
242.472	-31.06
242.689	93.87
242.907	124.58
243.124	71.34
243.341	73.39
243.558	32.43
243.775	-72.02
243.992	20.14
244.209	153.26
244.426	120.49
244.643	145.06
244.86	3.75
245.078	100.01
245.295	11.95
245.512	102.06
245.729	-33.11
245.946	83.63
246.163	26.28
246.38	69.29
246.597	188.07
246.814	89.77
247.031	63.15
247.248	83.63
247.464	165.54
247.681	106.15
247.898	57
248.115	46.76
248.332	3.75
248.549	218.79
248.766	212.65
248.983	11.95
249.2	-51.54
249.417	147.11
249.633	22.19
249.85	71.34
250.067	83.63
250.284	16.04
250.501	73.39
250.717	124.58
250.934	-41.3
251.151	106.15
251.368	30.38
251.585	40.62
251.801	52.91
252.018	-37.2
252.235	181.93
252.451	-18.77
252.668	3.75
252.885	167.59
253.102	83.63
253.318	-14.68
253.535	61.1
253.752	38.57
253.968	16.04
254.185	-78.16
254.401	18.09
254.618	42.67
254.835	38.57
255.051	134.82
255.268	161.45
255.484	110.25
255.701	32.43
255.917	87.72
256.134	-69.97
256.351	52.91
256.567	42.67
256.784	110.25
257	-43.35
257.217	106.15
257.433	73.39
257.65	-0.34
257.866	173.74
258.082	-74.07
258.299	1.71
258.515	63.15
258.732	-53.59
258.948	20.14
259.165	85.67
259.381	-10.58
259.597	153.26
259.814	102.06
260.03	36.52
260.246	24.23
260.463	110.25
260.679	100.01
260.895	63.15
261.112	57
261.328	32.43
261.544	59.05
261.761	157.35
261.977	71.34
262.193	-98.64
262.409	143.02
262.626	114.34
262.842	36.52
263.058	7.85
263.274	100.01
263.49	22.19
263.707	100.01
263.923	153.26
264.139	-55.64
264.355	65.19
264.571	110.25
264.787	40.62
265.004	116.39
265.22	46.76
265.436	85.67
265.652	110.25
265.868	73.39
266.084	-12.63
266.3	46.76
266.516	-4.44
266.732	104.11
266.948	85.67
267.164	69.29
267.38	128.68
267.596	102.06
267.812	138.92
268.028	59.05
268.244	-12.63
268.46	97.96
268.676	16.04
268.892	81.58
269.108	-2.39
269.324	-6.49
269.54	-29.01
269.756	102.06
269.972	-4.44
270.188	42.67
270.403	3.75
270.619	22.19
270.835	151.21
271.051	46.76
271.267	18.09
271.483	24.23
271.698	61.1
271.914	132.78
272.13	126.63
272.346	9.9
272.562	75.43
272.777	124.58
272.993	32.43
273.209	73.39
273.425	100.01
273.64	-4.44
273.856	120.49
274.072	16.04
274.287	38.57
274.503	108.2
274.719	134.82
274.934	40.62
275.15	7.85
275.366	44.71
275.581	-24.92
275.797	108.2
276.012	30.38
276.228	11.95
276.444	54.95
276.659	165.54
276.875	-49.49
277.09	77.48
277.306	28.33
277.521	28.33
277.737	-22.87
277.952	112.3
278.168	124.58
278.383	118.44
278.599	61.1
278.814	126.63
279.03	67.24
279.245	100.01
279.461	46.76
279.676	93.87
279.892	-4.44
280.107	-31.06
280.322	61.1
280.538	102.06
280.753	-31.06
280.969	-6.49
281.184	85.67
281.399	165.54
281.615	57
281.83	81.58
282.045	-2.39
282.26	-33.11
282.476	32.43
282.691	83.63
282.906	24.23
283.122	54.95
283.337	46.76
283.552	77.48
283.767	-12.63
283.983	159.4
284.198	69.29
284.413	87.72
284.628	-14.68
284.843	104.11
285.058	44.71
285.274	-2.39
285.489	-4.44
285.704	93.87
285.919	65.19
286.134	91.82
286.349	16.04
286.564	-0.34
286.779	169.64
286.995	52.91
287.21	-24.92
287.425	48.81
287.64	-18.77
287.855	38.57
288.07	-12.63
288.285	163.5
288.5	89.77
288.715	85.67
288.93	59.05
289.145	20.14
289.36	102.06
289.575	108.2
289.79	73.39
290.004	30.38
290.219	130.73
290.434	63.15
290.649	75.43
290.864	46.76
291.079	50.86
291.294	91.82
291.509	93.87
291.724	-53.59
291.938	24.23
292.153	9.9
292.368	-6.49
292.583	114.34
292.798	181.93
293.012	83.63
293.227	22.19
293.442	36.52
293.657	52.91
293.871	149.16
294.086	26.28
294.301	196.26
294.516	79.53
294.73	77.48
294.945	-55.64
295.16	-4.44
295.374	190.12
295.589	161.45
295.804	63.15
296.018	44.71
296.233	173.74
296.447	104.11
296.662	32.43
296.877	128.68
297.091	102.06
297.306	-8.53
297.52	59.05
297.735	57
297.949	69.29
298.164	106.15
298.378	104.11
298.593	81.58
298.807	-4.44
299.022	75.43
299.236	159.4
299.451	81.58
299.665	73.39
299.88	114.34
300.094	114.34
300.309	54.95
300.523	114.34
300.737	42.67
300.952	91.82
301.166	42.67
301.381	-2.39
301.595	32.43
301.809	59.05
302.024	-0.34
302.238	-8.53
302.452	93.87
302.667	73.39
302.881	83.63
303.095	120.49
303.309	52.91
303.524	13.99
303.738	18.09
303.952	-72.02
304.166	42.67
304.381	-117.08
304.595	151.21
304.809	11.95
305.023	57
305.237	63.15
305.452	28.33
305.666	136.87
305.88	106.15
306.094	83.63
306.308	190.12
306.522	132.78
306.736	106.15
306.95	95.91
307.164	44.71
307.379	52.91
307.593	95.91
307.807	163.5
308.021	87.72
308.235	112.3
308.449	-65.88
308.663	9.9
308.877	194.22
309.091	132.78
309.305	108.2
309.519	-14.68
309.733	124.58
309.947	-61.78
310.161	9.9
310.374	177.83
310.588	140.97
310.802	-86.36
311.016	65.19
311.23	106.15
311.444	71.34
311.658	79.53
311.872	136.87
312.085	85.67
312.299	220.84
312.513	114.34
312.727	42.67
312.941	-20.82
313.154	26.28
313.368	20.14
313.582	50.86
313.796	20.14
314.009	75.43
314.223	87.72
314.437	52.91
314.651	114.34
314.864	36.52
315.078	-8.53
315.292	-72.02
315.505	20.14
315.719	65.19
315.933	59.05
316.146	-22.87
316.36	-26.96
316.573	75.43
316.787	110.25
317.001	61.1
317.214	20.14
317.428	85.67
317.641	-65.88
317.855	-22.87
318.068	28.33
318.282	7.85
318.495	165.54
318.709	38.57
318.922	118.44
319.136	143.02
319.349	-0.34
319.563	28.33
319.776	128.68
319.99	-26.96
320.203	226.98
320.417	52.91
320.63	153.26
320.843	206.5
321.057	48.81
321.27	85.67
321.483	108.2
321.697	126.63
321.91	52.91
322.124	-8.53
322.337	104.11
322.55	-41.3
322.763	100.01
322.977	93.87
323.19	-43.35
323.403	147.11
323.617	46.76
323.83	128.68
324.043	-4.44
324.256	75.43
324.469	-4.44
324.683	173.74
324.896	30.38
325.109	13.99
325.322	3.75
325.535	110.25
325.748	87.72
325.962	69.29
326.175	69.29
326.388	114.34
326.601	163.5
326.814	57
327.027	95.91
327.24	132.78
327.453	-100.69
327.666	138.92
327.879	116.39
328.092	167.59
328.305	59.05
328.518	18.09
328.731	36.52
328.944	-67.92
329.157	61.1
329.37	18.09
329.583	157.35
329.796	243.37
330.009	9.9
330.222	106.15
330.435	89.77
330.648	46.76
330.861	136.87
331.073	40.62
331.286	106.15
331.499	38.57
331.712	57
331.925	100.01
332.138	77.48
332.35	106.15
332.563	-2.39
332.776	200.36
332.989	-57.68
333.202	59.05
333.414	171.69
333.627	48.81
333.84	75.43
334.053	87.72
334.265	-14.68
334.478	34.47
334.691	32.43
334.903	153.26
335.116	-6.49
335.329	46.76
335.541	108.2
335.754	136.87
335.966	65.19
336.179	93.87
336.392	93.87
336.604	-2.39
336.817	36.52
337.029	83.63
337.242	93.87
337.454	130.73
337.667	-14.68
337.88	190.12
338.092	130.73
338.305	85.67
338.517	20.14
338.729	73.39
338.942	186.02
339.154	-14.68
339.367	-45.4
339.579	34.47
339.792	-39.25
340.004	116.39
340.217	9.9
340.429	44.71
340.641	28.33
340.854	-18.77
341.066	30.38
341.278	188.07
341.491	181.93
341.703	93.87
341.915	-0.34
342.128	36.52
342.34	57
342.552	-29.01
342.764	69.29
342.977	100.01
343.189	63.15
343.401	-0.34
343.613	-41.3
343.826	40.62
344.038	-53.59
344.25	81.58
344.462	13.99
344.674	46.76
344.886	67.24
345.099	130.73
345.311	110.25
345.523	44.71
345.735	34.47
345.947	134.82
346.159	30.38
346.371	52.91
346.583	13.99
346.795	183.98
347.007	59.05
347.219	134.82
347.431	52.91
347.643	118.44
347.855	67.24
348.067	181.93
348.279	-61.78
348.491	42.67
348.703	89.77
348.915	30.38
349.127	34.47
349.339	7.85
349.551	34.47
349.763	116.39
349.975	32.43
350.187	181.93
350.399	188.07
350.61	73.39
350.822	9.9
351.034	91.82
351.246	89.77
351.458	112.3
351.669	120.49
351.881	153.26
352.093	136.87
352.305	97.96
352.517	63.15
352.728	138.92
352.94	81.58
353.152	89.77
353.363	16.04
353.575	57
353.787	81.58
353.999	57
354.21	104.11
354.422	-16.73
354.633	69.29
354.845	40.62
355.057	128.68
355.268	83.63
355.48	149.16
355.692	-39.25
355.903	81.58
356.115	-10.58
356.326	-61.78
356.538	159.4
356.749	65.19
356.961	188.07
357.172	24.23
357.384	-12.63
357.595	255.65
357.807	3.75
358.018	-22.87
358.23	59.05
358.441	145.06
358.653	93.87
358.864	32.43
359.075	13.99
359.287	108.2
359.498	108.2
359.709	118.44
359.921	81.58
360.132	85.67
360.344	50.86
360.555	83.63
360.766	120.49
360.977	9.9
361.189	177.83
361.4	87.72
361.611	130.73
361.823	147.11
362.034	52.91
362.245	-115.03
362.456	95.91
362.667	91.82
362.879	-2.39
363.09	128.68
363.301	114.34
363.512	87.72
363.723	-33.11
363.935	-0.34
364.146	118.44
364.357	-4.44
364.568	95.91
364.779	63.15
364.99	237.22
365.201	-26.96
365.412	128.68
365.623	13.99
365.834	79.53
366.045	106.15
366.256	147.11
366.467	100.01
366.678	30.38
366.889	50.86
367.1	34.47
367.311	108.2
367.522	-2.39
367.733	100.01
367.944	100.01
368.155	69.29
368.366	91.82
368.577	128.68
368.788	153.26
368.999	1.71
369.209	122.54
369.42	294.57
369.631	243.37
369.842	112.3
370.053	38.57
370.264	138.92
370.474	36.52
370.685	140.97
370.896	69.29
371.107	114.34
371.317	147.11
371.528	18.09
371.739	73.39
371.95	91.82
372.16	93.87
372.371	-67.92
372.582	3.75
372.792	120.49
373.003	77.48
373.214	61.1
373.424	181.93
373.635	79.53
373.846	147.11
374.056	118.44
374.267	57
374.477	97.96
374.688	-22.87
374.898	112.3
375.109	-26.96
375.319	112.3
375.53	89.77
375.74	112.3
375.951	5.8
376.161	50.86
376.372	104.11
376.582	59.05
376.793	126.63
377.003	32.43
377.214	-4.44
377.424	155.3
377.635	128.68
377.845	65.19
378.055	167.59
378.266	9.9
378.476	63.15
378.686	165.54
378.897	77.48
379.107	44.71
379.317	104.11
379.528	22.19
379.738	181.93
379.948	-0.34
380.158	118.44
380.369	50.86
380.579	147.11
380.789	89.77
380.999	157.35
381.21	122.54
381.42	267.94
381.63	40.62
381.84	97.96
382.05	30.38
382.261	122.54
382.471	104.11
382.681	63.15
382.891	110.25
383.101	77.48
383.311	-47.44
383.521	-2.39
383.731	100.01
383.941	87.72
384.151	65.19
384.361	18.09
384.571	26.28
384.781	30.38
384.991	212.65
385.201	128.68
385.411	16.04
385.621	110.25
385.831	83.63
386.041	26.28
386.251	81.58
386.461	175.78
386.671	7.85
386.881	89.77
387.091	50.86
387.301	75.43
387.511	57
387.72	67.24
387.93	140.97
388.14	-33.11
388.35	110.25
388.56	106.15
388.769	118.44
388.979	159.4
389.189	54.95
389.399	38.57
389.609	108.2
389.818	93.87
390.028	44.71
390.238	112.3
390.447	-8.53
390.657	83.63
390.867	61.1
391.076	-0.34
391.286	114.34
391.496	83.63
391.705	102.06
391.915	104.11
392.125	233.13
392.334	32.43
392.544	169.64
392.753	50.86
392.963	-20.82
393.172	50.86
393.382	-53.59
393.591	220.84
393.801	136.87
394.01	153.26
394.22	151.21
394.429	63.15
394.639	11.95
394.848	104.11
395.058	-18.77
395.267	89.77
395.477	136.87
395.686	104.11
395.895	304.81
396.105	149.16
396.314	34.47
396.524	89.77
396.733	61.1
396.942	200.36
397.152	126.63
397.361	165.54
397.57	198.31
397.78	77.48
397.989	38.57
398.198	239.27
398.407	102.06
398.617	32.43
398.826	134.82
399.035	65.19
399.244	26.28
399.453	167.59
399.663	54.95
399.872	122.54
400.081	-18.77
400.29	128.68
400.499	-57.68
400.708	155.3
400.917	34.47
401.127	-14.68
401.336	26.28
401.545	220.84
401.754	116.39
401.963	118.44
402.172	46.76
402.381	-24.92
402.59	16.04
402.799	57
403.008	169.64
403.217	118.44
403.426	143.02
403.635	28.33
403.844	13.99
404.053	44.71
404.262	-8.53
404.471	169.64
404.68	59.05
404.888	30.38
405.097	-24.92
405.306	65.19
405.515	130.73
405.724	100.01
405.933	138.92
406.142	112.3
406.35	61.1
406.559	36.52
406.768	83.63
406.977	200.36
407.185	106.15
407.394	136.87
407.603	-35.16
407.812	38.57
408.02	220.84
408.229	44.71
408.438	20.14
408.646	16.04
408.855	122.54
409.064	104.11
409.272	102.06
409.481	136.87
409.69	-33.11
409.898	-67.92
410.107	143.02
410.315	44.71
410.524	40.62
410.733	54.95
410.941	50.86
411.15	145.06
411.358	112.3
411.567	196.26
411.775	169.64
411.984	16.04
412.192	198.31
412.401	38.57
412.609	186.02
412.818	165.54
413.026	116.39
413.234	108.2
413.443	75.43
413.651	3.75
413.86	83.63
414.068	151.21
414.276	134.82
414.485	38.57
414.693	188.07
414.901	126.63
415.11	63.15
415.318	28.33
415.526	-6.49
415.734	143.02
415.943	114.34
416.151	38.57
416.359	52.91
416.567	122.54
416.776	114.34
416.984	151.21
417.192	249.51
417.4	40.62
417.608	36.52
417.817	28.33
418.025	114.34
418.233	183.98
418.441	18.09
418.649	40.62
418.857	112.3
419.065	198.31
419.273	-16.73
419.481	134.82
419.689	110.25
419.897	81.58
420.105	7.85
420.313	118.44
420.521	130.73
420.729	161.45
420.937	-24.92
421.145	-43.35
421.353	122.54
421.561	167.59
421.769	122.54
421.977	11.95
422.185	177.83
422.393	44.71
422.601	138.92
422.809	161.45
423.017	44.71
423.224	173.74
423.432	147.11
423.64	67.24
423.848	155.3
424.056	26.28
424.263	120.49
424.471	71.34
424.679	249.51
424.887	7.85
425.094	106.15
425.302	145.06
425.51	59.05
425.718	97.96
425.925	57
426.133	54.95
426.341	202.41
426.548	-14.68
426.756	77.48
426.964	69.29
427.171	-43.35
427.379	114.34
427.586	34.47
427.794	140.97
428.001	108.2
428.209	128.68
428.417	188.07
428.624	120.49
428.832	116.39
429.039	126.63
429.247	108.2
429.454	97.96
429.662	251.56
429.869	175.78
430.076	147.11
430.284	186.02
430.491	257.7
430.699	108.2
430.906	222.89
431.114	188.07
431.321	75.43
431.528	24.23
431.736	192.17
431.943	153.26
432.15	210.6
432.358	241.32
432.565	280.23
432.772	7.85
432.979	259.75
433.187	118.44
433.394	245.41
433.601	155.3
433.808	272.04
434.016	253.61
434.223	214.7
434.43	202.41
434.637	247.46
434.844	249.51
435.052	163.5
435.259	231.08
435.466	239.27
435.673	216.74
435.88	239.27
436.087	351.91
436.294	298.66
436.501	325.29
436.708	261.8
436.915	282.28
437.122	308.9
437.329	267.94
437.537	243.37
437.743	261.8
437.95	388.77
438.157	331.43
438.364	290.47
438.571	333.48
438.778	419.49
438.985	452.26
439.192	448.16
439.399	368.29
439.606	366.25
439.813	444.07
440.02	523.94
440.227	724.64
440.433	558.75
440.64	472.74
440.847	482.98
441.054	554.66
441.261	646.82
441.467	536.23
441.674	603.81
441.881	634.53
442.088	646.82
442.294	648.86
442.501	814.75
442.708	808.61
442.914	765.6
443.121	730.78
443.328	708.26
443.534	921.24
443.741	837.28
443.948	771.74
444.154	884.38
444.361	1101.47
444.568	851.61
444.774	874.14
444.981	824.99
445.187	1042.07
445.394	1056.41
445.6	1001.12
445.807	1085.08
446.013	1195.67
446.22	1042.07
446.426	1257.11
446.633	1253.02
446.839	1572.5
447.046	1234.58
447.252	1492.63
447.459	1513.11
447.665	1353.37
447.871	1564.31
448.078	1695.38
448.284	1705.62
448.491	1842.83
448.697	1799.82
448.903	2066.06
449.11	1934.99
449.316	1853.07
449.522	2078.35
449.728	1959.56
449.935	2258.57
450.141	2117.26
450.347	2424.45
450.553	2434.69
450.76	2514.56
450.966	2588.29
451.172	2602.63
451.378	2774.66
451.584	2864.77
451.791	3063.42
451.997	3145.34
452.203	3180.15
452.409	3329.66
452.615	3409.53
452.821	3251.83
453.027	3296.89
453.233	3894.9
453.44	3581.56
453.646	3917.42
453.852	3868.27
454.058	4255.34
454.264	4226.67
454.47	4523.62
454.676	4613.73
454.882	4970.08
455.088	4941.41
455.294	4953.7
455.5	5369.43
455.705	5621.33
455.911	5744.21
456.117	5858.9
456.323	6178.38
456.529	6108.75
456.735	6610.5
456.941	6950.46
457.147	7093.82
457.352	7228.99
457.558	7452.22
457.764	7833.14
457.97	7958.07
458.176	8646.18
458.381	8631.85
458.587	8840.74
458.793	9453.08
458.999	9276.96
459.204	10485.26
459.41	11005.44
459.616	10728.97
459.821	11576.83
460.027	11832.82
460.233	12510.7
460.438	12582.38
460.644	12969.44
460.85	13506.01
461.055	13845.98
461.261	14560.72
461.466	14294.48
461.672	14636.49
461.878	16319.92
462.083	16090.55
462.289	16407.98
462.494	17003.94
462.7	16899.5
462.905	17163.68
463.111	18933.13
463.316	19662.21
463.522	19813.76
463.727	20694.38
463.932	21556.58
464.138	21978.46
464.343	23174.47
464.549	23350.6
464.754	25062.7
464.959	25398.57
465.165	25900.32
465.37	25771.3
465.575	25969.95
465.781	27456.78
465.986	28194.04
466.191	28177.66
466.397	28114.17
466.602	27731.2
466.807	29017.33
467.012	29596.9
467.218	30270.68
467.423	30334.17
467.628	31372.49
467.833	32670.9
468.038	32117.95
