Data from USB4F104151__83__11-31-30-561.txt Node

Date: Wed Feb 26 11:31:30 EST 2025
User: louis
Spectrometer: USB4F10415
Trigger mode: 4
Integration Time (sec): 1.000000E-1
Scans to average: 1
Electric dark correction enabled: true
Nonlinearity correction enabled: false
Boxcar width: 0
XAxis mode: Wavelengths
Number of Pixels in Spectrum: 3648
>>>>>Begin Spectral Data<<<<<
178.204	-375.29
178.424	-375.29
178.644	-375.29
178.864	-365.05
179.084	-399.87
179.304	-14.85
179.524	-8.7
179.744	26.11
179.964	120.32
180.184	-6.66
180.404	22.02
180.624	-33.28
180.844	3.58
181.064	-47.62
181.283	-29.18
181.503	-78.33
181.723	46.59
181.943	-107.01
182.163	128.51
182.383	-49.66
182.602	13.82
182.822	95.74
183.042	112.13
183.262	-115.2
183.482	-53.76
183.701	-12.8
183.921	-107.01
184.141	-37.38
184.361	44.54
184.58	50.69
184.8	19.97
185.02	-33.28
185.239	52.74
185.459	79.36
185.679	108.03
185.898	-88.57
186.118	73.21
186.338	93.69
186.557	126.46
186.777	-43.52
186.997	-59.9
187.216	62.98
187.436	169.47
187.655	116.22
187.875	34.3
188.095	-0.51
188.314	165.37
188.534	50.69
188.753	-43.52
188.973	97.79
189.192	142.85
189.412	-12.8
189.631	-10.75
189.851	56.83
190.07	171.52
190.29	-12.8
190.509	87.55
190.729	42.5
190.948	122.37
191.168	237.05
191.387	99.84
191.607	-4.61
191.826	30.21
192.045	81.41
192.265	22.02
192.484	91.65
192.704	-57.86
192.923	-27.14
193.142	202.24
193.362	134.65
193.581	148.99
193.8	46.59
194.02	153.09
194.239	93.69
194.458	108.03
194.678	48.64
194.897	-35.33
195.116	60.93
195.335	91.65
195.555	75.26
195.774	-37.38
195.993	108.03
196.212	-74.24
196.432	52.74
196.651	-16.9
196.87	-55.81
197.089	292.35
197.308	1.54
197.528	40.45
197.747	-37.38
197.966	11.78
198.185	130.56
198.404	-29.18
198.623	73.21
198.842	85.5
199.062	85.5
199.281	-20.99
199.5	7.68
199.719	138.75
199.938	101.89
200.157	44.54
200.376	81.41
200.595	134.65
200.814	79.36
201.033	-35.33
201.252	97.79
201.471	11.78
201.69	54.78
201.909	28.16
202.128	30.21
202.347	71.17
202.566	3.58
202.785	-107.01
203.004	-41.47
203.223	208.38
203.442	11.78
203.661	-23.04
203.879	44.54
204.098	118.27
204.317	-27.14
204.536	52.74
204.755	101.89
204.974	118.27
205.193	-2.56
205.411	56.83
205.63	11.78
205.849	22.02
206.068	-20.99
206.287	58.88
206.505	95.74
206.724	24.06
206.943	-90.62
207.162	-6.66
207.381	52.74
207.599	48.64
207.818	-25.09
208.037	-39.42
208.255	44.54
208.474	42.5
208.693	19.97
208.911	-27.14
209.13	116.22
209.349	60.93
209.567	60.93
209.786	77.31
210.005	71.17
210.223	7.68
210.442	-57.86
210.661	7.68
210.879	136.7
211.098	-16.9
211.316	40.45
211.535	52.74
211.753	15.87
211.972	79.36
212.191	54.78
212.409	-49.66
212.628	44.54
212.846	11.78
213.065	36.35
213.283	69.12
213.502	-16.9
213.72	50.69
213.938	67.07
214.157	-6.66
214.375	71.17
214.594	7.68
214.812	89.6
215.031	-57.86
215.249	73.21
215.467	-18.94
215.686	60.93
215.904	-8.7
216.122	65.02
216.341	142.85
216.559	46.59
216.778	62.98
216.996	48.64
217.214	44.54
217.432	36.35
217.651	26.11
217.869	38.4
218.087	62.98
218.306	-18.94
218.524	101.89
218.742	28.16
218.96	-35.33
219.179	22.02
219.397	26.11
219.615	187.9
219.833	71.17
220.051	-70.14
220.27	118.27
220.488	83.45
220.706	30.21
220.924	-37.38
221.142	-78.33
221.36	52.74
221.578	75.26
221.796	34.3
222.015	91.65
222.233	85.5
222.451	142.85
222.669	-96.77
222.887	83.45
223.105	-2.56
223.323	22.02
223.541	-37.38
223.759	73.21
223.977	30.21
224.195	179.71
224.413	75.26
224.631	81.41
224.849	108.03
225.067	179.71
225.285	-31.23
225.503	-10.75
225.721	-80.38
225.939	-0.51
226.157	-0.51
226.375	163.33
226.592	-47.62
226.81	5.63
227.028	75.26
227.246	62.98
227.464	3.58
227.682	69.12
227.9	175.61
228.117	110.08
228.335	-25.09
228.553	11.78
228.771	36.35
228.989	91.65
229.206	62.98
229.424	40.45
229.642	-41.47
229.86	-92.67
230.077	110.08
230.295	36.35
230.513	132.61
230.731	108.03
230.948	151.04
231.166	161.28
231.384	56.83
231.601	-18.94
231.819	136.7
232.037	-104.96
232.254	-12.8
232.472	34.3
232.689	15.87
232.907	114.17
233.125	-23.04
233.342	-61.95
233.56	24.06
233.777	-14.85
233.995	52.74
234.213	126.46
234.43	155.13
234.648	-10.75
234.865	7.68
235.083	73.21
235.3	48.64
235.518	77.31
235.735	112.13
235.953	101.89
236.17	-25.09
236.388	75.26
236.605	28.16
236.822	79.36
237.04	69.12
237.257	136.7
237.475	-31.23
237.692	46.59
237.909	60.93
238.127	-4.61
238.344	58.88
238.562	83.45
238.779	-25.09
238.996	-72.19
239.214	5.63
239.431	122.37
239.648	9.73
239.865	46.59
240.083	122.37
240.3	5.63
240.517	-12.8
240.735	5.63
240.952	134.65
241.169	134.65
241.386	40.45
241.603	38.4
241.821	-0.51
242.038	77.31
242.255	108.03
242.472	-51.71
242.689	116.22
242.907	7.68
243.124	38.4
243.341	60.93
243.558	-43.52
243.775	-70.14
243.992	-16.9
244.209	73.21
244.426	148.99
244.643	99.84
244.86	-33.28
245.078	36.35
245.295	73.21
245.512	26.11
245.729	30.21
245.946	58.88
246.163	46.59
246.38	77.31
246.597	32.26
246.814	79.36
247.031	79.36
247.248	11.78
247.464	122.37
247.681	91.65
247.898	54.78
248.115	9.73
248.332	5.63
248.549	65.02
248.766	134.65
248.983	73.21
249.2	99.84
249.417	95.74
249.633	19.97
249.85	105.98
250.067	-10.75
250.284	19.97
250.501	146.94
250.717	142.85
250.934	22.02
251.151	-0.51
251.368	-39.42
251.585	85.5
251.801	19.97
252.018	-25.09
252.235	126.46
252.451	-37.38
252.668	-8.7
252.885	75.26
253.102	30.21
253.318	60.93
253.535	38.4
253.752	-31.23
253.968	28.16
254.185	5.63
254.401	22.02
254.618	19.97
254.835	-6.66
255.051	122.37
255.268	34.3
255.484	9.73
255.701	-12.8
255.917	146.94
256.134	-33.28
256.351	83.45
256.567	-39.42
256.784	71.17
257	-49.66
257.217	28.16
257.433	3.58
257.65	103.93
257.866	228.86
258.082	-43.52
258.299	-23.04
258.515	62.98
258.732	-45.57
258.948	-27.14
259.165	89.6
259.381	-27.14
259.597	30.21
259.814	-18.94
260.03	-117.25
260.246	-23.04
260.463	181.76
260.679	110.08
260.895	38.4
261.112	89.6
261.328	9.73
261.544	-10.75
261.761	144.89
261.977	-0.51
262.193	-98.81
262.409	155.13
262.626	50.69
262.842	52.74
263.058	-47.62
263.274	44.54
263.49	120.32
263.707	73.21
263.923	99.84
264.139	-45.57
264.355	56.83
264.571	161.28
264.787	19.97
265.004	60.93
265.22	9.73
265.436	-51.71
265.652	56.83
265.868	62.98
266.084	-61.95
266.3	9.73
266.516	-8.7
266.732	60.93
266.948	13.82
267.164	42.5
267.38	132.61
267.596	116.22
267.812	171.52
268.028	140.8
268.244	-33.28
268.46	54.78
268.676	9.73
268.892	58.88
269.108	-100.86
269.324	-4.61
269.54	-35.33
269.756	40.45
269.972	-66.05
270.188	28.16
270.403	52.74
270.619	-8.7
270.835	112.13
271.051	-29.18
271.267	32.26
271.483	5.63
271.698	75.26
271.914	110.08
272.13	-47.62
272.346	-27.14
272.562	58.88
272.777	122.37
272.993	3.58
273.209	-23.04
273.425	89.6
273.64	-59.9
273.856	114.17
274.072	-18.94
274.287	26.11
274.503	69.12
274.719	67.07
274.934	-33.28
275.15	-37.38
275.366	-45.57
275.581	-33.28
275.797	-49.66
276.012	62.98
276.228	-76.29
276.444	105.98
276.659	108.03
276.875	-49.66
277.09	-55.81
277.306	-59.9
277.521	67.07
277.737	42.5
277.952	52.74
278.168	7.68
278.383	71.17
278.599	-43.52
278.814	97.79
279.03	-2.56
279.245	75.26
279.461	58.88
279.676	91.65
279.892	-47.62
280.107	24.06
280.322	-2.56
280.538	136.7
280.753	17.92
280.969	-4.61
281.184	26.11
281.399	163.33
281.615	97.79
281.83	-12.8
282.045	-55.81
282.26	13.82
282.476	44.54
282.691	118.27
282.906	42.5
283.122	54.78
283.337	46.59
283.552	101.89
283.767	-49.66
283.983	95.74
284.198	-49.66
284.413	91.65
284.628	-78.33
284.843	44.54
285.058	7.68
285.274	50.69
285.489	22.02
285.704	79.36
285.919	13.82
286.134	3.58
286.349	93.69
286.564	46.59
286.779	124.41
286.995	-59.9
287.21	-76.29
287.425	65.02
287.64	24.06
287.855	28.16
288.07	-127.49
288.285	185.85
288.5	52.74
288.715	36.35
288.93	40.45
289.145	-0.51
289.36	19.97
289.575	42.5
289.79	116.22
290.004	40.45
290.219	101.89
290.434	-27.14
290.649	-31.23
290.864	3.58
291.079	-6.66
291.294	-14.85
291.509	95.74
291.724	13.82
291.938	7.68
292.153	28.16
292.368	-4.61
292.583	99.84
292.798	77.31
293.012	114.17
293.227	60.93
293.442	17.92
293.657	171.52
293.871	155.13
294.086	87.55
294.301	222.72
294.516	89.6
294.73	3.58
294.945	-61.95
295.16	48.64
295.374	108.03
295.589	110.08
295.804	17.92
296.018	54.78
296.233	110.08
296.447	67.07
296.662	32.26
296.877	97.79
297.091	67.07
297.306	50.69
297.52	-2.56
297.735	46.59
297.949	-10.75
298.164	-55.81
298.378	77.31
298.593	-51.71
298.807	-12.8
299.022	-18.94
299.236	120.32
299.451	-6.66
299.665	73.21
299.88	30.21
300.094	28.16
300.309	28.16
300.523	75.26
300.737	7.68
300.952	24.06
301.166	97.79
301.381	-31.23
301.595	-55.81
301.809	42.5
302.024	-8.7
302.238	11.78
302.452	99.84
302.667	30.21
302.881	189.95
303.095	161.28
303.309	108.03
303.524	-16.9
303.738	56.83
303.952	-8.7
304.166	-12.8
304.381	15.87
304.595	200.19
304.809	46.59
305.023	36.35
305.237	54.78
305.452	30.21
305.666	138.75
305.88	71.17
306.094	110.08
306.308	69.12
306.522	128.51
306.736	9.73
306.95	79.36
307.164	-6.66
307.379	22.02
307.593	173.57
307.807	97.79
308.021	54.78
308.235	89.6
308.449	-88.57
308.663	7.68
308.877	232.96
309.091	79.36
309.305	144.89
309.519	-125.44
309.733	126.46
309.947	-43.52
310.161	177.66
310.374	91.65
310.588	134.65
310.802	-31.23
311.016	54.78
311.23	79.36
311.444	11.78
311.658	24.06
311.872	126.46
312.085	134.65
312.299	97.79
312.513	105.98
312.727	77.31
312.941	-49.66
313.154	67.07
313.368	97.79
313.582	-12.8
313.796	62.98
314.009	-6.66
314.223	128.51
314.437	32.26
314.651	71.17
314.864	15.87
315.078	7.68
315.292	-51.71
315.505	-59.9
315.719	50.69
315.933	62.98
316.146	44.54
316.36	-47.62
316.573	169.47
316.787	120.32
317.001	69.12
317.214	-78.33
317.428	11.78
317.641	-74.24
317.855	42.5
318.068	24.06
318.282	-4.61
318.495	93.69
318.709	79.36
318.922	1.54
319.136	126.46
319.349	97.79
319.563	-66.05
319.776	89.6
319.99	-125.44
320.203	62.98
320.417	69.12
320.63	85.5
320.843	167.42
321.057	95.74
321.27	52.74
321.483	79.36
321.697	146.94
321.91	-29.18
322.124	17.92
322.337	-18.94
322.55	-20.99
322.763	52.74
322.977	-2.56
323.19	-25.09
323.403	34.3
323.617	34.3
323.83	140.8
324.043	32.26
324.256	97.79
324.469	-49.66
324.683	118.27
324.896	32.26
325.109	-6.66
325.322	-41.47
325.535	52.74
325.748	79.36
325.962	-31.23
326.175	89.6
326.388	-4.61
326.601	54.78
326.814	3.58
327.027	-29.18
327.24	95.74
327.453	-43.52
327.666	93.69
327.879	159.23
328.092	48.64
328.305	89.6
328.518	-41.47
328.731	-53.76
328.944	36.35
329.157	50.69
329.37	-4.61
329.583	214.52
329.796	144.89
330.009	22.02
330.222	46.59
330.435	13.82
330.648	58.88
330.861	136.7
331.073	34.3
331.286	38.4
331.499	71.17
331.712	-41.47
331.925	30.21
332.138	-14.85
332.35	136.7
332.563	-45.57
332.776	175.61
332.989	-33.28
333.202	73.21
333.414	-18.94
333.627	50.69
333.84	11.78
334.053	36.35
334.265	15.87
334.478	54.78
334.691	60.93
334.903	34.3
335.116	-43.52
335.329	-41.47
335.541	112.13
335.754	105.98
335.966	36.35
336.179	17.92
336.392	30.21
336.604	34.3
336.817	114.17
337.029	75.26
337.242	77.31
337.454	79.36
337.667	-39.42
337.88	128.51
338.092	46.59
338.305	-0.51
338.517	-82.43
338.729	97.79
338.942	122.37
339.154	-49.66
339.367	1.54
339.579	52.74
339.792	-59.9
340.004	54.78
340.217	38.4
340.429	103.93
340.641	-18.94
340.854	48.64
341.066	28.16
341.278	167.42
341.491	165.37
341.703	58.88
341.915	-72.19
342.128	118.27
342.34	-10.75
342.552	-37.38
342.764	50.69
342.977	-51.71
343.189	36.35
343.401	19.97
343.613	-78.33
343.826	34.3
344.038	-37.38
344.25	159.23
344.462	-16.9
344.674	71.17
344.886	-8.7
345.099	44.54
345.311	91.65
345.523	-14.85
345.735	-29.18
345.947	62.98
346.159	60.93
346.371	34.3
346.583	-16.9
346.795	235
347.007	-6.66
347.219	69.12
347.431	75.26
347.643	136.7
347.855	-4.61
348.067	230.91
348.279	-4.61
348.491	52.74
348.703	105.98
348.915	-4.61
349.127	-25.09
349.339	36.35
349.551	-39.42
349.763	65.02
349.975	101.89
350.187	52.74
350.399	128.51
350.61	67.07
350.822	-18.94
351.034	13.82
351.246	-14.85
351.458	34.3
351.669	101.89
351.881	157.18
352.093	101.89
352.305	87.55
352.517	-29.18
352.728	62.98
352.94	85.5
353.152	99.84
353.363	-51.71
353.575	28.16
353.787	224.76
353.999	30.21
354.21	50.69
354.422	-78.33
354.633	28.16
354.845	101.89
355.057	17.92
355.268	75.26
355.48	54.78
355.692	-33.28
355.903	15.87
356.115	-53.76
356.326	-29.18
356.538	103.93
356.749	142.85
356.961	128.51
357.172	-68.09
357.384	11.78
357.595	140.8
357.807	-20.99
358.018	36.35
358.23	9.73
358.441	165.37
358.653	116.22
358.864	67.07
359.075	83.45
359.287	9.73
359.498	87.55
359.709	91.65
359.921	93.69
360.132	71.17
360.344	40.45
360.555	-86.53
360.766	99.84
360.977	44.54
361.189	30.21
361.4	-68.09
361.611	114.17
361.823	105.98
362.034	73.21
362.245	-29.18
362.456	24.06
362.667	26.11
362.879	-0.51
363.09	5.63
363.301	15.87
363.512	-20.99
363.723	50.69
363.935	62.98
364.146	24.06
364.357	50.69
364.568	15.87
364.779	-20.99
364.99	171.52
365.201	-2.56
365.412	81.41
365.623	-47.62
365.834	36.35
366.045	-82.43
366.256	48.64
366.467	112.13
366.678	-29.18
366.889	44.54
367.1	-23.04
367.311	110.08
367.522	-33.28
367.733	112.13
367.944	52.74
368.155	81.41
368.366	132.61
368.577	97.79
368.788	93.69
368.999	-53.76
369.209	26.11
369.42	105.98
369.631	103.93
369.842	130.56
370.053	26.11
370.264	105.98
370.474	-102.91
370.685	140.8
370.896	-37.38
371.107	134.65
371.317	95.74
371.528	-6.66
371.739	171.52
371.95	52.74
372.16	83.45
372.371	-64
372.582	-23.04
372.792	101.89
373.003	77.31
373.214	118.27
373.424	185.85
373.635	-45.57
373.846	155.13
374.056	34.3
374.267	89.6
374.477	85.5
374.688	22.02
374.898	81.41
375.109	-18.94
375.319	-43.52
375.53	91.65
375.74	120.32
375.951	11.78
376.161	30.21
376.372	99.84
376.582	-14.85
376.793	118.27
377.003	42.5
377.214	-2.56
377.424	116.22
377.635	65.02
377.845	-18.94
378.055	173.57
378.266	-59.9
378.476	48.64
378.686	38.4
378.897	65.02
379.107	132.61
379.317	32.26
379.528	-41.47
379.738	103.93
379.948	-20.99
380.158	110.08
380.369	85.5
380.579	58.88
380.789	-29.18
380.999	28.16
381.21	146.94
381.42	124.41
381.63	3.58
381.84	52.74
382.05	24.06
382.261	93.69
382.471	124.41
382.681	-2.56
382.891	124.41
383.101	62.98
383.311	-82.43
383.521	-2.56
383.731	81.41
383.941	126.46
384.151	22.02
384.361	42.5
384.571	91.65
384.781	105.98
384.991	130.56
385.201	196.09
385.411	126.46
385.621	93.69
385.831	9.73
386.041	34.3
386.251	13.82
386.461	155.13
386.671	17.92
386.881	73.21
387.091	-57.86
387.301	148.99
387.511	-14.85
387.72	89.6
387.93	52.74
388.14	-111.1
388.35	19.97
388.56	192
388.769	71.17
388.979	-6.66
389.189	-31.23
389.399	-53.76
389.609	87.55
389.818	120.32
390.028	138.75
390.238	22.02
390.447	-10.75
390.657	44.54
390.867	73.21
391.076	-27.14
391.286	50.69
391.496	-4.61
391.705	24.06
391.915	105.98
392.125	108.03
392.334	-57.86
392.544	128.51
392.753	24.06
392.963	-55.81
393.172	22.02
393.382	46.59
393.591	136.7
393.801	-49.66
394.01	118.27
394.22	112.13
394.429	15.87
394.639	-8.7
394.848	36.35
395.058	114.17
395.267	17.92
395.477	-0.51
395.686	38.4
395.895	171.52
396.105	130.56
396.314	48.64
396.524	-35.33
396.733	-25.09
396.942	140.8
397.152	38.4
397.361	132.61
397.57	13.82
397.78	46.59
397.989	38.4
398.198	185.85
398.407	26.11
398.617	38.4
398.826	22.02
399.035	69.12
399.244	91.65
399.453	36.35
399.663	-14.85
399.872	34.3
400.081	-47.62
400.29	99.84
400.499	-29.18
400.708	142.85
400.917	50.69
401.127	38.4
401.336	-29.18
401.545	138.75
401.754	132.61
401.963	142.85
402.172	3.58
402.381	15.87
402.59	-35.33
402.799	60.93
403.008	87.55
403.217	28.16
403.426	118.27
403.635	-41.47
403.844	5.63
404.053	52.74
404.262	-18.94
404.471	169.47
404.68	48.64
404.888	-12.8
405.097	77.31
405.306	73.21
405.515	56.83
405.724	-12.8
405.933	146.94
406.142	-12.8
406.35	103.93
406.559	36.35
406.768	-0.51
406.977	220.67
407.185	146.94
407.394	85.5
407.603	-41.47
407.812	42.5
408.02	128.51
408.229	-2.56
408.438	87.55
408.646	-117.25
408.855	-64
409.064	89.6
409.272	-53.76
409.481	48.64
409.69	-33.28
409.898	-18.94
410.107	60.93
410.315	140.8
410.524	-39.42
410.733	26.11
410.941	-2.56
411.15	103.93
411.358	67.07
411.567	112.13
411.775	91.65
411.984	69.12
412.192	54.78
412.401	85.5
412.609	132.61
412.818	118.27
413.026	73.21
413.234	93.69
413.443	110.08
413.651	24.06
413.86	52.74
414.068	155.13
414.276	192
414.485	-35.33
414.693	151.04
414.901	116.22
415.11	130.56
415.318	-41.47
415.526	17.92
415.734	185.85
415.943	105.98
416.151	159.23
416.359	30.21
416.567	26.11
416.776	87.55
416.984	-0.51
417.192	187.9
417.4	26.11
417.608	9.73
417.817	-8.7
418.025	36.35
418.233	122.37
418.441	-49.66
418.649	-2.56
418.857	73.21
419.065	155.13
419.273	-35.33
419.481	112.13
419.689	-6.66
419.897	77.31
420.105	-111.1
420.313	122.37
420.521	185.85
420.729	93.69
420.937	-0.51
421.145	-33.28
421.353	148.99
421.561	142.85
421.769	118.27
421.977	28.16
422.185	153.09
422.393	40.45
422.601	91.65
422.809	85.5
423.017	42.5
423.224	60.93
423.432	169.47
423.64	30.21
423.848	120.32
424.056	-70.14
424.263	101.89
424.471	-10.75
424.679	120.32
424.887	-51.71
425.094	118.27
425.302	142.85
425.51	26.11
425.718	99.84
425.925	95.74
426.133	-10.75
426.341	228.86
426.548	44.54
426.756	60.93
426.964	97.79
427.171	3.58
427.379	50.69
427.586	108.03
427.794	95.74
428.001	146.94
428.209	89.6
428.417	97.79
428.624	112.13
428.832	173.57
429.039	7.68
429.247	69.12
429.454	97.79
429.662	245.24
429.869	48.64
430.076	118.27
430.284	192
430.491	130.56
430.699	169.47
430.906	116.22
431.114	214.52
431.321	36.35
431.528	103.93
431.736	136.7
431.943	220.67
432.15	165.37
432.358	218.62
432.565	249.34
432.772	28.16
432.979	177.66
433.187	85.5
433.394	241.15
433.601	136.7
433.808	228.86
434.016	271.87
434.223	187.9
434.43	153.09
434.637	267.77
434.844	259.58
435.052	265.72
435.259	267.77
435.466	267.77
435.673	263.68
435.88	280.06
436.087	361.98
436.294	415.23
436.501	288.25
436.708	271.87
436.915	353.79
437.122	361.98
437.329	218.62
437.537	335.35
437.743	380.41
437.95	511.48
438.157	378.36
438.364	345.59
438.571	437.75
438.778	470.52
438.985	413.18
439.192	550.39
439.399	456.19
439.606	464.38
439.813	531.96
440.02	656.89
440.227	648.69
440.433	585.21
440.64	460.28
440.847	458.23
441.054	691.7
441.261	751.09
441.467	673.27
441.674	564.73
441.881	679.41
442.088	617.97
442.294	742.9
442.501	794.1
442.708	896.5
442.914	849.4
443.121	873.97
443.328	904.69
443.534	976.37
443.741	941.55
443.948	851.44
444.154	1023.47
444.361	1242.61
444.568	1027.57
444.774	1197.55
444.981	1123.82
445.187	1402.35
445.394	1258.99
445.6	1240.56
445.807	1404.39
446.013	1445.35
446.22	1312.24
446.426	1502.7
446.633	1492.46
446.839	1721.83
447.046	1512.94
447.252	1723.88
447.459	1668.58
447.665	1662.44
447.871	1932.77
448.078	1951.2
448.284	2104.8
448.491	2186.72
448.697	2244.06
448.903	2368.99
449.11	2442.71
449.316	2354.65
449.522	2524.63
449.728	2737.62
449.935	2686.42
450.141	2776.53
450.347	2966.99
450.553	2864.6
450.76	3007.95
450.966	3141.07
451.172	3175.89
451.378	3235.28
451.584	3442.12
451.791	3741.13
451.997	3685.83
452.203	3689.93
452.409	4046.27
452.615	4197.82
452.821	4220.35
453.027	4115.91
453.233	4781.5
453.44	4554.17
453.646	4773.3
453.852	4857.27
454.058	5125.55
454.264	5404.08
454.47	5596.59
454.676	5600.68
454.882	6260.13
455.088	5885.35
455.294	6342.05
455.5	6729.11
455.705	7136.66
455.911	6978.97
456.117	7271.83
456.323	7560.59
456.529	7566.73
456.735	8299.91
456.941	8291.71
457.147	8738.17
457.352	8922.49
457.558	9239.92
457.764	9774.44
457.97	10138.98
458.176	10374.5
458.381	11013.46
458.587	11318.61
458.793	11705.68
458.999	11814.22
459.204	12969.27
459.41	13864.24
459.616	13432.12
459.821	14019.88
460.027	14718.24
460.233	15641.87
460.438	15572.24
460.644	16491.78
460.85	16598.27
461.055	17409.27
461.261	18099.44
461.466	17755.38
461.672	18087.15
461.878	19981.52
462.083	20006.09
462.289	20597.96
462.494	21324.99
462.7	21388.47
462.905	21806.26
463.111	23700.63
463.316	24448.14
463.522	25048.19
463.727	25631.86
463.932	26770.54
464.138	27892.82
464.343	28851.27
464.549	29043.78
464.754	31034.41
464.959	31788.06
465.165	32775.18
465.37	32433.17
465.575	32359.44
465.781	34415.6
465.986	35658.72
466.191	35224.55
466.397	35294.18
466.602	34786.29
466.807	36426.71
467.012	37123.02
467.218	37739.46
467.423	37780.42
467.628	38912.94
467.833	41204.62
468.038	39752.61
