Data from USB4F104151__75__09-30-06-390.txt Node

Date: Wed Feb 26 09:30:06 EST 2025
User: louis
Spectrometer: USB4F10415
Trigger mode: 4
Integration Time (sec): 1.000000E-1
Scans to average: 1
Electric dark correction enabled: true
Nonlinearity correction enabled: false
Boxcar width: 0
XAxis mode: Wavelengths
Number of Pixels in Spectrum: 3648
>>>>>Begin Spectral Data<<<<<
178.204	-342.86
178.424	-342.86
178.644	-342.86
178.864	-357.2
179.084	-359.25
179.304	-31.57
179.524	-9.05
179.744	38.06
179.964	7.34
180.184	83.11
180.404	-82.77
180.624	54.44
180.844	7.34
181.064	-33.62
181.283	-4.95
181.503	-19.29
181.723	-9.05
181.943	-25.43
182.163	167.08
182.383	-21.33
182.602	126.12
182.822	130.22
183.042	187.56
183.262	58.54
183.482	76.97
183.701	62.63
183.921	9.39
184.141	-80.72
184.361	44.2
184.58	54.44
184.8	60.59
185.02	-33.62
185.239	113.83
185.459	54.44
185.679	117.93
185.898	-109.4
186.118	89.26
186.338	105.64
186.557	85.16
186.777	-62.29
186.997	132.26
187.216	81.07
187.436	203.94
187.655	136.36
187.875	70.83
188.095	99.5
188.314	117.93
188.534	126.12
188.753	-66.39
188.973	167.08
189.192	179.37
189.412	-66.39
189.631	111.78
189.851	52.39
190.07	185.51
190.29	-4.95
190.509	-60.24
190.729	-2.9
190.948	79.02
191.168	265.38
191.387	93.35
191.607	87.21
191.826	68.78
192.045	89.26
192.265	48.3
192.484	50.35
192.704	-11.09
192.923	-4.95
193.142	226.47
193.362	132.26
193.581	124.07
193.8	132.26
194.02	119.98
194.239	38.06
194.458	54.44
194.678	122.02
194.897	29.87
195.116	56.49
195.335	19.63
195.555	68.78
195.774	-0.85
195.993	169.13
196.212	23.72
196.432	68.78
196.651	31.91
196.87	-0.85
197.089	310.44
197.308	130.22
197.528	72.87
197.747	27.82
197.966	79.02
198.185	167.08
198.404	-66.39
198.623	93.35
198.842	144.55
199.062	136.36
199.281	130.22
199.5	76.97
199.719	160.94
199.938	-25.43
200.157	105.64
200.376	81.07
200.595	201.9
200.814	-43.86
201.033	-29.52
201.252	210.09
201.471	40.11
201.69	109.74
201.909	50.35
202.128	107.69
202.347	52.39
202.566	56.49
202.785	72.87
203.004	19.63
203.223	191.66
203.442	87.21
203.661	107.69
203.879	68.78
204.098	119.98
204.317	76.97
204.536	99.5
204.755	128.17
204.974	119.98
205.193	17.58
205.411	177.32
205.63	136.36
205.849	136.36
206.068	-21.33
206.287	19.63
206.505	119.98
206.724	64.68
206.943	40.11
207.162	-27.48
207.381	72.87
207.599	95.4
207.818	54.44
208.037	50.35
208.255	68.78
208.474	142.5
208.693	66.73
208.911	70.83
209.13	113.83
209.349	42.15
209.567	122.02
209.786	72.87
210.005	113.83
210.223	81.07
210.442	38.06
210.661	117.93
210.879	36.01
211.098	42.15
211.316	81.07
211.535	97.45
211.753	7.34
211.972	5.29
212.191	52.39
212.409	85.16
212.628	117.93
212.846	-31.57
213.065	113.83
213.283	148.65
213.502	5.29
213.72	-13.14
213.938	130.22
214.157	56.49
214.375	122.02
214.594	105.64
214.812	117.93
215.031	68.78
215.249	72.87
215.467	62.63
215.686	54.44
215.904	11.43
216.122	-2.9
216.341	154.79
216.559	111.78
216.778	156.84
216.996	142.5
217.214	15.53
217.432	5.29
217.651	-17.24
217.869	107.69
218.087	33.96
218.306	-27.48
218.524	83.11
218.742	38.06
218.96	109.74
219.179	5.29
219.397	146.6
219.615	199.85
219.833	175.27
220.051	-17.24
220.27	93.35
220.488	187.56
220.706	60.59
220.924	56.49
221.142	72.87
221.36	109.74
221.578	101.55
221.796	13.48
222.015	72.87
222.233	31.91
222.451	148.65
222.669	40.11
222.887	107.69
223.105	46.25
223.323	5.29
223.541	-21.33
223.759	72.87
223.977	21.67
224.195	105.64
224.413	68.78
224.631	89.26
224.849	-0.85
225.067	259.24
225.285	62.63
225.503	81.07
225.721	31.91
225.939	44.2
226.157	72.87
226.375	210.09
226.592	33.96
226.81	29.87
227.028	113.83
227.246	99.5
227.464	40.11
227.682	132.26
227.9	101.55
228.117	54.44
228.335	42.15
228.553	23.72
228.771	81.07
228.989	97.45
229.206	122.02
229.424	48.3
229.642	-0.85
229.86	74.92
230.077	224.42
230.295	70.83
230.513	179.37
230.731	99.5
230.948	205.99
231.166	181.42
231.384	-0.85
231.601	-35.67
231.819	111.78
232.037	-25.43
232.254	1.19
232.472	29.87
232.689	36.01
232.907	101.55
233.125	76.97
233.342	-50
233.56	-15.19
233.777	5.29
233.995	60.59
234.213	181.42
234.43	130.22
234.648	27.82
234.865	9.39
235.083	97.45
235.3	72.87
235.518	99.5
235.735	162.98
235.953	79.02
236.17	-4.95
236.388	-39.76
236.605	29.87
236.822	119.98
237.04	160.94
237.257	107.69
237.475	48.3
237.692	138.41
237.909	146.6
238.127	15.53
238.344	115.88
238.562	79.02
238.779	-17.24
238.996	7.34
239.214	56.49
239.431	158.89
239.648	62.63
239.865	93.35
240.083	109.74
240.3	74.92
240.517	19.63
240.735	66.73
240.952	171.18
241.169	-0.85
241.386	31.91
241.603	68.78
241.821	29.87
242.038	111.78
242.255	87.21
242.472	-0.85
242.689	122.02
242.907	48.3
243.124	79.02
243.341	66.73
243.558	7.34
243.775	-31.57
243.992	13.48
244.209	58.54
244.426	185.51
244.643	113.83
244.86	74.92
245.078	89.26
245.295	81.07
245.512	72.87
245.729	-11.09
245.946	38.06
246.163	62.63
246.38	31.91
246.597	76.97
246.814	70.83
247.031	25.77
247.248	38.06
247.464	46.25
247.681	130.22
247.898	72.87
248.115	107.69
248.332	1.19
248.549	115.88
248.766	203.94
248.983	126.12
249.2	117.93
249.417	109.74
249.633	50.35
249.85	130.22
250.067	54.44
250.284	50.35
250.501	105.64
250.717	93.35
250.934	-56.15
251.151	52.39
251.368	122.02
251.585	58.54
251.801	79.02
252.018	83.11
252.235	115.88
252.451	87.21
252.668	-27.48
252.885	146.6
253.102	93.35
253.318	-15.19
253.535	105.64
253.752	-35.67
253.968	-11.09
254.185	-13.14
254.401	76.97
254.618	48.3
254.835	46.25
255.051	158.89
255.268	97.45
255.484	95.4
255.701	36.01
255.917	29.87
256.134	50.35
256.351	134.31
256.567	7.34
256.784	62.63
257	-52.05
257.217	97.45
257.433	126.12
257.65	122.02
257.866	158.89
258.082	-2.9
258.299	-29.52
258.515	111.78
258.732	91.31
258.948	-4.95
259.165	64.68
259.381	-17.24
259.597	150.7
259.814	19.63
260.03	42.15
260.246	-31.57
260.463	95.4
260.679	87.21
260.895	81.07
261.112	5.29
261.328	66.73
261.544	11.43
261.761	187.56
261.977	-0.85
262.193	11.43
262.409	148.65
262.626	105.64
262.842	97.45
263.058	56.49
263.274	85.16
263.49	81.07
263.707	62.63
263.923	97.45
264.139	-47.96
264.355	68.78
264.571	115.88
264.787	173.22
265.004	50.35
265.22	31.91
265.436	-4.95
265.652	48.3
265.868	7.34
266.084	-13.14
266.3	62.63
266.516	-33.62
266.732	128.17
266.948	70.83
267.164	7.34
267.38	101.55
267.596	70.83
267.812	191.66
268.028	124.07
268.244	72.87
268.46	17.58
268.676	42.15
268.892	81.07
269.108	9.39
269.324	-50
269.54	11.43
269.756	89.26
269.972	23.72
270.188	9.39
270.403	-4.95
270.619	52.39
270.835	169.13
271.051	42.15
271.267	74.92
271.483	52.39
271.698	87.21
271.914	70.83
272.13	79.02
272.346	38.06
272.562	36.01
272.777	167.08
272.993	74.92
273.209	72.87
273.425	7.34
273.64	-72.53
273.856	179.37
274.072	-19.29
274.287	13.48
274.503	146.6
274.719	103.59
274.934	31.91
275.15	-93.01
275.366	19.63
275.581	66.73
275.797	19.63
276.012	-2.9
276.228	1.19
276.444	105.64
276.659	109.74
276.875	15.53
277.09	36.01
277.306	-15.19
277.521	17.58
277.737	48.3
277.952	126.12
278.168	62.63
278.383	105.64
278.599	25.77
278.814	52.39
279.03	101.55
279.245	101.55
279.461	81.07
279.676	29.87
279.892	36.01
280.107	19.63
280.322	-62.29
280.538	23.72
280.753	74.92
280.969	124.07
281.184	54.44
281.399	195.75
281.615	27.82
281.83	9.39
282.045	19.63
282.26	68.78
282.476	5.29
282.691	81.07
282.906	76.97
283.122	29.87
283.337	27.82
283.552	1.19
283.767	23.72
283.983	130.22
284.198	-11.09
284.413	66.73
284.628	-13.14
284.843	27.82
285.058	101.55
285.274	21.67
285.489	19.63
285.704	119.98
285.919	42.15
286.134	1.19
286.349	128.17
286.564	44.2
286.779	103.59
286.995	-27.48
287.21	31.91
287.425	81.07
287.64	-35.67
287.855	89.26
288.07	-66.39
288.285	89.26
288.5	185.51
288.715	52.39
288.93	72.87
289.145	-4.95
289.36	60.59
289.575	17.58
289.79	117.93
290.004	1.19
290.219	31.91
290.434	15.53
290.649	46.25
290.864	46.25
291.079	-4.95
291.294	48.3
291.509	105.64
291.724	1.19
291.938	11.43
292.153	87.21
292.368	36.01
292.583	58.54
292.798	146.6
293.012	72.87
293.227	138.41
293.442	-25.43
293.657	74.92
293.871	115.88
294.086	62.63
294.301	156.84
294.516	115.88
294.73	95.4
294.945	-68.44
295.16	44.2
295.374	111.78
295.589	132.26
295.804	68.78
296.018	179.37
296.233	212.14
296.447	40.11
296.662	48.3
296.877	130.22
297.091	70.83
297.306	74.92
297.52	-23.38
297.735	-0.85
297.949	31.91
298.164	66.73
298.378	76.97
298.593	19.63
298.807	36.01
299.022	40.11
299.236	160.94
299.451	17.58
299.665	74.92
299.88	58.54
300.094	81.07
300.309	119.98
300.523	85.16
300.737	31.91
300.952	58.54
301.166	117.93
301.381	-2.9
301.595	19.63
301.809	87.21
302.024	48.3
302.238	50.35
302.452	171.18
302.667	40.11
302.881	154.79
303.095	95.4
303.309	48.3
303.524	113.83
303.738	3.24
303.952	19.63
304.166	113.83
304.381	-86.87
304.595	150.7
304.809	70.83
305.023	46.25
305.237	21.67
305.452	105.64
305.666	60.59
305.88	140.46
306.094	117.93
306.308	76.97
306.522	70.83
306.736	134.31
306.95	189.61
307.164	-27.48
307.379	76.97
307.593	136.36
307.807	148.65
308.021	46.25
308.235	185.51
308.449	-80.72
308.663	79.02
308.877	234.66
309.091	40.11
309.305	-0.85
309.519	-39.76
309.733	85.16
309.947	48.3
310.161	40.11
310.374	99.5
310.588	156.84
310.802	89.26
311.016	23.72
311.23	44.2
311.444	-19.29
311.658	64.68
311.872	130.22
312.085	97.45
312.299	226.47
312.513	152.74
312.727	113.83
312.941	-13.14
313.154	89.26
313.368	109.74
313.582	19.63
313.796	95.4
314.009	52.39
314.223	64.68
314.437	93.35
314.651	130.22
314.864	44.2
315.078	40.11
315.292	-56.15
315.505	-35.67
315.719	134.31
315.933	76.97
316.146	54.44
316.36	-13.14
316.573	187.56
316.787	132.26
317.001	76.97
317.214	-33.62
317.428	154.79
317.641	1.19
317.855	54.44
318.068	93.35
318.282	119.98
318.495	87.21
318.709	54.44
318.922	76.97
319.136	179.37
319.349	165.03
319.563	5.29
319.776	13.48
319.99	-2.9
320.203	97.45
320.417	5.29
320.63	79.02
320.843	52.39
321.057	95.4
321.27	76.97
321.483	89.26
321.697	105.64
321.91	97.45
322.124	79.02
322.337	95.4
322.55	13.48
322.763	46.25
322.977	-0.85
323.19	66.73
323.403	126.12
323.617	183.46
323.83	240.81
324.043	46.25
324.256	95.4
324.469	40.11
324.683	101.55
324.896	103.59
325.109	99.5
325.322	-11.09
325.535	93.35
325.748	103.59
325.962	19.63
326.175	160.94
326.388	105.64
326.601	173.22
326.814	42.15
327.027	142.5
327.24	216.23
327.453	-11.09
327.666	105.64
327.879	113.83
328.092	103.59
328.305	31.91
328.518	5.29
328.731	85.16
328.944	-7
329.157	101.55
329.37	-19.29
329.583	212.14
329.796	181.42
330.009	-41.81
330.222	124.07
330.435	171.18
330.648	85.16
330.861	56.49
331.073	70.83
331.286	130.22
331.499	13.48
331.712	31.91
331.925	31.91
332.138	29.87
332.35	154.79
332.563	79.02
332.776	183.46
332.989	60.59
333.202	-17.24
333.414	72.87
333.627	64.68
333.84	56.49
334.053	29.87
334.265	38.06
334.478	44.2
334.691	81.07
334.903	44.2
335.116	64.68
335.329	15.53
335.541	122.02
335.754	105.64
335.966	93.35
336.179	3.24
336.392	83.11
336.604	56.49
336.817	5.29
337.029	144.55
337.242	44.2
337.454	128.17
337.667	113.83
337.88	81.07
338.092	111.78
338.305	122.02
338.517	62.63
338.729	105.64
338.942	103.59
339.154	29.87
339.367	-35.67
339.579	40.11
339.792	-43.86
340.004	154.79
340.217	-11.09
340.429	95.4
340.641	-0.85
340.854	-11.09
341.066	91.31
341.278	107.69
341.491	197.8
341.703	1.19
341.915	5.29
342.128	70.83
342.34	119.98
342.552	25.77
342.764	154.79
342.977	-33.62
343.189	64.68
343.401	56.49
343.613	-0.85
343.826	36.01
344.038	-52.05
344.25	154.79
344.462	-33.62
344.674	-23.38
344.886	29.87
345.099	68.78
345.311	136.36
345.523	115.88
345.735	-25.43
345.947	70.83
346.159	142.5
346.371	38.06
346.583	36.01
346.795	165.03
347.007	-58.2
347.219	128.17
347.431	111.78
347.643	257.19
347.855	-19.29
348.067	167.08
348.279	52.39
348.491	42.15
348.703	33.96
348.915	68.78
349.127	62.63
349.339	72.87
349.551	66.73
349.763	72.87
349.975	54.44
350.187	81.07
350.399	105.64
350.61	9.39
350.822	3.24
351.034	48.3
351.246	19.63
351.458	107.69
351.669	89.26
351.881	105.64
352.093	134.31
352.305	111.78
352.517	128.17
352.728	136.36
352.94	128.17
353.152	158.89
353.363	29.87
353.575	130.22
353.787	193.7
353.999	101.55
354.21	203.94
354.422	-21.33
354.633	74.92
354.845	60.59
355.057	128.17
355.268	48.3
355.48	119.98
355.692	44.2
355.903	-7
356.115	-15.19
356.326	-31.57
356.538	187.56
356.749	97.45
356.961	144.55
357.172	97.45
357.384	-11.09
357.595	285.86
357.807	89.26
358.018	64.68
358.23	76.97
358.441	140.46
358.653	122.02
358.864	13.48
359.075	-35.67
359.287	21.67
359.498	64.68
359.709	87.21
359.921	-60.24
360.132	68.78
360.344	36.01
360.555	-17.24
360.766	138.41
360.977	40.11
361.189	101.55
361.4	-17.24
361.611	179.37
361.823	218.28
362.034	72.87
362.245	-25.43
362.456	-33.62
362.667	99.5
362.879	23.72
363.09	56.49
363.301	113.83
363.512	60.59
363.723	40.11
363.935	9.39
364.146	162.98
364.357	-13.14
364.568	74.92
364.779	-68.44
364.99	115.88
365.201	-15.19
365.412	144.55
365.623	19.63
365.834	83.11
366.045	29.87
366.256	119.98
366.467	85.16
366.678	38.06
366.889	117.93
367.1	-4.95
367.311	158.89
367.522	33.96
367.733	11.43
367.944	117.93
368.155	70.83
368.366	126.12
368.577	91.31
368.788	62.63
368.999	-25.43
369.209	81.07
369.42	208.04
369.631	232.62
369.842	64.68
370.053	29.87
370.264	101.55
370.474	-2.9
370.685	36.01
370.896	64.68
371.107	101.55
371.317	23.72
371.528	50.35
371.739	150.7
371.95	111.78
372.16	107.69
372.371	-7
372.582	3.24
372.792	117.93
373.003	72.87
373.214	128.17
373.424	191.66
373.635	56.49
373.846	126.12
374.056	89.26
374.267	56.49
374.477	177.32
374.688	19.63
374.898	122.02
375.109	136.36
375.319	66.73
375.53	103.59
375.74	122.02
375.951	15.53
376.161	3.24
376.372	146.6
376.582	68.78
376.793	27.82
377.003	21.67
377.214	97.45
377.424	150.7
377.635	95.4
377.845	23.72
378.055	126.12
378.266	-43.86
378.476	29.87
378.686	91.31
378.897	52.39
379.107	107.69
379.317	23.72
379.528	7.34
379.738	79.02
379.948	-13.14
380.158	85.16
380.369	74.92
380.579	50.35
380.789	76.97
380.999	64.68
381.21	81.07
381.42	218.28
381.63	40.11
381.84	134.31
382.05	126.12
382.261	128.17
382.471	76.97
382.681	97.45
382.891	134.31
383.101	72.87
383.311	62.63
383.521	56.49
383.731	117.93
383.941	154.79
384.151	81.07
384.361	46.25
384.571	142.5
384.781	31.91
384.991	224.42
385.201	195.75
385.411	140.46
385.621	29.87
385.831	72.87
386.041	64.68
386.251	3.24
386.461	214.18
386.671	29.87
386.881	36.01
387.091	-4.95
387.301	119.98
387.511	38.06
387.72	68.78
387.93	105.64
388.14	-37.72
388.35	-9.05
388.56	138.41
388.769	126.12
388.979	27.82
389.189	11.43
389.399	56.49
389.609	19.63
389.818	105.64
390.028	54.44
390.238	105.64
390.447	5.29
390.657	101.55
390.867	25.77
391.076	-29.52
391.286	60.59
391.496	62.63
391.705	40.11
391.915	175.27
392.125	122.02
392.334	13.48
392.544	144.55
392.753	33.96
392.963	-52.05
393.172	113.83
393.382	5.29
393.591	222.38
393.801	38.06
394.01	169.13
394.22	72.87
394.429	19.63
394.639	9.39
394.848	85.16
395.058	27.82
395.267	60.59
395.477	25.77
395.686	31.91
395.895	113.83
396.105	162.98
396.314	89.26
396.524	76.97
396.733	31.91
396.942	212.14
397.152	122.02
397.361	171.18
397.57	33.96
397.78	70.83
397.989	68.78
398.198	220.33
398.407	148.65
398.617	-23.38
398.826	64.68
399.035	5.29
399.244	72.87
399.453	46.25
399.663	93.35
399.872	19.63
400.081	1.19
400.29	148.65
400.499	-25.43
400.708	107.69
400.917	1.19
401.127	48.3
401.336	83.11
401.545	148.65
401.754	130.22
401.963	89.26
402.172	95.4
402.381	72.87
402.59	48.3
402.799	21.67
403.008	160.94
403.217	81.07
403.426	87.21
403.635	3.24
403.844	146.6
404.053	38.06
404.262	76.97
404.471	156.84
404.68	146.6
404.888	40.11
405.097	101.55
405.306	81.07
405.515	97.45
405.724	74.92
405.933	81.07
406.142	91.31
406.35	122.02
406.559	11.43
406.768	122.02
406.977	175.27
407.185	193.7
407.394	128.17
407.603	3.24
407.812	91.31
408.02	175.27
408.229	58.54
408.438	33.96
408.646	17.58
408.855	-4.95
409.064	33.96
409.272	-60.24
409.481	126.12
409.69	56.49
409.898	25.77
410.107	81.07
410.315	122.02
410.524	-25.43
410.733	54.44
410.941	83.11
411.15	83.11
411.358	124.07
411.567	224.42
411.775	210.09
411.984	124.07
412.192	62.63
412.401	117.93
412.609	134.31
412.818	150.7
413.026	99.5
413.234	74.92
413.443	50.35
413.651	7.34
413.86	44.2
414.068	64.68
414.276	160.94
414.485	13.48
414.693	167.08
414.901	140.46
415.11	52.39
415.318	52.39
415.526	101.55
415.734	201.9
415.943	44.2
416.151	72.87
416.359	-9.05
416.567	-13.14
416.776	179.37
416.984	81.07
417.192	169.13
417.4	25.77
417.608	27.82
417.817	60.59
418.025	138.41
418.233	167.08
418.441	68.78
418.649	-4.95
418.857	56.49
419.065	226.47
419.273	-43.86
419.481	54.44
419.689	7.34
419.897	87.21
420.105	-33.62
420.313	130.22
420.521	173.22
420.729	105.64
420.937	9.39
421.145	74.92
421.353	109.74
421.561	105.64
421.769	89.26
421.977	-68.44
422.185	146.6
422.393	126.12
422.601	171.18
422.809	142.5
423.017	52.39
423.224	56.49
423.432	122.02
423.64	124.07
423.848	152.74
424.056	19.63
424.263	126.12
424.471	64.68
424.679	195.75
424.887	-29.52
425.094	52.39
425.302	124.07
425.51	42.15
425.718	105.64
425.925	99.5
426.133	76.97
426.341	150.7
426.548	50.35
426.756	-19.29
426.964	160.94
427.171	130.22
427.379	105.64
427.586	171.18
427.794	148.65
428.001	191.66
428.209	74.92
428.417	228.52
428.624	89.26
428.832	97.45
429.039	124.07
429.247	105.64
429.454	138.41
429.662	267.43
429.869	154.79
430.076	220.33
430.284	144.55
430.491	185.51
430.699	158.89
430.906	165.03
431.114	132.26
431.321	169.13
431.528	115.88
431.736	126.12
431.943	169.13
432.15	226.47
432.358	187.56
432.565	199.85
432.772	40.11
432.979	193.7
433.187	97.45
433.394	181.42
433.601	212.14
433.808	306.34
434.016	208.04
434.223	228.52
434.43	251.05
434.637	271.53
434.844	222.38
435.052	179.37
435.259	246.95
435.466	318.63
435.673	261.29
435.88	318.63
436.087	308.39
436.294	343.21
436.501	367.78
436.708	281.77
436.915	249
437.122	392.36
437.329	273.57
437.537	294.05
437.743	294.05
437.95	400.55
438.157	363.69
438.364	427.17
438.571	375.97
438.778	414.88
438.985	466.08
439.192	529.57
439.399	324.77
439.606	412.84
439.813	568.48
440.02	611.49
440.227	627.87
440.433	502.95
440.64	523.43
440.847	455.84
441.054	586.91
441.261	697.5
441.467	576.67
441.674	586.91
441.881	674.98
442.088	713.89
442.294	724.13
442.501	769.18
442.708	758.94
442.914	828.57
443.121	824.48
443.328	859.29
443.534	867.49
443.741	816.29
443.948	896.16
444.154	998.56
444.361	1074.33
444.568	1047.71
444.774	1025.18
444.981	1039.51
445.187	1125.53
445.394	1139.87
445.6	1121.43
445.807	1305.75
446.013	1244.31
446.22	1193.11
446.426	1279.13
446.633	1395.86
446.839	1612.95
447.046	1379.48
447.252	1576.08
447.459	1629.33
447.665	1565.84
447.871	1782.93
448.078	1903.76
448.284	1766.54
448.491	1881.23
448.697	1965.2
448.903	2065.55
449.11	2061.45
449.316	2110.6
449.522	2169.99
449.728	2391.17
449.935	2471.04
450.141	2493.57
450.347	2659.46
450.553	2548.87
450.76	2718.85
450.966	2811.01
451.172	2923.65
451.378	3112.06
451.584	2983.04
451.791	3255.42
451.997	3445.88
452.203	3503.22
452.409	3433.59
452.615	3783.79
452.821	3660.91
453.027	3789.94
453.233	4248.68
453.44	4117.61
453.646	4217.96
453.852	4496.49
454.058	4611.17
454.264	4664.42
454.47	5061.73
454.676	5119.07
454.882	5479.51
455.088	5330.01
455.294	5586.01
455.5	5956.69
455.705	6403.14
455.911	6251.6
456.117	6501.45
456.323	6702.15
456.529	6935.62
456.735	7228.48
456.941	7486.52
457.147	7760.95
457.352	7832.63
457.558	8113.2
457.764	8735.78
457.97	8936.48
458.176	9255.97
458.381	9880.6
458.587	9847.83
458.793	10566.67
458.999	10357.77
459.204	11701.24
459.41	12321.77
459.616	11914.23
459.821	12633.07
460.027	13198.31
460.233	13640.67
460.438	13966.29
460.644	14730.19
460.85	14791.62
461.055	15309.76
461.261	16137.14
461.466	15598.52
461.672	16065.46
461.878	18181.01
462.083	17568.67
462.289	18099.09
462.494	19106.7
462.7	18639.76
462.905	19325.83
463.111	20757.36
463.316	22018.91
463.522	22184.79
463.727	23012.17
463.932	23712.58
464.138	24197.95
464.343	25455.4
464.549	25656.1
464.754	27560.71
464.959	28226.3
465.165	28365.56
465.37	28412.67
465.575	28345.08
465.781	30337.76
465.986	31158.99
466.191	30767.83
466.397	31390.41
466.602	30644.95
466.807	32486.07
467.012	32813.75
467.218	33063.6
467.423	33137.33
467.628	34480.8
467.833	36065.92
468.038	35097.24
468.244	34581.15
