Data from USB4F104151__79__11-31-26-062.txt Node

Date: Wed Feb 26 11:31:26 EST 2025
User: louis
Spectrometer: USB4F10415
Trigger mode: 4
Integration Time (sec): 1.000000E-1
Scans to average: 1
Electric dark correction enabled: true
Nonlinearity correction enabled: false
Boxcar width: 0
XAxis mode: Wavelengths
Number of Pixels in Spectrum: 3648
>>>>>Begin Spectral Data<<<<<
178.204	-416.76
178.424	-416.76
178.644	-416.76
178.864	-400.38
179.084	-379.9
179.304	13.31
179.524	-101.37
179.744	84.99
179.964	76.8
180.184	41.98
180.404	74.75
180.624	11.26
180.844	-19.46
181.064	-66.56
181.283	-37.89
181.503	-91.13
181.723	13.31
181.943	-76.8
182.163	183.29
182.383	-39.94
182.602	52.22
182.822	185.34
183.042	111.61
183.262	-19.46
183.482	44.03
183.701	80.89
183.921	-52.22
184.141	27.65
184.361	64.51
184.58	97.28
184.8	48.13
185.02	7.17
185.239	62.46
185.459	37.89
185.679	164.86
185.898	-97.28
186.118	58.37
186.338	46.08
186.557	177.15
186.777	-13.31
186.997	-33.79
187.216	31.74
187.436	203.77
187.655	15.36
187.875	78.85
188.095	-37.89
188.314	136.19
188.534	125.95
188.753	-48.13
188.973	199.68
189.192	115.71
189.412	-13.31
189.631	70.65
189.851	156.67
190.07	199.68
190.29	-76.8
190.509	11.26
190.729	58.37
190.948	105.47
191.168	250.88
191.387	64.51
191.607	5.12
191.826	97.28
192.045	-11.26
192.265	46.08
192.484	76.8
192.704	44.03
192.923	-97.28
193.142	173.05
193.362	117.76
193.581	119.81
193.8	23.55
194.02	52.22
194.239	23.55
194.458	117.76
194.678	11.26
194.897	50.18
195.116	50.18
195.335	58.37
195.555	56.32
195.774	21.5
195.993	181.25
196.212	74.75
196.432	48.13
196.651	25.6
196.87	17.41
197.089	218.11
197.308	72.7
197.528	89.09
197.747	-3.07
197.966	66.56
198.185	117.76
198.404	-35.84
198.623	93.18
198.842	162.81
199.062	117.76
199.281	113.66
199.5	50.18
199.719	37.89
199.938	74.75
200.157	50.18
200.376	146.43
200.595	74.75
200.814	35.84
201.033	-60.42
201.252	119.81
201.471	70.65
201.69	130.05
201.909	41.98
202.128	130.05
202.347	123.9
202.566	44.03
202.785	-19.46
203.004	-68.61
203.223	246.78
203.442	146.43
203.661	-130.05
203.879	68.61
204.098	148.48
204.317	-27.65
204.536	113.66
204.755	48.13
204.974	218.11
205.193	11.26
205.411	138.24
205.63	195.58
205.849	93.18
206.068	68.61
206.287	-13.31
206.505	160.77
206.724	-21.5
206.943	37.89
207.162	39.94
207.381	130.05
207.599	50.18
207.818	56.32
208.037	-29.7
208.255	19.46
208.474	56.32
208.693	74.75
208.911	-111.61
209.13	72.7
209.349	80.89
209.567	64.51
209.786	78.85
210.005	136.19
210.223	80.89
210.442	-82.94
210.661	-31.74
210.879	173.05
211.098	64.51
211.316	17.41
211.535	84.99
211.753	125.95
211.972	107.52
212.191	-27.65
212.409	7.17
212.628	87.04
212.846	-41.98
213.065	-23.55
213.283	117.76
213.502	23.55
213.72	84.99
213.938	48.13
214.157	-50.18
214.375	193.53
214.594	33.79
214.812	82.94
215.031	15.36
215.249	54.27
215.467	39.94
215.686	72.7
215.904	93.18
216.122	5.12
216.341	99.33
216.559	64.51
216.778	136.19
216.996	134.14
217.214	23.55
217.432	115.71
217.651	-66.56
217.869	48.13
218.087	74.75
218.306	25.6
218.524	9.22
218.742	15.36
218.96	109.57
219.179	5.12
219.397	74.75
219.615	248.83
219.833	80.89
220.051	25.6
220.27	160.77
220.488	72.7
220.706	66.56
220.924	-54.27
221.142	44.03
221.36	87.04
221.578	41.98
221.796	31.74
222.015	39.94
222.233	130.05
222.451	240.64
222.669	-9.22
222.887	82.94
223.105	-33.79
223.323	-48.13
223.541	13.31
223.759	35.84
223.977	68.61
224.195	101.37
224.413	95.23
224.631	58.37
224.849	150.53
225.067	230.4
225.285	21.5
225.503	62.46
225.721	-87.04
225.939	44.03
226.157	15.36
226.375	203.77
226.592	111.61
226.81	-7.17
227.028	99.33
227.246	160.77
227.464	52.22
227.682	150.53
227.9	121.85
228.117	80.89
228.335	152.57
228.553	31.74
228.771	37.89
228.989	80.89
229.206	82.94
229.424	-17.41
229.642	-17.41
229.86	-25.6
230.077	89.09
230.295	44.03
230.513	82.94
230.731	50.18
230.948	279.55
231.166	130.05
231.384	13.31
231.601	-13.31
231.819	148.48
232.037	41.98
232.254	-19.46
232.472	33.79
232.689	35.84
232.907	27.65
233.125	7.17
233.342	31.74
233.56	-13.31
233.777	13.31
233.995	97.28
234.213	109.57
234.43	113.66
234.648	13.31
234.865	-5.12
235.083	84.99
235.3	70.65
235.518	117.76
235.735	144.38
235.953	123.9
236.17	31.74
236.388	-17.41
236.605	50.18
236.822	148.48
237.04	207.87
237.257	44.03
237.475	-91.13
237.692	132.09
237.909	95.23
238.127	21.5
238.344	64.51
238.562	78.85
238.779	-9.22
238.996	-70.65
239.214	21.5
239.431	62.46
239.648	21.5
239.865	148.48
240.083	103.42
240.3	-50.18
240.517	15.36
240.735	13.31
240.952	134.14
241.169	39.94
241.386	115.71
241.603	99.33
241.821	-52.22
242.038	97.28
242.255	107.52
242.472	17.41
242.689	39.94
242.907	95.23
243.124	109.57
243.341	-25.6
243.558	-46.08
243.775	-17.41
243.992	-84.99
244.209	39.94
244.426	166.91
244.643	119.81
244.86	68.61
245.078	-25.6
245.295	58.37
245.512	84.99
245.729	-78.85
245.946	171.01
246.163	54.27
246.38	19.46
246.597	113.66
246.814	68.61
247.031	105.47
247.248	54.27
247.464	128
247.681	142.33
247.898	37.89
248.115	111.61
248.332	-84.99
248.549	185.34
248.766	121.85
248.983	103.42
249.2	82.94
249.417	70.65
249.633	-33.79
249.85	37.89
250.067	50.18
250.284	128
250.501	46.08
250.717	125.95
250.934	-33.79
251.151	62.46
251.368	3.07
251.585	89.09
251.801	62.46
252.018	-80.89
252.235	175.1
252.451	-13.31
252.668	29.7
252.885	105.47
253.102	84.99
253.318	39.94
253.535	74.75
253.752	39.94
253.968	17.41
254.185	-60.42
254.401	74.75
254.618	117.76
254.835	-35.84
255.051	113.66
255.268	48.13
255.484	21.5
255.701	3.07
255.917	78.85
256.134	27.65
256.351	60.42
256.567	-82.94
256.784	56.32
257	-119.81
257.217	125.95
257.433	146.43
257.65	68.61
257.866	115.71
258.082	-68.61
258.299	-7.17
258.515	72.7
258.732	7.17
258.948	11.26
259.165	109.57
259.381	-37.89
259.597	128
259.814	-21.5
260.03	33.79
260.246	58.37
260.463	175.1
260.679	156.67
260.895	156.67
261.112	119.81
261.328	29.7
261.544	9.22
261.761	111.61
261.977	-1.02
262.193	23.55
262.409	35.84
262.626	82.94
262.842	11.26
263.058	-5.12
263.274	119.81
263.49	76.8
263.707	154.62
263.923	82.94
264.139	-109.57
264.355	82.94
264.571	105.47
264.787	44.03
265.004	183.29
265.22	-23.55
265.436	-19.46
265.652	68.61
265.868	37.89
266.084	-44.03
266.3	74.75
266.516	-19.46
266.732	89.09
266.948	-1.02
267.164	5.12
267.38	138.24
267.596	95.23
267.812	146.43
268.028	80.89
268.244	91.13
268.46	46.08
268.676	-15.36
268.892	54.27
269.108	-1.02
269.324	7.17
269.54	-87.04
269.756	107.52
269.972	-19.46
270.188	52.22
270.403	-62.46
270.619	-7.17
270.835	35.84
271.051	46.08
271.267	25.6
271.483	-9.22
271.698	125.95
271.914	107.52
272.13	68.61
272.346	-19.46
272.562	68.61
272.777	125.95
272.993	11.26
273.209	13.31
273.425	91.13
273.64	-76.8
273.856	109.57
274.072	39.94
274.287	-3.07
274.503	66.56
274.719	164.86
274.934	99.33
275.15	-39.94
275.366	27.65
275.581	-82.94
275.797	11.26
276.012	62.46
276.228	25.6
276.444	58.37
276.659	121.85
276.875	68.61
277.09	3.07
277.306	19.46
277.521	84.99
277.737	46.08
277.952	156.67
278.168	60.42
278.383	50.18
278.599	33.79
278.814	109.57
279.03	37.89
279.245	93.18
279.461	37.89
279.676	187.39
279.892	21.5
280.107	-35.84
280.322	-76.8
280.538	117.76
280.753	46.08
280.969	64.51
281.184	76.8
281.399	160.77
281.615	21.5
281.83	11.26
282.045	-39.94
282.26	-35.84
282.476	27.65
282.691	125.95
282.906	93.18
283.122	52.22
283.337	13.31
283.552	179.2
283.767	15.36
283.983	56.32
284.198	97.28
284.413	103.42
284.628	-95.23
284.843	105.47
285.058	123.9
285.274	-29.7
285.489	15.36
285.704	5.12
285.919	-15.36
286.134	13.31
286.349	58.37
286.564	-27.65
286.779	78.85
286.995	58.37
287.21	-107.52
287.425	56.32
287.64	72.7
287.855	84.99
288.07	-5.12
288.285	97.28
288.5	101.37
288.715	-1.02
288.93	-5.12
289.145	-52.22
289.36	62.46
289.575	27.65
289.79	66.56
290.004	-41.98
290.219	154.62
290.434	-17.41
290.649	58.37
290.864	-31.74
291.079	-13.31
291.294	56.32
291.509	113.66
291.724	54.27
291.938	46.08
292.153	74.75
292.368	62.46
292.583	50.18
292.798	70.65
293.012	39.94
293.227	97.28
293.442	-7.17
293.657	68.61
293.871	95.23
294.086	52.22
294.301	173.05
294.516	173.05
294.73	54.27
294.945	-52.22
295.16	5.12
295.374	78.85
295.589	152.57
295.804	31.74
296.018	103.42
296.233	119.81
296.447	93.18
296.662	48.13
296.877	109.57
297.091	97.28
297.306	103.42
297.52	66.56
297.735	89.09
297.949	15.36
298.164	17.41
298.378	35.84
298.593	-52.22
298.807	7.17
299.022	60.42
299.236	150.53
299.451	56.32
299.665	-9.22
299.88	17.41
300.094	66.56
300.309	11.26
300.523	33.79
300.737	-21.5
300.952	152.57
301.166	66.56
301.381	-84.99
301.595	13.31
301.809	11.26
302.024	-41.98
302.238	-9.22
302.452	140.29
302.667	91.13
302.881	228.35
303.095	136.19
303.309	74.75
303.524	15.36
303.738	64.51
303.952	-70.65
304.166	95.23
304.381	-7.17
304.595	179.2
304.809	-3.07
305.023	87.04
305.237	-17.41
305.452	-1.02
305.666	37.89
305.88	91.13
306.094	146.43
306.308	166.91
306.522	56.32
306.736	128
306.95	119.81
307.164	37.89
307.379	-13.31
307.593	164.86
307.807	193.53
308.021	125.95
308.235	89.09
308.449	9.22
308.663	3.07
308.877	240.64
309.091	54.27
309.305	140.29
309.519	-101.37
309.733	125.95
309.947	-89.09
310.161	107.52
310.374	123.9
310.588	125.95
310.802	-9.22
311.016	54.27
311.23	52.22
311.444	5.12
311.658	93.18
311.872	123.9
312.085	181.25
312.299	168.96
312.513	91.13
312.727	48.13
312.941	35.84
313.154	89.09
313.368	46.08
313.582	54.27
313.796	60.42
314.009	7.17
314.223	146.43
314.437	15.36
314.651	91.13
314.864	105.47
315.078	33.79
315.292	-76.8
315.505	44.03
315.719	87.04
315.933	15.36
316.146	27.65
316.36	37.89
316.573	193.53
316.787	27.65
317.001	80.89
317.214	-25.6
317.428	84.99
317.641	-39.94
317.855	1.02
318.068	66.56
318.282	62.46
318.495	222.2
318.709	84.99
318.922	5.12
319.136	160.77
319.349	99.33
319.563	76.8
319.776	144.38
319.99	-58.37
320.203	130.05
320.417	105.47
320.63	76.8
320.843	191.49
321.057	31.74
321.27	21.5
321.483	50.18
321.697	99.33
321.91	15.36
322.124	80.89
322.337	105.47
322.55	-9.22
322.763	35.84
322.977	25.6
323.19	-21.5
323.403	41.98
323.617	64.51
323.83	136.19
324.043	-68.61
324.256	160.77
324.469	-74.75
324.683	117.76
324.896	48.13
325.109	29.7
325.322	-66.56
325.535	166.91
325.748	146.43
325.962	48.13
326.175	21.5
326.388	50.18
326.601	121.85
326.814	21.5
327.027	87.04
327.24	105.47
327.453	31.74
327.666	111.61
327.879	91.13
328.092	107.52
328.305	35.84
328.518	5.12
328.731	11.26
328.944	101.37
329.157	97.28
329.37	72.7
329.583	203.77
329.796	164.86
330.009	-23.55
330.222	31.74
330.435	101.37
330.648	23.55
330.861	115.71
331.073	107.52
331.286	101.37
331.499	62.46
331.712	-27.65
331.925	41.98
332.138	95.23
332.35	111.61
332.563	-27.65
332.776	148.48
332.989	11.26
333.202	87.04
333.414	52.22
333.627	87.04
333.84	-9.22
334.053	103.42
334.265	33.79
334.478	13.31
334.691	132.09
334.903	17.41
335.116	-48.13
335.329	15.36
335.541	78.85
335.754	148.48
335.966	35.84
336.179	27.65
336.392	9.22
336.604	29.7
336.817	50.18
337.029	101.37
337.242	80.89
337.454	78.85
337.667	109.57
337.88	80.89
338.092	35.84
338.305	54.27
338.517	70.65
338.729	58.37
338.942	150.53
339.154	-31.74
339.367	-76.8
339.579	13.31
339.792	97.28
340.004	87.04
340.217	-3.07
340.429	54.27
340.641	-99.33
340.854	-70.65
341.066	29.7
341.278	87.04
341.491	199.68
341.703	46.08
341.915	-58.37
342.128	156.67
342.34	-9.22
342.552	11.26
342.764	56.32
342.977	84.99
343.189	97.28
343.401	60.42
343.613	-15.36
343.826	103.42
344.038	5.12
344.25	19.46
344.462	-7.17
344.674	128
344.886	44.03
345.099	48.13
345.311	31.74
345.523	41.98
345.735	-103.42
345.947	-17.41
346.159	93.18
346.371	5.12
346.583	82.94
346.795	187.39
347.007	89.09
347.219	144.38
347.431	-25.6
347.643	158.72
347.855	-29.7
348.067	84.99
348.279	50.18
348.491	7.17
348.703	91.13
348.915	62.46
349.127	-35.84
349.339	41.98
349.551	-3.07
349.763	93.18
349.975	54.27
350.187	121.85
350.399	123.9
350.61	19.46
350.822	23.55
351.034	99.33
351.246	31.74
351.458	41.98
351.669	99.33
351.881	66.56
352.093	48.13
352.305	220.16
352.517	50.18
352.728	138.24
352.94	74.75
353.152	107.52
353.363	-1.02
353.575	97.28
353.787	199.68
353.999	64.51
354.21	226.3
354.422	-60.42
354.633	89.09
354.845	37.89
355.057	3.07
355.268	44.03
355.48	144.38
355.692	-52.22
355.903	31.74
356.115	-7.17
356.326	-27.65
356.538	121.85
356.749	89.09
356.961	156.67
357.172	44.03
357.384	5.12
357.595	214.01
357.807	-70.65
358.018	37.89
358.23	70.65
358.441	166.91
358.653	27.65
358.864	-19.46
359.075	25.6
359.287	115.71
359.498	220.16
359.709	138.24
359.921	78.85
360.132	117.76
360.344	68.61
360.555	7.17
360.766	87.04
360.977	-29.7
361.189	187.39
361.4	31.74
361.611	156.67
361.823	164.86
362.034	101.37
362.245	-54.27
362.456	-17.41
362.667	111.61
362.879	33.79
363.09	82.94
363.301	72.7
363.512	66.56
363.723	21.5
363.935	-15.36
364.146	156.67
364.357	-39.94
364.568	17.41
364.779	-70.65
364.99	64.51
365.201	-25.6
365.412	87.04
365.623	5.12
365.834	101.37
366.045	68.61
366.256	68.61
366.467	80.89
366.678	17.41
366.889	76.8
367.1	66.56
367.311	99.33
367.522	37.89
367.733	121.85
367.944	103.42
368.155	-29.7
368.366	72.7
368.577	70.65
368.788	84.99
368.999	-11.26
369.209	87.04
369.42	148.48
369.631	193.53
369.842	58.37
370.053	-19.46
370.264	166.91
370.474	11.26
370.685	80.89
370.896	9.22
371.107	171.01
371.317	107.52
371.528	-60.42
371.739	107.52
371.95	46.08
372.16	136.19
372.371	-52.22
372.582	37.89
372.792	72.7
373.003	46.08
373.214	44.03
373.424	87.04
373.635	15.36
373.846	125.95
374.056	64.51
374.267	56.32
374.477	87.04
374.688	9.22
374.898	-17.41
375.109	29.7
375.319	31.74
375.53	33.79
375.74	93.18
375.951	-27.65
376.161	113.66
376.372	103.42
376.582	-9.22
376.793	60.42
377.003	-7.17
377.214	-19.46
377.424	76.8
377.635	41.98
377.845	39.94
378.055	140.29
378.266	-68.61
378.476	23.55
378.686	58.37
378.897	13.31
379.107	160.77
379.317	93.18
379.528	3.07
379.738	138.24
379.948	-48.13
380.158	87.04
380.369	64.51
380.579	-13.31
380.789	48.13
380.999	128
381.21	117.76
381.42	269.31
381.63	70.65
381.84	27.65
382.05	21.5
382.261	222.2
382.471	80.89
382.681	-23.55
382.891	164.86
383.101	97.28
383.311	13.31
383.521	23.55
383.731	109.57
383.941	224.25
384.151	66.56
384.361	-21.5
384.571	107.52
384.781	33.79
384.991	234.49
385.201	185.34
385.411	29.7
385.621	9.22
385.831	68.61
386.041	44.03
386.251	91.13
386.461	89.09
386.671	25.6
386.881	-15.36
387.091	9.22
387.301	17.41
387.511	11.26
387.72	117.76
387.93	130.05
388.14	-70.65
388.35	93.18
388.56	136.19
388.769	234.49
388.979	78.85
389.189	-60.42
389.399	35.84
389.609	101.37
389.818	113.66
390.028	23.55
390.238	105.47
390.447	23.55
390.657	60.42
390.867	27.65
391.076	-130.05
391.286	107.52
391.496	-15.36
391.705	-7.17
391.915	158.72
392.125	72.7
392.334	48.13
392.544	177.15
392.753	44.03
392.963	-41.98
393.172	76.8
393.382	-50.18
393.591	218.11
393.801	-60.42
394.01	119.81
394.22	111.61
394.429	23.55
394.639	35.84
394.848	19.46
395.058	39.94
395.267	48.13
395.477	164.86
395.686	123.9
395.895	232.44
396.105	236.54
396.314	144.38
396.524	-11.26
396.733	140.29
396.942	109.57
397.152	181.25
397.361	130.05
397.57	95.23
397.78	82.94
397.989	101.37
398.198	140.29
398.407	99.33
398.617	82.94
398.826	52.22
399.035	-29.7
399.244	216.06
399.453	105.47
399.663	62.46
399.872	50.18
400.081	-41.98
400.29	160.77
400.499	-7.17
400.708	154.62
400.917	31.74
401.127	23.55
401.336	89.09
401.545	156.67
401.754	199.68
401.963	107.52
402.172	13.31
402.381	17.41
402.59	50.18
402.799	-11.26
403.008	121.85
403.217	99.33
403.426	101.37
403.635	-31.74
403.844	39.94
404.053	29.7
404.262	60.42
404.471	168.96
404.68	140.29
404.888	-7.17
405.097	48.13
405.306	56.32
405.515	144.38
405.724	37.89
405.933	119.81
406.142	136.19
406.35	80.89
406.559	52.22
406.768	56.32
406.977	132.09
407.185	33.79
407.394	17.41
407.603	27.65
407.812	136.19
408.02	134.14
408.229	-11.26
408.438	27.65
408.646	-76.8
408.855	7.17
409.064	78.85
409.272	9.22
409.481	-23.55
409.69	33.79
409.898	-3.07
410.107	-78.85
410.315	109.57
410.524	-17.41
410.733	66.56
410.941	82.94
411.15	80.89
411.358	138.24
411.567	130.05
411.775	27.65
411.984	44.03
412.192	164.86
412.401	-25.6
412.609	181.25
412.818	130.05
413.026	125.95
413.234	-13.31
413.443	21.5
413.651	-7.17
413.86	68.61
414.068	132.09
414.276	222.2
414.485	74.75
414.693	179.2
414.901	203.77
415.11	109.57
415.318	76.8
415.526	50.18
415.734	162.81
415.943	48.13
416.151	220.16
416.359	117.76
416.567	140.29
416.776	125.95
416.984	95.23
417.192	279.55
417.4	27.65
417.608	31.74
417.817	-21.5
418.025	46.08
418.233	164.86
418.441	27.65
418.649	1.02
418.857	74.75
419.065	144.38
419.273	15.36
419.481	87.04
419.689	5.12
419.897	-1.02
420.105	21.5
420.313	107.52
420.521	123.9
420.729	181.25
420.937	25.6
421.145	54.27
421.353	130.05
421.561	175.1
421.769	97.28
421.977	74.75
422.185	125.95
422.393	33.79
422.601	140.29
422.809	154.62
423.017	103.42
423.224	119.81
423.432	99.33
423.64	66.56
423.848	152.57
424.056	-58.37
424.263	115.71
424.471	19.46
424.679	218.11
424.887	29.7
425.094	109.57
425.302	119.81
425.51	99.33
425.718	138.24
425.925	31.74
426.133	48.13
426.341	191.49
426.548	50.18
426.756	56.32
426.964	136.19
427.171	-13.31
427.379	72.7
427.586	95.23
427.794	166.91
428.001	123.9
428.209	175.1
428.417	250.88
428.624	150.53
428.832	109.57
429.039	74.75
429.247	105.47
429.454	95.23
429.662	203.77
429.869	123.9
430.076	146.43
430.284	171.01
430.491	201.72
430.699	140.29
430.906	232.44
431.114	187.39
431.321	158.72
431.528	103.42
431.736	136.19
431.943	87.04
432.15	158.72
432.358	240.64
432.565	269.31
432.772	29.7
432.979	257.02
433.187	107.52
433.394	218.11
433.601	56.32
433.808	332.79
434.016	334.84
434.223	240.64
434.43	171.01
434.637	293.88
434.844	181.25
435.052	242.68
435.259	254.97
435.466	300.03
435.673	291.84
435.88	363.51
436.087	269.31
436.294	347.13
436.501	402.43
436.708	277.5
436.915	340.99
437.122	414.71
437.329	318.46
437.537	371.71
437.743	357.37
437.95	482.3
438.157	367.61
438.364	379.9
438.571	357.37
438.778	429.05
438.985	386.04
439.192	519.16
439.399	449.53
439.606	541.69
439.813	457.72
440.02	551.93
440.227	564.22
440.433	533.5
440.64	513.02
440.847	504.82
441.054	621.56
441.261	723.96
441.467	680.95
441.674	551.93
441.881	699.38
442.088	572.41
442.294	762.87
442.501	742.39
442.708	836.6
442.914	840.69
443.121	734.2
443.328	861.17
443.534	902.13
443.741	879.6
443.948	855.03
444.154	914.42
444.361	1086.45
444.568	936.95
444.774	1123.31
444.981	900.08
445.187	1045.49
445.394	1088.5
445.6	1006.58
445.807	1293.29
446.013	1270.76
446.22	1174.51
446.426	1342.44
446.633	1516.52
446.839	1711.08
447.046	1459.18
447.252	1637.35
447.459	1532.9
447.665	1676.26
447.871	1876.96
448.078	1981.41
448.284	1846.24
448.491	1954.79
448.697	2001.89
448.903	2307.04
449.11	2261.98
449.316	2247.65
449.522	2425.82
449.728	2419.68
449.935	2530.27
450.141	2524.12
450.347	2733.01
450.553	2690.01
450.76	2825.17
450.966	2790.36
451.172	2868.18
451.378	3118.03
451.584	3124.18
451.791	3378.12
451.997	3486.67
452.203	3648.46
452.409	3797.96
452.615	3902.4
452.821	3822.53
453.027	3736.52
453.233	4463.55
453.44	4336.57
453.646	4346.81
453.852	4531.13
454.058	4924.34
454.264	4955.06
454.47	5292.98
454.676	5192.62
454.882	5790.63
455.088	5587.88
455.294	5886.89
455.5	6163.36
455.705	6501.28
455.911	6538.14
456.117	6761.37
456.323	6970.26
456.529	6921.11
456.735	7555.98
456.941	7533.45
457.147	8129.41
457.352	8305.54
457.558	8561.53
457.764	9116.53
457.97	9106.29
458.176	9628.53
458.381	10353.51
458.587	10414.95
458.793	10804.06
458.999	10937.18
459.204	12073.8
459.41	12563.26
459.616	12200.77
459.821	13171.51
460.027	13724.46
460.233	14203.69
460.438	14342.95
460.644	15270.68
460.85	15465.24
461.055	15790.86
461.261	16679.68
461.466	16374.53
461.672	16657.15
461.878	18733.79
462.083	18559.72
462.289	19061.47
462.494	19466.97
462.7	20024.01
462.905	20099.79
463.111	21637.81
463.316	22882.98
463.522	23102.11
463.727	23921.3
463.932	24873.6
464.138	25739.9
464.343	26638.95
464.549	26757.74
464.754	28590.67
464.959	29596.22
465.165	30153.27
465.37	29573.69
465.575	29878.84
465.781	31773.21
465.986	32637.45
466.191	32191
466.397	32440.85
466.602	31941.14
466.807	33456.64
467.012	34193.91
467.218	34904.56
467.423	34912.75
467.628	35838.43
467.833	37786.05
468.038	37159.37
