Data from USB4F104151__34__09-27-15-109.txt Node

Date: Wed Feb 26 09:27:15 EST 2025
User: louis
Spectrometer: USB4F10415
Trigger mode: 4
Integration Time (sec): 1.000000E-1
Scans to average: 1
Electric dark correction enabled: true
Nonlinearity correction enabled: false
Boxcar width: 0
XAxis mode: Wavelengths
Number of Pixels in Spectrum: 3648
>>>>>Begin Spectral Data<<<<<
178.204	-329.04
178.424	-329.04
178.644	-329.04
178.864	-308.56
179.084	-357.71
179.304	-38.23
179.524	-25.94
179.744	-56.66
179.964	47.79
180.184	25.26
180.404	-7.51
180.624	-23.89
180.844	80.55
181.064	-44.37
181.283	70.31
181.503	-25.94
181.723	-1.37
181.943	-87.38
182.163	178.86
182.383	6.83
182.602	39.59
182.822	107.18
183.042	92.84
183.262	-87.38
183.482	35.5
183.701	23.21
183.921	19.11
184.141	55.98
184.361	74.41
184.58	88.75
184.8	-9.56
185.02	-54.61
185.239	92.84
185.459	49.83
185.679	88.75
185.898	-48.47
186.118	70.31
186.338	180.9
186.557	78.51
186.777	35.5
186.997	68.27
187.216	-7.51
187.436	162.47
187.655	121.51
187.875	51.88
188.095	58.03
188.314	148.14
188.534	150.18
188.753	-32.08
188.973	72.36
189.192	129.7
189.412	86.7
189.631	105.13
189.851	166.57
190.07	111.27
190.29	-27.99
190.509	27.31
190.729	-5.46
190.948	92.84
191.168	250.53
191.387	119.46
191.607	27.31
191.826	66.22
192.045	-7.51
192.265	21.16
192.484	35.5
192.704	53.93
192.923	23.21
193.142	148.14
193.362	55.98
193.581	174.76
193.8	107.18
194.02	123.56
194.239	19.11
194.458	64.17
194.678	-34.13
194.897	74.41
195.116	19.11
195.335	74.41
195.555	115.37
195.774	68.27
195.993	162.47
196.212	72.36
196.432	35.5
196.651	-5.46
196.87	23.21
197.089	176.81
197.308	113.32
197.528	49.83
197.747	25.26
197.966	64.17
198.185	232.1
198.404	17.07
198.623	92.84
198.842	121.51
199.062	127.66
199.281	109.22
199.5	33.45
199.719	146.09
199.938	86.7
200.157	98.99
200.376	127.66
200.595	170.66
200.814	119.46
201.033	-46.42
201.252	133.8
201.471	35.5
201.69	72.36
201.909	62.12
202.128	49.83
202.347	60.07
202.566	37.55
202.785	19.11
203.004	-7.51
203.223	320.17
203.442	64.17
203.661	31.4
203.879	4.78
204.098	109.22
204.317	-17.75
204.536	166.57
204.755	72.36
204.974	51.88
205.193	33.45
205.411	217.77
205.63	133.8
205.849	115.37
206.068	23.21
206.287	-52.56
206.505	170.66
206.724	37.55
206.943	39.59
207.162	27.31
207.381	80.55
207.599	-19.8
207.818	96.94
208.037	27.31
208.255	10.92
208.474	27.31
208.693	60.07
208.911	-30.04
209.13	86.7
209.349	45.74
209.567	76.46
209.786	123.56
210.005	109.22
210.223	27.31
210.442	-30.04
210.661	90.79
210.879	82.6
211.098	133.8
211.316	90.79
211.535	74.41
211.753	17.07
211.972	21.16
212.191	45.74
212.409	51.88
212.628	51.88
212.846	58.03
213.065	35.5
213.283	168.62
213.502	55.98
213.72	119.46
213.938	4.78
214.157	74.41
214.375	119.46
214.594	10.92
214.812	109.22
215.031	29.35
215.249	84.65
215.467	25.26
215.686	10.92
215.904	70.31
216.122	55.98
216.341	213.67
216.559	109.22
216.778	53.93
216.996	193.19
217.214	105.13
217.432	-7.51
217.651	45.74
217.869	47.79
218.087	88.75
218.306	12.97
218.524	6.83
218.742	41.64
218.96	131.75
219.179	6.83
219.397	70.31
219.615	240.29
219.833	84.65
220.051	-42.32
220.27	58.03
220.488	113.32
220.706	35.5
220.924	72.36
221.142	23.21
221.36	68.27
221.578	72.36
221.796	51.88
222.015	82.6
222.233	78.51
222.451	195.24
222.669	-5.46
222.887	62.12
223.105	51.88
223.323	64.17
223.541	23.21
223.759	78.51
223.977	101.03
224.195	115.37
224.413	45.74
224.631	66.22
224.849	80.55
225.067	180.9
225.285	19.11
225.503	23.21
225.721	-111.96
225.939	58.03
226.157	-13.65
226.375	195.24
226.592	10.92
226.81	-32.08
227.028	92.84
227.246	125.61
227.464	125.61
227.682	47.79
227.9	84.65
228.117	60.07
228.335	80.55
228.553	55.98
228.771	10.92
228.989	60.07
229.206	107.18
229.424	15.02
229.642	92.84
229.86	-17.75
230.077	160.42
230.295	135.85
230.513	117.42
230.731	80.55
230.948	162.47
231.166	121.51
231.384	94.89
231.601	8.87
231.819	246.44
232.037	70.31
232.254	-71
232.472	62.12
232.689	33.45
232.907	101.03
233.125	15.02
233.342	10.92
233.56	0.68
233.777	-13.65
233.995	6.83
234.213	135.85
234.43	43.69
234.648	58.03
234.865	10.92
235.083	70.31
235.3	35.5
235.518	90.79
235.735	119.46
235.953	131.75
236.17	39.59
236.388	43.69
236.605	10.92
236.822	141.99
237.04	113.32
237.257	58.03
237.475	43.69
237.692	51.88
237.909	82.6
238.127	10.92
238.344	131.75
238.562	82.6
238.779	25.26
238.996	-19.8
239.214	-71
239.431	96.94
239.648	43.69
239.865	78.51
240.083	92.84
240.3	-48.47
240.517	6.83
240.735	101.03
240.952	213.67
241.169	72.36
241.386	15.02
241.603	19.11
241.821	-38.23
242.038	148.14
242.255	80.55
242.472	31.4
242.689	55.98
242.907	88.75
243.124	62.12
243.341	47.79
243.558	-21.85
243.775	-5.46
243.992	-44.37
244.209	35.5
244.426	113.32
244.643	80.55
244.86	88.75
245.078	84.65
245.295	17.07
245.512	-19.8
245.729	107.18
245.946	76.46
246.163	51.88
246.38	68.27
246.597	64.17
246.814	41.64
247.031	25.26
247.248	2.73
247.464	90.79
247.681	66.22
247.898	111.27
248.115	45.74
248.332	-42.32
248.549	113.32
248.766	254.63
248.983	76.46
249.2	10.92
249.417	174.76
249.633	60.07
249.85	33.45
250.067	-36.18
250.284	31.4
250.501	105.13
250.717	137.9
250.934	-15.7
251.151	60.07
251.368	-38.23
251.585	96.94
251.801	-13.65
252.018	62.12
252.235	119.46
252.451	78.51
252.668	72.36
252.885	113.32
253.102	82.6
253.318	-3.41
253.535	0.68
253.752	45.74
253.968	33.45
254.185	-11.61
254.401	-13.65
254.618	-60.76
254.835	35.5
255.051	107.18
255.268	101.03
255.484	94.89
255.701	-25.94
255.917	76.46
256.134	72.36
256.351	19.11
256.567	-34.13
256.784	45.74
257	-40.28
257.217	53.93
257.433	133.8
257.65	80.55
257.866	125.61
258.082	-30.04
258.299	-13.65
258.515	58.03
258.732	-48.47
258.948	25.26
259.165	101.03
259.381	-15.7
259.597	78.51
259.814	19.11
260.03	-7.51
260.246	31.4
260.463	94.89
260.679	111.27
260.895	133.8
261.112	197.29
261.328	27.31
261.544	51.88
261.761	234.15
261.977	-17.75
262.193	-71
262.409	66.22
262.626	80.55
262.842	133.8
263.058	-17.75
263.274	80.55
263.49	94.89
263.707	96.94
263.923	39.59
264.139	-60.76
264.355	-7.51
264.571	211.62
264.787	19.11
265.004	148.14
265.22	68.27
265.436	21.16
265.652	66.22
265.868	158.38
266.084	-60.76
266.3	53.93
266.516	8.87
266.732	31.4
266.948	35.5
267.164	41.64
267.38	123.56
267.596	31.4
267.812	230.06
268.028	133.8
268.244	19.11
268.46	45.74
268.676	115.37
268.892	125.61
269.108	-32.08
269.324	35.5
269.54	-19.8
269.756	113.32
269.972	-30.04
270.188	19.11
270.403	51.88
270.619	64.17
270.835	80.55
271.051	47.79
271.267	51.88
271.483	6.83
271.698	76.46
271.914	178.86
272.13	86.7
272.346	-7.51
272.562	127.66
272.777	150.18
272.993	-1.37
273.209	10.92
273.425	117.42
273.64	-48.47
273.856	150.18
274.072	35.5
274.287	2.73
274.503	92.84
274.719	98.99
274.934	43.69
275.15	-46.42
275.366	123.56
275.581	-54.61
275.797	94.89
276.012	55.98
276.228	-5.46
276.444	17.07
276.659	68.27
276.875	-44.37
277.09	58.03
277.306	-1.37
277.521	76.46
277.737	19.11
277.952	131.75
278.168	55.98
278.383	58.03
278.599	33.45
278.814	125.61
279.03	6.83
279.245	178.86
279.461	78.51
279.676	68.27
279.892	8.87
280.107	0.68
280.322	-25.94
280.538	53.93
280.753	33.45
280.969	94.89
281.184	74.41
281.399	174.76
281.615	45.74
281.83	66.22
282.045	60.07
282.26	-32.08
282.476	133.8
282.691	51.88
282.906	51.88
283.122	98.99
283.337	-11.61
283.552	55.98
283.767	51.88
283.983	12.97
284.198	39.59
284.413	68.27
284.628	-40.28
284.843	60.07
285.058	82.6
285.274	15.02
285.489	19.11
285.704	150.18
285.919	31.4
286.134	74.41
286.349	45.74
286.564	10.92
286.779	117.42
286.995	23.21
287.21	-44.37
287.425	86.7
287.64	51.88
287.855	37.55
288.07	-34.13
288.285	94.89
288.5	207.53
288.715	109.22
288.93	55.98
289.145	33.45
289.36	96.94
289.575	27.31
289.79	178.86
290.004	43.69
290.219	76.46
290.434	47.79
290.649	-46.42
290.864	-21.85
291.079	39.59
291.294	47.79
291.509	92.84
291.724	66.22
291.938	64.17
292.153	58.03
292.368	-15.7
292.583	103.08
292.798	109.22
293.012	72.36
293.227	19.11
293.442	-38.23
293.657	64.17
293.871	115.37
294.086	117.42
294.301	166.57
294.516	144.04
294.73	-13.65
294.945	58.03
295.16	43.69
295.374	160.42
295.589	139.94
295.804	84.65
296.018	76.46
296.233	90.79
296.447	125.61
296.662	66.22
296.877	10.92
297.091	115.37
297.306	-17.75
297.52	113.32
297.735	107.18
297.949	109.22
298.164	35.5
298.378	111.27
298.593	51.88
298.807	19.11
299.022	-13.65
299.236	60.07
299.451	-5.46
299.665	80.55
299.88	29.35
300.094	-30.04
300.309	2.73
300.523	-17.75
300.737	19.11
300.952	-21.85
301.166	66.22
301.381	15.02
301.595	82.6
301.809	33.45
302.024	74.41
302.238	-23.89
302.452	195.24
302.667	90.79
302.881	115.37
303.095	49.83
303.309	94.89
303.524	-38.23
303.738	43.69
303.952	-34.13
304.166	49.83
304.381	-91.48
304.595	115.37
304.809	-9.56
305.023	152.23
305.237	35.5
305.452	4.78
305.666	19.11
305.88	107.18
306.094	119.46
306.308	6.83
306.522	182.95
306.736	68.27
306.95	78.51
307.164	12.97
307.379	19.11
307.593	160.42
307.807	144.04
308.021	109.22
308.235	137.9
308.449	-27.99
308.663	43.69
308.877	197.29
309.091	-30.04
309.305	90.79
309.519	6.83
309.733	182.95
309.947	-32.08
310.161	-23.89
310.374	41.64
310.588	131.75
310.802	-7.51
311.016	43.69
311.23	60.07
311.444	41.64
311.658	27.31
311.872	170.66
312.085	62.12
312.299	107.18
312.513	127.66
312.727	55.98
312.941	-15.7
313.154	21.16
313.368	60.07
313.582	70.31
313.796	101.03
314.009	0.68
314.223	160.42
314.437	45.74
314.651	58.03
314.864	41.64
315.078	64.17
315.292	-17.75
315.505	39.59
315.719	35.5
315.933	49.83
316.146	53.93
316.36	66.22
316.573	76.46
316.787	131.75
317.001	84.65
317.214	-50.52
317.428	92.84
317.641	-7.51
317.855	-23.89
318.068	53.93
318.282	43.69
318.495	189.1
318.709	62.12
318.922	84.65
319.136	133.8
319.349	23.21
319.563	55.98
319.776	74.41
319.99	-5.46
320.203	96.94
320.417	139.94
320.63	135.85
320.843	211.62
321.057	76.46
321.27	47.79
321.483	53.93
321.697	43.69
321.91	78.51
322.124	45.74
322.337	111.27
322.55	-79.19
322.763	180.9
322.977	33.45
323.19	-15.7
323.403	0.68
323.617	58.03
323.83	133.8
324.043	68.27
324.256	-7.51
324.469	-15.7
324.683	123.56
324.896	2.73
325.109	27.31
325.322	-3.41
325.535	82.6
325.748	49.83
325.962	68.27
326.175	113.32
326.388	92.84
326.601	141.99
326.814	80.55
327.027	92.84
327.24	23.21
327.453	-83.28
327.666	92.84
327.879	148.14
328.092	53.93
328.305	152.23
328.518	39.59
328.731	-3.41
328.944	6.83
329.157	51.88
329.37	4.78
329.583	201.38
329.796	131.75
330.009	-68.95
330.222	152.23
330.435	72.36
330.648	23.21
330.861	74.41
331.073	154.28
331.286	66.22
331.499	8.87
331.712	41.64
331.925	43.69
332.138	27.31
332.35	148.14
332.563	-42.32
332.776	150.18
332.989	-17.75
333.202	60.07
333.414	58.03
333.627	94.89
333.84	19.11
334.053	17.07
334.265	-21.85
334.478	-7.51
334.691	-1.37
334.903	43.69
335.116	-23.89
335.329	21.16
335.541	43.69
335.754	180.9
335.966	-15.7
336.179	23.21
336.392	27.31
336.604	62.12
336.817	41.64
337.029	55.98
337.242	60.07
337.454	78.51
337.667	27.31
337.88	133.8
338.092	80.55
338.305	74.41
338.517	31.4
338.729	201.38
338.942	125.61
339.154	21.16
339.367	-27.99
339.579	94.89
339.792	-1.37
340.004	164.52
340.217	55.98
340.429	76.46
340.641	-27.99
340.854	-17.75
341.066	105.13
341.278	98.99
341.491	84.65
341.703	6.83
341.915	17.07
342.128	17.07
342.34	137.9
342.552	-25.94
342.764	23.21
342.977	51.88
343.189	150.18
343.401	58.03
343.613	-52.56
343.826	-7.51
344.038	10.92
344.25	86.7
344.462	-5.46
344.674	55.98
344.886	37.55
345.099	125.61
345.311	162.47
345.523	84.65
345.735	-48.47
345.947	39.59
346.159	-34.13
346.371	-9.56
346.583	-54.61
346.795	150.18
347.007	82.6
347.219	2.73
347.431	53.93
347.643	78.51
347.855	-7.51
348.067	111.27
348.279	-44.37
348.491	35.5
348.703	125.61
348.915	27.31
349.127	-64.85
349.339	84.65
349.551	41.64
349.763	129.7
349.975	60.07
350.187	178.86
350.399	174.76
350.61	121.51
350.822	47.79
351.034	62.12
351.246	129.7
351.458	84.65
351.669	90.79
351.881	66.22
352.093	105.13
352.305	115.37
352.517	90.79
352.728	82.6
352.94	15.02
353.152	58.03
353.363	15.02
353.575	76.46
353.787	166.57
353.999	19.11
354.21	101.03
354.422	35.5
354.633	19.11
354.845	31.4
355.057	51.88
355.268	23.21
355.48	86.7
355.692	35.5
355.903	88.75
356.115	-36.18
356.326	-5.46
356.538	135.85
356.749	64.17
356.961	215.72
357.172	64.17
357.384	47.79
357.595	230.06
357.807	-15.7
358.018	98.99
358.23	17.07
358.441	125.61
358.653	94.89
358.864	25.26
359.075	-19.8
359.287	96.94
359.498	2.73
359.709	141.99
359.921	31.4
360.132	141.99
360.344	74.41
360.555	17.07
360.766	64.17
360.977	-11.61
361.189	84.65
361.4	53.93
361.611	105.13
361.823	82.6
362.034	123.56
362.245	25.26
362.456	74.41
362.667	90.79
362.879	43.69
363.09	78.51
363.301	64.17
363.512	66.22
363.723	-50.52
363.935	51.88
364.146	160.42
364.357	109.22
364.568	90.79
364.779	-48.47
364.99	152.23
365.201	19.11
365.412	158.38
365.623	-87.38
365.834	121.51
366.045	189.1
366.256	49.83
366.467	51.88
366.678	55.98
366.889	55.98
367.1	29.35
367.311	96.94
367.522	43.69
367.733	90.79
367.944	68.27
368.155	19.11
368.366	105.13
368.577	166.57
368.788	80.55
368.999	33.45
369.209	58.03
369.42	195.24
369.631	191.14
369.842	86.7
370.053	98.99
370.264	191.14
370.474	-44.37
370.685	43.69
370.896	107.18
371.107	80.55
371.317	60.07
371.528	31.4
371.739	117.42
371.95	121.51
372.16	164.52
372.371	-64.85
372.582	-11.61
372.792	105.13
373.003	148.14
373.214	58.03
373.424	96.94
373.635	-9.56
373.846	107.18
374.056	39.59
374.267	19.11
374.477	72.36
374.688	17.07
374.898	154.28
375.109	68.27
375.319	19.11
375.53	178.86
375.74	166.57
375.951	45.74
376.161	51.88
376.372	66.22
376.582	19.11
376.793	58.03
377.003	55.98
377.214	76.46
377.424	64.17
377.635	78.51
377.845	2.73
378.055	92.84
378.266	64.17
378.476	23.21
378.686	111.27
378.897	101.03
379.107	160.42
379.317	25.26
379.528	60.07
379.738	92.84
379.948	31.4
380.158	31.4
380.369	15.02
380.579	117.42
380.789	58.03
380.999	64.17
381.21	-5.46
381.42	203.43
381.63	-1.37
381.84	78.51
382.05	92.84
382.261	94.89
382.471	182.95
382.681	41.64
382.891	164.52
383.101	68.27
383.311	17.07
383.521	17.07
383.731	154.28
383.941	170.66
384.151	25.26
384.361	17.07
384.571	19.11
384.781	76.46
384.991	203.43
385.201	170.66
385.411	94.89
385.621	101.03
385.831	-5.46
386.041	-83.28
386.251	43.69
386.461	156.33
386.671	43.69
386.881	39.59
387.091	51.88
387.301	90.79
387.511	25.26
387.72	33.45
387.93	174.76
388.14	-79.19
388.35	98.99
388.56	70.31
388.769	80.55
388.979	37.55
389.189	33.45
389.399	23.21
389.609	96.94
389.818	68.27
390.028	103.08
390.238	98.99
390.447	-21.85
390.657	19.11
390.867	82.6
391.076	-19.8
391.286	33.45
391.496	58.03
391.705	82.6
391.915	115.37
392.125	115.37
392.334	33.45
392.544	150.18
392.753	12.97
392.963	43.69
393.172	21.16
393.382	68.27
393.591	234.15
393.801	12.97
394.01	199.34
394.22	94.89
394.429	-5.46
394.639	23.21
394.848	121.51
395.058	92.84
395.267	109.22
395.477	148.14
395.686	-7.51
395.895	244.39
396.105	123.56
396.314	88.75
396.524	33.45
396.733	-13.65
396.942	162.47
397.152	98.99
397.361	133.8
397.57	66.22
397.78	-9.56
397.989	111.27
398.198	158.38
398.407	53.93
398.617	23.21
398.826	66.22
399.035	105.13
399.244	90.79
399.453	17.07
399.663	70.31
399.872	33.45
400.081	-9.56
400.29	115.37
400.499	-9.56
400.708	178.86
400.917	43.69
401.127	78.51
401.336	-13.65
401.545	133.8
401.754	60.07
401.963	98.99
402.172	-7.51
402.381	2.73
402.59	74.41
402.799	74.41
403.008	80.55
403.217	27.31
403.426	94.89
403.635	58.03
403.844	72.36
404.053	96.94
404.262	10.92
404.471	215.72
404.68	88.75
404.888	68.27
405.097	27.31
405.306	62.12
405.515	80.55
405.724	82.6
405.933	92.84
406.142	60.07
406.35	199.34
406.559	113.32
406.768	121.51
406.977	137.9
407.185	82.6
407.394	105.13
407.603	-15.7
407.812	66.22
408.02	23.21
408.229	35.5
408.438	119.46
408.646	2.73
408.855	74.41
409.064	125.61
409.272	29.35
409.481	125.61
409.69	39.59
409.898	-17.75
410.107	27.31
410.315	182.95
410.524	25.26
410.733	58.03
410.941	51.88
411.15	105.13
411.358	68.27
411.567	158.38
411.775	58.03
411.984	62.12
412.192	107.18
412.401	92.84
412.609	191.14
412.818	187.05
413.026	82.6
413.234	-46.42
413.443	92.84
413.651	27.31
413.86	115.37
414.068	121.51
414.276	201.38
414.485	-1.37
414.693	185
414.901	152.23
415.11	131.75
415.318	51.88
415.526	45.74
415.734	84.65
415.943	74.41
416.151	101.03
416.359	-19.8
416.567	101.03
416.776	86.7
416.984	92.84
417.192	215.72
417.4	6.83
417.608	37.55
417.817	-46.42
418.025	101.03
418.233	193.19
418.441	-36.18
418.649	-32.08
418.857	72.36
419.065	182.95
419.273	-5.46
419.481	64.17
419.689	33.45
419.897	33.45
420.105	119.46
420.313	76.46
420.521	96.94
420.729	141.99
420.937	31.4
421.145	2.73
421.353	121.51
421.561	92.84
421.769	90.79
421.977	49.83
422.185	139.94
422.393	37.55
422.601	121.51
422.809	27.31
423.017	90.79
423.224	27.31
423.432	94.89
423.64	15.02
423.848	113.32
424.056	2.73
424.263	133.8
424.471	74.41
424.679	205.48
424.887	12.97
425.094	162.47
425.302	111.27
425.51	35.5
425.718	121.51
425.925	82.6
426.133	70.31
426.341	123.56
426.548	64.17
426.756	64.17
426.964	164.52
427.171	68.27
427.379	101.03
427.586	123.56
427.794	125.61
428.001	131.75
428.209	125.61
428.417	150.18
428.624	103.08
428.832	178.86
429.039	8.87
429.247	98.99
429.454	90.79
429.662	225.96
429.869	129.7
430.076	123.56
430.284	146.09
430.491	268.97
430.699	162.47
430.906	62.12
431.114	125.61
431.321	185
431.528	117.42
431.736	217.77
431.943	123.56
432.15	182.95
432.358	217.77
432.565	254.63
432.772	113.32
432.979	256.68
433.187	115.37
433.394	248.49
433.601	105.13
433.808	223.91
434.016	240.29
434.223	303.78
434.43	154.28
434.637	191.14
434.844	254.63
435.052	248.49
435.259	318.12
435.466	271.01
435.673	199.34
435.88	379.56
436.087	348.84
436.294	301.73
436.501	324.26
436.708	293.54
436.915	303.78
437.122	346.79
437.329	262.82
437.537	309.93
437.743	369.32
437.95	436.9
438.157	404.13
438.364	406.18
438.571	484
438.778	426.66
438.985	410.28
439.192	494.24
439.399	481.96
439.606	469.67
439.813	469.67
440.02	598.69
440.227	682.66
440.433	535.2
440.64	557.73
440.847	535.2
441.054	713.38
441.261	703.14
441.467	641.7
441.674	635.55
441.881	772.77
442.088	625.31
442.294	725.66
442.501	805.53
442.708	852.64
442.914	836.25
443.121	866.97
443.328	918.17
443.534	873.12
443.741	860.83
443.948	809.63
444.154	948.89
444.361	1090.2
444.568	1043.1
444.774	1108.63
444.981	1034.91
445.187	1264.28
445.394	1141.4
445.6	1237.66
445.807	1387.16
446.013	1280.66
446.22	1290.9
446.426	1280.66
446.633	1495.7
446.839	1565.33
447.046	1436.31
447.252	1604.24
447.459	1702.54
447.665	1669.78
447.871	1802.9
448.078	1960.59
448.284	1856.14
448.491	1933.97
448.697	2067.08
448.903	2187.91
449.11	2161.29
449.316	2032.27
449.522	2343.56
449.728	2464.39
449.935	2495.11
450.141	2525.83
450.347	2857.6
450.553	2620.03
450.76	2759.3
450.966	2951.81
451.172	3080.83
451.378	3086.97
451.584	3232.38
451.791	3336.82
451.997	3447.41
452.203	3560.05
452.409	3738.23
452.615	3916.4
452.821	3760.75
453.027	3951.21
453.233	4282.99
453.44	4174.44
453.646	4524.65
453.852	4790.88
454.058	4663.91
454.264	4938.34
454.47	5192.28
454.676	5229.15
454.882	5841.49
455.088	5603.93
455.294	5765.71
455.5	6273.61
455.705	6488.65
455.911	6515.27
456.117	6632.01
456.323	7023.17
456.529	6836.8
456.735	7576.12
456.941	7690.81
457.147	8241.71
457.352	8233.52
457.558	8628.77
457.764	9136.67
457.97	9409.05
458.176	9638.42
458.381	10017.3
458.587	10283.53
458.793	10871.3
458.999	10775.05
459.204	12173.81
459.41	12802.54
459.616	12274.16
459.821	13236.7
460.027	13554.14
460.233	14322.13
460.438	14227.92
460.644	15141.32
460.85	15081.92
461.055	16005.56
461.261	16570.8
461.466	16429.49
461.672	16503.21
461.878	18483.6
462.083	18293.14
462.289	18575.76
462.494	19376.51
462.7	19540.35
462.905	19933.56
463.111	21553.51
463.316	22495.57
463.522	22786.38
463.727	23718.21
463.932	24719.67
464.138	25381.16
464.343	26433.82
464.549	26554.65
464.754	28471.54
464.959	29561.06
465.165	29530.34
465.37	29597.93
465.575	29540.58
465.781	31162.58
465.986	32946.36
466.191	31926.47
466.397	32198.85
466.602	31477.96
466.807	33345.71
467.012	33855.65
467.218	34381.98
467.423	34885.78
467.628	36053.12
467.833	37345.39
468.038	36651.13
468.244	36018.31
468.449	37949.54
468.654	36970.61
468.859	36835.45
469.064	37380.21
