Data from USB4F104151__83__10-34-18-736.txt Node

Date: Wed Feb 26 10:34:18 EST 2025
User: louis
Spectrometer: USB4F10415
Trigger mode: 4
Integration Time (sec): 1.000000E-1
Scans to average: 1
Electric dark correction enabled: true
Nonlinearity correction enabled: false
Boxcar width: 0
XAxis mode: Wavelengths
Number of Pixels in Spectrum: 3648
>>>>>Begin Spectral Data<<<<<
178.204	-381.26
178.424	-381.26
178.644	-381.26
178.864	-403.79
179.084	-381.26
179.304	13.99
179.524	13.99
179.744	16.04
179.964	26.28
180.184	-20.82
180.404	112.3
180.624	-80.21
180.844	-35.16
181.064	-12.63
181.283	71.34
181.503	-123.22
181.723	18.09
181.943	-153.94
182.163	194.22
182.383	-29.01
182.602	95.91
182.822	171.69
183.042	75.43
183.262	-94.55
183.482	-8.53
183.701	26.28
183.921	24.23
184.141	-31.06
184.361	75.43
184.58	16.04
184.8	69.29
185.02	-45.4
185.239	77.48
185.459	-2.39
185.679	91.82
185.898	-112.98
186.118	-24.92
186.338	26.28
186.557	128.68
186.777	-94.55
186.997	-10.58
187.216	1.71
187.436	108.2
187.655	57
187.875	126.63
188.095	9.9
188.314	130.73
188.534	110.25
188.753	-2.39
188.973	106.15
189.192	163.5
189.412	-6.49
189.631	11.95
189.851	81.58
190.07	138.92
190.29	9.9
190.509	11.95
190.729	48.81
190.948	102.06
191.168	194.22
191.387	97.96
191.607	11.95
191.826	38.57
192.045	20.14
192.265	28.33
192.484	18.09
192.704	-16.73
192.923	3.75
193.142	212.65
193.362	167.59
193.581	206.5
193.8	85.67
194.02	18.09
194.239	22.19
194.458	120.49
194.678	28.33
194.897	-31.06
195.116	-65.88
195.335	61.1
195.555	32.43
195.774	3.75
195.993	102.06
196.212	-29.01
196.432	20.14
196.651	-96.6
196.87	26.28
197.089	167.59
197.308	95.91
197.528	124.58
197.747	16.04
197.966	9.9
198.185	171.69
198.404	-39.25
198.623	61.1
198.842	143.02
199.062	126.63
199.281	85.67
199.5	38.57
199.719	65.19
199.938	50.86
200.157	16.04
200.376	151.21
200.595	147.11
200.814	79.53
201.033	30.38
201.252	38.57
201.471	63.15
201.69	65.19
201.909	71.34
202.128	120.49
202.347	22.19
202.566	20.14
202.785	-29.01
203.004	-98.64
203.223	192.17
203.442	-0.34
203.661	-0.34
203.879	71.34
204.098	63.15
204.317	-53.59
204.536	93.87
204.755	116.39
204.974	75.43
205.193	-86.36
205.411	132.78
205.63	112.3
205.849	108.2
206.068	-57.68
206.287	-20.82
206.505	177.83
206.724	52.91
206.943	36.52
207.162	-51.54
207.381	91.82
207.599	116.39
207.818	-2.39
208.037	-29.01
208.255	-2.39
208.474	30.38
208.693	50.86
208.911	65.19
209.13	122.54
209.349	-0.34
209.567	97.96
209.786	38.57
210.005	77.48
210.223	136.87
210.442	-117.08
210.661	28.33
210.879	81.58
211.098	32.43
211.316	69.29
211.535	112.3
211.753	40.62
211.972	118.44
212.191	-26.96
212.409	-37.2
212.628	194.22
212.846	-26.96
213.065	63.15
213.283	52.91
213.502	-18.77
213.72	69.29
213.938	26.28
214.157	-6.49
214.375	130.73
214.594	44.71
214.812	71.34
215.031	-74.07
215.249	5.8
215.467	5.8
215.686	-41.3
215.904	-4.44
216.122	65.19
216.341	143.02
216.559	65.19
216.778	114.34
216.996	83.63
217.214	24.23
217.432	-8.53
217.651	-78.16
217.869	30.38
218.087	-14.68
218.306	24.23
218.524	93.87
218.742	7.85
218.96	40.62
219.179	1.71
219.397	-22.87
219.615	183.98
219.833	-6.49
220.051	-33.11
220.27	91.82
220.488	163.5
220.706	11.95
220.924	-43.35
221.142	-76.12
221.36	91.82
221.578	149.16
221.796	9.9
222.015	5.8
222.233	77.48
222.451	126.63
222.669	-4.44
222.887	24.23
223.105	-18.77
223.323	-31.06
223.541	-20.82
223.759	-8.53
223.977	-6.49
224.195	75.43
224.413	85.67
224.631	-80.21
224.849	110.25
225.067	235.18
225.285	24.23
225.503	-8.53
225.721	-102.74
225.939	65.19
226.157	36.52
226.375	206.5
226.592	-69.97
226.81	-16.73
227.028	95.91
227.246	89.77
227.464	85.67
227.682	106.15
227.9	95.91
228.117	44.71
228.335	32.43
228.553	75.43
228.771	3.75
228.989	-2.39
229.206	67.24
229.424	48.81
229.642	13.99
229.86	18.09
230.077	128.68
230.295	7.85
230.513	77.48
230.731	42.67
230.948	140.97
231.166	155.3
231.384	-59.73
231.601	-35.16
231.819	89.77
232.037	-22.87
232.254	1.71
232.472	16.04
232.689	-59.73
232.907	157.35
233.125	20.14
233.342	-16.73
233.56	-49.49
233.777	-12.63
233.995	11.95
234.213	71.34
234.43	65.19
234.648	30.38
234.865	-6.49
235.083	108.2
235.3	46.76
235.518	38.57
235.735	124.58
235.953	108.2
236.17	30.38
236.388	93.87
236.605	52.91
236.822	79.53
237.04	77.48
237.257	7.85
237.475	-20.82
237.692	3.75
237.909	52.91
238.127	20.14
238.344	106.15
238.562	63.15
238.779	-82.26
238.996	-10.58
239.214	16.04
239.431	30.38
239.648	-65.88
239.865	20.14
240.083	93.87
240.3	67.24
240.517	-74.07
240.735	-49.49
240.952	173.74
241.169	110.25
241.386	67.24
241.603	95.91
241.821	-14.68
242.038	24.23
242.255	91.82
242.472	1.71
242.689	183.98
242.907	77.48
243.124	145.06
243.341	63.15
243.558	9.9
243.775	-16.73
243.992	-59.73
244.209	83.63
244.426	140.97
244.643	-8.53
244.86	-10.58
245.078	102.06
245.295	5.8
245.512	69.29
245.729	-67.92
245.946	61.1
246.163	145.06
246.38	28.33
246.597	69.29
246.814	-12.63
247.031	83.63
247.248	-10.58
247.464	48.81
247.681	36.52
247.898	67.24
248.115	95.91
248.332	-26.96
248.549	77.48
248.766	194.22
248.983	114.34
249.2	34.47
249.417	73.39
249.633	30.38
249.85	16.04
250.067	-29.01
250.284	-26.96
250.501	22.19
250.717	26.28
250.934	-24.92
251.151	87.72
251.368	71.34
251.585	83.63
251.801	46.76
252.018	-98.64
252.235	89.77
252.451	-10.58
252.668	63.15
252.885	134.82
253.102	38.57
253.318	-0.34
253.535	-59.73
253.752	36.52
253.968	-4.44
254.185	-29.01
254.401	34.47
254.618	-31.06
254.835	32.43
255.051	77.48
255.268	44.71
255.484	7.85
255.701	3.75
255.917	50.86
256.134	-41.3
256.351	44.71
256.567	26.28
256.784	5.8
257	-39.25
257.217	161.45
257.433	100.01
257.65	-31.06
257.866	83.63
258.082	-102.74
258.299	-45.4
258.515	32.43
258.732	20.14
258.948	-10.58
259.165	-4.44
259.381	-57.68
259.597	108.2
259.814	73.39
260.03	-49.49
260.246	22.19
260.463	110.25
260.679	34.47
260.895	59.05
261.112	40.62
261.328	3.75
261.544	-16.73
261.761	190.12
261.977	16.04
262.193	-55.64
262.409	91.82
262.626	46.76
262.842	85.67
263.058	16.04
263.274	69.29
263.49	91.82
263.707	97.96
263.923	34.47
264.139	-98.64
264.355	11.95
264.571	75.43
264.787	54.95
265.004	163.5
265.22	26.28
265.436	16.04
265.652	-31.06
265.868	54.95
266.084	11.95
266.3	24.23
266.516	22.19
266.732	122.54
266.948	16.04
267.164	-37.2
267.38	124.58
267.596	42.67
267.812	143.02
268.028	50.86
268.244	-80.21
268.46	112.3
268.676	-33.11
268.892	38.57
269.108	-47.44
269.324	-35.16
269.54	-47.44
269.756	50.86
269.972	-53.59
270.188	44.71
270.403	-104.79
270.619	16.04
270.835	59.05
271.051	81.58
271.267	30.38
271.483	26.28
271.698	67.24
271.914	13.99
272.13	-37.2
272.346	24.23
272.562	77.48
272.777	149.16
272.993	1.71
273.209	-26.96
273.425	122.54
273.64	-74.07
273.856	163.5
274.072	3.75
274.287	-26.96
274.503	67.24
274.719	75.43
274.934	26.28
275.15	-59.73
275.366	54.95
275.581	-24.92
275.797	36.52
276.012	24.23
276.228	-8.53
276.444	42.67
276.659	118.44
276.875	34.47
277.09	114.34
277.306	28.33
277.521	61.1
277.737	69.29
277.952	118.44
278.168	106.15
278.383	-16.73
278.599	73.39
278.814	198.31
279.03	7.85
279.245	122.54
279.461	97.96
279.676	97.96
279.892	-92.5
280.107	-0.34
280.322	-72.02
280.538	75.43
280.753	-12.63
280.969	3.75
281.184	42.67
281.399	118.44
281.615	63.15
281.83	42.67
282.045	-39.25
282.26	48.81
282.476	79.53
282.691	126.63
282.906	132.78
283.122	48.81
283.337	-20.82
283.552	-8.53
283.767	-14.68
283.983	34.47
284.198	26.28
284.413	75.43
284.628	50.86
284.843	85.67
285.058	120.49
285.274	42.67
285.489	-88.4
285.704	95.91
285.919	-76.12
286.134	91.82
286.349	-14.68
286.564	9.9
286.779	93.87
286.995	18.09
287.21	-135.51
287.425	59.05
287.64	34.47
287.855	11.95
288.07	-49.49
288.285	48.81
288.5	85.67
288.715	30.38
288.93	63.15
289.145	-41.3
289.36	36.52
289.575	57
289.79	79.53
290.004	3.75
290.219	83.63
290.434	-39.25
290.649	24.23
290.864	-18.77
291.079	-65.88
291.294	22.19
291.509	32.43
291.724	-2.39
291.938	-0.34
292.153	65.19
292.368	18.09
292.583	149.16
292.798	112.3
293.012	57
293.227	28.33
293.442	-18.77
293.657	102.06
293.871	100.01
294.086	11.95
294.301	167.59
294.516	200.36
294.73	-2.39
294.945	-43.35
295.16	-51.54
295.374	79.53
295.589	134.82
295.804	11.95
296.018	13.99
296.233	87.72
296.447	34.47
296.662	1.71
296.877	128.68
297.091	89.77
297.306	26.28
297.52	-26.96
297.735	57
297.949	93.87
298.164	50.86
298.378	63.15
298.593	-41.3
298.807	-45.4
299.022	73.39
299.236	57
299.451	16.04
299.665	20.14
299.88	-26.96
300.094	100.01
300.309	-10.58
300.523	65.19
300.737	13.99
300.952	34.47
301.166	112.3
301.381	-6.49
301.595	9.9
301.809	36.52
302.024	20.14
302.238	-33.11
302.452	81.58
302.667	91.82
302.881	181.93
303.095	91.82
303.309	57
303.524	52.91
303.738	9.9
303.952	-96.6
304.166	102.06
304.381	-178.51
304.595	120.49
304.809	1.71
305.023	-24.92
305.237	9.9
305.452	-16.73
305.666	112.3
305.88	122.54
306.094	114.34
306.308	50.86
306.522	83.63
306.736	48.81
306.95	50.86
307.164	-4.44
307.379	32.43
307.593	204.46
307.807	67.24
308.021	114.34
308.235	91.82
308.449	-67.92
308.663	61.1
308.877	241.32
309.091	-12.63
309.305	97.96
309.519	-76.12
309.733	169.64
309.947	-39.25
310.161	-47.44
310.374	132.78
310.588	124.58
310.802	-22.87
311.016	9.9
311.23	73.39
311.444	-49.49
311.658	95.91
311.872	167.59
312.085	83.63
312.299	114.34
312.513	118.44
312.727	-18.77
312.941	-88.4
313.154	22.19
313.368	26.28
313.582	34.47
313.796	28.33
314.009	75.43
314.223	91.82
314.437	140.97
314.651	57
314.864	34.47
315.078	24.23
315.292	-35.16
315.505	57
315.719	46.76
315.933	77.48
316.146	3.75
316.36	-65.88
316.573	147.11
316.787	65.19
317.001	52.91
317.214	-65.88
317.428	87.72
317.641	-0.34
317.855	52.91
318.068	54.95
318.282	3.75
318.495	151.21
318.709	73.39
318.922	42.67
319.136	202.41
319.349	102.06
319.563	9.9
319.776	26.28
319.99	-47.44
320.203	89.77
320.417	32.43
320.63	128.68
320.843	93.87
321.057	71.34
321.27	-10.58
321.483	40.62
321.697	183.98
321.91	5.8
322.124	44.71
322.337	128.68
322.55	20.14
322.763	16.04
322.977	106.15
323.19	-26.96
323.403	97.96
323.617	54.95
323.83	163.5
324.043	-49.49
324.256	26.28
324.469	-41.3
324.683	38.57
324.896	30.38
325.109	65.19
325.322	-78.16
325.535	120.49
325.748	71.34
325.962	-20.82
326.175	65.19
326.388	22.19
326.601	93.87
326.814	16.04
327.027	28.33
327.24	181.93
327.453	-39.25
327.666	24.23
327.879	159.4
328.092	67.24
328.305	116.39
328.518	-16.73
328.731	-4.44
328.944	26.28
329.157	36.52
329.37	13.99
329.583	186.02
329.796	122.54
330.009	38.57
330.222	171.69
330.435	20.14
330.648	46.76
330.861	-24.92
331.073	59.05
331.286	73.39
331.499	-16.73
331.712	20.14
331.925	18.09
332.138	52.91
332.35	130.73
332.563	-22.87
332.776	87.72
332.989	-51.54
333.202	22.19
333.414	-16.73
333.627	-14.68
333.84	44.71
334.053	18.09
334.265	-43.35
334.478	-43.35
334.691	11.95
334.903	48.81
335.116	-24.92
335.329	-18.77
335.541	52.91
335.754	167.59
335.966	16.04
336.179	54.95
336.392	24.23
336.604	1.71
336.817	106.15
337.029	32.43
337.242	32.43
337.454	122.54
337.667	57
337.88	132.78
338.092	65.19
338.305	57
338.517	-26.96
338.729	79.53
338.942	32.43
339.154	-53.59
339.367	-6.49
339.579	46.76
339.792	-67.92
340.004	65.19
340.217	52.91
340.429	-12.63
340.641	-33.11
340.854	-37.2
341.066	26.28
341.278	177.83
341.491	239.27
341.703	46.76
341.915	-39.25
342.128	155.3
342.34	67.24
342.552	-29.01
342.764	52.91
342.977	20.14
343.189	100.01
343.401	-8.53
343.613	-158.03
343.826	57
344.038	18.09
344.25	28.33
344.462	46.76
344.674	83.63
344.886	52.91
345.099	-4.44
345.311	102.06
345.523	16.04
345.735	-69.97
345.947	46.76
346.159	52.91
346.371	30.38
346.583	38.57
346.795	212.65
347.007	32.43
347.219	79.53
347.431	16.04
347.643	112.3
347.855	24.23
348.067	171.69
348.279	-55.64
348.491	-49.49
348.703	48.81
348.915	75.43
349.127	26.28
349.339	59.05
349.551	20.14
349.763	147.11
349.975	16.04
350.187	44.71
350.399	106.15
350.61	3.75
350.822	-0.34
351.034	81.58
351.246	93.87
351.458	122.54
351.669	112.3
351.881	59.05
352.093	167.59
352.305	104.11
352.517	67.24
352.728	44.71
352.94	110.25
353.152	73.39
353.363	13.99
353.575	44.71
353.787	149.16
353.999	40.62
354.21	126.63
354.422	36.52
354.633	52.91
354.845	-10.58
355.057	93.87
355.268	54.95
355.48	145.06
355.692	-10.58
355.903	-10.58
356.115	11.95
356.326	-59.73
356.538	196.26
356.749	9.9
356.961	167.59
357.172	3.75
357.384	-10.58
357.595	177.83
357.807	65.19
358.018	-24.92
358.23	52.91
358.441	114.34
358.653	79.53
358.864	81.58
359.075	26.28
359.287	38.57
359.498	65.19
359.709	54.95
359.921	3.75
360.132	91.82
360.344	40.62
360.555	22.19
360.766	61.1
360.977	34.47
361.189	112.3
361.4	67.24
361.611	73.39
361.823	198.31
362.034	28.33
362.245	-69.97
362.456	36.52
362.667	83.63
362.879	-78.16
363.09	28.33
363.301	116.39
363.512	-18.77
363.723	34.47
363.935	-16.73
364.146	118.44
364.357	-20.82
364.568	71.34
364.779	-43.35
364.99	143.02
365.201	5.8
365.412	112.3
365.623	-104.79
365.834	71.34
366.045	85.67
366.256	20.14
366.467	28.33
366.678	-6.49
366.889	-78.16
367.1	-31.06
367.311	116.39
367.522	52.91
367.733	52.91
367.944	44.71
368.155	40.62
368.366	104.11
368.577	157.35
368.788	24.23
368.999	-47.44
369.209	32.43
369.42	128.68
369.631	210.6
369.842	102.06
370.053	-0.34
370.264	81.58
370.474	-72.02
370.685	69.29
370.896	40.62
371.107	77.48
371.317	16.04
371.528	81.58
371.739	126.63
371.95	16.04
372.16	81.58
372.371	-102.74
372.582	13.99
372.792	50.86
373.003	59.05
373.214	79.53
373.424	151.21
373.635	-10.58
373.846	134.82
374.056	11.95
374.267	102.06
374.477	85.67
374.688	-29.01
374.898	108.2
375.109	102.06
375.319	38.57
375.53	145.06
375.74	32.43
375.951	59.05
376.161	149.16
376.372	128.68
376.582	9.9
376.793	46.76
377.003	-10.58
377.214	87.72
377.424	100.01
377.635	44.71
377.845	-24.92
378.055	163.5
378.266	-92.5
378.476	7.85
378.686	20.14
378.897	52.91
379.107	128.68
379.317	69.29
379.528	-29.01
379.738	132.78
379.948	-26.96
380.158	104.11
380.369	79.53
380.579	81.58
380.789	63.15
380.999	100.01
381.21	63.15
381.42	226.98
381.63	-16.73
381.84	91.82
382.05	44.71
382.261	102.06
382.471	100.01
382.681	9.9
382.891	157.35
383.101	87.72
383.311	-39.25
383.521	18.09
383.731	69.29
383.941	40.62
384.151	124.58
384.361	36.52
384.571	32.43
384.781	57
384.991	177.83
385.201	120.49
385.411	118.44
385.621	26.28
385.831	79.53
386.041	-6.49
386.251	-20.82
386.461	73.39
386.671	-37.2
386.881	63.15
387.091	-8.53
387.301	112.3
387.511	30.38
387.72	34.47
387.93	73.39
388.14	-84.31
388.35	75.43
388.56	91.82
388.769	126.63
388.979	44.71
389.189	75.43
389.399	5.8
389.609	13.99
389.818	65.19
390.028	59.05
390.238	81.58
390.447	-6.49
390.657	22.19
390.867	20.14
391.076	-22.87
391.286	16.04
391.496	130.73
391.705	59.05
391.915	120.49
392.125	157.35
392.334	46.76
392.544	222.89
392.753	36.52
392.963	-29.01
393.172	-24.92
393.382	73.39
393.591	149.16
393.801	89.77
394.01	122.54
394.22	42.67
394.429	57
394.639	67.24
394.848	91.82
395.058	24.23
395.267	118.44
395.477	38.57
395.686	104.11
395.895	265.89
396.105	159.4
396.314	95.91
396.524	48.81
396.733	13.99
396.942	89.77
397.152	-16.73
397.361	159.4
397.57	38.57
397.78	26.28
397.989	52.91
398.198	175.78
398.407	-8.53
398.617	3.75
398.826	106.15
399.035	128.68
399.244	30.38
399.453	46.76
399.663	85.67
399.872	83.63
400.081	30.38
400.29	157.35
400.499	3.75
400.708	36.52
400.917	-14.68
401.127	87.72
401.336	-53.59
401.545	186.02
401.754	161.45
401.963	85.67
402.172	59.05
402.381	-39.25
402.59	-26.96
402.799	46.76
403.008	73.39
403.217	32.43
403.426	61.1
403.635	-6.49
403.844	44.71
404.053	69.29
404.262	1.71
404.471	179.88
404.68	108.2
404.888	54.95
405.097	1.71
405.306	26.28
405.515	42.67
405.724	-31.06
405.933	163.5
406.142	130.73
406.35	100.01
406.559	-84.31
406.768	3.75
406.977	65.19
407.185	52.91
407.394	30.38
407.603	-53.59
407.812	71.34
408.02	91.82
408.229	34.47
408.438	59.05
408.646	-106.84
408.855	59.05
409.064	71.34
409.272	-35.16
409.481	95.91
409.69	-12.63
409.898	-94.55
410.107	93.87
410.315	38.57
410.524	-33.11
410.733	52.91
410.941	-45.4
411.15	104.11
411.358	87.72
411.567	167.59
411.775	16.04
411.984	52.91
412.192	32.43
412.401	-10.58
412.609	149.16
412.818	106.15
413.026	75.43
413.234	-24.92
413.443	46.76
413.651	-20.82
413.86	-2.39
414.068	130.73
414.276	153.26
414.485	-49.49
414.693	167.59
414.901	204.46
415.11	104.11
415.318	63.15
415.526	95.91
415.734	67.24
415.943	91.82
416.151	108.2
416.359	100.01
416.567	-26.96
416.776	95.91
416.984	106.15
417.192	216.74
417.4	54.95
417.608	32.43
417.817	50.86
418.025	71.34
418.233	220.84
418.441	-45.4
418.649	63.15
418.857	65.19
419.065	120.49
419.273	79.53
419.481	114.34
419.689	-2.39
419.897	24.23
420.105	-39.25
420.313	65.19
420.521	93.87
420.729	83.63
420.937	18.09
421.145	-8.53
421.353	229.03
421.561	167.59
421.769	157.35
421.977	-2.39
422.185	100.01
422.393	32.43
422.601	126.63
422.809	73.39
423.017	85.67
423.224	67.24
423.432	145.06
423.64	59.05
423.848	77.48
424.056	48.81
424.263	183.98
424.471	20.14
424.679	118.44
424.887	16.04
425.094	126.63
425.302	5.8
425.51	75.43
425.718	145.06
425.925	-6.49
426.133	-33.11
426.341	265.89
426.548	106.15
426.756	50.86
426.964	118.44
427.171	-29.01
427.379	124.58
427.586	110.25
427.794	130.73
428.001	196.26
428.209	16.04
428.417	114.34
428.624	220.84
428.832	157.35
429.039	-20.82
429.247	104.11
429.454	128.68
429.662	165.54
429.869	147.11
430.076	54.95
430.284	145.06
430.491	212.65
430.699	134.82
430.906	204.46
431.114	120.49
431.321	136.87
431.528	130.73
431.736	175.78
431.943	169.64
432.15	265.89
432.358	159.4
432.565	282.28
432.772	44.71
432.979	216.74
433.187	143.02
433.394	200.36
433.601	138.92
433.808	282.28
434.016	239.27
434.223	208.55
434.43	229.03
434.637	208.55
434.844	263.85
435.052	263.85
435.259	286.37
435.466	272.04
435.673	247.46
435.88	343.72
436.087	353.96
436.294	331.43
436.501	341.67
436.708	337.57
436.915	460.45
437.122	345.77
437.329	396.96
437.537	302.76
437.743	321.19
437.95	517.79
438.157	444.07
438.364	427.68
438.571	382.63
438.778	499.36
438.985	460.45
439.192	542.37
439.399	454.31
439.606	646.82
439.813	585.38
440.02	687.78
440.227	718.5
440.433	640.67
440.64	591.52
440.847	571.04
441.054	661.15
441.261	812.7
441.467	726.69
441.674	700.06
441.881	751.26
442.088	792.22
442.294	900.76
442.501	970.4
442.708	992.92
442.914	870.05
443.121	863.9
443.328	1001.12
443.534	1087.13
443.741	1029.79
443.948	970.4
444.154	1144.47
444.361	1281.69
444.568	1222.3
444.774	1302.17
444.981	1093.27
445.187	1439.38
445.394	1341.08
445.6	1367.7
445.807	1519.25
446.013	1445.52
446.22	1476.24
446.426	1693.33
446.633	1713.81
446.839	2039.44
447.046	1697.42
447.252	1898.13
447.459	1801.87
447.665	1840.78
447.871	2092.68
448.078	2182.79
448.284	2254.47
448.491	2352.77
448.697	2320.01
448.903	2571.91
449.11	2469.51
449.316	2651.78
449.522	2743.94
449.728	2844.29
449.935	2907.77
450.141	2920.06
450.347	3249.79
450.553	3077.76
450.76	3212.92
450.966	3425.91
451.172	3473.01
451.378	3647.09
451.584	3634.8
451.791	3939.95
451.997	3997.29
452.203	4134.51
452.409	4335.21
452.615	4521.57
452.821	4533.86
453.027	4564.58
453.233	5135.96
453.44	4830.82
453.646	5078.62
453.852	5303.9
454.058	5621.33
454.264	5856.85
454.47	6151.76
454.676	6055.5
454.882	6831.68
455.088	6407.75
455.294	6950.46
455.5	7183.93
455.705	7661.11
455.911	7687.73
456.117	7953.97
456.323	8214.06
456.529	8056.37
456.735	8752.68
456.941	9006.63
457.147	9401.88
457.352	9717.27
457.558	9922.07
457.764	10645
457.97	10829.32
458.176	11341.31
458.381	11859.45
458.587	11939.32
458.793	12793.32
458.999	12537.32
459.204	14439.89
459.41	14611.92
459.616	14648.78
459.821	15367.62
460.027	16147.89
460.233	17018.28
460.438	16928.17
460.644	17829.27
460.85	17892.76
461.055	18584.98
461.261	19469.7
461.466	19318.15
461.672	19959.16
461.878	22132.06
462.083	21632.35
462.289	22238.55
462.494	22979.92
462.7	22965.58
462.905	23473.48
463.111	25343.27
463.316	26381.59
463.522	26830.1
463.727	27798.79
463.932	29070.58
464.138	29830.37
464.343	30954.71
464.549	31526.09
464.754	33426.6
464.959	34247.84
465.165	35085.46
465.37	34643.1
465.575	35288.21
465.781	37475.44
465.986	38231.14
466.191	37618.8
466.397	38239.33
466.602	37231.73
466.807	39220.31
467.012	39826.51
467.218	40264.77
467.423	40756.28
467.628	41915.44
467.833	43779.09
468.038	42873.88
468.244	42234.92
468.449	44549.12
