Data from USB4F104151__18__10-23-32-047.txt Node

Date: Wed Feb 26 10:23:32 EST 2025
User: louis
Spectrometer: USB4F10415
Trigger mode: 4
Integration Time (sec): 1.000000E-1
Scans to average: 1
Electric dark correction enabled: true
Nonlinearity correction enabled: false
Boxcar width: 0
XAxis mode: Wavelengths
Number of Pixels in Spectrum: 3648
>>>>>Begin Spectral Data<<<<<
178.204	-380.92
178.424	-380.92
178.644	-380.92
178.864	-397.31
179.084	-387.07
179.304	-24.58
179.524	-71.68
179.744	55.3
179.964	90.11
180.184	24.58
180.404	-61.44
180.624	28.67
180.844	-100.35
181.064	-22.53
181.283	51.2
181.503	20.48
181.723	10.24
181.943	-129.02
182.163	219.13
182.383	-18.43
182.602	22.53
182.822	104.45
183.042	112.64
183.262	-59.39
183.482	20.48
183.701	20.48
183.921	49.15
184.141	-69.63
184.361	81.92
184.58	81.92
184.8	114.69
185.02	-131.07
185.239	100.35
185.459	40.96
185.679	169.98
185.898	-86.01
186.118	92.16
186.338	-38.91
186.557	94.21
186.777	-61.44
186.997	-12.29
187.216	28.67
187.436	174.08
187.655	26.62
187.875	135.17
188.095	20.48
188.314	141.31
188.534	143.36
188.753	-114.69
188.973	145.41
189.192	106.49
189.412	0
189.631	2.05
189.851	108.54
190.07	184.32
190.29	-32.77
190.509	-30.72
190.729	110.59
190.948	149.5
191.168	208.89
191.387	133.12
191.607	-14.34
191.826	61.44
192.045	-10.24
192.265	-20.48
192.484	40.96
192.704	38.91
192.923	-34.82
193.142	262.14
193.362	147.45
193.581	143.36
193.8	88.06
194.02	4.1
194.239	90.11
194.458	110.59
194.678	-6.14
194.897	-32.77
195.116	49.15
195.335	10.24
195.555	90.11
195.774	14.34
195.993	157.69
196.212	45.06
196.432	14.34
196.651	-32.77
196.87	26.62
197.089	186.37
197.308	59.39
197.528	59.39
197.747	-55.3
197.966	49.15
198.185	122.88
198.404	-51.2
198.623	102.4
198.842	133.12
199.062	116.73
199.281	65.54
199.5	32.77
199.719	100.35
199.938	102.4
200.157	67.58
200.376	129.02
200.595	98.3
200.814	4.1
201.033	24.58
201.252	143.36
201.471	38.91
201.69	55.3
201.909	22.53
202.128	90.11
202.347	67.58
202.566	-28.67
202.785	-110.59
203.004	-73.73
203.223	237.56
203.442	98.3
203.661	-71.68
203.879	94.21
204.098	131.07
204.317	-32.77
204.536	88.06
204.755	12.29
204.974	88.06
205.193	65.54
205.411	165.89
205.63	63.49
205.849	102.4
206.068	18.43
206.287	22.53
206.505	79.87
206.724	-24.58
206.943	-45.06
207.162	-36.86
207.381	75.77
207.599	-24.58
207.818	55.3
208.037	-63.49
208.255	8.19
208.474	51.2
208.693	4.1
208.911	30.72
209.13	77.82
209.349	81.92
209.567	135.17
209.786	92.16
210.005	-14.34
210.223	-24.58
210.442	-40.96
210.661	-12.29
210.879	36.86
211.098	26.62
211.316	106.49
211.535	126.97
211.753	45.06
211.972	30.72
212.191	-20.48
212.409	47.1
212.628	65.54
212.846	-6.14
213.065	-6.14
213.283	131.07
213.502	-38.91
213.72	55.3
213.938	57.34
214.157	2.05
214.375	69.63
214.594	-32.77
214.812	28.67
215.031	-45.06
215.249	-24.58
215.467	77.82
215.686	22.53
215.904	96.25
216.122	14.34
216.341	145.41
216.559	4.1
216.778	83.97
216.996	77.82
217.214	-57.34
217.432	36.86
217.651	-63.49
217.869	100.35
218.087	57.34
218.306	-81.92
218.524	51.2
218.742	-6.14
218.96	96.25
219.179	-38.91
219.397	20.48
219.615	180.22
219.833	79.87
220.051	-51.2
220.27	10.24
220.488	77.82
220.706	12.29
220.924	-65.53
221.142	-51.2
221.36	55.3
221.578	75.77
221.796	-26.62
222.015	-51.2
222.233	79.87
222.451	217.08
222.669	-30.72
222.887	65.54
223.105	-47.1
223.323	10.24
223.541	-57.34
223.759	24.58
223.977	-20.48
224.195	122.88
224.413	131.07
224.631	8.19
224.849	63.49
225.067	133.12
225.285	40.96
225.503	16.38
225.721	-92.16
225.939	22.53
226.157	100.35
226.375	143.36
226.592	2.05
226.81	-32.77
227.028	45.06
227.246	83.97
227.464	110.59
227.682	133.12
227.9	118.78
228.117	20.48
228.335	86.01
228.553	24.58
228.771	4.1
228.989	40.96
229.206	67.58
229.424	45.06
229.642	12.29
229.86	-8.19
230.077	65.54
230.295	26.62
230.513	86.01
230.731	94.21
230.948	204.8
231.166	126.97
231.384	40.96
231.601	-12.29
231.819	163.84
232.037	14.34
232.254	-18.43
232.472	26.62
232.689	16.38
232.907	57.34
233.125	-8.19
233.342	-24.58
233.56	43.01
233.777	12.29
233.995	61.44
234.213	55.3
234.43	53.25
234.648	94.21
234.865	49.15
235.083	16.38
235.3	145.41
235.518	61.44
235.735	135.17
235.953	18.43
236.17	2.05
236.388	10.24
236.605	24.58
236.822	129.02
237.04	165.89
237.257	73.73
237.475	18.43
237.692	18.43
237.909	57.34
238.127	-2.05
238.344	88.06
238.562	71.68
238.779	-65.53
238.996	-67.58
239.214	-14.34
239.431	18.43
239.648	45.06
239.865	94.21
240.083	53.25
240.3	-28.67
240.517	10.24
240.735	32.77
240.952	88.06
241.169	49.15
241.386	40.96
241.603	83.97
241.821	-18.43
242.038	79.87
242.255	124.93
242.472	-30.72
242.689	38.91
242.907	71.68
243.124	8.19
243.341	10.24
243.558	8.19
243.775	-34.82
243.992	-110.59
244.209	22.53
244.426	133.12
244.643	79.87
244.86	-32.77
245.078	118.78
245.295	98.3
245.512	12.29
245.729	-16.38
245.946	45.06
246.163	24.58
246.38	36.86
246.597	79.87
246.814	4.1
247.031	4.1
247.248	6.14
247.464	102.4
247.681	24.58
247.898	81.92
248.115	92.16
248.332	-4.1
248.549	157.69
248.766	110.59
248.983	100.35
249.2	51.2
249.417	120.83
249.633	-71.68
249.85	86.01
250.067	-12.29
250.284	61.44
250.501	118.78
250.717	57.34
250.934	-67.58
251.151	20.48
251.368	75.77
251.585	12.29
251.801	55.3
252.018	-40.96
252.235	106.49
252.451	-16.38
252.668	-32.77
252.885	143.36
253.102	28.67
253.318	2.05
253.535	-26.62
253.752	-12.29
253.968	63.49
254.185	-4.1
254.401	20.48
254.618	98.3
254.835	-59.39
255.051	55.3
255.268	16.38
255.484	120.83
255.701	65.54
255.917	10.24
256.134	0
256.351	24.58
256.567	-6.14
256.784	16.38
257	-24.58
257.217	8.19
257.433	137.21
257.65	79.87
257.866	141.31
258.082	-6.14
258.299	-59.39
258.515	81.92
258.732	-30.72
258.948	-32.77
259.165	102.4
259.381	-12.29
259.597	22.53
259.814	-12.29
260.03	-32.77
260.246	-100.35
260.463	53.25
260.679	77.82
260.895	-20.48
261.112	88.06
261.328	-20.48
261.544	-77.82
261.761	217.08
261.977	-12.29
262.193	-18.43
262.409	94.21
262.626	67.58
262.842	-28.67
263.058	-36.86
263.274	98.3
263.49	51.2
263.707	59.39
263.923	61.44
264.139	-96.25
264.355	-6.14
264.571	102.4
264.787	51.2
265.004	104.45
265.22	-24.58
265.436	-20.48
265.652	-71.68
265.868	94.21
266.084	6.14
266.3	2.05
266.516	-49.15
266.732	-4.1
266.948	-61.44
267.164	2.05
267.38	90.11
267.596	-4.1
267.812	86.01
268.028	61.44
268.244	-6.14
268.46	61.44
268.676	24.58
268.892	30.72
269.108	-57.34
269.324	-73.73
269.54	-38.91
269.756	47.1
269.972	-36.86
270.188	16.38
270.403	-12.29
270.619	94.21
270.835	86.01
271.051	8.19
271.267	-55.3
271.483	-59.39
271.698	73.73
271.914	110.59
272.13	4.1
272.346	-92.16
272.562	43.01
272.777	126.97
272.993	-34.82
273.209	-20.48
273.425	45.06
273.64	-47.1
273.856	65.54
274.072	-49.15
274.287	-51.2
274.503	51.2
274.719	67.58
274.934	-63.49
275.15	-16.38
275.366	43.01
275.581	-10.24
275.797	30.72
276.012	67.58
276.228	-45.06
276.444	47.1
276.659	94.21
276.875	14.34
277.09	16.38
277.306	-8.19
277.521	69.63
277.737	53.25
277.952	75.77
278.168	20.48
278.383	32.77
278.599	47.1
278.814	59.39
279.03	-24.58
279.245	81.92
279.461	36.86
279.676	51.2
279.892	-53.25
280.107	-14.34
280.322	-8.19
280.538	86.01
280.753	51.2
280.969	-32.77
281.184	32.77
281.399	153.6
281.615	71.68
281.83	2.05
282.045	-63.49
282.26	-10.24
282.476	-2.05
282.691	92.16
282.906	61.44
283.122	104.45
283.337	-92.16
283.552	108.54
283.767	-53.25
283.983	20.48
284.198	6.14
284.413	73.73
284.628	-49.15
284.843	34.82
285.058	43.01
285.274	10.24
285.489	6.14
285.704	112.64
285.919	30.72
286.134	-12.29
286.349	10.24
286.564	28.67
286.779	102.4
286.995	-8.19
287.21	-114.69
287.425	4.1
287.64	4.1
287.855	36.86
288.07	-28.67
288.285	153.6
288.5	65.54
288.715	83.97
288.93	45.06
289.145	55.3
289.36	120.83
289.575	-34.82
289.79	116.73
290.004	36.86
290.219	147.45
290.434	-51.2
290.649	-61.44
290.864	24.58
291.079	59.39
291.294	36.86
291.509	14.34
291.724	16.38
291.938	20.48
292.153	67.58
292.368	-26.62
292.583	-12.29
292.798	129.02
293.012	-10.24
293.227	69.63
293.442	-14.34
293.657	94.21
293.871	135.17
294.086	10.24
294.301	135.17
294.516	118.78
294.73	94.21
294.945	26.62
295.16	26.62
295.374	141.31
295.589	92.16
295.804	-49.15
296.018	108.54
296.233	114.69
296.447	-22.53
296.662	43.01
296.877	163.84
297.091	77.82
297.306	88.06
297.52	-4.1
297.735	69.63
297.949	55.3
298.164	32.77
298.378	-4.1
298.593	22.53
298.807	-122.88
299.022	-4.1
299.236	102.4
299.451	-59.39
299.665	55.3
299.88	28.67
300.094	83.97
300.309	0
300.523	18.43
300.737	-32.77
300.952	92.16
301.166	14.34
301.381	-47.1
301.595	-61.44
301.809	102.4
302.024	102.4
302.238	16.38
302.452	139.26
302.667	38.91
302.881	100.35
303.095	90.11
303.309	8.19
303.524	-4.1
303.738	-36.86
303.952	-34.82
304.166	47.1
304.381	-69.63
304.595	135.17
304.809	22.53
305.023	67.58
305.237	-28.67
305.452	32.77
305.666	22.53
305.88	24.58
306.094	108.54
306.308	88.06
306.522	57.34
306.736	-2.05
306.95	106.49
307.164	75.77
307.379	-20.48
307.593	110.59
307.807	88.06
308.021	65.54
308.235	6.14
308.449	-43.01
308.663	40.96
308.877	231.42
309.091	108.54
309.305	32.77
309.519	-118.78
309.733	137.21
309.947	-20.48
310.161	63.49
310.374	73.73
310.588	63.49
310.802	-26.62
311.016	8.19
311.23	26.62
311.444	-67.58
311.658	79.87
311.872	79.87
312.085	106.49
312.299	204.8
312.513	124.93
312.727	34.82
312.941	-4.1
313.154	59.39
313.368	77.82
313.582	16.38
313.796	57.34
314.009	22.53
314.223	106.49
314.437	90.11
314.651	81.92
314.864	53.25
315.078	4.1
315.292	-36.86
315.505	67.58
315.719	81.92
315.933	71.68
316.146	22.53
316.36	-51.2
316.573	116.73
316.787	34.82
317.001	67.58
317.214	-51.2
317.428	43.01
317.641	2.05
317.855	36.86
318.068	10.24
318.282	65.54
318.495	102.4
318.709	141.31
318.922	122.88
319.136	65.54
319.349	83.97
319.563	-14.34
319.776	32.77
319.99	-98.3
320.203	83.97
320.417	-100.35
320.63	57.34
320.843	161.79
321.057	59.39
321.27	81.92
321.483	69.63
321.697	133.12
321.91	47.1
322.124	2.05
322.337	73.73
322.55	-8.19
322.763	-22.53
322.977	-4.1
323.19	4.1
323.403	36.86
323.617	77.82
323.83	135.17
324.043	122.88
324.256	-26.62
324.469	-30.72
324.683	172.03
324.896	24.58
325.109	-26.62
325.322	-32.77
325.535	-28.67
325.748	63.49
325.962	30.72
326.175	69.63
326.388	40.96
326.601	102.4
326.814	-51.2
327.027	73.73
327.24	157.69
327.453	-40.96
327.666	63.49
327.879	122.88
328.092	32.77
328.305	38.91
328.518	24.58
328.731	16.38
328.944	10.24
329.157	-4.1
329.37	10.24
329.583	167.93
329.796	129.02
330.009	-124.93
330.222	28.67
330.435	149.5
330.648	49.15
330.861	24.58
331.073	55.3
331.286	155.65
331.499	71.68
331.712	-71.68
331.925	40.96
332.138	61.44
332.35	110.59
332.563	30.72
332.776	102.4
332.989	14.34
333.202	-53.25
333.414	38.91
333.627	22.53
333.84	-55.3
334.053	53.25
334.265	-24.58
334.478	61.44
334.691	-79.87
334.903	77.82
335.116	-49.15
335.329	61.44
335.541	49.15
335.754	184.32
335.966	-49.15
336.179	12.29
336.392	-2.05
336.604	14.34
336.817	131.07
337.029	59.39
337.242	104.45
337.454	104.45
337.667	16.38
337.88	124.93
338.092	-6.14
338.305	184.32
338.517	-73.73
338.729	71.68
338.942	67.58
339.154	-61.44
339.367	-61.44
339.579	120.83
339.792	-36.86
340.004	104.45
340.217	28.67
340.429	12.29
340.641	-28.67
340.854	-55.3
341.066	49.15
341.278	188.41
341.491	176.13
341.703	59.39
341.915	-28.67
342.128	71.68
342.34	-4.1
342.552	-55.3
342.764	-24.58
342.977	40.96
343.189	43.01
343.401	43.01
343.613	28.67
343.826	-12.29
344.038	-16.38
344.25	10.24
344.462	-51.2
344.674	53.25
344.886	-49.15
345.099	26.62
345.311	30.72
345.523	4.1
345.735	-98.3
345.947	-16.38
346.159	79.87
346.371	8.19
346.583	32.77
346.795	225.28
347.007	73.73
347.219	67.58
347.431	71.68
347.643	83.97
347.855	20.48
348.067	90.11
348.279	-22.53
348.491	79.87
348.703	32.77
348.915	-22.53
349.127	61.44
349.339	59.39
349.551	2.05
349.763	106.49
349.975	73.73
350.187	135.17
350.399	157.69
350.61	98.3
350.822	18.43
351.034	28.67
351.246	40.96
351.458	65.54
351.669	36.86
351.881	14.34
352.093	139.26
352.305	126.97
352.517	4.1
352.728	104.45
352.94	67.58
353.152	-14.34
353.363	-47.1
353.575	28.67
353.787	133.12
353.999	110.59
354.21	137.21
354.422	40.96
354.633	30.72
354.845	32.77
355.057	47.1
355.268	40.96
355.48	120.83
355.692	-65.53
355.903	71.68
356.115	-63.49
356.326	-65.53
356.538	81.92
356.749	30.72
356.961	161.79
357.172	30.72
357.384	4.1
357.595	231.42
357.807	-34.82
358.018	16.38
358.23	22.53
358.441	96.25
358.653	18.43
358.864	65.54
359.075	-43.01
359.287	110.59
359.498	94.21
359.709	98.3
359.921	-12.29
360.132	-6.14
360.344	81.92
360.555	4.1
360.766	94.21
360.977	32.77
361.189	137.21
361.4	0
361.611	106.49
361.823	73.73
362.034	79.87
362.245	-28.67
362.456	-22.53
362.667	79.87
362.879	-18.43
363.09	98.3
363.301	40.96
363.512	18.43
363.723	36.86
363.935	-45.06
364.146	51.2
364.357	61.44
364.568	-10.24
364.779	-40.96
364.99	131.07
365.201	-53.25
365.412	94.21
365.623	-86.01
365.834	-14.34
366.045	69.63
366.256	135.17
366.467	102.4
366.678	28.67
366.889	92.16
367.1	-36.86
367.311	65.54
367.522	-40.96
367.733	36.86
367.944	49.15
368.155	36.86
368.366	75.77
368.577	112.64
368.788	163.84
368.999	-28.67
369.209	-34.82
369.42	241.66
369.631	223.23
369.842	45.06
370.053	40.96
370.264	98.3
370.474	57.34
370.685	129.02
370.896	61.44
371.107	104.45
371.317	40.96
371.528	-18.43
371.739	55.3
371.95	112.64
372.16	32.77
372.371	47.1
372.582	49.15
372.792	65.54
373.003	6.14
373.214	22.53
373.424	104.45
373.635	-8.19
373.846	129.02
374.056	65.54
374.267	38.91
374.477	86.01
374.688	-34.82
374.898	16.38
375.109	26.62
375.319	65.54
375.53	65.54
375.74	149.5
375.951	-38.91
376.161	36.86
376.372	98.3
376.582	20.48
376.793	51.2
377.003	-61.44
377.214	-30.72
377.424	59.39
377.635	14.34
377.845	-49.15
378.055	94.21
378.266	-88.06
378.476	-69.63
378.686	79.87
378.897	26.62
379.107	135.17
379.317	40.96
379.528	6.14
379.738	57.34
379.948	-26.62
380.158	63.49
380.369	24.58
380.579	75.77
380.789	-20.48
380.999	126.97
381.21	120.83
381.42	169.98
381.63	26.62
381.84	77.82
382.05	0
382.261	135.17
382.471	102.4
382.681	-8.19
382.891	102.4
383.101	65.54
383.311	-34.82
383.521	-53.25
383.731	163.84
383.941	71.68
384.151	77.82
384.361	-73.73
384.571	98.3
384.781	24.58
384.991	104.45
385.201	180.22
385.411	161.79
385.621	57.34
385.831	34.82
386.041	-4.1
386.251	49.15
386.461	163.84
386.671	8.19
386.881	-2.05
387.091	-32.77
387.301	108.54
387.511	28.67
387.72	73.73
387.93	116.73
388.14	10.24
388.35	12.29
388.56	77.82
388.769	86.01
388.979	-6.14
389.189	-24.58
389.399	67.58
389.609	90.11
389.818	53.25
390.028	57.34
390.238	59.39
390.447	-34.82
390.657	38.91
390.867	-28.67
391.076	-14.34
391.286	-12.29
391.496	49.15
391.705	-8.19
391.915	180.22
392.125	133.12
392.334	53.25
392.544	133.12
392.753	-12.29
392.963	-47.1
393.172	36.86
393.382	30.72
393.591	165.89
393.801	45.06
394.01	190.46
394.22	90.11
394.429	90.11
394.639	90.11
394.848	-2.05
395.058	-24.58
395.267	-86.01
395.477	124.93
395.686	40.96
395.895	172.03
396.105	104.45
396.314	24.58
396.524	61.44
396.733	-6.14
396.942	151.55
397.152	83.97
397.361	124.93
397.57	26.62
397.78	-4.1
397.989	65.54
398.198	243.71
398.407	14.34
398.617	43.01
398.826	22.53
399.035	34.82
399.244	104.45
399.453	18.43
399.663	104.45
399.872	57.34
400.081	-20.48
400.29	106.49
400.499	-94.21
400.708	112.64
400.917	12.29
401.127	57.34
401.336	16.38
401.545	231.42
401.754	40.96
401.963	47.1
402.172	-43.01
402.381	-129.02
402.59	79.87
402.799	4.1
403.008	104.45
403.217	-4.1
403.426	133.12
403.635	-129.02
403.844	-6.14
404.053	-2.05
404.262	-4.1
404.471	167.93
404.68	10.24
404.888	-6.14
405.097	14.34
405.306	36.86
405.515	169.98
405.724	32.77
405.933	155.65
406.142	18.43
406.35	96.25
406.559	-6.14
406.768	47.1
406.977	120.83
407.185	77.82
407.394	88.06
407.603	-53.25
407.812	-6.14
408.02	172.03
408.229	67.58
408.438	18.43
408.646	26.62
408.855	36.86
409.064	49.15
409.272	-55.3
409.481	-43.01
409.69	-4.1
409.898	4.1
410.107	67.58
410.315	116.73
410.524	51.2
410.733	-6.14
410.941	43.01
411.15	30.72
411.358	71.68
411.567	116.73
411.775	4.1
411.984	73.73
412.192	65.54
412.401	-45.06
412.609	153.6
412.818	106.49
413.026	102.4
413.234	-26.62
413.443	120.83
413.651	28.67
413.86	67.58
414.068	112.64
414.276	210.94
414.485	57.34
414.693	108.54
414.901	94.21
415.11	112.64
415.318	34.82
415.526	-2.05
415.734	108.54
415.943	47.1
416.151	198.65
416.359	2.05
416.567	100.35
416.776	114.69
416.984	86.01
417.192	147.45
417.4	65.54
417.608	32.77
417.817	-75.77
418.025	26.62
418.233	126.97
418.441	-10.24
418.649	34.82
418.857	86.01
419.065	18.43
419.273	18.43
419.481	14.34
419.689	-4.1
419.897	12.29
420.105	20.48
420.313	178.17
420.521	131.07
420.729	141.31
420.937	-79.87
421.145	-53.25
421.353	114.69
421.561	157.69
421.769	86.01
421.977	-36.86
422.185	6.14
422.393	71.68
422.601	114.69
422.809	104.45
423.017	120.83
423.224	141.31
423.432	96.25
423.64	22.53
423.848	188.41
424.056	-20.48
424.263	90.11
424.471	32.77
424.679	131.07
424.887	51.2
425.094	104.45
425.302	94.21
425.51	53.25
425.718	71.68
425.925	75.77
426.133	32.77
426.341	169.98
426.548	12.29
426.756	20.48
426.964	100.35
427.171	36.86
427.379	63.49
427.586	116.73
427.794	114.69
428.001	200.7
428.209	57.34
428.417	126.97
428.624	38.91
428.832	81.92
429.039	100.35
429.247	40.96
429.454	75.77
429.662	221.18
429.869	141.31
430.076	159.74
430.284	198.65
430.491	245.76
430.699	49.15
430.906	260.09
431.114	192.51
431.321	120.83
431.528	145.41
431.736	172.03
431.943	192.51
432.15	212.99
432.358	174.08
432.565	292.86
432.772	90.11
432.979	210.94
433.187	141.31
433.394	280.57
433.601	0
433.808	270.33
434.016	256
434.223	237.56
434.43	217.08
434.637	270.33
434.844	317.44
435.052	296.96
435.259	282.62
435.466	280.57
435.673	223.23
435.88	307.2
436.087	294.91
436.294	311.29
436.501	319.48
436.708	360.44
436.915	329.72
437.122	360.44
437.329	272.38
437.537	286.72
437.743	409.59
437.95	430.07
438.157	421.88
438.364	464.89
438.571	309.24
438.778	581.62
438.985	503.8
439.192	475.13
439.399	419.83
439.606	567.29
439.813	542.71
440.02	620.53
440.227	659.45
440.433	624.63
440.64	546.81
440.847	511.99
441.054	610.29
441.261	772.08
441.467	663.54
441.674	645.11
441.881	759.8
442.088	634.87
442.294	780.28
442.501	872.43
442.708	897.01
442.914	880.63
443.121	921.59
443.328	856.05
443.534	1028.08
443.741	989.17
443.948	966.64
444.154	1001.46
444.361	1202.16
444.568	1148.91
444.774	1036.27
444.981	1128.43
445.187	1337.32
445.394	1222.64
445.6	1267.69
445.807	1462.25
446.013	1382.38
446.22	1327.08
446.426	1523.69
446.633	1634.28
446.839	1777.64
447.046	1503.21
447.252	1798.12
447.459	1724.39
447.665	1716.2
447.871	1986.53
448.078	2035.68
448.284	2144.22
448.491	2168.8
448.697	2291.68
448.903	2367.45
449.11	2504.67
449.316	2379.74
449.522	2719.7
449.728	2678.74
449.935	2729.94
450.141	2637.78
450.347	3037.14
450.553	2940.88
450.76	3063.76
450.966	3098.58
451.172	3313.61
451.378	3356.62
451.584	3518.41
451.791	3809.22
451.997	3915.72
452.203	3874.76
452.409	4149.18
452.615	4452.28
452.821	4267.97
453.027	4110.27
453.233	4841.4
453.44	4642.75
453.646	4857.78
453.852	4970.42
454.058	5312.43
454.264	5441.45
454.47	5826.47
454.676	5873.57
454.882	6322.08
455.088	6074.28
455.294	6330.27
455.5	6922.13
455.705	7190.42
455.911	7159.7
456.117	7460.75
456.323	7780.23
456.529	7602.06
456.735	8322.94
456.941	8478.59
457.147	8898.42
457.352	9060.21
457.558	9275.25
457.764	9916.26
457.97	10114.92
458.176	10657.63
458.381	11040.6
458.587	11536.21
458.793	11722.57
458.999	11988.81
459.204	13301.56
459.41	13846.32
459.616	13524.79
459.821	14393.12
460.027	14941.98
460.233	15722.26
460.438	15613.71
460.644	16848.64
460.85	16951.04
461.055	17286.9
461.261	18431.72
461.466	17927.92
461.672	18292.46
461.878	20444.87
462.083	20188.88
462.289	20854.47
462.494	21675.7
462.7	21313.21
462.905	21823.15
463.111	23766.68
463.316	24964.74
463.522	25300.61
463.727	26050.16
463.932	27199.07
464.138	28241.49
464.343	28980.81
464.549	29226.56
464.754	31297.06
464.959	32163.35
465.165	32701.97
465.37	32273.94
465.575	32810.51
465.781	34285.04
465.986	35669.47
466.191	34964.97
466.397	35251.69
466.602	34633.2
466.807	36533.71
467.012	37141.96
467.218	37825.98
467.423	38063.55
467.628	38739.38
467.833	40484.25
468.038	40109.47
468.244	39388.58
468.449	41289.1
468.654	40504.73
