Data from USB4F104151__94__11-31-45-459.txt Node

Date: Wed Feb 26 11:31:45 EST 2025
User: louis
Spectrometer: USB4F10415
Trigger mode: 4
Integration Time (sec): 1.000000E-1
Scans to average: 1
Electric dark correction enabled: true
Nonlinearity correction enabled: false
Boxcar width: 0
XAxis mode: Wavelengths
Number of Pixels in Spectrum: 3648
>>>>>Begin Spectral Data<<<<<
178.204	-418.47
178.424	-418.47
178.644	-418.47
178.864	-408.23
179.084	-352.93
179.304	-27.31
179.524	-17.07
179.744	11.61
179.964	95.57
180.184	48.47
180.404	5.46
180.624	-6.83
180.844	-47.79
181.064	-6.83
181.283	-58.03
181.503	-17.07
181.723	19.8
181.943	-135.85
182.163	228.69
182.383	46.42
182.602	77.14
182.822	226.64
183.042	126.29
183.262	-39.59
183.482	-37.55
183.701	-27.31
183.921	68.95
184.141	-45.74
184.361	77.14
184.58	163.15
184.8	124.24
185.02	58.71
185.239	58.71
185.459	101.72
185.679	126.29
185.898	-80.55
186.118	58.71
186.338	83.28
186.557	152.91
186.777	-4.78
186.997	-12.97
187.216	66.9
187.436	220.5
187.655	56.66
187.875	124.24
188.095	7.51
188.314	191.83
188.534	212.31
188.753	1.37
188.973	197.97
189.192	212.31
189.412	-6.83
189.631	97.62
189.851	107.86
190.07	140.63
190.29	-23.21
190.509	-74.41
190.729	21.85
190.948	146.77
191.168	230.74
191.387	95.57
191.607	-8.87
191.826	107.86
192.045	17.75
192.265	23.89
192.484	91.48
192.704	44.37
192.923	-10.92
193.142	193.87
193.362	77.14
193.581	136.53
193.8	146.77
194.02	107.86
194.239	97.62
194.458	44.37
194.678	11.61
194.897	-10.92
195.116	56.66
195.335	-31.4
195.555	32.08
195.774	-21.16
195.993	185.68
196.212	13.65
196.432	60.76
196.651	-31.4
196.87	83.28
197.089	187.73
197.308	71
197.528	208.21
197.747	23.89
197.966	64.85
198.185	111.96
198.404	-19.11
198.623	122.2
198.842	118.1
199.062	99.67
199.281	101.72
199.5	-10.92
199.719	81.24
199.938	105.81
200.157	91.48
200.376	120.15
200.595	132.44
200.814	75.09
201.033	3.41
201.252	224.59
201.471	101.72
201.69	87.38
201.909	40.28
202.128	103.76
202.347	87.38
202.566	-15.02
202.785	-107.18
203.004	11.61
203.223	224.59
203.442	58.71
203.661	-64.17
203.879	81.24
204.098	134.48
204.317	-4.78
204.536	85.33
204.755	11.61
204.974	128.34
205.193	-17.07
205.411	144.72
205.63	73.04
205.849	103.76
206.068	27.99
206.287	-15.02
206.505	189.78
206.724	71
206.943	-23.21
207.162	3.41
207.381	54.61
207.599	34.13
207.818	75.09
208.037	-0.68
208.255	38.23
208.474	21.85
208.693	109.91
208.911	83.28
209.13	101.72
209.349	97.62
209.567	132.44
209.786	93.52
210.005	52.56
210.223	19.8
210.442	-123.56
210.661	-0.68
210.879	60.76
211.098	54.61
211.316	-17.07
211.535	46.42
211.753	36.18
211.972	120.15
212.191	-21.16
212.409	52.56
212.628	44.37
212.846	-17.07
213.065	-0.68
213.283	73.04
213.502	83.28
213.72	46.42
213.938	66.9
214.157	32.08
214.375	71
214.594	3.41
214.812	62.8
215.031	25.94
215.249	66.9
215.467	30.04
215.686	1.37
215.904	68.95
216.122	66.9
216.341	148.82
216.559	85.33
216.778	185.68
216.996	144.72
217.214	19.8
217.432	-39.59
217.651	-86.7
217.869	91.48
218.087	-45.74
218.306	15.7
218.524	56.66
218.742	42.32
218.96	97.62
219.179	38.23
219.397	38.23
219.615	157.01
219.833	179.54
220.051	-8.87
220.27	142.68
220.488	128.34
220.706	89.43
220.924	-33.45
221.142	-19.11
221.36	79.19
221.578	50.52
221.796	79.19
222.015	83.28
222.233	97.62
222.451	245.07
222.669	-39.59
222.887	132.44
223.105	44.37
223.323	99.67
223.541	-27.31
223.759	66.9
223.977	66.9
224.195	181.59
224.413	134.48
224.631	91.48
224.849	81.24
225.067	218.45
225.285	11.61
225.503	15.7
225.721	-47.79
225.939	118.1
226.157	56.66
226.375	288.08
226.592	36.18
226.81	-10.92
227.028	150.87
227.246	124.24
227.464	179.54
227.682	15.7
227.9	85.33
228.117	13.65
228.335	152.91
228.553	3.41
228.771	30.04
228.989	71
229.206	83.28
229.424	62.8
229.642	-64.17
229.86	5.46
230.077	122.2
230.295	34.13
230.513	200.02
230.731	152.91
230.948	171.35
231.166	114
231.384	46.42
231.601	27.99
231.819	175.44
232.037	52.56
232.254	-80.55
232.472	21.85
232.689	-0.68
232.907	83.28
233.125	66.9
233.342	7.51
233.56	64.85
233.777	-2.73
233.995	52.56
234.213	109.91
234.43	105.81
234.648	54.61
234.865	54.61
235.083	17.75
235.3	75.09
235.518	58.71
235.735	130.39
235.953	87.38
236.17	46.42
236.388	-2.73
236.605	111.96
236.822	185.68
237.04	150.87
237.257	85.33
237.475	-41.64
237.692	95.57
237.909	71
238.127	73.04
238.344	54.61
238.562	105.81
238.779	32.08
238.996	-35.5
239.214	34.13
239.431	124.24
239.648	9.56
239.865	81.24
240.083	107.86
240.3	30.04
240.517	-12.97
240.735	122.2
240.952	120.15
241.169	81.24
241.386	93.52
241.603	27.99
241.821	-101.03
242.038	130.39
242.255	83.28
242.472	-27.31
242.689	114
242.907	206.16
243.124	21.85
243.341	27.99
243.558	36.18
243.775	-98.99
243.992	19.8
244.209	175.44
244.426	279.89
244.643	83.28
244.86	87.38
245.078	52.56
245.295	87.38
245.512	79.19
245.729	-17.07
245.946	71
246.163	3.41
246.38	44.37
246.597	77.14
246.814	44.37
247.031	3.41
247.248	21.85
247.464	13.65
247.681	140.63
247.898	-27.31
248.115	103.76
248.332	17.75
248.549	140.63
248.766	181.59
248.983	46.42
249.2	64.85
249.417	161.11
249.633	17.75
249.85	128.34
250.067	77.14
250.284	54.61
250.501	142.68
250.717	56.66
250.934	-74.41
251.151	44.37
251.368	52.56
251.585	68.95
251.801	54.61
252.018	27.99
252.235	130.39
252.451	1.37
252.668	95.57
252.885	222.55
253.102	116.05
253.318	66.9
253.535	3.41
253.752	-21.16
253.968	66.9
254.185	-70.31
254.401	99.67
254.618	126.29
254.835	19.8
255.051	142.68
255.268	60.76
255.484	66.9
255.701	34.13
255.917	101.72
256.134	-4.78
256.351	111.96
256.567	17.75
256.784	109.91
257	5.46
257.217	140.63
257.433	109.91
257.65	75.09
257.866	212.31
258.082	-17.07
258.299	-19.11
258.515	48.47
258.732	54.61
258.948	-21.16
259.165	30.04
259.381	27.99
259.597	122.2
259.814	44.37
260.03	44.37
260.246	-25.26
260.463	181.59
260.679	132.44
260.895	77.14
261.112	66.9
261.328	42.32
261.544	9.56
261.761	197.97
261.977	-31.4
262.193	-47.79
262.409	89.43
262.626	58.71
262.842	7.51
263.058	7.51
263.274	226.64
263.49	64.85
263.707	150.87
263.923	99.67
264.139	27.99
264.355	46.42
264.571	154.96
264.787	91.48
265.004	101.72
265.22	21.85
265.436	-27.31
265.652	-6.83
265.868	75.09
266.084	-41.64
266.3	-33.45
266.516	-17.07
266.732	114
266.948	48.47
267.164	34.13
267.38	124.24
267.596	91.48
267.812	132.44
268.028	89.43
268.244	60.76
268.46	38.23
268.676	-17.07
268.892	68.95
269.108	-17.07
269.324	27.99
269.54	-29.35
269.756	73.04
269.972	9.56
270.188	48.47
270.403	19.8
270.619	66.9
270.835	64.85
271.051	-35.5
271.267	-10.92
271.483	54.61
271.698	83.28
271.914	56.66
272.13	73.04
272.346	-2.73
272.562	1.37
272.777	136.53
272.993	56.66
273.209	-10.92
273.425	99.67
273.64	-72.36
273.856	140.63
274.072	25.94
274.287	27.99
274.503	165.2
274.719	195.92
274.934	9.56
275.15	-12.97
275.366	9.56
275.581	50.52
275.797	25.94
276.012	75.09
276.228	46.42
276.444	99.67
276.659	91.48
276.875	3.41
277.09	30.04
277.306	-41.64
277.521	81.24
277.737	32.08
277.952	42.32
278.168	21.85
278.383	91.48
278.599	27.99
278.814	75.09
279.03	23.89
279.245	99.67
279.461	66.9
279.676	73.04
279.892	-4.78
280.107	-29.35
280.322	-39.59
280.538	-17.07
280.753	-35.5
280.969	-2.73
281.184	52.56
281.399	183.63
281.615	7.51
281.83	-31.4
282.045	-133.8
282.26	40.28
282.476	85.33
282.691	101.72
282.906	99.67
283.122	34.13
283.337	66.9
283.552	68.95
283.767	-39.59
283.983	118.1
284.198	79.19
284.413	25.94
284.628	-35.5
284.843	66.9
285.058	105.81
285.274	-21.16
285.489	38.23
285.704	23.89
285.919	-15.02
286.134	60.76
286.349	34.13
286.564	85.33
286.779	111.96
286.995	30.04
287.21	5.46
287.425	85.33
287.64	25.94
287.855	71
288.07	38.23
288.285	197.97
288.5	130.39
288.715	134.48
288.93	-0.68
289.145	-23.21
289.36	81.24
289.575	44.37
289.79	136.53
290.004	-72.36
290.219	171.35
290.434	36.18
290.649	9.56
290.864	-29.35
291.079	64.85
291.294	83.28
291.509	46.42
291.724	48.47
291.938	56.66
292.153	150.87
292.368	-25.26
292.583	95.57
292.798	120.15
293.012	97.62
293.227	50.52
293.442	-60.07
293.657	126.29
293.871	130.39
294.086	77.14
294.301	193.87
294.516	226.64
294.73	11.61
294.945	-58.03
295.16	68.95
295.374	114
295.589	124.24
295.804	3.41
296.018	48.47
296.233	132.44
296.447	71
296.662	-51.88
296.877	130.39
297.091	136.53
297.306	44.37
297.52	44.37
297.735	13.65
297.949	62.8
298.164	56.66
298.378	-43.69
298.593	-39.59
298.807	38.23
299.022	50.52
299.236	83.28
299.451	87.38
299.665	5.46
299.88	56.66
300.094	71
300.309	-19.11
300.523	60.76
300.737	81.24
300.952	79.19
301.166	73.04
301.381	56.66
301.595	36.18
301.809	128.34
302.024	5.46
302.238	62.8
302.452	128.34
302.667	5.46
302.881	146.77
303.095	56.66
303.309	3.41
303.524	-6.83
303.738	1.37
303.952	3.41
304.166	64.85
304.381	-137.9
304.595	79.19
304.809	1.37
305.023	77.14
305.237	60.76
305.452	71
305.666	77.14
305.88	93.52
306.094	208.21
306.308	114
306.522	136.53
306.736	48.47
306.95	159.06
307.164	19.8
307.379	42.32
307.593	103.76
307.807	101.72
308.021	118.1
308.235	103.76
308.449	-51.88
308.663	36.18
308.877	222.55
309.091	7.51
309.305	77.14
309.519	46.42
309.733	193.87
309.947	-43.69
310.161	60.76
310.374	105.81
310.588	68.95
310.802	13.65
311.016	-21.16
311.23	101.72
311.444	-60.07
311.658	97.62
311.872	177.49
312.085	157.01
312.299	175.44
312.513	85.33
312.727	81.24
312.941	-64.17
313.154	116.05
313.368	75.09
313.582	142.68
313.796	44.37
314.009	15.7
314.223	132.44
314.437	30.04
314.651	118.1
314.864	-37.55
315.078	36.18
315.292	-62.12
315.505	-80.55
315.719	159.06
315.933	85.33
316.146	77.14
316.36	58.71
316.573	91.48
316.787	89.43
317.001	103.76
317.214	3.41
317.428	71
317.641	23.89
317.855	81.24
318.068	114
318.282	79.19
318.495	148.82
318.709	161.11
318.922	101.72
319.136	163.15
319.349	120.15
319.563	36.18
319.776	105.81
319.99	19.8
320.203	95.57
320.417	54.61
320.63	46.42
320.843	167.25
321.057	122.2
321.27	11.61
321.483	87.38
321.697	157.01
321.91	75.09
322.124	83.28
322.337	34.13
322.55	19.8
322.763	42.32
322.977	25.94
323.19	9.56
323.403	93.52
323.617	66.9
323.83	64.85
324.043	-8.87
324.256	7.51
324.469	-58.03
324.683	81.24
324.896	138.58
325.109	66.9
325.322	-60.07
325.535	79.19
325.748	161.11
325.962	87.38
326.175	23.89
326.388	122.2
326.601	81.24
326.814	-58.03
327.027	71
327.24	118.1
327.453	-60.07
327.666	163.15
327.879	142.68
328.092	116.05
328.305	107.86
328.518	-27.31
328.731	64.85
328.944	89.43
329.157	-6.83
329.37	30.04
329.583	136.53
329.796	154.96
330.009	27.99
330.222	62.8
330.435	175.44
330.648	68.95
330.861	122.2
331.073	77.14
331.286	126.29
331.499	99.67
331.712	5.46
331.925	15.7
332.138	48.47
332.35	107.86
332.563	42.32
332.776	144.72
332.989	-27.31
333.202	66.9
333.414	87.38
333.627	11.61
333.84	-2.73
334.053	42.32
334.265	-19.11
334.478	17.75
334.691	40.28
334.903	-0.68
335.116	19.8
335.329	7.51
335.541	40.28
335.754	187.73
335.966	17.75
336.179	73.04
336.392	68.95
336.604	87.38
336.817	171.35
337.029	64.85
337.242	60.76
337.454	83.28
337.667	15.7
337.88	171.35
338.092	128.34
338.305	71
338.517	-0.68
338.729	91.48
338.942	144.72
339.154	-86.7
339.367	-17.07
339.579	236.88
339.792	19.8
340.004	3.41
340.217	-6.83
340.429	-39.59
340.641	15.7
340.854	-12.97
341.066	87.38
341.278	27.99
341.491	208.21
341.703	140.63
341.915	-19.11
342.128	142.68
342.34	175.44
342.552	-68.27
342.764	56.66
342.977	56.66
343.189	103.76
343.401	30.04
343.613	-35.5
343.826	71
344.038	-55.98
344.25	87.38
344.462	-39.59
344.674	48.47
344.886	54.61
345.099	114
345.311	52.56
345.523	-17.07
345.735	-111.27
345.947	52.56
346.159	97.62
346.371	1.37
346.583	46.42
346.795	161.11
347.007	17.75
347.219	93.52
347.431	7.51
347.643	136.53
347.855	-23.21
348.067	169.3
348.279	1.37
348.491	75.09
348.703	97.62
348.915	9.56
349.127	-47.79
349.339	48.47
349.551	-15.02
349.763	140.63
349.975	46.42
350.187	193.87
350.399	212.31
350.61	142.68
350.822	56.66
351.034	1.37
351.246	140.63
351.458	99.67
351.669	107.86
351.881	111.96
352.093	187.73
352.305	81.24
352.517	19.8
352.728	159.06
352.94	128.34
353.152	68.95
353.363	-60.07
353.575	101.72
353.787	245.07
353.999	13.65
354.21	165.2
354.422	1.37
354.633	50.52
354.845	30.04
355.057	109.91
355.268	3.41
355.48	167.25
355.692	-27.31
355.903	62.8
356.115	42.32
356.326	-15.02
356.538	224.59
356.749	73.04
356.961	124.24
357.172	11.61
357.384	15.7
357.595	173.39
357.807	38.23
358.018	75.09
358.23	62.8
358.441	103.76
358.653	136.53
358.864	13.65
359.075	25.94
359.287	91.48
359.498	142.68
359.709	83.28
359.921	109.91
360.132	13.65
360.344	75.09
360.555	48.47
360.766	-12.97
360.977	34.13
361.189	97.62
361.4	32.08
361.611	48.47
361.823	128.34
362.034	73.04
362.245	-19.11
362.456	54.61
362.667	27.99
362.879	-8.87
363.09	89.43
363.301	46.42
363.512	91.48
363.723	52.56
363.935	25.94
364.146	103.76
364.357	81.24
364.568	52.56
364.779	-27.31
364.99	165.2
365.201	75.09
365.412	128.34
365.623	-29.35
365.834	95.57
366.045	17.75
366.256	165.2
366.467	138.58
366.678	-37.55
366.889	52.56
367.1	32.08
367.311	122.2
367.522	-41.64
367.733	103.76
367.944	105.81
368.155	52.56
368.366	42.32
368.577	56.66
368.788	120.15
368.999	7.51
369.209	30.04
369.42	273.75
369.631	234.83
369.842	118.1
370.053	25.94
370.264	52.56
370.474	40.28
370.685	66.9
370.896	23.89
371.107	136.53
371.317	87.38
371.528	52.56
371.739	146.77
371.95	134.48
372.16	85.33
372.371	-58.03
372.582	-35.5
372.792	64.85
373.003	83.28
373.214	105.81
373.424	87.38
373.635	3.41
373.846	206.16
374.056	46.42
374.267	58.71
374.477	64.85
374.688	5.46
374.898	111.96
375.109	52.56
375.319	19.8
375.53	99.67
375.74	105.81
375.951	9.56
376.161	107.86
376.372	126.29
376.582	-33.45
376.793	40.28
377.003	13.65
377.214	30.04
377.424	40.28
377.635	-0.68
377.845	54.61
378.055	120.15
378.266	-12.97
378.476	-21.16
378.686	136.53
378.897	77.14
379.107	116.05
379.317	89.43
379.528	25.94
379.738	126.29
379.948	48.47
380.158	157.01
380.369	48.47
380.579	116.05
380.789	-4.78
380.999	150.87
381.21	116.05
381.42	195.92
381.63	19.8
381.84	118.1
382.05	36.18
382.261	169.3
382.471	138.58
382.681	9.56
382.891	167.25
383.101	44.37
383.311	17.75
383.521	-64.17
383.731	142.68
383.941	175.44
384.151	71
384.361	44.37
384.571	142.68
384.781	48.47
384.991	195.92
385.201	83.28
385.411	107.86
385.621	152.91
385.831	56.66
386.041	23.89
386.251	120.15
386.461	95.57
386.671	40.28
386.881	85.33
387.091	71
387.301	124.24
387.511	62.8
387.72	177.49
387.93	79.19
388.14	-64.17
388.35	118.1
388.56	134.48
388.769	130.39
388.979	48.47
389.189	17.75
389.399	87.38
389.609	46.42
389.818	118.1
390.028	42.32
390.238	107.86
390.447	-6.83
390.657	93.52
390.867	5.46
391.076	-29.35
391.286	83.28
391.496	52.56
391.705	30.04
391.915	56.66
392.125	77.14
392.334	83.28
392.544	187.73
392.753	58.71
392.963	-105.13
393.172	-6.83
393.382	-39.59
393.591	210.26
393.801	64.85
394.01	183.63
394.22	111.96
394.429	-37.55
394.639	81.24
394.848	109.91
395.058	64.85
395.267	40.28
395.477	91.48
395.686	17.75
395.895	210.26
396.105	173.39
396.314	122.2
396.524	-15.02
396.733	105.81
396.942	142.68
397.152	109.91
397.361	150.87
397.57	124.24
397.78	68.95
397.989	81.24
398.198	177.49
398.407	-43.69
398.617	38.23
398.826	101.72
399.035	81.24
399.244	154.96
399.453	101.72
399.663	87.38
399.872	93.52
400.081	-41.64
400.29	161.11
400.499	89.43
400.708	191.83
400.917	25.94
401.127	27.99
401.336	1.37
401.545	218.45
401.754	99.67
401.963	107.86
402.172	30.04
402.381	-49.83
402.59	118.1
402.799	42.32
403.008	140.63
403.217	116.05
403.426	114
403.635	-10.92
403.844	71
404.053	89.43
404.262	-39.59
404.471	177.49
404.68	73.04
404.888	120.15
405.097	62.8
405.306	48.47
405.515	85.33
405.724	62.8
405.933	163.15
406.142	64.85
406.35	71
406.559	36.18
406.768	48.47
406.977	142.68
407.185	214.35
407.394	103.76
407.603	-47.79
407.812	105.81
408.02	157.01
408.229	134.48
408.438	89.43
408.646	-41.64
408.855	38.23
409.064	152.91
409.272	71
409.481	79.19
409.69	-25.26
409.898	-39.59
410.107	56.66
410.315	189.78
410.524	73.04
410.733	95.57
410.941	77.14
411.15	99.67
411.358	124.24
411.567	107.86
411.775	62.8
411.984	118.1
412.192	128.34
412.401	103.76
412.609	167.25
412.818	107.86
413.026	122.2
413.234	44.37
413.443	15.7
413.651	46.42
413.86	124.24
414.068	202.07
414.276	204.11
414.485	9.56
414.693	206.16
414.901	202.07
415.11	128.34
415.318	71
415.526	128.34
415.734	146.77
415.943	132.44
416.151	107.86
416.359	64.85
416.567	38.23
416.776	171.35
416.984	169.3
417.192	220.5
417.4	48.47
417.608	7.51
417.817	-19.11
418.025	42.32
418.233	208.21
418.441	17.75
418.649	-27.31
418.857	150.87
419.065	185.68
419.273	54.61
419.481	75.09
419.689	44.37
419.897	71
420.105	-31.4
420.313	38.23
420.521	132.44
420.729	206.16
420.937	15.7
421.145	-15.02
421.353	114
421.561	148.82
421.769	36.18
421.977	21.85
422.185	46.42
422.393	83.28
422.601	181.59
422.809	68.95
423.017	75.09
423.224	163.15
423.432	175.44
423.64	46.42
423.848	175.44
424.056	23.89
424.263	202.07
424.471	64.85
424.679	200.02
424.887	15.7
425.094	175.44
425.302	50.52
425.51	44.37
425.718	87.38
425.925	54.61
426.133	34.13
426.341	193.87
426.548	60.76
426.756	62.8
426.964	91.48
427.171	85.33
427.379	200.02
427.586	54.61
427.794	85.33
428.001	122.2
428.209	44.37
428.417	195.92
428.624	124.24
428.832	152.91
429.039	144.72
429.247	152.91
429.454	150.87
429.662	218.45
429.869	126.29
430.076	144.72
430.284	232.79
430.491	249.17
430.699	191.83
430.906	245.07
431.114	161.11
431.321	167.25
431.528	148.82
431.736	171.35
431.943	165.2
432.15	216.4
432.358	191.83
432.565	232.79
432.772	79.19
432.979	288.08
433.187	77.14
433.394	290.13
433.601	179.54
433.808	140.63
434.016	286.03
434.223	306.51
434.43	157.01
434.637	214.35
434.844	275.79
435.052	345.42
435.259	265.55
435.466	308.56
435.673	216.4
435.88	343.38
436.087	333.14
436.294	374.1
436.501	212.31
436.708	333.14
436.915	353.62
437.122	439.63
437.329	316.75
437.537	365.9
437.743	351.57
437.95	519.5
438.157	413.01
438.364	460.11
438.571	431.44
438.778	509.26
438.985	466.25
439.192	503.12
439.399	480.59
439.606	537.93
439.813	566.6
440.02	546.12
440.227	630.09
440.433	617.8
440.64	646.48
440.847	607.56
441.054	681.29
441.261	765.26
441.467	634.19
441.674	695.63
441.881	820.55
442.088	648.52
442.294	879.94
442.501	808.27
442.708	814.41
442.914	820.55
443.121	910.66
443.328	857.42
443.534	1043.78
443.741	970.05
443.948	931.14
444.154	1097.03
444.361	1207.62
444.568	1113.41
444.774	1178.95
444.981	1051.97
445.187	1289.54
445.394	1301.83
445.6	1262.91
445.807	1447.23
446.013	1346.88
446.22	1369.41
446.426	1492.29
446.633	1635.64
446.839	1789.24
447.046	1580.35
447.252	1815.87
447.459	1703.23
447.665	1801.53
447.871	1903.93
448.078	2118.97
448.284	1969.46
448.491	2108.73
448.697	2299.19
448.903	2391.34
449.11	2417.97
449.316	2370.87
449.522	2530.61
449.728	2786.6
449.935	2696.49
450.141	2786.6
450.347	3013.93
450.553	2831.66
450.76	2972.97
450.966	3132.71
451.172	3284.26
451.378	3364.13
451.584	3392.8
451.791	3597.6
451.997	3697.95
452.203	3788.06
452.409	4162.84
452.615	4203.8
452.821	3978.52
453.027	3996.95
453.233	4687.12
453.44	4492.56
453.646	4877.58
453.852	4990.22
454.058	5109
454.264	5299.46
454.47	5719.29
454.676	5850.36
454.882	6368.5
455.088	5942.52
455.294	6294.77
455.5	6780.14
455.705	7021.8
455.911	7099.62
456.117	7304.42
456.323	7638.24
456.529	7455.97
456.735	8275.16
456.941	8574.16
457.147	8674.51
457.352	9075.91
457.558	9125.07
457.764	9729.22
457.97	10110.14
458.176	10394.81
458.381	10929.33
458.587	11437.22
458.793	11580.58
458.999	11601.06
459.204	12905.62
459.41	13675.65
459.616	13425.8
459.821	14294.14
460.027	14939.25
460.233	15678.57
460.438	15494.25
460.644	16428.12
460.85	16559.19
461.055	17255.5
461.261	18101.31
461.466	17841.22
461.672	18043.97
461.878	20401.18
462.083	20016.16
462.289	20290.59
462.494	21113.88
462.7	21453.84
462.905	21640.2
463.111	23313.39
463.316	24593.37
463.522	25052.12
463.727	25799.63
463.932	26897.34
464.138	27734.96
464.343	28912.54
464.549	29059.99
464.754	30841.73
464.959	31996.78
465.165	32205.67
465.37	31853.42
465.575	32435.05
465.781	34353.99
465.986	35007.3
466.191	34706.24
466.397	35146.56
466.602	34313.03
466.807	36053.81
467.012	36940.58
467.218	37358.36
467.423	37753.62
467.628	38619.91
467.833	40159.98
468.038	39758.58
468.244	38855.43
468.449	40983.27
468.654	39938.8
468.859	39867.12
469.064	40307.44
