Data from USB4F104151__91__10-35-11-330.txt Node

Date: Wed Feb 26 10:35:11 EST 2025
User: louis
Spectrometer: USB4F10415
Trigger mode: 4
Integration Time (sec): 1.000000E-1
Scans to average: 1
Electric dark correction enabled: true
Nonlinearity correction enabled: false
Boxcar width: 0
XAxis mode: Wavelengths
Number of Pixels in Spectrum: 3648
>>>>>Begin Spectral Data<<<<<
178.204	-434.68
178.424	-434.68
178.644	-434.68
178.864	-317.95
179.084	-381.43
179.304	-18.94
179.524	11.78
179.744	48.64
179.964	99.84
180.184	15.87
180.404	28.16
180.624	-68.09
180.844	-35.33
181.064	-145.92
181.283	44.54
181.503	-10.75
181.723	30.21
181.943	-94.72
182.163	226.81
182.383	67.07
182.602	15.87
182.822	140.8
183.042	132.61
183.262	-0.51
183.482	-43.52
183.701	56.83
183.921	54.78
184.141	-8.7
184.361	26.11
184.58	65.02
184.8	50.69
185.02	-57.86
185.239	65.02
185.459	93.69
185.679	130.56
185.898	-37.38
186.118	38.4
186.338	105.98
186.557	97.79
186.777	-6.66
186.997	46.59
187.216	-2.56
187.436	177.66
187.655	105.98
187.875	52.74
188.095	11.78
188.314	235
188.534	103.93
188.753	-10.75
188.973	130.56
189.192	196.09
189.412	81.41
189.631	-31.23
189.851	140.8
190.07	151.04
190.29	24.06
190.509	56.83
190.729	38.4
190.948	146.94
191.168	181.76
191.387	108.03
191.607	22.02
191.826	142.85
192.045	38.4
192.265	-25.09
192.484	116.22
192.704	93.69
192.923	-45.57
193.142	151.04
193.362	103.93
193.581	200.19
193.8	60.93
194.02	120.32
194.239	99.84
194.458	124.41
194.678	77.31
194.897	62.98
195.116	118.27
195.335	60.93
195.555	77.31
195.774	-2.56
195.993	140.8
196.212	13.82
196.432	108.03
196.651	11.78
196.87	-47.62
197.089	249.34
197.308	65.02
197.528	101.89
197.747	-8.7
197.966	73.21
198.185	105.98
198.404	-27.14
198.623	144.89
198.842	185.85
199.062	118.27
199.281	105.98
199.5	71.17
199.719	75.26
199.938	112.13
200.157	34.3
200.376	69.12
200.595	77.31
200.814	77.31
201.033	-27.14
201.252	77.31
201.471	87.55
201.69	38.4
201.909	50.69
202.128	112.13
202.347	108.03
202.566	13.82
202.785	-6.66
203.004	9.73
203.223	292.35
203.442	62.98
203.661	22.02
203.879	95.74
204.098	89.6
204.317	13.82
204.536	108.03
204.755	101.89
204.974	202.24
205.193	-41.47
205.411	155.13
205.63	132.61
205.849	130.56
206.068	26.11
206.287	-29.18
206.505	214.52
206.724	54.78
206.943	11.78
207.162	40.45
207.381	118.27
207.599	-27.14
207.818	24.06
208.037	95.74
208.255	46.59
208.474	30.21
208.693	54.78
208.911	3.58
209.13	194.05
209.349	97.79
209.567	77.31
209.786	50.69
210.005	91.65
210.223	24.06
210.442	-119.29
210.661	93.69
210.879	169.47
211.098	95.74
211.316	71.17
211.535	62.98
211.753	134.65
211.972	89.6
212.191	22.02
212.409	26.11
212.628	52.74
212.846	15.87
213.065	30.21
213.283	177.66
213.502	81.41
213.72	7.68
213.938	91.65
214.157	50.69
214.375	114.17
214.594	-16.9
214.812	3.58
215.031	-27.14
215.249	114.17
215.467	17.92
215.686	54.78
215.904	26.11
216.122	71.17
216.341	69.12
216.559	52.74
216.778	99.84
216.996	177.66
217.214	-8.7
217.432	60.93
217.651	7.68
217.869	67.07
218.087	93.69
218.306	13.82
218.524	3.58
218.742	5.63
218.96	73.21
219.179	22.02
219.397	30.21
219.615	269.82
219.833	179.71
220.051	-55.81
220.27	148.99
220.488	89.6
220.706	40.45
220.924	-27.14
221.142	79.36
221.36	108.03
221.578	15.87
221.796	9.73
222.015	103.93
222.233	85.5
222.451	224.76
222.669	-23.04
222.887	159.23
223.105	-37.38
223.323	38.4
223.541	28.16
223.759	60.93
223.977	-37.38
224.195	179.71
224.413	67.07
224.631	50.69
224.849	1.54
225.067	280.06
225.285	32.26
225.503	-14.85
225.721	-92.67
225.939	-16.9
226.157	32.26
226.375	251.39
226.592	34.3
226.81	77.31
227.028	165.37
227.246	112.13
227.464	34.3
227.682	83.45
227.9	134.65
228.117	24.06
228.335	71.17
228.553	-12.8
228.771	97.79
228.989	-2.56
229.206	132.61
229.424	11.78
229.642	-33.28
229.86	-55.81
230.077	126.46
230.295	44.54
230.513	89.6
230.731	118.27
230.948	198.14
231.166	112.13
231.384	36.35
231.601	-10.75
231.819	138.75
232.037	73.21
232.254	-33.28
232.472	-8.7
232.689	40.45
232.907	151.04
233.125	30.21
233.342	-14.85
233.56	9.73
233.777	13.82
233.995	56.83
234.213	167.42
234.43	81.41
234.648	85.5
234.865	-10.75
235.083	97.79
235.3	50.69
235.518	200.19
235.735	136.7
235.953	105.98
236.17	62.98
236.388	56.83
236.605	15.87
236.822	95.74
237.04	67.07
237.257	85.5
237.475	-41.47
237.692	101.89
237.909	91.65
238.127	48.64
238.344	114.17
238.562	17.92
238.779	11.78
238.996	-41.47
239.214	136.7
239.431	40.45
239.648	-27.14
239.865	103.93
240.083	93.69
240.3	-25.09
240.517	22.02
240.735	99.84
240.952	175.61
241.169	122.37
241.386	60.93
241.603	52.74
241.821	-4.61
242.038	75.26
242.255	151.04
242.472	13.82
242.689	67.07
242.907	44.54
243.124	163.33
243.341	54.78
243.558	15.87
243.775	15.87
243.992	-57.86
244.209	99.84
244.426	161.28
244.643	105.98
244.86	105.98
245.078	151.04
245.295	163.33
245.512	34.3
245.729	3.58
245.946	93.69
246.163	87.55
246.38	48.64
246.597	118.27
246.814	11.78
247.031	167.42
247.248	36.35
247.464	87.55
247.681	3.58
247.898	85.5
248.115	40.45
248.332	-14.85
248.549	105.98
248.766	235
248.983	126.46
249.2	69.12
249.417	71.17
249.633	34.3
249.85	32.26
250.067	62.98
250.284	81.41
250.501	153.09
250.717	75.26
250.934	34.3
251.151	42.5
251.368	101.89
251.585	73.21
251.801	105.98
252.018	44.54
252.235	132.61
252.451	-37.38
252.668	-27.14
252.885	101.89
253.102	75.26
253.318	13.82
253.535	-2.56
253.752	40.45
253.968	30.21
254.185	15.87
254.401	22.02
254.618	101.89
254.835	13.82
255.051	142.85
255.268	52.74
255.484	71.17
255.701	34.3
255.917	36.35
256.134	5.63
256.351	89.6
256.567	-4.61
256.784	1.54
257	-14.85
257.217	122.37
257.433	200.19
257.65	91.65
257.866	177.66
258.082	-25.09
258.299	24.06
258.515	34.3
258.732	60.93
258.948	85.5
259.165	122.37
259.381	5.63
259.597	75.26
259.814	19.97
260.03	48.64
260.246	1.54
260.463	138.75
260.679	165.37
260.895	60.93
261.112	132.61
261.328	65.02
261.544	32.26
261.761	210.43
261.977	-8.7
262.193	-31.23
262.409	118.27
262.626	36.35
262.842	124.41
263.058	-12.8
263.274	73.21
263.49	87.55
263.707	44.54
263.923	91.65
264.139	-57.86
264.355	71.17
264.571	93.69
264.787	148.99
265.004	142.85
265.22	44.54
265.436	-37.38
265.652	28.16
265.868	38.4
266.084	-59.9
266.3	79.36
266.516	-84.48
266.732	116.22
266.948	85.5
267.164	60.93
267.38	101.89
267.596	140.8
267.812	165.37
268.028	-8.7
268.244	34.3
268.46	24.06
268.676	24.06
268.892	60.93
269.108	-25.09
269.324	62.98
269.54	30.21
269.756	128.51
269.972	-35.33
270.188	-4.61
270.403	15.87
270.619	91.65
270.835	126.46
271.051	32.26
271.267	46.59
271.483	-12.8
271.698	159.23
271.914	167.42
272.13	77.31
272.346	32.26
272.562	103.93
272.777	210.43
272.993	-4.61
273.209	44.54
273.425	114.17
273.64	-4.61
273.856	75.26
274.072	-27.14
274.287	11.78
274.503	79.36
274.719	108.03
274.934	15.87
275.15	11.78
275.366	-2.56
275.581	22.02
275.797	26.11
276.012	67.07
276.228	67.07
276.444	114.17
276.659	175.61
276.875	-31.23
277.09	89.6
277.306	40.45
277.521	93.69
277.737	89.6
277.952	169.47
278.168	89.6
278.383	75.26
278.599	83.45
278.814	83.45
279.03	22.02
279.245	71.17
279.461	1.54
279.676	144.89
279.892	-74.24
280.107	-31.23
280.322	3.58
280.538	81.41
280.753	-12.8
280.969	30.21
281.184	36.35
281.399	171.52
281.615	67.07
281.83	97.79
282.045	-37.38
282.26	-45.57
282.476	30.21
282.691	132.61
282.906	87.55
283.122	44.54
283.337	-35.33
283.552	60.93
283.767	58.88
283.983	124.41
284.198	-23.04
284.413	26.11
284.628	-49.66
284.843	71.17
285.058	91.65
285.274	34.3
285.489	-109.05
285.704	118.27
285.919	34.3
286.134	44.54
286.349	28.16
286.564	69.12
286.779	232.96
286.995	17.92
287.21	-47.62
287.425	65.02
287.64	-43.52
287.855	75.26
288.07	-49.66
288.285	161.28
288.5	120.32
288.715	71.17
288.93	17.92
289.145	34.3
289.36	126.46
289.575	-16.9
289.79	206.33
290.004	13.82
290.219	196.09
290.434	11.78
290.649	19.97
290.864	28.16
291.079	3.58
291.294	62.98
291.509	75.26
291.724	46.59
291.938	22.02
292.153	17.92
292.368	-20.99
292.583	89.6
292.798	85.5
293.012	81.41
293.227	81.41
293.442	24.06
293.657	52.74
293.871	87.55
294.086	108.03
294.301	103.93
294.516	126.46
294.73	56.83
294.945	9.73
295.16	54.78
295.374	159.23
295.589	128.51
295.804	36.35
296.018	87.55
296.233	81.41
296.447	124.41
296.662	34.3
296.877	130.56
297.091	52.74
297.306	87.55
297.52	7.68
297.735	71.17
297.949	5.63
298.164	79.36
298.378	3.58
298.593	-53.76
298.807	15.87
299.022	17.92
299.236	198.14
299.451	-0.51
299.665	-16.9
299.88	-4.61
300.094	99.84
300.309	15.87
300.523	87.55
300.737	46.59
300.952	65.02
301.166	60.93
301.381	5.63
301.595	-31.23
301.809	85.5
302.024	9.73
302.238	-29.18
302.452	189.95
302.667	67.07
302.881	148.99
303.095	89.6
303.309	30.21
303.524	-16.9
303.738	79.36
303.952	32.26
304.166	3.58
304.381	-25.09
304.595	126.46
304.809	-51.71
305.023	19.97
305.237	44.54
305.452	79.36
305.666	1.54
305.88	36.35
306.094	67.07
306.308	22.02
306.522	79.36
306.736	22.02
306.95	91.65
307.164	71.17
307.379	-57.86
307.593	140.8
307.807	79.36
308.021	144.89
308.235	101.89
308.449	-76.29
308.663	48.64
308.877	308.73
309.091	87.55
309.305	134.65
309.519	15.87
309.733	103.93
309.947	-2.56
310.161	161.28
310.374	132.61
310.588	71.17
310.802	22.02
311.016	1.54
311.23	128.51
311.444	-25.09
311.658	65.02
311.872	122.37
312.085	44.54
312.299	130.56
312.513	105.98
312.727	91.65
312.941	13.82
313.154	48.64
313.368	81.41
313.582	46.59
313.796	108.03
314.009	-51.71
314.223	122.37
314.437	81.41
314.651	85.5
314.864	-0.51
315.078	-20.99
315.292	-41.47
315.505	36.35
315.719	134.65
315.933	142.85
316.146	-0.51
316.36	-23.04
316.573	148.99
316.787	77.31
317.001	7.68
317.214	-51.71
317.428	116.22
317.641	-61.95
317.855	-4.61
318.068	-45.57
318.282	73.21
318.495	159.23
318.709	77.31
318.922	120.32
319.136	187.9
319.349	126.46
319.563	-55.81
319.776	48.64
319.99	-59.9
320.203	95.74
320.417	95.74
320.63	48.64
320.843	202.24
321.057	118.27
321.27	24.06
321.483	110.08
321.697	183.81
321.91	3.58
322.124	62.98
322.337	52.74
322.55	1.54
322.763	58.88
322.977	30.21
323.19	42.5
323.403	91.65
323.617	62.98
323.83	185.85
324.043	26.11
324.256	42.5
324.469	65.02
324.683	120.32
324.896	67.07
325.109	13.82
325.322	-23.04
325.535	163.33
325.748	75.26
325.962	22.02
326.175	151.04
326.388	67.07
326.601	112.13
326.814	11.78
327.027	5.63
327.24	116.22
327.453	-51.71
327.666	89.6
327.879	91.65
328.092	134.65
328.305	44.54
328.518	28.16
328.731	-37.38
328.944	-68.09
329.157	-4.61
329.37	38.4
329.583	226.81
329.796	253.44
330.009	3.58
330.222	148.99
330.435	108.03
330.648	112.13
330.861	54.78
331.073	112.13
331.286	110.08
331.499	-4.61
331.712	60.93
331.925	17.92
332.138	13.82
332.35	75.26
332.563	-8.7
332.776	148.99
332.989	-23.04
333.202	19.97
333.414	9.73
333.627	40.45
333.84	28.16
334.053	54.78
334.265	-8.7
334.478	54.78
334.691	-14.85
334.903	89.6
335.116	62.98
335.329	-14.85
335.541	65.02
335.754	185.85
335.966	24.06
336.179	71.17
336.392	62.98
336.604	-80.38
336.817	124.41
337.029	91.65
337.242	17.92
337.454	99.84
337.667	19.97
337.88	120.32
338.092	89.6
338.305	97.79
338.517	-41.47
338.729	77.31
338.942	163.33
339.154	-57.86
339.367	38.4
339.579	87.55
339.792	26.11
340.004	95.74
340.217	22.02
340.429	52.74
340.641	-18.94
340.854	28.16
341.066	103.93
341.278	136.7
341.491	148.99
341.703	42.5
341.915	11.78
342.128	46.59
342.34	112.13
342.552	-37.38
342.764	95.74
342.977	26.11
343.189	134.65
343.401	62.98
343.613	-72.19
343.826	89.6
344.038	-12.8
344.25	77.31
344.462	32.26
344.674	28.16
344.886	97.79
345.099	116.22
345.311	60.93
345.523	28.16
345.735	-39.42
345.947	36.35
346.159	130.56
346.371	67.07
346.583	32.26
346.795	271.87
347.007	34.3
347.219	118.27
347.431	44.54
347.643	167.42
347.855	40.45
348.067	138.75
348.279	17.92
348.491	77.31
348.703	198.14
348.915	-4.61
349.127	19.97
349.339	52.74
349.551	52.74
349.763	136.7
349.975	5.63
350.187	62.98
350.399	198.14
350.61	3.58
350.822	11.78
351.034	112.13
351.246	54.78
351.458	99.84
351.669	93.69
351.881	138.75
352.093	130.56
352.305	93.69
352.517	54.78
352.728	204.28
352.94	62.98
353.152	77.31
353.363	-16.9
353.575	73.21
353.787	198.14
353.999	-27.14
354.21	177.66
354.422	-4.61
354.633	85.5
354.845	26.11
355.057	79.36
355.268	192
355.48	101.89
355.692	-10.75
355.903	112.13
356.115	-51.71
356.326	-8.7
356.538	155.13
356.749	15.87
356.961	165.37
357.172	73.21
357.384	-25.09
357.595	214.52
357.807	15.87
358.018	24.06
358.23	-41.47
358.441	81.41
358.653	89.6
358.864	42.5
359.075	-14.85
359.287	62.98
359.498	171.52
359.709	67.07
359.921	48.64
360.132	91.65
360.344	22.02
360.555	30.21
360.766	9.73
360.977	-64
361.189	146.94
361.4	62.98
361.611	159.23
361.823	95.74
362.034	83.45
362.245	44.54
362.456	112.13
362.667	73.21
362.879	-43.52
363.09	44.54
363.301	40.45
363.512	112.13
363.723	3.58
363.935	-33.28
364.146	120.32
364.357	7.68
364.568	11.78
364.779	-68.09
364.99	194.05
365.201	19.97
365.412	146.94
365.623	-68.09
365.834	103.93
366.045	85.5
366.256	136.7
366.467	126.46
366.678	83.45
366.889	22.02
367.1	7.68
367.311	187.9
367.522	-8.7
367.733	142.85
367.944	24.06
368.155	24.06
368.366	144.89
368.577	134.65
368.788	69.12
368.999	-8.7
369.209	30.21
369.42	189.95
369.631	249.34
369.842	99.84
370.053	26.11
370.264	159.23
370.474	1.54
370.685	81.41
370.896	-10.75
371.107	151.04
371.317	103.93
371.528	60.93
371.739	151.04
371.95	9.73
372.16	112.13
372.371	-51.71
372.582	36.35
372.792	28.16
373.003	26.11
373.214	138.75
373.424	91.65
373.635	-14.85
373.846	136.7
374.056	69.12
374.267	50.69
374.477	83.45
374.688	-0.51
374.898	48.64
375.109	159.23
375.319	89.6
375.53	181.76
375.74	26.11
375.951	3.58
376.161	138.75
376.372	118.27
376.582	40.45
376.793	99.84
377.003	-33.28
377.214	-4.61
377.424	77.31
377.635	56.83
377.845	9.73
378.055	118.27
378.266	-27.14
378.476	118.27
378.686	30.21
378.897	26.11
379.107	79.36
379.317	93.69
379.528	71.17
379.738	126.46
379.948	-8.7
380.158	50.69
380.369	30.21
380.579	89.6
380.789	77.31
380.999	34.3
381.21	91.65
381.42	218.62
381.63	-12.8
381.84	112.13
382.05	81.41
382.261	136.7
382.471	101.89
382.681	-6.66
382.891	126.46
383.101	67.07
383.311	19.97
383.521	103.93
383.731	75.26
383.941	132.61
384.151	38.4
384.361	97.79
384.571	136.7
384.781	54.78
384.991	192
385.201	142.85
385.411	159.23
385.621	85.5
385.831	95.74
386.041	114.17
386.251	67.07
386.461	165.37
386.671	44.54
386.881	58.88
387.091	85.5
387.301	138.75
387.511	95.74
387.72	42.5
387.93	173.57
388.14	40.45
388.35	28.16
388.56	83.45
388.769	177.66
388.979	56.83
389.189	30.21
389.399	7.68
389.609	65.02
389.818	65.02
390.028	105.98
390.238	83.45
390.447	-0.51
390.657	54.78
390.867	93.69
391.076	-35.33
391.286	62.98
391.496	11.78
391.705	83.45
391.915	71.17
392.125	114.17
392.334	75.26
392.544	146.94
392.753	75.26
392.963	-37.38
393.172	38.4
393.382	-2.56
393.591	212.48
393.801	81.41
394.01	181.76
394.22	67.07
394.429	73.21
394.639	62.98
394.848	110.08
395.058	28.16
395.267	-25.09
395.477	81.41
395.686	50.69
395.895	267.77
396.105	165.37
396.314	91.65
396.524	44.54
396.733	28.16
396.942	83.45
397.152	65.02
397.361	140.8
397.57	126.46
397.78	75.26
397.989	114.17
398.198	216.57
398.407	83.45
398.617	50.69
398.826	48.64
399.035	34.3
399.244	110.08
399.453	54.78
399.663	19.97
399.872	85.5
400.081	54.78
400.29	128.51
400.499	11.78
400.708	171.52
400.917	87.55
401.127	108.03
401.336	24.06
401.545	212.48
401.754	132.61
401.963	157.18
402.172	-37.38
402.381	-45.57
402.59	91.65
402.799	93.69
403.008	132.61
403.217	83.45
403.426	3.58
403.635	50.69
403.844	110.08
404.053	44.54
404.262	34.3
404.471	155.13
404.68	48.64
404.888	77.31
405.097	-4.61
405.306	83.45
405.515	89.6
405.724	89.6
405.933	146.94
406.142	28.16
406.35	103.93
406.559	-16.9
406.768	48.64
406.977	167.42
407.185	110.08
407.394	50.69
407.603	3.58
407.812	62.98
408.02	146.94
408.229	71.17
408.438	122.37
408.646	17.92
408.855	9.73
409.064	83.45
409.272	-10.75
409.481	87.55
409.69	36.35
409.898	17.92
410.107	22.02
410.315	67.07
410.524	-37.38
410.733	73.21
410.941	32.26
411.15	138.75
411.358	38.4
411.567	132.61
411.775	99.84
411.984	83.45
412.192	120.32
412.401	32.26
412.609	175.61
412.818	99.84
413.026	87.55
413.234	79.36
413.443	-0.51
413.651	44.54
413.86	75.26
414.068	122.37
414.276	169.47
414.485	28.16
414.693	222.72
414.901	177.66
415.11	105.98
415.318	114.17
415.526	50.69
415.734	97.79
415.943	91.65
416.151	181.76
416.359	-4.61
416.567	118.27
416.776	134.65
416.984	79.36
417.192	226.81
417.4	118.27
417.608	-23.04
417.817	-29.18
418.025	181.76
418.233	114.17
418.441	-23.04
418.649	32.26
418.857	34.3
419.065	101.89
419.273	-70.14
419.481	79.36
419.689	13.82
419.897	40.45
420.105	-33.28
420.313	46.59
420.521	183.81
420.729	173.57
420.937	3.58
421.145	5.63
421.353	161.28
421.561	169.47
421.769	40.45
421.977	32.26
422.185	142.85
422.393	97.79
422.601	134.65
422.809	110.08
423.017	19.97
423.224	108.03
423.432	167.42
423.64	79.36
423.848	167.42
424.056	32.26
424.263	103.93
424.471	28.16
424.679	187.9
424.887	75.26
425.094	122.37
425.302	-2.56
425.51	71.17
425.718	124.41
425.925	97.79
426.133	-31.23
426.341	204.28
426.548	50.69
426.756	69.12
426.964	108.03
427.171	44.54
427.379	136.7
427.586	19.97
427.794	151.04
428.001	163.33
428.209	114.17
428.417	187.9
428.624	73.21
428.832	175.61
429.039	132.61
429.247	13.82
429.454	146.94
429.662	198.14
429.869	79.36
430.076	89.6
430.284	224.76
430.491	243.2
430.699	165.37
430.906	251.39
431.114	169.47
431.321	175.61
431.528	108.03
431.736	171.52
431.943	163.33
432.15	140.8
432.358	175.61
432.565	214.52
432.772	15.87
432.979	183.81
433.187	120.32
433.394	271.87
433.601	103.93
433.808	177.66
434.016	273.92
434.223	206.33
434.43	161.28
434.637	325.12
434.844	284.16
435.052	228.86
435.259	173.57
435.466	261.63
435.673	222.72
435.88	263.68
436.087	273.92
436.294	310.78
436.501	343.55
436.708	216.57
436.915	288.25
437.122	312.83
437.329	235
437.537	280.06
437.743	290.3
437.95	359.93
438.157	329.21
438.364	398.84
438.571	368.12
438.778	355.83
438.985	464.38
439.192	411.13
439.399	298.49
439.606	419.32
439.813	466.42
440.02	548.34
440.227	593.4
440.433	488.95
440.64	499.19
440.847	466.42
441.054	529.91
441.261	624.12
441.467	597.49
441.674	505.34
441.881	648.69
442.088	673.27
442.294	603.64
442.501	699.89
442.708	640.5
442.914	732.66
443.121	765.43
443.328	818.68
443.534	787.96
443.741	726.52
443.948	699.89
444.154	884.21
444.361	1037.81
444.568	953.84
444.774	939.51
444.981	861.68
445.187	1015.28
445.394	949.75
445.6	988.66
445.807	1123.82
446.013	1127.92
446.22	1099.25
446.426	1263.08
446.633	1269.23
446.839	1457.64
447.046	1254.89
447.252	1449.45
447.459	1385.96
447.665	1431.02
447.871	1662.44
448.078	1783.27
448.284	1588.71
448.491	1805.8
448.697	1768.93
448.903	1914.34
449.11	1900
449.316	1857
449.522	2242.01
449.728	2149.86
449.935	2235.87
450.141	2227.68
450.347	2524.63
450.553	2346.46
450.76	2432.47
450.966	2604.5
451.172	2602.46
451.378	2676.18
451.584	2727.38
451.791	3106.26
451.997	3063.25
452.203	3046.87
452.409	3376.59
452.615	3515.85
452.821	3327.44
453.027	3352.01
453.233	3876.29
453.44	3665.35
453.646	3888.58
453.852	4007.36
454.058	4165.06
454.264	4240.83
454.47	4552.12
454.676	4711.86
454.882	4904.37
455.088	4795.83
455.294	5072.31
455.5	5512.62
455.705	5801.38
455.911	5721.51
456.117	5729.7
456.323	6200.74
456.529	6229.41
456.735	6567.32
456.941	6923.67
457.147	7196.05
457.352	7339.41
457.558	7470.48
457.764	7894.41
457.97	8168.84
458.176	8467.84
458.381	8908.15
458.587	9100.66
458.793	9553.26
458.999	9516.4
459.204	10788.19
459.41	10913.11
459.616	10866.01
459.821	11631.95
460.027	11969.87
460.233	12426.56
460.438	12346.69
460.644	13581.62
460.85	13421.88
461.055	14060.84
461.261	14828.83
461.466	14179.62
461.672	14697.76
461.878	16203.02
462.083	16395.53
462.289	16727.3
462.494	17239.29
462.7	17081.6
462.905	17689.84
463.111	19066.08
463.316	19588.31
463.522	19956.94
463.727	20720.84
463.932	21730.48
464.138	22424.75
464.343	23053.47
464.549	23438.49
464.754	24851.59
464.959	25656.44
465.165	26094.71
465.37	25959.54
465.575	25830.52
465.781	27753.56
465.986	28617.8
466.191	28138.58
466.397	28427.34
466.602	27888.73
466.807	29400.13
467.012	29776.95
467.218	30460.98
467.423	30264.37
467.628	31345.7
467.833	32713.74
468.038	32185.36
468.244	31255.59
468.449	33242.12
468.654	32934.92
468.859	32787.47
