Data from USB4F104151__40__11-26-33-092.txt Node

Date: Wed Feb 26 11:26:33 EST 2025
User: louis
Spectrometer: USB4F10415
Trigger mode: 4
Integration Time (sec): 1.000000E-1
Scans to average: 1
Electric dark correction enabled: true
Nonlinearity correction enabled: false
Boxcar width: 0
XAxis mode: Wavelengths
Number of Pixels in Spectrum: 3648
>>>>>Begin Spectral Data<<<<<
178.204	-376.31
178.424	-376.31
178.644	-376.31
178.864	-374.27
179.084	-402.94
179.304	33.28
179.524	-34.3
179.744	-48.64
179.964	47.62
180.184	20.99
180.404	76.29
180.624	-17.92
180.844	-3.58
181.064	-44.54
181.283	-67.07
181.503	-22.02
181.723	59.9
181.943	-134.65
182.163	219.64
182.383	-1.54
182.602	39.42
182.822	31.23
183.042	104.96
183.262	-7.68
183.482	-48.64
183.701	35.33
183.921	86.53
184.141	-19.97
184.361	80.38
184.58	45.57
184.8	80.38
185.02	-13.82
185.239	35.33
185.459	82.43
185.679	160.25
185.898	-22.02
186.118	68.09
186.338	82.43
186.557	113.15
186.777	-71.17
186.997	27.14
187.216	2.56
187.436	166.4
187.655	68.09
187.875	76.29
188.095	86.53
188.314	137.73
188.534	86.53
188.753	-101.89
188.973	104.96
189.192	289.28
189.412	70.14
189.631	29.18
189.851	74.24
190.07	145.92
190.29	20.99
190.509	14.85
190.729	29.18
190.948	80.38
191.168	285.18
191.387	121.34
191.607	-9.73
191.826	96.77
192.045	43.52
192.265	-22.02
192.484	64
192.704	43.52
192.923	-1.54
193.142	178.69
193.362	45.57
193.581	164.35
193.8	78.33
194.02	90.62
194.239	47.62
194.458	82.43
194.678	27.14
194.897	37.38
195.116	84.48
195.335	27.14
195.555	-3.58
195.774	-17.92
195.993	100.86
196.212	-9.73
196.432	70.14
196.651	41.47
196.87	53.76
197.089	276.99
197.308	150.01
197.528	123.39
197.747	-60.93
197.966	51.71
198.185	135.68
198.404	51.71
198.623	156.16
198.842	133.63
199.062	123.39
199.281	119.29
199.5	27.14
199.719	107.01
199.938	33.28
200.157	96.77
200.376	141.82
200.595	164.35
200.814	158.21
201.033	51.71
201.252	172.54
201.471	37.38
201.69	123.39
201.909	74.24
202.128	100.86
202.347	141.82
202.566	72.19
202.785	-75.26
203.004	12.8
203.223	250.36
203.442	76.29
203.661	31.23
203.879	74.24
204.098	127.49
204.317	31.23
204.536	102.91
204.755	96.77
204.974	145.92
205.193	-42.5
205.411	131.58
205.63	107.01
205.849	82.43
206.068	10.75
206.287	-24.06
206.505	143.87
206.724	18.94
206.943	16.9
207.162	33.28
207.381	35.33
207.599	-75.26
207.818	94.72
208.037	12.8
208.255	37.38
208.474	143.87
208.693	-11.78
208.911	102.91
209.13	195.07
209.349	115.2
209.567	109.05
209.786	82.43
210.005	135.68
210.223	64
210.442	-81.41
210.661	57.86
210.879	102.91
211.098	57.86
211.316	55.81
211.535	127.49
211.753	43.52
211.972	66.05
212.191	109.05
212.409	25.09
212.628	121.34
212.846	-24.06
213.065	25.09
213.283	152.06
213.502	20.99
213.72	47.62
213.938	86.53
214.157	-30.21
214.375	125.44
214.594	25.09
214.812	57.86
215.031	4.61
215.249	0.51
215.467	55.81
215.686	8.7
215.904	121.34
216.122	18.94
216.341	252.41
216.559	51.71
216.778	104.96
216.996	166.4
217.214	14.85
217.432	6.66
217.651	-44.54
217.869	64
218.087	109.05
218.306	18.94
218.524	90.62
218.742	66.05
218.96	115.2
219.179	47.62
219.397	61.95
219.615	227.84
219.833	80.38
220.051	-28.16
220.27	180.73
220.488	98.81
220.706	20.99
220.924	-34.3
221.142	74.24
221.36	90.62
221.578	107.01
221.796	37.38
222.015	92.67
222.233	10.75
222.451	195.07
222.669	-3.58
222.887	70.14
223.105	33.28
223.323	23.04
223.541	6.66
223.759	43.52
223.977	94.72
224.195	223.74
224.413	43.52
224.631	49.66
224.849	84.48
225.067	201.21
225.285	45.57
225.503	-24.06
225.721	-105.98
225.939	72.19
226.157	33.28
226.375	205.31
226.592	20.99
226.81	80.38
227.028	37.38
227.246	127.49
227.464	25.09
227.682	147.97
227.9	100.86
228.117	84.48
228.335	117.25
228.553	70.14
228.771	20.99
228.989	29.18
229.206	184.83
229.424	90.62
229.642	72.19
229.86	59.9
230.077	147.97
230.295	20.99
230.513	43.52
230.731	98.81
230.948	184.83
231.166	168.45
231.384	-36.35
231.601	64
231.819	156.16
232.037	55.81
232.254	47.62
232.472	39.42
232.689	4.61
232.907	152.06
233.125	-13.82
233.342	72.19
233.56	-9.73
233.777	4.61
233.995	31.23
234.213	76.29
234.43	119.29
234.648	39.42
234.865	16.9
235.083	84.48
235.3	113.15
235.518	88.57
235.735	80.38
235.953	98.81
236.17	20.99
236.388	-32.26
236.605	10.75
236.822	51.71
237.04	152.06
237.257	88.57
237.475	-44.54
237.692	20.99
237.909	94.72
238.127	-30.21
238.344	141.82
238.562	102.91
238.779	12.8
238.996	6.66
239.214	45.57
239.431	72.19
239.648	70.14
239.865	51.71
240.083	156.16
240.3	35.33
240.517	-5.63
240.735	47.62
240.952	107.01
241.169	10.75
241.386	76.29
241.603	39.42
241.821	-13.82
242.038	90.62
242.255	174.59
242.472	-22.02
242.689	47.62
242.907	119.29
243.124	53.76
243.341	-15.87
243.558	27.14
243.775	4.61
243.992	-48.64
244.209	72.19
244.426	213.5
244.643	80.38
244.86	39.42
245.078	88.57
245.295	72.19
245.512	98.81
245.729	4.61
245.946	147.97
246.163	43.52
246.38	25.09
246.597	29.18
246.814	61.95
247.031	-1.54
247.248	45.57
247.464	90.62
247.681	84.48
247.898	121.34
248.115	90.62
248.332	57.86
248.549	131.58
248.766	188.93
248.983	111.1
249.2	55.81
249.417	137.73
249.633	16.9
249.85	96.77
250.067	29.18
250.284	45.57
250.501	104.96
250.717	115.2
250.934	-52.74
251.151	66.05
251.368	-56.83
251.585	31.23
251.801	84.48
252.018	-7.68
252.235	133.63
252.451	-62.98
252.668	53.76
252.885	184.83
253.102	94.72
253.318	72.19
253.535	25.09
253.752	-13.82
253.968	-71.17
254.185	-13.82
254.401	111.1
254.618	127.49
254.835	-17.92
255.051	156.16
255.268	64
255.484	147.97
255.701	66.05
255.917	113.15
256.134	14.85
256.351	100.86
256.567	-52.74
256.784	70.14
257	-46.59
257.217	164.35
257.433	102.91
257.65	49.66
257.866	111.1
258.082	12.8
258.299	-26.11
258.515	80.38
258.732	70.14
258.948	29.18
259.165	10.75
259.381	-65.02
259.597	133.63
259.814	53.76
260.03	-22.02
260.246	4.61
260.463	184.83
260.679	119.29
260.895	0.51
261.112	37.38
261.328	33.28
261.544	96.77
261.761	215.55
261.977	-34.3
262.193	-7.68
262.409	98.81
262.626	59.9
262.842	-22.02
263.058	16.9
263.274	104.96
263.49	127.49
263.707	37.38
263.923	39.42
264.139	-50.69
264.355	59.9
264.571	197.12
264.787	-13.82
265.004	145.92
265.22	-7.68
265.436	-28.16
265.652	94.72
265.868	92.67
266.084	41.47
266.3	55.81
266.516	-38.4
266.732	80.38
266.948	31.23
267.164	51.71
267.38	147.97
267.596	166.4
267.812	160.25
268.028	45.57
268.244	6.66
268.46	119.29
268.676	51.71
268.892	29.18
269.108	-71.17
269.324	25.09
269.54	25.09
269.756	100.86
269.972	-110.08
270.188	25.09
270.403	-69.12
270.619	39.42
270.835	74.24
271.051	33.28
271.267	-3.58
271.483	-9.73
271.698	158.21
271.914	117.25
272.13	80.38
272.346	57.86
272.562	68.09
272.777	96.77
272.993	47.62
273.209	57.86
273.425	109.05
273.64	-34.3
273.856	111.1
274.072	-36.35
274.287	-38.4
274.503	82.43
274.719	14.85
274.934	-11.78
275.15	-44.54
275.366	49.66
275.581	57.86
275.797	47.62
276.012	47.62
276.228	-34.3
276.444	4.61
276.659	170.49
276.875	-34.3
277.09	80.38
277.306	82.43
277.521	49.66
277.737	94.72
277.952	195.07
278.168	111.1
278.383	59.9
278.599	80.38
278.814	107.01
279.03	49.66
279.245	174.59
279.461	25.09
279.676	90.62
279.892	-52.74
280.107	35.33
280.322	2.56
280.538	57.86
280.753	2.56
280.969	37.38
281.184	31.23
281.399	197.12
281.615	-11.78
281.83	147.97
282.045	-24.06
282.26	-13.82
282.476	45.57
282.691	160.25
282.906	47.62
283.122	-54.78
283.337	8.7
283.552	33.28
283.767	-30.21
283.983	37.38
284.198	29.18
284.413	14.85
284.628	0.51
284.843	68.09
285.058	104.96
285.274	2.56
285.489	0.51
285.704	94.72
285.919	39.42
286.134	12.8
286.349	143.87
286.564	-9.73
286.779	135.68
286.995	102.91
287.21	47.62
287.425	92.67
287.64	-15.87
287.855	88.57
288.07	-22.02
288.285	47.62
288.5	188.93
288.715	117.25
288.93	78.33
289.145	0.51
289.36	143.87
289.575	-5.63
289.79	96.77
290.004	31.23
290.219	82.43
290.434	104.96
290.649	20.99
290.864	-75.26
291.079	133.63
291.294	66.05
291.509	150.01
291.724	6.66
291.938	-40.45
292.153	37.38
292.368	6.66
292.583	131.58
292.798	121.34
293.012	39.42
293.227	109.05
293.442	-85.5
293.657	123.39
293.871	72.19
294.086	27.14
294.301	190.97
294.516	88.57
294.73	53.76
294.945	-58.88
295.16	80.38
295.374	180.73
295.589	45.57
295.804	-9.73
296.018	59.9
296.233	166.4
296.447	2.56
296.662	43.52
296.877	131.58
297.091	109.05
297.306	-3.58
297.52	100.86
297.735	45.57
297.949	25.09
298.164	41.47
298.378	66.05
298.593	-54.78
298.807	-3.58
299.022	80.38
299.236	115.2
299.451	-1.54
299.665	-52.74
299.88	-38.4
300.094	43.52
300.309	31.23
300.523	74.24
300.737	8.7
300.952	104.96
301.166	135.68
301.381	66.05
301.595	8.7
301.809	117.25
302.024	68.09
302.238	27.14
302.452	127.49
302.667	49.66
302.881	172.54
303.095	102.91
303.309	100.86
303.524	-48.64
303.738	20.99
303.952	-28.16
304.166	119.29
304.381	-101.89
304.595	203.26
304.809	-58.88
305.023	59.9
305.237	98.81
305.452	92.67
305.666	111.1
305.88	100.86
306.094	113.15
306.308	96.77
306.522	107.01
306.736	88.57
306.95	115.2
307.164	-9.73
307.379	27.14
307.593	86.53
307.807	131.58
308.021	113.15
308.235	84.48
308.449	-85.5
308.663	41.47
308.877	272.89
309.091	51.71
309.305	119.29
309.519	-44.54
309.733	88.57
309.947	-144.89
310.161	68.09
310.374	172.54
310.588	109.05
310.802	-24.06
311.016	-34.3
311.23	78.33
311.444	-11.78
311.658	51.71
311.872	162.3
312.085	49.66
312.299	86.53
312.513	94.72
312.727	123.39
312.941	-9.73
313.154	49.66
313.368	-22.02
313.582	61.95
313.796	107.01
314.009	10.75
314.223	107.01
314.437	113.15
314.651	47.62
314.864	39.42
315.078	2.56
315.292	-30.21
315.505	16.9
315.719	98.81
315.933	100.86
316.146	35.33
316.36	-26.11
316.573	184.83
316.787	133.63
317.001	39.42
317.214	-15.87
317.428	80.38
317.641	2.56
317.855	47.62
318.068	64
318.282	109.05
318.495	199.16
318.709	82.43
318.922	14.85
319.136	121.34
319.349	61.95
319.563	53.76
319.776	94.72
319.99	-30.21
320.203	96.77
320.417	53.76
320.63	12.8
320.843	145.92
321.057	90.62
321.27	125.44
321.483	94.72
321.697	102.91
321.91	123.39
322.124	61.95
322.337	131.58
322.55	-42.5
322.763	76.29
322.977	-1.54
323.19	61.95
323.403	70.14
323.617	104.96
323.83	117.25
324.043	33.28
324.256	76.29
324.469	25.09
324.683	170.49
324.896	35.33
325.109	51.71
325.322	-110.08
325.535	141.82
325.748	137.73
325.962	31.23
326.175	88.57
326.388	117.25
326.601	113.15
326.814	80.38
327.027	57.86
327.24	104.96
327.453	-148.99
327.666	20.99
327.879	156.16
328.092	125.44
328.305	154.11
328.518	37.38
328.731	-13.82
328.944	55.81
329.157	61.95
329.37	-52.74
329.583	172.54
329.796	127.49
330.009	10.75
330.222	123.39
330.435	127.49
330.648	49.66
330.861	55.81
331.073	80.38
331.286	102.91
331.499	68.09
331.712	2.56
331.925	29.18
332.138	82.43
332.35	154.11
332.563	-15.87
332.776	137.73
332.989	-62.98
333.202	74.24
333.414	66.05
333.627	20.99
333.84	-3.58
334.053	102.91
334.265	10.75
334.478	33.28
334.691	-30.21
334.903	55.81
335.116	37.38
335.329	14.85
335.541	47.62
335.754	180.73
335.966	86.53
336.179	29.18
336.392	74.24
336.604	43.52
336.817	92.67
337.029	53.76
337.242	37.38
337.454	49.66
337.667	-7.68
337.88	150.01
338.092	84.48
338.305	88.57
338.517	-42.5
338.729	-19.97
338.942	160.25
339.154	-3.58
339.367	-54.78
339.579	111.1
339.792	-26.11
340.004	64
340.217	51.71
340.429	18.94
340.641	-65.02
340.854	27.14
341.066	39.42
341.278	188.93
341.491	252.41
341.703	43.52
341.915	-7.68
342.128	66.05
342.34	72.19
342.552	-19.97
342.764	107.01
342.977	-7.68
343.189	145.92
343.401	70.14
343.613	-9.73
343.826	12.8
344.038	31.23
344.25	84.48
344.462	18.94
344.674	59.9
344.886	4.61
345.099	43.52
345.311	82.43
345.523	64
345.735	29.18
345.947	37.38
346.159	119.29
346.371	-1.54
346.583	-19.97
346.795	156.16
347.007	55.81
347.219	152.06
347.431	127.49
347.643	154.11
347.855	20.99
348.067	150.01
348.279	-13.82
348.491	59.9
348.703	78.33
348.915	6.66
349.127	-138.75
349.339	88.57
349.551	25.09
349.763	55.81
349.975	18.94
350.187	127.49
350.399	182.78
350.61	78.33
350.822	2.56
351.034	29.18
351.246	47.62
351.458	94.72
351.669	160.25
351.881	137.73
352.093	217.6
352.305	160.25
352.517	72.19
352.728	115.2
352.94	82.43
353.152	96.77
353.363	16.9
353.575	188.93
353.787	115.2
353.999	119.29
354.21	193.02
354.422	-36.35
354.633	10.75
354.845	76.29
355.057	162.3
355.268	104.96
355.48	78.33
355.692	-46.59
355.903	115.2
356.115	-48.64
356.326	-65.02
356.538	190.97
356.749	78.33
356.961	90.62
357.172	74.24
357.384	-11.78
357.595	279.04
357.807	6.66
358.018	33.28
358.23	37.38
358.441	203.26
358.653	70.14
358.864	6.66
359.075	35.33
359.287	70.14
359.498	201.21
359.709	90.62
359.921	37.38
360.132	100.86
360.344	82.43
360.555	-5.63
360.766	78.33
360.977	68.09
361.189	164.35
361.4	8.7
361.611	158.21
361.823	90.62
362.034	88.57
362.245	-19.97
362.456	-11.78
362.667	76.29
362.879	-11.78
363.09	96.77
363.301	66.05
363.512	33.28
363.723	10.75
363.935	-44.54
364.146	100.86
364.357	4.61
364.568	92.67
364.779	6.66
364.99	160.25
365.201	-40.45
365.412	158.21
365.623	-52.74
365.834	102.91
366.045	53.76
366.256	78.33
366.467	82.43
366.678	12.8
366.889	39.42
367.1	-9.73
367.311	98.81
367.522	-36.35
367.733	37.38
367.944	111.1
368.155	111.1
368.366	121.34
368.577	82.43
368.788	45.57
368.999	-71.17
369.209	39.42
369.42	256.51
369.631	229.88
369.842	150.01
370.053	0.51
370.264	82.43
370.474	53.76
370.685	68.09
370.896	14.85
371.107	199.16
371.317	96.77
371.528	31.23
371.739	25.09
371.95	61.95
372.16	55.81
372.371	-30.21
372.582	59.9
372.792	90.62
373.003	84.48
373.214	12.8
373.424	41.47
373.635	4.61
373.846	152.06
374.056	64
374.267	47.62
374.477	150.01
374.688	-36.35
374.898	98.81
375.109	25.09
375.319	27.14
375.53	127.49
375.74	80.38
375.951	2.56
376.161	82.43
376.372	107.01
376.582	31.23
376.793	131.58
377.003	88.57
377.214	-32.26
377.424	135.68
377.635	27.14
377.845	43.52
378.055	133.63
378.266	-24.06
378.476	45.57
378.686	76.29
378.897	72.19
379.107	61.95
379.317	121.34
379.528	-17.92
379.738	102.91
379.948	-42.5
380.158	104.96
380.369	12.8
380.579	94.72
380.789	57.86
380.999	125.44
381.21	174.59
381.42	188.93
381.63	76.29
381.84	41.47
382.05	139.77
382.261	139.77
382.471	207.36
382.681	14.85
382.891	156.16
383.101	121.34
383.311	-9.73
383.521	8.7
383.731	145.92
383.941	123.39
384.151	39.42
384.361	8.7
384.571	113.15
384.781	123.39
384.991	209.4
385.201	213.5
385.411	94.72
385.621	133.63
385.831	135.68
386.041	158.21
386.251	78.33
386.461	74.24
386.671	80.38
386.881	98.81
387.091	104.96
387.301	119.29
387.511	16.9
387.72	80.38
387.93	131.58
388.14	-26.11
388.35	51.71
388.56	66.05
388.769	150.01
388.979	47.62
389.189	27.14
389.399	45.57
389.609	137.73
389.818	98.81
390.028	49.66
390.238	68.09
390.447	2.56
390.657	94.72
390.867	80.38
391.076	-56.83
391.286	27.14
391.496	29.18
391.705	107.01
391.915	125.44
392.125	127.49
392.334	47.62
392.544	197.12
392.753	20.99
392.963	-42.5
393.172	53.76
393.382	55.81
393.591	193.02
393.801	64
394.01	244.22
394.22	107.01
394.429	25.09
394.639	88.57
394.848	66.05
395.058	31.23
395.267	92.67
395.477	68.09
395.686	137.73
395.895	201.21
396.105	205.31
396.314	55.81
396.524	33.28
396.733	-9.73
396.942	98.81
397.152	88.57
397.361	168.45
397.57	94.72
397.78	78.33
397.989	82.43
398.198	180.73
398.407	74.24
398.617	113.15
398.826	82.43
399.035	53.76
399.244	96.77
399.453	109.05
399.663	96.77
399.872	51.71
400.081	-11.78
400.29	193.02
400.499	0.51
400.708	170.49
400.917	57.86
401.127	-11.78
401.336	-3.58
401.545	188.93
401.754	174.59
401.963	84.48
402.172	18.94
402.381	10.75
402.59	47.62
402.799	64
403.008	119.29
403.217	14.85
403.426	131.58
403.635	-42.5
403.844	25.09
404.053	-9.73
404.262	23.04
404.471	207.36
404.68	92.67
404.888	47.62
405.097	64
405.306	102.91
405.515	125.44
405.724	102.91
405.933	143.87
406.142	70.14
406.35	68.09
406.559	104.96
406.768	107.01
406.977	195.07
407.185	72.19
407.394	84.48
407.603	-46.59
407.812	43.52
408.02	152.06
408.229	154.11
408.438	111.1
408.646	55.81
408.855	0.51
409.064	119.29
409.272	74.24
409.481	94.72
409.69	16.9
409.898	-42.5
410.107	135.68
410.315	55.81
410.524	-75.26
410.733	109.05
410.941	51.71
411.15	76.29
411.358	150.01
411.567	150.01
411.775	145.92
411.984	121.34
412.192	96.77
412.401	43.52
412.609	195.07
412.818	115.2
413.026	131.58
413.234	49.66
413.443	37.38
413.651	-52.74
413.86	82.43
414.068	195.07
414.276	236.03
414.485	-11.78
414.693	154.11
414.901	233.98
415.11	72.19
415.318	64
415.526	90.62
415.734	119.29
415.943	76.29
416.151	262.65
416.359	104.96
416.567	150.01
416.776	168.45
416.984	131.58
417.192	162.3
417.4	98.81
417.608	16.9
417.817	-22.02
418.025	113.15
418.233	158.21
418.441	-22.02
418.649	29.18
418.857	164.35
419.065	141.82
419.273	-3.58
419.481	76.29
419.689	18.94
419.897	55.81
420.105	18.94
420.313	143.87
420.521	164.35
420.729	117.25
420.937	25.09
421.145	-7.68
421.353	180.73
421.561	207.36
421.769	80.38
421.977	39.42
422.185	111.1
422.393	-65.02
422.601	176.64
422.809	57.86
423.017	66.05
423.224	53.76
423.432	154.11
423.64	53.76
423.848	129.53
424.056	80.38
424.263	127.49
424.471	35.33
424.679	123.39
424.887	53.76
425.094	215.55
425.302	166.4
425.51	135.68
425.718	133.63
425.925	84.48
426.133	-24.06
426.341	281.08
426.548	117.25
426.756	33.28
426.964	180.73
427.171	-7.68
427.379	121.34
427.586	92.67
427.794	143.87
428.001	168.45
428.209	109.05
428.417	156.16
428.624	168.45
428.832	147.97
429.039	156.16
429.247	123.39
429.454	74.24
429.662	195.07
429.869	154.11
430.076	86.53
430.284	221.69
430.491	217.6
430.699	84.48
430.906	244.22
431.114	147.97
431.321	135.68
431.528	109.05
431.736	178.69
431.943	145.92
432.15	256.51
432.358	244.22
432.565	289.28
432.772	72.19
432.979	236.03
433.187	119.29
433.394	281.08
433.601	139.77
433.808	248.32
434.016	240.12
434.223	268.8
434.43	256.51
434.637	354.81
434.844	299.52
435.052	279.04
435.259	369.15
435.466	328.19
435.673	303.61
435.88	369.15
436.087	371.19
436.294	332.28
436.501	293.37
436.708	430.59
436.915	260.6
437.122	455.16
437.329	289.28
437.537	328.19
437.743	424.44
437.95	502.26
438.157	455.16
438.364	377.34
438.571	444.92
438.778	494.07
438.985	575.99
439.192	543.22
439.399	489.98
439.606	522.74
439.813	565.75
440.02	668.15
440.227	711.16
440.433	571.9
440.64	647.67
440.847	541.18
441.054	694.77
441.261	770.55
441.467	784.88
441.674	547.32
441.881	772.6
442.088	741.88
442.294	823.8
442.501	840.18
442.708	848.37
442.914	852.47
443.121	928.24
443.328	893.43
443.534	1004.02
443.741	1100.27
443.948	956.91
444.154	1174
444.361	1227.25
444.568	1120.75
444.774	1161.71
444.981	1044.98
445.187	1260.01
445.394	1370.6
445.6	1247.72
445.807	1511.91
446.013	1485.29
446.22	1386.99
446.426	1589.74
446.633	1597.93
446.839	1829.35
447.046	1546.73
447.252	1829.35
447.459	1882.6
447.665	1817.06
447.871	1933.79
448.078	2200.03
448.284	2122.21
448.491	2191.84
448.697	2292.19
448.903	2363.87
449.11	2243.04
449.316	2370.01
449.522	2603.48
449.728	2738.65
449.935	2775.51
450.141	2755.03
450.347	3041.75
450.553	2992.59
450.76	3133.9
450.966	3226.06
451.172	3299.79
451.378	3482.06
451.584	3623.37
451.791	3809.73
451.997	3715.53
452.203	3985.86
452.409	4049.35
452.615	4372.93
452.821	4252.1
453.027	4241.86
453.233	4759.99
453.44	4700.6
453.646	4907.45
453.852	5138.87
454.058	5349.81
454.264	5327.28
454.47	5743.02
454.676	5947.81
454.882	6377.89
455.088	6076.84
455.294	6582.68
455.5	6830.49
455.705	7063.96
455.911	7121.3
456.117	7502.22
456.323	7500.17
456.529	7772.55
456.735	8472.96
456.941	8614.27
457.147	8937.85
457.352	9058.68
457.558	9306.48
457.764	10029.41
457.97	10414.43
458.176	10629.47
458.381	11311.44
458.587	11387.22
458.793	11866.44
458.999	11921.74
459.204	13355.32
459.41	13705.52
459.616	13736.24
459.821	14410.02
460.027	14999.84
460.233	15575.31
460.438	15612.18
460.644	16865.53
460.85	16599.3
461.055	17637.62
461.261	18622.69
461.466	18073.84
461.672	18346.22
461.878	20469.96
462.083	20089.04
462.289	20633.8
462.494	21592.25
462.7	21645.49
462.905	21954.74
463.111	23998.61
463.316	25161.86
463.522	25589.88
463.727	26421.36
463.932	27328.61
464.138	28133.46
464.343	29202.5
464.549	29124.68
464.754	31799.32
464.959	31975.45
465.165	32806.92
465.37	32729.1
465.575	32534.54
465.781	35194.85
465.986	35784.67
466.191	35129.32
466.397	35663.84
466.602	34584.56
466.807	36915.15
467.012	37638.08
467.218	37787.58
467.423	38174.65
467.628	39106.48
467.833	41346.95
468.038	40755.09
