Data from USB4F104151__51__09-28-15-003.txt Node

Date: Wed Feb 26 09:28:15 EST 2025
User: louis
Spectrometer: USB4F10415
Trigger mode: 4
Integration Time (sec): 1.000000E-1
Scans to average: 1
Electric dark correction enabled: true
Nonlinearity correction enabled: false
Boxcar width: 0
XAxis mode: Wavelengths
Number of Pixels in Spectrum: 3648
>>>>>Begin Spectral Data<<<<<
178.204	-356.86
178.424	-356.86
178.644	-356.86
178.864	-369.15
179.084	-375.29
179.304	-6.66
179.524	13.82
179.744	40.45
179.964	9.73
180.184	34.3
180.404	40.45
180.624	-43.52
180.844	-86.53
181.064	-66.05
181.283	1.54
181.503	28.16
181.723	34.3
181.943	-102.91
182.163	218.62
182.383	5.63
182.602	-29.18
182.822	134.65
183.042	36.35
183.262	28.16
183.482	-68.09
183.701	26.11
183.921	15.87
184.141	-61.95
184.361	52.74
184.58	62.98
184.8	34.3
185.02	54.78
185.239	44.54
185.459	40.45
185.679	77.31
185.898	-92.67
186.118	60.93
186.338	-4.61
186.557	112.13
186.777	-55.81
186.997	3.58
187.216	17.92
187.436	116.22
187.655	7.68
187.875	9.73
188.095	93.69
188.314	34.3
188.534	157.18
188.753	-33.28
188.973	134.65
189.192	144.89
189.412	48.64
189.631	-8.7
189.851	97.79
190.07	144.89
190.29	-16.9
190.509	-12.8
190.729	3.58
190.948	40.45
191.168	220.67
191.387	46.59
191.607	13.82
191.826	46.59
192.045	-10.75
192.265	40.45
192.484	40.45
192.704	24.06
192.923	-74.24
193.142	163.33
193.362	36.35
193.581	110.08
193.8	110.08
194.02	54.78
194.239	26.11
194.458	87.55
194.678	-20.99
194.897	11.78
195.116	83.45
195.335	3.58
195.555	126.46
195.774	-31.23
195.993	48.64
196.212	44.54
196.432	-41.47
196.651	-25.09
196.87	11.78
197.089	175.61
197.308	101.89
197.528	58.88
197.747	69.12
197.966	79.36
198.185	58.88
198.404	-20.99
198.623	101.89
198.842	89.6
199.062	118.27
199.281	116.22
199.5	34.3
199.719	42.5
199.938	99.84
200.157	58.88
200.376	36.35
200.595	93.69
200.814	44.54
201.033	-74.24
201.252	153.09
201.471	62.98
201.69	44.54
201.909	67.07
202.128	87.55
202.347	73.21
202.566	44.54
202.785	7.68
203.004	-64
203.223	177.66
203.442	91.65
203.661	-37.38
203.879	48.64
204.098	124.41
204.317	-61.95
204.536	118.27
204.755	110.08
204.974	34.3
205.193	-43.52
205.411	144.89
205.63	97.79
205.849	3.58
206.068	56.83
206.287	-2.56
206.505	28.16
206.724	-45.57
206.943	11.78
207.162	-37.38
207.381	-12.8
207.599	11.78
207.818	19.97
208.037	-6.66
208.255	-27.14
208.474	19.97
208.693	62.98
208.911	-8.7
209.13	42.5
209.349	40.45
209.567	140.8
209.786	54.78
210.005	56.83
210.223	32.26
210.442	-82.43
210.661	52.74
210.879	-8.7
211.098	-23.04
211.316	44.54
211.535	44.54
211.753	-6.66
211.972	105.98
212.191	-0.51
212.409	-70.14
212.628	44.54
212.846	3.58
213.065	48.64
213.283	93.69
213.502	50.69
213.72	9.73
213.938	60.93
214.157	19.97
214.375	81.41
214.594	-53.76
214.812	42.5
215.031	73.21
215.249	44.54
215.467	60.93
215.686	-23.04
215.904	77.31
216.122	32.26
216.341	138.75
216.559	60.93
216.778	91.65
216.996	140.8
217.214	-12.8
217.432	32.26
217.651	-57.86
217.869	-27.14
218.087	99.84
218.306	-4.61
218.524	56.83
218.742	77.31
218.96	-4.61
219.179	44.54
219.397	42.5
219.615	210.43
219.833	60.93
220.051	-82.43
220.27	114.17
220.488	112.13
220.706	-12.8
220.924	-43.52
221.142	-23.04
221.36	5.63
221.578	97.79
221.796	75.26
222.015	95.74
222.233	15.87
222.451	118.27
222.669	-4.61
222.887	81.41
223.105	-70.14
223.323	44.54
223.541	-53.76
223.759	110.08
223.977	-14.85
224.195	116.22
224.413	73.21
224.631	19.97
224.849	5.63
225.067	101.89
225.285	-31.23
225.503	5.63
225.721	-37.38
225.939	-64
226.157	132.61
226.375	177.66
226.592	3.58
226.81	3.58
227.028	87.55
227.246	114.17
227.464	73.21
227.682	153.09
227.9	101.89
228.117	65.02
228.335	112.13
228.553	52.74
228.771	13.82
228.989	-37.38
229.206	34.3
229.424	1.54
229.642	-55.81
229.86	-61.95
230.077	161.28
230.295	60.93
230.513	91.65
230.731	42.5
230.948	105.98
231.166	93.69
231.384	13.82
231.601	-45.57
231.819	140.8
232.037	-37.38
232.254	-102.91
232.472	15.87
232.689	56.83
232.907	116.22
233.125	30.21
233.342	-23.04
233.56	24.06
233.777	13.82
233.995	58.88
234.213	136.7
234.43	60.93
234.648	69.12
234.865	-6.66
235.083	110.08
235.3	85.5
235.518	-8.7
235.735	120.32
235.953	17.92
236.17	50.69
236.388	-76.29
236.605	13.82
236.822	85.5
237.04	83.45
237.257	7.68
237.475	-115.2
237.692	24.06
237.909	19.97
238.127	46.59
238.344	34.3
238.562	85.5
238.779	-74.24
238.996	-57.86
239.214	3.58
239.431	56.83
239.648	-39.42
239.865	77.31
240.083	126.46
240.3	-2.56
240.517	34.3
240.735	-16.9
240.952	65.02
241.169	89.6
241.386	32.26
241.603	3.58
241.821	-31.23
242.038	77.31
242.255	116.22
242.472	-27.14
242.689	157.18
242.907	93.69
243.124	60.93
243.341	52.74
243.558	-33.28
243.775	-4.61
243.992	46.59
244.209	11.78
244.426	101.89
244.643	77.31
244.86	-18.94
245.078	69.12
245.295	26.11
245.512	-45.57
245.729	-25.09
245.946	60.93
246.163	-18.94
246.38	48.64
246.597	28.16
246.814	-10.75
247.031	3.58
247.248	-23.04
247.464	108.03
247.681	11.78
247.898	85.5
248.115	69.12
248.332	-96.77
248.549	114.17
248.766	105.98
248.983	79.36
249.2	71.17
249.417	40.45
249.633	-20.99
249.85	77.31
250.067	15.87
250.284	-55.81
250.501	26.11
250.717	40.45
250.934	-53.76
251.151	32.26
251.368	-20.99
251.585	50.69
251.801	42.5
252.018	-20.99
252.235	99.84
252.451	-41.47
252.668	3.58
252.885	151.04
253.102	50.69
253.318	28.16
253.535	22.02
253.752	60.93
253.968	-10.75
254.185	-20.99
254.401	56.83
254.618	81.41
254.835	11.78
255.051	126.46
255.268	-8.7
255.484	81.41
255.701	62.98
255.917	28.16
256.134	-53.76
256.351	-53.76
256.567	-29.18
256.784	24.06
257	-29.18
257.217	34.3
257.433	52.74
257.65	1.54
257.866	128.51
258.082	-98.81
258.299	-31.23
258.515	38.4
258.732	9.73
258.948	-6.66
259.165	99.84
259.381	-41.47
259.597	15.87
259.814	50.69
260.03	7.68
260.246	26.11
260.463	48.64
260.679	54.78
260.895	62.98
261.112	-27.14
261.328	9.73
261.544	-16.9
261.761	87.55
261.977	-25.09
262.193	-66.05
262.409	69.12
262.626	11.78
262.842	75.26
263.058	-57.86
263.274	93.69
263.49	50.69
263.707	60.93
263.923	-16.9
264.139	-53.76
264.355	40.45
264.571	1.54
264.787	-20.99
265.004	89.6
265.22	15.87
265.436	15.87
265.652	17.92
265.868	19.97
266.084	-6.66
266.3	28.16
266.516	-78.33
266.732	46.59
266.948	24.06
267.164	5.63
267.38	142.85
267.596	48.64
267.812	153.09
268.028	65.02
268.244	-0.51
268.46	-66.05
268.676	-10.75
268.892	30.21
269.108	22.02
269.324	-18.94
269.54	-107.01
269.756	73.21
269.972	-107.01
270.188	-14.85
270.403	-4.61
270.619	40.45
270.835	11.78
271.051	-29.18
271.267	24.06
271.483	-20.99
271.698	38.4
271.914	19.97
272.13	40.45
272.346	24.06
272.562	5.63
272.777	89.6
272.993	-41.47
273.209	42.5
273.425	56.83
273.64	-35.33
273.856	97.79
274.072	-70.14
274.287	-45.57
274.503	17.92
274.719	151.04
274.934	48.64
275.15	-39.42
275.366	24.06
275.581	-31.23
275.797	-37.38
276.012	30.21
276.228	-72.19
276.444	15.87
276.659	97.79
276.875	-20.99
277.09	17.92
277.306	38.4
277.521	83.45
277.737	32.26
277.952	-0.51
278.168	50.69
278.383	99.84
278.599	67.07
278.814	85.5
279.03	34.3
279.245	134.65
279.461	42.5
279.676	93.69
279.892	-53.76
280.107	-72.19
280.322	-70.14
280.538	114.17
280.753	-10.75
280.969	54.78
281.184	44.54
281.399	105.98
281.615	67.07
281.83	73.21
282.045	-20.99
282.26	-29.18
282.476	93.69
282.691	69.12
282.906	11.78
283.122	1.54
283.337	-14.85
283.552	118.27
283.767	-55.81
283.983	83.45
284.198	-6.66
284.413	97.79
284.628	38.4
284.843	15.87
285.058	38.4
285.274	19.97
285.489	13.82
285.704	11.78
285.919	-25.09
286.134	-16.9
286.349	42.5
286.564	19.97
286.779	138.75
286.995	-35.33
287.21	-6.66
287.425	34.3
287.64	-51.71
287.855	11.78
288.07	-53.76
288.285	114.17
288.5	116.22
288.715	11.78
288.93	-23.04
289.145	-12.8
289.36	22.02
289.575	-31.23
289.79	75.26
290.004	-49.66
290.219	124.41
290.434	-43.52
290.649	-25.09
290.864	-70.14
291.079	7.68
291.294	136.7
291.509	48.64
291.724	34.3
291.938	-72.19
292.153	7.68
292.368	-35.33
292.583	34.3
292.798	77.31
293.012	-2.56
293.227	126.46
293.442	-33.28
293.657	42.5
293.871	69.12
294.086	24.06
294.301	108.03
294.516	77.31
294.73	71.17
294.945	-117.25
295.16	-16.9
295.374	65.02
295.589	11.78
295.804	1.54
296.018	58.88
296.233	65.02
296.447	-43.52
296.662	-4.61
296.877	44.54
297.091	5.63
297.306	52.74
297.52	48.64
297.735	44.54
297.949	62.98
298.164	36.35
298.378	9.73
298.593	-10.75
298.807	-76.29
299.022	-31.23
299.236	87.55
299.451	28.16
299.665	26.11
299.88	-4.61
300.094	46.59
300.309	5.63
300.523	32.26
300.737	-20.99
300.952	75.26
301.166	-4.61
301.381	42.5
301.595	-31.23
301.809	24.06
302.024	3.58
302.238	28.16
302.452	36.35
302.667	69.12
302.881	165.37
303.095	67.07
303.309	112.13
303.524	44.54
303.738	81.41
303.952	3.58
304.166	93.69
304.381	-145.92
304.595	157.18
304.809	-86.53
305.023	-0.51
305.237	3.58
305.452	7.68
305.666	9.73
305.88	99.84
306.094	67.07
306.308	77.31
306.522	159.23
306.736	110.08
306.95	60.93
307.164	-37.38
307.379	11.78
307.593	120.32
307.807	140.8
308.021	83.45
308.235	34.3
308.449	-49.66
308.663	-43.52
308.877	232.96
309.091	69.12
309.305	97.79
309.519	-143.87
309.733	26.11
309.947	-51.71
310.161	62.98
310.374	9.73
310.588	112.13
310.802	-64
311.016	38.4
311.23	60.93
311.444	3.58
311.658	-37.38
311.872	81.41
312.085	42.5
312.299	89.6
312.513	116.22
312.727	67.07
312.941	-8.7
313.154	69.12
313.368	58.88
313.582	54.78
313.796	101.89
314.009	62.98
314.223	181.76
314.437	1.54
314.651	73.21
314.864	-57.86
315.078	-55.81
315.292	-72.19
315.505	71.17
315.719	110.08
315.933	73.21
316.146	-6.66
316.36	-47.62
316.573	24.06
316.787	-12.8
317.001	-6.66
317.214	5.63
317.428	97.79
317.641	46.59
317.855	7.68
318.068	69.12
318.282	-18.94
318.495	165.37
318.709	46.59
318.922	42.5
319.136	58.88
319.349	48.64
319.563	1.54
319.776	36.35
319.99	-66.05
320.203	77.31
320.417	-10.75
320.63	46.59
320.843	189.95
321.057	34.3
321.27	22.02
321.483	32.26
321.697	79.36
321.91	52.74
322.124	-4.61
322.337	-29.18
322.55	-43.52
322.763	48.64
322.977	-16.9
323.19	-49.66
323.403	-4.61
323.617	79.36
323.83	91.65
324.043	9.73
324.256	-6.66
324.469	-37.38
324.683	81.41
324.896	17.92
325.109	30.21
325.322	-102.91
325.535	58.88
325.748	167.42
325.962	54.78
326.175	58.88
326.388	95.74
326.601	91.65
326.814	7.68
327.027	19.97
327.24	105.98
327.453	-76.29
327.666	11.78
327.879	89.6
328.092	101.89
328.305	26.11
328.518	48.64
328.731	15.87
328.944	-12.8
329.157	11.78
329.37	19.97
329.583	198.14
329.796	108.03
330.009	-64
330.222	73.21
330.435	52.74
330.648	-12.8
330.861	13.82
331.073	34.3
331.286	67.07
331.499	71.17
331.712	-23.04
331.925	-25.09
332.138	-10.75
332.35	62.98
332.563	-14.85
332.776	52.74
332.989	-4.61
333.202	7.68
333.414	40.45
333.627	48.64
333.84	52.74
334.053	26.11
334.265	3.58
334.478	28.16
334.691	58.88
334.903	15.87
335.116	-25.09
335.329	-18.94
335.541	-43.52
335.754	163.33
335.966	28.16
336.179	-25.09
336.392	65.02
336.604	73.21
336.817	157.18
337.029	28.16
337.242	95.74
337.454	54.78
337.667	11.78
337.88	103.93
338.092	67.07
338.305	24.06
338.517	-16.9
338.729	36.35
338.942	77.31
339.154	-88.57
339.367	-70.14
339.579	89.6
339.792	-23.04
340.004	69.12
340.217	-0.51
340.429	60.93
340.641	-57.86
340.854	-4.61
341.066	65.02
341.278	97.79
341.491	112.13
341.703	-49.66
341.915	52.74
342.128	42.5
342.34	124.41
342.552	50.69
342.764	91.65
342.977	-20.99
343.189	-8.7
343.401	46.59
343.613	-25.09
343.826	73.21
344.038	-70.14
344.25	58.88
344.462	-107.01
344.674	11.78
344.886	-20.99
345.099	19.97
345.311	13.82
345.523	24.06
345.735	-100.86
345.947	69.12
346.159	60.93
346.371	46.59
346.583	15.87
346.795	155.13
347.007	-74.24
347.219	3.58
347.431	-20.99
347.643	56.83
347.855	5.63
348.067	110.08
348.279	-37.38
348.491	3.58
348.703	85.5
348.915	-12.8
349.127	28.16
349.339	26.11
349.551	-27.14
349.763	5.63
349.975	-0.51
350.187	93.69
350.399	81.41
350.61	140.8
350.822	-45.57
351.034	15.87
351.246	85.5
351.458	122.37
351.669	-31.23
351.881	38.4
352.093	108.03
352.305	50.69
352.517	32.26
352.728	87.55
352.94	52.74
353.152	-8.7
353.363	-53.76
353.575	151.04
353.787	132.61
353.999	9.73
354.21	67.07
354.422	-57.86
354.633	7.68
354.845	-20.99
355.057	50.69
355.268	75.26
355.48	60.93
355.692	-127.49
355.903	-66.05
356.115	-25.09
356.326	-49.66
356.538	60.93
356.749	132.61
356.961	105.98
357.172	38.4
357.384	42.5
357.595	185.85
357.807	-8.7
358.018	32.26
358.23	28.16
358.441	118.27
358.653	44.54
358.864	81.41
359.075	-33.28
359.287	75.26
359.498	11.78
359.709	89.6
359.921	54.78
360.132	108.03
360.344	11.78
360.555	-12.8
360.766	56.83
360.977	-49.66
361.189	52.74
361.4	-82.43
361.611	112.13
361.823	155.13
362.034	60.93
362.245	-82.43
362.456	9.73
362.667	44.54
362.879	-90.62
363.09	81.41
363.301	3.58
363.512	56.83
363.723	9.73
363.935	9.73
364.146	5.63
364.357	42.5
364.568	15.87
364.779	-86.53
364.99	67.07
365.201	-25.09
365.412	122.37
365.623	-115.2
365.834	62.98
366.045	-0.51
366.256	83.45
366.467	52.74
366.678	30.21
366.889	24.06
367.1	48.64
367.311	114.17
367.522	13.82
367.733	75.26
367.944	3.58
368.155	-27.14
368.366	81.41
368.577	69.12
368.788	77.31
368.999	26.11
369.209	-4.61
369.42	116.22
369.631	132.61
369.842	36.35
370.053	-12.8
370.264	40.45
370.474	-55.81
370.685	87.55
370.896	-0.51
371.107	85.5
371.317	138.75
371.528	1.54
371.739	173.57
371.95	75.26
372.16	48.64
372.371	-53.76
372.582	11.78
372.792	71.17
373.003	73.21
373.214	7.68
373.424	58.88
373.635	-55.81
373.846	79.36
374.056	19.97
374.267	40.45
374.477	91.65
374.688	-35.33
374.898	75.26
375.109	38.4
375.319	56.83
375.53	87.55
375.74	9.73
375.951	73.21
376.161	34.3
376.372	85.5
376.582	11.78
376.793	71.17
377.003	-14.85
377.214	-6.66
377.424	1.54
377.635	48.64
377.845	15.87
378.055	112.13
378.266	3.58
378.476	-29.18
378.686	85.5
378.897	-6.66
379.107	65.02
379.317	3.58
379.528	42.5
379.738	71.17
379.948	-94.72
380.158	65.02
380.369	15.87
380.579	85.5
380.789	1.54
380.999	89.6
381.21	101.89
381.42	108.03
381.63	36.35
381.84	36.35
382.05	19.97
382.261	52.74
382.471	91.65
382.681	-0.51
382.891	224.76
383.101	-18.94
383.311	-64
383.521	11.78
383.731	108.03
383.941	9.73
384.151	17.92
384.361	52.74
384.571	101.89
384.781	36.35
384.991	196.09
385.201	171.52
385.411	28.16
385.621	30.21
385.831	-8.7
386.041	19.97
386.251	114.17
386.461	71.17
386.671	-6.66
386.881	71.17
387.091	65.02
387.301	69.12
387.511	-53.76
387.72	1.54
387.93	38.4
388.14	-37.38
388.35	110.08
388.56	89.6
388.769	52.74
388.979	75.26
389.189	19.97
389.399	34.3
389.609	108.03
389.818	38.4
390.028	-45.57
390.238	62.98
390.447	-20.99
390.657	85.5
390.867	159.23
391.076	-25.09
391.286	28.16
391.496	56.83
391.705	-8.7
391.915	44.54
392.125	108.03
392.334	26.11
392.544	52.74
392.753	87.55
392.963	-29.18
393.172	56.83
393.382	1.54
393.591	146.94
393.801	-16.9
394.01	146.94
394.22	77.31
394.429	-29.18
394.639	-45.57
394.848	69.12
395.058	36.35
395.267	-8.7
395.477	48.64
395.686	58.88
395.895	163.33
396.105	185.85
396.314	91.65
396.524	52.74
396.733	11.78
396.942	155.13
397.152	73.21
397.361	83.45
397.57	81.41
397.78	36.35
397.989	40.45
398.198	91.65
398.407	-14.85
398.617	-12.8
398.826	28.16
399.035	9.73
399.244	108.03
399.453	36.35
399.663	-8.7
399.872	11.78
400.081	-86.53
400.29	103.93
400.499	46.59
400.708	73.21
400.917	-43.52
401.127	-0.51
401.336	-4.61
401.545	148.99
401.754	40.45
401.963	89.6
402.172	40.45
402.381	17.92
402.59	36.35
402.799	3.58
403.008	155.13
403.217	112.13
403.426	85.5
403.635	11.78
403.844	28.16
404.053	15.87
404.262	-55.81
404.471	181.76
404.68	73.21
404.888	58.88
405.097	118.27
405.306	65.02
405.515	128.51
405.724	5.63
405.933	95.74
406.142	52.74
406.35	108.03
406.559	7.68
406.768	87.55
406.977	151.04
407.185	-14.85
407.394	24.06
407.603	11.78
407.812	24.06
408.02	122.37
408.229	65.02
408.438	58.88
408.646	-45.57
408.855	-18.94
409.064	99.84
409.272	19.97
409.481	60.93
409.69	15.87
409.898	-12.8
410.107	-8.7
410.315	73.21
410.524	19.97
410.733	34.3
410.941	71.17
411.15	108.03
411.358	85.5
411.567	32.26
411.775	79.36
411.984	112.13
412.192	44.54
412.401	-0.51
412.609	189.95
412.818	99.84
413.026	9.73
413.234	11.78
413.443	28.16
413.651	77.31
413.86	-0.51
414.068	99.84
414.276	95.74
414.485	17.92
414.693	132.61
414.901	103.93
415.11	85.5
415.318	32.26
415.526	28.16
415.734	91.65
415.943	60.93
416.151	85.5
416.359	60.93
416.567	58.88
416.776	60.93
416.984	126.46
417.192	134.65
417.4	52.74
417.608	5.63
417.817	-2.56
418.025	110.08
418.233	151.04
418.441	-55.81
418.649	-49.66
418.857	69.12
419.065	112.13
419.273	19.97
419.481	54.78
419.689	136.7
419.897	-0.51
420.105	-31.23
420.313	120.32
420.521	91.65
420.729	138.75
420.937	-45.57
421.145	28.16
421.353	65.02
421.561	110.08
421.769	77.31
421.977	-0.51
422.185	85.5
422.393	3.58
422.601	60.93
422.809	24.06
423.017	-8.7
423.224	69.12
423.432	87.55
423.64	28.16
423.848	208.38
424.056	42.5
424.263	89.6
424.471	56.83
424.679	50.69
424.887	13.82
425.094	126.46
425.302	34.3
425.51	60.93
425.718	56.83
425.925	69.12
426.133	13.82
426.341	118.27
426.548	32.26
426.756	89.6
426.964	130.56
427.171	-25.09
427.379	52.74
427.586	1.54
427.794	120.32
428.001	54.78
428.209	95.74
428.417	128.51
428.624	140.8
428.832	58.88
429.039	42.5
429.247	48.64
429.454	110.08
429.662	126.46
429.869	118.27
430.076	85.5
430.284	65.02
430.491	212.48
430.699	151.04
430.906	169.47
431.114	140.8
431.321	192
431.528	69.12
431.736	140.8
431.943	148.99
432.15	157.18
432.358	167.42
432.565	177.66
432.772	-0.51
432.979	134.65
433.187	108.03
433.394	196.09
433.601	101.89
433.808	169.47
434.016	200.19
434.223	136.7
434.43	136.7
434.637	169.47
434.844	196.09
435.052	204.28
435.259	196.09
435.466	237.05
435.673	200.19
435.88	222.72
436.087	183.81
436.294	220.67
436.501	273.92
436.708	255.48
436.915	235
437.122	337.4
437.329	220.67
437.537	275.96
437.743	275.96
437.95	396.79
438.157	333.31
438.364	306.68
438.571	357.88
438.778	380.41
438.985	343.55
439.192	419.32
439.399	331.26
439.606	339.45
439.813	488.95
440.02	574.97
440.227	507.38
440.433	515.58
440.64	478.71
440.847	415.23
441.054	505.34
441.261	644.6
441.467	507.38
441.674	558.58
441.881	630.26
442.088	558.58
442.294	675.32
442.501	675.32
442.708	724.47
442.914	673.27
443.121	667.13
443.328	781.81
443.534	749.04
443.741	753.14
443.948	671.22
444.154	796.15
444.361	1015.28
444.568	812.53
444.774	943.6
444.981	851.44
445.187	1068.53
445.394	1046
445.6	990.7
445.807	1156.59
446.013	1052.14
446.22	1039.86
446.426	1185.26
446.633	1310.19
446.839	1428.97
447.046	1170.93
447.252	1486.31
447.459	1379.82
447.665	1318.38
447.871	1617.38
448.078	1623.53
448.284	1588.71
448.491	1785.32
448.697	1875.43
448.903	1943.01
449.11	1936.87
449.316	1967.59
449.522	2123.23
449.728	2186.72
449.935	2321.88
450.141	2174.43
450.347	2418.14
450.553	2244.06
450.76	2371.04
450.966	2481.63
451.172	2698.71
451.378	2715.09
451.584	2670.04
451.791	3057.11
451.997	3055.06
452.203	3059.15
452.409	3192.27
452.615	3347.92
452.821	3333.58
453.027	3243.47
453.233	3849.67
453.44	3565
453.646	3823.05
453.852	4085.19
454.058	4173.25
454.264	4437.44
454.47	4584.89
454.676	4654.52
454.882	5031.35
455.088	4943.28
455.294	5109.17
455.5	5367.21
455.705	5746.09
455.911	5655.98
456.117	5877.16
456.323	6028.71
456.529	5987.75
456.735	6733.21
456.941	6696.35
457.147	7159.19
457.352	7064.98
457.558	7579.02
457.764	8056.2
457.97	8211.84
458.176	8367.49
458.381	9010.55
458.587	8977.78
458.793	9436.53
458.999	9506.16
459.204	10538.34
459.41	10919.26
459.616	10769.76
459.821	11285.84
460.027	11758.92
460.233	12537.15
460.438	12318.02
460.644	13274.42
460.85	13311.28
461.055	13774.13
461.261	14454.05
461.466	14310.69
461.672	14646.56
461.878	16475.4
462.083	15951.12
462.289	16405.77
462.494	17138.94
462.7	17157.37
462.905	17376.5
463.111	18785.51
463.316	19705.04
463.522	20139.21
463.727	20591.81
463.932	21677.24
464.138	22357.16
464.343	22924.45
464.549	23032.99
464.754	24837.25
464.959	25414.78
465.165	25853.05
465.37	25934.96
465.575	25693.3
465.781	27782.23
465.986	28343.38
466.191	27622.49
466.397	28130.39
466.602	27520.09
466.807	29023.3
467.012	29293.63
467.218	29930.55
467.423	30336.05
467.628	30841.9
467.833	32345.11
468.038	31880.22
468.244	31290.4
468.449	32893.96
468.654	32183.32
468.859	32695.31
469.064	32285.72
469.269	31247.4
469.474	31726.62
469.679	32228.37
469.885	31792.15
470.09	32148.5
470.295	32234.52
