Data from USB4F104151__119__10-39-58-699.txt Node

Date: Wed Feb 26 10:39:58 EST 2025
User: louis
Spectrometer: USB4F10415
Trigger mode: 4
Integration Time (sec): 1.000000E-1
Scans to average: 1
Electric dark correction enabled: true
Nonlinearity correction enabled: false
Boxcar width: 0
XAxis mode: Wavelengths
Number of Pixels in Spectrum: 3648
>>>>>Begin Spectral Data<<<<<
178.204	-446.8
178.424	-446.8
178.644	-446.8
178.864	-334.16
179.084	-405.84
179.304	24.23
179.524	-67.92
179.744	26.28
179.964	81.58
180.184	24.23
180.404	-49.49
180.624	-76.12
180.844	36.52
181.064	-69.97
181.283	9.9
181.503	30.38
181.723	30.38
181.943	-37.2
182.163	192.17
182.383	9.9
182.602	91.82
182.822	239.27
183.042	122.54
183.262	-33.11
183.482	34.47
183.701	20.14
183.921	54.95
184.141	-31.06
184.361	18.09
184.58	73.39
184.8	36.52
185.02	-10.58
185.239	59.05
185.459	87.72
185.679	138.92
185.898	-115.03
186.118	65.19
186.338	22.19
186.557	145.06
186.777	-41.3
186.997	11.95
187.216	-0.34
187.436	249.51
187.655	93.87
187.875	95.91
188.095	52.91
188.314	69.29
188.534	165.54
188.753	-24.92
188.973	112.3
189.192	173.74
189.412	61.1
189.631	-20.82
189.851	48.81
190.07	171.69
190.29	9.9
190.509	-45.4
190.729	52.91
190.948	134.82
191.168	278.18
191.387	134.82
191.607	61.1
191.826	63.15
192.045	44.71
192.265	-49.49
192.484	91.82
192.704	5.8
192.923	-63.83
193.142	196.26
193.362	77.48
193.581	220.84
193.8	114.34
194.02	69.29
194.239	95.91
194.458	132.78
194.678	11.95
194.897	32.43
195.116	85.67
195.335	79.53
195.555	50.86
195.774	-65.88
195.993	71.34
196.212	91.82
196.432	-10.58
196.651	-26.96
196.87	28.33
197.089	233.13
197.308	59.05
197.528	71.34
197.747	52.91
197.966	28.33
198.185	151.21
198.404	-8.53
198.623	108.2
198.842	110.25
199.062	149.16
199.281	110.25
199.5	122.54
199.719	116.39
199.938	85.67
200.157	67.24
200.376	128.68
200.595	149.16
200.814	73.39
201.033	-6.49
201.252	91.82
201.471	122.54
201.69	122.54
201.909	-14.68
202.128	128.68
202.347	145.06
202.566	24.23
202.785	50.86
203.004	-78.16
203.223	210.6
203.442	-29.01
203.661	-0.34
203.879	42.67
204.098	140.97
204.317	-14.68
204.536	118.44
204.755	91.82
204.974	48.81
205.193	-65.88
205.411	138.92
205.63	77.48
205.849	71.34
206.068	79.53
206.287	30.38
206.505	77.48
206.724	59.05
206.943	16.04
207.162	7.85
207.381	102.06
207.599	5.8
207.818	9.9
208.037	-2.39
208.255	83.63
208.474	61.1
208.693	134.82
208.911	-8.53
209.13	-2.39
209.349	124.58
209.567	50.86
209.786	48.81
210.005	157.35
210.223	130.73
210.442	-96.6
210.661	63.15
210.879	69.29
211.098	34.47
211.316	46.76
211.535	52.91
211.753	20.14
211.972	77.48
212.191	-18.77
212.409	44.71
212.628	85.67
212.846	-76.12
213.065	81.58
213.283	165.54
213.502	11.95
213.72	73.39
213.938	54.95
214.157	22.19
214.375	91.82
214.594	-6.49
214.812	140.97
215.031	-24.92
215.249	57
215.467	97.96
215.686	48.81
215.904	69.29
216.122	85.67
216.341	206.5
216.559	28.33
216.778	87.72
216.996	114.34
217.214	26.28
217.432	52.91
217.651	61.1
217.869	-33.11
218.087	75.43
218.306	32.43
218.524	9.9
218.742	40.62
218.96	75.43
219.179	69.29
219.397	22.19
219.615	235.18
219.833	192.17
220.051	5.8
220.27	130.73
220.488	138.92
220.706	-4.44
220.924	-22.87
221.142	22.19
221.36	110.25
221.578	100.01
221.796	67.24
222.015	30.38
222.233	22.19
222.451	169.64
222.669	-8.53
222.887	40.62
223.105	-63.83
223.323	9.9
223.541	11.95
223.759	108.2
223.977	11.95
224.195	181.93
224.413	73.39
224.631	108.2
224.849	52.91
225.067	165.54
225.285	38.57
225.503	26.28
225.721	-72.02
225.939	48.81
226.157	63.15
226.375	214.7
226.592	9.9
226.81	54.95
227.028	81.58
227.246	91.82
227.464	32.43
227.682	130.73
227.9	89.77
228.117	79.53
228.335	91.82
228.553	-4.44
228.771	-2.39
228.989	36.52
229.206	75.43
229.424	20.14
229.642	-18.77
229.86	-0.34
230.077	134.82
230.295	159.4
230.513	57
230.731	104.11
230.948	212.65
231.166	128.68
231.384	57
231.601	20.14
231.819	151.21
232.037	-39.25
232.254	-14.68
232.472	-37.2
232.689	-33.11
232.907	134.82
233.125	44.71
233.342	-49.49
233.56	13.99
233.777	42.67
233.995	91.82
234.213	147.11
234.43	110.25
234.648	-6.49
234.865	61.1
235.083	73.39
235.3	65.19
235.518	204.46
235.735	196.26
235.953	108.2
236.17	59.05
236.388	71.34
236.605	-12.63
236.822	81.58
237.04	114.34
237.257	77.48
237.475	22.19
237.692	81.58
237.909	44.71
238.127	79.53
238.344	145.06
238.562	77.48
238.779	5.8
238.996	-31.06
239.214	30.38
239.431	48.81
239.648	54.95
239.865	52.91
240.083	104.11
240.3	26.28
240.517	-12.63
240.735	108.2
240.952	159.4
241.169	97.96
241.386	79.53
241.603	69.29
241.821	-2.39
242.038	126.63
242.255	67.24
242.472	-14.68
242.689	81.58
242.907	46.76
243.124	83.63
243.341	5.8
243.558	20.14
243.775	-67.92
243.992	-49.49
244.209	104.11
244.426	145.06
244.643	89.77
244.86	67.24
245.078	83.63
245.295	65.19
245.512	-20.82
245.729	-24.92
245.946	30.38
246.163	97.96
246.38	16.04
246.597	34.47
246.814	102.06
247.031	24.23
247.248	59.05
247.464	124.58
247.681	16.04
247.898	108.2
248.115	77.48
248.332	26.28
248.549	97.96
248.766	214.7
248.983	97.96
249.2	36.52
249.417	138.92
249.633	24.23
249.85	83.63
250.067	132.78
250.284	67.24
250.501	75.43
250.717	83.63
250.934	-39.25
251.151	-10.58
251.368	75.43
251.585	54.95
251.801	71.34
252.018	-69.97
252.235	161.45
252.451	-96.6
252.668	36.52
252.885	106.15
253.102	132.78
253.318	-20.82
253.535	13.99
253.752	-51.54
253.968	-90.45
254.185	-131.41
254.401	54.95
254.618	57
254.835	83.63
255.051	179.88
255.268	9.9
255.484	120.49
255.701	52.91
255.917	85.67
256.134	-6.49
256.351	36.52
256.567	-76.12
256.784	44.71
257	-22.87
257.217	89.77
257.433	110.25
257.65	24.23
257.866	112.3
258.082	-33.11
258.299	-24.92
258.515	54.95
258.732	7.85
258.948	-22.87
259.165	-49.49
259.381	-39.25
259.597	85.67
259.814	-6.49
260.03	30.38
260.246	-33.11
260.463	114.34
260.679	143.02
260.895	81.58
261.112	65.19
261.328	5.8
261.544	46.76
261.761	159.4
261.977	-90.45
262.193	-12.63
262.409	124.58
262.626	20.14
262.842	57
263.058	36.52
263.274	61.1
263.49	97.96
263.707	95.91
263.923	87.72
264.139	-29.01
264.355	81.58
264.571	30.38
264.787	61.1
265.004	112.3
265.22	59.05
265.436	-35.16
265.652	97.96
265.868	83.63
266.084	-59.73
266.3	57
266.516	-37.2
266.732	85.67
266.948	63.15
267.164	67.24
267.38	75.43
267.596	18.09
267.812	235.18
268.028	44.71
268.244	61.1
268.46	44.71
268.676	32.43
268.892	87.72
269.108	-14.68
269.324	-31.06
269.54	-18.77
269.756	91.82
269.972	36.52
270.188	-29.01
270.403	-45.4
270.619	42.67
270.835	83.63
271.051	-0.34
271.267	44.71
271.483	-127.32
271.698	130.73
271.914	28.33
272.13	40.62
272.346	32.43
272.562	110.25
272.777	208.55
272.993	65.19
273.209	-55.64
273.425	81.58
273.64	-37.2
273.856	73.39
274.072	-4.44
274.287	-16.73
274.503	143.02
274.719	143.02
274.934	24.23
275.15	-2.39
275.366	-2.39
275.581	-37.2
275.797	22.19
276.012	102.06
276.228	-29.01
276.444	91.82
276.659	167.59
276.875	42.67
277.09	24.23
277.306	63.15
277.521	145.06
277.737	16.04
277.952	38.57
278.168	-22.87
278.383	79.53
278.599	106.15
278.814	79.53
279.03	83.63
279.245	118.44
279.461	85.67
279.676	153.26
279.892	1.71
280.107	-41.3
280.322	40.62
280.538	120.49
280.753	48.81
280.969	93.87
281.184	48.81
281.399	134.82
281.615	102.06
281.83	46.76
282.045	-84.31
282.26	16.04
282.476	46.76
282.691	77.48
282.906	44.71
283.122	120.49
283.337	1.71
283.552	36.52
283.767	61.1
283.983	145.06
284.198	9.9
284.413	28.33
284.628	-55.64
284.843	132.78
285.058	138.92
285.274	79.53
285.489	-55.64
285.704	93.87
285.919	-69.97
286.134	67.24
286.349	22.19
286.564	13.99
286.779	183.98
286.995	16.04
287.21	-39.25
287.425	48.81
287.64	9.9
287.855	110.25
288.07	-100.69
288.285	120.49
288.5	151.21
288.715	63.15
288.93	48.81
289.145	9.9
289.36	130.73
289.575	18.09
289.79	118.44
290.004	11.95
290.219	151.21
290.434	-20.82
290.649	-0.34
290.864	-49.49
291.079	114.34
291.294	22.19
291.509	116.39
291.724	24.23
291.938	26.28
292.153	116.39
292.368	91.82
292.583	30.38
292.798	93.87
293.012	67.24
293.227	44.71
293.442	-24.92
293.657	104.11
293.871	116.39
294.086	73.39
294.301	245.41
294.516	73.39
294.73	67.24
294.945	-35.16
295.16	-39.25
295.374	69.29
295.589	132.78
295.804	-6.49
296.018	22.19
296.233	110.25
296.447	163.5
296.662	44.71
296.877	112.3
297.091	112.3
297.306	7.85
297.52	-4.44
297.735	85.67
297.949	71.34
298.164	48.81
298.378	108.2
298.593	11.95
298.807	65.19
299.022	73.39
299.236	218.79
299.451	57
299.665	24.23
299.88	118.44
300.094	57
300.309	38.57
300.523	120.49
300.737	28.33
300.952	69.29
301.166	28.33
301.381	-8.53
301.595	-2.39
301.809	34.47
302.024	-6.49
302.238	-84.31
302.452	132.78
302.667	48.81
302.881	136.87
303.095	114.34
303.309	46.76
303.524	40.62
303.738	-4.44
303.952	50.86
304.166	108.2
304.381	-72.02
304.595	155.3
304.809	18.09
305.023	1.71
305.237	48.81
305.452	59.05
305.666	77.48
305.88	91.82
306.094	48.81
306.308	100.01
306.522	145.06
306.736	3.75
306.95	130.73
307.164	-0.34
307.379	81.58
307.593	163.5
307.807	186.02
308.021	143.02
308.235	151.21
308.449	-88.4
308.663	18.09
308.877	237.22
309.091	34.47
309.305	7.85
309.519	-82.26
309.733	147.11
309.947	-84.31
310.161	52.91
310.374	44.71
310.588	112.3
310.802	-0.34
311.016	-29.01
311.23	65.19
311.444	-2.39
311.658	61.1
311.872	114.34
312.085	157.35
312.299	132.78
312.513	87.72
312.727	-26.96
312.941	16.04
313.154	104.11
313.368	85.67
313.582	61.1
313.796	16.04
314.009	-2.39
314.223	138.92
314.437	20.14
314.651	46.76
314.864	32.43
315.078	-29.01
315.292	-108.88
315.505	-4.44
315.719	38.57
315.933	-8.53
316.146	-31.06
316.36	-59.73
316.573	87.72
316.787	169.64
317.001	28.33
317.214	-61.78
317.428	67.24
317.641	-39.25
317.855	-2.39
318.068	73.39
318.282	50.86
318.495	149.16
318.709	108.2
318.922	18.09
319.136	138.92
319.349	67.24
319.563	13.99
319.776	52.91
319.99	-69.97
320.203	73.39
320.417	124.58
320.63	151.21
320.843	208.55
321.057	48.81
321.27	34.47
321.483	124.58
321.697	190.12
321.91	20.14
322.124	48.81
322.337	46.76
322.55	-55.64
322.763	106.15
322.977	-29.01
323.19	20.14
323.403	-8.53
323.617	50.86
323.83	87.72
324.043	-78.16
324.256	77.48
324.469	-16.73
324.683	126.63
324.896	57
325.109	-24.92
325.322	-115.03
325.535	79.53
325.748	151.21
325.962	20.14
326.175	54.95
326.388	91.82
326.601	79.53
326.814	-18.77
327.027	52.91
327.24	100.01
327.453	-100.69
327.666	65.19
327.879	114.34
328.092	52.91
328.305	83.63
328.518	28.33
328.731	36.52
328.944	-35.16
329.157	-4.44
329.37	57
329.583	134.82
329.796	124.58
330.009	-26.96
330.222	87.72
330.435	83.63
330.648	110.25
330.861	20.14
331.073	61.1
331.286	61.1
331.499	32.43
331.712	48.81
331.925	11.95
332.138	157.35
332.35	61.1
332.563	52.91
332.776	102.06
332.989	-0.34
333.202	-12.63
333.414	120.49
333.627	1.71
333.84	18.09
334.053	46.76
334.265	44.71
334.478	44.71
334.691	48.81
334.903	93.87
335.116	-14.68
335.329	67.24
335.541	95.91
335.754	196.26
335.966	9.9
336.179	75.43
336.392	59.05
336.604	46.76
336.817	40.62
337.029	13.99
337.242	46.76
337.454	83.63
337.667	20.14
337.88	104.11
338.092	52.91
338.305	73.39
338.517	-4.44
338.729	120.49
338.942	100.01
339.154	-43.35
339.367	-16.73
339.579	65.19
339.792	-39.25
340.004	61.1
340.217	3.75
340.429	18.09
340.641	-22.87
340.854	40.62
341.066	95.91
341.278	50.86
341.491	136.87
341.703	18.09
341.915	-2.39
342.128	69.29
342.34	26.28
342.552	-10.58
342.764	20.14
342.977	83.63
343.189	106.15
343.401	89.77
343.613	-16.73
343.826	24.23
344.038	1.71
344.25	65.19
344.462	20.14
344.674	50.86
344.886	-0.34
345.099	165.54
345.311	71.34
345.523	22.19
345.735	-76.12
345.947	34.47
346.159	32.43
346.371	67.24
346.583	81.58
346.795	167.59
347.007	42.67
347.219	57
347.431	63.15
347.643	145.06
347.855	-10.58
348.067	116.39
348.279	-41.3
348.491	126.63
348.703	134.82
348.915	18.09
349.127	1.71
349.339	42.67
349.551	-24.92
349.763	163.5
349.975	34.47
350.187	159.4
350.399	126.63
350.61	126.63
350.822	18.09
351.034	16.04
351.246	65.19
351.458	42.67
351.669	95.91
351.881	87.72
352.093	116.39
352.305	110.25
352.517	52.91
352.728	102.06
352.94	97.96
353.152	36.52
353.363	7.85
353.575	42.67
353.787	122.54
353.999	116.39
354.21	46.76
354.422	-41.3
354.633	-35.16
354.845	63.15
355.057	34.47
355.268	46.76
355.48	124.58
355.692	-43.35
355.903	97.96
356.115	-59.73
356.326	-39.25
356.538	134.82
356.749	110.25
356.961	196.26
357.172	20.14
357.384	-22.87
357.595	186.02
357.807	73.39
358.018	42.67
358.23	69.29
358.441	118.44
358.653	118.44
358.864	77.48
359.075	-47.44
359.287	120.49
359.498	120.49
359.709	104.11
359.921	48.81
360.132	67.24
360.344	-24.92
360.555	-39.25
360.766	24.23
360.977	106.15
361.189	130.73
361.4	5.8
361.611	83.63
361.823	75.43
362.034	93.87
362.245	-51.54
362.456	54.95
362.667	196.26
362.879	-74.07
363.09	93.87
363.301	97.96
363.512	-6.49
363.723	18.09
363.935	-16.73
364.146	120.49
364.357	50.86
364.568	-0.34
364.779	40.62
364.99	165.54
365.201	-31.06
365.412	126.63
365.623	-106.84
365.834	-6.49
366.045	38.57
366.256	104.11
366.467	132.78
366.678	52.91
366.889	-35.16
367.1	-29.01
367.311	44.71
367.522	-39.25
367.733	71.34
367.944	130.73
368.155	32.43
368.366	100.01
368.577	65.19
368.788	59.05
368.999	-6.49
369.209	-4.44
369.42	169.64
369.631	194.22
369.842	93.87
370.053	9.9
370.264	59.05
370.474	-61.78
370.685	22.19
370.896	-2.39
371.107	69.29
371.317	97.96
371.528	36.52
371.739	134.82
371.95	89.77
372.16	73.39
372.371	-106.84
372.582	11.95
372.792	42.67
373.003	40.62
373.214	73.39
373.424	124.58
373.635	-4.44
373.846	110.25
374.056	40.62
374.267	69.29
374.477	67.24
374.688	-84.31
374.898	77.48
375.109	69.29
375.319	36.52
375.53	50.86
375.74	91.82
375.951	-16.73
376.161	5.8
376.372	157.35
376.582	40.62
376.793	44.71
377.003	30.38
377.214	59.05
377.424	75.43
377.635	26.28
377.845	-31.06
378.055	79.53
378.266	5.8
378.476	54.95
378.686	40.62
378.897	67.24
379.107	69.29
379.317	132.78
379.528	3.75
379.738	124.58
379.948	-12.63
380.158	61.1
380.369	1.71
380.579	46.76
380.789	38.57
380.999	11.95
381.21	110.25
381.42	210.6
381.63	20.14
381.84	108.2
382.05	20.14
382.261	122.54
382.471	104.11
382.681	116.39
382.891	169.64
383.101	100.01
383.311	9.9
383.521	13.99
383.731	83.63
383.941	171.69
384.151	24.23
384.361	-0.34
384.571	73.39
384.781	77.48
384.991	171.69
385.201	157.35
385.411	81.58
385.621	112.3
385.831	79.53
386.041	44.71
386.251	-6.49
386.461	69.29
386.671	-45.4
386.881	46.76
387.091	50.86
387.301	108.2
387.511	71.34
387.72	143.02
387.93	89.77
388.14	-65.88
388.35	-33.11
388.56	67.24
388.769	87.72
388.979	91.82
389.189	48.81
389.399	-4.44
389.609	83.63
389.818	79.53
390.028	20.14
390.238	63.15
390.447	-37.2
390.657	73.39
390.867	-24.92
391.076	-119.12
391.286	54.95
391.496	11.95
391.705	-45.4
391.915	69.29
392.125	171.69
392.334	-39.25
392.544	145.06
392.753	18.09
392.963	-22.87
393.172	93.87
393.382	34.47
393.591	128.68
393.801	-110.93
394.01	192.17
394.22	138.92
394.429	-2.39
394.639	67.24
394.848	110.25
395.058	87.72
395.267	24.23
395.477	196.26
395.686	67.24
395.895	222.89
396.105	134.82
396.314	112.3
396.524	24.23
396.733	57
396.942	77.48
397.152	-4.44
397.361	46.76
397.57	69.29
397.78	54.95
397.989	57
398.198	157.35
398.407	7.85
398.617	18.09
398.826	97.96
399.035	3.75
399.244	63.15
399.453	134.82
399.663	77.48
399.872	52.91
400.081	-39.25
400.29	140.97
400.499	-16.73
400.708	106.15
400.917	-12.63
401.127	-4.44
401.336	57
401.545	179.88
401.754	163.5
401.963	69.29
402.172	61.1
402.381	-24.92
402.59	7.85
402.799	73.39
403.008	122.54
403.217	61.1
403.426	128.68
403.635	-108.88
403.844	79.53
404.053	7.85
404.262	-4.44
404.471	153.26
404.68	69.29
404.888	18.09
405.097	9.9
405.306	61.1
405.515	40.62
405.724	40.62
405.933	122.54
406.142	112.3
406.35	87.72
406.559	11.95
406.768	81.58
406.977	143.02
407.185	169.64
407.394	110.25
407.603	-92.5
407.812	81.58
408.02	143.02
408.229	-47.44
408.438	22.19
408.646	-92.5
408.855	-20.82
409.064	100.01
409.272	-0.34
409.481	114.34
409.69	-10.58
409.898	-22.87
410.107	44.71
410.315	95.91
410.524	7.85
410.733	18.09
410.941	110.25
411.15	132.78
411.358	147.11
411.567	183.98
411.775	7.85
411.984	59.05
412.192	9.9
412.401	-22.87
412.609	153.26
412.818	167.59
413.026	13.99
413.234	36.52
413.443	77.48
413.651	-6.49
413.86	32.43
414.068	89.77
414.276	153.26
414.485	3.75
414.693	120.49
414.901	149.16
415.11	40.62
415.318	40.62
415.526	-67.92
415.734	85.67
415.943	93.87
416.151	157.35
416.359	7.85
416.567	81.58
416.776	102.06
416.984	79.53
417.192	210.6
417.4	32.43
417.608	1.71
417.817	-20.82
418.025	91.82
418.233	134.82
418.441	-31.06
418.649	-51.54
418.857	102.06
419.065	106.15
419.273	-6.49
419.481	57
419.689	91.82
419.897	-4.44
420.105	-65.88
420.313	95.91
420.521	222.89
420.729	83.63
420.937	-22.87
421.145	-26.96
421.353	95.91
421.561	100.01
421.769	-0.34
421.977	116.39
422.185	73.39
422.393	-0.34
422.601	83.63
422.809	63.15
423.017	89.77
423.224	50.86
423.432	100.01
423.64	30.38
423.848	89.77
424.056	-37.2
424.263	73.39
424.471	-4.44
424.679	138.92
424.887	-69.97
425.094	102.06
425.302	61.1
425.51	46.76
425.718	102.06
425.925	63.15
426.133	-24.92
426.341	147.11
426.548	20.14
426.756	-24.92
426.964	95.91
427.171	-41.3
427.379	-0.34
427.586	-10.58
427.794	85.67
428.001	118.44
428.209	32.43
428.417	153.26
428.624	171.69
428.832	69.29
429.039	57
429.247	44.71
429.454	67.24
429.662	157.35
429.869	100.01
430.076	-0.34
430.284	20.14
430.491	179.88
430.699	75.43
430.906	192.17
431.114	57
431.321	30.38
431.528	102.06
431.736	106.15
431.943	108.2
432.15	83.63
432.358	87.72
432.565	128.68
432.772	-22.87
432.979	218.79
433.187	34.47
433.394	71.34
433.601	40.62
433.808	122.54
434.016	181.93
434.223	65.19
434.43	67.24
434.637	122.54
434.844	163.5
435.052	104.11
435.259	106.15
435.466	118.44
435.673	112.3
435.88	124.58
436.087	167.59
436.294	183.98
436.501	159.4
436.708	73.39
436.915	143.02
437.122	173.74
437.329	48.81
437.537	130.73
437.743	159.4
437.95	188.07
438.157	134.82
438.364	196.26
438.571	106.15
438.778	237.22
438.985	259.75
439.192	294.57
439.399	147.11
439.606	138.92
439.813	222.89
440.02	267.94
440.227	347.81
440.433	302.76
440.64	216.74
440.847	83.63
441.054	212.65
441.261	317.09
441.467	149.16
441.674	114.34
441.881	292.52
442.088	243.37
442.294	396.96
442.501	321.19
442.708	362.15
442.914	310.95
443.121	292.52
443.328	394.92
443.534	403.11
443.741	302.76
443.948	196.26
444.154	396.96
444.361	485.03
444.568	315.05
444.774	360.1
444.981	280.23
445.187	478.88
445.394	366.25
445.6	341.67
445.807	487.08
446.013	536.23
446.22	308.9
446.426	444.07
446.633	478.88
446.839	667.3
447.046	360.1
447.252	648.86
447.459	591.52
447.665	601.76
447.871	603.81
448.078	638.62
448.284	702.11
448.491	671.39
448.697	808.61
448.903	734.88
449.11	837.28
449.316	792.22
449.522	927.39
449.728	794.27
449.935	892.57
450.141	749.22
450.347	999.07
450.553	892.57
450.76	956.06
450.966	1001.12
451.172	1091.23
451.378	1115.8
451.584	1058.46
451.791	1191.58
451.997	1291.93
452.203	1123.99
452.409	1361.56
452.615	1384.09
452.821	1412.76
453.027	1171.1
453.233	1650.32
453.44	1431.19
453.646	1576.59
453.852	1496.72
454.058	1515.16
454.264	1607.31
454.47	1803.92
454.676	1703.57
454.882	1926.8
455.088	1840.78
455.294	2041.48
455.5	2078.35
455.705	2229.9
455.911	2115.21
456.117	2162.31
456.323	2340.49
456.529	2358.92
456.735	2492.04
456.941	2643.59
457.147	2723.46
457.352	2733.7
457.558	2788.99
457.764	3044.99
457.97	3116.67
458.176	3131
458.381	3372.66
458.587	3632.76
458.793	3563.12
458.999	3599.99
459.204	4128.36
459.41	4167.28
459.616	4281.96
459.821	4359.78
460.027	4542.05
460.233	4822.63
460.438	4826.72
460.644	5047.9
460.85	5305.95
461.055	5152.35
461.261	5727.83
461.466	5486.17
461.672	5594.71
461.878	6147.66
462.083	6176.33
462.289	6196.81
462.494	6575.69
462.7	6405.7
462.905	6567.49
463.111	7173.69
463.316	7675.45
463.522	7788.08
463.727	7886.39
463.932	8134.19
464.138	8379.95
464.343	8836.64
464.549	8959.52
464.754	9760.28
464.959	9727.51
465.165	9776.66
465.37	9877.01
465.575	9846.29
465.781	10571.27
465.986	10802.69
466.191	10743.3
466.397	10761.73
466.602	10749.45
466.807	11195.9
467.012	11089.41
467.218	11632.12
467.423	11460.09
467.628	11965.94
467.833	12377.58
468.038	12076.53
468.244	11787.77
468.449	12226.03
468.654	12439.02
468.859	12262.9
469.064	12391.92
469.269	12209.65
469.474	12174.83
469.679	12813.8
469.885	12205.55
