Data from USB4F104151__9__10-22-59-650.txt Node

Date: Wed Feb 26 10:22:59 EST 2025
User: louis
Spectrometer: USB4F10415
Trigger mode: 4
Integration Time (sec): 1.000000E-1
Scans to average: 1
Electric dark correction enabled: true
Nonlinearity correction enabled: false
Boxcar width: 0
XAxis mode: Wavelengths
Number of Pixels in Spectrum: 3648
>>>>>Begin Spectral Data<<<<<
178.204	-414.71
178.424	-414.71
178.644	-414.71
178.864	-416.76
179.084	-422.91
179.304	68.61
179.524	-50.18
179.744	17.41
179.964	68.61
180.184	64.51
180.404	54.27
180.624	-84.99
180.844	-11.26
181.064	-27.65
181.283	-52.22
181.503	-27.65
181.723	-19.46
181.943	-103.42
182.163	224.25
182.383	-56.32
182.602	103.42
182.822	95.23
183.042	72.7
183.262	29.7
183.482	-23.55
183.701	3.07
183.921	9.22
184.141	-54.27
184.361	23.55
184.58	39.94
184.8	70.65
185.02	-46.08
185.239	82.94
185.459	-19.46
185.679	134.14
185.898	-46.08
186.118	87.04
186.338	35.84
186.557	80.89
186.777	-48.13
186.997	1.02
187.216	44.03
187.436	146.43
187.655	84.99
187.875	76.8
188.095	60.42
188.314	128
188.534	84.99
188.753	-72.7
188.973	160.77
189.192	154.62
189.412	1.02
189.631	31.74
189.851	152.57
190.07	134.14
190.29	19.46
190.509	31.74
190.729	95.23
190.948	138.24
191.168	199.68
191.387	89.09
191.607	-58.37
191.826	74.75
192.045	25.6
192.265	17.41
192.484	58.37
192.704	27.65
192.923	-15.36
193.142	140.29
193.362	103.42
193.581	21.5
193.8	17.41
194.02	95.23
194.239	72.7
194.458	3.07
194.678	23.55
194.897	27.65
195.116	68.61
195.335	44.03
195.555	13.31
195.774	-72.7
195.993	87.04
196.212	39.94
196.432	-17.41
196.651	48.13
196.87	70.65
197.089	254.97
197.308	99.33
197.528	-19.46
197.747	-11.26
197.966	72.7
198.185	117.76
198.404	-54.27
198.623	132.09
198.842	91.13
199.062	130.05
199.281	136.19
199.5	134.14
199.719	99.33
199.938	33.79
200.157	130.05
200.376	66.56
200.595	121.85
200.814	27.65
201.033	-15.36
201.252	111.61
201.471	-44.03
201.69	50.18
201.909	68.61
202.128	46.08
202.347	103.42
202.566	41.98
202.785	-44.03
203.004	-56.32
203.223	263.16
203.442	31.74
203.661	-19.46
203.879	54.27
204.098	82.94
204.317	-5.12
204.536	70.65
204.755	48.13
204.974	105.47
205.193	56.32
205.411	166.91
205.63	95.23
205.849	76.8
206.068	21.5
206.287	15.36
206.505	140.29
206.724	-15.36
206.943	13.31
207.162	19.46
207.381	101.37
207.599	41.98
207.818	66.56
208.037	-33.79
208.255	78.85
208.474	3.07
208.693	11.26
208.911	5.12
209.13	132.09
209.349	113.66
209.567	101.37
209.786	117.76
210.005	93.18
210.223	1.02
210.442	-46.08
210.661	27.65
210.879	56.32
211.098	17.41
211.316	44.03
211.535	78.85
211.753	-3.07
211.972	70.65
212.191	25.6
212.409	29.7
212.628	66.56
212.846	-31.74
213.065	33.79
213.283	115.71
213.502	25.6
213.72	48.13
213.938	78.85
214.157	48.13
214.375	95.23
214.594	-41.98
214.812	95.23
215.031	-11.26
215.249	7.17
215.467	-5.12
215.686	50.18
215.904	3.07
216.122	62.46
216.341	232.44
216.559	125.95
216.778	64.51
216.996	72.7
217.214	91.13
217.432	9.22
217.651	3.07
217.869	41.98
218.087	74.75
218.306	19.46
218.524	74.75
218.742	27.65
218.96	56.32
219.179	82.94
219.397	21.5
219.615	175.1
219.833	68.61
220.051	-17.41
220.27	89.09
220.488	156.67
220.706	117.76
220.924	21.5
221.142	29.7
221.36	68.61
221.578	89.09
221.796	-35.84
222.015	62.46
222.233	-3.07
222.451	99.33
222.669	-21.5
222.887	87.04
223.105	60.42
223.323	37.89
223.541	72.7
223.759	-1.02
223.977	5.12
224.195	173.05
224.413	54.27
224.631	-13.31
224.849	39.94
225.067	191.49
225.285	-48.13
225.503	21.5
225.721	-54.27
225.939	107.52
226.157	25.6
226.375	179.2
226.592	-48.13
226.81	29.7
227.028	185.34
227.246	54.27
227.464	89.09
227.682	123.9
227.9	84.99
228.117	82.94
228.335	50.18
228.553	17.41
228.771	60.42
228.989	5.12
229.206	107.52
229.424	72.7
229.642	-52.22
229.86	-5.12
230.077	121.85
230.295	21.5
230.513	134.14
230.731	56.32
230.948	160.77
231.166	76.8
231.384	27.65
231.601	-1.02
231.819	148.48
232.037	-60.42
232.254	-56.32
232.472	87.04
232.689	-21.5
232.907	109.57
233.125	-29.7
233.342	9.22
233.56	50.18
233.777	-29.7
233.995	46.08
234.213	35.84
234.43	132.09
234.648	72.7
234.865	31.74
235.083	35.84
235.3	72.7
235.518	166.91
235.735	123.9
235.953	171.01
236.17	89.09
236.388	-50.18
236.605	-9.22
236.822	84.99
237.04	117.76
237.257	62.46
237.475	-48.13
237.692	5.12
237.909	33.79
238.127	-7.17
238.344	68.61
238.562	66.56
238.779	-37.89
238.996	-31.74
239.214	15.36
239.431	54.27
239.648	-9.22
239.865	78.85
240.083	130.05
240.3	-29.7
240.517	-17.41
240.735	76.8
240.952	150.53
241.169	66.56
241.386	66.56
241.603	44.03
241.821	-11.26
242.038	60.42
242.255	138.24
242.472	-39.94
242.689	58.37
242.907	72.7
243.124	82.94
243.341	76.8
243.558	17.41
243.775	-35.84
243.992	-25.6
244.209	103.42
244.426	211.96
244.643	95.23
244.86	23.55
245.078	74.75
245.295	17.41
245.512	9.22
245.729	-17.41
245.946	113.66
246.163	107.52
246.38	-29.7
246.597	44.03
246.814	-1.02
247.031	9.22
247.248	-3.07
247.464	121.85
247.681	66.56
247.898	78.85
248.115	138.24
248.332	-15.36
248.549	95.23
248.766	197.63
248.983	56.32
249.2	76.8
249.417	146.43
249.633	62.46
249.85	95.23
250.067	56.32
250.284	48.13
250.501	121.85
250.717	125.95
250.934	-70.65
251.151	62.46
251.368	48.13
251.585	80.89
251.801	121.85
252.018	-128
252.235	82.94
252.451	-1.02
252.668	9.22
252.885	162.81
253.102	27.65
253.318	-13.31
253.535	25.6
253.752	9.22
253.968	-35.84
254.185	-58.37
254.401	33.79
254.618	150.53
254.835	-13.31
255.051	84.99
255.268	103.42
255.484	19.46
255.701	74.75
255.917	76.8
256.134	-41.98
256.351	39.94
256.567	-54.27
256.784	3.07
257	-107.52
257.217	84.99
257.433	132.09
257.65	64.51
257.866	156.67
258.082	-76.8
258.299	-7.17
258.515	46.08
258.732	70.65
258.948	27.65
259.165	80.89
259.381	-21.5
259.597	-25.6
259.814	46.08
260.03	21.5
260.246	66.56
260.463	113.66
260.679	164.86
260.895	44.03
261.112	33.79
261.328	25.6
261.544	-11.26
261.761	140.29
261.977	7.17
262.193	-37.89
262.409	150.53
262.626	-15.36
262.842	46.08
263.058	17.41
263.274	78.85
263.49	78.85
263.707	125.95
263.923	5.12
264.139	-82.94
264.355	13.31
264.571	58.37
264.787	-9.22
265.004	248.83
265.22	113.66
265.436	5.12
265.652	58.37
265.868	50.18
266.084	17.41
266.3	109.57
266.516	64.51
266.732	117.76
266.948	87.04
267.164	54.27
267.38	76.8
267.596	25.6
267.812	201.72
268.028	103.42
268.244	50.18
268.46	80.89
268.676	46.08
268.892	48.13
269.108	-87.04
269.324	-9.22
269.54	17.41
269.756	80.89
269.972	-64.51
270.188	-62.46
270.403	-78.85
270.619	-3.07
270.835	132.09
271.051	-5.12
271.267	-19.46
271.483	-31.74
271.698	54.27
271.914	48.13
272.13	-27.65
272.346	9.22
272.562	54.27
272.777	189.44
272.993	-31.74
273.209	44.03
273.425	60.42
273.64	-7.17
273.856	31.74
274.072	13.31
274.287	-48.13
274.503	95.23
274.719	46.08
274.934	33.79
275.15	-44.03
275.366	52.22
275.581	-87.04
275.797	-46.08
276.012	54.27
276.228	41.98
276.444	19.46
276.659	56.32
276.875	-84.99
277.09	-1.02
277.306	-48.13
277.521	95.23
277.737	-33.79
277.952	80.89
278.168	29.7
278.383	-60.42
278.599	23.55
278.814	44.03
279.03	54.27
279.245	128
279.461	105.47
279.676	58.37
279.892	17.41
280.107	-3.07
280.322	-35.84
280.538	123.9
280.753	-1.02
280.969	23.55
281.184	50.18
281.399	173.05
281.615	-3.07
281.83	78.85
282.045	-5.12
282.26	-13.31
282.476	21.5
282.691	62.46
282.906	82.94
283.122	44.03
283.337	58.37
283.552	13.31
283.767	15.36
283.983	158.72
284.198	1.02
284.413	99.33
284.628	1.02
284.843	19.46
285.058	70.65
285.274	72.7
285.489	7.17
285.704	162.81
285.919	23.55
286.134	3.07
286.349	64.51
286.564	46.08
286.779	130.05
286.995	23.55
287.21	-33.79
287.425	105.47
287.64	5.12
287.855	93.18
288.07	-29.7
288.285	224.25
288.5	177.15
288.715	103.42
288.93	-29.7
289.145	-25.6
289.36	115.71
289.575	52.22
289.79	197.63
290.004	56.32
290.219	82.94
290.434	13.31
290.649	39.94
290.864	3.07
291.079	76.8
291.294	68.61
291.509	52.22
291.724	23.55
291.938	9.22
292.153	41.98
292.368	1.02
292.583	35.84
292.798	148.48
293.012	46.08
293.227	130.05
293.442	-31.74
293.657	48.13
293.871	95.23
294.086	109.57
294.301	205.82
294.516	91.13
294.73	17.41
294.945	13.31
295.16	31.74
295.374	164.86
295.589	64.51
295.804	64.51
296.018	136.19
296.233	144.38
296.447	60.42
296.662	9.22
296.877	103.42
297.091	132.09
297.306	-19.46
297.52	-5.12
297.735	97.28
297.949	70.65
298.164	11.26
298.378	87.04
298.593	9.22
298.807	-19.46
299.022	33.79
299.236	146.43
299.451	15.36
299.665	-41.98
299.88	39.94
300.094	78.85
300.309	11.26
300.523	50.18
300.737	37.89
300.952	78.85
301.166	41.98
301.381	-11.26
301.595	-3.07
301.809	-17.41
302.024	58.37
302.238	-23.55
302.452	72.7
302.667	64.51
302.881	107.52
303.095	15.36
303.309	103.42
303.524	-48.13
303.738	56.32
303.952	-9.22
304.166	95.23
304.381	-64.51
304.595	107.52
304.809	-7.17
305.023	193.53
305.237	-37.89
305.452	48.13
305.666	140.29
305.88	119.81
306.094	119.81
306.308	58.37
306.522	72.7
306.736	11.26
306.95	93.18
307.164	-1.02
307.379	23.55
307.593	224.25
307.807	117.76
308.021	115.71
308.235	80.89
308.449	-35.84
308.663	-7.17
308.877	224.25
309.091	13.31
309.305	109.57
309.519	-78.85
309.733	64.51
309.947	-97.28
310.161	132.09
310.374	62.46
310.588	93.18
310.802	-62.46
311.016	44.03
311.23	27.65
311.444	33.79
311.658	31.74
311.872	84.99
312.085	185.34
312.299	105.47
312.513	107.52
312.727	39.94
312.941	52.22
313.154	56.32
313.368	103.42
313.582	119.81
313.796	46.08
314.009	50.18
314.223	171.01
314.437	152.57
314.651	99.33
314.864	50.18
315.078	-1.02
315.292	-44.03
315.505	27.65
315.719	52.22
315.933	64.51
316.146	-44.03
316.36	-27.65
316.573	125.95
316.787	68.61
317.001	80.89
317.214	-62.46
317.428	46.08
317.641	-72.7
317.855	25.6
318.068	111.61
318.282	48.13
318.495	248.83
318.709	3.07
318.922	9.22
319.136	78.85
319.349	121.85
319.563	-41.98
319.776	146.43
319.99	-72.7
320.203	91.13
320.417	64.51
320.63	177.15
320.843	160.77
321.057	23.55
321.27	31.74
321.483	152.57
321.697	195.58
321.91	91.13
322.124	84.99
322.337	70.65
322.55	-21.5
322.763	142.33
322.977	62.46
323.19	21.5
323.403	121.85
323.617	58.37
323.83	62.46
324.043	-1.02
324.256	54.27
324.469	-41.98
324.683	121.85
324.896	54.27
325.109	87.04
325.322	-66.56
325.535	140.29
325.748	101.37
325.962	48.13
326.175	103.42
326.388	109.57
326.601	117.76
326.814	52.22
327.027	9.22
327.24	189.44
327.453	-113.66
327.666	158.72
327.879	56.32
328.092	44.03
328.305	58.37
328.518	62.46
328.731	-5.12
328.944	-3.07
329.157	80.89
329.37	11.26
329.583	134.14
329.796	150.53
330.009	-91.13
330.222	91.13
330.435	91.13
330.648	37.89
330.861	107.52
331.073	54.27
331.286	87.04
331.499	72.7
331.712	-11.26
331.925	-21.5
332.138	11.26
332.35	130.05
332.563	-13.31
332.776	101.37
332.989	-23.55
333.202	-3.07
333.414	109.57
333.627	46.08
333.84	25.6
334.053	62.46
334.265	33.79
334.478	21.5
334.691	44.03
334.903	93.18
335.116	-11.26
335.329	35.84
335.541	146.43
335.754	205.82
335.966	-70.65
336.179	31.74
336.392	25.6
336.604	87.04
336.817	58.37
337.029	37.89
337.242	87.04
337.454	117.76
337.667	1.02
337.88	168.96
338.092	80.89
338.305	95.23
338.517	-1.02
338.729	97.28
338.942	175.1
339.154	-54.27
339.367	-39.94
339.579	21.5
339.792	-37.89
340.004	142.33
340.217	35.84
340.429	70.65
340.641	-35.84
340.854	60.42
341.066	80.89
341.278	138.24
341.491	144.38
341.703	70.65
341.915	31.74
342.128	113.66
342.34	72.7
342.552	-5.12
342.764	-25.6
342.977	23.55
343.189	117.76
343.401	72.7
343.613	-5.12
343.826	17.41
344.038	-23.55
344.25	78.85
344.462	-35.84
344.674	54.27
344.886	82.94
345.099	134.14
345.311	25.6
345.523	-3.07
345.735	-62.46
345.947	109.57
346.159	46.08
346.371	54.27
346.583	41.98
346.795	95.23
347.007	-27.65
347.219	72.7
347.431	1.02
347.643	130.05
347.855	39.94
348.067	146.43
348.279	-19.46
348.491	78.85
348.703	46.08
348.915	70.65
349.127	-48.13
349.339	39.94
349.551	15.36
349.763	185.34
349.975	41.98
350.187	156.67
350.399	113.66
350.61	91.13
350.822	-11.26
351.034	29.7
351.246	128
351.458	60.42
351.669	56.32
351.881	21.5
352.093	142.33
352.305	173.05
352.517	132.09
352.728	99.33
352.94	31.74
353.152	72.7
353.363	37.89
353.575	58.37
353.787	160.77
353.999	62.46
354.21	201.72
354.422	44.03
354.633	52.22
354.845	23.55
355.057	35.84
355.268	7.17
355.48	193.53
355.692	-23.55
355.903	103.42
356.115	-33.79
356.326	-80.89
356.538	158.72
356.749	93.18
356.961	150.53
357.172	136.19
357.384	7.17
357.595	205.82
357.807	54.27
358.018	19.46
358.23	9.22
358.441	162.81
358.653	60.42
358.864	27.65
359.075	39.94
359.287	82.94
359.498	101.37
359.709	87.04
359.921	82.94
360.132	60.42
360.344	-21.5
360.555	35.84
360.766	93.18
360.977	-17.41
361.189	93.18
361.4	-7.17
361.611	87.04
361.823	78.85
362.034	48.13
362.245	-60.42
362.456	-3.07
362.667	37.89
362.879	3.07
363.09	46.08
363.301	119.81
363.512	39.94
363.723	72.7
363.935	-35.84
364.146	21.5
364.357	1.02
364.568	101.37
364.779	-48.13
364.99	220.16
365.201	17.41
365.412	130.05
365.623	-99.33
365.834	93.18
366.045	21.5
366.256	66.56
366.467	107.52
366.678	3.07
366.889	39.94
367.1	-5.12
367.311	31.74
367.522	-3.07
367.733	64.51
367.944	56.32
368.155	15.36
368.366	64.51
368.577	138.24
368.788	130.05
368.999	-1.02
369.209	15.36
369.42	138.24
369.631	209.92
369.842	111.61
370.053	56.32
370.264	121.85
370.474	-50.18
370.685	80.89
370.896	19.46
371.107	130.05
371.317	109.57
371.528	39.94
371.739	52.22
371.95	64.51
372.16	103.42
372.371	27.65
372.582	-21.5
372.792	46.08
373.003	97.28
373.214	56.32
373.424	50.18
373.635	37.89
373.846	148.48
374.056	3.07
374.267	119.81
374.477	21.5
374.688	-31.74
374.898	15.36
375.109	35.84
375.319	119.81
375.53	179.2
375.74	117.76
375.951	46.08
376.161	15.36
376.372	70.65
376.582	7.17
376.793	95.23
377.003	9.22
377.214	119.81
377.424	48.13
377.635	54.27
377.845	25.6
378.055	175.1
378.266	-50.18
378.476	15.36
378.686	11.26
378.897	80.89
379.107	123.9
379.317	93.18
379.528	58.37
379.738	91.13
379.948	-5.12
380.158	123.9
380.369	-17.41
380.579	15.36
380.789	50.18
380.999	70.65
381.21	89.09
381.42	199.68
381.63	25.6
381.84	99.33
382.05	72.7
382.261	39.94
382.471	158.72
382.681	-9.22
382.891	177.15
383.101	125.95
383.311	7.17
383.521	1.02
383.731	17.41
383.941	117.76
384.151	103.42
384.361	123.9
384.571	97.28
384.781	136.19
384.991	191.49
385.201	119.81
385.411	146.43
385.621	46.08
385.831	66.56
386.041	97.28
386.251	41.98
386.461	171.01
386.671	-17.41
386.881	175.1
387.091	66.56
387.301	160.77
387.511	9.22
387.72	128
387.93	103.42
388.14	-109.57
388.35	74.75
388.56	99.33
388.769	166.91
388.979	41.98
389.189	-48.13
389.399	82.94
389.609	136.19
389.818	97.28
390.028	39.94
390.238	146.43
390.447	-29.7
390.657	48.13
390.867	9.22
391.076	-46.08
391.286	44.03
391.496	56.32
391.705	84.99
391.915	150.53
392.125	128
392.334	-17.41
392.544	156.67
392.753	48.13
392.963	62.46
393.172	87.04
393.382	19.46
393.591	146.43
393.801	54.27
394.01	171.01
394.22	123.9
394.429	78.85
394.639	33.79
394.848	123.9
395.058	105.47
395.267	97.28
395.477	117.76
395.686	109.57
395.895	207.87
396.105	218.11
396.314	66.56
396.524	119.81
396.733	48.13
396.942	166.91
397.152	62.46
397.361	111.61
397.57	48.13
397.78	44.03
397.989	109.57
398.198	168.96
398.407	60.42
398.617	3.07
398.826	-56.32
399.035	62.46
399.244	78.85
399.453	70.65
399.663	95.23
399.872	11.26
400.081	27.65
400.29	103.42
400.499	11.26
400.708	111.61
400.917	17.41
401.127	93.18
401.336	33.79
401.545	123.9
401.754	185.34
401.963	87.04
402.172	62.46
402.381	9.22
402.59	41.98
402.799	62.46
403.008	162.81
403.217	138.24
403.426	35.84
403.635	-25.6
403.844	101.37
404.053	-25.6
404.262	84.99
404.471	195.58
404.68	41.98
404.888	7.17
405.097	82.94
405.306	91.13
405.515	152.57
405.724	50.18
405.933	148.48
406.142	132.09
406.35	121.85
406.559	27.65
406.768	84.99
406.977	132.09
407.185	35.84
407.394	119.81
407.603	-87.04
407.812	48.13
408.02	119.81
408.229	44.03
408.438	48.13
408.646	-1.02
408.855	82.94
409.064	97.28
409.272	78.85
409.481	60.42
409.69	25.6
409.898	39.94
410.107	91.13
410.315	99.33
410.524	15.36
410.733	35.84
410.941	41.98
411.15	109.57
411.358	97.28
411.567	179.2
411.775	21.5
411.984	52.22
412.192	37.89
412.401	23.55
412.609	216.06
412.818	146.43
413.026	1.02
413.234	35.84
413.443	17.41
413.651	-7.17
413.86	64.51
414.068	121.85
414.276	140.29
414.485	-17.41
414.693	164.86
414.901	183.29
415.11	64.51
415.318	82.94
415.526	54.27
415.734	115.71
415.943	54.27
416.151	136.19
416.359	76.8
416.567	113.66
416.776	82.94
416.984	89.09
417.192	140.29
417.4	140.29
417.608	13.31
417.817	-21.5
418.025	183.29
418.233	134.14
418.441	-5.12
418.649	-31.74
418.857	148.48
419.065	115.71
419.273	72.7
419.481	-1.02
419.689	23.55
419.897	9.22
420.105	-25.6
420.313	160.77
420.521	93.18
420.729	125.95
420.937	44.03
421.145	13.31
421.353	103.42
421.561	154.62
421.769	121.85
421.977	76.8
422.185	117.76
422.393	70.65
422.601	199.68
422.809	136.19
423.017	107.52
423.224	44.03
423.432	54.27
423.64	29.7
423.848	166.91
424.056	-41.98
424.263	128
424.471	80.89
424.679	168.96
424.887	46.08
425.094	173.05
425.302	97.28
425.51	103.42
425.718	125.95
425.925	64.51
426.133	87.04
426.341	183.29
426.548	58.37
426.756	19.46
426.964	156.67
427.171	-3.07
427.379	105.47
427.586	156.67
427.794	142.33
428.001	162.81
428.209	95.23
428.417	230.4
428.624	136.19
428.832	95.23
429.039	48.13
429.247	52.22
429.454	199.68
429.662	277.5
429.869	103.42
430.076	105.47
430.284	128
430.491	207.87
430.699	179.2
430.906	195.58
431.114	173.05
431.321	105.47
431.528	107.52
431.736	130.05
431.943	187.39
432.15	265.21
432.358	195.58
432.565	267.26
432.772	82.94
432.979	168.96
433.187	130.05
433.394	246.78
433.601	177.15
433.808	201.72
434.016	271.36
434.223	195.58
434.43	246.78
434.637	306.17
434.844	283.64
435.052	263.16
435.259	285.69
435.466	300.03
435.673	316.41
435.88	316.41
436.087	408.57
436.294	381.95
436.501	300.03
436.708	275.45
436.915	289.79
437.122	410.62
437.329	295.93
437.537	265.21
437.743	420.86
437.95	435.19
438.157	381.95
438.364	271.36
438.571	377.85
438.778	500.73
438.985	435.19
439.192	455.67
439.399	445.43
439.606	451.58
439.813	551.93
440.02	596.98
440.227	603.13
440.433	541.69
440.64	596.98
440.847	467.96
441.054	613.37
441.261	732.15
441.467	625.65
441.674	578.55
441.881	801.78
442.088	648.18
442.294	850.93
442.501	797.68
442.708	850.93
442.914	818.16
443.121	914.42
443.328	875.51
443.534	1035.25
443.741	930.8
443.948	910.32
444.154	1127.41
444.361	1266.67
444.568	1082.35
444.774	1070.06
444.981	1084.4
445.187	1162.22
445.394	1299.44
445.6	1235.95
445.807	1448.94
446.013	1274.86
446.22	1246.19
446.426	1487.85
446.633	1561.58
446.839	1756.13
447.046	1481.71
447.252	1770.47
447.459	1774.56
447.665	1764.33
447.871	1969.12
448.078	2118.62
448.284	2046.94
448.491	2083.81
448.697	2251.74
448.903	2286.56
449.11	2237.41
449.316	2225.12
449.522	2638.81
449.728	2540.51
449.935	2708.44
450.141	2790.36
450.347	2876.37
450.553	2821.08
450.76	2841.56
450.966	3216.33
451.172	3204.05
451.378	3402.7
451.584	3410.89
451.791	3695.56
451.997	3619.78
452.203	3705.8
452.409	3902.4
452.615	4111.3
452.821	4160.45
453.027	4211.65
453.233	4527.03
453.44	4498.36
453.646	4842.42
453.852	4926.39
454.058	5018.55
454.264	5176.24
454.47	5563.31
454.676	5641.13
454.882	6161.31
455.088	6067.11
455.294	6128.55
455.5	6488.99
455.705	7154.58
455.911	6790.04
456.117	7156.63
456.323	7213.97
456.529	7316.37
456.735	8022.92
456.941	8272.77
457.147	8448.9
457.352	8622.97
457.558	8893.3
457.764	9696.11
457.97	9919.34
458.176	10132.33
458.381	10740.57
458.587	10916.7
458.793	11354.96
458.999	11369.3
459.204	13056.82
459.41	13292.34
459.616	13103.93
459.821	13982.51
460.027	14449.44
460.233	14969.63
460.438	15055.64
460.644	15831.82
460.85	16157.45
461.055	16925.44
461.261	17875.7
461.466	17328.89
461.672	17914.61
461.878	19708.63
462.083	19331.8
462.289	19897.04
462.494	20933.31
462.7	20810.43
462.905	21056.19
463.111	23069.34
463.316	23773.85
463.522	24234.64
463.727	25354.88
463.932	26223.22
464.138	27073.12
464.343	28299.86
464.549	28203.6
464.754	30126.64
464.959	31175.2
465.165	31216.16
465.37	31570.46
465.575	31506.98
465.781	33221.13
465.986	34220.53
466.191	33843.71
466.397	34179.57
466.602	33462.79
466.807	35523.04
467.012	35953.12
467.218	36358.61
467.423	36592.08
467.628	37566.91
467.833	39338.41
468.038	38592.95
468.244	38222.26
468.449	39682.47
468.654	39383.46
468.859	39162.28
