Data from USB4F104151__91__11-31-41-160.txt Node

Date: Wed Feb 26 11:31:41 EST 2025
User: louis
Spectrometer: USB4F10415
Trigger mode: 4
Integration Time (sec): 1.000000E-1
Scans to average: 1
Electric dark correction enabled: true
Nonlinearity correction enabled: false
Boxcar width: 0
XAxis mode: Wavelengths
Number of Pixels in Spectrum: 3648
>>>>>Begin Spectral Data<<<<<
178.204	-418.13
178.424	-418.13
178.644	-418.13
178.864	-469.33
179.084	-409.94
179.304	7.85
179.524	-33.11
179.744	-26.96
179.964	26.28
180.184	44.71
180.404	11.95
180.624	48.81
180.844	42.67
181.064	-135.51
181.283	3.75
181.503	-2.39
181.723	11.95
181.943	-141.65
182.163	93.87
182.383	-49.49
182.602	40.62
182.822	214.7
183.042	73.39
183.262	-31.06
183.482	-51.54
183.701	22.19
183.921	-37.2
184.141	-29.01
184.361	81.58
184.58	-18.77
184.8	-20.82
185.02	-29.01
185.239	69.29
185.459	46.76
185.679	50.86
185.898	-137.56
186.118	-35.16
186.338	50.86
186.557	116.39
186.777	-72.02
186.997	3.75
187.216	42.67
187.436	167.59
187.655	46.76
187.875	20.14
188.095	-0.34
188.314	95.91
188.534	32.43
188.753	-119.12
188.973	136.87
189.192	95.91
189.412	7.85
189.631	-10.58
189.851	40.62
190.07	165.54
190.29	-74.07
190.509	3.75
190.729	30.38
190.948	161.45
191.168	194.22
191.387	89.77
191.607	79.53
191.826	-24.92
192.045	16.04
192.265	-10.58
192.484	69.29
192.704	48.81
192.923	-94.55
193.142	112.3
193.362	79.53
193.581	77.48
193.8	91.82
194.02	7.85
194.239	7.85
194.458	48.81
194.678	-80.21
194.897	-2.39
195.116	-18.77
195.335	9.9
195.555	30.38
195.774	30.38
195.993	97.96
196.212	26.28
196.432	16.04
196.651	-26.96
196.87	-43.35
197.089	159.4
197.308	9.9
197.528	34.47
197.747	-20.82
197.966	36.52
198.185	93.87
198.404	-74.07
198.623	116.39
198.842	106.15
199.062	79.53
199.281	46.76
199.5	-2.39
199.719	120.49
199.938	38.57
200.157	65.19
200.376	95.91
200.595	138.92
200.814	91.82
201.033	-18.77
201.252	140.97
201.471	-33.11
201.69	75.43
201.909	48.81
202.128	140.97
202.347	52.91
202.566	52.91
202.785	-86.36
203.004	-43.35
203.223	245.41
203.442	36.52
203.661	-55.64
203.879	106.15
204.098	106.15
204.317	-0.34
204.536	54.95
204.755	71.34
204.974	93.87
205.193	-12.63
205.411	140.97
205.63	132.78
205.849	87.72
206.068	75.43
206.287	-2.39
206.505	102.06
206.724	34.47
206.943	-129.36
207.162	1.71
207.381	7.85
207.599	54.95
207.818	-26.96
208.037	5.8
208.255	24.23
208.474	-20.82
208.693	-37.2
208.911	69.29
209.13	11.95
209.349	52.91
209.567	130.73
209.786	28.33
210.005	85.67
210.223	-53.59
210.442	-143.7
210.661	38.57
210.879	22.19
211.098	-29.01
211.316	11.95
211.535	100.01
211.753	-20.82
211.972	13.99
212.191	5.8
212.409	-74.07
212.628	122.54
212.846	-10.58
213.065	69.29
213.283	128.68
213.502	-8.53
213.72	61.1
213.938	-55.64
214.157	1.71
214.375	93.87
214.594	-65.88
214.812	-12.63
215.031	-33.11
215.249	30.38
215.467	97.96
215.686	-67.92
215.904	24.23
216.122	57
216.341	183.98
216.559	30.38
216.778	22.19
216.996	128.68
217.214	5.8
217.432	20.14
217.651	-51.54
217.869	-4.44
218.087	20.14
218.306	-6.49
218.524	-20.82
218.742	40.62
218.96	48.81
219.179	-22.87
219.397	-18.77
219.615	231.08
219.833	85.67
220.051	-59.73
220.27	-4.44
220.488	118.44
220.706	120.49
220.924	26.28
221.142	22.19
221.36	91.82
221.578	30.38
221.796	93.87
222.015	-2.39
222.233	13.99
222.451	151.21
222.669	-41.3
222.887	38.57
223.105	-12.63
223.323	-8.53
223.541	-63.83
223.759	83.63
223.977	-12.63
224.195	122.54
224.413	93.87
224.631	22.19
224.849	54.95
225.067	186.02
225.285	-6.49
225.503	-78.16
225.721	-90.45
225.939	50.86
226.157	32.43
226.375	259.75
226.592	-18.77
226.81	1.71
227.028	57
227.246	147.11
227.464	87.72
227.682	114.34
227.9	50.86
228.117	18.09
228.335	38.57
228.553	52.91
228.771	30.38
228.989	100.01
229.206	104.11
229.424	-0.34
229.642	-18.77
229.86	-53.59
230.077	97.96
230.295	13.99
230.513	106.15
230.731	65.19
230.948	122.54
231.166	126.63
231.384	1.71
231.601	-16.73
231.819	218.79
232.037	-22.87
232.254	-47.44
232.472	-33.11
232.689	-90.45
232.907	110.25
233.125	-90.45
233.342	-24.92
233.56	100.01
233.777	-61.78
233.995	40.62
234.213	61.1
234.43	7.85
234.648	-49.49
234.865	48.81
235.083	16.04
235.3	77.48
235.518	100.01
235.735	140.97
235.953	110.25
236.17	50.86
236.388	-20.82
236.605	54.95
236.822	-4.44
237.04	75.43
237.257	-10.58
237.475	-49.49
237.692	-8.53
237.909	46.76
238.127	-47.44
238.344	13.99
238.562	54.95
238.779	-51.54
238.996	-35.16
239.214	-53.59
239.431	151.21
239.648	108.2
239.865	30.38
240.083	87.72
240.3	-14.68
240.517	-18.77
240.735	30.38
240.952	95.91
241.169	134.82
241.386	5.8
241.603	-26.96
241.821	-16.73
242.038	26.28
242.255	165.54
242.472	-129.36
242.689	22.19
242.907	104.11
243.124	32.43
243.341	3.75
243.558	-57.68
243.775	-47.44
243.992	7.85
244.209	81.58
244.426	177.83
244.643	95.91
244.86	-6.49
245.078	97.96
245.295	77.48
245.512	9.9
245.729	-24.92
245.946	63.15
246.163	28.33
246.38	16.04
246.597	108.2
246.814	28.33
247.031	40.62
247.248	-2.39
247.464	38.57
247.681	-29.01
247.898	54.95
248.115	50.86
248.332	-20.82
248.549	159.4
248.766	112.3
248.983	-14.68
249.2	102.06
249.417	-26.96
249.633	-20.82
249.85	32.43
250.067	28.33
250.284	38.57
250.501	85.67
250.717	87.72
250.934	-65.88
251.151	-20.82
251.368	-12.63
251.585	75.43
251.801	-12.63
252.018	-61.78
252.235	124.58
252.451	-26.96
252.668	-35.16
252.885	75.43
253.102	13.99
253.318	61.1
253.535	-41.3
253.752	-33.11
253.968	-106.84
254.185	-84.31
254.401	54.95
254.618	50.86
254.835	5.8
255.051	130.73
255.268	126.63
255.484	79.53
255.701	-16.73
255.917	54.95
256.134	-33.11
256.351	16.04
256.567	16.04
256.784	46.76
257	3.75
257.217	102.06
257.433	79.53
257.65	-18.77
257.866	48.81
258.082	-37.2
258.299	5.8
258.515	57
258.732	40.62
258.948	-20.82
259.165	46.76
259.381	-26.96
259.597	32.43
259.814	-8.53
260.03	36.52
260.246	-2.39
260.463	165.54
260.679	181.93
260.895	40.62
261.112	-4.44
261.328	1.71
261.544	-2.39
261.761	54.95
261.977	-47.44
262.193	-20.82
262.409	34.47
262.626	108.2
262.842	-0.34
263.058	36.52
263.274	11.95
263.49	52.91
263.707	83.63
263.923	114.34
264.139	-102.74
264.355	46.76
264.571	91.82
264.787	42.67
265.004	77.48
265.22	-35.16
265.436	3.75
265.652	-57.68
265.868	67.24
266.084	-47.44
266.3	7.85
266.516	-43.35
266.732	85.67
266.948	-69.97
267.164	-53.59
267.38	124.58
267.596	24.23
267.812	177.83
268.028	26.28
268.244	9.9
268.46	40.62
268.676	11.95
268.892	26.28
269.108	-4.44
269.324	-18.77
269.54	-59.73
269.756	149.16
269.972	-29.01
270.188	42.67
270.403	-4.44
270.619	-10.58
270.835	67.24
271.051	7.85
271.267	-22.87
271.483	-4.44
271.698	44.71
271.914	18.09
272.13	9.9
272.346	-20.82
272.562	36.52
272.777	124.58
272.993	-0.34
273.209	-82.26
273.425	79.53
273.64	-22.87
273.856	5.8
274.072	-22.87
274.287	-26.96
274.503	52.91
274.719	87.72
274.934	-6.49
275.15	-80.21
275.366	61.1
275.581	-61.78
275.797	36.52
276.012	59.05
276.228	26.28
276.444	-2.39
276.659	81.58
276.875	-6.49
277.09	-31.06
277.306	-78.16
277.521	102.06
277.737	-18.77
277.952	40.62
278.168	63.15
278.383	52.91
278.599	54.95
278.814	134.82
279.03	-41.3
279.245	179.88
279.461	-20.82
279.676	26.28
279.892	-174.42
280.107	-26.96
280.322	-10.58
280.538	32.43
280.753	1.71
280.969	42.67
281.184	44.71
281.399	155.3
281.615	-4.44
281.83	-4.44
282.045	-82.26
282.26	-43.35
282.476	-2.39
282.691	54.95
282.906	85.67
283.122	52.91
283.337	-20.82
283.552	42.67
283.767	-59.73
283.983	42.67
284.198	7.85
284.413	40.62
284.628	-18.77
284.843	77.48
285.058	36.52
285.274	18.09
285.489	-102.74
285.704	151.21
285.919	-49.49
286.134	-53.59
286.349	-29.01
286.564	30.38
286.779	104.11
286.995	46.76
287.21	-84.31
287.425	71.34
287.64	18.09
287.855	110.25
288.07	-78.16
288.285	95.91
288.5	138.92
288.715	63.15
288.93	-10.58
289.145	1.71
289.36	24.23
289.575	-0.34
289.79	120.49
290.004	7.85
290.219	114.34
290.434	-100.69
290.649	-51.54
290.864	-16.73
291.079	-69.97
291.294	63.15
291.509	36.52
291.724	73.39
291.938	7.85
292.153	9.9
292.368	24.23
292.583	75.43
292.798	59.05
293.012	44.71
293.227	54.95
293.442	5.8
293.657	46.76
293.871	120.49
294.086	38.57
294.301	143.02
294.516	140.97
294.73	22.19
294.945	-119.12
295.16	38.57
295.374	163.5
295.589	108.2
295.804	40.62
296.018	-8.53
296.233	89.77
296.447	-0.34
296.662	-37.2
296.877	104.11
297.091	97.96
297.306	40.62
297.52	-39.25
297.735	16.04
297.949	75.43
298.164	3.75
298.378	26.28
298.593	-45.4
298.807	-55.64
299.022	69.29
299.236	114.34
299.451	20.14
299.665	-33.11
299.88	52.91
300.094	65.19
300.309	9.9
300.523	-16.73
300.737	-57.68
300.952	116.39
301.166	38.57
301.381	-12.63
301.595	-59.73
301.809	26.28
302.024	9.9
302.238	-31.06
302.452	128.68
302.667	20.14
302.881	110.25
303.095	26.28
303.309	44.71
303.524	-74.07
303.738	-2.39
303.952	-37.2
304.166	16.04
304.381	-127.32
304.595	143.02
304.809	-82.26
305.023	-2.39
305.237	-82.26
305.452	7.85
305.666	73.39
305.88	138.92
306.094	26.28
306.308	36.52
306.522	106.15
306.736	149.16
306.95	91.82
307.164	-59.73
307.379	69.29
307.593	138.92
307.807	83.63
308.021	-4.44
308.235	24.23
308.449	-74.07
308.663	1.71
308.877	247.46
309.091	54.95
309.305	57
309.519	-69.97
309.733	104.11
309.947	-129.36
310.161	59.05
310.374	59.05
310.588	118.44
310.802	-37.2
311.016	24.23
311.23	57
311.444	-88.4
311.658	-16.73
311.872	157.35
312.085	89.77
312.299	118.44
312.513	61.1
312.727	50.86
312.941	-155.99
313.154	81.58
313.368	-33.11
313.582	30.38
313.796	71.34
314.009	-10.58
314.223	132.78
314.437	73.39
314.651	97.96
314.864	-24.92
315.078	26.28
315.292	-31.06
315.505	-24.92
315.719	81.58
315.933	-4.44
316.146	-84.31
316.36	-18.77
316.573	149.16
316.787	89.77
317.001	34.47
317.214	1.71
317.428	-16.73
317.641	-88.4
317.855	-53.59
318.068	77.48
318.282	24.23
318.495	171.69
318.709	18.09
318.922	18.09
319.136	67.24
319.349	104.11
319.563	73.39
319.776	3.75
319.99	-65.88
320.203	75.43
320.417	11.95
320.63	159.4
320.843	145.06
321.057	28.33
321.27	5.8
321.483	30.38
321.697	143.02
321.91	46.76
322.124	87.72
322.337	48.81
322.55	3.75
322.763	46.76
322.977	38.57
323.19	34.47
323.403	-61.78
323.617	75.43
323.83	116.39
324.043	24.23
324.256	89.77
324.469	-43.35
324.683	36.52
324.896	61.1
325.109	-4.44
325.322	-4.44
325.535	73.39
325.748	63.15
325.962	-22.87
326.175	30.38
326.388	26.28
326.601	83.63
326.814	54.95
327.027	-10.58
327.24	145.06
327.453	-102.74
327.666	77.48
327.879	100.01
328.092	7.85
328.305	38.57
328.518	143.02
328.731	22.19
328.944	67.24
329.157	87.72
329.37	-20.82
329.583	202.41
329.796	192.17
330.009	-47.44
330.222	38.57
330.435	147.11
330.648	42.67
330.861	73.39
331.073	-10.58
331.286	81.58
331.499	28.33
331.712	-2.39
331.925	44.71
332.138	20.14
332.35	124.58
332.563	22.19
332.776	112.3
332.989	-12.63
333.202	-41.3
333.414	16.04
333.627	-16.73
333.84	-26.96
334.053	3.75
334.265	22.19
334.478	9.9
334.691	-12.63
334.903	42.67
335.116	-45.4
335.329	-55.64
335.541	97.96
335.754	136.87
335.966	67.24
336.179	32.43
336.392	-14.68
336.604	5.8
336.817	102.06
337.029	36.52
337.242	-39.25
337.454	93.87
337.667	5.8
337.88	63.15
338.092	46.76
338.305	46.76
338.517	-14.68
338.729	20.14
338.942	163.5
339.154	-67.92
339.367	-24.92
339.579	63.15
339.792	-57.68
340.004	44.71
340.217	11.95
340.429	50.86
340.641	-147.8
340.854	-94.55
341.066	69.29
341.278	108.2
341.491	140.97
341.703	-22.87
341.915	-45.4
342.128	106.15
342.34	95.91
342.552	-96.6
342.764	40.62
342.977	-14.68
343.189	46.76
343.401	16.04
343.613	-37.2
343.826	42.67
344.038	3.75
344.25	138.92
344.462	-102.74
344.674	-2.39
344.886	-22.87
345.099	50.86
345.311	63.15
345.523	-26.96
345.735	-35.16
345.947	83.63
346.159	26.28
346.371	3.75
346.583	-24.92
346.795	169.64
347.007	-33.11
347.219	28.33
347.431	52.91
347.643	79.53
347.855	-4.44
348.067	71.34
348.279	-76.12
348.491	38.57
348.703	59.05
348.915	26.28
349.127	-12.63
349.339	-55.64
349.551	38.57
349.763	120.49
349.975	-0.34
350.187	30.38
350.399	114.34
350.61	-6.49
350.822	3.75
351.034	-2.39
351.246	73.39
351.458	77.48
351.669	57
351.881	132.78
352.093	63.15
352.305	67.24
352.517	-6.49
352.728	179.88
352.94	69.29
353.152	128.68
353.363	-4.44
353.575	46.76
353.787	214.7
353.999	97.96
354.21	97.96
354.422	-18.77
354.633	-2.39
354.845	-4.44
355.057	79.53
355.268	5.8
355.48	87.72
355.692	-67.92
355.903	-43.35
356.115	-6.49
356.326	-51.54
356.538	177.83
356.749	95.91
356.961	87.72
357.172	18.09
357.384	-53.59
357.595	204.46
357.807	-2.39
358.018	-53.59
358.23	28.33
358.441	83.63
358.653	40.62
358.864	48.81
359.075	-26.96
359.287	71.34
359.498	95.91
359.709	13.99
359.921	81.58
360.132	42.67
360.344	16.04
360.555	-16.73
360.766	22.19
360.977	-18.77
361.189	75.43
361.4	-10.58
361.611	173.74
361.823	67.24
362.034	20.14
362.245	-57.68
362.456	69.29
362.667	32.43
362.879	-51.54
363.09	40.62
363.301	-6.49
363.512	26.28
363.723	-35.16
363.935	32.43
364.146	26.28
364.357	-0.34
364.568	-6.49
364.779	-6.49
364.99	155.3
365.201	18.09
365.412	71.34
365.623	-131.41
365.834	-16.73
366.045	13.99
366.256	61.1
366.467	24.23
366.678	28.33
366.889	22.19
367.1	67.24
367.311	106.15
367.522	3.75
367.733	130.73
367.944	124.58
368.155	1.71
368.366	102.06
368.577	108.2
368.788	57
368.999	13.99
369.209	59.05
369.42	249.51
369.631	200.36
369.842	126.63
370.053	69.29
370.264	59.05
370.474	-67.92
370.685	1.71
370.896	11.95
371.107	104.11
371.317	93.87
371.528	3.75
371.739	73.39
371.95	120.49
372.16	46.76
372.371	-57.68
372.582	-18.77
372.792	95.91
373.003	26.28
373.214	65.19
373.424	100.01
373.635	-65.88
373.846	147.11
374.056	-65.88
374.267	77.48
374.477	85.67
374.688	-4.44
374.898	122.54
375.109	104.11
375.319	20.14
375.53	75.43
375.74	89.77
375.951	100.01
376.161	93.87
376.372	147.11
376.582	3.75
376.793	16.04
377.003	-22.87
377.214	112.3
377.424	42.67
377.635	46.76
377.845	63.15
378.055	122.54
378.266	-61.78
378.476	-4.44
378.686	81.58
378.897	22.19
379.107	75.43
379.317	44.71
379.528	-61.78
379.738	106.15
379.948	-135.51
380.158	118.44
380.369	40.62
380.579	5.8
380.789	20.14
380.999	112.3
381.21	81.58
381.42	249.51
381.63	42.67
381.84	50.86
382.05	52.91
382.261	104.11
382.471	136.87
382.681	22.19
382.891	204.46
383.101	-12.63
383.311	-53.59
383.521	13.99
383.731	65.19
383.941	114.34
384.151	24.23
384.361	22.19
384.571	30.38
384.781	-22.87
384.991	167.59
385.201	134.82
385.411	57
385.621	77.48
385.831	87.72
386.041	79.53
386.251	5.8
386.461	61.1
386.671	5.8
386.881	46.76
387.091	-10.58
387.301	16.04
387.511	114.34
387.72	100.01
387.93	118.44
388.14	-78.16
388.35	85.67
388.56	-0.34
388.769	57
388.979	79.53
389.189	-65.88
389.399	59.05
389.609	65.19
389.818	106.15
390.028	67.24
390.238	38.57
390.447	34.47
390.657	28.33
390.867	1.71
391.076	-29.01
391.286	71.34
391.496	24.23
391.705	-72.02
391.915	159.4
392.125	83.63
392.334	20.14
392.544	93.87
392.753	11.95
392.963	-10.58
393.172	77.48
393.382	32.43
393.591	159.4
393.801	-10.58
394.01	151.21
394.22	95.91
394.429	36.52
394.639	18.09
394.848	26.28
395.058	73.39
395.267	79.53
395.477	89.77
395.686	7.85
395.895	186.02
396.105	134.82
396.314	-2.39
396.524	54.95
396.733	-39.25
396.942	155.3
397.152	97.96
397.361	149.16
397.57	28.33
397.78	18.09
397.989	44.71
398.198	212.65
398.407	40.62
398.617	32.43
398.826	18.09
399.035	13.99
399.244	97.96
399.453	16.04
399.663	20.14
399.872	-4.44
400.081	-80.21
400.29	132.78
400.499	-92.5
400.708	65.19
400.917	46.76
401.127	30.38
401.336	79.53
401.545	153.26
401.754	50.86
401.963	3.75
402.172	-10.58
402.381	-96.6
402.59	-0.34
402.799	67.24
403.008	104.11
403.217	30.38
403.426	61.1
403.635	-57.68
403.844	-14.68
404.053	22.19
404.262	26.28
404.471	198.31
404.68	46.76
404.888	-31.06
405.097	32.43
405.306	24.23
405.515	89.77
405.724	77.48
405.933	57
406.142	63.15
406.35	102.06
406.559	-61.78
406.768	59.05
406.977	173.74
407.185	75.43
407.394	104.11
407.603	-47.44
407.812	77.48
408.02	100.01
408.229	100.01
408.438	1.71
408.646	-57.68
408.855	5.8
409.064	9.9
409.272	-2.39
409.481	89.77
409.69	-6.49
409.898	-51.54
410.107	71.34
410.315	118.44
410.524	11.95
410.733	73.39
410.941	36.52
411.15	81.58
411.358	79.53
411.567	122.54
411.775	22.19
411.984	59.05
412.192	83.63
412.401	-74.07
412.609	130.73
412.818	61.1
413.026	130.73
413.234	-67.92
413.443	-14.68
413.651	42.67
413.86	9.9
414.068	151.21
414.276	157.35
414.485	71.34
414.693	106.15
414.901	247.46
415.11	32.43
415.318	42.67
415.526	40.62
415.734	102.06
415.943	114.34
416.151	186.02
416.359	-22.87
416.567	38.57
416.776	65.19
416.984	50.86
417.192	175.78
417.4	-6.49
417.608	-16.73
417.817	-22.87
418.025	120.49
418.233	206.5
418.441	-59.73
418.649	26.28
418.857	46.76
419.065	114.34
419.273	-67.92
419.481	112.3
419.689	-14.68
419.897	7.85
420.105	54.95
420.313	67.24
420.521	145.06
420.729	83.63
420.937	40.62
421.145	-51.54
421.353	167.59
421.561	192.17
421.769	48.81
421.977	46.76
422.185	106.15
422.393	-10.58
422.601	65.19
422.809	75.43
423.017	65.19
423.224	57
423.432	97.96
423.64	-20.82
423.848	85.67
424.056	22.19
424.263	145.06
424.471	38.57
424.679	167.59
424.887	-12.63
425.094	116.39
425.302	179.88
425.51	104.11
425.718	222.89
425.925	26.28
426.133	46.76
426.341	132.78
426.548	52.91
426.756	77.48
426.964	143.02
427.171	46.76
427.379	120.49
427.586	138.92
427.794	81.58
428.001	93.87
428.209	114.34
428.417	161.45
428.624	124.58
428.832	77.48
429.039	97.96
429.247	169.64
429.454	186.02
429.662	196.26
429.869	134.82
430.076	208.55
430.284	112.3
430.491	198.31
430.699	128.68
430.906	202.41
431.114	167.59
431.321	134.82
431.528	120.49
431.736	149.16
431.943	249.51
432.15	114.34
432.358	202.41
432.565	245.41
432.772	34.47
432.979	231.08
433.187	171.69
433.394	284.33
433.601	153.26
433.808	204.46
434.016	317.09
434.223	269.99
434.43	204.46
434.637	261.8
434.844	259.75
435.052	226.98
435.259	294.57
435.466	288.42
435.673	251.56
435.88	310.95
436.087	353.96
436.294	341.67
436.501	286.37
436.708	282.28
436.915	407.2
437.122	360.1
437.329	372.39
437.537	386.72
437.743	272.04
437.95	446.12
438.157	323.24
438.364	435.88
438.571	480.93
438.778	407.2
438.985	538.27
439.192	601.76
439.399	419.49
439.606	519.84
439.813	534.18
440.02	736.93
440.227	706.21
440.433	599.71
440.64	577.19
440.847	579.23
441.054	630.43
441.261	775.84
441.467	601.76
441.674	640.67
441.881	792.22
442.088	769.69
442.294	751.26
442.501	882.33
442.708	878.24
442.914	888.48
443.121	943.77
443.328	976.54
443.534	964.25
443.741	919.2
443.948	968.35
444.154	1087.13
444.361	1320.6
444.568	1130.14
444.774	1111.71
444.981	1113.75
445.187	1369.75
445.394	1320.6
445.6	1377.94
445.807	1441.43
446.013	1437.33
446.22	1394.33
446.426	1459.86
446.633	1707.66
446.839	1820.3
447.046	1590.93
447.252	1824.4
447.459	1848.97
447.665	1965.71
447.871	2031.24
448.078	2186.89
448.284	2225.8
448.491	2178.7
448.697	2375.3
448.903	2412.17
449.11	2455.17
449.316	2543.24
449.522	2578.05
449.728	2772.61
449.935	2977.41
450.141	2891.39
450.347	3088
450.553	2985.6
450.76	3350.14
450.966	3387
451.172	3343.99
451.378	3632.76
451.584	3577.46
451.791	3806.83
451.997	3929.71
452.203	3958.38
452.409	4355.69
452.615	4398.7
452.821	4327.02
453.027	4331.11
453.233	4957.79
453.44	4847.2
453.646	5285.47
453.852	5297.75
454.058	5535.32
454.264	5693.01
454.47	5934.67
454.676	6063.69
454.882	6602.31
455.088	6379.08
455.294	6856.26
455.5	7183.93
455.705	7501.37
455.911	7763.51
456.117	7745.08
456.323	8019.5
456.529	7976.5
456.735	8773.16
456.941	8998.43
457.147	9268.77
457.352	9606.68
457.558	9784.85
457.764	10509.83
457.97	10708.49
458.176	11048.45
458.381	11795.96
458.587	11929.08
458.793	12279.28
458.999	12312.05
459.204	14237.14
459.41	14609.87
459.616	14269.9
459.821	15338.94
460.027	15742.39
460.233	16666.03
460.438	16635.31
460.644	17677.72
460.85	17665.44
461.055	18533.78
461.261	19301.76
461.466	19058.06
461.672	19197.32
461.878	21349.73
462.083	21290.34
462.289	21996.89
462.494	22572.37
462.7	22959.44
462.905	23713.09
463.111	24997.17
463.316	26150.17
463.522	26553.62
463.727	27788.55
463.932	28777.72
464.138	29136.11
464.343	30751.96
464.549	30905.56
464.754	33385.65
464.959	34063.52
465.165	34835.61
465.37	34489.5
465.575	34247.84
465.781	36594.81
465.986	37889.13
466.191	37194.87
466.397	37807.21
466.602	36658.3
466.807	38736.99
467.012	39726.16
467.218	40059.98
467.423	40023.11
467.628	41397.3
467.833	43488.28
468.038	42691.62
468.244	41792.56
468.449	43963.4
