Data from USB4F104151__43__11-26-39-592.txt Node

Date: Wed Feb 26 11:26:39 EST 2025
User: louis
Spectrometer: USB4F10415
Trigger mode: 4
Integration Time (sec): 1.000000E-1
Scans to average: 1
Electric dark correction enabled: true
Nonlinearity correction enabled: false
Boxcar width: 0
XAxis mode: Wavelengths
Number of Pixels in Spectrum: 3648
>>>>>Begin Spectral Data<<<<<
178.204	-404.3
178.424	-404.3
178.644	-404.3
178.864	-385.87
179.084	-322.38
179.304	3.24
179.524	13.48
179.744	-31.57
179.964	52.39
180.184	70.83
180.404	-45.91
180.624	-45.91
180.844	-70.48
181.064	-62.29
181.283	52.39
181.503	50.35
181.723	13.48
181.943	-29.52
182.163	130.22
182.383	5.29
182.602	60.59
182.822	113.83
183.042	130.22
183.262	-35.67
183.482	23.72
183.701	13.48
183.921	56.49
184.141	-7
184.361	52.39
184.58	56.49
184.8	99.5
185.02	15.53
185.239	46.25
185.459	58.54
185.679	165.03
185.898	-37.72
186.118	52.39
186.338	152.74
186.557	171.18
186.777	-52.05
186.997	-52.05
187.216	-11.09
187.436	191.66
187.655	95.4
187.875	72.87
188.095	54.44
188.314	58.54
188.534	138.41
188.753	31.91
188.973	117.93
189.192	183.46
189.412	64.68
189.631	-11.09
189.851	81.07
190.07	134.31
190.29	-37.72
190.509	31.91
190.729	13.48
190.948	193.7
191.168	289.96
191.387	93.35
191.607	56.49
191.826	9.39
192.045	91.31
192.265	19.63
192.484	33.96
192.704	87.21
192.923	-47.96
193.142	220.33
193.362	11.43
193.581	126.12
193.8	142.5
194.02	83.11
194.239	122.02
194.458	70.83
194.678	-41.81
194.897	50.35
195.116	93.35
195.335	36.01
195.555	81.07
195.774	56.49
195.993	109.74
196.212	132.26
196.432	3.24
196.651	17.58
196.87	7.34
197.089	244.9
197.308	76.97
197.528	54.44
197.747	-9.05
197.966	87.21
198.185	191.66
198.404	50.35
198.623	146.6
198.842	83.11
199.062	99.5
199.281	191.66
199.5	46.25
199.719	117.93
199.938	13.48
200.157	179.37
200.376	160.94
200.595	68.78
200.814	17.58
201.033	42.15
201.252	169.13
201.471	23.72
201.69	130.22
201.909	19.63
202.128	126.12
202.347	130.22
202.566	27.82
202.785	-9.05
203.004	-82.77
203.223	191.66
203.442	5.29
203.661	-0.85
203.879	136.36
204.098	173.22
204.317	64.68
204.536	40.11
204.755	105.64
204.974	126.12
205.193	36.01
205.411	160.94
205.63	150.7
205.849	79.02
206.068	-66.39
206.287	19.63
206.505	144.55
206.724	74.92
206.943	-56.15
207.162	-31.57
207.381	85.16
207.599	-2.9
207.818	70.83
208.037	-47.96
208.255	36.01
208.474	124.07
208.693	122.02
208.911	83.11
209.13	134.31
209.349	93.35
209.567	23.72
209.786	130.22
210.005	119.98
210.223	-15.19
210.442	-115.54
210.661	89.26
210.879	64.68
211.098	48.3
211.316	1.19
211.535	76.97
211.753	87.21
211.972	50.35
212.191	-19.29
212.409	36.01
212.628	87.21
212.846	1.19
213.065	-4.95
213.283	140.46
213.502	81.07
213.72	101.55
213.938	107.69
214.157	-33.62
214.375	146.6
214.594	31.91
214.812	111.78
215.031	42.15
215.249	27.82
215.467	91.31
215.686	27.82
215.904	103.59
216.122	81.07
216.341	216.23
216.559	74.92
216.778	201.9
216.996	48.3
217.214	19.63
217.432	7.34
217.651	-117.59
217.869	103.59
218.087	-0.85
218.306	13.48
218.524	56.49
218.742	46.25
218.96	132.26
219.179	23.72
219.397	70.83
219.615	179.37
219.833	138.41
220.051	-52.05
220.27	79.02
220.488	72.87
220.706	89.26
220.924	99.5
221.142	19.63
221.36	66.73
221.578	25.77
221.796	-4.95
222.015	85.16
222.233	132.26
222.451	173.22
222.669	-7
222.887	160.94
223.105	40.11
223.323	56.49
223.541	66.73
223.759	93.35
223.977	50.35
224.195	177.32
224.413	81.07
224.631	85.16
224.849	-0.85
225.067	150.7
225.285	29.87
225.503	119.98
225.721	-23.38
225.939	68.78
226.157	54.44
226.375	212.14
226.592	13.48
226.81	70.83
227.028	128.17
227.246	93.35
227.464	107.69
227.682	48.3
227.9	60.59
228.117	54.44
228.335	68.78
228.553	-4.95
228.771	70.83
228.989	83.11
229.206	144.55
229.424	33.96
229.642	3.24
229.86	31.91
230.077	68.78
230.295	5.29
230.513	130.22
230.731	40.11
230.948	249
231.166	216.23
231.384	48.3
231.601	-0.85
231.819	181.42
232.037	58.54
232.254	36.01
232.472	-2.9
232.689	66.73
232.907	138.41
233.125	60.59
233.342	1.19
233.56	-33.62
233.777	36.01
233.995	117.93
234.213	152.74
234.43	122.02
234.648	72.87
234.865	60.59
235.083	56.49
235.3	89.26
235.518	85.16
235.735	177.32
235.953	107.69
236.17	38.06
236.388	64.68
236.605	50.35
236.822	126.12
237.04	27.82
237.257	76.97
237.475	-31.57
237.692	7.34
237.909	56.49
238.127	7.34
238.344	60.59
238.562	-4.95
238.779	-25.43
238.996	-4.95
239.214	33.96
239.431	150.7
239.648	-47.96
239.865	113.83
240.083	183.46
240.3	3.24
240.517	36.01
240.735	19.63
240.952	130.22
241.169	74.92
241.386	99.5
241.603	64.68
241.821	31.91
242.038	167.08
242.255	93.35
242.472	-25.43
242.689	105.64
242.907	66.73
243.124	38.06
243.341	36.01
243.558	-4.95
243.775	-52.05
243.992	-56.15
244.209	93.35
244.426	193.7
244.643	99.5
244.86	46.25
245.078	13.48
245.295	72.87
245.512	27.82
245.729	27.82
245.946	70.83
246.163	33.96
246.38	66.73
246.597	1.19
246.814	64.68
247.031	103.59
247.248	128.17
247.464	138.41
247.681	40.11
247.898	25.77
248.115	150.7
248.332	-31.57
248.549	158.89
248.766	224.42
248.983	62.63
249.2	68.78
249.417	165.03
249.633	36.01
249.85	48.3
250.067	40.11
250.284	66.73
250.501	81.07
250.717	144.55
250.934	-17.24
251.151	70.83
251.368	3.24
251.585	42.15
251.801	64.68
252.018	-11.09
252.235	52.39
252.451	33.96
252.668	13.48
252.885	113.83
253.102	97.45
253.318	31.91
253.535	-21.33
253.752	56.49
253.968	-66.39
254.185	-31.57
254.401	52.39
254.618	-4.95
254.835	48.3
255.051	144.55
255.268	97.45
255.484	31.91
255.701	64.68
255.917	85.16
256.134	-9.05
256.351	64.68
256.567	-54.1
256.784	48.3
257	-41.81
257.217	56.49
257.433	97.45
257.65	62.63
257.866	93.35
258.082	-29.52
258.299	62.63
258.515	48.3
258.732	-27.48
258.948	17.58
259.165	64.68
259.381	-47.96
259.597	101.55
259.814	38.06
260.03	-2.9
260.246	33.96
260.463	46.25
260.679	197.8
260.895	50.35
261.112	97.45
261.328	17.58
261.544	-47.96
261.761	205.99
261.977	27.82
262.193	-45.91
262.409	173.22
262.626	107.69
262.842	68.78
263.058	70.83
263.274	81.07
263.49	85.16
263.707	105.64
263.923	105.64
264.139	-62.29
264.355	46.25
264.571	187.56
264.787	79.02
265.004	187.56
265.22	132.26
265.436	-23.38
265.652	-2.9
265.868	76.97
266.084	-58.2
266.3	-17.24
266.516	-43.86
266.732	76.97
266.948	36.01
267.164	62.63
267.38	158.89
267.596	56.49
267.812	136.36
268.028	52.39
268.244	105.64
268.46	95.4
268.676	48.3
268.892	93.35
269.108	62.63
269.324	-33.62
269.54	7.34
269.756	138.41
269.972	1.19
270.188	50.35
270.403	62.63
270.619	13.48
270.835	132.26
271.051	31.91
271.267	27.82
271.483	-2.9
271.698	83.11
271.914	72.87
272.13	103.59
272.346	33.96
272.562	76.97
272.777	146.6
272.993	21.67
273.209	21.67
273.425	87.21
273.64	-60.24
273.856	54.44
274.072	-45.91
274.287	-2.9
274.503	103.59
274.719	109.74
274.934	5.29
275.15	-78.68
275.366	15.53
275.581	-37.72
275.797	76.97
276.012	50.35
276.228	74.92
276.444	66.73
276.659	56.49
276.875	33.96
277.09	64.68
277.306	15.53
277.521	103.59
277.737	68.78
277.952	119.98
278.168	93.35
278.383	89.26
278.599	89.26
278.814	122.02
279.03	-17.24
279.245	122.02
279.461	130.22
279.676	103.59
279.892	-76.63
280.107	-0.85
280.322	-33.62
280.538	31.91
280.753	-0.85
280.969	107.69
281.184	-0.85
281.399	203.94
281.615	81.07
281.83	87.21
282.045	-62.29
282.26	74.92
282.476	42.15
282.691	87.21
282.906	85.16
283.122	72.87
283.337	9.39
283.552	64.68
283.767	23.72
283.983	81.07
284.198	68.78
284.413	117.93
284.628	-31.57
284.843	76.97
285.058	115.88
285.274	46.25
285.489	11.43
285.704	138.41
285.919	72.87
286.134	91.31
286.349	95.4
286.564	-25.43
286.779	165.03
286.995	72.87
287.21	-15.19
287.425	56.49
287.64	-11.09
287.855	-0.85
288.07	-70.48
288.285	97.45
288.5	101.55
288.715	62.63
288.93	-9.05
289.145	-15.19
289.36	58.54
289.575	-9.05
289.79	193.7
290.004	-58.2
290.219	81.07
290.434	-45.91
290.649	9.39
290.864	27.82
291.079	-37.72
291.294	109.74
291.509	103.59
291.724	62.63
291.938	-45.91
292.153	105.64
292.368	36.01
292.583	1.19
292.798	115.88
293.012	40.11
293.227	38.06
293.442	52.39
293.657	150.7
293.871	187.56
294.086	31.91
294.301	107.69
294.516	126.12
294.73	76.97
294.945	-70.48
295.16	130.22
295.374	138.41
295.589	203.94
295.804	70.83
296.018	103.59
296.233	113.83
296.447	97.45
296.662	46.25
296.877	148.65
297.091	83.11
297.306	-4.95
297.52	42.15
297.735	52.39
297.949	68.78
298.164	85.16
298.378	148.65
298.593	-33.62
298.807	-4.95
299.022	93.35
299.236	201.9
299.451	1.19
299.665	113.83
299.88	17.58
300.094	109.74
300.309	31.91
300.523	64.68
300.737	31.91
300.952	25.77
301.166	21.67
301.381	7.34
301.595	-9.05
301.809	60.59
302.024	46.25
302.238	-62.29
302.452	115.88
302.667	23.72
302.881	103.59
303.095	197.8
303.309	89.26
303.524	-2.9
303.738	-58.2
303.952	-62.29
304.166	99.5
304.381	-95.06
304.595	191.66
304.809	-35.67
305.023	72.87
305.237	87.21
305.452	56.49
305.666	40.11
305.88	142.5
306.094	95.4
306.308	103.59
306.522	144.55
306.736	54.44
306.95	130.22
307.164	-0.85
307.379	62.63
307.593	220.33
307.807	148.65
308.021	99.5
308.235	128.17
308.449	-23.38
308.663	42.15
308.877	214.18
309.091	48.3
309.305	83.11
309.519	-13.14
309.733	167.08
309.947	-2.9
310.161	113.83
310.374	109.74
310.588	156.84
310.802	-58.2
311.016	-4.95
311.23	126.12
311.444	-35.67
311.658	60.59
311.872	146.6
312.085	124.07
312.299	91.31
312.513	197.8
312.727	66.73
312.941	-78.68
313.154	54.44
313.368	132.26
313.582	48.3
313.796	83.11
314.009	52.39
314.223	216.23
314.437	72.87
314.651	124.07
314.864	111.78
315.078	76.97
315.292	-50
315.505	-4.95
315.719	60.59
315.933	128.17
316.146	-11.09
316.36	3.24
316.573	138.41
316.787	74.92
317.001	167.08
317.214	-13.14
317.428	31.91
317.641	7.34
317.855	95.4
318.068	23.72
318.282	40.11
318.495	201.9
318.709	130.22
318.922	15.53
319.136	199.85
319.349	130.22
319.563	17.58
319.776	70.83
319.99	-66.39
320.203	93.35
320.417	15.53
320.63	130.22
320.843	173.22
321.057	103.59
321.27	7.34
321.483	142.5
321.697	177.32
321.91	15.53
322.124	19.63
322.337	62.63
322.55	-33.62
322.763	68.78
322.977	79.02
323.19	9.39
323.403	-13.14
323.617	177.32
323.83	156.84
324.043	-4.95
324.256	72.87
324.469	-31.57
324.683	232.62
324.896	33.96
325.109	56.49
325.322	1.19
325.535	93.35
325.748	81.07
325.962	-11.09
326.175	66.73
326.388	97.45
326.601	134.31
326.814	138.41
327.027	85.16
327.24	126.12
327.453	23.72
327.666	93.35
327.879	142.5
328.092	38.06
328.305	46.25
328.518	-0.85
328.731	-29.52
328.944	-58.2
329.157	148.65
329.37	89.26
329.583	146.6
329.796	156.84
330.009	-15.19
330.222	50.35
330.435	130.22
330.648	19.63
330.861	72.87
331.073	72.87
331.286	169.13
331.499	40.11
331.712	48.3
331.925	54.44
332.138	11.43
332.35	122.02
332.563	25.77
332.776	128.17
332.989	21.67
333.202	-11.09
333.414	17.58
333.627	56.49
333.84	33.96
334.053	111.78
334.265	33.96
334.478	-33.62
334.691	29.87
334.903	60.59
335.116	1.19
335.329	109.74
335.541	148.65
335.754	165.03
335.966	13.48
336.179	64.68
336.392	46.25
336.604	11.43
336.817	189.61
337.029	-2.9
337.242	44.2
337.454	105.64
337.667	36.01
337.88	220.33
338.092	68.78
338.305	132.26
338.517	48.3
338.729	111.78
338.942	134.31
339.154	-93.01
339.367	-33.62
339.579	89.26
339.792	-76.63
340.004	113.83
340.217	46.25
340.429	115.88
340.641	-52.05
340.854	9.39
341.066	11.43
341.278	91.31
341.491	220.33
341.703	9.39
341.915	25.77
342.128	54.44
342.34	56.49
342.552	-33.62
342.764	132.26
342.977	33.96
343.189	33.96
343.401	97.45
343.613	-66.39
343.826	109.74
344.038	-54.1
344.25	54.44
344.462	7.34
344.674	64.68
344.886	29.87
345.099	81.07
345.311	89.26
345.523	13.48
345.735	-111.44
345.947	81.07
346.159	64.68
346.371	38.06
346.583	42.15
346.795	201.9
347.007	52.39
347.219	58.54
347.431	19.63
347.643	150.7
347.855	29.87
348.067	150.7
348.279	7.34
348.491	122.02
348.703	85.16
348.915	91.31
349.127	-7
349.339	64.68
349.551	50.35
349.763	134.31
349.975	-29.52
350.187	93.35
350.399	111.78
350.61	89.26
350.822	62.63
351.034	111.78
351.246	91.31
351.458	103.59
351.669	87.21
351.881	68.78
352.093	97.45
352.305	183.46
352.517	46.25
352.728	124.07
352.94	76.97
353.152	144.55
353.363	36.01
353.575	76.97
353.787	195.75
353.999	27.82
354.21	187.56
354.422	38.06
354.633	54.44
354.845	109.74
355.057	1.19
355.268	27.82
355.48	17.58
355.692	-43.86
355.903	66.73
356.115	-21.33
356.326	-45.91
356.538	152.74
356.749	144.55
356.961	222.38
357.172	93.35
357.384	19.63
357.595	136.36
357.807	5.29
358.018	11.43
358.23	70.83
358.441	126.12
358.653	175.27
358.864	36.01
359.075	-29.52
359.287	126.12
359.498	117.93
359.709	199.85
359.921	27.82
360.132	113.83
360.344	87.21
360.555	56.49
360.766	52.39
360.977	-2.9
361.189	199.85
361.4	36.01
361.611	138.41
361.823	136.36
362.034	62.63
362.245	-72.53
362.456	113.83
362.667	83.11
362.879	17.58
363.09	74.92
363.301	95.4
363.512	93.35
363.723	-13.14
363.935	99.5
364.146	99.5
364.357	70.83
364.568	128.17
364.779	-50
364.99	152.74
365.201	-0.85
365.412	119.98
365.623	-54.1
365.834	140.46
366.045	5.29
366.256	76.97
366.467	64.68
366.678	48.3
366.889	31.91
367.1	48.3
367.311	144.55
367.522	52.39
367.733	199.85
367.944	52.39
368.155	48.3
368.366	136.36
368.577	122.02
368.788	115.88
368.999	-2.9
369.209	89.26
369.42	255.14
369.631	285.86
369.842	91.31
370.053	44.2
370.264	158.89
370.474	-41.81
370.685	95.4
370.896	91.31
371.107	85.16
371.317	66.73
371.528	60.59
371.739	160.94
371.95	87.21
372.16	89.26
372.371	-4.95
372.582	13.48
372.792	44.2
373.003	119.98
373.214	38.06
373.424	183.46
373.635	-82.77
373.846	169.13
374.056	109.74
374.267	136.36
374.477	81.07
374.688	29.87
374.898	44.2
375.109	81.07
375.319	62.63
375.53	87.21
375.74	101.55
375.951	107.69
376.161	128.17
376.372	119.98
376.582	13.48
376.793	68.78
377.003	29.87
377.214	1.19
377.424	64.68
377.635	50.35
377.845	-23.38
378.055	197.8
378.266	-84.82
378.476	66.73
378.686	48.3
378.897	54.44
379.107	81.07
379.317	50.35
379.528	11.43
379.738	87.21
379.948	15.53
380.158	128.17
380.369	87.21
380.579	132.26
380.789	103.59
380.999	95.4
381.21	152.74
381.42	132.26
381.63	31.91
381.84	162.98
382.05	124.07
382.261	60.59
382.471	148.65
382.681	40.11
382.891	162.98
383.101	56.49
383.311	56.49
383.521	31.91
383.731	142.5
383.941	74.92
384.151	136.36
384.361	33.96
384.571	97.45
384.781	68.78
384.991	148.65
385.201	189.61
385.411	105.64
385.621	48.3
385.831	122.02
386.041	68.78
386.251	-31.57
386.461	195.75
386.671	25.77
386.881	136.36
387.091	13.48
387.301	189.61
387.511	60.59
387.72	81.07
387.93	132.26
388.14	-125.78
388.35	68.78
388.56	144.55
388.769	119.98
388.979	5.29
389.189	33.96
389.399	62.63
389.609	79.02
389.818	68.78
390.028	74.92
390.238	140.46
390.447	103.59
390.657	21.67
390.867	50.35
391.076	-58.2
391.286	101.55
391.496	-52.05
391.705	23.72
391.915	199.85
392.125	122.02
392.334	119.98
392.544	154.79
392.753	42.15
392.963	-15.19
393.172	44.2
393.382	-2.9
393.591	212.14
393.801	-41.81
394.01	162.98
394.22	11.43
394.429	103.59
394.639	23.72
394.848	33.96
395.058	54.44
395.267	25.77
395.477	130.22
395.686	17.58
395.895	203.94
396.105	222.38
396.314	99.5
396.524	52.39
396.733	-19.29
396.942	185.51
397.152	101.55
397.361	154.79
397.57	154.79
397.78	1.19
397.989	136.36
398.198	238.76
398.407	27.82
398.617	56.49
398.826	56.49
399.035	-25.43
399.244	132.26
399.453	89.26
399.663	85.16
399.872	124.07
400.081	11.43
400.29	195.75
400.499	-4.95
400.708	-0.85
400.917	15.53
401.127	62.63
401.336	15.53
401.545	242.85
401.754	134.31
401.963	64.68
402.172	89.26
402.381	-60.24
402.59	44.2
402.799	109.74
403.008	74.92
403.217	56.49
403.426	-0.85
403.635	-45.91
403.844	99.5
404.053	40.11
404.262	48.3
404.471	154.79
404.68	70.83
404.888	76.97
405.097	-21.33
405.306	68.78
405.515	50.35
405.724	-11.09
405.933	117.93
406.142	79.02
406.35	72.87
406.559	36.01
406.768	11.43
406.977	193.7
407.185	23.72
407.394	146.6
407.603	-111.44
407.812	72.87
408.02	173.22
408.229	19.63
408.438	31.91
408.646	-37.72
408.855	29.87
409.064	99.5
409.272	36.01
409.481	72.87
409.69	-29.52
409.898	17.58
410.107	60.59
410.315	66.73
410.524	-9.05
410.733	113.83
410.941	130.22
411.15	97.45
411.358	195.75
411.567	119.98
411.775	-13.14
411.984	89.26
412.192	158.89
412.401	-33.62
412.609	183.46
412.818	150.7
413.026	27.82
413.234	36.01
413.443	19.63
413.651	-11.09
413.86	70.83
414.068	128.17
414.276	146.6
414.485	48.3
414.693	152.74
414.901	193.7
415.11	126.12
415.318	19.63
415.526	91.31
415.734	128.17
415.943	50.35
416.151	148.65
416.359	93.35
416.567	119.98
416.776	134.31
416.984	56.49
417.192	162.98
417.4	17.58
417.608	62.63
417.817	29.87
418.025	68.78
418.233	267.43
418.441	46.25
418.649	36.01
418.857	171.18
419.065	122.02
419.273	5.29
419.481	58.54
419.689	64.68
419.897	17.58
420.105	-27.48
420.313	142.5
420.521	101.55
420.729	126.12
420.937	40.11
421.145	83.11
421.353	91.31
421.561	128.17
421.769	-29.52
421.977	11.43
422.185	142.5
422.393	46.25
422.601	117.93
422.809	136.36
423.017	25.77
423.224	76.97
423.432	56.49
423.64	46.25
423.848	113.83
424.056	31.91
424.263	91.31
424.471	79.02
424.679	175.27
424.887	-84.82
425.094	208.04
425.302	64.68
425.51	62.63
425.718	38.06
425.925	136.36
426.133	83.11
426.341	126.12
426.548	74.92
426.756	60.59
426.964	91.31
427.171	117.93
427.379	122.02
427.586	44.2
427.794	128.17
428.001	89.26
428.209	126.12
428.417	183.46
428.624	175.27
428.832	160.94
429.039	21.67
429.247	56.49
429.454	93.35
429.662	261.29
429.869	105.64
430.076	136.36
430.284	257.19
430.491	238.76
430.699	193.7
430.906	238.76
431.114	177.32
431.321	197.8
431.528	136.36
431.736	119.98
431.943	203.94
432.15	117.93
432.358	255.14
432.565	183.46
432.772	3.24
432.979	253.09
433.187	85.16
433.394	191.66
433.601	33.96
433.808	228.52
434.016	316.58
434.223	167.08
434.43	273.57
434.637	212.14
434.844	294.05
435.052	167.08
435.259	308.39
435.466	302.25
435.673	193.7
435.88	253.09
436.087	343.21
436.294	279.72
436.501	277.67
436.708	240.81
436.915	269.48
437.122	314.53
437.329	175.27
437.537	330.92
437.743	255.14
437.95	375.97
438.157	330.92
438.364	296.1
438.571	330.92
438.778	406.69
438.985	461.99
439.192	466.08
439.399	382.12
439.606	386.21
439.813	431.27
440.02	613.54
440.227	613.54
440.433	566.43
440.64	504.99
440.847	468.13
441.054	480.42
441.261	537.76
441.467	564.39
441.674	451.75
441.881	744.61
442.088	584.87
442.294	656.54
442.501	720.03
442.708	756.9
442.914	705.7
443.121	810.14
443.328	756.9
443.534	853.15
443.741	853.15
443.948	763.04
444.154	775.33
444.361	1068.19
444.568	853.15
444.774	1121.43
444.981	836.77
445.187	1094.81
445.394	1053.85
445.6	1043.61
445.807	1105.05
446.013	1107.1
446.22	1082.52
446.426	1266.84
446.633	1367.19
446.839	1537.17
447.046	1344.66
447.252	1569.94
447.459	1526.93
447.665	1461.4
447.871	1541.27
448.078	1723.54
448.284	1703.06
448.491	1803.41
448.697	1817.74
448.903	1983.63
449.11	1918.09
449.316	2014.35
449.522	2165.9
449.728	2256.01
449.935	2272.39
450.141	2282.63
450.347	2522.24
450.553	2469
450.76	2477.19
450.966	2634.88
451.172	2727.04
451.378	2915.45
451.584	2817.15
451.791	3124.35
451.997	3226.75
452.203	3159.16
452.409	3363.96
452.615	3452.02
452.821	3497.08
453.027	3366.01
453.233	3828.85
453.44	3761.27
453.646	3900.53
453.852	4158.57
454.058	4328.55
454.264	4385.9
454.47	4672.61
454.676	4568.16
454.882	5039.2
455.088	4928.61
455.294	5174.36
455.5	5581.91
455.705	5731.41
455.911	5710.93
456.117	5964.88
456.323	6126.67
456.529	6165.58
456.735	6745.16
456.941	6954.05
457.147	7154.75
457.352	7253.05
457.558	7681.08
457.764	8008.75
457.97	8332.33
458.176	8684.58
458.381	8879.14
458.587	9237.53
458.793	9712.66
458.999	9542.68
459.204	10624.01
459.41	11242.5
459.616	11101.19
459.821	11508.73
460.027	12307.44
460.233	12573.67
460.438	13001.7
460.644	13495.26
460.85	13683.67
461.055	14255.06
461.261	14910.41
461.466	14445.52
461.672	15014.85
461.878	16831.4
462.083	16233.39
462.289	16794.54
462.494	17400.74
462.7	17601.44
462.905	17826.71
463.111	19407.75
463.316	20118.39
463.522	20540.27
463.727	21066.6
463.932	21980
464.138	22950.73
464.343	23581.51
464.549	23880.51
464.754	25725.73
464.959	26200.86
465.165	26733.33
465.37	26680.08
465.575	26614.55
465.781	28117.76
465.986	28984.05
466.191	29039.34
466.397	28934.9
466.602	28183.29
466.807	29717.22
467.012	30554.84
467.218	31118.03
467.423	31091.41
467.628	32133.82
467.833	33559.21
468.038	32893.62
468.244	32074.43
468.449	33602.22
468.654	33372.85
