Data from USB4F104151__20__09-25-37-520.txt Node

Date: Wed Feb 26 09:25:37 EST 2025
User: louis
Spectrometer: USB4F10415
Trigger mode: 4
Integration Time (sec): 1.000000E-1
Scans to average: 1
Electric dark correction enabled: true
Nonlinearity correction enabled: false
Boxcar width: 0
XAxis mode: Wavelengths
Number of Pixels in Spectrum: 3648
>>>>>Begin Spectral Data<<<<<
178.204	-345.42
178.424	-345.42
178.644	-345.42
178.864	-312.66
179.084	-314.7
179.304	-17.75
179.524	15.02
179.744	-60.76
179.964	25.26
180.184	55.98
180.404	111.27
180.624	-83.28
180.844	-13.65
181.064	-75.09
181.283	15.02
181.503	4.78
181.723	23.21
181.943	-75.09
182.163	166.57
182.383	21.16
182.602	88.75
182.822	121.51
183.042	88.75
183.262	-17.75
183.482	119.46
183.701	72.36
183.921	84.65
184.141	-56.66
184.361	53.93
184.58	62.12
184.8	41.64
185.02	19.11
185.239	103.08
185.459	31.4
185.679	166.57
185.898	-93.52
186.118	82.6
186.338	-5.46
186.557	80.55
186.777	-19.8
186.997	55.98
187.216	55.98
187.436	98.99
187.655	39.59
187.875	49.83
188.095	-9.56
188.314	107.18
188.534	80.55
188.753	-38.23
188.973	78.51
189.192	174.76
189.412	12.97
189.631	51.88
189.851	74.41
190.07	131.75
190.29	-19.8
190.509	-9.56
190.729	80.55
190.948	84.65
191.168	230.06
191.387	72.36
191.607	-5.46
191.826	-40.28
192.045	2.73
192.265	-36.18
192.484	80.55
192.704	-17.75
192.923	47.79
193.142	170.66
193.362	64.17
193.581	47.79
193.8	31.4
194.02	88.75
194.239	41.64
194.458	90.79
194.678	12.97
194.897	-30.04
195.116	21.16
195.335	27.31
195.555	39.59
195.774	41.64
195.993	113.32
196.212	23.21
196.432	-42.32
196.651	-32.08
196.87	37.55
197.089	242.34
197.308	53.93
197.528	74.41
197.747	33.45
197.966	96.94
198.185	123.56
198.404	4.78
198.623	45.74
198.842	64.17
199.062	121.51
199.281	103.08
199.5	-17.75
199.719	121.51
199.938	-23.89
200.157	80.55
200.376	55.98
200.595	111.27
200.814	76.46
201.033	27.31
201.252	84.65
201.471	-25.94
201.69	31.4
201.909	146.09
202.128	12.97
202.347	101.03
202.566	-17.75
202.785	-25.94
203.004	-27.99
203.223	232.1
203.442	86.7
203.661	23.21
203.879	10.92
204.098	129.7
204.317	-50.52
204.536	103.08
204.755	107.18
204.974	180.9
205.193	66.22
205.411	96.94
205.63	105.13
205.849	94.89
206.068	78.51
206.287	21.16
206.505	101.03
206.724	68.27
206.943	21.16
207.162	-9.56
207.381	103.08
207.599	47.79
207.818	-1.37
208.037	-17.75
208.255	55.98
208.474	-15.7
208.693	35.5
208.911	37.55
209.13	133.8
209.349	141.99
209.567	60.07
209.786	8.87
210.005	92.84
210.223	62.12
210.442	-40.28
210.661	0.68
210.879	72.36
211.098	55.98
211.316	88.75
211.535	94.89
211.753	-40.28
211.972	113.32
212.191	23.21
212.409	39.59
212.628	27.31
212.846	23.21
213.065	35.5
213.283	103.08
213.502	78.51
213.72	60.07
213.938	0.68
214.157	-25.94
214.375	107.18
214.594	58.03
214.812	80.55
215.031	80.55
215.249	-15.7
215.467	70.31
215.686	86.7
215.904	96.94
216.122	4.78
216.341	154.28
216.559	80.55
216.778	129.7
216.996	117.42
217.214	-40.28
217.432	78.51
217.651	51.88
217.869	47.79
218.087	6.83
218.306	88.75
218.524	43.69
218.742	6.83
218.96	64.17
219.179	-13.65
219.397	29.35
219.615	176.81
219.833	76.46
220.051	39.59
220.27	162.47
220.488	82.6
220.706	47.79
220.924	-85.33
221.142	6.83
221.36	86.7
221.578	88.75
221.796	60.07
222.015	70.31
222.233	92.84
222.451	94.89
222.669	-15.7
222.887	33.45
223.105	6.83
223.323	60.07
223.541	-17.75
223.759	84.65
223.977	15.02
224.195	119.46
224.413	90.79
224.631	23.21
224.849	68.27
225.067	162.47
225.285	4.78
225.503	37.55
225.721	-154.96
225.939	19.11
226.157	98.99
226.375	223.91
226.592	29.35
226.81	35.5
227.028	119.46
227.246	178.86
227.464	33.45
227.682	47.79
227.9	113.32
228.117	53.93
228.335	15.02
228.553	-27.99
228.771	39.59
228.989	94.89
229.206	51.88
229.424	-5.46
229.642	37.55
229.86	-17.75
230.077	74.41
230.295	23.21
230.513	119.46
230.731	92.84
230.948	88.75
231.166	82.6
231.384	84.65
231.601	-34.13
231.819	119.46
232.037	2.73
232.254	-62.8
232.472	-3.41
232.689	27.31
232.907	133.8
233.125	10.92
233.342	10.92
233.56	33.45
233.777	66.22
233.995	0.68
234.213	154.28
234.43	86.7
234.648	60.07
234.865	-50.52
235.083	154.28
235.3	6.83
235.518	47.79
235.735	156.33
235.953	15.02
236.17	43.69
236.388	58.03
236.605	60.07
236.822	72.36
237.04	117.42
237.257	72.36
237.475	-99.67
237.692	-17.75
237.909	107.18
238.127	37.55
238.344	68.27
238.562	27.31
238.779	-34.13
238.996	23.21
239.214	35.5
239.431	70.31
239.648	23.21
239.865	103.08
240.083	37.55
240.3	-9.56
240.517	8.87
240.735	27.31
240.952	113.32
241.169	105.13
241.386	105.13
241.603	51.88
241.821	-9.56
242.038	88.75
242.255	72.36
242.472	-23.89
242.689	101.03
242.907	139.94
243.124	-3.41
243.341	0.68
243.558	-3.41
243.775	6.83
243.992	15.02
244.209	49.83
244.426	203.43
244.643	45.74
244.86	-9.56
245.078	117.42
245.295	-9.56
245.512	60.07
245.729	-32.08
245.946	55.98
246.163	105.13
246.38	-5.46
246.597	62.12
246.814	55.98
247.031	58.03
247.248	-30.04
247.464	0.68
247.681	64.17
247.898	72.36
248.115	92.84
248.332	2.73
248.549	117.42
248.766	189.1
248.983	35.5
249.2	137.9
249.417	150.18
249.633	2.73
249.85	39.59
250.067	72.36
250.284	62.12
250.501	64.17
250.717	115.37
250.934	-54.61
251.151	31.4
251.368	33.45
251.585	-7.51
251.801	29.35
252.018	39.59
252.235	80.55
252.451	-83.28
252.668	47.79
252.885	131.75
253.102	82.6
253.318	66.22
253.535	-50.52
253.752	31.4
253.968	23.21
254.185	51.88
254.401	-36.18
254.618	82.6
254.835	27.31
255.051	156.33
255.268	53.93
255.484	12.97
255.701	-19.8
255.917	129.7
256.134	-7.51
256.351	45.74
256.567	10.92
256.784	76.46
257	-27.99
257.217	103.08
257.433	139.94
257.65	88.75
257.866	121.51
258.082	17.07
258.299	-75.09
258.515	90.79
258.732	-17.75
258.948	-36.18
259.165	-62.8
259.381	6.83
259.597	121.51
259.814	60.07
260.03	-17.75
260.246	-7.51
260.463	84.65
260.679	53.93
260.895	68.27
261.112	78.51
261.328	37.55
261.544	15.02
261.761	148.14
261.977	80.55
262.193	35.5
262.409	76.46
262.626	55.98
262.842	47.79
263.058	-60.76
263.274	103.08
263.49	103.08
263.707	74.41
263.923	70.31
264.139	-58.71
264.355	80.55
264.571	101.03
264.787	-15.7
265.004	111.27
265.22	8.87
265.436	53.93
265.652	0.68
265.868	37.55
266.084	-50.52
266.3	-23.89
266.516	21.16
266.732	0.68
266.948	19.11
267.164	23.21
267.38	53.93
267.596	117.42
267.812	191.14
268.028	29.35
268.244	6.83
268.46	90.79
268.676	-19.8
268.892	58.03
269.108	-13.65
269.324	2.73
269.54	27.31
269.756	35.5
269.972	-11.61
270.188	8.87
270.403	-5.46
270.619	92.84
270.835	76.46
271.051	29.35
271.267	58.03
271.483	0.68
271.698	92.84
271.914	47.79
272.13	47.79
272.346	-30.04
272.562	55.98
272.777	129.7
272.993	19.11
273.209	-11.61
273.425	178.86
273.64	-91.48
273.856	125.61
274.072	-13.65
274.287	-101.72
274.503	51.88
274.719	43.69
274.934	37.55
275.15	-17.75
275.366	60.07
275.581	-32.08
275.797	-7.51
276.012	47.79
276.228	12.97
276.444	72.36
276.659	131.75
276.875	31.4
277.09	62.12
277.306	105.13
277.521	66.22
277.737	51.88
277.952	111.27
278.168	6.83
278.383	29.35
278.599	12.97
278.814	19.11
279.03	53.93
279.245	133.8
279.461	90.79
279.676	41.64
279.892	-7.51
280.107	21.16
280.322	-36.18
280.538	31.4
280.753	-42.32
280.969	64.17
281.184	96.94
281.399	111.27
281.615	121.51
281.83	111.27
282.045	-38.23
282.26	19.11
282.476	23.21
282.691	117.42
282.906	12.97
283.122	55.98
283.337	10.92
283.552	119.46
283.767	25.26
283.983	72.36
284.198	4.78
284.413	107.18
284.628	-89.43
284.843	39.59
285.058	113.32
285.274	90.79
285.489	-25.94
285.704	111.27
285.919	15.02
286.134	41.64
286.349	64.17
286.564	-9.56
286.779	187.05
286.995	25.26
287.21	-68.95
287.425	39.59
287.64	-17.75
287.855	-56.66
288.07	-105.81
288.285	141.99
288.5	92.84
288.715	111.27
288.93	96.94
289.145	-89.43
289.36	111.27
289.575	29.35
289.79	115.37
290.004	23.21
290.219	121.51
290.434	-52.56
290.649	-25.94
290.864	-62.8
291.079	6.83
291.294	43.69
291.509	39.59
291.724	-17.75
291.938	15.02
292.153	53.93
292.368	-60.76
292.583	4.78
292.798	121.51
293.012	80.55
293.227	55.98
293.442	-42.32
293.657	43.69
293.871	123.56
294.086	72.36
294.301	199.34
294.516	162.47
294.73	55.98
294.945	-3.41
295.16	70.31
295.374	152.23
295.589	88.75
295.804	-36.18
296.018	49.83
296.233	90.79
296.447	19.11
296.662	-19.8
296.877	88.75
297.091	133.8
297.306	8.87
297.52	-38.23
297.735	-25.94
297.949	76.46
298.164	-3.41
298.378	84.65
298.593	-36.18
298.807	-34.13
299.022	0.68
299.236	119.46
299.451	55.98
299.665	37.55
299.88	-1.37
300.094	-7.51
300.309	60.07
300.523	-11.61
300.737	-13.65
300.952	47.79
301.166	55.98
301.381	92.84
301.595	6.83
301.809	47.79
302.024	-3.41
302.238	-1.37
302.452	166.57
302.667	88.75
302.881	103.08
303.095	185
303.309	80.55
303.524	-50.52
303.738	10.92
303.952	15.02
304.166	43.69
304.381	-118.1
304.595	162.47
304.809	-17.75
305.023	68.27
305.237	12.97
305.452	-40.28
305.666	37.55
305.88	45.74
306.094	94.89
306.308	70.31
306.522	21.16
306.736	80.55
306.95	121.51
307.164	88.75
307.379	10.92
307.593	96.94
307.807	47.79
308.021	127.66
308.235	88.75
308.449	-136.53
308.663	152.23
308.877	211.62
309.091	94.89
309.305	127.66
309.519	-46.42
309.733	31.4
309.947	-87.38
310.161	-3.41
310.374	74.41
310.588	53.93
310.802	-17.75
311.016	33.45
311.23	62.12
311.444	-50.52
311.658	25.26
311.872	166.57
312.085	25.26
312.299	174.76
312.513	168.62
312.727	76.46
312.941	10.92
313.154	12.97
313.368	39.59
313.582	39.59
313.796	23.21
314.009	47.79
314.223	94.89
314.437	82.6
314.651	21.16
314.864	39.59
315.078	6.83
315.292	2.73
315.505	72.36
315.719	68.27
315.933	101.03
316.146	60.07
316.36	-19.8
316.573	133.8
316.787	117.42
317.001	68.27
317.214	-34.13
317.428	84.65
317.641	-40.28
317.855	76.46
318.068	21.16
318.282	131.75
318.495	185
318.709	76.46
318.922	-32.08
319.136	195.24
319.349	119.46
319.563	90.79
319.776	-5.46
319.99	-34.13
320.203	68.27
320.417	84.65
320.63	78.51
320.843	178.86
321.057	49.83
321.27	47.79
321.483	37.55
321.697	76.46
321.91	64.17
322.124	47.79
322.337	84.65
322.55	-11.61
322.763	141.99
322.977	15.02
323.19	-19.8
323.403	10.92
323.617	35.5
323.83	94.89
324.043	51.88
324.256	121.51
324.469	-27.99
324.683	148.14
324.896	39.59
325.109	60.07
325.322	-3.41
325.535	39.59
325.748	88.75
325.962	105.13
326.175	37.55
326.388	58.03
326.601	82.6
326.814	19.11
327.027	64.17
327.24	185
327.453	-30.04
327.666	96.94
327.879	96.94
328.092	37.55
328.305	94.89
328.518	53.93
328.731	94.89
328.944	-15.7
329.157	68.27
329.37	-19.8
329.583	127.66
329.796	117.42
330.009	-34.13
330.222	35.5
330.435	92.84
330.648	129.7
330.861	51.88
331.073	55.98
331.286	121.51
331.499	53.93
331.712	39.59
331.925	96.94
332.138	21.16
332.35	103.08
332.563	64.17
332.776	168.62
332.989	33.45
333.202	-58.71
333.414	80.55
333.627	55.98
333.84	-56.66
334.053	55.98
334.265	80.55
334.478	55.98
334.691	60.07
334.903	78.51
335.116	17.07
335.329	-3.41
335.541	107.18
335.754	172.71
335.966	45.74
336.179	84.65
336.392	2.73
336.604	43.69
336.817	113.32
337.029	98.99
337.242	64.17
337.454	76.46
337.667	-1.37
337.88	101.03
338.092	80.55
338.305	41.64
338.517	12.97
338.729	94.89
338.942	166.57
339.154	-15.7
339.367	-3.41
339.579	119.46
339.792	-1.37
340.004	107.18
340.217	72.36
340.429	53.93
340.641	15.02
340.854	8.87
341.066	19.11
341.278	92.84
341.491	152.23
341.703	105.13
341.915	15.02
342.128	84.65
342.34	68.27
342.552	-83.28
342.764	58.03
342.977	62.12
343.189	94.89
343.401	180.9
343.613	-34.13
343.826	96.94
344.038	-38.23
344.25	117.42
344.462	-34.13
344.674	58.03
344.886	33.45
345.099	80.55
345.311	64.17
345.523	37.55
345.735	-52.56
345.947	62.12
346.159	70.31
346.371	21.16
346.583	0.68
346.795	252.58
347.007	47.79
347.219	82.6
347.431	49.83
347.643	109.23
347.855	6.83
348.067	172.71
348.279	35.5
348.491	127.66
348.703	98.99
348.915	35.5
349.127	-81.24
349.339	25.26
349.551	-3.41
349.763	6.83
349.975	49.83
350.187	66.22
350.399	158.38
350.61	31.4
350.822	41.64
351.034	21.16
351.246	55.98
351.458	43.69
351.669	21.16
351.881	187.05
352.093	33.45
352.305	88.75
352.517	17.07
352.728	203.43
352.94	123.56
353.152	139.94
353.363	-42.32
353.575	101.03
353.787	86.7
353.999	80.55
354.21	111.27
354.422	-71
354.633	-19.8
354.845	84.65
355.057	23.21
355.268	80.55
355.48	101.03
355.692	-9.56
355.903	37.55
356.115	39.59
356.326	-1.37
356.538	185
356.749	43.69
356.961	178.86
357.172	84.65
357.384	-34.13
357.595	164.52
357.807	-23.89
358.018	-1.37
358.23	21.16
358.441	125.61
358.653	137.9
358.864	31.4
359.075	-23.89
359.287	12.97
359.498	113.32
359.709	55.98
359.921	31.4
360.132	51.88
360.344	-1.37
360.555	0.68
360.766	88.75
360.977	21.16
361.189	64.17
361.4	47.79
361.611	62.12
361.823	92.84
362.034	72.36
362.245	15.02
362.456	12.97
362.667	96.94
362.879	-40.28
363.09	37.55
363.301	53.93
363.512	31.4
363.723	25.26
363.935	-19.8
364.146	135.85
364.357	31.4
364.568	10.92
364.779	10.92
364.99	121.51
365.201	-13.65
365.412	109.23
365.623	-91.48
365.834	88.75
366.045	111.27
366.256	47.79
366.467	133.8
366.678	29.35
366.889	43.69
367.1	23.21
367.311	72.36
367.522	2.73
367.733	6.83
367.944	144.04
368.155	72.36
368.366	47.79
368.577	101.03
368.788	96.94
368.999	64.17
369.209	43.69
369.42	211.62
369.631	168.62
369.842	135.85
370.053	-1.37
370.264	84.65
370.474	-44.37
370.685	76.46
370.896	76.46
371.107	146.09
371.317	92.84
371.528	29.35
371.739	94.89
371.95	152.23
372.16	19.11
372.371	-3.41
372.582	-54.61
372.792	70.31
373.003	10.92
373.214	133.8
373.424	62.12
373.635	-42.32
373.846	109.23
374.056	78.51
374.267	31.4
374.477	84.65
374.688	21.16
374.898	129.7
375.109	55.98
375.319	29.35
375.53	107.18
375.74	23.21
375.951	21.16
376.161	55.98
376.372	113.32
376.582	47.79
376.793	129.7
377.003	27.31
377.214	10.92
377.424	105.13
377.635	45.74
377.845	29.35
378.055	86.7
378.266	31.4
378.476	-11.61
378.686	49.83
378.897	10.92
379.107	101.03
379.317	78.51
379.528	-109.91
379.738	98.99
379.948	-60.76
380.158	115.37
380.369	-17.75
380.579	105.13
380.789	47.79
380.999	88.75
381.21	41.64
381.42	121.51
381.63	47.79
381.84	84.65
382.05	92.84
382.261	131.75
382.471	117.42
382.681	-13.65
382.891	125.61
383.101	58.03
383.311	-99.67
383.521	-17.75
383.731	105.13
383.941	55.98
384.151	66.22
384.361	10.92
384.571	64.17
384.781	35.5
384.991	96.94
385.201	131.75
385.411	94.89
385.621	115.37
385.831	60.07
386.041	58.03
386.251	-21.84
386.461	121.51
386.671	53.93
386.881	55.98
387.091	-9.56
387.301	60.07
387.511	45.74
387.72	39.59
387.93	86.7
388.14	-52.56
388.35	80.55
388.56	15.02
388.769	113.32
388.979	4.78
389.189	101.03
389.399	58.03
389.609	72.36
389.818	139.94
390.028	-21.84
390.238	60.07
390.447	-42.32
390.657	60.07
390.867	53.93
391.076	-27.99
391.286	96.94
391.496	25.26
391.705	8.87
391.915	129.7
392.125	111.27
392.334	45.74
392.544	187.05
392.753	21.16
392.963	-1.37
393.172	72.36
393.382	84.65
393.591	76.46
393.801	55.98
394.01	168.62
394.22	107.18
394.429	6.83
394.639	70.31
394.848	25.26
395.058	94.89
395.267	78.51
395.477	55.98
395.686	86.7
395.895	174.76
396.105	121.51
396.314	49.83
396.524	35.5
396.733	-42.32
396.942	119.46
397.152	123.56
397.361	68.27
397.57	58.03
397.78	-48.47
397.989	55.98
398.198	225.96
398.407	62.12
398.617	51.88
398.826	84.65
399.035	84.65
399.244	185
399.453	72.36
399.663	25.26
399.872	19.11
400.081	2.73
400.29	141.99
400.499	-34.13
400.708	92.84
400.917	-7.51
401.127	62.12
401.336	-21.84
401.545	139.94
401.754	133.8
401.963	47.79
402.172	88.75
402.381	-15.7
402.59	49.83
402.799	82.6
403.008	76.46
403.217	4.78
403.426	101.03
403.635	-44.37
403.844	-13.65
404.053	19.11
404.262	-1.37
404.471	160.42
404.68	-13.65
404.888	27.31
405.097	70.31
405.306	15.02
405.515	47.79
405.724	76.46
405.933	64.17
406.142	-3.41
406.35	96.94
406.559	45.74
406.768	51.88
406.977	88.75
407.185	94.89
407.394	119.46
407.603	-3.41
407.812	78.51
408.02	168.62
408.229	29.35
408.438	80.55
408.646	4.78
408.855	-1.37
409.064	51.88
409.272	64.17
409.481	135.85
409.69	-21.84
409.898	84.65
410.107	113.32
410.315	131.75
410.524	31.4
410.733	105.13
410.941	62.12
411.15	178.86
411.358	88.75
411.567	105.13
411.775	64.17
411.984	41.64
412.192	43.69
412.401	41.64
412.609	88.75
412.818	72.36
413.026	154.28
413.234	53.93
413.443	27.31
413.651	21.16
413.86	58.03
414.068	113.32
414.276	154.28
414.485	-1.37
414.693	139.94
414.901	94.89
415.11	78.51
415.318	90.79
415.526	76.46
415.734	123.56
415.943	64.17
416.151	41.64
416.359	62.12
416.567	141.99
416.776	55.98
416.984	123.56
417.192	185
417.4	55.98
417.608	47.79
417.817	-27.99
418.025	39.59
418.233	133.8
418.441	43.69
418.649	-34.13
418.857	125.61
419.065	191.14
419.273	10.92
419.481	96.94
419.689	25.26
419.897	2.73
420.105	-7.51
420.313	127.66
420.521	195.24
420.729	170.66
420.937	29.35
421.145	-17.75
421.353	211.62
421.561	174.76
421.769	84.65
421.977	47.79
422.185	64.17
422.393	39.59
422.601	21.16
422.809	94.89
423.017	111.27
423.224	62.12
423.432	80.55
423.64	8.87
423.848	156.33
424.056	47.79
424.263	121.51
424.471	39.59
424.679	90.79
424.887	23.21
425.094	137.9
425.302	119.46
425.51	105.13
425.718	123.56
425.925	45.74
426.133	31.4
426.341	246.44
426.548	49.83
426.756	76.46
426.964	199.34
427.171	70.31
427.379	133.8
427.586	-19.8
427.794	101.03
428.001	135.85
428.209	68.27
428.417	211.62
428.624	168.62
428.832	96.94
429.039	94.89
429.247	92.84
429.454	141.99
429.662	162.47
429.869	121.51
430.076	125.61
430.284	187.05
430.491	201.38
430.699	137.9
430.906	170.66
431.114	162.47
431.321	174.76
431.528	150.18
431.736	150.18
431.943	158.38
432.15	195.24
432.358	139.94
432.565	324.26
432.772	45.74
432.979	242.34
433.187	96.94
433.394	238.25
433.601	135.85
433.808	256.68
434.016	176.81
434.223	207.53
434.43	236.2
434.637	219.82
434.844	393.89
435.052	232.1
435.259	336.55
435.466	283.3
435.673	242.34
435.88	326.31
436.087	287.4
436.294	297.64
436.501	344.74
436.708	252.58
436.915	373.41
437.122	406.18
437.329	291.49
437.537	293.54
437.743	381.6
437.95	461.48
438.157	330.41
438.364	375.46
438.571	445.09
438.778	506.53
438.985	551.59
439.192	613.03
439.399	486.05
439.606	441
439.813	610.98
440.02	625.31
440.227	811.68
440.433	617.12
440.64	621.22
440.847	592.55
441.054	637.6
441.261	703.14
441.467	639.65
441.674	578.21
441.881	778.91
442.088	703.14
442.294	834.21
442.501	830.11
442.708	795.29
442.914	797.34
443.121	959.13
443.328	916.12
443.534	1047.19
443.741	1043.1
443.948	891.55
444.154	1065.63
444.361	1217.18
444.568	1086.11
444.774	1077.91
444.981	1094.3
445.187	1299.09
445.394	1303.19
445.6	1172.12
445.807	1489.56
446.013	1313.43
446.22	1348.25
446.426	1563.28
446.633	1548.95
446.839	1663.63
447.046	1596.05
447.252	1868.43
447.459	1661.59
447.665	1825.42
447.871	1987.21
448.078	2024.08
448.284	2040.46
448.491	2181.77
448.697	2306.7
448.903	2327.18
449.11	2421.38
449.316	2345.61
449.522	2497.16
449.728	2706.05
449.935	2734.72
450.141	2812.54
450.347	2869.89
450.553	2888.32
450.76	2976.38
450.966	3179.13
451.172	3234.43
451.378	3334.78
451.584	3476.09
451.791	3746.42
451.997	3680.88
452.203	3912.3
452.409	4074.09
452.615	4307.56
452.821	4053.61
453.027	4108.91
453.233	4659.81
453.44	4504.17
453.646	4878.94
453.852	4811.36
454.058	5286.49
454.264	5481.05
454.47	5634.64
454.676	5712.47
454.882	6300.23
455.088	5921.36
455.294	6324.81
455.5	6818.37
455.705	6992.45
455.911	7080.51
456.117	7338.55
456.323	7543.35
456.529	7543.35
456.735	8122.93
456.941	8471.08
457.147	8917.54
457.352	9151.01
457.558	9288.22
457.764	9845.27
457.97	10181.14
458.176	10570.25
458.381	10957.32
458.587	11307.52
458.793	11827.7
458.999	11749.88
459.204	13027.81
459.41	13793.75
459.616	13437.41
459.821	13928.92
460.027	15051.21
460.233	15550.91
460.438	15716.79
460.644	16642.48
460.85	16767.4
461.055	17496.48
461.261	18336.15
461.466	17635.74
461.672	18348.43
461.878	20547.95
462.083	20310.39
462.289	20754.8
462.494	21178.73
462.7	21641.57
462.905	21942.62
463.111	23513.41
463.316	24592.69
463.522	24979.76
463.727	26132.76
463.932	26851.6
464.138	27738.37
464.343	28784.88
464.549	28971.25
464.754	30664.92
464.959	32030.91
465.165	32508.09
465.37	32106.69
465.575	32174.27
465.781	34351.26
465.986	35170.45
466.191	34801.82
466.397	35156.11
466.602	34144.42
466.807	36374.66
467.012	36808.82
467.218	37277.81
467.423	37621.87
467.628	38664.28
467.833	40628.29
468.038	39637.07
468.244	38975.58
468.449	40890.43
468.654	39903.31
468.859	39997.51
469.064	40228.93
