Data from USB4F104151__57__09-28-30-302.txt Node

Date: Wed Feb 26 09:28:30 EST 2025
User: louis
Spectrometer: USB4F10415
Trigger mode: 4
Integration Time (sec): 1.000000E-1
Scans to average: 1
Electric dark correction enabled: true
Nonlinearity correction enabled: false
Boxcar width: 0
XAxis mode: Wavelengths
Number of Pixels in Spectrum: 3648
>>>>>Begin Spectral Data<<<<<
178.204	-335.18
178.424	-335.18
178.644	-335.18
178.864	-357.71
179.084	-365.9
179.304	21.16
179.524	-48.47
179.744	12.97
179.964	92.84
180.184	29.35
180.404	49.83
180.624	-116.05
180.844	-44.37
181.064	-73.04
181.283	55.98
181.503	-40.28
181.723	60.07
181.943	-73.04
182.163	193.19
182.383	-60.76
182.602	129.7
182.822	80.55
183.042	66.22
183.262	-13.65
183.482	17.07
183.701	-79.19
183.921	27.31
184.141	-46.42
184.361	78.51
184.58	6.83
184.8	0.68
185.02	21.16
185.239	39.59
185.459	17.07
185.679	8.87
185.898	-71
186.118	-9.56
186.338	101.03
186.557	45.74
186.777	0.68
186.997	-44.37
187.216	45.74
187.436	172.71
187.655	123.56
187.875	109.23
188.095	64.17
188.314	51.88
188.534	182.95
188.753	-42.32
188.973	146.09
189.192	98.99
189.412	45.74
189.631	-13.65
189.851	86.7
190.07	141.99
190.29	-21.84
190.509	-17.75
190.729	17.07
190.948	66.22
191.168	271.01
191.387	15.02
191.607	19.11
191.826	39.59
192.045	-38.23
192.265	15.02
192.484	29.35
192.704	17.07
192.923	-64.85
193.142	148.14
193.362	113.32
193.581	119.46
193.8	-3.41
194.02	45.74
194.239	-30.04
194.458	37.55
194.678	-44.37
194.897	8.87
195.116	-66.9
195.335	-11.61
195.555	53.93
195.774	0.68
195.993	170.66
196.212	-42.32
196.432	-19.8
196.651	-60.76
196.87	58.03
197.089	154.28
197.308	80.55
197.528	70.31
197.747	-68.95
197.966	8.87
198.185	103.08
198.404	-97.62
198.623	160.42
198.842	162.47
199.062	62.12
199.281	109.23
199.5	10.92
199.719	21.16
199.938	8.87
200.157	76.46
200.376	101.03
200.595	72.36
200.814	45.74
201.033	12.97
201.252	117.42
201.471	35.5
201.69	76.46
201.909	58.03
202.128	144.04
202.347	72.36
202.566	-5.46
202.785	-124.24
203.004	-3.41
203.223	193.19
203.442	-27.99
203.661	0.68
203.879	62.12
204.098	172.71
204.317	-15.7
204.536	82.6
204.755	33.45
204.974	70.31
205.193	-3.41
205.411	164.52
205.63	0.68
205.849	-9.56
206.068	49.83
206.287	19.11
206.505	94.89
206.724	-5.46
206.943	-79.19
207.162	-13.65
207.381	41.64
207.599	21.16
207.818	12.97
208.037	-34.13
208.255	15.02
208.474	70.31
208.693	17.07
208.911	15.02
209.13	53.93
209.349	111.27
209.567	10.92
209.786	72.36
210.005	45.74
210.223	117.42
210.442	-93.52
210.661	-13.65
210.879	53.93
211.098	-9.56
211.316	35.5
211.535	76.46
211.753	68.27
211.972	49.83
212.191	-44.37
212.409	-9.56
212.628	51.88
212.846	27.31
213.065	-13.65
213.283	98.99
213.502	-3.41
213.72	74.41
213.938	53.93
214.157	12.97
214.375	160.42
214.594	4.78
214.812	23.21
215.031	-85.33
215.249	60.07
215.467	125.61
215.686	-21.84
215.904	51.88
216.122	12.97
216.341	150.18
216.559	88.75
216.778	156.33
216.996	68.27
217.214	37.55
217.432	-11.61
217.651	-36.18
217.869	62.12
218.087	64.17
218.306	-3.41
218.524	-50.52
218.742	72.36
218.96	96.94
219.179	37.55
219.397	19.11
219.615	123.56
219.833	53.93
220.051	-58.71
220.27	41.64
220.488	111.27
220.706	66.22
220.924	-19.8
221.142	84.65
221.36	80.55
221.578	72.36
221.796	78.51
222.015	51.88
222.233	-9.56
222.451	103.08
222.669	-54.61
222.887	86.7
223.105	-11.61
223.323	-44.37
223.541	-38.23
223.759	39.59
223.977	4.78
224.195	178.86
224.413	90.79
224.631	43.69
224.849	94.89
225.067	131.75
225.285	4.78
225.503	70.31
225.721	-71
225.939	37.55
226.157	-21.84
226.375	201.38
226.592	-34.13
226.81	0.68
227.028	117.42
227.246	119.46
227.464	78.51
227.682	47.79
227.9	64.17
228.117	115.37
228.335	117.42
228.553	58.03
228.771	-13.65
228.989	4.78
229.206	-11.61
229.424	10.92
229.642	-19.8
229.86	-9.56
230.077	109.23
230.295	-7.51
230.513	152.23
230.731	21.16
230.948	207.53
231.166	107.18
231.384	12.97
231.601	29.35
231.819	115.37
232.037	-66.9
232.254	-60.76
232.472	72.36
232.689	0.68
232.907	60.07
233.125	31.4
233.342	21.16
233.56	10.92
233.777	0.68
233.995	27.31
234.213	86.7
234.43	86.7
234.648	-44.37
234.865	-17.75
235.083	29.35
235.3	10.92
235.518	64.17
235.735	119.46
235.953	43.69
236.17	-11.61
236.388	0.68
236.605	45.74
236.822	70.31
237.04	37.55
237.257	4.78
237.475	-56.66
237.692	84.65
237.909	53.93
238.127	-11.61
238.344	58.03
238.562	53.93
238.779	-95.57
238.996	-36.18
239.214	8.87
239.431	94.89
239.648	-46.42
239.865	117.42
240.083	43.69
240.3	-3.41
240.517	-38.23
240.735	27.31
240.952	148.14
241.169	37.55
241.386	96.94
241.603	68.27
241.821	-81.24
242.038	55.98
242.255	25.26
242.472	-68.95
242.689	127.66
242.907	35.5
243.124	62.12
243.341	62.12
243.558	15.02
243.775	-138.58
243.992	-107.86
244.209	49.83
244.426	133.8
244.643	39.59
244.86	17.07
245.078	70.31
245.295	-3.41
245.512	25.26
245.729	-64.85
245.946	68.27
246.163	51.88
246.38	21.16
246.597	58.03
246.814	86.7
247.031	98.99
247.248	90.79
247.464	101.03
247.681	-44.37
247.898	98.99
248.115	64.17
248.332	-5.46
248.549	62.12
248.766	176.81
248.983	98.99
249.2	29.35
249.417	49.83
249.633	60.07
249.85	96.94
250.067	74.41
250.284	70.31
250.501	125.61
250.717	90.79
250.934	-36.18
251.151	0.68
251.368	4.78
251.585	88.75
251.801	-5.46
252.018	37.55
252.235	49.83
252.451	4.78
252.668	35.5
252.885	58.03
253.102	-32.08
253.318	25.26
253.535	58.03
253.752	-52.56
253.968	53.93
254.185	-9.56
254.401	86.7
254.618	12.97
254.835	25.26
255.051	168.62
255.268	88.75
255.484	41.64
255.701	-3.41
255.917	19.11
256.134	0.68
256.351	25.26
256.567	-32.08
256.784	-95.57
257	-50.52
257.217	111.27
257.433	70.31
257.65	-5.46
257.866	88.75
258.082	-56.66
258.299	51.88
258.515	70.31
258.732	-7.51
258.948	-46.42
259.165	21.16
259.381	-34.13
259.597	70.31
259.814	103.08
260.03	-27.99
260.246	19.11
260.463	94.89
260.679	33.45
260.895	6.83
261.112	72.36
261.328	-15.7
261.544	-91.48
261.761	201.38
261.977	-23.89
262.193	-19.8
262.409	62.12
262.626	4.78
262.842	-9.56
263.058	-3.41
263.274	88.75
263.49	37.55
263.707	62.12
263.923	80.55
264.139	-68.95
264.355	-13.65
264.571	80.55
264.787	49.83
265.004	137.9
265.22	29.35
265.436	25.26
265.652	60.07
265.868	55.98
266.084	-62.8
266.3	-40.28
266.516	-32.08
266.732	-15.7
266.948	21.16
267.164	-32.08
267.38	115.37
267.596	101.03
267.812	123.56
268.028	76.46
268.244	-19.8
268.46	-7.51
268.676	49.83
268.892	25.26
269.108	-126.29
269.324	-13.65
269.54	0.68
269.756	115.37
269.972	-68.95
270.188	55.98
270.403	-40.28
270.619	66.22
270.835	82.6
271.051	49.83
271.267	-9.56
271.483	-15.7
271.698	98.99
271.914	25.26
272.13	21.16
272.346	-40.28
272.562	82.6
272.777	113.32
272.993	68.27
273.209	-60.76
273.425	66.22
273.64	-36.18
273.856	141.99
274.072	19.11
274.287	-85.33
274.503	98.99
274.719	115.37
274.934	39.59
275.15	-95.57
275.366	4.78
275.581	-77.14
275.797	84.65
276.012	72.36
276.228	-7.51
276.444	-15.7
276.659	76.46
276.875	-44.37
277.09	-1.37
277.306	53.93
277.521	78.51
277.737	45.74
277.952	47.79
278.168	-40.28
278.383	0.68
278.599	66.22
278.814	121.51
279.03	66.22
279.245	144.04
279.461	-7.51
279.676	29.35
279.892	-9.56
280.107	-87.38
280.322	4.78
280.538	62.12
280.753	-44.37
280.969	37.55
281.184	98.99
281.399	76.46
281.615	0.68
281.83	51.88
282.045	-19.8
282.26	-30.04
282.476	70.31
282.691	4.78
282.906	123.56
283.122	27.31
283.337	53.93
283.552	96.94
283.767	88.75
283.983	68.27
284.198	-3.41
284.413	53.93
284.628	-17.75
284.843	78.51
285.058	92.84
285.274	119.46
285.489	-62.8
285.704	70.31
285.919	17.07
286.134	-5.46
286.349	-21.84
286.564	12.97
286.779	47.79
286.995	-36.18
287.21	-62.8
287.425	-3.41
287.64	6.83
287.855	29.35
288.07	-85.33
288.285	133.8
288.5	70.31
288.715	45.74
288.93	19.11
289.145	-54.61
289.36	47.79
289.575	41.64
289.79	96.94
290.004	121.51
290.219	84.65
290.434	-38.23
290.649	-73.04
290.864	-19.8
291.079	21.16
291.294	29.35
291.509	98.99
291.724	-40.28
291.938	43.69
292.153	135.85
292.368	74.41
292.583	103.08
292.798	76.46
293.012	82.6
293.227	10.92
293.442	4.78
293.657	98.99
293.871	103.08
294.086	25.26
294.301	78.51
294.516	127.66
294.73	62.12
294.945	-73.04
295.16	-101.72
295.374	35.5
295.589	176.81
295.804	33.45
296.018	51.88
296.233	131.75
296.447	-13.65
296.662	-17.75
296.877	88.75
297.091	135.85
297.306	55.98
297.52	8.87
297.735	78.51
297.949	47.79
298.164	23.21
298.378	39.59
298.593	-32.08
298.807	-73.04
299.022	-25.94
299.236	154.28
299.451	55.98
299.665	17.07
299.88	58.03
300.094	62.12
300.309	55.98
300.523	43.69
300.737	23.21
300.952	47.79
301.166	86.7
301.381	-3.41
301.595	2.73
301.809	12.97
302.024	4.78
302.238	-48.47
302.452	107.18
302.667	53.93
302.881	86.7
303.095	131.75
303.309	8.87
303.524	10.92
303.738	2.73
303.952	21.16
304.166	88.75
304.381	-5.46
304.595	160.42
304.809	86.7
305.023	23.21
305.237	31.4
305.452	-93.52
305.666	4.78
305.88	98.99
306.094	90.79
306.308	144.04
306.522	37.55
306.736	90.79
306.95	74.41
307.164	115.37
307.379	-56.66
307.593	154.28
307.807	62.12
308.021	127.66
308.235	-3.41
308.449	-101.72
308.663	53.93
308.877	133.8
309.091	94.89
309.305	135.85
309.519	-23.89
309.733	76.46
309.947	-21.84
310.161	86.7
310.374	86.7
310.588	82.6
310.802	-23.89
311.016	51.88
311.23	86.7
311.444	25.26
311.658	12.97
311.872	64.17
312.085	78.51
312.299	109.23
312.513	133.8
312.727	-7.51
312.941	-105.81
313.154	25.26
313.368	-27.99
313.582	0.68
313.796	31.4
314.009	-5.46
314.223	119.46
314.437	45.74
314.651	15.02
314.864	-52.56
315.078	31.4
315.292	37.55
315.505	-11.61
315.719	74.41
315.933	51.88
316.146	60.07
316.36	-60.76
316.573	154.28
316.787	0.68
317.001	121.51
317.214	10.92
317.428	-3.41
317.641	96.94
317.855	-19.8
318.068	12.97
318.282	64.17
318.495	105.13
318.709	86.7
318.922	47.79
319.136	127.66
319.349	12.97
319.563	49.83
319.776	113.32
319.99	-93.52
320.203	47.79
320.417	27.31
320.63	117.42
320.843	121.51
321.057	37.55
321.27	-21.84
321.483	35.5
321.697	180.9
321.91	55.98
322.124	45.74
322.337	119.46
322.55	0.68
322.763	66.22
322.977	51.88
323.19	45.74
323.403	-11.61
323.617	55.98
323.83	41.64
324.043	64.17
324.256	33.45
324.469	-44.37
324.683	4.78
324.896	35.5
325.109	8.87
325.322	0.68
325.535	105.13
325.748	98.99
325.962	10.92
326.175	27.31
326.388	84.65
326.601	78.51
326.814	33.45
327.027	86.7
327.24	123.56
327.453	-68.95
327.666	31.4
327.879	60.07
328.092	-11.61
328.305	-32.08
328.518	-17.75
328.731	-54.61
328.944	35.5
329.157	49.83
329.37	-11.61
329.583	78.51
329.796	123.56
330.009	-116.05
330.222	103.08
330.435	49.83
330.648	23.21
330.861	2.73
331.073	60.07
331.286	109.23
331.499	62.12
331.712	37.55
331.925	-11.61
332.138	8.87
332.35	117.42
332.563	-17.75
332.776	15.02
332.989	-87.38
333.202	0.68
333.414	19.11
333.627	-1.37
333.84	-30.04
334.053	-36.18
334.265	25.26
334.478	-21.84
334.691	92.84
334.903	6.83
335.116	10.92
335.329	66.22
335.541	68.27
335.754	96.94
335.966	-30.04
336.179	17.07
336.392	4.78
336.604	-9.56
336.817	78.51
337.029	103.08
337.242	-3.41
337.454	53.93
337.667	-15.7
337.88	103.08
338.092	60.07
338.305	23.21
338.517	-7.51
338.729	90.79
338.942	139.94
339.154	-23.89
339.367	-64.85
339.579	49.83
339.792	-46.42
340.004	68.27
340.217	35.5
340.429	-19.8
340.641	-64.85
340.854	-40.28
341.066	88.75
341.278	45.74
341.491	121.51
341.703	33.45
341.915	-62.8
342.128	121.51
342.34	45.74
342.552	4.78
342.764	23.21
342.977	23.21
343.189	45.74
343.401	21.16
343.613	-11.61
343.826	49.83
344.038	-54.61
344.25	37.55
344.462	4.78
344.674	160.42
344.886	-27.99
345.099	6.83
345.311	70.31
345.523	-101.72
345.735	-5.46
345.947	29.35
346.159	82.6
346.371	-48.47
346.583	-21.84
346.795	172.71
347.007	58.03
347.219	10.92
347.431	66.22
347.643	82.6
347.855	-36.18
348.067	66.22
348.279	-85.33
348.491	41.64
348.703	43.69
348.915	-40.28
349.127	2.73
349.339	10.92
349.551	25.26
349.763	43.69
349.975	17.07
350.187	125.61
350.399	84.65
350.61	-42.32
350.822	101.03
351.034	58.03
351.246	21.16
351.458	103.08
351.669	39.59
351.881	127.66
352.093	8.87
352.305	37.55
352.517	109.23
352.728	62.12
352.94	68.27
353.152	90.79
353.363	-44.37
353.575	19.11
353.787	117.42
353.999	-15.7
354.21	111.27
354.422	-30.04
354.633	27.31
354.845	12.97
355.057	19.11
355.268	-5.46
355.48	168.62
355.692	-62.8
355.903	74.41
356.115	-68.95
356.326	-101.72
356.538	115.37
356.749	62.12
356.961	129.7
357.172	-15.7
357.384	-23.89
357.595	172.71
357.807	0.68
358.018	-25.94
358.23	12.97
358.441	92.84
358.653	37.55
358.864	-15.7
359.075	41.64
359.287	43.69
359.498	37.55
359.709	49.83
359.921	-30.04
360.132	2.73
360.344	41.64
360.555	37.55
360.766	-1.37
360.977	37.55
361.189	127.66
361.4	12.97
361.611	96.94
361.823	49.83
362.034	8.87
362.245	-62.8
362.456	27.31
362.667	70.31
362.879	-32.08
363.09	131.75
363.301	33.45
363.512	117.42
363.723	-19.8
363.935	-11.61
364.146	76.46
364.357	2.73
364.568	10.92
364.779	-34.13
364.99	121.51
365.201	-40.28
365.412	90.79
365.623	47.79
365.834	98.99
366.045	-1.37
366.256	64.17
366.467	101.03
366.678	29.35
366.889	76.46
367.1	-21.84
367.311	133.8
367.522	-44.37
367.733	92.84
367.944	60.07
368.155	80.55
368.366	105.13
368.577	-21.84
368.788	119.46
368.999	-36.18
369.209	74.41
369.42	160.42
369.631	219.82
369.842	98.99
370.053	31.4
370.264	109.23
370.474	12.97
370.685	35.5
370.896	35.5
371.107	78.51
371.317	123.56
371.528	29.35
371.739	60.07
371.95	19.11
372.16	82.6
372.371	-5.46
372.582	2.73
372.792	-11.61
373.003	23.21
373.214	19.11
373.424	80.55
373.635	-38.23
373.846	107.18
374.056	-27.99
374.267	47.79
374.477	43.69
374.688	-32.08
374.898	88.75
375.109	66.22
375.319	12.97
375.53	125.61
375.74	107.18
375.951	-60.76
376.161	-27.99
376.372	37.55
376.582	-32.08
376.793	31.4
377.003	-68.95
377.214	-66.9
377.424	43.69
377.635	2.73
377.845	39.59
378.055	39.59
378.266	-48.47
378.476	-52.56
378.686	33.45
378.897	19.11
379.107	111.27
379.317	-3.41
379.528	-48.47
379.738	82.6
379.948	-99.67
380.158	139.94
380.369	49.83
380.579	47.79
380.789	-23.89
380.999	109.23
381.21	201.38
381.42	119.46
381.63	17.07
381.84	64.17
382.05	76.46
382.261	144.04
382.471	76.46
382.681	47.79
382.891	103.08
383.101	58.03
383.311	-23.89
383.521	-48.47
383.731	53.93
383.941	0.68
384.151	-38.23
384.361	-13.65
384.571	45.74
384.781	-21.84
384.991	123.56
385.201	182.95
385.411	33.45
385.621	76.46
385.831	33.45
386.041	41.64
386.251	49.83
386.461	43.69
386.671	-1.37
386.881	45.74
387.091	-71
387.301	74.41
387.511	41.64
387.72	45.74
387.93	72.36
388.14	-56.66
388.35	29.35
388.56	70.31
388.769	123.56
388.979	123.56
389.189	41.64
389.399	27.31
389.609	80.55
389.818	127.66
390.028	74.41
390.238	21.16
390.447	37.55
390.657	62.12
390.867	29.35
391.076	-32.08
391.286	-36.18
391.496	-32.08
391.705	45.74
391.915	58.03
392.125	60.07
392.334	10.92
392.544	39.59
392.753	0.68
392.963	-52.56
393.172	51.88
393.382	-89.43
393.591	111.27
393.801	-5.46
394.01	15.02
394.22	21.16
394.429	-3.41
394.639	4.78
394.848	60.07
395.058	-7.51
395.267	8.87
395.477	70.31
395.686	33.45
395.895	178.86
396.105	117.42
396.314	64.17
396.524	23.21
396.733	29.35
396.942	131.75
397.152	76.46
397.361	92.84
397.57	62.12
397.78	45.74
397.989	101.03
398.198	127.66
398.407	2.73
398.617	39.59
398.826	31.4
399.035	21.16
399.244	47.79
399.453	49.83
399.663	53.93
399.872	27.31
400.081	-68.95
400.29	152.23
400.499	-27.99
400.708	96.94
400.917	60.07
401.127	12.97
401.336	101.03
401.545	70.31
401.754	111.27
401.963	146.09
402.172	-13.65
402.381	-32.08
402.59	29.35
402.799	80.55
403.008	29.35
403.217	53.93
403.426	17.07
403.635	-77.14
403.844	-21.84
404.053	2.73
404.262	-15.7
404.471	197.29
404.68	55.98
404.888	-3.41
405.097	-32.08
405.306	29.35
405.515	86.7
405.724	29.35
405.933	139.94
406.142	156.33
406.35	35.5
406.559	41.64
406.768	53.93
406.977	68.27
407.185	6.83
407.394	88.75
407.603	-95.57
407.812	62.12
408.02	86.7
408.229	33.45
408.438	-7.51
408.646	-32.08
408.855	62.12
409.064	51.88
409.272	43.69
409.481	94.89
409.69	-15.7
409.898	8.87
410.107	98.99
410.315	109.23
410.524	-19.8
410.733	66.22
410.941	15.02
411.15	70.31
411.358	-30.04
411.567	94.89
411.775	37.55
411.984	2.73
412.192	66.22
412.401	-13.65
412.609	135.85
412.818	53.93
413.026	96.94
413.234	2.73
413.443	58.03
413.651	-40.28
413.86	0.68
414.068	49.83
414.276	86.7
414.485	10.92
414.693	92.84
414.901	223.91
415.11	86.7
415.318	60.07
415.526	12.97
415.734	66.22
415.943	2.73
416.151	168.62
416.359	58.03
416.567	-11.61
416.776	70.31
416.984	33.45
417.192	39.59
417.4	-27.99
417.608	-62.8
417.817	-15.7
418.025	47.79
418.233	98.99
418.441	60.07
418.649	-27.99
418.857	37.55
419.065	105.13
419.273	23.21
419.481	66.22
419.689	72.36
419.897	49.83
420.105	37.55
420.313	86.7
420.521	125.61
420.729	109.23
420.937	43.69
421.145	-30.04
421.353	51.88
421.561	119.46
421.769	17.07
421.977	66.22
422.185	111.27
422.393	72.36
422.601	51.88
422.809	6.83
423.017	51.88
423.224	-7.51
423.432	109.23
423.64	10.92
423.848	133.8
424.056	-9.56
424.263	68.27
424.471	0.68
424.679	94.89
424.887	-7.51
425.094	164.52
425.302	35.5
425.51	15.02
425.718	154.28
425.925	74.41
426.133	-48.47
426.341	119.46
426.548	0.68
426.756	-9.56
426.964	19.11
427.171	17.07
427.379	47.79
427.586	55.98
427.794	53.93
428.001	162.47
428.209	35.5
428.417	123.56
428.624	98.99
428.832	76.46
429.039	45.74
429.247	88.75
429.454	70.31
429.662	187.05
429.869	111.27
430.076	76.46
430.284	76.46
430.491	144.04
430.699	74.41
430.906	131.75
431.114	115.37
431.321	107.18
431.528	60.07
431.736	60.07
431.943	55.98
432.15	133.8
432.358	193.19
432.565	215.72
432.772	8.87
432.979	148.14
433.187	31.4
433.394	238.25
433.601	80.55
433.808	111.27
434.016	209.58
434.223	162.47
434.43	82.6
434.637	203.43
434.844	223.91
435.052	123.56
435.259	211.62
435.466	230.06
435.673	80.55
435.88	225.96
436.087	211.62
436.294	266.92
436.501	301.73
436.708	164.52
436.915	258.73
437.122	219.82
437.329	144.04
437.537	252.58
437.743	258.73
437.95	303.78
438.157	316.07
438.364	281.25
438.571	299.69
438.778	348.84
438.985	397.99
439.192	365.22
439.399	369.32
439.606	416.42
439.813	375.46
440.02	520.87
440.227	547.49
440.433	428.71
440.64	500.39
440.847	316.07
441.054	428.71
441.261	547.49
441.467	520.87
441.674	477.86
441.881	619.17
442.088	516.77
442.294	586.4
442.501	731.81
442.708	619.17
442.914	592.55
443.121	682.66
443.328	643.74
443.534	797.34
443.741	688.8
443.948	637.6
444.154	735.9
444.361	1051.29
444.568	803.49
444.774	869.02
444.981	828.06
445.187	961.18
445.394	950.94
445.6	971.42
445.807	1075.87
446.013	1106.59
446.22	1114.78
446.426	1159.83
446.633	1286.81
446.839	1313.43
447.046	1165.98
447.252	1391.25
447.459	1381.01
447.665	1258.14
447.871	1518.23
448.078	1643.15
448.284	1618.58
448.491	1606.29
448.697	1753.74
448.903	1768.08
449.11	1856.14
449.316	1809.04
449.522	1884.81
449.728	2007.69
449.935	1976.97
450.141	2069.13
450.347	2294.41
450.553	2310.79
450.76	2357.89
450.966	2400.9
451.172	2572.93
451.378	2679.43
451.584	2710.15
451.791	2783.87
451.997	2955.9
452.203	2855.55
452.409	3215.99
452.615	3263.1
452.821	3140.22
453.027	3086.97
453.233	3691.12
453.44	3453.56
453.646	3768.95
453.852	3826.29
454.058	3998.32
454.264	4231.79
454.47	4385.38
454.676	4364.9
454.882	4891.23
455.088	4520.55
455.294	4962.91
455.5	5036.64
455.705	5501.53
455.911	5403.22
456.117	5511.77
456.323	5909.07
456.529	5868.11
456.735	6189.64
456.941	6507.08
457.147	6664.77
457.352	6810.18
457.558	6996.54
457.764	7459.38
457.97	7604.79
458.176	7934.51
458.381	8280.62
458.587	8575.53
458.793	9081.38
458.999	9001.51
459.204	10095.12
459.41	10553.87
459.616	10326.54
459.821	10793.48
460.027	11442.68
460.233	11928.05
460.438	11866.61
460.644	12657.13
460.85	12630.51
461.055	13169.12
461.261	13937.11
461.466	13515.23
461.672	13916.63
461.878	15538.62
462.083	15372.74
462.289	15483.33
462.494	16337.33
462.7	16087.48
462.905	16681.39
463.111	17873.31
463.316	18882.95
463.522	18977.16
463.727	19483.01
463.932	20443.51
464.138	21381.48
464.343	22436.18
464.549	22319.45
464.754	23660.87
464.959	24142.14
465.165	24801.58
465.37	24598.84
465.575	24834.35
465.781	26478.87
465.986	27001.1
466.191	27068.69
466.397	27205.9
466.602	26515.73
466.807	27994.37
467.012	28147.97
467.218	28762.36
467.423	28971.25
467.628	29599.97
467.833	31011.03
468.038	30787.8
468.244	30163.17
468.449	31889.6
468.654	30791.89
468.859	30914.77
469.064	31062.22
469.269	30083.3
469.474	30558.42
