Data from USB4F104151__25__10-24-02-043.txt Node

Date: Wed Feb 26 10:24:02 EST 2025
User: louis
Spectrometer: USB4F10415
Trigger mode: 4
Integration Time (sec): 1.000000E-1
Scans to average: 1
Electric dark correction enabled: true
Nonlinearity correction enabled: false
Boxcar width: 0
XAxis mode: Wavelengths
Number of Pixels in Spectrum: 3648
>>>>>Begin Spectral Data<<<<<
178.204	-431.95
178.424	-431.95
178.644	-431.95
178.864	-470.86
179.084	-452.43
179.304	-59.22
179.524	-12.12
179.744	94.38
179.964	59.56
180.184	-5.97
180.404	49.32
180.624	14.51
180.844	-24.4
181.064	-63.32
181.283	-3.93
181.503	-63.32
181.723	14.51
181.943	-53.08
182.163	170.15
182.383	65.71
182.602	43.18
182.822	135.34
183.042	34.99
183.262	0.17
183.482	49.32
183.701	6.31
183.921	12.46
184.141	-42.84
184.361	63.66
184.58	73.9
184.8	14.51
185.02	-96.08
185.239	104.62
185.459	116.9
185.679	92.33
185.898	-65.36
186.118	55.47
186.338	16.55
186.557	80.04
186.777	-26.45
186.997	-14.17
187.216	26.79
187.436	184.49
187.655	77.99
187.875	90.28
188.095	14.51
188.314	32.94
188.534	127.14
188.753	-1.88
188.973	110.76
189.192	172.2
189.412	4.27
189.631	-42.84
189.851	71.85
190.07	94.38
190.29	-32.6
190.509	-16.21
190.729	53.42
190.948	198.82
191.168	295.08
191.387	69.8
191.607	-22.36
191.826	26.79
192.045	51.37
192.265	24.75
192.484	-22.36
192.704	67.75
192.923	-3.93
193.142	123.05
193.362	34.99
193.581	135.34
193.8	71.85
194.02	102.57
194.239	16.55
194.458	32.94
194.678	59.56
194.897	71.85
195.116	20.65
195.335	34.99
195.555	-16.21
195.774	16.55
195.993	121
196.212	12.46
196.432	0.17
196.651	57.51
196.87	71.85
197.089	252.07
197.308	-3.93
197.528	102.57
197.747	-104.28
197.966	12.46
198.185	145.58
198.404	-16.21
198.623	61.61
198.842	176.3
199.062	32.94
199.281	98.47
199.5	26.79
199.719	94.38
199.938	22.7
200.157	106.67
200.376	104.62
200.595	194.73
200.814	59.56
201.033	-24.4
201.252	215.21
201.471	59.56
201.69	41.13
201.909	43.18
202.128	59.56
202.347	-26.45
202.566	-36.69
202.785	-79.7
203.004	-18.26
203.223	202.92
203.442	43.18
203.661	-34.64
203.879	114.86
204.098	149.67
204.317	-75.6
204.536	80.04
204.755	149.67
204.974	41.13
205.193	37.03
205.411	235.69
205.63	137.38
205.849	112.81
206.068	63.66
206.287	-1.88
206.505	118.95
206.724	55.47
206.943	-30.55
207.162	30.89
207.381	63.66
207.599	55.47
207.818	4.27
208.037	-79.7
208.255	18.6
208.474	-36.69
208.693	84.14
208.911	-5.97
209.13	73.9
209.349	121
209.567	98.47
209.786	51.37
210.005	170.15
210.223	43.18
210.442	-147.28
210.661	6.31
210.879	32.94
211.098	51.37
211.316	4.27
211.535	131.24
211.753	82.09
211.972	2.22
212.191	-28.5
212.409	104.62
212.628	161.96
212.846	-1.88
213.065	-12.12
213.283	112.81
213.502	10.41
213.72	-16.21
213.938	6.31
214.157	-40.79
214.375	106.67
214.594	-10.07
214.812	67.75
215.031	96.43
215.249	65.71
215.467	67.75
215.686	61.61
215.904	67.75
216.122	75.95
216.341	84.14
216.559	106.67
216.778	110.76
216.996	96.43
217.214	-108.37
217.432	37.03
217.651	-112.47
217.869	121
218.087	63.66
218.306	55.47
218.524	30.89
218.742	82.09
218.96	90.28
219.179	-18.26
219.397	26.79
219.615	268.45
219.833	131.24
220.051	-46.93
220.27	63.66
220.488	155.82
220.706	63.66
220.924	-81.75
221.142	10.41
221.36	49.32
221.578	6.31
221.796	45.23
222.015	102.57
222.233	77.99
222.451	100.52
222.669	30.89
222.887	55.47
223.105	4.27
223.323	96.43
223.541	0.17
223.759	80.04
223.977	65.71
224.195	170.15
224.413	67.75
224.631	34.99
224.849	32.94
225.067	170.15
225.285	-12.12
225.503	-3.93
225.721	-51.03
225.939	-26.45
226.157	55.47
226.375	252.07
226.592	20.65
226.81	43.18
227.028	161.96
227.246	129.19
227.464	16.55
227.682	24.75
227.9	133.29
228.117	4.27
228.335	90.28
228.553	26.79
228.771	28.84
228.989	32.94
229.206	112.81
229.424	-61.27
229.642	10.41
229.86	-24.4
230.077	176.3
230.295	37.03
230.513	116.9
230.731	8.36
230.948	108.71
231.166	229.54
231.384	24.75
231.601	34.99
231.819	221.35
232.037	16.55
232.254	-32.6
232.472	90.28
232.689	-57.17
232.907	116.9
233.125	-10.07
233.342	-22.36
233.56	-22.36
233.777	63.66
233.995	26.79
234.213	96.43
234.43	104.62
234.648	45.23
234.865	18.6
235.083	51.37
235.3	-16.21
235.518	98.47
235.735	131.24
235.953	34.99
236.17	43.18
236.388	4.27
236.605	47.27
236.822	104.62
237.04	118.95
237.257	65.71
237.475	-61.27
237.692	39.08
237.909	55.47
238.127	-46.93
238.344	39.08
238.562	49.32
238.779	6.31
238.996	2.22
239.214	12.46
239.431	133.29
239.648	45.23
239.865	57.51
240.083	-18.26
240.3	26.79
240.517	82.09
240.735	55.47
240.952	80.04
241.169	80.04
241.386	106.67
241.603	30.89
241.821	6.31
242.038	116.9
242.255	215.21
242.472	-12.12
242.689	28.84
242.907	104.62
243.124	2.22
243.341	53.42
243.558	0.17
243.775	-69.46
243.992	-20.31
244.209	69.8
244.426	161.96
244.643	39.08
244.86	30.89
245.078	116.9
245.295	10.41
245.512	22.7
245.729	26.79
245.946	98.47
246.163	65.71
246.38	-14.17
246.597	-38.74
246.814	39.08
247.031	88.23
247.248	86.19
247.464	67.75
247.681	55.47
247.898	55.47
248.115	22.7
248.332	16.55
248.549	118.95
248.766	190.63
248.983	147.62
249.2	41.13
249.417	75.95
249.633	-5.97
249.85	20.65
250.067	49.32
250.284	41.13
250.501	14.51
250.717	88.23
250.934	34.99
251.151	-30.55
251.368	45.23
251.585	2.22
251.801	98.47
252.018	14.51
252.235	30.89
252.451	-42.84
252.668	0.17
252.885	86.19
253.102	30.89
253.318	26.79
253.535	-28.5
253.752	-28.5
253.968	37.03
254.185	12.46
254.401	123.05
254.618	41.13
254.835	-40.79
255.051	184.49
255.268	96.43
255.484	133.29
255.701	24.75
255.917	57.51
256.134	47.27
256.351	67.75
256.567	-42.84
256.784	-18.26
257	-71.51
257.217	82.09
257.433	100.52
257.65	39.08
257.866	98.47
258.082	-38.74
258.299	-59.22
258.515	59.56
258.732	41.13
258.948	-46.93
259.165	80.04
259.381	-8.02
259.597	100.52
259.814	37.03
260.03	-22.36
260.246	51.37
260.463	84.14
260.679	143.53
260.895	80.04
261.112	-20.31
261.328	16.55
261.544	-8.02
261.761	88.23
261.977	-28.5
262.193	-63.32
262.409	88.23
262.626	75.95
262.842	61.61
263.058	-63.32
263.274	137.38
263.49	47.27
263.707	123.05
263.923	18.6
264.139	-55.12
264.355	26.79
264.571	94.38
264.787	67.75
265.004	92.33
265.22	63.66
265.436	-3.93
265.652	-1.88
265.868	77.99
266.084	-34.64
266.3	63.66
266.516	-18.26
266.732	170.15
266.948	84.14
267.164	57.51
267.38	32.94
267.596	14.51
267.812	149.67
268.028	18.6
268.244	-10.07
268.46	71.85
268.676	24.75
268.892	65.71
269.108	32.94
269.324	24.75
269.54	-24.4
269.756	88.23
269.972	-14.17
270.188	-28.5
270.403	28.84
270.619	-12.12
270.835	129.19
271.051	-12.12
271.267	12.46
271.483	-28.5
271.698	53.42
271.914	22.7
272.13	43.18
272.346	28.84
272.562	49.32
272.777	139.43
272.993	49.32
273.209	43.18
273.425	145.58
273.64	2.22
273.856	110.76
274.072	-110.42
274.287	-1.88
274.503	100.52
274.719	88.23
274.934	-22.36
275.15	-106.32
275.366	-38.74
275.581	-18.26
275.797	8.36
276.012	4.27
276.228	26.79
276.444	22.7
276.659	75.95
276.875	22.7
277.09	53.42
277.306	51.37
277.521	116.9
277.737	20.65
277.952	86.19
278.168	82.09
278.383	16.55
278.599	86.19
278.814	143.53
279.03	8.36
279.245	121
279.461	26.79
279.676	88.23
279.892	-34.64
280.107	-53.08
280.322	6.31
280.538	106.67
280.753	-55.12
280.969	80.04
281.184	102.57
281.399	207.02
281.615	26.79
281.83	43.18
282.045	-1.88
282.26	-32.6
282.476	116.9
282.691	98.47
282.906	61.61
283.122	55.47
283.337	-94.04
283.552	106.67
283.767	-16.21
283.983	110.76
284.198	96.43
284.413	32.94
284.628	-38.74
284.843	-51.03
285.058	88.23
285.274	-24.4
285.489	-51.03
285.704	100.52
285.919	10.41
286.134	51.37
286.349	-14.17
286.564	10.41
286.779	145.58
286.995	-1.88
287.21	-12.12
287.425	61.61
287.64	-16.21
287.855	30.89
288.07	-85.84
288.285	73.9
288.5	86.19
288.715	108.71
288.93	-18.26
289.145	-38.74
289.36	37.03
289.575	43.18
289.79	92.33
290.004	-118.61
290.219	49.32
290.434	37.03
290.649	-20.31
290.864	67.75
291.079	22.7
291.294	96.43
291.509	-32.6
291.724	41.13
291.938	-34.64
292.153	82.09
292.368	-5.97
292.583	96.43
292.798	92.33
293.012	61.61
293.227	26.79
293.442	28.84
293.657	77.99
293.871	106.67
294.086	49.32
294.301	141.48
294.516	10.41
294.73	-65.36
294.945	-73.56
295.16	153.77
295.374	121
295.589	49.32
295.804	20.65
296.018	63.66
296.233	61.61
296.447	16.55
296.662	55.47
296.877	77.99
297.091	145.58
297.306	14.51
297.52	-12.12
297.735	47.27
297.949	133.29
298.164	39.08
298.378	45.23
298.593	12.46
298.807	-34.64
299.022	57.51
299.236	90.28
299.451	20.65
299.665	53.42
299.88	53.42
300.094	55.47
300.309	59.56
300.523	57.51
300.737	43.18
300.952	67.75
301.166	55.47
301.381	-26.45
301.595	-3.93
301.809	90.28
302.024	-32.6
302.238	-53.08
302.452	102.57
302.667	127.14
302.881	131.24
303.095	82.09
303.309	28.84
303.524	59.56
303.738	63.66
303.952	-69.46
304.166	75.95
304.381	-85.84
304.595	149.67
304.809	-3.93
305.023	41.13
305.237	-16.21
305.452	22.7
305.666	159.91
305.88	141.48
306.094	127.14
306.308	61.61
306.522	86.19
306.736	116.9
306.95	116.9
307.164	6.31
307.379	24.75
307.593	170.15
307.807	73.9
308.021	67.75
308.235	71.85
308.449	-10.07
308.663	53.42
308.877	166.06
309.091	41.13
309.305	147.62
309.519	-40.79
309.733	104.62
309.947	-24.4
310.161	88.23
310.374	110.76
310.588	86.19
310.802	-10.07
311.016	-20.31
311.23	112.81
311.444	-57.17
311.658	6.31
311.872	178.34
312.085	121
312.299	164.01
312.513	96.43
312.727	59.56
312.941	-40.79
313.154	43.18
313.368	-16.21
313.582	90.28
313.796	155.82
314.009	43.18
314.223	24.75
314.437	34.99
314.651	-16.21
314.864	65.71
315.078	59.56
315.292	-53.08
315.505	45.23
315.719	41.13
315.933	145.58
316.146	4.27
316.36	-32.6
316.573	114.86
316.787	137.38
317.001	14.51
317.214	-10.07
317.428	65.71
317.641	-30.55
317.855	-16.21
318.068	96.43
318.282	121
318.495	211.11
318.709	164.01
318.922	-10.07
319.136	135.34
319.349	172.2
319.563	10.41
319.776	67.75
319.99	-149.33
320.203	106.67
320.417	49.32
320.63	69.8
320.843	190.63
321.057	57.51
321.27	6.31
321.483	34.99
321.697	186.54
321.91	73.9
322.124	30.89
322.337	39.08
322.55	53.42
322.763	12.46
322.977	34.99
323.19	53.42
323.403	43.18
323.617	-20.31
323.83	139.43
324.043	32.94
324.256	47.27
324.469	-81.75
324.683	213.16
324.896	71.85
325.109	82.09
325.322	-46.93
325.535	108.71
325.748	114.86
325.962	-5.97
326.175	47.27
326.388	67.75
326.601	123.05
326.814	18.6
327.027	65.71
327.24	219.3
327.453	-126.8
327.666	65.71
327.879	98.47
328.092	153.77
328.305	80.04
328.518	30.89
328.731	57.51
328.944	59.56
329.157	61.61
329.37	0.17
329.583	127.14
329.796	77.99
330.009	10.41
330.222	77.99
330.435	123.05
330.648	123.05
330.861	41.13
331.073	92.33
331.286	55.47
331.499	51.37
331.712	-5.97
331.925	104.62
332.138	37.03
332.35	129.19
332.563	-5.97
332.776	96.43
332.989	-1.88
333.202	-26.45
333.414	65.71
333.627	-3.93
333.84	-22.36
334.053	90.28
334.265	-51.03
334.478	39.08
334.691	-30.55
334.903	53.42
335.116	61.61
335.329	16.55
335.541	61.61
335.754	209.06
335.966	-10.07
336.179	8.36
336.392	73.9
336.604	57.51
336.817	178.34
337.029	-14.17
337.242	39.08
337.454	80.04
337.667	16.55
337.88	153.77
338.092	127.14
338.305	90.28
338.517	-22.36
338.729	145.58
338.942	159.91
339.154	-42.84
339.367	61.61
339.579	22.7
339.792	-34.64
340.004	147.62
340.217	90.28
340.429	45.23
340.641	-69.46
340.854	-5.97
341.066	39.08
341.278	94.38
341.491	151.72
341.703	88.23
341.915	53.42
342.128	137.38
342.34	90.28
342.552	-22.36
342.764	30.89
342.977	22.7
343.189	6.31
343.401	98.47
343.613	4.27
343.826	24.75
344.038	4.27
344.25	55.47
344.462	10.41
344.674	57.51
344.886	24.75
345.099	28.84
345.311	39.08
345.523	14.51
345.735	-87.89
345.947	-8.02
346.159	37.03
346.371	16.55
346.583	57.51
346.795	151.72
347.007	-65.36
347.219	92.33
347.431	0.17
347.643	88.23
347.855	51.37
348.067	139.43
348.279	-10.07
348.491	22.7
348.703	100.52
348.915	4.27
349.127	-3.93
349.339	12.46
349.551	28.84
349.763	65.71
349.975	51.37
350.187	110.76
350.399	137.38
350.61	73.9
350.822	18.6
351.034	34.99
351.246	20.65
351.458	88.23
351.669	53.42
351.881	-3.93
352.093	104.62
352.305	108.71
352.517	114.86
352.728	127.14
352.94	96.43
353.152	14.51
353.363	-26.45
353.575	106.67
353.787	198.82
353.999	96.43
354.21	174.25
354.422	-14.17
354.633	63.66
354.845	37.03
355.057	30.89
355.268	34.99
355.48	125.1
355.692	-65.36
355.903	-12.12
356.115	-20.31
356.326	-89.94
356.538	143.53
356.749	41.13
356.961	131.24
357.172	51.37
357.384	8.36
357.595	157.86
357.807	20.65
358.018	22.7
358.23	41.13
358.441	211.11
358.653	73.9
358.864	-8.02
359.075	-59.22
359.287	82.09
359.498	82.09
359.709	39.08
359.921	28.84
360.132	125.1
360.344	20.65
360.555	-46.93
360.766	75.95
360.977	-24.4
361.189	141.48
361.4	10.41
361.611	125.1
361.823	116.9
362.034	57.51
362.245	22.7
362.456	98.47
362.667	121
362.879	-61.27
363.09	63.66
363.301	65.71
363.512	22.7
363.723	0.17
363.935	39.08
364.146	18.6
364.357	45.23
364.568	77.99
364.779	16.55
364.99	96.43
365.201	6.31
365.412	88.23
365.623	-59.22
365.834	77.99
366.045	86.19
366.256	30.89
366.467	69.8
366.678	59.56
366.889	26.79
367.1	-8.02
367.311	123.05
367.522	12.46
367.733	102.57
367.944	47.27
368.155	-42.84
368.366	47.27
368.577	176.3
368.788	106.67
368.999	-8.02
369.209	63.66
369.42	202.92
369.631	141.48
369.842	28.84
370.053	20.65
370.264	59.56
370.474	-40.79
370.685	110.76
370.896	32.94
371.107	129.19
371.317	112.81
371.528	-42.84
371.739	137.38
371.95	106.67
372.16	145.58
372.371	-22.36
372.582	-1.88
372.792	51.37
373.003	39.08
373.214	-46.93
373.424	49.32
373.635	-8.02
373.846	172.2
374.056	57.51
374.267	-26.45
374.477	73.9
374.688	-38.74
374.898	86.19
375.109	125.1
375.319	2.22
375.53	41.13
375.74	135.34
375.951	20.65
376.161	61.61
376.372	166.06
376.582	10.41
376.793	51.37
377.003	-32.6
377.214	30.89
377.424	90.28
377.635	-10.07
377.845	8.36
378.055	178.34
378.266	-73.56
378.476	-77.65
378.686	71.85
378.897	77.99
379.107	55.47
379.317	69.8
379.528	-14.17
379.738	92.33
379.948	16.55
380.158	139.43
380.369	45.23
380.579	82.09
380.789	80.04
380.999	61.61
381.21	32.94
381.42	213.16
381.63	-48.98
381.84	202.92
382.05	59.56
382.261	137.38
382.471	133.29
382.681	12.46
382.891	100.52
383.101	47.27
383.311	63.66
383.521	6.31
383.731	82.09
383.941	123.05
384.151	127.14
384.361	51.37
384.571	28.84
384.781	67.75
384.991	155.82
385.201	237.74
385.411	129.19
385.621	55.47
385.831	80.04
386.041	110.76
386.251	41.13
386.461	94.38
386.671	96.43
386.881	110.76
387.091	65.71
387.301	184.49
387.511	67.75
387.72	-36.69
387.93	53.42
388.14	-59.22
388.35	26.79
388.56	131.24
388.769	24.75
388.979	55.47
389.189	-30.55
389.399	10.41
389.609	16.55
389.818	53.42
390.028	-10.07
390.238	45.23
390.447	86.19
390.657	55.47
390.867	-40.79
391.076	-108.37
391.286	51.37
391.496	18.6
391.705	75.95
391.915	90.28
392.125	168.1
392.334	18.6
392.544	166.06
392.753	96.43
392.963	-16.21
393.172	6.31
393.382	-16.21
393.591	151.72
393.801	90.28
394.01	157.86
394.22	45.23
394.429	43.18
394.639	41.13
394.848	20.65
395.058	80.04
395.267	-30.55
395.477	82.09
395.686	-14.17
395.895	182.44
396.105	178.34
396.314	82.09
396.524	57.51
396.733	34.99
396.942	80.04
397.152	47.27
397.361	129.19
397.57	30.89
397.78	63.66
397.989	61.61
398.198	141.48
398.407	-83.8
398.617	65.71
398.826	47.27
399.035	53.42
399.244	116.9
399.453	94.38
399.663	84.14
399.872	143.53
400.081	-61.27
400.29	94.38
400.499	-51.03
400.708	82.09
400.917	94.38
401.127	6.31
401.336	-53.08
401.545	139.43
401.754	118.95
401.963	141.48
402.172	75.95
402.381	-3.93
402.59	16.55
402.799	-38.74
403.008	100.52
403.217	121
403.426	59.56
403.635	12.46
403.844	75.95
404.053	39.08
404.262	18.6
404.471	143.53
404.68	139.43
404.888	59.56
405.097	-32.6
405.306	112.81
405.515	80.04
405.724	-5.97
405.933	100.52
406.142	59.56
406.35	94.38
406.559	-10.07
406.768	75.95
406.977	116.9
407.185	104.62
407.394	75.95
407.603	26.79
407.812	34.99
408.02	135.34
408.229	41.13
408.438	55.47
408.646	-59.22
408.855	53.42
409.064	63.66
409.272	24.75
409.481	98.47
409.69	-12.12
409.898	-42.84
410.107	41.13
410.315	176.3
410.524	18.6
410.733	129.19
410.941	8.36
411.15	104.62
411.358	51.37
411.567	63.66
411.775	43.18
411.984	86.19
412.192	55.47
412.401	71.85
412.609	133.29
412.818	55.47
413.026	51.37
413.234	20.65
413.443	67.75
413.651	12.46
413.86	0.17
414.068	155.82
414.276	151.72
414.485	24.75
414.693	116.9
414.901	114.86
415.11	63.66
415.318	77.99
415.526	92.33
415.734	131.24
415.943	73.9
416.151	202.92
416.359	24.75
416.567	28.84
416.776	90.28
416.984	82.09
417.192	86.19
417.4	34.99
417.608	51.37
417.817	-46.93
418.025	106.67
418.233	176.3
418.441	-3.93
418.649	-32.6
418.857	59.56
419.065	213.16
419.273	65.71
419.481	-10.07
419.689	86.19
419.897	84.14
420.105	-18.26
420.313	190.63
420.521	118.95
420.729	184.49
420.937	84.14
421.145	63.66
421.353	30.89
421.561	118.95
421.769	73.9
421.977	18.6
422.185	127.14
422.393	96.43
422.601	211.11
422.809	43.18
423.017	37.03
423.224	75.95
423.432	137.38
423.64	30.89
423.848	116.9
424.056	-16.21
424.263	166.06
424.471	18.6
424.679	184.49
424.887	10.41
425.094	137.38
425.302	53.42
425.51	45.23
425.718	141.48
425.925	45.23
426.133	-16.21
426.341	227.5
426.548	12.46
426.756	45.23
426.964	75.95
427.171	-12.12
427.379	96.43
427.586	114.86
427.794	71.85
428.001	114.86
428.209	55.47
428.417	149.67
428.624	217.26
428.832	149.67
429.039	96.43
429.247	96.43
429.454	106.67
429.662	235.69
429.869	71.85
430.076	73.9
430.284	118.95
430.491	227.5
430.699	229.54
430.906	301.22
431.114	100.52
431.321	100.52
431.528	88.23
431.736	106.67
431.943	176.3
432.15	135.34
432.358	170.15
432.565	215.21
432.772	-5.97
432.979	102.57
433.187	200.87
433.394	223.4
433.601	98.47
433.808	168.1
434.016	237.74
434.223	137.38
434.43	204.97
434.637	215.21
434.844	170.15
435.052	225.45
435.259	282.79
435.466	299.17
435.673	266.41
435.88	317.61
436.087	329.89
436.294	264.36
436.501	274.6
436.708	241.83
436.915	258.21
437.122	366.76
437.329	278.69
437.537	311.46
437.743	346.28
437.95	456.87
438.157	297.13
438.364	358.57
438.571	364.71
438.778	309.41
438.985	415.91
439.192	465.06
439.399	237.74
439.606	403.62
439.813	522.4
440.02	585.89
440.227	632.99
440.433	524.45
440.64	501.92
440.847	454.82
441.054	596.13
441.261	647.33
441.467	491.68
441.674	514.21
441.881	534.69
442.088	501.92
442.294	716.96
442.501	743.58
442.708	712.86
442.914	714.91
443.121	774.3
443.328	872.61
443.534	991.39
443.741	776.35
443.948	669.86
444.154	770.21
444.361	1058.97
444.568	831.65
444.774	942.24
444.981	817.31
445.187	1028.25
445.394	960.67
445.6	944.28
445.807	1214.62
446.013	1114.27
446.22	1067.16
446.426	1216.66
446.633	1310.87
446.839	1464.47
447.046	1210.52
447.252	1413.27
447.459	1405.08
447.665	1431.7
447.871	1607.83
448.078	1638.55
448.284	1634.45
448.491	1757.33
448.697	1843.34
448.903	1831.05
449.11	2009.23
449.316	1906.83
449.522	2115.72
449.728	2099.34
449.935	2281.61
450.141	2267.27
450.347	2431.11
450.553	2318.47
450.76	2531.46
450.966	2549.89
451.172	2609.28
451.378	2670.72
451.584	2764.93
451.791	3035.26
451.997	2984.06
452.203	3238.01
452.409	3299.45
452.615	3405.94
452.821	3281.02
453.027	3344.5
453.233	3858.54
453.44	3657.84
453.646	3811.44
453.852	4040.81
454.058	4124.78
454.264	4288.62
454.47	4573.28
454.676	4640.87
454.882	5050.46
455.088	4991.07
455.294	4991.07
455.5	5398.62
455.705	5785.68
455.911	5599.32
456.117	5808.21
456.323	6164.56
456.529	6094.93
456.735	6533.19
456.941	6781
457.147	7026.75
457.352	7231.55
457.558	7577.66
457.764	7880.75
457.97	8108.08
458.176	8443.95
458.381	8728.61
458.587	8996.9
458.793	9367.58
458.999	9574.42
459.204	10926.08
459.41	10973.19
459.616	10985.48
459.821	11517.95
460.027	11935.73
460.233	12724.2
460.438	12804.07
460.644	13445.09
460.85	13201.38
461.055	14057.43
461.261	14755.79
461.466	14637
461.672	14483.41
461.878	16392.11
462.083	16019.38
462.289	16433.07
462.494	17219.49
462.7	17309.6
462.905	17508.26
463.111	19079.05
463.316	20055.93
463.522	20457.33
463.727	20944.75
463.932	21667.68
464.138	22441.81
464.343	23203.66
464.549	23334.73
464.754	25030.44
464.959	25716.51
465.165	26277.66
465.37	26122.01
465.575	25896.74
465.781	27490.06
465.986	28626.68
466.191	27993.86
466.397	28387.07
466.602	27528.97
466.807	29355.75
467.012	30265.05
467.218	30273.24
467.423	30381.79
467.628	31469.26
467.833	32835.25
468.038	32409.28
468.244	31782.6
468.449	33332.91
468.654	32562.87
468.859	32427.71
