Data from USB4F104151__7__10-22-28-753.txt Node

Date: Wed Feb 26 10:22:28 EST 2025
User: louis
Spectrometer: USB4F10415
Trigger mode: 4
Integration Time (sec): 1.000000E-1
Scans to average: 1
Electric dark correction enabled: true
Nonlinearity correction enabled: false
Boxcar width: 0
XAxis mode: Wavelengths
Number of Pixels in Spectrum: 3648
>>>>>Begin Spectral Data<<<<<
178.204	-385.02
178.424	-385.02
178.644	-385.02
178.864	-407.55
179.084	-368.63
179.304	-75.77
179.524	-26.62
179.744	81.92
179.964	51.2
180.184	28.67
180.404	49.15
180.624	14.34
180.844	4.1
181.064	-77.82
181.283	-40.96
181.503	-8.19
181.723	0
181.943	-61.44
182.163	192.51
182.383	-8.19
182.602	49.15
182.822	79.87
183.042	139.26
183.262	-12.29
183.482	20.48
183.701	61.44
183.921	28.67
184.141	-30.72
184.361	26.62
184.58	86.01
184.8	92.16
185.02	6.14
185.239	167.93
185.459	83.97
185.679	139.26
185.898	-65.53
186.118	81.92
186.338	118.78
186.557	73.73
186.777	22.53
186.997	-16.38
187.216	88.06
187.436	135.17
187.655	49.15
187.875	98.3
188.095	12.29
188.314	178.17
188.534	86.01
188.753	-40.96
188.973	159.74
189.192	126.97
189.412	24.58
189.631	47.1
189.851	65.54
190.07	88.06
190.29	-40.96
190.509	-45.06
190.729	-8.19
190.948	86.01
191.168	215.04
191.387	51.2
191.607	65.54
191.826	88.06
192.045	88.06
192.265	-16.38
192.484	96.25
192.704	88.06
192.923	-71.68
193.142	174.08
193.362	131.07
193.581	225.28
193.8	47.1
194.02	83.97
194.239	53.25
194.458	129.02
194.678	-30.72
194.897	16.38
195.116	155.65
195.335	63.49
195.555	141.31
195.774	4.1
195.993	49.15
196.212	6.14
196.432	28.67
196.651	73.73
196.87	71.68
197.089	215.04
197.308	153.6
197.528	104.45
197.747	-90.11
197.966	26.62
198.185	194.56
198.404	0
198.623	184.32
198.842	129.02
199.062	145.41
199.281	174.08
199.5	-2.05
199.719	112.64
199.938	96.25
200.157	133.12
200.376	96.25
200.595	116.73
200.814	65.54
201.033	-55.3
201.252	204.8
201.471	106.49
201.69	172.03
201.909	106.49
202.128	151.55
202.347	122.88
202.566	83.97
202.785	-55.3
203.004	20.48
203.223	196.61
203.442	86.01
203.661	16.38
203.879	145.41
204.098	192.51
204.317	28.67
204.536	100.35
204.755	137.21
204.974	100.35
205.193	8.19
205.411	147.45
205.63	131.07
205.849	102.4
206.068	14.34
206.287	-28.67
206.505	180.22
206.724	22.53
206.943	67.58
207.162	40.96
207.381	83.97
207.599	-10.24
207.818	43.01
208.037	22.53
208.255	32.77
208.474	96.25
208.693	114.69
208.911	12.29
209.13	81.92
209.349	172.03
209.567	12.29
209.786	104.45
210.005	120.83
210.223	61.44
210.442	-69.63
210.661	6.14
210.879	176.13
211.098	20.48
211.316	102.4
211.535	116.73
211.753	88.06
211.972	114.69
212.191	2.05
212.409	61.44
212.628	81.92
212.846	63.49
213.065	102.4
213.283	133.12
213.502	49.15
213.72	81.92
213.938	69.63
214.157	30.72
214.375	94.21
214.594	32.77
214.812	104.45
215.031	34.82
215.249	45.06
215.467	67.58
215.686	180.22
215.904	49.15
216.122	67.58
216.341	221.18
216.559	55.3
216.778	61.44
216.996	182.27
217.214	61.44
217.432	0
217.651	-8.19
217.869	65.54
218.087	98.3
218.306	-24.58
218.524	147.45
218.742	32.77
218.96	59.39
219.179	49.15
219.397	24.58
219.615	249.85
219.833	94.21
220.051	32.77
220.27	108.54
220.488	135.17
220.706	112.64
220.924	-2.05
221.142	18.43
221.36	104.45
221.578	73.73
221.796	53.25
222.015	6.14
222.233	104.45
222.451	145.41
222.669	43.01
222.887	49.15
223.105	-22.53
223.323	-30.72
223.541	12.29
223.759	100.35
223.977	10.24
224.195	122.88
224.413	122.88
224.631	61.44
224.849	90.11
225.067	225.28
225.285	18.43
225.503	-75.77
225.721	-61.44
225.939	-36.86
226.157	43.01
226.375	210.94
226.592	0
226.81	69.63
227.028	124.93
227.246	126.97
227.464	141.31
227.682	122.88
227.9	75.77
228.117	104.45
228.335	61.44
228.553	14.34
228.771	28.67
228.989	92.16
229.206	81.92
229.424	45.06
229.642	24.58
229.86	-51.2
230.077	157.69
230.295	40.96
230.513	122.88
230.731	47.1
230.948	229.37
231.166	249.85
231.384	32.77
231.601	26.62
231.819	149.5
232.037	135.17
232.254	4.1
232.472	90.11
232.689	43.01
232.907	79.87
233.125	-20.48
233.342	-34.82
233.56	-10.24
233.777	-34.82
233.995	65.54
234.213	65.54
234.43	77.82
234.648	-49.15
234.865	49.15
235.083	65.54
235.3	79.87
235.518	61.44
235.735	172.03
235.953	73.73
236.17	28.67
236.388	59.39
236.605	43.01
236.822	124.93
237.04	112.64
237.257	61.44
237.475	-22.53
237.692	8.19
237.909	55.3
238.127	-8.19
238.344	98.3
238.562	6.14
238.779	-77.82
238.996	-96.25
239.214	77.82
239.431	116.73
239.648	28.67
239.865	118.78
240.083	94.21
240.3	-12.29
240.517	-26.62
240.735	10.24
240.952	153.6
241.169	51.2
241.386	45.06
241.603	104.45
241.821	-30.72
242.038	92.16
242.255	135.17
242.472	32.77
242.689	98.3
242.907	88.06
243.124	120.83
243.341	16.38
243.558	-2.05
243.775	-69.63
243.992	-22.53
244.209	106.49
244.426	245.76
244.643	108.54
244.86	69.63
245.078	67.58
245.295	129.02
245.512	45.06
245.729	-22.53
245.946	116.73
246.163	90.11
246.38	116.73
246.597	90.11
246.814	67.58
247.031	81.92
247.248	45.06
247.464	65.54
247.681	75.77
247.898	165.89
248.115	155.65
248.332	51.2
248.549	114.69
248.766	182.27
248.983	94.21
249.2	63.49
249.417	176.13
249.633	34.82
249.85	73.73
250.067	14.34
250.284	51.2
250.501	77.82
250.717	143.36
250.934	61.44
251.151	-14.34
251.368	77.82
251.585	6.14
251.801	77.82
252.018	-20.48
252.235	151.55
252.451	-10.24
252.668	2.05
252.885	169.98
253.102	83.97
253.318	47.1
253.535	124.93
253.752	51.2
253.968	8.19
254.185	-32.77
254.401	112.64
254.618	141.31
254.835	73.73
255.051	188.41
255.268	96.25
255.484	67.58
255.701	-16.38
255.917	20.48
256.134	-28.67
256.351	-10.24
256.567	6.14
256.784	88.06
257	-81.92
257.217	77.82
257.433	122.88
257.65	26.62
257.866	133.12
258.082	0
258.299	22.53
258.515	12.29
258.732	-90.11
258.948	22.53
259.165	0
259.381	22.53
259.597	79.87
259.814	-43.01
260.03	12.29
260.246	36.86
260.463	149.5
260.679	225.28
260.895	40.96
261.112	122.88
261.328	53.25
261.544	-59.39
261.761	194.56
261.977	-38.91
262.193	22.53
262.409	184.32
262.626	30.72
262.842	40.96
263.058	18.43
263.274	51.2
263.49	30.72
263.707	94.21
263.923	67.58
264.139	-20.48
264.355	59.39
264.571	139.26
264.787	116.73
265.004	141.31
265.22	14.34
265.436	-6.14
265.652	36.86
265.868	-53.25
266.084	-28.67
266.3	16.38
266.516	8.19
266.732	53.25
266.948	26.62
267.164	12.29
267.38	114.69
267.596	69.63
267.812	124.93
268.028	98.3
268.244	4.1
268.46	-6.14
268.676	61.44
268.892	36.86
269.108	67.58
269.324	-2.05
269.54	-36.86
269.756	186.37
269.972	20.48
270.188	20.48
270.403	-20.48
270.619	18.43
270.835	96.25
271.051	45.06
271.267	16.38
271.483	12.29
271.698	86.01
271.914	14.34
272.13	55.3
272.346	22.53
272.562	67.58
272.777	57.34
272.993	-4.1
273.209	43.01
273.425	114.69
273.64	-32.77
273.856	98.3
274.072	30.72
274.287	20.48
274.503	65.54
274.719	43.01
274.934	-75.77
275.15	-98.3
275.366	38.91
275.581	24.58
275.797	79.87
276.012	112.64
276.228	2.05
276.444	14.34
276.659	151.55
276.875	30.72
277.09	98.3
277.306	26.62
277.521	106.49
277.737	-14.34
277.952	112.64
278.168	79.87
278.383	12.29
278.599	55.3
278.814	26.62
279.03	69.63
279.245	165.89
279.461	77.82
279.676	81.92
279.892	-43.01
280.107	-10.24
280.322	38.91
280.538	40.96
280.753	-24.58
280.969	77.82
281.184	47.1
281.399	196.61
281.615	28.67
281.83	63.49
282.045	-8.19
282.26	-16.38
282.476	36.86
282.691	120.83
282.906	59.39
283.122	167.93
283.337	-32.77
283.552	63.49
283.767	-26.62
283.983	112.64
284.198	26.62
284.413	26.62
284.628	-12.29
284.843	65.54
285.058	86.01
285.274	-30.72
285.489	-8.19
285.704	208.89
285.919	-14.34
286.134	30.72
286.349	12.29
286.564	10.24
286.779	141.31
286.995	26.62
287.21	-120.83
287.425	65.54
287.64	24.58
287.855	14.34
288.07	-10.24
288.285	155.65
288.5	116.73
288.715	53.25
288.93	-20.48
289.145	-12.29
289.36	88.06
289.575	26.62
289.79	98.3
290.004	57.34
290.219	135.17
290.434	-26.62
290.649	20.48
290.864	8.19
291.079	16.38
291.294	49.15
291.509	100.35
291.724	24.58
291.938	75.77
292.153	49.15
292.368	26.62
292.583	63.49
292.798	110.59
293.012	65.54
293.227	83.97
293.442	-20.48
293.657	55.3
293.871	90.11
294.086	88.06
294.301	231.42
294.516	116.73
294.73	61.44
294.945	2.05
295.16	57.34
295.374	143.36
295.589	98.3
295.804	10.24
296.018	67.58
296.233	163.84
296.447	59.39
296.662	-32.77
296.877	157.69
297.091	16.38
297.306	53.25
297.52	16.38
297.735	88.06
297.949	59.39
298.164	12.29
298.378	51.2
298.593	-20.48
298.807	-34.82
299.022	34.82
299.236	190.46
299.451	-51.2
299.665	10.24
299.88	-18.43
300.094	159.74
300.309	28.67
300.523	114.69
300.737	-16.38
300.952	59.39
301.166	20.48
301.381	43.01
301.595	4.1
301.809	12.29
302.024	-22.53
302.238	26.62
302.452	122.88
302.667	36.86
302.881	135.17
303.095	18.43
303.309	126.97
303.524	40.96
303.738	36.86
303.952	45.06
304.166	129.02
304.381	-67.58
304.595	194.56
304.809	-12.29
305.023	32.77
305.237	36.86
305.452	69.63
305.666	118.78
305.88	161.79
306.094	77.82
306.308	67.58
306.522	61.44
306.736	86.01
306.95	59.39
307.164	6.14
307.379	30.72
307.593	96.25
307.807	159.74
308.021	71.68
308.235	49.15
308.449	-92.16
308.663	67.58
308.877	268.28
309.091	81.92
309.305	98.3
309.519	-61.44
309.733	94.21
309.947	0
310.161	129.02
310.374	153.6
310.588	137.21
310.802	12.29
311.016	18.43
311.23	77.82
311.444	12.29
311.658	67.58
311.872	135.17
312.085	88.06
312.299	149.5
312.513	184.32
312.727	88.06
312.941	-34.82
313.154	90.11
313.368	106.49
313.582	32.77
313.796	59.39
314.009	30.72
314.223	108.54
314.437	88.06
314.651	153.6
314.864	-32.77
315.078	104.45
315.292	-18.43
315.505	20.48
315.719	90.11
315.933	126.97
316.146	40.96
316.36	4.1
316.573	141.31
316.787	110.59
317.001	65.54
317.214	-40.96
317.428	-22.53
317.641	-69.63
317.855	28.67
318.068	83.97
318.282	147.45
318.495	135.17
318.709	110.59
318.922	30.72
319.136	163.84
319.349	57.34
319.563	-18.43
319.776	69.63
319.99	-36.86
320.203	120.83
320.417	-16.38
320.63	118.78
320.843	194.56
321.057	36.86
321.27	141.31
321.483	90.11
321.697	200.7
321.91	108.54
322.124	153.6
322.337	96.25
322.55	-81.92
322.763	98.3
322.977	-55.3
323.19	16.38
323.403	51.2
323.617	94.21
323.83	112.64
324.043	65.54
324.256	-4.1
324.469	-81.92
324.683	159.74
324.896	-45.06
325.109	143.36
325.322	-8.19
325.535	188.41
325.748	100.35
325.962	59.39
326.175	73.73
326.388	55.3
326.601	141.31
326.814	112.64
327.027	40.96
327.24	86.01
327.453	-40.96
327.666	147.45
327.879	118.78
328.092	106.49
328.305	20.48
328.518	-59.39
328.731	102.4
328.944	-32.77
329.157	94.21
329.37	92.16
329.583	223.23
329.796	182.27
330.009	-26.62
330.222	77.82
330.435	55.3
330.648	159.74
330.861	10.24
331.073	63.49
331.286	98.3
331.499	59.39
331.712	-20.48
331.925	36.86
332.138	8.19
332.35	100.35
332.563	32.77
332.776	124.93
332.989	12.29
333.202	40.96
333.414	100.35
333.627	36.86
333.84	14.34
334.053	86.01
334.265	55.3
334.478	2.05
334.691	26.62
334.903	77.82
335.116	-22.53
335.329	2.05
335.541	149.5
335.754	116.73
335.966	-14.34
336.179	53.25
336.392	-10.24
336.604	59.39
336.817	172.03
337.029	98.3
337.242	-12.29
337.454	38.91
337.667	67.58
337.88	229.37
338.092	135.17
338.305	102.4
338.517	18.43
338.729	67.58
338.942	165.89
339.154	-32.77
339.367	32.77
339.579	131.07
339.792	18.43
340.004	71.68
340.217	90.11
340.429	94.21
340.641	-49.15
340.854	-73.73
341.066	0
341.278	147.45
341.491	151.55
341.703	81.92
341.915	30.72
342.128	200.7
342.34	81.92
342.552	-32.77
342.764	8.19
342.977	55.3
343.189	81.92
343.401	96.25
343.613	-71.68
343.826	24.58
344.038	45.06
344.25	114.69
344.462	61.44
344.674	40.96
344.886	-20.48
345.099	167.93
345.311	102.4
345.523	86.01
345.735	-65.53
345.947	0
346.159	106.49
346.371	14.34
346.583	51.2
346.795	217.08
347.007	34.82
347.219	65.54
347.431	51.2
347.643	167.93
347.855	-73.73
348.067	155.65
348.279	-18.43
348.491	77.82
348.703	98.3
348.915	36.86
349.127	53.25
349.339	61.44
349.551	38.91
349.763	112.64
349.975	63.49
350.187	147.45
350.399	143.36
350.61	14.34
350.822	24.58
351.034	61.44
351.246	45.06
351.458	67.58
351.669	180.22
351.881	126.97
352.093	139.26
352.305	67.58
352.517	28.67
352.728	106.49
352.94	67.58
353.152	77.82
353.363	-38.91
353.575	106.49
353.787	184.32
353.999	75.77
354.21	139.26
354.422	38.91
354.633	83.97
354.845	147.45
355.057	-4.1
355.268	-24.58
355.48	139.26
355.692	8.19
355.903	61.44
356.115	-12.29
356.326	-12.29
356.538	133.12
356.749	75.77
356.961	129.02
357.172	49.15
357.384	-8.19
357.595	233.47
357.807	-32.77
358.018	73.73
358.23	100.35
358.441	174.08
358.653	131.07
358.864	55.3
359.075	38.91
359.287	131.07
359.498	155.65
359.709	90.11
359.921	-8.19
360.132	79.87
360.344	73.73
360.555	-2.05
360.766	51.2
360.977	8.19
361.189	112.64
361.4	38.91
361.611	43.01
361.823	102.4
362.034	108.54
362.245	-55.3
362.456	-38.91
362.667	81.92
362.879	-24.58
363.09	2.05
363.301	141.31
363.512	83.97
363.723	-63.49
363.935	32.77
364.146	151.55
364.357	6.14
364.568	96.25
364.779	-34.82
364.99	180.22
365.201	-4.1
365.412	129.02
365.623	-30.72
365.834	71.68
366.045	126.97
366.256	96.25
366.467	34.82
366.678	38.91
366.889	4.1
367.1	8.19
367.311	94.21
367.522	61.44
367.733	98.3
367.944	90.11
368.155	30.72
368.366	73.73
368.577	81.92
368.788	133.12
368.999	4.1
369.209	55.3
369.42	241.66
369.631	243.71
369.842	141.31
370.053	49.15
370.264	73.73
370.474	96.25
370.685	129.02
370.896	28.67
371.107	126.97
371.317	94.21
371.528	32.77
371.739	157.69
371.95	69.63
372.16	53.25
372.371	-4.1
372.582	36.86
372.792	49.15
373.003	90.11
373.214	-28.67
373.424	77.82
373.635	10.24
373.846	145.41
374.056	77.82
374.267	114.69
374.477	51.2
374.688	47.1
374.898	28.67
375.109	94.21
375.319	45.06
375.53	184.32
375.74	100.35
375.951	114.69
376.161	63.49
376.372	114.69
376.582	96.25
376.793	172.03
377.003	57.34
377.214	18.43
377.424	139.26
377.635	53.25
377.845	-4.1
378.055	120.83
378.266	6.14
378.476	28.67
378.686	108.54
378.897	92.16
379.107	141.31
379.317	112.64
379.528	32.77
379.738	79.87
379.948	14.34
380.158	104.45
380.369	28.67
380.579	110.59
380.789	26.62
380.999	43.01
381.21	96.25
381.42	118.78
381.63	28.67
381.84	43.01
382.05	116.73
382.261	145.41
382.471	151.55
382.681	14.34
382.891	198.65
383.101	104.45
383.311	-22.53
383.521	49.15
383.731	61.44
383.941	61.44
384.151	86.01
384.361	12.29
384.571	63.49
384.781	73.73
384.991	208.89
385.201	221.18
385.411	161.79
385.621	40.96
385.831	57.34
386.041	61.44
386.251	65.54
386.461	79.87
386.671	-34.82
386.881	96.25
387.091	77.82
387.301	133.12
387.511	98.3
387.72	49.15
387.93	126.97
388.14	-79.87
388.35	131.07
388.56	49.15
388.769	174.08
388.979	122.88
389.189	-4.1
389.399	16.38
389.609	32.77
389.818	67.58
390.028	43.01
390.238	112.64
390.447	22.53
390.657	69.63
390.867	12.29
391.076	-6.14
391.286	32.77
391.496	-4.1
391.705	65.54
391.915	196.61
392.125	129.02
392.334	34.82
392.544	139.26
392.753	47.1
392.963	22.53
393.172	67.58
393.382	14.34
393.591	153.6
393.801	26.62
394.01	180.22
394.22	90.11
394.429	83.97
394.639	-22.53
394.848	57.34
395.058	110.59
395.267	8.19
395.477	104.45
395.686	22.53
395.895	264.19
396.105	143.36
396.314	102.4
396.524	0
396.733	-6.14
396.942	100.35
397.152	116.73
397.361	96.25
397.57	110.59
397.78	83.97
397.989	86.01
398.198	215.04
398.407	-61.44
398.617	86.01
398.826	22.53
399.035	36.86
399.244	129.02
399.453	116.73
399.663	26.62
399.872	188.41
400.081	-59.39
400.29	190.46
400.499	-28.67
400.708	174.08
400.917	133.12
401.127	45.06
401.336	-2.05
401.545	116.73
401.754	190.46
401.963	149.5
402.172	63.49
402.381	-22.53
402.59	30.72
402.799	108.54
403.008	126.97
403.217	106.49
403.426	94.21
403.635	22.53
403.844	45.06
404.053	38.91
404.262	81.92
404.471	131.07
404.68	67.58
404.888	22.53
405.097	-22.53
405.306	83.97
405.515	153.6
405.724	77.82
405.933	94.21
406.142	73.73
406.35	176.13
406.559	20.48
406.768	77.82
406.977	157.69
407.185	61.44
407.394	139.26
407.603	-34.82
407.812	73.73
408.02	92.16
408.229	75.77
408.438	106.49
408.646	-22.53
408.855	2.05
409.064	86.01
409.272	34.82
409.481	98.3
409.69	22.53
409.898	18.43
410.107	20.48
410.315	36.86
410.524	14.34
410.733	65.54
410.941	34.82
411.15	180.22
411.358	32.77
411.567	172.03
411.775	108.54
411.984	88.06
412.192	79.87
412.401	32.77
412.609	163.84
412.818	120.83
413.026	118.78
413.234	-4.1
413.443	61.44
413.651	34.82
413.86	53.25
414.068	180.22
414.276	198.65
414.485	24.58
414.693	167.93
414.901	149.5
415.11	143.36
415.318	110.59
415.526	12.29
415.734	143.36
415.943	22.53
416.151	79.87
416.359	45.06
416.567	131.07
416.776	81.92
416.984	131.07
417.192	182.27
417.4	-51.2
417.608	4.1
417.817	0
418.025	114.69
418.233	161.79
418.441	-8.19
418.649	22.53
418.857	43.01
419.065	135.17
419.273	49.15
419.481	94.21
419.689	53.25
419.897	86.01
420.105	30.72
420.313	102.4
420.521	186.37
420.729	208.89
420.937	8.19
421.145	45.06
421.353	143.36
421.561	172.03
421.769	131.07
421.977	24.58
422.185	92.16
422.393	98.3
422.601	88.06
422.809	36.86
423.017	75.77
423.224	86.01
423.432	116.73
423.64	102.4
423.848	120.83
424.056	77.82
424.263	139.26
424.471	83.97
424.679	219.13
424.887	8.19
425.094	141.31
425.302	114.69
425.51	-24.58
425.718	184.32
425.925	163.84
426.133	22.53
426.341	176.13
426.548	124.93
426.756	94.21
426.964	65.54
427.171	38.91
427.379	100.35
427.586	106.49
427.794	96.25
428.001	204.8
428.209	-4.1
428.417	126.97
428.624	26.62
428.832	133.12
429.039	67.58
429.247	131.07
429.454	143.36
429.662	227.32
429.869	129.02
430.076	147.45
430.284	159.74
430.491	196.61
430.699	124.93
430.906	188.41
431.114	151.55
431.321	112.64
431.528	157.69
431.736	247.8
431.943	172.03
432.15	126.97
432.358	188.41
432.565	217.08
432.772	-4.1
432.979	235.52
433.187	143.36
433.394	208.89
433.601	131.07
433.808	292.86
434.016	215.04
434.223	217.08
434.43	292.86
434.637	286.72
434.844	204.8
435.052	278.52
435.259	311.29
435.466	239.61
435.673	307.2
435.88	198.65
436.087	301.05
436.294	299
436.501	258.04
436.708	284.67
436.915	282.62
437.122	393.21
437.329	245.76
437.537	239.61
437.743	290.81
437.95	440.31
438.157	397.31
438.364	350.2
438.571	419.83
438.778	481.27
438.985	430.07
439.192	491.51
439.399	417.79
439.606	389.11
439.813	479.22
440.02	571.38
440.227	655.35
440.433	516.09
440.64	522.23
440.847	468.98
441.054	540.66
441.261	688.12
441.467	636.92
441.674	561.14
441.881	581.62
442.088	544.76
442.294	753.65
442.501	784.37
442.708	778.23
442.914	858.1
443.121	786.42
443.328	765.94
443.534	956.4
443.741	804.85
443.948	802.8
444.154	942.07
444.361	1112.05
444.568	921.59
444.774	970.74
444.981	913.39
445.187	1062.9
445.394	1050.61
445.6	1093.62
445.807	1316.84
446.013	1257.45
446.22	1091.57
446.426	1339.37
446.633	1445.87
446.839	1484.78
447.046	1345.52
447.252	1535.98
447.459	1644.52
447.665	1587.18
447.871	1728.49
448.078	1880.04
448.284	1820.64
448.491	1871.84
448.697	1990.63
448.903	2084.83
449.11	2142.18
449.316	2070.5
449.522	2258.91
449.728	2373.6
449.935	2353.12
450.141	2394.08
450.347	2658.26
450.553	2557.91
450.76	2658.26
450.966	2904.02
451.172	2818.01
451.378	2918.36
451.584	2990.03
451.791	3317.71
451.997	3252.17
452.203	3344.33
452.409	3710.92
452.615	3704.78
452.821	3690.44
453.027	3762.12
453.233	4130.75
453.44	3977.16
453.646	4319.17
453.852	4343.74
454.058	4351.93
454.264	4669.37
454.47	5173.17
454.676	5089.2
454.882	5578.67
455.088	5279.66
455.294	5543.85
455.5	5996.45
455.705	6180.77
455.911	6125.47
456.117	6385.57
456.323	6733.72
456.529	6694.81
456.735	7153.55
456.941	7282.58
457.147	7585.68
457.352	7858.06
457.558	8081.28
457.764	8494.97
457.97	8652.67
458.176	9172.85
458.381	9664.36
458.587	9842.54
458.793	10133.35
458.999	10059.62
459.204	11568.98
459.41	11941.71
459.616	11843.4
459.821	12549.95
460.027	13131.58
460.233	13449.01
460.438	13496.11
460.644	14393.12
460.85	14483.24
461.055	15042.33
461.261	15683.34
461.466	15439.64
461.672	16002.83
461.878	17946.35
462.083	17479.41
462.289	17692.4
462.494	18677.47
462.7	18626.28
462.905	19115.74
463.111	20440.78
463.316	21530.3
463.522	21851.83
463.727	22359.72
463.932	23316.12
464.138	24372.88
464.343	24979.07
464.549	25417.34
464.754	26787.43
464.959	27936.34
465.165	28337.74
465.37	27848.28
465.575	27930.2
465.781	29894.2
465.986	30879.27
466.191	30047.8
466.397	30848.55
466.602	30293.55
466.807	31880.73
467.012	32204.31
467.218	32626.19
467.423	32978.44
467.628	33783.29
467.833	35354.08
468.038	34495.99
468.244	33785.34
468.449	35735.01
468.654	35046.89
