Data from USB4F104151__60__09-28-57-501.txt Node

Date: Wed Feb 26 09:28:57 EST 2025
User: louis
Spectrometer: USB4F10415
Trigger mode: 4
Integration Time (sec): 1.000000E-1
Scans to average: 1
Electric dark correction enabled: true
Nonlinearity correction enabled: false
Boxcar width: 0
XAxis mode: Wavelengths
Number of Pixels in Spectrum: 3648
>>>>>Begin Spectral Data<<<<<
178.204	-351.74
178.424	-351.74
178.644	-351.74
178.864	-396.79
179.084	-339.45
179.304	-11.78
179.524	-22.02
179.744	80.38
179.964	4.61
180.184	70.14
180.404	27.14
180.624	0.51
180.844	-7.68
181.064	-110.08
181.283	82.43
181.503	-65.02
181.723	-48.64
181.943	-38.4
182.163	143.87
182.383	33.28
182.602	57.86
182.822	115.2
183.042	31.23
183.262	-50.69
183.482	43.52
183.701	-54.78
183.921	49.66
184.141	-95.74
184.361	29.18
184.58	64
184.8	90.62
185.02	59.9
185.239	96.77
185.459	33.28
185.679	41.47
185.898	-19.97
186.118	35.33
186.338	-3.58
186.557	182.78
186.777	-52.74
186.997	-28.16
187.216	92.67
187.436	119.29
187.655	25.09
187.875	100.86
188.095	-7.68
188.314	123.39
188.534	195.07
188.753	-28.16
188.973	150.01
189.192	127.49
189.412	94.72
189.631	47.62
189.851	78.33
190.07	135.68
190.29	-9.73
190.509	-71.17
190.729	47.62
190.948	78.33
191.168	184.83
191.387	37.38
191.607	37.38
191.826	70.14
192.045	20.99
192.265	70.14
192.484	16.9
192.704	-40.45
192.923	-54.78
193.142	66.05
193.362	154.11
193.581	76.29
193.8	76.29
194.02	98.81
194.239	139.77
194.458	6.66
194.678	-15.87
194.897	92.67
195.116	39.42
195.335	25.09
195.555	68.09
195.774	27.14
195.993	102.91
196.212	12.8
196.432	-62.98
196.651	-15.87
196.87	53.76
197.089	147.97
197.308	90.62
197.528	82.43
197.747	-28.16
197.966	-15.87
198.185	180.73
198.404	20.99
198.623	92.67
198.842	72.19
199.062	39.42
199.281	137.73
199.5	4.61
199.719	119.29
199.938	94.72
200.157	20.99
200.376	88.57
200.595	74.24
200.814	70.14
201.033	45.57
201.252	98.81
201.471	41.47
201.69	133.63
201.909	109.05
202.128	47.62
202.347	47.62
202.566	8.7
202.785	-44.54
203.004	6.66
203.223	248.32
203.442	70.14
203.661	-11.78
203.879	37.38
204.098	107.01
204.317	35.33
204.536	104.96
204.755	86.53
204.974	133.63
205.193	-3.58
205.411	147.97
205.63	53.76
205.849	41.47
206.068	-24.06
206.287	47.62
206.505	98.81
206.724	45.57
206.943	6.66
207.162	20.99
207.381	70.14
207.599	29.18
207.818	8.7
208.037	20.99
208.255	8.7
208.474	43.52
208.693	94.72
208.911	33.28
209.13	90.62
209.349	43.52
209.567	76.29
209.786	141.82
210.005	135.68
210.223	74.24
210.442	-17.92
210.661	68.09
210.879	70.14
211.098	115.2
211.316	18.94
211.535	-1.54
211.753	49.66
211.972	41.47
212.191	0.51
212.409	-36.35
212.628	37.38
212.846	41.47
213.065	100.86
213.283	12.8
213.502	-22.02
213.72	49.66
213.938	49.66
214.157	8.7
214.375	90.62
214.594	-7.68
214.812	78.33
215.031	41.47
215.249	86.53
215.467	70.14
215.686	66.05
215.904	156.16
216.122	53.76
216.341	94.72
216.559	37.38
216.778	25.09
216.996	27.14
217.214	39.42
217.432	45.57
217.651	-28.16
217.869	45.57
218.087	84.48
218.306	-60.93
218.524	78.33
218.742	35.33
218.96	102.91
219.179	-22.02
219.397	6.66
219.615	205.31
219.833	137.73
220.051	-38.4
220.27	131.58
220.488	125.44
220.706	-7.68
220.924	57.86
221.142	-40.45
221.36	43.52
221.578	100.86
221.796	16.9
222.015	4.61
222.233	55.81
222.451	84.48
222.669	-13.82
222.887	80.38
223.105	23.04
223.323	-19.97
223.541	16.9
223.759	12.8
223.977	25.09
224.195	147.97
224.413	86.53
224.631	-60.93
224.849	64
225.067	223.74
225.285	27.14
225.503	-9.73
225.721	-38.4
225.939	23.04
226.157	37.38
226.375	184.83
226.592	-58.88
226.81	-11.78
227.028	53.76
227.246	129.53
227.464	61.95
227.682	-3.58
227.9	49.66
228.117	96.77
228.335	31.23
228.553	45.57
228.771	25.09
228.989	98.81
229.206	-3.58
229.424	57.86
229.642	57.86
229.86	-3.58
230.077	188.93
230.295	27.14
230.513	111.1
230.731	64
230.948	27.14
231.166	139.77
231.384	-11.78
231.601	-40.45
231.819	100.86
232.037	-83.45
232.254	-50.69
232.472	18.94
232.689	72.19
232.907	111.1
233.125	-7.68
233.342	37.38
233.56	-26.11
233.777	14.85
233.995	55.81
234.213	61.95
234.43	-3.58
234.648	8.7
234.865	23.04
235.083	53.76
235.3	59.9
235.518	102.91
235.735	123.39
235.953	4.61
236.17	102.91
236.388	70.14
236.605	37.38
236.822	123.39
237.04	72.19
237.257	80.38
237.475	-54.78
237.692	68.09
237.909	117.25
238.127	-62.98
238.344	53.76
238.562	113.15
238.779	-52.74
238.996	-56.83
239.214	37.38
239.431	115.2
239.648	35.33
239.865	51.71
240.083	66.05
240.3	-40.45
240.517	66.05
240.735	33.28
240.952	78.33
241.169	74.24
241.386	45.57
241.603	84.48
241.821	41.47
242.038	61.95
242.255	135.68
242.472	-5.63
242.689	78.33
242.907	82.43
243.124	57.86
243.341	20.99
243.558	29.18
243.775	-67.07
243.992	-79.36
244.209	115.2
244.426	180.73
244.643	14.85
244.86	20.99
245.078	125.44
245.295	117.25
245.512	90.62
245.729	8.7
245.946	78.33
246.163	18.94
246.38	-5.63
246.597	57.86
246.814	25.09
247.031	37.38
247.248	64
247.464	119.29
247.681	-7.68
247.898	57.86
248.115	27.14
248.332	16.9
248.549	51.71
248.766	68.09
248.983	49.66
249.2	37.38
249.417	25.09
249.633	-44.54
249.85	29.18
250.067	-42.5
250.284	80.38
250.501	25.09
250.717	80.38
250.934	-73.21
251.151	-58.88
251.368	51.71
251.585	45.57
251.801	98.81
252.018	-19.97
252.235	107.01
252.451	8.7
252.668	18.94
252.885	41.47
253.102	90.62
253.318	-3.58
253.535	47.62
253.752	-77.31
253.968	-54.78
254.185	-71.17
254.401	88.57
254.618	68.09
254.835	-32.26
255.051	78.33
255.268	152.06
255.484	74.24
255.701	4.61
255.917	109.05
256.134	2.56
256.351	-5.63
256.567	-24.06
256.784	20.99
257	-42.5
257.217	74.24
257.433	66.05
257.65	-40.45
257.866	113.15
258.082	-30.21
258.299	-11.78
258.515	88.57
258.732	45.57
258.948	10.75
259.165	35.33
259.381	20.99
259.597	133.63
259.814	20.99
260.03	33.28
260.246	84.48
260.463	86.53
260.679	72.19
260.895	-19.97
261.112	86.53
261.328	135.68
261.544	10.75
261.761	182.78
261.977	23.04
262.193	-60.93
262.409	43.52
262.626	4.61
262.842	31.23
263.058	-32.26
263.274	80.38
263.49	100.86
263.707	45.57
263.923	145.92
264.139	-77.31
264.355	16.9
264.571	117.25
264.787	61.95
265.004	68.09
265.22	18.94
265.436	10.75
265.652	-52.74
265.868	127.49
266.084	-48.64
266.3	47.62
266.516	70.14
266.732	41.47
266.948	37.38
267.164	10.75
267.38	35.33
267.596	35.33
267.812	180.73
268.028	20.99
268.244	-67.07
268.46	16.9
268.676	27.14
268.892	39.42
269.108	-5.63
269.324	49.66
269.54	-73.21
269.756	78.33
269.972	20.99
270.188	49.66
270.403	-34.3
270.619	84.48
270.835	123.39
271.051	33.28
271.267	-34.3
271.483	115.2
271.698	70.14
271.914	43.52
272.13	33.28
272.346	29.18
272.562	18.94
272.777	92.67
272.993	37.38
273.209	4.61
273.425	84.48
273.64	-83.45
273.856	74.24
274.072	-3.58
274.287	35.33
274.503	86.53
274.719	66.05
274.934	94.72
275.15	-67.07
275.366	61.95
275.581	-28.16
275.797	-54.78
276.012	-46.59
276.228	10.75
276.444	-3.58
276.659	133.63
276.875	-60.93
277.09	16.9
277.306	-42.5
277.521	188.93
277.737	-62.98
277.952	27.14
278.168	57.86
278.383	49.66
278.599	78.33
278.814	66.05
279.03	0.51
279.245	104.96
279.461	76.29
279.676	66.05
279.892	-22.02
280.107	12.8
280.322	-9.73
280.538	86.53
280.753	-30.21
280.969	-9.73
281.184	12.8
281.399	158.21
281.615	20.99
281.83	41.47
282.045	-3.58
282.26	25.09
282.476	23.04
282.691	53.76
282.906	35.33
283.122	55.81
283.337	-32.26
283.552	119.29
283.767	-17.92
283.983	90.62
284.198	-3.58
284.413	152.06
284.628	-5.63
284.843	14.85
285.058	51.71
285.274	23.04
285.489	-36.35
285.704	141.82
285.919	-46.59
286.134	-77.31
286.349	111.1
286.564	-36.35
286.779	94.72
286.995	-24.06
287.21	-50.69
287.425	35.33
287.64	10.75
287.855	8.7
288.07	-114.17
288.285	111.1
288.5	57.86
288.715	86.53
288.93	4.61
289.145	-48.64
289.36	84.48
289.575	123.39
289.79	127.49
290.004	18.94
290.219	70.14
290.434	98.81
290.649	-3.58
290.864	29.18
291.079	4.61
291.294	-19.97
291.509	37.38
291.724	61.95
291.938	-73.21
292.153	88.57
292.368	-34.3
292.583	16.9
292.798	41.47
293.012	-11.78
293.227	41.47
293.442	-28.16
293.657	115.2
293.871	104.96
294.086	47.62
294.301	139.77
294.516	59.9
294.73	0.51
294.945	-60.93
295.16	31.23
295.374	78.33
295.589	129.53
295.804	16.9
296.018	-3.58
296.233	53.76
296.447	-79.36
296.662	-30.21
296.877	33.28
297.091	-11.78
297.306	-38.4
297.52	12.8
297.735	31.23
297.949	37.38
298.164	74.24
298.378	-36.35
298.593	14.85
298.807	-3.58
299.022	37.38
299.236	125.44
299.451	8.7
299.665	-5.63
299.88	-19.97
300.094	43.52
300.309	45.57
300.523	25.09
300.737	70.14
300.952	37.38
301.166	4.61
301.381	-28.16
301.595	-36.35
301.809	12.8
302.024	-36.35
302.238	-40.45
302.452	180.73
302.667	16.9
302.881	76.29
303.095	92.67
303.309	37.38
303.524	4.61
303.738	66.05
303.952	-36.35
304.166	111.1
304.381	-118.27
304.595	135.68
304.809	-19.97
305.023	-30.21
305.237	8.7
305.452	-32.26
305.666	0.51
305.88	98.81
306.094	160.25
306.308	45.57
306.522	90.62
306.736	68.09
306.95	94.72
307.164	-38.4
307.379	51.71
307.593	111.1
307.807	121.34
308.021	61.95
308.235	139.77
308.449	-81.41
308.663	47.62
308.877	139.77
309.091	94.72
309.305	129.53
309.519	-81.41
309.733	70.14
309.947	-15.87
310.161	45.57
310.374	178.69
310.588	74.24
310.802	-36.35
311.016	-7.68
311.23	33.28
311.444	-19.97
311.658	70.14
311.872	119.29
312.085	135.68
312.299	102.91
312.513	90.62
312.727	-7.68
312.941	-15.87
313.154	-17.92
313.368	70.14
313.582	29.18
313.796	27.14
314.009	57.86
314.223	160.25
314.437	29.18
314.651	39.42
314.864	-11.78
315.078	0.51
315.292	-60.93
315.505	53.76
315.719	33.28
315.933	123.39
316.146	-17.92
316.36	-44.54
316.573	78.33
316.787	37.38
317.001	76.29
317.214	-60.93
317.428	84.48
317.641	-60.93
317.855	29.18
318.068	-3.58
318.282	43.52
318.495	139.77
318.709	59.9
318.922	88.57
319.136	121.34
319.349	78.33
319.563	-19.97
319.776	68.09
319.99	-120.32
320.203	111.1
320.417	51.71
320.63	61.95
320.843	111.1
321.057	66.05
321.27	35.33
321.483	74.24
321.697	160.25
321.91	25.09
322.124	41.47
322.337	35.33
322.55	76.29
322.763	53.76
322.977	8.7
323.19	29.18
323.403	78.33
323.617	43.52
323.83	109.05
324.043	8.7
324.256	96.77
324.469	-81.41
324.683	119.29
324.896	51.71
325.109	6.66
325.322	-11.78
325.535	68.09
325.748	64
325.962	47.62
326.175	37.38
326.388	20.99
326.601	102.91
326.814	6.66
327.027	-19.97
327.24	102.91
327.453	-46.59
327.666	70.14
327.879	107.01
328.092	45.57
328.305	76.29
328.518	-19.97
328.731	-50.69
328.944	51.71
329.157	70.14
329.37	43.52
329.583	147.97
329.796	82.43
330.009	-54.78
330.222	76.29
330.435	133.63
330.648	51.71
330.861	4.61
331.073	100.86
331.286	107.01
331.499	45.57
331.712	-93.69
331.925	-5.63
332.138	12.8
332.35	156.16
332.563	-17.92
332.776	111.1
332.989	8.7
333.202	45.57
333.414	31.23
333.627	-19.97
333.84	20.99
334.053	20.99
334.265	-44.54
334.478	-30.21
334.691	-95.74
334.903	64
335.116	-26.11
335.329	61.95
335.541	119.29
335.754	117.25
335.966	-19.97
336.179	80.38
336.392	-38.4
336.604	61.95
336.817	45.57
337.029	70.14
337.242	39.42
337.454	27.14
337.667	4.61
337.88	162.3
338.092	39.42
338.305	0.51
338.517	18.94
338.729	82.43
338.942	102.91
339.154	-19.97
339.367	-101.89
339.579	143.87
339.792	43.52
340.004	-3.58
340.217	-32.26
340.429	68.09
340.641	-46.59
340.854	-87.55
341.066	72.19
341.278	82.43
341.491	244.22
341.703	25.09
341.915	-15.87
342.128	131.58
342.34	90.62
342.552	-24.06
342.764	14.85
342.977	8.7
343.189	53.76
343.401	90.62
343.613	2.56
343.826	-30.21
344.038	-13.82
344.25	70.14
344.462	-60.93
344.674	39.42
344.886	-28.16
345.099	76.29
345.311	66.05
345.523	-93.69
345.735	47.62
345.947	55.81
346.159	20.99
346.371	-9.73
346.583	-3.58
346.795	143.87
347.007	20.99
347.219	-1.54
347.431	-32.26
347.643	111.1
347.855	20.99
348.067	119.29
348.279	-44.54
348.491	6.66
348.703	127.49
348.915	51.71
349.127	-89.6
349.339	66.05
349.551	25.09
349.763	41.47
349.975	57.86
350.187	45.57
350.399	133.63
350.61	88.57
350.822	53.76
351.034	61.95
351.246	27.14
351.458	57.86
351.669	86.53
351.881	102.91
352.093	53.76
352.305	107.01
352.517	49.66
352.728	78.33
352.94	29.18
353.152	66.05
353.363	-93.69
353.575	143.87
353.787	66.05
353.999	86.53
354.21	109.05
354.422	-36.35
354.633	-50.69
354.845	-44.54
355.057	37.38
355.268	49.66
355.48	66.05
355.692	-67.07
355.903	-11.78
356.115	-44.54
356.326	-48.64
356.538	107.01
356.749	61.95
356.961	129.53
357.172	-11.78
357.384	14.85
357.595	145.92
357.807	-11.78
358.018	-11.78
358.23	35.33
358.441	131.58
358.653	78.33
358.864	-58.88
359.075	-46.59
359.287	57.86
359.498	70.14
359.709	76.29
359.921	0.51
360.132	25.09
360.344	6.66
360.555	-50.69
360.766	47.62
360.977	35.33
361.189	-3.58
361.4	-13.82
361.611	121.34
361.823	37.38
362.034	57.86
362.245	-28.16
362.456	37.38
362.667	61.95
362.879	12.8
363.09	64
363.301	74.24
363.512	10.75
363.723	8.7
363.935	25.09
364.146	0.51
364.357	53.76
364.568	47.62
364.779	-58.88
364.99	117.25
365.201	59.9
365.412	121.34
365.623	-38.4
365.834	90.62
366.045	107.01
366.256	90.62
366.467	16.9
366.678	76.29
366.889	76.29
367.1	-11.78
367.311	115.2
367.522	78.33
367.733	94.72
367.944	72.19
368.155	37.38
368.366	59.9
368.577	117.25
368.788	107.01
368.999	55.81
369.209	-36.35
369.42	156.16
369.631	162.3
369.842	-22.02
370.053	37.38
370.264	78.33
370.474	-32.26
370.685	78.33
370.896	37.38
371.107	51.71
371.317	137.73
371.528	-46.59
371.739	70.14
371.95	102.91
372.16	119.29
372.371	-3.58
372.582	117.25
372.792	53.76
373.003	41.47
373.214	45.57
373.424	23.04
373.635	-36.35
373.846	92.67
374.056	-32.26
374.267	25.09
374.477	59.9
374.688	-13.82
374.898	33.28
375.109	23.04
375.319	55.81
375.53	113.15
375.74	115.2
375.951	-30.21
376.161	20.99
376.372	162.3
376.582	-50.69
376.793	35.33
377.003	49.66
377.214	-17.92
377.424	61.95
377.635	-9.73
377.845	25.09
378.055	74.24
378.266	-46.59
378.476	-15.87
378.686	61.95
378.897	86.53
379.107	-19.97
379.317	12.8
379.528	43.52
379.738	61.95
379.948	-46.59
380.158	107.01
380.369	29.18
380.579	107.01
380.789	53.76
380.999	102.91
381.21	-3.58
381.42	121.34
381.63	23.04
381.84	-19.97
382.05	61.95
382.261	109.05
382.471	74.24
382.681	8.7
382.891	70.14
383.101	29.18
383.311	-105.98
383.521	-7.68
383.731	49.66
383.941	66.05
384.151	-5.63
384.361	45.57
384.571	20.99
384.781	78.33
384.991	129.53
385.201	158.21
385.411	174.59
385.621	66.05
385.831	47.62
386.041	14.85
386.251	86.53
386.461	141.82
386.671	12.8
386.881	98.81
387.091	35.33
387.301	25.09
387.511	107.01
387.72	86.53
387.93	139.77
388.14	-19.97
388.35	49.66
388.56	100.86
388.769	51.71
388.979	-17.92
389.189	20.99
389.399	49.66
389.609	45.57
389.818	37.38
390.028	68.09
390.238	98.81
390.447	12.8
390.657	66.05
390.867	12.8
391.076	-44.54
391.286	18.94
391.496	12.8
391.705	59.9
391.915	-7.68
392.125	35.33
392.334	0.51
392.544	186.88
392.753	-11.78
392.963	-19.97
393.172	51.71
393.382	18.94
393.591	160.25
393.801	70.14
394.01	172.54
394.22	100.86
394.429	53.76
394.639	25.09
394.848	152.06
395.058	53.76
395.267	51.71
395.477	37.38
395.686	45.57
395.895	207.36
396.105	193.02
396.314	82.43
396.524	-7.68
396.733	31.23
396.942	111.1
397.152	94.72
397.361	100.86
397.57	12.8
397.78	-19.97
397.989	76.29
398.198	207.36
398.407	37.38
398.617	-17.92
398.826	51.71
399.035	49.66
399.244	133.63
399.453	-19.97
399.663	102.91
399.872	64
400.081	-3.58
400.29	143.87
400.499	-52.74
400.708	109.05
400.917	47.62
401.127	64
401.336	-36.35
401.545	168.45
401.754	166.4
401.963	78.33
402.172	-9.73
402.381	-60.93
402.59	29.18
402.799	20.99
403.008	41.47
403.217	82.43
403.426	18.94
403.635	-11.78
403.844	51.71
404.053	35.33
404.262	49.66
404.471	193.02
404.68	33.28
404.888	-15.87
405.097	-11.78
405.306	68.09
405.515	39.42
405.724	-26.11
405.933	102.91
406.142	51.71
406.35	20.99
406.559	61.95
406.768	55.81
406.977	61.95
407.185	86.53
407.394	72.19
407.603	-153.09
407.812	45.57
408.02	84.48
408.229	117.25
408.438	59.9
408.646	-11.78
408.855	72.19
409.064	-22.02
409.272	18.94
409.481	10.75
409.69	-95.74
409.898	-7.68
410.107	68.09
410.315	96.77
410.524	4.61
410.733	121.34
410.941	90.62
411.15	84.48
411.358	78.33
411.567	96.77
411.775	84.48
411.984	53.76
412.192	92.67
412.401	86.53
412.609	170.49
412.818	102.91
413.026	104.96
413.234	0.51
413.443	8.7
413.651	53.76
413.86	-22.02
414.068	98.81
414.276	107.01
414.485	-79.36
414.693	90.62
414.901	107.01
415.11	68.09
415.318	41.47
415.526	37.38
415.734	111.1
415.943	12.8
416.151	107.01
416.359	16.9
416.567	66.05
416.776	74.24
416.984	133.63
417.192	215.55
417.4	-24.06
417.608	-19.97
417.817	-60.93
418.025	78.33
418.233	115.2
418.441	-5.63
418.649	-15.87
418.857	84.48
419.065	131.58
419.273	-19.97
419.481	39.42
419.689	-9.73
419.897	-22.02
420.105	-32.26
420.313	88.57
420.521	129.53
420.729	86.53
420.937	25.09
421.145	-15.87
421.353	70.14
421.561	129.53
421.769	70.14
421.977	-1.54
422.185	25.09
422.393	39.42
422.601	53.76
422.809	59.9
423.017	61.95
423.224	12.8
423.432	164.35
423.64	12.8
423.848	53.76
424.056	-24.06
424.263	70.14
424.471	78.33
424.679	152.06
424.887	-7.68
425.094	59.9
425.302	70.14
425.51	29.18
425.718	111.1
425.925	61.95
426.133	-32.26
426.341	152.06
426.548	98.81
426.756	-5.63
426.964	29.18
427.171	-56.83
427.379	43.52
427.586	160.25
427.794	43.52
428.001	107.01
428.209	25.09
428.417	201.21
428.624	94.72
428.832	64
429.039	74.24
429.247	37.38
429.454	43.52
429.662	162.3
429.869	225.79
430.076	133.63
430.284	78.33
430.491	190.97
430.699	90.62
430.906	162.3
431.114	107.01
431.321	147.97
431.528	-3.58
431.736	90.62
431.943	100.86
432.15	70.14
432.358	72.19
432.565	158.21
432.772	-40.45
432.979	180.73
433.187	51.71
433.394	174.59
433.601	53.76
433.808	180.73
434.016	190.97
434.223	180.73
434.43	147.97
434.637	188.93
434.844	186.88
435.052	164.35
435.259	184.83
435.466	223.74
435.673	133.63
435.88	197.12
436.087	244.22
436.294	221.69
436.501	283.13
436.708	160.25
436.915	258.56
437.122	250.36
437.329	123.39
437.537	229.88
437.743	127.49
437.95	350.71
438.157	332.28
438.364	166.4
438.571	256.51
438.778	379.39
438.985	289.28
439.192	311.8
439.399	297.47
439.606	356.86
439.813	383.48
440.02	422.39
440.227	393.72
440.433	373.24
440.64	496.12
440.847	281.08
441.054	473.59
441.261	557.56
441.467	457.21
441.674	387.58
441.881	487.93
442.088	440.83
442.294	498.17
442.501	588.28
442.708	569.85
442.914	631.29
443.121	619
443.328	565.75
443.534	664.05
443.741	676.34
443.948	610.81
444.154	602.61
444.361	766.45
444.568	702.97
444.774	762.36
444.981	668.15
445.187	889.33
445.394	838.13
445.6	840.18
445.807	944.63
446.013	922.1
446.22	852.47
446.426	1049.07
446.633	971.25
446.839	1212.91
447.046	997.87
447.252	1194.48
447.459	1184.24
447.665	1309.16
447.871	1436.14
448.078	1438.19
448.284	1298.92
448.491	1450.47
448.697	1509.86
448.903	1563.11
449.11	1597.93
449.316	1556.97
449.522	1669.61
449.728	1737.19
449.935	1837.54
450.141	1823.2
450.347	2009.57
450.553	1954.27
450.76	1950.18
450.966	2206.17
451.172	2114.02
451.378	2073.06
451.584	2277.85
451.791	2513.37
451.997	2488.79
452.203	2609.62
452.409	2662.87
452.615	2841.04
452.821	2675.16
453.027	2795.99
453.233	3168.72
453.44	2988.5
453.646	3105.23
453.852	3293.65
454.058	3383.76
454.264	3563.98
454.47	3721.67
454.676	3731.91
454.882	4098.5
455.088	3961.28
455.294	4262.33
455.5	4307.39
455.705	4692.41
455.911	4661.69
456.117	4739.51
456.323	4876.73
456.529	4942.26
456.735	5351.85
456.941	5566.89
457.147	5767.59
457.352	5886.37
457.558	6136.23
457.764	6275.49
457.97	6617.5
458.176	6820.25
458.381	7252.37
458.587	7383.44
458.793	7594.38
458.999	7661.96
459.204	8528.25
459.41	8823.16
459.616	8540.54
459.821	9304.43
460.027	9589.1
460.233	10039.65
460.438	10203.49
460.644	10672.48
460.85	10879.32
461.055	11329.88
461.261	11862.35
461.466	11583.82
461.672	11919.69
461.878	13158.71
462.083	13117.75
462.289	13087.03
462.494	14074.15
462.7	13873.45
462.905	14203.18
463.111	15560.98
463.316	15900.94
463.522	16124.17
463.727	16734.46
463.932	17424.63
464.138	18102.51
464.343	18833.63
464.549	18696.42
464.754	20115.66
464.959	20478.15
465.165	21010.62
465.37	20902.08
465.575	21070.01
465.781	22345.9
465.986	22939.81
466.191	22634.66
466.397	22700.2
466.602	22302.89
466.807	23685.27
467.012	24238.22
467.218	24434.83
467.423	24348.81
467.628	25065.6
467.833	26339.44
468.038	26036.34
468.244	25682.04
468.449	26837.09
468.654	26187.89
468.859	26222.7
469.064	26187.89
469.269	25542.78
469.474	25657.46
