Data from USB4F104151__0__10-21-52-475.txt Node

Date: Wed Feb 26 10:21:52 EST 2025
User: louis
Spectrometer: USB4F10415
Trigger mode: 4
Integration Time (sec): 1.000000E-1
Scans to average: 1
Electric dark correction enabled: true
Nonlinearity correction enabled: false
Boxcar width: 0
XAxis mode: Wavelengths
Number of Pixels in Spectrum: 3648
>>>>>Begin Spectral Data<<<<<
178.204	-418.98
178.424	-418.98
178.644	-418.98
178.864	-378.02
179.084	-324.77
179.304	7
179.524	0.85
179.744	-58.54
179.964	52.05
180.184	-17.58
180.404	-33.96
180.624	27.48
180.844	-27.82
181.064	-7.34
181.283	78.68
181.503	-7.34
181.723	-13.48
181.943	-56.49
182.163	138.07
182.383	-38.06
182.602	72.53
182.822	105.3
183.042	-11.43
183.262	-29.87
183.482	7
183.701	54.1
183.921	-1.19
184.141	-48.3
184.361	109.4
184.58	86.87
184.8	78.68
185.02	-5.29
185.239	113.49
185.459	93.01
185.679	68.44
185.898	33.62
186.118	50
186.338	136.02
186.557	101.2
186.777	-7.34
186.997	41.81
187.216	70.48
187.436	181.07
187.655	4.95
187.875	107.35
188.095	70.48
188.314	203.6
188.534	127.83
188.753	-29.87
188.973	152.4
189.192	117.59
189.412	-13.48
189.631	66.39
189.851	29.52
190.07	148.31
190.29	-7.34
190.509	-60.59
190.729	72.53
190.948	183.12
191.168	349.01
191.387	54.1
191.607	9.05
191.826	78.68
192.045	58.2
192.265	23.38
192.484	121.68
192.704	11.09
192.923	21.33
193.142	226.13
193.362	39.76
193.581	176.98
193.8	-13.48
194.02	62.29
194.239	35.67
194.458	162.64
194.678	4.95
194.897	9.05
195.116	88.92
195.335	-56.49
195.555	13.14
195.774	-15.53
195.993	99.16
196.212	0.85
196.432	60.24
196.651	0.85
196.87	70.48
197.089	250.71
197.308	35.67
197.528	88.92
197.747	-23.72
197.966	64.34
198.185	119.64
198.404	21.33
198.623	162.64
198.842	76.63
199.062	140.12
199.281	99.16
199.5	43.86
199.719	50
199.938	131.92
200.157	99.16
200.376	133.97
200.595	68.44
200.814	66.39
201.033	9.05
201.252	166.74
201.471	82.77
201.69	136.02
201.909	39.76
202.128	58.2
202.347	123.73
202.566	39.76
202.785	-97.45
203.004	-19.63
203.223	318.29
203.442	35.67
203.661	-85.16
203.879	119.64
204.098	238.42
204.317	-38.06
204.536	109.4
204.755	70.48
204.974	107.35
205.193	37.72
205.411	191.31
205.63	97.11
205.849	82.77
206.068	74.58
206.287	80.72
206.505	109.4
206.724	-23.72
206.943	43.86
207.162	-44.2
207.381	107.35
207.599	88.92
207.818	-48.3
208.037	-11.43
208.255	111.44
208.474	9.05
208.693	103.25
208.911	-7.34
209.13	93.01
209.349	27.48
209.567	78.68
209.786	109.4
210.005	111.44
210.223	64.34
210.442	-76.97
210.661	88.92
210.879	-66.73
211.098	-15.53
211.316	107.35
211.535	54.1
211.753	64.34
211.972	43.86
212.191	93.01
212.409	82.77
212.628	107.35
212.846	-58.54
213.065	43.86
213.283	93.01
213.502	33.62
213.72	54.1
213.938	70.48
214.157	62.29
214.375	68.44
214.594	29.52
214.812	60.24
215.031	101.2
215.249	50
215.467	68.44
215.686	-5.29
215.904	33.62
216.122	121.68
216.341	111.44
216.559	193.36
216.778	107.35
216.996	185.17
217.214	-17.58
217.432	-44.2
217.651	37.72
217.869	50
218.087	117.59
218.306	31.57
218.524	93.01
218.742	-3.24
218.96	129.88
219.179	25.43
219.397	68.44
219.615	160.59
219.833	176.98
220.051	-19.63
220.27	76.63
220.488	41.81
220.706	33.62
220.924	2.9
221.142	15.19
221.36	93.01
221.578	80.72
221.796	37.72
222.015	35.67
222.233	23.38
222.451	127.83
222.669	-13.48
222.887	68.44
223.105	2.9
223.323	62.29
223.541	-17.58
223.759	115.54
223.977	76.63
224.195	117.59
224.413	103.25
224.631	60.24
224.849	125.78
225.067	162.64
225.285	-38.06
225.503	-25.77
225.721	-40.11
225.939	93.01
226.157	66.39
226.375	207.7
226.592	50
226.81	70.48
227.028	99.16
227.246	146.26
227.464	76.63
227.682	99.16
227.9	35.67
228.117	-7.34
228.335	76.63
228.553	39.76
228.771	74.58
228.989	93.01
229.206	80.72
229.424	109.4
229.642	-23.72
229.86	-44.2
230.077	123.73
230.295	39.76
230.513	160.59
230.731	60.24
230.948	234.32
231.166	185.17
231.384	-29.87
231.601	39.76
231.819	121.68
232.037	-70.83
232.254	-42.15
232.472	33.62
232.689	41.81
232.907	123.73
233.125	86.87
233.342	21.33
233.56	27.48
233.777	43.86
233.995	-42.15
234.213	68.44
234.43	133.97
234.648	13.14
234.865	29.52
235.083	54.1
235.3	33.62
235.518	70.48
235.735	156.5
235.953	29.52
236.17	33.62
236.388	-42.15
236.605	52.05
236.822	93.01
237.04	84.82
237.257	33.62
237.475	4.95
237.692	-27.82
237.909	7
238.127	2.9
238.344	68.44
238.562	58.2
238.779	-42.15
238.996	0.85
239.214	9.05
239.431	74.58
239.648	17.24
239.865	125.78
240.083	144.21
240.3	21.33
240.517	-42.15
240.735	54.1
240.952	172.88
241.169	76.63
241.386	52.05
241.603	37.72
241.821	-7.34
242.038	103.25
242.255	138.07
242.472	15.19
242.689	80.72
242.907	90.96
243.124	140.12
243.341	29.52
243.558	27.48
243.775	-23.72
243.992	-27.82
244.209	23.38
244.426	142.16
244.643	19.29
244.86	-25.77
245.078	60.24
245.295	84.82
245.512	33.62
245.729	15.19
245.946	25.43
246.163	52.05
246.38	45.91
246.597	58.2
246.814	56.15
247.031	52.05
247.248	11.09
247.464	50
247.681	56.15
247.898	166.74
248.115	84.82
248.332	-46.25
248.549	133.97
248.766	185.17
248.983	105.3
249.2	109.4
249.417	103.25
249.633	39.76
249.85	62.29
250.067	-13.48
250.284	50
250.501	109.4
250.717	41.81
250.934	-29.87
251.151	29.52
251.368	0.85
251.585	84.82
251.801	82.77
252.018	-27.82
252.235	176.98
252.451	-115.88
252.668	19.29
252.885	129.88
253.102	62.29
253.318	15.19
253.535	17.24
253.752	39.76
253.968	-1.19
254.185	-79.02
254.401	105.3
254.618	72.53
254.835	11.09
255.051	107.35
255.268	43.86
255.484	62.29
255.701	23.38
255.917	68.44
256.134	0.85
256.351	95.06
256.567	-3.24
256.784	-13.48
257	19.29
257.217	52.05
257.433	66.39
257.65	19.29
257.866	125.78
258.082	50
258.299	-48.3
258.515	19.29
258.732	50
258.948	-48.3
259.165	74.58
259.381	-31.91
259.597	52.05
259.814	39.76
260.03	107.35
260.246	66.39
260.463	150.36
260.679	133.97
260.895	19.29
261.112	41.81
261.328	23.38
261.544	-29.87
261.761	90.96
261.977	-13.48
262.193	-42.15
262.409	197.46
262.626	62.29
262.842	35.67
263.058	29.52
263.274	113.49
263.49	52.05
263.707	105.3
263.923	47.96
264.139	2.9
264.355	29.52
264.571	129.88
264.787	105.3
265.004	133.97
265.22	19.29
265.436	-52.39
265.652	15.19
265.868	136.02
266.084	-140.46
266.3	43.86
266.516	-19.63
266.732	52.05
266.948	27.48
267.164	19.29
267.38	99.16
267.596	82.77
267.812	119.64
268.028	43.86
268.244	88.92
268.46	60.24
268.676	72.53
268.892	72.53
269.108	0.85
269.324	17.24
269.54	-101.55
269.756	123.73
269.972	-25.77
270.188	2.9
270.403	23.38
270.619	37.72
270.835	123.73
271.051	84.82
271.267	0.85
271.483	-15.53
271.698	88.92
271.914	68.44
272.13	93.01
272.346	-33.96
272.562	93.01
272.777	58.2
272.993	-44.2
273.209	9.05
273.425	148.31
273.64	-72.87
273.856	45.91
274.072	68.44
274.287	76.63
274.503	70.48
274.719	56.15
274.934	60.24
275.15	-79.02
275.366	41.81
275.581	43.86
275.797	35.67
276.012	19.29
276.228	-13.48
276.444	54.1
276.659	129.88
276.875	-13.48
277.09	-23.72
277.306	9.05
277.521	35.67
277.737	15.19
277.952	60.24
278.168	19.29
278.383	86.87
278.599	82.77
278.814	72.53
279.03	17.24
279.245	95.06
279.461	29.52
279.676	74.58
279.892	-19.63
280.107	-3.24
280.322	-17.58
280.538	27.48
280.753	-40.11
280.969	62.29
281.184	23.38
281.399	105.3
281.615	-11.43
281.83	9.05
282.045	-27.82
282.26	-17.58
282.476	52.05
282.691	70.48
282.906	117.59
283.122	47.96
283.337	-19.63
283.552	56.15
283.767	60.24
283.983	99.16
284.198	31.57
284.413	74.58
284.628	-31.91
284.843	66.39
285.058	64.34
285.274	-52.39
285.489	54.1
285.704	60.24
285.919	41.81
286.134	15.19
286.349	58.2
286.564	29.52
286.779	113.49
286.995	50
287.21	-142.5
287.425	82.77
287.64	43.86
287.855	58.2
288.07	-76.97
288.285	101.2
288.5	23.38
288.715	101.2
288.93	95.06
289.145	56.15
289.36	84.82
289.575	29.52
289.79	76.63
290.004	-25.77
290.219	133.97
290.434	41.81
290.649	78.68
290.864	15.19
291.079	17.24
291.294	105.3
291.509	88.92
291.724	-1.19
291.938	27.48
292.153	117.59
292.368	37.72
292.583	103.25
292.798	86.87
293.012	93.01
293.227	84.82
293.442	33.62
293.657	109.4
293.871	136.02
294.086	29.52
294.301	58.2
294.516	125.78
294.73	33.62
294.945	11.09
295.16	119.64
295.374	123.73
295.589	107.35
295.804	-19.63
296.018	43.86
296.233	82.77
296.447	27.48
296.662	-48.3
296.877	84.82
297.091	136.02
297.306	19.29
297.52	15.19
297.735	90.96
297.949	41.81
298.164	72.53
298.378	19.29
298.593	72.53
298.807	-15.53
299.022	43.86
299.236	142.16
299.451	2.9
299.665	35.67
299.88	27.48
300.094	97.11
300.309	37.72
300.523	103.25
300.737	-29.87
300.952	25.43
301.166	58.2
301.381	4.95
301.595	47.96
301.809	27.48
302.024	17.24
302.238	97.11
302.452	162.64
302.667	15.19
302.881	84.82
303.095	105.3
303.309	64.34
303.524	41.81
303.738	35.67
303.952	-70.83
304.166	133.97
304.381	-128.17
304.595	174.93
304.809	52.05
305.023	25.43
305.237	-5.29
305.452	-3.24
305.666	97.11
305.88	33.62
306.094	148.31
306.308	76.63
306.522	78.68
306.736	45.91
306.95	168.79
307.164	125.78
307.379	93.01
307.593	219.99
307.807	99.16
308.021	138.07
308.235	86.87
308.449	-42.15
308.663	72.53
308.877	138.07
309.091	64.34
309.305	136.02
309.519	-79.02
309.733	119.64
309.947	-60.59
310.161	138.07
310.374	121.68
310.588	131.92
310.802	-9.39
311.016	-54.44
311.23	105.3
311.444	37.72
311.658	72.53
311.872	117.59
312.085	174.93
312.299	152.4
312.513	117.59
312.727	56.15
312.941	11.09
313.154	50
313.368	113.49
313.582	84.82
313.796	64.34
314.009	-9.39
314.223	66.39
314.437	54.1
314.651	62.29
314.864	-7.34
315.078	13.14
315.292	-1.19
315.505	19.29
315.719	95.06
315.933	-7.34
316.146	-25.77
316.36	-25.77
316.573	138.07
316.787	136.02
317.001	76.63
317.214	-7.34
317.428	72.53
317.641	-62.63
317.855	-85.16
318.068	31.57
318.282	0.85
318.495	199.51
318.709	109.4
318.922	80.72
319.136	103.25
319.349	185.17
319.563	-13.48
319.776	138.07
319.99	25.43
320.203	80.72
320.417	97.11
320.63	72.53
320.843	142.16
321.057	2.9
321.27	2.9
321.483	52.05
321.697	162.64
321.91	0.85
322.124	27.48
322.337	142.16
322.55	11.09
322.763	-1.19
322.977	25.43
323.19	35.67
323.403	95.06
323.617	-9.39
323.83	142.16
324.043	68.44
324.256	-29.87
324.469	-7.34
324.683	74.58
324.896	23.38
325.109	23.38
325.322	-68.78
325.535	113.49
325.748	113.49
325.962	19.29
326.175	105.3
326.388	45.91
326.601	84.82
326.814	17.24
327.027	64.34
327.24	146.26
327.453	-11.43
327.666	129.88
327.879	93.01
328.092	117.59
328.305	129.88
328.518	7
328.731	25.43
328.944	64.34
329.157	76.63
329.37	-79.02
329.583	70.48
329.796	68.44
330.009	31.57
330.222	138.07
330.435	43.86
330.648	113.49
330.861	70.48
331.073	11.09
331.286	72.53
331.499	37.72
331.712	-72.87
331.925	56.15
332.138	136.02
332.35	136.02
332.563	13.14
332.776	105.3
332.989	-13.48
333.202	27.48
333.414	107.35
333.627	-40.11
333.84	54.1
334.053	148.31
334.265	90.96
334.478	-3.24
334.691	50
334.903	50
335.116	78.68
335.329	88.92
335.541	76.63
335.754	117.59
335.966	17.24
336.179	115.54
336.392	37.72
336.604	62.29
336.817	119.64
337.029	111.44
337.242	58.2
337.454	168.79
337.667	-27.82
337.88	195.41
338.092	101.2
338.305	115.54
338.517	33.62
338.729	119.64
338.942	76.63
339.154	-25.77
339.367	-66.73
339.579	-5.29
339.792	27.48
340.004	80.72
340.217	-29.87
340.429	45.91
340.641	64.34
340.854	-3.24
341.066	47.96
341.278	136.02
341.491	193.36
341.703	37.72
341.915	72.53
342.128	43.86
342.34	43.86
342.552	-44.2
342.764	9.05
342.977	-1.19
343.189	123.73
343.401	70.48
343.613	-46.25
343.826	105.3
344.038	45.91
344.25	43.86
344.462	9.05
344.674	43.86
344.886	113.49
345.099	109.4
345.311	21.33
345.523	-50.35
345.735	-126.12
345.947	21.33
346.159	39.76
346.371	62.29
346.583	74.58
346.795	203.6
347.007	113.49
347.219	80.72
347.431	47.96
347.643	115.54
347.855	19.29
348.067	142.16
348.279	-76.97
348.491	27.48
348.703	107.35
348.915	64.34
349.127	-48.3
349.339	21.33
349.551	19.29
349.763	127.83
349.975	31.57
350.187	21.33
350.399	88.92
350.61	45.91
350.822	-17.58
351.034	31.57
351.246	74.58
351.458	11.09
351.669	109.4
351.881	125.78
352.093	176.98
352.305	123.73
352.517	101.2
352.728	99.16
352.94	99.16
353.152	68.44
353.363	21.33
353.575	-9.39
353.787	160.59
353.999	74.58
354.21	181.07
354.422	15.19
354.633	13.14
354.845	33.62
355.057	74.58
355.268	95.06
355.48	138.07
355.692	-60.59
355.903	21.33
356.115	19.29
356.326	-101.55
356.538	166.74
356.749	41.81
356.961	123.73
357.172	72.53
357.384	35.67
357.595	168.79
357.807	62.29
358.018	-3.24
358.23	-21.67
358.441	95.06
358.653	50
358.864	-27.82
359.075	-81.07
359.287	56.15
359.498	52.05
359.709	39.76
359.921	-11.43
360.132	95.06
360.344	33.62
360.555	15.19
360.766	90.96
360.977	41.81
361.189	193.36
361.4	7
361.611	154.45
361.823	121.68
362.034	2.9
362.245	-83.11
362.456	27.48
362.667	101.2
362.879	58.2
363.09	52.05
363.301	117.59
363.512	21.33
363.723	11.09
363.935	45.91
364.146	179.03
364.357	35.67
364.568	72.53
364.779	-62.63
364.99	154.45
365.201	2.9
365.412	103.25
365.623	-31.91
365.834	113.49
366.045	21.33
366.256	107.35
366.467	78.68
366.678	60.24
366.889	29.52
367.1	25.43
367.311	99.16
367.522	-7.34
367.733	60.24
367.944	107.35
368.155	50
368.366	183.12
368.577	76.63
368.788	76.63
368.999	-13.48
369.209	64.34
369.42	152.4
369.631	201.55
369.842	99.16
370.053	25.43
370.264	119.64
370.474	-31.91
370.685	39.76
370.896	47.96
371.107	189.27
371.317	99.16
371.528	9.05
371.739	109.4
371.95	129.88
372.16	97.11
372.371	-5.29
372.582	0.85
372.792	50
373.003	15.19
373.214	50
373.424	37.72
373.635	-66.73
373.846	129.88
374.056	-5.29
374.267	72.53
374.477	25.43
374.688	0.85
374.898	35.67
375.109	-3.24
375.319	62.29
375.53	72.53
375.74	78.68
375.951	50
376.161	162.64
376.372	144.21
376.582	21.33
376.793	64.34
377.003	23.38
377.214	72.53
377.424	58.2
377.635	35.67
377.845	7
378.055	219.99
378.266	-25.77
378.476	76.63
378.686	70.48
378.897	80.72
379.107	54.1
379.317	117.59
379.528	74.58
379.738	117.59
379.948	-56.49
380.158	95.06
380.369	90.96
380.579	64.34
380.789	9.05
380.999	113.49
381.21	93.01
381.42	162.64
381.63	-15.53
381.84	72.53
382.05	68.44
382.261	78.68
382.471	111.44
382.681	-74.92
382.891	150.36
383.101	90.96
383.311	-91.31
383.521	-33.96
383.731	164.69
383.941	21.33
384.151	72.53
384.361	19.29
384.571	136.02
384.781	-3.24
384.991	219.99
385.201	150.36
385.411	86.87
385.621	144.21
385.831	72.53
386.041	70.48
386.251	4.95
386.461	72.53
386.671	-19.63
386.881	35.67
387.091	78.68
387.301	115.54
387.511	86.87
387.72	121.68
387.93	86.87
388.14	-87.21
388.35	82.77
388.56	80.72
388.769	125.78
388.979	2.9
389.189	27.48
389.399	74.58
389.609	54.1
389.818	103.25
390.028	31.57
390.238	39.76
390.447	-9.39
390.657	43.86
390.867	66.39
391.076	-107.69
391.286	99.16
391.496	58.2
391.705	-13.48
391.915	117.59
392.125	113.49
392.334	-52.39
392.544	183.12
392.753	93.01
392.963	-83.11
393.172	58.2
393.382	-11.43
393.591	166.74
393.801	25.43
394.01	226.13
394.22	107.35
394.429	37.72
394.639	50
394.848	154.45
395.058	50
395.267	64.34
395.477	58.2
395.686	-15.53
395.895	215.89
396.105	131.92
396.314	-11.43
396.524	60.24
396.733	-21.67
396.942	131.92
397.152	86.87
397.361	170.83
397.57	111.44
397.78	70.48
397.989	150.36
398.198	209.75
398.407	58.2
398.617	29.52
398.826	109.4
399.035	19.29
399.244	179.03
399.453	103.25
399.663	39.76
399.872	113.49
400.081	-21.67
400.29	107.35
400.499	-1.19
400.708	99.16
400.917	23.38
401.127	15.19
401.336	60.24
401.545	258.9
401.754	121.68
401.963	133.97
402.172	43.86
402.381	-27.82
402.59	15.19
402.799	4.95
403.008	99.16
403.217	84.82
403.426	95.06
403.635	-85.16
403.844	11.09
404.053	-33.96
404.262	72.53
404.471	164.69
404.68	144.21
404.888	-15.53
405.097	35.67
405.306	78.68
405.515	84.82
405.724	0.85
405.933	72.53
406.142	121.68
406.35	97.11
406.559	11.09
406.768	64.34
406.977	111.44
407.185	183.12
407.394	109.4
407.603	35.67
407.812	70.48
408.02	117.59
408.229	123.73
408.438	111.44
408.646	50
408.855	-9.39
409.064	27.48
409.272	2.9
409.481	84.82
409.69	-5.29
409.898	-25.77
410.107	117.59
410.315	148.31
410.524	23.38
410.733	86.87
410.941	80.72
411.15	127.83
411.358	99.16
411.567	168.79
411.775	78.68
411.984	41.81
412.192	82.77
412.401	23.38
412.609	191.31
412.818	142.16
413.026	90.96
413.234	-19.63
413.443	62.29
413.651	-38.06
413.86	82.77
414.068	64.34
414.276	205.65
414.485	-52.39
414.693	176.98
414.901	203.6
415.11	82.77
415.318	76.63
415.526	66.39
415.734	131.92
415.943	78.68
416.151	117.59
416.359	-46.25
416.567	60.24
416.776	205.65
416.984	31.57
417.192	207.7
417.4	41.81
417.608	111.44
417.817	31.57
418.025	117.59
418.233	199.51
418.441	4.95
418.649	-46.25
418.857	56.15
419.065	156.5
419.273	9.05
419.481	74.58
419.689	37.72
419.897	78.68
420.105	-66.73
420.313	136.02
420.521	113.49
420.729	162.64
420.937	35.67
421.145	78.68
421.353	156.5
421.561	136.02
421.769	13.14
421.977	-25.77
422.185	117.59
422.393	0.85
422.601	88.92
422.809	45.91
423.017	39.76
423.224	35.67
423.432	117.59
423.64	7
423.848	222.03
424.056	72.53
424.263	136.02
424.471	88.92
424.679	219.99
424.887	23.38
425.094	136.02
425.302	162.64
425.51	64.34
425.718	123.73
425.925	78.68
426.133	21.33
426.341	183.12
426.548	138.07
426.756	23.38
426.964	109.4
427.171	25.43
427.379	78.68
427.586	60.24
427.794	170.83
428.001	86.87
428.209	158.55
428.417	191.31
428.624	125.78
428.832	15.19
429.039	-11.43
429.247	99.16
429.454	170.83
429.662	162.64
429.869	191.31
430.076	140.12
430.284	166.74
430.491	179.03
430.699	64.34
430.906	217.94
431.114	37.72
431.321	174.93
431.528	150.36
431.736	166.74
431.943	211.79
432.15	197.46
432.358	205.65
432.565	281.43
432.772	-27.82
432.979	252.75
433.187	209.75
433.394	240.47
433.601	121.68
433.808	201.55
434.016	219.99
434.223	232.27
434.43	199.51
434.637	228.18
434.844	289.62
435.052	232.27
435.259	248.66
435.466	244.56
435.673	287.57
435.88	306
436.087	342.86
436.294	279.38
436.501	308.05
436.708	269.14
436.915	306
437.122	420.69
437.329	250.71
437.537	357.2
437.743	285.52
437.95	490.32
438.157	334.67
438.364	332.62
438.571	344.91
438.778	355.15
438.985	420.69
439.192	473.93
439.399	342.86
439.606	447.31
439.813	537.42
440.02	568.14
440.227	654.16
440.433	617.29
440.64	543.57
440.847	432.97
441.054	592.72
441.261	652.11
441.467	658.25
441.674	543.57
441.881	682.83
442.088	576.33
442.294	631.63
442.501	836.42
442.708	822.09
442.914	668.49
443.121	830.28
443.328	803.66
443.534	867.14
443.741	856.9
443.948	731.98
444.154	985.93
444.361	1145.67
444.568	930.63
444.774	938.82
444.981	959.3
445.187	1162.05
445.394	1184.58
445.6	1039.17
445.807	1317.7
446.013	1309.51
446.22	1184.58
446.426	1319.75
446.633	1387.33
446.839	1588.03
447.046	1325.89
447.252	1489.73
447.459	1459.01
447.665	1551.17
447.871	1788.73
448.078	1864.5
448.284	1823.55
448.491	1911.61
448.697	2052.92
448.903	2044.73
449.11	2251.57
449.316	2147.12
449.522	2335.54
449.728	2409.26
449.935	2429.74
450.141	2485.04
450.347	2478.9
450.553	2511.66
450.76	2667.31
450.966	2779.95
451.172	2978.6
451.378	2978.6
451.584	3068.71
451.791	3277.6
451.997	3492.64
452.203	3472.16
452.409	3644.19
452.615	3738.4
452.821	3722.01
453.027	3775.26
453.233	4240.15
453.44	4031.26
453.646	4301.59
453.852	4492.05
454.058	4483.86
454.264	4791.05
454.47	5126.92
454.676	5128.97
454.882	5593.86
455.088	5282.56
455.294	5606.14
455.5	6007.55
455.705	6404.85
455.911	6292.21
456.117	6386.42
456.323	6781.68
456.529	6652.66
456.735	7480.04
456.941	7477.99
457.147	7910.11
457.352	7975.64
457.558	8196.82
457.764	8788.69
457.97	8889.04
458.176	9312.97
458.381	9648.83
458.587	9779.9
458.793	10564.28
458.999	10508.98
459.204	11748
459.41	12049.05
459.616	12110.49
459.821	12845.71
460.027	13124.24
460.233	13943.42
460.438	13714.05
460.644	14703.22
460.85	14721.65
461.055	15342.19
461.261	16249.44
461.466	15850.08
461.672	16179.81
461.878	18006.59
462.083	17820.23
462.289	18145.86
462.494	19120.69
462.7	19493.42
462.905	19298.86
463.111	21021.2
463.316	21907.98
463.522	22399.49
463.727	22938.1
463.932	23718.38
464.138	24314.34
464.343	25371.09
464.549	25815.5
464.754	27478.45
464.959	28535.2
465.165	28950.94
465.37	29036.95
465.575	28821.92
465.781	30552.45
465.986	31570.29
466.191	30996.86
466.397	31379.83
466.602	30718.34
466.807	32282.98
467.012	33100.12
467.218	33423.7
467.423	33898.83
467.628	34722.12
467.833	36682.02
468.038	35752.24
468.244	34801.99
468.449	36962.59
468.654	35828.02
468.859	35799.35
469.064	36340.01
469.269	35268.92
469.474	35230.01
469.679	36378.92
