Data from USB4F104151__74__10-33-01-244.txt Node

Date: Wed Feb 26 10:33:01 EST 2025
User: louis
Spectrometer: USB4F10415
Trigger mode: 4
Integration Time (sec): 1.000000E-1
Scans to average: 1
Electric dark correction enabled: true
Nonlinearity correction enabled: false
Boxcar width: 0
XAxis mode: Wavelengths
Number of Pixels in Spectrum: 3648
>>>>>Begin Spectral Data<<<<<
178.204	-451.58
178.424	-451.58
178.644	-451.58
178.864	-400.38
179.084	-388.09
179.304	-17.41
179.524	3.07
179.744	-23.55
179.964	-52.22
180.184	15.36
180.404	41.98
180.624	-25.6
180.844	64.51
181.064	-74.75
181.283	46.08
181.503	-54.27
181.723	76.8
181.943	-72.7
182.163	89.09
182.383	-80.89
182.602	50.18
182.822	199.68
183.042	87.04
183.262	-15.36
183.482	50.18
183.701	93.18
183.921	13.31
184.141	-58.37
184.361	39.94
184.58	111.61
184.8	52.22
185.02	-25.6
185.239	66.56
185.459	5.12
185.679	128
185.898	-105.47
186.118	-13.31
186.338	76.8
186.557	95.23
186.777	-142.33
186.997	-9.22
187.216	23.55
187.436	199.68
187.655	103.42
187.875	148.48
188.095	19.46
188.314	164.86
188.534	107.52
188.753	13.31
188.973	95.23
189.192	164.86
189.412	25.6
189.631	5.12
189.851	52.22
190.07	95.23
190.29	-25.6
190.509	74.75
190.729	-31.74
190.948	128
191.168	226.3
191.387	111.61
191.607	23.55
191.826	56.32
192.045	44.03
192.265	3.07
192.484	27.65
192.704	-7.17
192.923	-41.98
193.142	173.05
193.362	72.7
193.581	50.18
193.8	-19.46
194.02	58.37
194.239	-9.22
194.458	113.66
194.678	-93.18
194.897	-3.07
195.116	9.22
195.335	82.94
195.555	91.13
195.774	-46.08
195.993	72.7
196.212	35.84
196.432	-33.79
196.651	58.37
196.87	27.65
197.089	177.15
197.308	93.18
197.528	21.5
197.747	-15.36
197.966	31.74
198.185	134.14
198.404	-80.89
198.623	48.13
198.842	15.36
199.062	66.56
199.281	64.51
199.5	13.31
199.719	64.51
199.938	70.65
200.157	13.31
200.376	117.76
200.595	156.67
200.814	142.33
201.033	-54.27
201.252	130.05
201.471	25.6
201.69	62.46
201.909	37.89
202.128	60.42
202.347	35.84
202.566	39.94
202.785	-123.9
203.004	-97.28
203.223	181.25
203.442	95.23
203.661	-52.22
203.879	9.22
204.098	101.37
204.317	9.22
204.536	84.99
204.755	62.46
204.974	109.57
205.193	-13.31
205.411	95.23
205.63	15.36
205.849	9.22
206.068	-21.5
206.287	9.22
206.505	177.15
206.724	-25.6
206.943	-52.22
207.162	-46.08
207.381	74.75
207.599	54.27
207.818	48.13
208.037	-13.31
208.255	13.31
208.474	44.03
208.693	74.75
208.911	-35.84
209.13	60.42
209.349	58.37
209.567	95.23
209.786	70.65
210.005	58.37
210.223	7.17
210.442	-95.23
210.661	15.36
210.879	109.57
211.098	33.79
211.316	13.31
211.535	89.09
211.753	50.18
211.972	56.32
212.191	54.27
212.409	46.08
212.628	62.46
212.846	15.36
213.065	111.61
213.283	29.7
213.502	111.61
213.72	-7.17
213.938	62.46
214.157	-48.13
214.375	64.51
214.594	52.22
214.812	121.85
215.031	-31.74
215.249	44.03
215.467	35.84
215.686	-31.74
215.904	29.7
216.122	107.52
216.341	166.91
216.559	72.7
216.778	27.65
216.996	115.71
217.214	29.7
217.432	7.17
217.651	3.07
217.869	109.57
218.087	37.89
218.306	23.55
218.524	66.56
218.742	-19.46
218.96	78.85
219.179	7.17
219.397	107.52
219.615	211.96
219.833	56.32
220.051	19.46
220.27	91.13
220.488	168.96
220.706	68.61
220.924	-13.31
221.142	-48.13
221.36	74.75
221.578	-21.5
221.796	66.56
222.015	60.42
222.233	44.03
222.451	84.99
222.669	-66.56
222.887	62.46
223.105	33.79
223.323	109.57
223.541	-41.98
223.759	17.41
223.977	52.22
224.195	89.09
224.413	44.03
224.631	44.03
224.849	13.31
225.067	156.67
225.285	-13.31
225.503	-37.89
225.721	-109.57
225.939	-9.22
226.157	99.33
226.375	187.39
226.592	78.85
226.81	103.42
227.028	58.37
227.246	179.2
227.464	17.41
227.682	78.85
227.9	-41.98
228.117	48.13
228.335	25.6
228.553	109.57
228.771	-41.98
228.989	60.42
229.206	66.56
229.424	-160.77
229.642	-21.5
229.86	-60.42
230.077	150.53
230.295	27.65
230.513	101.37
230.731	46.08
230.948	226.3
231.166	144.38
231.384	-48.13
231.601	-31.74
231.819	136.19
232.037	-3.07
232.254	-56.32
232.472	-5.12
232.689	25.6
232.907	125.95
233.125	56.32
233.342	-13.31
233.56	17.41
233.777	7.17
233.995	25.6
234.213	109.57
234.43	74.75
234.648	37.89
234.865	9.22
235.083	31.74
235.3	76.8
235.518	130.05
235.735	103.42
235.953	1.02
236.17	33.79
236.388	15.36
236.605	62.46
236.822	103.42
237.04	105.47
237.257	23.55
237.475	9.22
237.692	-21.5
237.909	41.98
238.127	7.17
238.344	136.19
238.562	-37.89
238.779	-7.17
238.996	-11.26
239.214	44.03
239.431	93.18
239.648	46.08
239.865	33.79
240.083	56.32
240.3	1.02
240.517	25.6
240.735	68.61
240.952	97.28
241.169	5.12
241.386	70.65
241.603	31.74
241.821	-41.98
242.038	44.03
242.255	60.42
242.472	-9.22
242.689	41.98
242.907	19.46
243.124	41.98
243.341	-39.94
243.558	-80.89
243.775	-78.85
243.992	-52.22
244.209	146.43
244.426	148.48
244.643	50.18
244.86	3.07
245.078	125.95
245.295	1.02
245.512	-5.12
245.729	3.07
245.946	3.07
246.163	46.08
246.38	62.46
246.597	23.55
246.814	-50.18
247.031	-15.36
247.248	35.84
247.464	89.09
247.681	37.89
247.898	113.66
248.115	95.23
248.332	-95.23
248.549	101.37
248.766	150.53
248.983	-7.17
249.2	84.99
249.417	140.29
249.633	3.07
249.85	103.42
250.067	1.02
250.284	41.98
250.501	82.94
250.717	146.43
250.934	-52.22
251.151	-9.22
251.368	64.51
251.585	99.33
251.801	105.47
252.018	-95.23
252.235	103.42
252.451	-66.56
252.668	-35.84
252.885	68.61
253.102	103.42
253.318	23.55
253.535	58.37
253.752	29.7
253.968	-66.56
254.185	-37.89
254.401	-35.84
254.618	-5.12
254.835	15.36
255.051	54.27
255.268	93.18
255.484	48.13
255.701	44.03
255.917	78.85
256.134	-15.36
256.351	62.46
256.567	-84.99
256.784	39.94
257	-76.8
257.217	87.04
257.433	119.81
257.65	41.98
257.866	144.38
258.082	-13.31
258.299	-54.27
258.515	62.46
258.732	-41.98
258.948	46.08
259.165	21.5
259.381	-17.41
259.597	31.74
259.814	-80.89
260.03	44.03
260.246	29.7
260.463	132.09
260.679	103.42
260.895	35.84
261.112	64.51
261.328	-5.12
261.544	13.31
261.761	130.05
261.977	-33.79
262.193	-84.99
262.409	29.7
262.626	-41.98
262.842	58.37
263.058	-31.74
263.274	125.95
263.49	-17.41
263.707	84.99
263.923	95.23
264.139	-19.46
264.355	-44.03
264.571	37.89
264.787	11.26
265.004	50.18
265.22	23.55
265.436	-11.26
265.652	-19.46
265.868	78.85
266.084	-97.28
266.3	-5.12
266.516	13.31
266.732	107.52
266.948	91.13
267.164	-15.36
267.38	66.56
267.596	56.32
267.812	156.67
268.028	5.12
268.244	54.27
268.46	99.33
268.676	-39.94
268.892	-39.94
269.108	-58.37
269.324	19.46
269.54	-87.04
269.756	107.52
269.972	-119.81
270.188	27.65
270.403	-9.22
270.619	70.65
270.835	70.65
271.051	80.89
271.267	23.55
271.483	52.22
271.698	89.09
271.914	50.18
272.13	9.22
272.346	23.55
272.562	25.6
272.777	76.8
272.993	17.41
273.209	50.18
273.425	-13.31
273.64	-52.22
273.856	56.32
274.072	-78.85
274.287	-58.37
274.503	93.18
274.719	41.98
274.934	27.65
275.15	-111.61
275.366	-74.75
275.581	-64.51
275.797	31.74
276.012	27.65
276.228	-39.94
276.444	-1.02
276.659	80.89
276.875	-39.94
277.09	70.65
277.306	-62.46
277.521	-11.26
277.737	23.55
277.952	144.38
278.168	46.08
278.383	62.46
278.599	48.13
278.814	46.08
279.03	125.95
279.245	136.19
279.461	39.94
279.676	125.95
279.892	-84.99
280.107	-48.13
280.322	-3.07
280.538	82.94
280.753	-13.31
280.969	84.99
281.184	-9.22
281.399	140.29
281.615	3.07
281.83	23.55
282.045	13.31
282.26	-9.22
282.476	-74.75
282.691	82.94
282.906	68.61
283.122	39.94
283.337	-7.17
283.552	46.08
283.767	-84.99
283.983	17.41
284.198	46.08
284.413	-3.07
284.628	-39.94
284.843	-19.46
285.058	107.52
285.274	-13.31
285.489	19.46
285.704	46.08
285.919	-46.08
286.134	-37.89
286.349	52.22
286.564	-44.03
286.779	87.04
286.995	-37.89
287.21	-125.95
287.425	140.29
287.64	-58.37
287.855	78.85
288.07	-35.84
288.285	125.95
288.5	82.94
288.715	105.47
288.93	15.36
289.145	19.46
289.36	123.9
289.575	-3.07
289.79	39.94
290.004	17.41
290.219	99.33
290.434	-64.51
290.649	58.37
290.864	-56.32
291.079	39.94
291.294	48.13
291.509	-35.84
291.724	-13.31
291.938	-76.8
292.153	9.22
292.368	-58.37
292.583	70.65
292.798	13.31
293.012	140.29
293.227	56.32
293.442	46.08
293.657	52.22
293.871	148.48
294.086	21.5
294.301	80.89
294.516	125.95
294.73	-37.89
294.945	17.41
295.16	41.98
295.374	52.22
295.589	144.38
295.804	9.22
296.018	33.79
296.233	68.61
296.447	58.37
296.662	-58.37
296.877	107.52
297.091	62.46
297.306	27.65
297.52	72.7
297.735	29.7
297.949	117.76
298.164	19.46
298.378	41.98
298.593	7.17
298.807	31.74
299.022	-17.41
299.236	123.9
299.451	7.17
299.665	35.84
299.88	17.41
300.094	-33.79
300.309	17.41
300.523	62.46
300.737	48.13
300.952	82.94
301.166	101.37
301.381	-44.03
301.595	5.12
301.809	-89.09
302.024	3.07
302.238	21.5
302.452	156.67
302.667	-68.61
302.881	142.33
303.095	109.57
303.309	99.33
303.524	-23.55
303.738	-1.02
303.952	-9.22
304.166	46.08
304.381	-107.52
304.595	162.81
304.809	39.94
305.023	101.37
305.237	44.03
305.452	7.17
305.666	95.23
305.88	82.94
306.094	115.71
306.308	89.09
306.522	60.42
306.736	74.75
306.95	156.67
307.164	109.57
307.379	5.12
307.593	89.09
307.807	121.85
308.021	58.37
308.235	-48.13
308.449	-19.46
308.663	-48.13
308.877	203.77
309.091	9.22
309.305	5.12
309.519	15.36
309.733	78.85
309.947	-44.03
310.161	41.98
310.374	109.57
310.588	138.24
310.802	-72.7
311.016	27.65
311.23	27.65
311.444	-25.6
311.658	64.51
311.872	41.98
312.085	25.6
312.299	130.05
312.513	97.28
312.727	15.36
312.941	-101.37
313.154	7.17
313.368	-70.65
313.582	76.8
313.796	58.37
314.009	52.22
314.223	74.75
314.437	37.89
314.651	46.08
314.864	60.42
315.078	50.18
315.292	-46.08
315.505	-44.03
315.719	46.08
315.933	128
316.146	-52.22
316.36	-52.22
316.573	132.09
316.787	132.09
317.001	23.55
317.214	52.22
317.428	15.36
317.641	-60.42
317.855	7.17
318.068	29.7
318.282	76.8
318.495	164.86
318.709	60.42
318.922	21.5
319.136	99.33
319.349	84.99
319.563	7.17
319.776	123.9
319.99	-123.9
320.203	52.22
320.417	91.13
320.63	89.09
320.843	179.2
321.057	-62.46
321.27	54.27
321.483	93.18
321.697	160.77
321.91	78.85
322.124	64.51
322.337	-7.17
322.55	-31.74
322.763	17.41
322.977	29.7
323.19	23.55
323.403	13.31
323.617	99.33
323.83	87.04
324.043	-9.22
324.256	52.22
324.469	-31.74
324.683	113.66
324.896	-60.42
325.109	-1.02
325.322	-58.37
325.535	1.02
325.748	93.18
325.962	7.17
326.175	68.61
326.388	142.33
326.601	46.08
326.814	-56.32
327.027	1.02
327.24	72.7
327.453	-52.22
327.666	107.52
327.879	130.05
328.092	74.75
328.305	66.56
328.518	1.02
328.731	-82.94
328.944	-9.22
329.157	60.42
329.37	-27.65
329.583	156.67
329.796	111.61
330.009	-70.65
330.222	111.61
330.435	80.89
330.648	56.32
330.861	60.42
331.073	62.46
331.286	50.18
331.499	7.17
331.712	54.27
331.925	5.12
332.138	-1.02
332.35	56.32
332.563	-9.22
332.776	140.29
332.989	23.55
333.202	-46.08
333.414	62.46
333.627	9.22
333.84	-39.94
334.053	25.6
334.265	25.6
334.478	35.84
334.691	37.89
334.903	97.28
335.116	-64.51
335.329	44.03
335.541	93.18
335.754	140.29
335.966	56.32
336.179	-13.31
336.392	-46.08
336.604	52.22
336.817	70.65
337.029	37.89
337.242	-3.07
337.454	23.55
337.667	-11.26
337.88	136.19
338.092	-15.36
338.305	54.27
338.517	-50.18
338.729	50.18
338.942	123.9
339.154	-93.18
339.367	-19.46
339.579	52.22
339.792	-39.94
340.004	46.08
340.217	5.12
340.429	21.5
340.641	-64.51
340.854	1.02
341.066	-37.89
341.278	80.89
341.491	228.35
341.703	15.36
341.915	-21.5
342.128	29.7
342.34	54.27
342.552	-31.74
342.764	54.27
342.977	-78.85
343.189	56.32
343.401	39.94
343.613	-134.14
343.826	-1.02
344.038	-97.28
344.25	-3.07
344.462	9.22
344.674	5.12
344.886	-5.12
345.099	-5.12
345.311	76.8
345.523	-91.13
345.735	-130.05
345.947	-13.31
346.159	68.61
346.371	48.13
346.583	56.32
346.795	265.21
347.007	33.79
347.219	78.85
347.431	3.07
347.643	56.32
347.855	-5.12
348.067	80.89
348.279	-82.94
348.491	41.98
348.703	64.51
348.915	-3.07
349.127	48.13
349.339	60.42
349.551	3.07
349.763	103.42
349.975	17.41
350.187	60.42
350.399	146.43
350.61	95.23
350.822	29.7
351.034	44.03
351.246	101.37
351.458	54.27
351.669	44.03
351.881	17.41
352.093	70.65
352.305	56.32
352.517	-27.65
352.728	54.27
352.94	-17.41
353.152	37.89
353.363	-68.61
353.575	54.27
353.787	177.15
353.999	64.51
354.21	105.47
354.422	39.94
354.633	-5.12
354.845	23.55
355.057	74.75
355.268	-1.02
355.48	58.37
355.692	-95.23
355.903	62.46
356.115	-17.41
356.326	-56.32
356.538	84.99
356.749	35.84
356.961	111.61
357.172	23.55
357.384	-62.46
357.595	134.14
357.807	-64.51
358.018	-64.51
358.23	39.94
358.441	146.43
358.653	76.8
358.864	1.02
359.075	-31.74
359.287	60.42
359.498	140.29
359.709	-13.31
359.921	48.13
360.132	113.66
360.344	15.36
360.555	7.17
360.766	33.79
360.977	27.65
361.189	39.94
361.4	-35.84
361.611	136.19
361.823	136.19
362.034	93.18
362.245	-29.7
362.456	-33.79
362.667	76.8
362.879	-15.36
363.09	41.98
363.301	101.37
363.512	-5.12
363.723	-78.85
363.935	60.42
364.146	123.9
364.357	54.27
364.568	105.47
364.779	-87.04
364.99	89.09
365.201	-50.18
365.412	130.05
365.623	-52.22
365.834	111.61
366.045	-35.84
366.256	41.98
366.467	76.8
366.678	33.79
366.889	76.8
367.1	-21.5
367.311	62.46
367.522	39.94
367.733	125.95
367.944	19.46
368.155	-52.22
368.366	66.56
368.577	68.61
368.788	158.72
368.999	46.08
369.209	-21.5
369.42	214.01
369.631	244.73
369.842	62.46
370.053	11.26
370.264	58.37
370.474	37.89
370.685	95.23
370.896	29.7
371.107	113.66
371.317	78.85
371.528	7.17
371.739	130.05
371.95	56.32
372.16	95.23
372.371	-29.7
372.582	7.17
372.792	-21.5
373.003	111.61
373.214	50.18
373.424	109.57
373.635	-33.79
373.846	130.05
374.056	-29.7
374.267	5.12
374.477	-5.12
374.688	-84.99
374.898	138.24
375.109	56.32
375.319	50.18
375.53	168.96
375.74	95.23
375.951	-50.18
376.161	50.18
376.372	82.94
376.582	-1.02
376.793	78.85
377.003	-5.12
377.214	39.94
377.424	46.08
377.635	1.02
377.845	-39.94
378.055	148.48
378.266	-91.13
378.476	84.99
378.686	68.61
378.897	25.6
379.107	56.32
379.317	27.65
379.528	13.31
379.738	115.71
379.948	-171.01
380.158	187.39
380.369	-11.26
380.579	7.17
380.789	31.74
380.999	46.08
381.21	44.03
381.42	162.81
381.63	-35.84
381.84	107.52
382.05	78.85
382.261	31.74
382.471	115.71
382.681	-78.85
382.891	146.43
383.101	70.65
383.311	-52.22
383.521	9.22
383.731	82.94
383.941	109.57
384.151	103.42
384.361	-19.46
384.571	113.66
384.781	64.51
384.991	111.61
385.201	138.24
385.411	62.46
385.621	46.08
385.831	11.26
386.041	160.77
386.251	7.17
386.461	39.94
386.671	5.12
386.881	48.13
387.091	9.22
387.301	121.85
387.511	25.6
387.72	121.85
387.93	91.13
388.14	-125.95
388.35	70.65
388.56	173.05
388.769	66.56
388.979	84.99
389.189	-68.61
389.399	-3.07
389.609	56.32
389.818	-9.22
390.028	37.89
390.238	144.38
390.447	-68.61
390.657	105.47
390.867	56.32
391.076	-68.61
391.286	66.56
391.496	21.5
391.705	39.94
391.915	105.47
392.125	93.18
392.334	33.79
392.544	117.76
392.753	33.79
392.963	-17.41
393.172	11.26
393.382	-66.56
393.591	158.72
393.801	-56.32
394.01	95.23
394.22	80.89
394.429	15.36
394.639	82.94
394.848	105.47
395.058	48.13
395.267	-15.36
395.477	70.65
395.686	82.94
395.895	203.77
396.105	218.11
396.314	-13.31
396.524	62.46
396.733	41.98
396.942	62.46
397.152	115.71
397.361	111.61
397.57	50.18
397.78	50.18
397.989	109.57
398.198	218.11
398.407	29.7
398.617	-13.31
398.826	27.65
399.035	23.55
399.244	80.89
399.453	37.89
399.663	84.99
399.872	7.17
400.081	-91.13
400.29	177.15
400.499	-25.6
400.708	70.65
400.917	58.37
401.127	-35.84
401.336	-27.65
401.545	197.63
401.754	107.52
401.963	54.27
402.172	52.22
402.381	-3.07
402.59	123.9
402.799	78.85
403.008	103.42
403.217	37.89
403.426	91.13
403.635	-115.71
403.844	17.41
404.053	7.17
404.262	29.7
404.471	121.85
404.68	87.04
404.888	41.98
405.097	76.8
405.306	39.94
405.515	1.02
405.724	66.56
405.933	109.57
406.142	44.03
406.35	109.57
406.559	54.27
406.768	17.41
406.977	113.66
407.185	78.85
407.394	97.28
407.603	46.08
407.812	3.07
408.02	156.67
408.229	-13.31
408.438	93.18
408.646	-15.36
408.855	29.7
409.064	123.9
409.272	37.89
409.481	103.42
409.69	1.02
409.898	-101.37
410.107	74.75
410.315	82.94
410.524	31.74
410.733	66.56
410.941	5.12
411.15	105.47
411.358	80.89
411.567	107.52
411.775	25.6
411.984	21.5
412.192	97.28
412.401	-19.46
412.609	187.39
412.818	138.24
413.026	128
413.234	-68.61
413.443	52.22
413.651	-68.61
413.86	84.99
414.068	121.85
414.276	115.71
414.485	-15.36
414.693	134.14
414.901	142.33
415.11	54.27
415.318	1.02
415.526	-72.7
415.734	128
415.943	80.89
416.151	87.04
416.359	101.37
416.567	11.26
416.776	136.19
416.984	33.79
417.192	117.76
417.4	-1.02
417.608	5.12
417.817	5.12
418.025	87.04
418.233	136.19
418.441	13.31
418.649	-76.8
418.857	175.1
419.065	107.52
419.273	25.6
419.481	54.27
419.689	-31.74
419.897	-35.84
420.105	-5.12
420.313	121.85
420.521	156.67
420.729	107.52
420.937	-48.13
421.145	-48.13
421.353	117.76
421.561	166.91
421.769	-5.12
421.977	-80.89
422.185	113.66
422.393	70.65
422.601	156.67
422.809	93.18
423.017	70.65
423.224	50.18
423.432	134.14
423.64	21.5
423.848	211.96
424.056	-17.41
424.263	154.62
424.471	13.31
424.679	78.85
424.887	-58.37
425.094	123.9
425.302	-5.12
425.51	70.65
425.718	177.15
425.925	19.46
426.133	-44.03
426.341	166.91
426.548	123.9
426.756	-56.32
426.964	50.18
427.171	-29.7
427.379	68.61
427.586	25.6
427.794	107.52
428.001	140.29
428.209	89.09
428.417	87.04
428.624	91.13
428.832	187.39
429.039	66.56
429.247	27.65
429.454	168.96
429.662	166.91
429.869	103.42
430.076	107.52
430.284	144.38
430.491	222.2
430.699	35.84
430.906	197.63
431.114	80.89
431.321	87.04
431.528	156.67
431.736	74.75
431.943	216.06
432.15	148.48
432.358	140.29
432.565	207.87
432.772	-62.46
432.979	144.38
433.187	113.66
433.394	209.92
433.601	70.65
433.808	191.49
434.016	160.77
434.223	220.16
434.43	107.52
434.637	228.35
434.844	222.2
435.052	187.39
435.259	216.06
435.466	275.45
435.673	236.54
435.88	232.44
436.087	193.53
436.294	220.16
436.501	195.58
436.708	193.53
436.915	238.59
437.122	297.98
437.329	156.67
437.537	291.84
437.743	240.64
437.95	365.56
438.157	345.08
438.364	283.64
438.571	338.94
438.778	275.45
438.985	332.79
439.192	369.66
439.399	328.7
439.606	349.18
439.813	451.58
440.02	480.25
440.227	453.63
440.433	402.43
440.64	416.76
440.847	408.57
441.054	414.71
441.261	515.06
441.467	517.11
441.674	373.75
441.881	560.12
442.088	431.1
442.294	590.84
442.501	607.22
442.708	615.41
442.914	564.22
443.121	629.75
443.328	664.57
443.534	680.95
443.741	695.29
443.948	617.46
444.154	699.38
444.361	910.32
444.568	826.36
444.774	771.06
444.981	740.34
445.187	900.08
445.394	791.54
445.6	762.87
445.807	943.09
446.013	865.27
446.22	908.27
446.426	961.52
446.633	975.86
446.839	1227.76
447.046	1037.3
447.252	1287.15
447.459	1211.37
447.665	1180.65
447.871	1360.88
448.078	1461.23
448.284	1496.04
448.491	1465.32
448.697	1446.89
448.903	1602.54
449.11	1545.19
449.316	1567.72
449.522	1850.34
449.728	1661.93
449.935	1868.77
450.141	1825.76
450.347	2038.75
450.553	2135.01
450.76	2046.94
450.966	2300.89
451.172	2149.34
451.378	2300.89
451.584	2352.09
451.791	2610.14
451.997	2544.6
452.203	2581.46
452.409	2841.56
452.615	2980.82
452.821	2769.88
453.027	2798.55
453.233	3285.97
453.44	3216.33
453.646	3263.44
453.852	3369.93
454.058	3580.87
454.264	3627.98
454.47	3908.55
454.676	3898.31
454.882	4240.32
455.088	4033.47
455.294	4289.47
455.5	4633.53
455.705	4844.47
455.911	4881.33
456.117	5026.74
456.323	5256.11
456.529	5241.78
456.735	5659.56
456.941	5575.59
457.147	6073.25
457.352	6230.94
457.558	6409.12
457.764	6853.53
457.97	6902.68
458.176	7289.74
458.381	7611.28
458.587	7672.71
458.793	8000.39
458.999	8135.56
459.204	9007.99
459.41	9384.82
459.616	9075.57
459.821	9839.47
460.027	10263.4
460.233	10974.04
460.438	10943.32
460.644	11432.79
460.85	11512.66
461.055	12053.32
461.261	12501.83
461.466	12235.59
461.672	12569.41
461.878	14045.99
462.083	13779.76
462.289	14142.25
462.494	14809.89
462.7	14740.26
462.905	15117.08
463.111	16128.78
463.316	16980.73
463.522	17093.37
463.727	17969.9
463.932	18676.45
464.138	19071.71
464.343	19948.24
464.549	19909.33
464.754	21336.76
464.959	21975.73
465.165	22219.44
465.37	22289.07
465.575	22389.42
465.781	23767.7
465.986	24711.81
466.191	23890.58
466.397	24191.63
466.602	23800.47
466.807	24881.8
467.012	25477.76
467.218	25758.33
467.423	25631.35
467.628	26813.03
467.833	28166.74
468.038	27529.82
468.244	27251.3
468.449	28453.45
468.654	27839.06
