Data from USB4F104151__0__11-23-53-739.txt Node

Date: Wed Feb 26 11:23:53 EST 2025
User: louis
Spectrometer: USB4F10415
Trigger mode: 4
Integration Time (sec): 1.000000E-1
Scans to average: 1
Electric dark correction enabled: true
Nonlinearity correction enabled: false
Boxcar width: 0
XAxis mode: Wavelengths
Number of Pixels in Spectrum: 3648
>>>>>Begin Spectral Data<<<<<
178.204	-371.02
178.424	-371.02
178.644	-371.02
178.864	-463.18
179.084	-403.79
179.304	48.81
179.524	-0.34
179.744	5.8
179.964	11.95
180.184	-22.87
180.404	22.19
180.624	-86.36
180.844	7.85
181.064	-41.3
181.283	-29.01
181.503	9.9
181.723	73.39
181.943	-98.64
182.163	210.6
182.383	-63.83
182.602	81.58
182.822	159.4
183.042	85.67
183.262	-10.58
183.482	38.57
183.701	73.39
183.921	52.91
184.141	-26.96
184.361	65.19
184.58	11.95
184.8	67.24
185.02	-22.87
185.239	138.92
185.459	165.54
185.679	83.63
185.898	54.95
186.118	52.91
186.338	11.95
186.557	149.16
186.777	-26.96
186.997	42.67
187.216	65.19
187.436	122.54
187.655	128.68
187.875	124.58
188.095	83.63
188.314	57
188.534	165.54
188.753	-2.39
188.973	75.43
189.192	132.78
189.412	-8.53
189.631	-2.39
189.851	138.92
190.07	104.11
190.29	-84.31
190.509	3.75
190.729	-51.54
190.948	179.88
191.168	290.47
191.387	116.39
191.607	34.47
191.826	13.99
192.045	89.77
192.265	32.43
192.484	30.38
192.704	34.47
192.923	7.85
193.142	202.41
193.362	106.15
193.581	186.02
193.8	48.81
194.02	87.72
194.239	79.53
194.458	108.2
194.678	46.76
194.897	11.95
195.116	85.67
195.335	73.39
195.555	114.34
195.774	-22.87
195.993	100.01
196.212	110.25
196.432	-45.4
196.651	-24.92
196.87	11.95
197.089	220.84
197.308	93.87
197.528	73.39
197.747	44.71
197.966	114.34
198.185	181.93
198.404	-4.44
198.623	75.43
198.842	161.45
199.062	50.86
199.281	91.82
199.5	-18.77
199.719	48.81
199.938	87.72
200.157	110.25
200.376	42.67
200.595	93.87
200.814	24.23
201.033	61.1
201.252	159.4
201.471	26.28
201.69	95.91
201.909	65.19
202.128	188.07
202.347	44.71
202.566	42.67
202.785	-67.92
203.004	-6.49
203.223	267.94
203.442	11.95
203.661	-31.06
203.879	93.87
204.098	128.68
204.317	-22.87
204.536	65.19
204.755	91.82
204.974	67.24
205.193	44.71
205.411	112.3
205.63	100.01
205.849	63.15
206.068	38.57
206.287	-22.87
206.505	145.06
206.724	59.05
206.943	-20.82
207.162	20.14
207.381	81.58
207.599	59.05
207.818	67.24
208.037	-16.73
208.255	65.19
208.474	48.81
208.693	95.91
208.911	11.95
209.13	52.91
209.349	54.95
209.567	116.39
209.786	149.16
210.005	122.54
210.223	5.8
210.442	-16.73
210.661	40.62
210.879	114.34
211.098	112.3
211.316	-14.68
211.535	147.11
211.753	83.63
211.972	75.43
212.191	59.05
212.409	32.43
212.628	75.43
212.846	32.43
213.065	106.15
213.283	75.43
213.502	97.96
213.72	85.67
213.938	-8.53
214.157	67.24
214.375	147.11
214.594	32.43
214.812	50.86
215.031	-26.96
215.249	38.57
215.467	132.78
215.686	22.19
215.904	44.71
216.122	159.4
216.341	214.7
216.559	100.01
216.778	157.35
216.996	128.68
217.214	-4.44
217.432	5.8
217.651	42.67
217.869	38.57
218.087	61.1
218.306	24.23
218.524	40.62
218.742	5.8
218.96	120.49
219.179	57
219.397	-0.34
219.615	302.76
219.833	177.83
220.051	-14.68
220.27	87.72
220.488	81.58
220.706	91.82
220.924	61.1
221.142	48.81
221.36	40.62
221.578	9.9
221.796	42.67
222.015	9.9
222.233	59.05
222.451	157.35
222.669	11.95
222.887	42.67
223.105	24.23
223.323	75.43
223.541	-59.73
223.759	34.47
223.977	100.01
224.195	212.65
224.413	143.02
224.631	79.53
224.849	42.67
225.067	237.22
225.285	-14.68
225.503	-4.44
225.721	-29.01
225.939	36.52
226.157	77.48
226.375	149.16
226.592	-6.49
226.81	57
227.028	77.48
227.246	116.39
227.464	79.53
227.682	77.48
227.9	75.43
228.117	85.67
228.335	175.78
228.553	59.05
228.771	-20.82
228.989	114.34
229.206	36.52
229.424	-24.92
229.642	13.99
229.86	-53.59
230.077	208.55
230.295	61.1
230.513	73.39
230.731	97.96
230.948	163.5
231.166	247.46
231.384	57
231.601	-74.07
231.819	188.07
232.037	20.14
232.254	9.9
232.472	36.52
232.689	46.76
232.907	128.68
233.125	-37.2
233.342	-2.39
233.56	61.1
233.777	-4.44
233.995	95.91
234.213	63.15
234.43	16.04
234.648	26.28
234.865	48.81
235.083	106.15
235.3	108.2
235.518	77.48
235.735	91.82
235.953	102.06
236.17	63.15
236.388	22.19
236.605	-2.39
236.822	93.87
237.04	153.26
237.257	42.67
237.475	-6.49
237.692	149.16
237.909	140.97
238.127	85.67
238.344	48.81
238.562	69.29
238.779	-49.49
238.996	-26.96
239.214	20.14
239.431	83.63
239.648	7.85
239.865	167.59
240.083	77.48
240.3	-14.68
240.517	63.15
240.735	77.48
240.952	151.21
241.169	118.44
241.386	171.69
241.603	13.99
241.821	-16.73
242.038	110.25
242.255	120.49
242.472	-6.49
242.689	153.26
242.907	-4.44
243.124	81.58
243.341	20.14
243.558	120.49
243.775	-35.16
243.992	-16.73
244.209	102.06
244.426	190.12
244.643	42.67
244.86	16.04
245.078	106.15
245.295	91.82
245.512	1.71
245.729	-6.49
245.946	145.06
246.163	-4.44
246.38	-51.54
246.597	91.82
246.814	7.85
247.031	24.23
247.248	18.09
247.464	1.71
247.681	63.15
247.898	46.76
248.115	42.67
248.332	-2.39
248.549	155.3
248.766	175.78
248.983	108.2
249.2	104.11
249.417	52.91
249.633	-0.34
249.85	89.77
250.067	46.76
250.284	69.29
250.501	11.95
250.717	89.77
250.934	-35.16
251.151	61.1
251.368	46.76
251.585	61.1
251.801	63.15
252.018	-31.06
252.235	73.39
252.451	-53.59
252.668	18.09
252.885	149.16
253.102	69.29
253.318	-20.82
253.535	24.23
253.752	-0.34
253.968	20.14
254.185	-33.11
254.401	46.76
254.618	36.52
254.835	28.33
255.051	149.16
255.268	32.43
255.484	155.3
255.701	34.47
255.917	34.47
256.134	5.8
256.351	57
256.567	-76.12
256.784	40.62
257	9.9
257.217	114.34
257.433	100.01
257.65	52.91
257.866	159.4
258.082	-22.87
258.299	-63.83
258.515	18.09
258.732	-0.34
258.948	-41.3
259.165	120.49
259.381	-78.16
259.597	132.78
259.814	-0.34
260.03	57
260.246	16.04
260.463	106.15
260.679	130.73
260.895	95.91
261.112	112.3
261.328	97.96
261.544	89.77
261.761	149.16
261.977	-10.58
262.193	-55.64
262.409	87.72
262.626	59.05
262.842	63.15
263.058	-16.73
263.274	85.67
263.49	28.33
263.707	91.82
263.923	87.72
264.139	-100.69
264.355	46.76
264.571	149.16
264.787	87.72
265.004	143.02
265.22	22.19
265.436	7.85
265.652	36.52
265.868	30.38
266.084	-65.88
266.3	48.81
266.516	-51.54
266.732	28.33
266.948	59.05
267.164	61.1
267.38	134.82
267.596	46.76
267.812	122.54
268.028	13.99
268.244	9.9
268.46	61.1
268.676	54.95
268.892	116.39
269.108	28.33
269.324	42.67
269.54	18.09
269.756	110.25
269.972	11.95
270.188	44.71
270.403	-121.17
270.619	67.24
270.835	61.1
271.051	22.19
271.267	59.05
271.483	46.76
271.698	114.34
271.914	130.73
272.13	34.47
272.346	-4.44
272.562	67.24
272.777	106.15
272.993	42.67
273.209	32.43
273.425	73.39
273.64	-59.73
273.856	71.34
274.072	-53.59
274.287	48.81
274.503	161.45
274.719	181.93
274.934	5.8
275.15	-18.77
275.366	38.57
275.581	-35.16
275.797	42.67
276.012	118.44
276.228	-61.78
276.444	75.43
276.659	218.79
276.875	-74.07
277.09	22.19
277.306	52.91
277.521	69.29
277.737	40.62
277.952	159.4
278.168	40.62
278.383	85.67
278.599	44.71
278.814	151.21
279.03	7.85
279.245	177.83
279.461	-20.82
279.676	124.58
279.892	-41.3
280.107	-57.68
280.322	-31.06
280.538	95.91
280.753	9.9
280.969	122.54
281.184	18.09
281.399	118.44
281.615	77.48
281.83	44.71
282.045	-100.69
282.26	20.14
282.476	73.39
282.691	73.39
282.906	95.91
283.122	108.2
283.337	-80.21
283.552	145.06
283.767	22.19
283.983	87.72
284.198	130.73
284.413	32.43
284.628	-16.73
284.843	57
285.058	22.19
285.274	24.23
285.489	-12.63
285.704	159.4
285.919	-39.25
286.134	34.47
286.349	9.9
286.564	-26.96
286.779	216.74
286.995	69.29
287.21	-16.73
287.425	73.39
287.64	54.95
287.855	71.34
288.07	1.71
288.285	120.49
288.5	97.96
288.715	52.91
288.93	57
289.145	-20.82
289.36	171.69
289.575	38.57
289.79	136.87
290.004	75.43
290.219	95.91
290.434	-24.92
290.649	-14.68
290.864	44.71
291.079	-37.2
291.294	79.53
291.509	34.47
291.724	89.77
291.938	-20.82
292.153	63.15
292.368	-14.68
292.583	75.43
292.798	138.92
293.012	93.87
293.227	44.71
293.442	32.43
293.657	132.78
293.871	134.82
294.086	85.67
294.301	214.7
294.516	128.68
294.73	73.39
294.945	28.33
295.16	130.73
295.374	93.87
295.589	65.19
295.804	-8.53
296.018	102.06
296.233	122.54
296.447	54.95
296.662	54.95
296.877	138.92
297.091	97.96
297.306	77.48
297.52	106.15
297.735	40.62
297.949	75.43
298.164	-16.73
298.378	106.15
298.593	-18.77
298.807	-22.87
299.022	5.8
299.236	153.26
299.451	63.15
299.665	-12.63
299.88	-29.01
300.094	104.11
300.309	-31.06
300.523	52.91
300.737	-6.49
300.952	97.96
301.166	59.05
301.381	-74.07
301.595	-37.2
301.809	91.82
302.024	32.43
302.238	-10.58
302.452	87.72
302.667	77.48
302.881	179.88
303.095	85.67
303.309	71.34
303.524	-22.87
303.738	5.8
303.952	-47.44
304.166	63.15
304.381	-135.51
304.595	145.06
304.809	46.76
305.023	5.8
305.237	-2.39
305.452	-31.06
305.666	132.78
305.88	87.72
306.094	128.68
306.308	116.39
306.522	57
306.736	48.81
306.95	124.58
307.164	32.43
307.379	91.82
307.593	165.54
307.807	85.67
308.021	224.94
308.235	155.3
308.449	44.71
308.663	40.62
308.877	200.36
309.091	97.96
309.305	42.67
309.519	-86.36
309.733	214.7
309.947	-39.25
310.161	81.58
310.374	134.82
310.588	95.91
310.802	69.29
311.016	7.85
311.23	87.72
311.444	-55.64
311.658	5.8
311.872	52.91
312.085	157.35
312.299	165.54
312.513	163.5
312.727	116.39
312.941	1.71
313.154	59.05
313.368	91.82
313.582	46.76
313.796	69.29
314.009	22.19
314.223	138.92
314.437	42.67
314.651	110.25
314.864	-8.53
315.078	7.85
315.292	-78.16
315.505	-2.39
315.719	95.91
315.933	48.81
316.146	71.34
316.36	-26.96
316.573	85.67
316.787	116.39
317.001	67.24
317.214	-55.64
317.428	106.15
317.641	-51.54
317.855	24.23
318.068	75.43
318.282	-24.92
318.495	173.74
318.709	143.02
318.922	65.19
319.136	116.39
319.349	67.24
319.563	-29.01
319.776	83.63
319.99	-98.64
320.203	79.53
320.417	52.91
320.63	85.67
320.843	208.55
321.057	159.4
321.27	24.23
321.483	116.39
321.697	149.16
321.91	20.14
322.124	126.63
322.337	7.85
322.55	-12.63
322.763	106.15
322.977	-12.63
323.19	-14.68
323.403	50.86
323.617	69.29
323.83	61.1
324.043	44.71
324.256	93.87
324.469	-65.88
324.683	79.53
324.896	-2.39
325.109	1.71
325.322	50.86
325.535	89.77
325.748	124.58
325.962	46.76
326.175	79.53
326.388	108.2
326.601	163.5
326.814	-59.73
327.027	16.04
327.24	153.26
327.453	-78.16
327.666	73.39
327.879	134.82
328.092	32.43
328.305	11.95
328.518	18.09
328.731	26.28
328.944	71.34
329.157	40.62
329.37	48.81
329.583	259.75
329.796	95.91
330.009	38.57
330.222	120.49
330.435	93.87
330.648	7.85
330.861	61.1
331.073	32.43
331.286	149.16
331.499	34.47
331.712	30.38
331.925	54.95
332.138	16.04
332.35	100.01
332.563	-29.01
332.776	116.39
332.989	-24.92
333.202	36.52
333.414	22.19
333.627	46.76
333.84	9.9
334.053	61.1
334.265	26.28
334.478	69.29
334.691	1.71
334.903	20.14
335.116	-43.35
335.329	20.14
335.541	108.2
335.754	243.37
335.966	36.52
336.179	28.33
336.392	-47.44
336.604	52.91
336.817	124.58
337.029	97.96
337.242	16.04
337.454	83.63
337.667	24.23
337.88	93.87
338.092	81.58
338.305	116.39
338.517	-0.34
338.729	126.63
338.942	102.06
339.154	22.19
339.367	-29.01
339.579	71.34
339.792	-10.58
340.004	114.34
340.217	3.75
340.429	97.96
340.641	-43.35
340.854	-18.77
341.066	71.34
341.278	83.63
341.491	210.6
341.703	38.57
341.915	67.24
342.128	145.06
342.34	48.81
342.552	63.15
342.764	-24.92
342.977	-14.68
343.189	71.34
343.401	28.33
343.613	28.33
343.826	52.91
344.038	-14.68
344.25	30.38
344.462	9.9
344.674	95.91
344.886	69.29
345.099	1.71
345.311	104.11
345.523	-18.77
345.735	-102.74
345.947	16.04
346.159	83.63
346.371	20.14
346.583	16.04
346.795	257.7
347.007	50.86
347.219	48.81
347.431	-18.77
347.643	202.41
347.855	36.52
348.067	75.43
348.279	-20.82
348.491	89.77
348.703	79.53
348.915	-0.34
349.127	7.85
349.339	36.52
349.551	-31.06
349.763	95.91
349.975	75.43
350.187	120.49
350.399	177.83
350.61	83.63
350.822	-18.77
351.034	11.95
351.246	63.15
351.458	120.49
351.669	67.24
351.881	116.39
352.093	93.87
352.305	149.16
352.517	124.58
352.728	136.87
352.94	57
353.152	140.97
353.363	-20.82
353.575	108.2
353.787	165.54
353.999	34.47
354.21	157.35
354.422	-14.68
354.633	-2.39
354.845	77.48
355.057	87.72
355.268	34.47
355.48	52.91
355.692	-12.63
355.903	104.11
356.115	-2.39
356.326	-57.68
356.538	126.63
356.749	130.73
356.961	69.29
357.172	24.23
357.384	-98.64
357.595	267.94
357.807	28.33
358.018	100.01
358.23	-10.58
358.441	114.34
358.653	77.48
358.864	34.47
359.075	50.86
359.287	91.82
359.498	136.87
359.709	151.21
359.921	16.04
360.132	34.47
360.344	30.38
360.555	71.34
360.766	34.47
360.977	63.15
361.189	87.72
361.4	46.76
361.611	140.97
361.823	50.86
362.034	71.34
362.245	-26.96
362.456	36.52
362.667	167.59
362.879	-22.87
363.09	54.95
363.301	32.43
363.512	-16.73
363.723	-43.35
363.935	34.47
364.146	95.91
364.357	44.71
364.568	11.95
364.779	-45.4
364.99	147.11
365.201	95.91
365.412	106.15
365.623	-8.53
365.834	57
366.045	24.23
366.256	122.54
366.467	145.06
366.678	-10.58
366.889	-18.77
367.1	-2.39
367.311	81.58
367.522	65.19
367.733	63.15
367.944	83.63
368.155	-6.49
368.366	75.43
368.577	93.87
368.788	112.3
368.999	9.9
369.209	-4.44
369.42	235.18
369.631	196.26
369.842	52.91
370.053	46.76
370.264	81.58
370.474	26.28
370.685	130.73
370.896	63.15
371.107	151.21
371.317	106.15
371.528	30.38
371.739	155.3
371.95	38.57
372.16	26.28
372.371	-37.2
372.582	-26.96
372.792	44.71
373.003	102.06
373.214	54.95
373.424	54.95
373.635	1.71
373.846	89.77
374.056	32.43
374.267	65.19
374.477	118.44
374.688	7.85
374.898	63.15
375.109	57
375.319	108.2
375.53	87.72
375.74	118.44
375.951	-6.49
376.161	67.24
376.372	52.91
376.582	-72.02
376.793	81.58
377.003	-20.82
377.214	28.33
377.424	175.78
377.635	83.63
377.845	-49.49
378.055	153.26
378.266	-35.16
378.476	16.04
378.686	95.91
378.897	44.71
379.107	87.72
379.317	32.43
379.528	-45.4
379.738	9.9
379.948	-41.3
380.158	69.29
380.369	-18.77
380.579	73.39
380.789	81.58
380.999	110.25
381.21	104.11
381.42	229.03
381.63	85.67
381.84	118.44
382.05	155.3
382.261	163.5
382.471	143.02
382.681	38.57
382.891	128.68
383.101	132.78
383.311	57
383.521	20.14
383.731	155.3
383.941	106.15
384.151	40.62
384.361	13.99
384.571	69.29
384.781	57
384.991	233.13
385.201	194.22
385.411	100.01
385.621	87.72
385.831	40.62
386.041	77.48
386.251	-6.49
386.461	83.63
386.671	61.1
386.881	30.38
387.091	89.77
387.301	124.58
387.511	108.2
387.72	59.05
387.93	85.67
388.14	-57.68
388.35	73.39
388.56	138.92
388.769	145.06
388.979	106.15
389.189	-67.92
389.399	30.38
389.609	153.26
389.818	91.82
390.028	24.23
390.238	22.19
390.447	48.81
390.657	91.82
390.867	-22.87
391.076	-43.35
391.286	34.47
391.496	-31.06
391.705	26.28
391.915	130.73
392.125	218.79
392.334	18.09
392.544	73.39
392.753	75.43
392.963	5.8
393.172	-22.87
393.382	1.71
393.591	181.93
393.801	24.23
394.01	183.98
394.22	175.78
394.429	1.71
394.639	40.62
394.848	95.91
395.058	63.15
395.267	-6.49
395.477	159.4
395.686	122.54
395.895	186.02
396.105	212.65
396.314	118.44
396.524	26.28
396.733	126.63
396.942	81.58
397.152	73.39
397.361	149.16
397.57	91.82
397.78	44.71
397.989	120.49
398.198	200.36
398.407	9.9
398.617	30.38
398.826	69.29
399.035	22.19
399.244	130.73
399.453	36.52
399.663	124.58
399.872	114.34
400.081	-45.4
400.29	204.46
400.499	28.33
400.708	79.53
400.917	44.71
401.127	73.39
401.336	16.04
401.545	177.83
401.754	104.11
401.963	89.77
402.172	16.04
402.381	34.47
402.59	50.86
402.799	32.43
403.008	163.5
403.217	104.11
403.426	65.19
403.635	-59.73
403.844	65.19
404.053	-39.25
404.262	5.8
404.471	200.36
404.68	95.91
404.888	5.8
405.097	132.78
405.306	93.87
405.515	153.26
405.724	38.57
405.933	128.68
406.142	73.39
406.35	204.46
406.559	36.52
406.768	73.39
406.977	151.21
407.185	57
407.394	95.91
407.603	-31.06
407.812	-0.34
408.02	112.3
408.229	48.81
408.438	13.99
408.646	-43.35
408.855	28.33
409.064	54.95
409.272	52.91
409.481	124.58
409.69	40.62
409.898	-63.83
410.107	71.34
410.315	157.35
410.524	-4.44
410.733	71.34
410.941	106.15
411.15	87.72
411.358	167.59
411.567	175.78
411.775	50.86
411.984	75.43
412.192	108.2
412.401	81.58
412.609	192.17
412.818	157.35
413.026	59.05
413.234	73.39
413.443	89.77
413.651	-2.39
413.86	102.06
414.068	151.21
414.276	212.65
414.485	26.28
414.693	95.91
414.901	138.92
415.11	77.48
415.318	42.67
415.526	26.28
415.734	143.02
415.943	46.76
416.151	63.15
416.359	48.81
416.567	83.63
416.776	85.67
416.984	106.15
417.192	177.83
417.4	97.96
417.608	81.58
417.817	-10.58
418.025	89.77
418.233	161.45
418.441	40.62
418.649	-10.58
418.857	120.49
419.065	200.36
419.273	30.38
419.481	134.82
419.689	48.81
419.897	-2.39
420.105	3.75
420.313	97.96
420.521	163.5
420.729	194.22
420.937	106.15
421.145	-33.11
421.353	220.84
421.561	116.39
421.769	143.02
421.977	-18.77
422.185	79.53
422.393	38.57
422.601	95.91
422.809	106.15
423.017	48.81
423.224	50.86
423.432	167.59
423.64	48.81
423.848	77.48
424.056	63.15
424.263	122.54
424.471	65.19
424.679	149.16
424.887	126.63
425.094	108.2
425.302	63.15
425.51	-4.44
425.718	183.98
425.925	95.91
426.133	5.8
426.341	237.22
426.548	97.96
426.756	59.05
426.964	136.87
427.171	93.87
427.379	138.92
427.586	20.14
427.794	179.88
428.001	138.92
428.209	67.24
428.417	186.02
428.624	204.46
428.832	140.97
429.039	138.92
429.247	97.96
429.454	147.11
429.662	198.31
429.869	175.78
430.076	102.06
430.284	247.46
430.491	151.21
430.699	183.98
430.906	294.57
431.114	138.92
431.321	163.5
431.528	81.58
431.736	177.83
431.943	126.63
432.15	233.13
432.358	198.31
432.565	329.38
432.772	34.47
432.979	239.27
433.187	114.34
433.394	243.37
433.601	124.58
433.808	173.74
434.016	237.22
434.223	212.65
434.43	226.98
434.637	265.89
434.844	196.26
435.052	169.64
435.259	302.76
435.466	382.63
435.673	315.05
435.88	284.33
436.087	337.57
436.294	259.75
436.501	319.14
436.708	220.84
436.915	327.33
437.122	347.81
437.329	280.23
437.537	313
437.743	362.15
437.95	474.79
438.157	386.72
438.364	466.6
438.571	378.53
438.778	411.3
438.985	360.1
439.192	493.22
439.399	394.92
439.606	419.49
439.813	560.8
440.02	622.24
440.227	628.39
440.433	505.51
440.64	532.13
440.847	470.69
441.054	534.18
441.261	714.4
441.467	523.94
441.674	677.54
441.881	710.3
442.088	620.19
442.294	736.93
442.501	812.7
442.708	741.02
442.914	868
443.121	822.94
443.328	818.85
443.534	968.35
443.741	790.17
443.948	716.45
444.154	927.39
444.361	1111.71
444.568	970.4
444.774	992.92
444.981	1017.5
445.187	1119.9
445.394	1103.51
445.6	1130.14
445.807	1246.87
446.013	1175.19
446.22	1228.44
446.426	1330.84
446.633	1519.25
446.839	1627.79
447.046	1312.41
447.252	1650.32
447.459	1670.8
447.665	1537.68
447.871	1851.02
448.078	1834.64
448.284	1758.86
448.491	1969.8
448.697	1988.24
448.903	2098.83
449.11	2145.93
449.316	1998.48
449.522	2262.66
449.728	2397.83
449.935	2485.89
450.141	2315.91
450.347	2565.76
450.553	2614.91
450.76	2698.88
450.966	2924.16
451.172	2860.67
451.378	3038.84
451.584	3020.41
451.791	3376.76
451.997	3329.66
452.203	3364.47
452.409	3677.81
452.615	3806.83
452.821	3653.23
453.027	3765.87
453.233	4226.67
453.44	4177.51
453.646	4339.3
453.852	4437.61
454.058	4779.62
454.264	4775.52
454.47	5015.13
454.676	5144.16
454.882	5729.88
455.088	5428.82
455.294	5568.09
455.5	6174.28
455.705	6383.18
455.911	6139.47
456.117	6432.33
456.323	6755.91
456.529	6637.13
456.735	7349.82
456.941	7433.79
457.147	8027.7
457.352	8232.49
457.558	8298.03
457.764	8947.23
457.97	9109.02
458.176	9139.74
458.381	9682.45
458.587	9954.83
458.793	10470.92
458.999	10386.96
459.204	11779.57
459.41	12248.56
459.616	11822.58
459.821	12738.02
460.027	13288.93
460.233	13542.88
460.438	14089.68
460.644	14644.68
460.85	14712.27
461.055	15412.67
461.261	16154.04
461.466	15642.04
461.672	15902.14
461.878	18003.35
462.083	17884.57
462.289	18075.03
462.494	19062.15
462.7	19076.49
462.905	19484.03
463.111	20866.41
463.316	21888.35
463.522	22508.88
463.727	23137.61
463.932	24012.09
464.138	24425.78
464.343	25525.54
464.549	25916.7
464.754	27731.2
464.959	28447.99
465.165	29013.23
465.37	28423.42
465.575	28691.7
465.781	30555.35
465.986	31341.77
466.191	31456.46
466.397	31343.82
466.602	30579.93
466.807	32472.25
467.012	32976.05
467.218	33336.49
467.423	33543.34
467.628	34620.57
467.833	36021.38
468.038	35214.48
468.244	34786.46
468.449	36494.46
468.654	36258.95
468.859	36011.14
