Data from USB4F104151__99__10-35-33-027.txt Node

Date: Wed Feb 26 10:35:33 EST 2025
User: louis
Spectrometer: USB4F10415
Trigger mode: 4
Integration Time (sec): 1.000000E-1
Scans to average: 1
Electric dark correction enabled: true
Nonlinearity correction enabled: false
Boxcar width: 0
XAxis mode: Wavelengths
Number of Pixels in Spectrum: 3648
>>>>>Begin Spectral Data<<<<<
178.204	-415.4
178.424	-415.4
178.644	-415.4
178.864	-423.59
179.084	-376.48
179.304	-40.62
179.524	-34.47
179.744	26.96
179.964	51.54
180.184	-11.95
180.404	98.64
180.624	-38.57
180.844	2.39
181.064	-67.24
181.283	22.87
181.503	-100.01
181.723	90.45
181.943	-52.91
182.163	194.9
182.383	-16.04
182.602	84.31
182.822	76.12
183.042	88.4
183.262	-36.52
183.482	20.82
183.701	22.87
183.921	20.82
184.141	-54.95
184.361	98.64
184.58	100.69
184.8	2.39
185.02	24.92
185.239	65.88
185.459	86.36
185.679	125.27
185.898	-40.62
186.118	76.12
186.338	-5.8
186.557	90.45
186.777	-20.14
186.997	65.88
187.216	82.26
187.436	246.1
187.655	160.08
187.875	78.16
188.095	-3.75
188.314	121.17
188.534	108.88
188.753	-50.86
188.973	172.37
189.192	74.07
189.412	22.87
189.631	26.96
189.851	102.74
190.07	80.21
190.29	-57
190.509	8.53
190.729	14.68
190.948	115.03
191.168	211.28
191.387	16.73
191.607	22.87
191.826	94.55
192.045	10.58
192.265	63.83
192.484	57.68
192.704	45.4
192.923	-11.95
193.142	104.79
193.362	188.75
193.581	65.88
193.8	57.68
194.02	18.77
194.239	59.73
194.458	88.4
194.678	63.83
194.897	24.92
195.116	37.2
195.335	100.69
195.555	115.03
195.774	-22.19
195.993	74.07
196.212	57.68
196.432	20.82
196.651	-63.15
196.87	117.08
197.089	217.43
197.308	88.4
197.528	37.2
197.747	-16.04
197.966	104.79
198.185	125.27
198.404	2.39
198.623	76.12
198.842	176.47
199.062	80.21
199.281	88.4
199.5	-24.23
199.719	51.54
199.938	186.71
200.157	24.92
200.376	153.94
200.595	145.75
200.814	74.07
201.033	39.25
201.252	143.7
201.471	39.25
201.69	90.45
201.909	65.88
202.128	178.51
202.347	96.6
202.566	55.64
202.785	-59.05
203.004	-32.43
203.223	227.67
203.442	69.97
203.661	-26.28
203.879	24.92
204.098	127.32
204.317	59.73
204.536	12.63
204.755	131.41
204.974	92.5
205.193	-54.95
205.411	98.64
205.63	100.69
205.849	55.64
206.068	43.35
206.287	18.77
206.505	149.84
206.724	53.59
206.943	-57
207.162	-24.23
207.381	184.66
207.599	-26.28
207.818	100.69
208.037	-46.76
208.255	10.58
208.474	166.23
208.693	-52.91
208.911	39.25
209.13	65.88
209.349	110.93
209.567	72.02
209.786	47.44
210.005	98.64
210.223	98.64
210.442	-124.58
210.661	35.16
210.879	43.35
211.098	35.16
211.316	55.64
211.535	67.92
211.753	-7.85
211.972	84.31
212.191	16.73
212.409	-7.85
212.628	112.98
212.846	-34.47
213.065	35.16
213.283	82.26
213.502	69.97
213.72	110.93
213.938	63.83
214.157	82.26
214.375	127.32
214.594	39.25
214.812	76.12
215.031	4.44
215.249	104.79
215.467	33.11
215.686	41.3
215.904	78.16
216.122	55.64
216.341	121.17
216.559	8.53
216.778	72.02
216.996	170.32
217.214	35.16
217.432	6.49
217.651	-71.34
217.869	-18.09
218.087	35.16
218.306	33.11
218.524	-3.75
218.742	43.35
218.96	72.02
219.179	55.64
219.397	8.53
219.615	262.48
219.833	151.89
220.051	37.2
220.27	117.08
220.488	88.4
220.706	92.5
220.924	12.63
221.142	20.82
221.36	61.78
221.578	2.39
221.796	33.11
222.015	63.83
222.233	31.06
222.451	164.18
222.669	-3.75
222.887	90.45
223.105	-11.95
223.323	33.11
223.541	6.49
223.759	90.45
223.977	6.49
224.195	180.56
224.413	100.69
224.631	82.26
224.849	98.64
225.067	186.71
225.285	-67.24
225.503	-7.85
225.721	-30.38
225.939	69.97
226.157	100.69
226.375	250.19
226.592	-18.09
226.81	-18.09
227.028	24.92
227.246	127.32
227.464	51.54
227.682	121.17
227.9	31.06
228.117	78.16
228.335	139.6
228.553	67.92
228.771	-26.28
228.989	61.78
229.206	90.45
229.424	31.06
229.642	-38.57
229.86	-52.91
230.077	168.27
230.295	16.73
230.513	117.08
230.731	72.02
230.948	217.43
231.166	178.51
231.384	84.31
231.601	-11.95
231.819	184.66
232.037	-26.28
232.254	24.92
232.472	18.77
232.689	29.01
232.907	172.37
233.125	6.49
233.342	49.49
233.56	24.92
233.777	18.77
233.995	22.87
234.213	155.99
234.43	125.27
234.648	-48.81
234.865	29.01
235.083	69.97
235.3	33.11
235.518	78.16
235.735	69.97
235.953	39.25
236.17	57.68
236.388	-16.04
236.605	-42.67
236.822	63.83
237.04	155.99
237.257	90.45
237.475	12.63
237.692	59.73
237.909	149.84
238.127	63.83
238.344	149.84
238.562	121.17
238.779	-7.85
238.996	-40.62
239.214	2.39
239.431	51.54
239.648	2.39
239.865	143.7
240.083	76.12
240.3	-16.04
240.517	6.49
240.735	100.69
240.952	135.51
241.169	133.46
241.386	4.44
241.603	43.35
241.821	-52.91
242.038	96.6
242.255	43.35
242.472	-46.76
242.689	63.83
242.907	104.79
243.124	139.6
243.341	16.73
243.558	35.16
243.775	-24.23
243.992	-89.77
244.209	80.21
244.426	192.85
244.643	74.07
244.86	69.97
245.078	45.4
245.295	-9.9
245.512	-32.43
245.729	47.44
245.946	10.58
246.163	-9.9
246.38	51.54
246.597	78.16
246.814	41.3
247.031	65.88
247.248	80.21
247.464	102.74
247.681	55.64
247.898	94.55
248.115	59.73
248.332	0.34
248.549	76.12
248.766	102.74
248.983	65.88
249.2	110.93
249.417	115.03
249.633	-18.09
249.85	149.84
250.067	47.44
250.284	92.5
250.501	180.56
250.717	112.98
250.934	-38.57
251.151	29.01
251.368	22.87
251.585	69.97
251.801	31.06
252.018	-44.71
252.235	133.46
252.451	-65.19
252.668	14.68
252.885	74.07
253.102	53.59
253.318	-7.85
253.535	14.68
253.752	-13.99
253.968	-7.85
254.185	-54.95
254.401	12.63
254.618	-18.09
254.835	-16.04
255.051	168.27
255.268	24.92
255.484	72.02
255.701	35.16
255.917	-16.04
256.134	-20.14
256.351	141.65
256.567	8.53
256.784	-32.43
257	-40.62
257.217	41.3
257.433	49.49
257.65	-36.52
257.866	172.37
258.082	-28.33
258.299	2.39
258.515	2.39
258.732	31.06
258.948	-44.71
259.165	31.06
259.381	-7.85
259.597	57.68
259.814	65.88
260.03	18.77
260.246	26.96
260.463	76.12
260.679	205.14
260.895	45.4
261.112	106.84
261.328	-18.09
261.544	26.96
261.761	117.08
261.977	2.39
262.193	-108.2
262.409	162.13
262.626	102.74
262.842	53.59
263.058	16.73
263.274	104.79
263.49	22.87
263.707	172.37
263.923	125.27
264.139	-91.82
264.355	86.36
264.571	141.65
264.787	51.54
265.004	155.99
265.22	94.55
265.436	-40.62
265.652	24.92
265.868	61.78
266.084	-16.04
266.3	49.49
266.516	86.36
266.732	90.45
266.948	129.36
267.164	35.16
267.38	98.64
267.596	78.16
267.812	207.19
268.028	55.64
268.244	-22.19
268.46	-36.52
268.676	12.63
268.892	35.16
269.108	-61.1
269.324	-75.43
269.54	-9.9
269.756	82.26
269.972	22.87
270.188	-26.28
270.403	4.44
270.619	-18.09
270.835	2.39
271.051	51.54
271.267	18.77
271.483	2.39
271.698	61.78
271.914	49.49
272.13	63.83
272.346	-26.28
272.562	-57
272.777	112.98
272.993	39.25
273.209	14.68
273.425	63.83
273.64	-110.25
273.856	149.84
274.072	-54.95
274.287	-44.71
274.503	14.68
274.719	88.4
274.934	47.44
275.15	-54.95
275.366	59.73
275.581	4.44
275.797	74.07
276.012	117.08
276.228	-13.99
276.444	26.96
276.659	143.7
276.875	-79.53
277.09	-7.85
277.306	-5.8
277.521	49.49
277.737	2.39
277.952	131.41
278.168	84.31
278.383	67.92
278.599	90.45
278.814	82.26
279.03	88.4
279.245	166.23
279.461	49.49
279.676	76.12
279.892	-13.99
280.107	-89.77
280.322	35.16
280.538	-5.8
280.753	-48.81
280.969	24.92
281.184	72.02
281.399	110.93
281.615	-9.9
281.83	92.5
282.045	-9.9
282.26	-50.86
282.476	-11.95
282.691	106.84
282.906	43.35
283.122	-5.8
283.337	-30.38
283.552	31.06
283.767	0.34
283.983	104.79
284.198	69.97
284.413	115.03
284.628	-42.67
284.843	57.68
285.058	65.88
285.274	67.92
285.489	14.68
285.704	139.6
285.919	-69.29
286.134	20.82
286.349	6.49
286.564	-36.52
286.779	176.47
286.995	84.31
287.21	-9.9
287.425	94.55
287.64	18.77
287.855	53.59
288.07	-59.05
288.285	98.64
288.5	203.09
288.715	98.64
288.93	2.39
289.145	12.63
289.36	98.64
289.575	35.16
289.79	108.88
290.004	-38.57
290.219	129.36
290.434	-13.99
290.649	37.2
290.864	-30.38
291.079	6.49
291.294	76.12
291.509	49.49
291.724	-3.75
291.938	39.25
292.153	67.92
292.368	53.59
292.583	-9.9
292.798	149.84
293.012	49.49
293.227	72.02
293.442	-9.9
293.657	123.22
293.871	153.94
294.086	98.64
294.301	137.56
294.516	110.93
294.73	37.2
294.945	14.68
295.16	2.39
295.374	100.69
295.589	53.59
295.804	-65.19
296.018	98.64
296.233	86.36
296.447	127.32
296.662	43.35
296.877	123.22
297.091	65.88
297.306	65.88
297.52	80.21
297.735	80.21
297.949	69.97
298.164	53.59
298.378	43.35
298.593	-40.62
298.807	-7.85
299.022	84.31
299.236	127.32
299.451	72.02
299.665	86.36
299.88	45.4
300.094	20.82
300.309	16.73
300.523	135.51
300.737	-36.52
300.952	151.89
301.166	-9.9
301.381	33.11
301.595	14.68
301.809	39.25
302.024	63.83
302.238	8.53
302.452	84.31
302.667	-63.15
302.881	145.75
303.095	112.98
303.309	78.16
303.524	-22.19
303.738	106.84
303.952	-52.91
304.166	49.49
304.381	-190.12
304.595	108.88
304.809	-18.09
305.023	14.68
305.237	-75.43
305.452	4.44
305.666	74.07
305.88	55.64
306.094	80.21
306.308	153.94
306.522	55.64
306.736	57.68
306.95	102.74
307.164	-40.62
307.379	-3.75
307.593	135.51
307.807	98.64
308.021	74.07
308.235	74.07
308.449	-71.34
308.663	-46.76
308.877	180.56
309.091	-42.67
309.305	67.92
309.519	-165.54
309.733	104.79
309.947	18.77
310.161	41.3
310.374	117.08
310.588	106.84
310.802	-59.05
311.016	-5.8
311.23	41.3
311.444	22.87
311.658	20.82
311.872	115.03
312.085	129.36
312.299	135.51
312.513	112.98
312.727	104.79
312.941	49.49
313.154	92.5
313.368	33.11
313.582	-18.09
313.796	43.35
314.009	35.16
314.223	78.16
314.437	59.73
314.651	110.93
314.864	-16.04
315.078	-24.23
315.292	-40.62
315.505	76.12
315.719	69.97
315.933	141.65
316.146	51.54
316.36	-5.8
316.573	100.69
316.787	-28.33
317.001	22.87
317.214	0.34
317.428	37.2
317.641	-34.47
317.855	-71.34
318.068	86.36
318.282	45.4
318.495	211.28
318.709	80.21
318.922	65.88
319.136	119.12
319.349	47.44
319.563	-13.99
319.776	98.64
319.99	-120.49
320.203	149.84
320.417	26.96
320.63	53.59
320.843	168.27
321.057	51.54
321.27	63.83
321.483	69.97
321.697	223.57
321.91	-30.38
322.124	94.55
322.337	86.36
322.55	59.73
322.763	63.83
322.977	-46.76
323.19	12.63
323.403	63.83
323.617	72.02
323.83	123.22
324.043	2.39
324.256	33.11
324.469	-13.99
324.683	100.69
324.896	-7.85
325.109	-3.75
325.322	-110.25
325.535	92.5
325.748	110.93
325.962	47.44
326.175	106.84
326.388	121.17
326.601	63.83
326.814	-5.8
327.027	51.54
327.24	112.98
327.453	10.58
327.666	115.03
327.879	104.79
328.092	72.02
328.305	143.7
328.518	-59.05
328.731	20.82
328.944	39.25
329.157	98.64
329.37	-16.04
329.583	139.6
329.796	201.04
330.009	0.34
330.222	137.56
330.435	86.36
330.648	125.27
330.861	67.92
331.073	65.88
331.286	69.97
331.499	6.49
331.712	102.74
331.925	29.01
332.138	24.92
332.35	55.64
332.563	-57
332.776	82.26
332.989	-18.09
333.202	-32.43
333.414	88.4
333.627	59.73
333.84	39.25
334.053	72.02
334.265	-81.58
334.478	6.49
334.691	59.73
334.903	35.16
335.116	-36.52
335.329	63.83
335.541	37.2
335.754	237.91
335.966	2.39
336.179	39.25
336.392	51.54
336.604	-1.71
336.817	164.18
337.029	59.73
337.242	84.31
337.454	104.79
337.667	63.83
337.88	174.42
338.092	88.4
338.305	131.41
338.517	22.87
338.729	6.49
338.942	192.85
339.154	-24.23
339.367	86.36
339.579	59.73
339.792	6.49
340.004	76.12
340.217	-1.71
340.429	67.92
340.641	-5.8
340.854	-46.76
341.066	61.78
341.278	123.22
341.491	223.57
341.703	22.87
341.915	37.2
342.128	33.11
342.34	59.73
342.552	-36.52
342.764	49.49
342.977	59.73
343.189	127.32
343.401	92.5
343.613	-93.87
343.826	59.73
344.038	-34.47
344.25	63.83
344.462	22.87
344.674	82.26
344.886	80.21
345.099	51.54
345.311	63.83
345.523	2.39
345.735	-134.82
345.947	47.44
346.159	72.02
346.371	16.73
346.583	65.88
346.795	188.75
347.007	8.53
347.219	153.94
347.431	55.64
347.643	145.75
347.855	33.11
348.067	133.46
348.279	-42.67
348.491	65.88
348.703	69.97
348.915	-11.95
349.127	0.34
349.339	8.53
349.551	45.4
349.763	41.3
349.975	43.35
350.187	63.83
350.399	102.74
350.61	108.88
350.822	-65.19
351.034	51.54
351.246	80.21
351.458	45.4
351.669	86.36
351.881	78.16
352.093	74.07
352.305	135.51
352.517	-20.14
352.728	80.21
352.94	51.54
353.152	57.68
353.363	-65.19
353.575	92.5
353.787	227.67
353.999	49.49
354.21	158.03
354.422	-11.95
354.633	29.01
354.845	-57
355.057	51.54
355.268	10.58
355.48	110.93
355.692	-20.14
355.903	110.93
356.115	-30.38
356.326	-20.14
356.538	168.27
356.749	117.08
356.961	119.12
357.172	45.4
357.384	-44.71
357.595	207.19
357.807	-11.95
358.018	55.64
358.23	88.4
358.441	121.17
358.653	39.25
358.864	22.87
359.075	51.54
359.287	92.5
359.498	119.12
359.709	96.6
359.921	8.53
360.132	-20.14
360.344	-16.04
360.555	10.58
360.766	59.73
360.977	63.83
361.189	139.6
361.4	41.3
361.611	98.64
361.823	121.17
362.034	90.45
362.245	-59.05
362.456	22.87
362.667	76.12
362.879	-71.34
363.09	158.03
363.301	33.11
363.512	12.63
363.723	78.16
363.935	20.82
364.146	63.83
364.357	29.01
364.568	82.26
364.779	-32.43
364.99	127.32
365.201	-59.05
365.412	196.95
365.623	-104.11
365.834	29.01
366.045	37.2
366.256	172.37
366.467	102.74
366.678	37.2
366.889	47.44
367.1	14.68
367.311	69.97
367.522	14.68
367.733	65.88
367.944	78.16
368.155	39.25
368.366	59.73
368.577	115.03
368.788	123.22
368.999	-32.43
369.209	14.68
369.42	211.28
369.631	145.75
369.842	2.39
370.053	-18.09
370.264	110.93
370.474	-13.99
370.685	37.2
370.896	74.07
371.107	106.84
371.317	63.83
371.528	6.49
371.739	108.88
371.95	57.68
372.16	51.54
372.371	6.49
372.582	18.77
372.792	26.96
373.003	18.77
373.214	78.16
373.424	63.83
373.635	33.11
373.846	72.02
374.056	76.12
374.267	31.06
374.477	43.35
374.688	10.58
374.898	125.27
375.109	22.87
375.319	18.77
375.53	74.07
375.74	119.12
375.951	22.87
376.161	33.11
376.372	78.16
376.582	100.69
376.793	94.55
377.003	69.97
377.214	26.96
377.424	98.64
377.635	-20.14
377.845	-36.52
378.055	135.51
378.266	37.2
378.476	63.83
378.686	29.01
378.897	55.64
379.107	141.65
379.317	61.78
379.528	14.68
379.738	117.08
379.948	-22.19
380.158	108.88
380.369	-5.8
380.579	119.12
380.789	-36.52
380.999	88.4
381.21	88.4
381.42	139.6
381.63	26.96
381.84	45.4
382.05	65.88
382.261	133.46
382.471	106.84
382.681	-22.19
382.891	196.95
383.101	47.44
383.311	-46.76
383.521	-59.05
383.731	88.4
383.941	166.23
384.151	100.69
384.361	45.4
384.571	135.51
384.781	43.35
384.991	207.19
385.201	250.19
385.411	112.98
385.621	100.69
385.831	137.56
386.041	129.36
386.251	-32.43
386.461	131.41
386.671	12.63
386.881	121.17
387.091	2.39
387.301	100.69
387.511	-11.95
387.72	63.83
387.93	78.16
388.14	-42.67
388.35	26.96
388.56	96.6
388.769	102.74
388.979	155.99
389.189	43.35
389.399	45.4
389.609	82.26
389.818	69.97
390.028	55.64
390.238	-3.75
390.447	-30.38
390.657	67.92
390.867	108.88
391.076	-112.3
391.286	104.79
391.496	10.58
391.705	133.46
391.915	135.51
392.125	92.5
392.334	-38.57
392.544	110.93
392.753	18.77
392.963	10.58
393.172	76.12
393.382	67.92
393.591	194.9
393.801	12.63
394.01	139.6
394.22	129.36
394.429	151.89
394.639	100.69
394.848	90.45
395.058	0.34
395.267	0.34
395.477	129.36
395.686	29.01
395.895	219.47
396.105	135.51
396.314	76.12
396.524	12.63
396.733	67.92
396.942	139.6
397.152	31.06
397.361	127.32
397.57	16.73
397.78	22.87
397.989	133.46
398.198	194.9
398.407	51.54
398.617	61.78
398.826	78.16
399.035	-42.67
399.244	96.6
399.453	110.93
399.663	24.92
399.872	96.6
400.081	-5.8
400.29	137.56
400.499	20.82
400.708	131.41
400.917	57.68
401.127	12.63
401.336	6.49
401.545	184.66
401.754	180.56
401.963	47.44
402.172	6.49
402.381	-26.28
402.59	90.45
402.799	76.12
403.008	59.73
403.217	98.64
403.426	26.96
403.635	-38.57
403.844	-20.14
404.053	-5.8
404.262	12.63
404.471	168.27
404.68	76.12
404.888	104.79
405.097	57.68
405.306	108.88
405.515	135.51
405.724	-91.82
405.933	94.55
406.142	88.4
406.35	149.84
406.559	59.73
406.768	72.02
406.977	184.66
407.185	41.3
407.394	164.18
407.603	-32.43
407.812	86.36
408.02	100.69
408.229	12.63
408.438	123.22
408.646	-18.09
408.855	92.5
409.064	88.4
409.272	35.16
409.481	110.93
409.69	8.53
409.898	-48.81
410.107	45.4
410.315	147.8
410.524	-34.47
410.733	80.21
410.941	22.87
411.15	92.5
411.358	72.02
411.567	121.17
411.775	35.16
411.984	-30.38
412.192	0.34
412.401	61.78
412.609	211.28
412.818	207.19
413.026	86.36
413.234	35.16
413.443	31.06
413.651	31.06
413.86	-13.99
414.068	69.97
414.276	149.84
414.485	-26.28
414.693	158.03
414.901	166.23
415.11	127.32
415.318	63.83
415.526	37.2
415.734	123.22
415.943	57.68
416.151	147.8
416.359	104.79
416.567	18.77
416.776	92.5
416.984	106.84
417.192	213.33
417.4	84.31
417.608	20.82
417.817	-36.52
418.025	119.12
418.233	145.75
418.441	-30.38
418.649	35.16
418.857	94.55
419.065	168.27
419.273	78.16
419.481	-30.38
419.689	-24.23
419.897	33.11
420.105	-89.77
420.313	100.69
420.521	192.85
420.729	129.36
420.937	45.4
421.145	59.73
421.353	180.56
421.561	217.43
421.769	65.88
421.977	35.16
422.185	82.26
422.393	-11.95
422.601	119.12
422.809	100.69
423.017	184.66
423.224	12.63
423.432	164.18
423.64	49.49
423.848	72.02
424.056	26.96
424.263	131.41
424.471	63.83
424.679	139.6
424.887	14.68
425.094	207.19
425.302	145.75
425.51	4.44
425.718	84.31
425.925	110.93
426.133	55.64
426.341	268.63
426.548	18.77
426.756	92.5
426.964	182.61
427.171	-11.95
427.379	112.98
427.586	61.78
427.794	155.99
428.001	129.36
428.209	82.26
428.417	141.65
428.624	86.36
428.832	88.4
429.039	45.4
429.247	117.08
429.454	119.12
429.662	158.03
429.869	143.7
430.076	102.74
430.284	170.32
430.491	184.66
430.699	188.75
430.906	242
431.114	121.17
431.321	123.22
431.528	92.5
431.736	178.51
431.943	168.27
432.15	80.21
432.358	174.42
432.565	237.91
432.772	-18.09
432.979	176.47
433.187	158.03
433.394	172.37
433.601	96.6
433.808	239.95
434.016	176.47
434.223	117.08
434.43	246.1
434.637	196.95
434.844	229.71
435.052	215.38
435.259	270.67
435.466	293.2
435.673	254.29
435.88	360.78
436.087	291.15
436.294	303.44
436.501	295.25
436.708	278.87
436.915	235.86
437.122	328.02
437.329	231.76
437.537	301.39
437.743	305.49
437.95	459.09
438.157	399.7
438.364	289.1
438.571	340.3
438.778	428.37
438.985	420.17
439.192	397.65
439.399	407.89
439.606	395.6
439.813	469.33
440.02	663.88
440.227	577.87
440.433	538.96
440.64	498
440.847	465.23
441.054	571.72
441.261	756.04
441.467	608.59
441.674	622.92
441.881	690.51
442.088	610.64
442.294	760.14
442.501	762.19
442.708	774.47
442.914	768.33
443.121	813.38
443.328	885.06
443.534	889.16
443.741	880.97
443.948	883.02
444.154	919.88
444.361	1053
444.568	966.98
444.774	1007.94
444.981	969.03
445.187	1110.34
445.394	1034.57
445.6	1091.91
445.807	1325.38
446.013	1294.66
446.22	1311.04
446.426	1259.84
446.633	1513.79
446.839	1599.8
447.046	1433.92
447.252	1620.28
447.459	1608
447.665	1634.62
447.871	1831.23
448.078	1892.66
448.284	1857.85
448.491	1880.38
448.697	2101.56
448.903	2085.17
449.11	2081.08
449.316	2068.79
449.522	2289.97
449.728	2388.27
449.935	2480.43
450.141	2449.71
450.347	2642.22
450.553	2697.52
450.76	2769.2
450.966	2926.89
451.172	2973.99
451.378	3027.24
451.584	3285.28
451.791	3475.74
451.997	3404.07
452.203	3479.84
452.409	3660.06
452.615	3862.81
452.821	3707.16
453.027	3805.47
453.233	4421.91
453.44	4034.84
453.646	4301.08
453.852	4466.96
454.058	4610.32
454.264	4800.78
454.47	5314.82
454.676	5101.83
454.882	5540.1
455.088	5419.27
455.294	5708.03
455.5	6101.24
455.705	6371.57
455.911	6242.55
456.117	6494.45
456.323	6815.98
456.529	6779.12
456.735	7338.21
456.941	7799.01
457.147	8026.33
457.352	8063.19
457.558	8313.05
457.764	8927.44
457.97	9134.28
458.176	9509.06
458.381	9853.12
458.587	10031.29
458.793	10649.78
458.999	10672.31
459.204	12107.93
459.41	12564.63
459.616	11915.42
459.821	12722.32
460.027	13441.16
460.233	13904
460.438	13881.47
460.644	14841.97
460.85	15054.96
461.055	15351.92
461.261	16377.95
461.466	15839.33
461.672	16177.25
461.878	18126.91
462.083	18305.09
462.289	18364.48
462.494	19415.09
462.7	19333.17
462.905	19531.82
463.111	21184.53
463.316	21960.71
463.522	22345.73
463.727	23171.06
463.932	24502.24
464.138	24965.08
464.343	26091.46
464.549	25888.71
464.754	28114.86
464.959	28604.32
465.165	29298.58
465.37	29089.69
465.575	29214.62
465.781	31350.65
465.986	31874.93
466.191	31301.5
466.397	31719.28
466.602	30863.23
466.807	32720.74
467.012	33306.46
467.218	33740.63
467.423	34129.74
467.628	34684.74
467.833	36499.24
468.038	35729.2
468.244	34983.74
468.449	36904.74
468.654	36171.57
468.859	36374.31
