Data from USB4F104151__69__09-29-32-794.txt Node

Date: Wed Feb 26 09:29:32 EST 2025
User: louis
Spectrometer: USB4F10415
Trigger mode: 4
Integration Time (sec): 1.000000E-1
Scans to average: 1
Electric dark correction enabled: true
Nonlinearity correction enabled: false
Boxcar width: 0
XAxis mode: Wavelengths
Number of Pixels in Spectrum: 3648
>>>>>Begin Spectral Data<<<<<
178.204	-335.87
178.424	-335.87
178.644	-335.87
178.864	-344.06
179.084	-409.59
179.304	8.19
179.524	-73.73
179.744	28.67
179.964	12.29
180.184	-12.29
180.404	8.19
180.624	-22.53
180.844	18.43
181.064	24.58
181.283	14.34
181.503	-43.01
181.723	36.86
181.943	-47.1
182.163	198.65
182.383	-49.15
182.602	112.64
182.822	59.39
183.042	22.53
183.262	14.34
183.482	63.49
183.701	59.39
183.921	137.21
184.141	-45.06
184.361	45.06
184.58	34.82
184.8	12.29
185.02	-22.53
185.239	94.21
185.459	59.39
185.679	65.54
185.898	-90.11
186.118	88.06
186.338	43.01
186.557	24.58
186.777	-63.49
186.997	-10.24
187.216	43.01
187.436	182.27
187.655	47.1
187.875	61.44
188.095	96.25
188.314	114.69
188.534	88.06
188.753	-28.67
188.973	67.58
189.192	129.02
189.412	67.58
189.631	65.54
189.851	75.77
190.07	165.89
190.29	-32.77
190.509	83.97
190.729	43.01
190.948	149.5
191.168	157.69
191.387	69.63
191.607	10.24
191.826	124.93
192.045	-32.77
192.265	8.19
192.484	36.86
192.704	28.67
192.923	-45.06
193.142	184.32
193.362	69.63
193.581	124.93
193.8	100.35
194.02	83.97
194.239	10.24
194.458	73.73
194.678	-6.14
194.897	-14.34
195.116	34.82
195.335	34.82
195.555	114.69
195.774	18.43
195.993	59.39
196.212	49.15
196.432	-14.34
196.651	-12.29
196.87	96.25
197.089	223.23
197.308	59.39
197.528	108.54
197.747	-22.53
197.966	-18.43
198.185	100.35
198.404	-43.01
198.623	131.07
198.842	40.96
199.062	116.73
199.281	147.45
199.5	51.2
199.719	24.58
199.938	186.37
200.157	155.65
200.376	102.4
200.595	110.59
200.814	-10.24
201.033	-88.06
201.252	131.07
201.471	-2.05
201.69	102.4
201.909	14.34
202.128	96.25
202.347	153.6
202.566	-38.91
202.785	-34.82
203.004	-2.05
203.223	210.94
203.442	59.39
203.661	-51.2
203.879	28.67
204.098	155.65
204.317	47.1
204.536	75.77
204.755	83.97
204.974	-6.14
205.193	43.01
205.411	210.94
205.63	63.49
205.849	129.02
206.068	-4.1
206.287	-24.58
206.505	96.25
206.724	69.63
206.943	-79.87
207.162	40.96
207.381	53.25
207.599	-47.1
207.818	14.34
208.037	51.2
208.255	90.11
208.474	98.3
208.693	88.06
208.911	-26.62
209.13	81.92
209.349	71.68
209.567	96.25
209.786	34.82
210.005	98.3
210.223	-24.58
210.442	-73.73
210.661	49.15
210.879	-2.05
211.098	-30.72
211.316	32.77
211.535	90.11
211.753	88.06
211.972	32.77
212.191	20.48
212.409	12.29
212.628	79.87
212.846	-47.1
213.065	106.49
213.283	55.3
213.502	20.48
213.72	65.54
213.938	34.82
214.157	67.58
214.375	67.58
214.594	-32.77
214.812	106.49
215.031	67.58
215.249	-24.58
215.467	-32.77
215.686	30.72
215.904	-38.91
216.122	-22.53
216.341	24.58
216.559	-12.29
216.778	38.91
216.996	81.92
217.214	-14.34
217.432	-20.48
217.651	-12.29
217.869	45.06
218.087	34.82
218.306	-10.24
218.524	40.96
218.742	-36.86
218.96	104.45
219.179	4.1
219.397	16.38
219.615	192.51
219.833	86.01
220.051	8.19
220.27	94.21
220.488	65.54
220.706	116.73
220.924	-14.34
221.142	-16.38
221.36	120.83
221.578	114.69
221.796	40.96
222.015	43.01
222.233	28.67
222.451	186.37
222.669	-22.53
222.887	43.01
223.105	-22.53
223.323	98.3
223.541	-43.01
223.759	30.72
223.977	2.05
224.195	155.65
224.413	77.82
224.631	71.68
224.849	40.96
225.067	210.94
225.285	-34.82
225.503	81.92
225.721	-106.49
225.939	61.44
226.157	-59.39
226.375	159.74
226.592	-18.43
226.81	24.58
227.028	81.92
227.246	45.06
227.464	20.48
227.682	108.54
227.9	104.45
228.117	94.21
228.335	129.02
228.553	116.73
228.771	43.01
228.989	88.06
229.206	88.06
229.424	24.58
229.642	-14.34
229.86	12.29
230.077	157.69
230.295	28.67
230.513	102.4
230.731	14.34
230.948	178.17
231.166	157.69
231.384	38.91
231.601	-47.1
231.819	194.56
232.037	-71.68
232.254	6.14
232.472	-22.53
232.689	34.82
232.907	106.49
233.125	-40.96
233.342	-10.24
233.56	-71.68
233.777	-49.15
233.995	24.58
234.213	10.24
234.43	116.73
234.648	43.01
234.865	30.72
235.083	10.24
235.3	-34.82
235.518	57.34
235.735	65.54
235.953	63.49
236.17	-20.48
236.388	-40.96
236.605	14.34
236.822	38.91
237.04	147.45
237.257	55.3
237.475	-22.53
237.692	12.29
237.909	40.96
238.127	-83.97
238.344	83.97
238.562	12.29
238.779	-61.44
238.996	-36.86
239.214	59.39
239.431	53.25
239.648	-8.19
239.865	88.06
240.083	69.63
240.3	38.91
240.517	16.38
240.735	63.49
240.952	77.82
241.169	106.49
241.386	49.15
241.603	10.24
241.821	22.53
242.038	71.68
242.255	172.03
242.472	-49.15
242.689	63.49
242.907	47.1
243.124	24.58
243.341	36.86
243.558	-22.53
243.775	-30.72
243.992	-24.58
244.209	2.05
244.426	149.5
244.643	79.87
244.86	-2.05
245.078	155.65
245.295	45.06
245.512	-49.15
245.729	-110.59
245.946	-6.14
246.163	34.82
246.38	16.38
246.597	34.82
246.814	75.77
247.031	49.15
247.248	34.82
247.464	92.16
247.681	73.73
247.898	106.49
248.115	98.3
248.332	-71.68
248.549	94.21
248.766	108.54
248.983	100.35
249.2	2.05
249.417	133.12
249.633	-8.19
249.85	55.3
250.067	-8.19
250.284	26.62
250.501	90.11
250.717	51.2
250.934	10.24
251.151	45.06
251.368	59.39
251.585	30.72
251.801	34.82
252.018	20.48
252.235	137.21
252.451	-55.3
252.668	34.82
252.885	75.77
253.102	45.06
253.318	14.34
253.535	-22.53
253.752	61.44
253.968	30.72
254.185	-22.53
254.401	-79.87
254.618	4.1
254.835	-43.01
255.051	145.41
255.268	135.17
255.484	51.2
255.701	38.91
255.917	106.49
256.134	-49.15
256.351	36.86
256.567	10.24
256.784	51.2
257	-92.16
257.217	24.58
257.433	102.4
257.65	20.48
257.866	114.69
258.082	-6.14
258.299	-6.14
258.515	81.92
258.732	32.77
258.948	-73.73
259.165	10.24
259.381	-22.53
259.597	198.65
259.814	-24.58
260.03	-2.05
260.246	-24.58
260.463	108.54
260.679	114.69
260.895	75.77
261.112	38.91
261.328	22.53
261.544	-8.19
261.761	167.93
261.977	-40.96
262.193	-59.39
262.409	145.41
262.626	98.3
262.842	51.2
263.058	-47.1
263.274	126.97
263.49	81.92
263.707	69.63
263.923	102.4
264.139	-47.1
264.355	32.77
264.571	83.97
264.787	108.54
265.004	174.08
265.22	0
265.436	-53.25
265.652	-34.82
265.868	38.91
266.084	-22.53
266.3	26.62
266.516	-77.82
266.732	43.01
266.948	67.58
267.164	55.3
267.38	75.77
267.596	-2.05
267.812	100.35
268.028	71.68
268.244	59.39
268.46	53.25
268.676	-28.67
268.892	92.16
269.108	-6.14
269.324	-51.2
269.54	-47.1
269.756	45.06
269.972	-34.82
270.188	-20.48
270.403	-77.82
270.619	75.77
270.835	77.82
271.051	145.41
271.267	-55.3
271.483	4.1
271.698	43.01
271.914	55.3
272.13	26.62
272.346	-53.25
272.562	88.06
272.777	73.73
272.993	-22.53
273.209	26.62
273.425	30.72
273.64	-6.14
273.856	88.06
274.072	0
274.287	32.77
274.503	55.3
274.719	151.55
274.934	-4.1
275.15	-49.15
275.366	100.35
275.581	-47.1
275.797	22.53
276.012	34.82
276.228	20.48
276.444	63.49
276.659	161.79
276.875	-18.43
277.09	53.25
277.306	-8.19
277.521	108.54
277.737	53.25
277.952	75.77
278.168	40.96
278.383	57.34
278.599	88.06
278.814	26.62
279.03	-10.24
279.245	147.45
279.461	86.01
279.676	96.25
279.892	-86.01
280.107	18.43
280.322	55.3
280.538	20.48
280.753	55.3
280.969	45.06
281.184	32.77
281.399	155.65
281.615	24.58
281.83	43.01
282.045	-24.58
282.26	4.1
282.476	40.96
282.691	71.68
282.906	18.43
283.122	65.54
283.337	-51.2
283.552	49.15
283.767	32.77
283.983	157.69
284.198	-12.29
284.413	92.16
284.628	-43.01
284.843	6.14
285.058	92.16
285.274	38.91
285.489	-4.1
285.704	71.68
285.919	2.05
286.134	18.43
286.349	24.58
286.564	45.06
286.779	83.97
286.995	30.72
287.21	-14.34
287.425	108.54
287.64	-30.72
287.855	88.06
288.07	-96.25
288.285	102.4
288.5	124.93
288.715	51.2
288.93	63.49
289.145	18.43
289.36	124.93
289.575	69.63
289.79	79.87
290.004	26.62
290.219	131.07
290.434	20.48
290.649	-14.34
290.864	-90.11
291.079	40.96
291.294	-22.53
291.509	45.06
291.724	34.82
291.938	83.97
292.153	96.25
292.368	49.15
292.583	88.06
292.798	129.02
293.012	69.63
293.227	126.97
293.442	108.54
293.657	135.17
293.871	73.73
294.086	34.82
294.301	139.26
294.516	141.31
294.73	-38.91
294.945	-63.49
295.16	4.1
295.374	131.07
295.589	126.97
295.804	47.1
296.018	26.62
296.233	165.89
296.447	18.43
296.662	53.25
296.877	114.69
297.091	-6.14
297.306	-8.19
297.52	32.77
297.735	49.15
297.949	28.67
298.164	75.77
298.378	63.49
298.593	-49.15
298.807	-4.1
299.022	-4.1
299.236	141.31
299.451	43.01
299.665	-38.91
299.88	90.11
300.094	18.43
300.309	22.53
300.523	22.53
300.737	57.34
300.952	65.54
301.166	88.06
301.381	-22.53
301.595	-49.15
301.809	45.06
302.024	6.14
302.238	-63.49
302.452	120.83
302.667	36.86
302.881	88.06
303.095	120.83
303.309	59.39
303.524	12.29
303.738	43.01
303.952	-77.82
304.166	122.88
304.381	-36.86
304.595	118.78
304.809	6.14
305.023	53.25
305.237	-4.1
305.452	0
305.666	92.16
305.88	36.86
306.094	94.21
306.308	88.06
306.522	151.55
306.736	75.77
306.95	20.48
307.164	30.72
307.379	45.06
307.593	43.01
307.807	51.2
308.021	18.43
308.235	49.15
308.449	-65.53
308.663	100.35
308.877	169.98
309.091	75.77
309.305	55.3
309.519	-141.31
309.733	116.73
309.947	-38.91
310.161	67.58
310.374	108.54
310.588	73.73
310.802	-22.53
311.016	75.77
311.23	81.92
311.444	71.68
311.658	63.49
311.872	63.49
312.085	137.21
312.299	38.91
312.513	165.89
312.727	141.31
312.941	-129.02
313.154	108.54
313.368	-10.24
313.582	-36.86
313.796	32.77
314.009	53.25
314.223	108.54
314.437	79.87
314.651	34.82
314.864	-2.05
315.078	67.58
315.292	-59.39
315.505	4.1
315.719	34.82
315.933	57.34
316.146	-51.2
316.36	-47.1
316.573	96.25
316.787	26.62
317.001	75.77
317.214	-14.34
317.428	79.87
317.641	24.58
317.855	-24.58
318.068	-30.72
318.282	188.41
318.495	169.98
318.709	67.58
318.922	18.43
319.136	40.96
319.349	88.06
319.563	-12.29
319.776	57.34
319.99	-71.68
320.203	73.73
320.417	-55.3
320.63	40.96
320.843	106.49
321.057	69.63
321.27	6.14
321.483	14.34
321.697	143.36
321.91	83.97
322.124	96.25
322.337	51.2
322.55	-32.77
322.763	24.58
322.977	32.77
323.19	12.29
323.403	81.92
323.617	79.87
323.83	145.41
324.043	51.2
324.256	71.68
324.469	-28.67
324.683	2.05
324.896	65.54
325.109	28.67
325.322	-75.77
325.535	71.68
325.748	34.82
325.962	34.82
326.175	157.69
326.388	-2.05
326.601	112.64
326.814	-14.34
327.027	-4.1
327.24	108.54
327.453	-149.5
327.666	75.77
327.879	75.77
328.092	36.86
328.305	28.67
328.518	-24.58
328.731	-47.1
328.944	16.38
329.157	55.3
329.37	-20.48
329.583	157.69
329.796	86.01
330.009	-69.63
330.222	182.27
330.435	45.06
330.648	51.2
330.861	26.62
331.073	131.07
331.286	71.68
331.499	59.39
331.712	8.19
331.925	63.49
332.138	36.86
332.35	112.64
332.563	8.19
332.776	126.97
332.989	16.38
333.202	-10.24
333.414	2.05
333.627	14.34
333.84	-8.19
334.053	55.3
334.265	-49.15
334.478	-26.62
334.691	83.97
334.903	32.77
335.116	2.05
335.329	26.62
335.541	24.58
335.754	133.12
335.966	-18.43
336.179	51.2
336.392	12.29
336.604	-24.58
336.817	79.87
337.029	81.92
337.242	32.77
337.454	49.15
337.667	63.49
337.88	108.54
338.092	88.06
338.305	75.77
338.517	-86.01
338.729	92.16
338.942	149.5
339.154	-100.35
339.367	-6.14
339.579	24.58
339.792	-24.58
340.004	141.31
340.217	4.1
340.429	53.25
340.641	-36.86
340.854	-28.67
341.066	0
341.278	161.79
341.491	100.35
341.703	51.2
341.915	-32.77
342.128	100.35
342.34	133.12
342.552	16.38
342.764	98.3
342.977	38.91
343.189	55.3
343.401	67.58
343.613	2.05
343.826	4.1
344.038	-2.05
344.25	59.39
344.462	-12.29
344.674	83.97
344.886	16.38
345.099	24.58
345.311	131.07
345.523	53.25
345.735	-49.15
345.947	2.05
346.159	49.15
346.371	92.16
346.583	-10.24
346.795	198.65
347.007	67.58
347.219	98.3
347.431	43.01
347.643	98.3
347.855	-4.1
348.067	106.49
348.279	-26.62
348.491	34.82
348.703	36.86
348.915	67.58
349.127	-8.19
349.339	34.82
349.551	-10.24
349.763	122.88
349.975	-10.24
350.187	73.73
350.399	129.02
350.61	88.06
350.822	2.05
351.034	65.54
351.246	26.62
351.458	0
351.669	-47.1
351.881	83.97
352.093	67.58
352.305	100.35
352.517	71.68
352.728	-22.53
352.94	43.01
353.152	65.54
353.363	22.53
353.575	-26.62
353.787	180.22
353.999	10.24
354.21	188.41
354.422	-71.68
354.633	-57.34
354.845	38.91
355.057	40.96
355.268	43.01
355.48	43.01
355.692	10.24
355.903	96.25
356.115	-18.43
356.326	-75.77
356.538	124.93
356.749	63.49
356.961	137.21
357.172	43.01
357.384	-26.62
357.595	151.55
357.807	59.39
358.018	14.34
358.23	10.24
358.441	94.21
358.653	43.01
358.864	26.62
359.075	-28.67
359.287	59.39
359.498	114.69
359.709	83.97
359.921	-14.34
360.132	88.06
360.344	26.62
360.555	47.1
360.766	118.78
360.977	20.48
361.189	83.97
361.4	24.58
361.611	104.45
361.823	94.21
362.034	30.72
362.245	-147.45
362.456	2.05
362.667	40.96
362.879	-86.01
363.09	63.49
363.301	77.82
363.512	22.53
363.723	2.05
363.935	51.2
364.146	75.77
364.357	-26.62
364.568	18.43
364.779	-43.01
364.99	194.56
365.201	22.53
365.412	149.5
365.623	30.72
365.834	137.21
366.045	-24.58
366.256	81.92
366.467	49.15
366.678	20.48
366.889	69.63
367.1	59.39
367.311	24.58
367.522	-47.1
367.733	10.24
367.944	36.86
368.155	-40.96
368.366	90.11
368.577	69.63
368.788	118.78
368.999	-24.58
369.209	6.14
369.42	192.51
369.631	147.45
369.842	98.3
370.053	40.96
370.264	116.73
370.474	-61.44
370.685	61.44
370.896	-14.34
371.107	108.54
371.317	26.62
371.528	55.3
371.739	110.59
371.95	45.06
372.16	118.78
372.371	-30.72
372.582	-55.3
372.792	75.77
373.003	30.72
373.214	-6.14
373.424	118.78
373.635	14.34
373.846	110.59
374.056	94.21
374.267	116.73
374.477	114.69
374.688	-22.53
374.898	71.68
375.109	-16.38
375.319	86.01
375.53	198.65
375.74	24.58
375.951	-22.53
376.161	100.35
376.372	100.35
376.582	-6.14
376.793	49.15
377.003	-12.29
377.214	-63.49
377.424	43.01
377.635	-8.19
377.845	26.62
378.055	77.82
378.266	16.38
378.476	51.2
378.686	71.68
378.897	30.72
379.107	81.92
379.317	67.58
379.528	75.77
379.738	88.06
379.948	-36.86
380.158	69.63
380.369	81.92
380.579	65.54
380.789	22.53
380.999	124.93
381.21	26.62
381.42	114.69
381.63	10.24
381.84	114.69
382.05	49.15
382.261	116.73
382.471	96.25
382.681	-14.34
382.891	163.84
383.101	24.58
383.311	-16.38
383.521	10.24
383.731	129.02
383.941	155.65
384.151	94.21
384.361	47.1
384.571	49.15
384.781	59.39
384.991	215.04
385.201	149.5
385.411	79.87
385.621	149.5
385.831	-2.05
386.041	65.54
386.251	63.49
386.461	124.93
386.671	6.14
386.881	149.5
387.091	2.05
387.301	90.11
387.511	30.72
387.72	18.43
387.93	149.5
388.14	-73.73
388.35	22.53
388.56	67.58
388.769	65.54
388.979	59.39
389.189	-24.58
389.399	22.53
389.609	112.64
389.818	57.34
390.028	26.62
390.238	26.62
390.447	-30.72
390.657	8.19
390.867	-4.1
391.076	-47.1
391.286	112.64
391.496	-2.05
391.705	8.19
391.915	153.6
392.125	106.49
392.334	38.91
392.544	149.5
392.753	-51.2
392.963	38.91
393.172	-55.3
393.382	-4.1
393.591	139.26
393.801	-6.14
394.01	124.93
394.22	86.01
394.429	34.82
394.639	-30.72
394.848	90.11
395.058	0
395.267	8.19
395.477	57.34
395.686	28.67
395.895	124.93
396.105	198.65
396.314	71.68
396.524	63.49
396.733	-4.1
396.942	217.08
397.152	14.34
397.361	131.07
397.57	28.67
397.78	47.1
397.989	59.39
398.198	186.37
398.407	24.58
398.617	14.34
398.826	22.53
399.035	24.58
399.244	83.97
399.453	-20.48
399.663	36.86
399.872	94.21
400.081	55.3
400.29	108.54
400.499	-20.48
400.708	104.45
400.917	55.3
401.127	61.44
401.336	-26.62
401.545	176.13
401.754	112.64
401.963	14.34
402.172	-75.77
402.381	16.38
402.59	47.1
402.799	8.19
403.008	110.59
403.217	30.72
403.426	49.15
403.635	-6.14
403.844	86.01
404.053	88.06
404.262	-61.44
404.471	83.97
404.68	81.92
404.888	112.64
405.097	155.65
405.306	4.1
405.515	-8.19
405.724	40.96
405.933	57.34
406.142	83.97
406.35	96.25
406.559	100.35
406.768	6.14
406.977	126.97
407.185	22.53
407.394	73.73
407.603	-38.91
407.812	71.68
408.02	59.39
408.229	49.15
408.438	2.05
408.646	-30.72
408.855	-20.48
409.064	57.34
409.272	-43.01
409.481	92.16
409.69	26.62
409.898	-38.91
410.107	143.36
410.315	110.59
410.524	51.2
410.733	2.05
410.941	124.93
411.15	116.73
411.358	100.35
411.567	155.65
411.775	32.77
411.984	2.05
412.192	92.16
412.401	28.67
412.609	75.77
412.818	94.21
413.026	149.5
413.234	18.43
413.443	65.54
413.651	0
413.86	4.1
414.068	137.21
414.276	77.82
414.485	92.16
414.693	212.99
414.901	206.84
415.11	81.92
415.318	45.06
415.526	92.16
415.734	145.41
415.943	98.3
416.151	161.79
416.359	18.43
416.567	100.35
416.776	163.84
416.984	122.88
417.192	155.65
417.4	67.58
417.608	47.1
417.817	12.29
418.025	67.58
418.233	159.74
418.441	-30.72
418.649	-51.2
418.857	43.01
419.065	153.6
419.273	2.05
419.481	12.29
419.689	94.21
419.897	43.01
420.105	-24.58
420.313	77.82
420.521	100.35
420.729	79.87
420.937	-6.14
421.145	24.58
421.353	172.03
421.561	200.7
421.769	57.34
421.977	43.01
422.185	133.12
422.393	-12.29
422.601	71.68
422.809	71.68
423.017	79.87
423.224	88.06
423.432	149.5
423.64	57.34
423.848	155.65
424.056	-18.43
424.263	61.44
424.471	47.1
424.679	155.65
424.887	-2.05
425.094	141.31
425.302	81.92
425.51	51.2
425.718	133.12
425.925	24.58
426.133	83.97
426.341	208.89
426.548	26.62
426.756	4.1
426.964	43.01
427.171	88.06
427.379	81.92
427.586	61.44
427.794	133.12
428.001	227.32
428.209	90.11
428.417	149.5
428.624	98.3
428.832	219.13
429.039	122.88
429.247	147.45
429.454	94.21
429.662	83.97
429.869	169.98
430.076	153.6
430.284	188.41
430.491	237.56
430.699	100.35
430.906	233.47
431.114	178.17
431.321	106.49
431.528	178.17
431.736	139.26
431.943	126.97
432.15	131.07
432.358	182.27
432.565	282.62
432.772	65.54
432.979	231.42
433.187	149.5
433.394	208.89
433.601	86.01
433.808	190.46
434.016	264.19
434.223	206.84
434.43	196.61
434.637	264.19
434.844	272.38
435.052	342.01
435.259	294.91
435.466	309.24
435.673	245.76
435.88	253.95
436.087	337.91
436.294	356.35
436.501	305.15
436.708	233.47
436.915	372.73
437.122	407.55
437.329	305.15
437.537	333.82
437.743	368.63
437.95	432.12
438.157	395.26
438.364	458.75
438.571	436.22
438.778	425.98
438.985	536.57
439.192	477.18
439.399	491.51
439.606	548.86
439.813	565.24
440.02	632.82
440.227	677.88
440.433	595.96
440.64	595.96
440.847	600.05
441.054	630.77
441.261	753.65
441.467	698.36
441.674	684.02
441.881	798.71
442.088	729.08
442.294	741.36
442.501	905.2
442.708	907.25
442.914	862.19
443.121	911.35
443.328	911.35
443.534	993.26
443.741	933.87
443.948	894.96
444.154	1126.38
444.361	1202.16
444.568	1011.7
444.774	1183.73
444.981	1079.28
445.187	1267.69
445.394	1251.31
445.6	1202.16
445.807	1445.87
446.013	1476.59
446.22	1361.9
446.426	1595.37
446.633	1585.13
446.839	1771.49
447.046	1697.77
447.252	1890.28
447.459	1773.54
447.665	1851.36
447.871	1994.72
448.078	2158.56
448.284	2127.84
448.491	2140.13
448.697	2244.57
448.903	2426.84
449.11	2482.14
449.316	2459.61
449.522	2650.07
449.728	2639.83
449.935	2746.33
450.141	2824.15
450.347	3129.3
450.553	3002.32
450.76	3176.4
450.966	3334.09
451.172	3389.39
451.378	3563.47
451.584	3555.27
451.791	3803.08
451.997	3798.98
452.203	3975.11
452.409	4061.12
452.615	4360.13
452.821	4220.86
453.027	4222.91
453.233	4650.94
453.44	4575.16
453.646	4880.31
453.852	5121.97
454.058	5388.21
454.264	5388.21
454.47	5838.76
454.676	5908.39
454.882	6483.87
455.088	6014.88
455.294	6342.56
455.5	6817.69
455.705	7339.92
455.911	7339.92
456.117	7507.85
456.323	7759.75
456.529	7692.17
456.735	8345.47
456.941	8617.85
457.147	8886.14
457.352	9265.01
457.558	9502.57
457.764	10172.26
457.97	10307.43
458.176	10723.16
458.381	11278.16
458.587	11347.79
458.793	12093.26
458.999	11919.18
459.204	13473.59
459.41	14057.26
459.616	13721.39
459.821	14343.97
460.027	15267.61
460.233	15712.02
460.438	15988.49
460.644	16723.71
460.85	16885.5
461.055	17649.39
461.261	18669.28
461.466	18276.07
461.672	18265.83
461.878	20754.12
462.083	20354.76
462.289	21110.46
462.494	21571.25
462.7	21825.2
462.905	21937.84
463.111	23920.28
463.316	24921.73
463.522	25224.83
463.727	26357.36
463.932	27131.49
464.138	28276.3
464.343	28948.04
464.549	29926.97
464.754	31567.39
464.959	32222.74
465.165	32919.05
465.37	32794.12
465.575	32878.09
465.781	34786.8
465.986	35913.18
466.191	35196.39
466.397	35745.25
466.602	34846.19
466.807	36654.54
467.012	37172.68
467.218	38120.89
467.423	37991.87
467.628	38997.42
467.833	40623.51
468.038	40299.93
468.244	39669.15
468.449	41166.22
468.654	40854.93
468.859	41143.69
469.064	40433.05
