Data from USB4F104151__86__11-31-35-860.txt Node

Date: Wed Feb 26 11:31:35 EST 2025
User: louis
Spectrometer: USB4F10415
Trigger mode: 4
Integration Time (sec): 1.000000E-1
Scans to average: 1
Electric dark correction enabled: true
Nonlinearity correction enabled: false
Boxcar width: 0
XAxis mode: Wavelengths
Number of Pixels in Spectrum: 3648
>>>>>Begin Spectral Data<<<<<
178.204	-350.54
178.424	-350.54
178.644	-350.54
178.864	-461.13
179.084	-379.22
179.304	71.34
179.524	-53.59
179.744	32.43
179.964	93.87
180.184	54.95
180.404	26.28
180.624	-10.58
180.844	-33.11
181.064	-119.12
181.283	-16.73
181.503	-43.35
181.723	-2.39
181.943	-108.88
182.163	153.26
182.383	-57.68
182.602	44.71
182.822	97.96
183.042	65.19
183.262	-14.68
183.482	-0.34
183.701	30.38
183.921	95.91
184.141	-57.68
184.361	124.58
184.58	81.58
184.8	50.86
185.02	54.95
185.239	104.11
185.459	85.67
185.679	157.35
185.898	-96.6
186.118	-2.39
186.338	67.24
186.557	71.34
186.777	-47.44
186.997	-14.68
187.216	48.81
187.436	138.92
187.655	69.29
187.875	75.43
188.095	-4.44
188.314	177.83
188.534	61.1
188.753	-61.78
188.973	151.21
189.192	186.02
189.412	20.14
189.631	48.81
189.851	73.39
190.07	179.88
190.29	-67.92
190.509	69.29
190.729	-37.2
190.948	147.11
191.168	206.5
191.387	100.01
191.607	18.09
191.826	36.52
192.045	9.9
192.265	46.76
192.484	20.14
192.704	42.67
192.923	-127.32
193.142	59.05
193.362	97.96
193.581	95.91
193.8	24.23
194.02	114.34
194.239	36.52
194.458	118.44
194.678	46.76
194.897	-24.92
195.116	30.38
195.335	100.01
195.555	143.02
195.774	-22.87
195.993	102.06
196.212	1.71
196.432	-135.51
196.651	36.52
196.87	38.57
197.089	192.17
197.308	44.71
197.528	128.68
197.747	-16.73
197.966	63.15
198.185	149.16
198.404	18.09
198.623	149.16
198.842	54.95
199.062	126.63
199.281	138.92
199.5	36.52
199.719	18.09
199.938	67.24
200.157	30.38
200.376	122.54
200.595	118.44
200.814	100.01
201.033	-49.49
201.252	157.35
201.471	130.73
201.69	50.86
201.909	77.48
202.128	-14.68
202.347	20.14
202.566	34.47
202.785	-29.01
203.004	5.8
203.223	249.51
203.442	20.14
203.661	-55.64
203.879	67.24
204.098	89.77
204.317	-55.64
204.536	118.44
204.755	16.04
204.974	140.97
205.193	61.1
205.411	143.02
205.63	102.06
205.849	28.33
206.068	-35.16
206.287	-49.49
206.505	57
206.724	-10.58
206.943	9.9
207.162	63.15
207.381	110.25
207.599	85.67
207.818	50.86
208.037	-0.34
208.255	42.67
208.474	79.53
208.693	77.48
208.911	-43.35
209.13	87.72
209.349	73.39
209.567	83.63
209.786	83.63
210.005	138.92
210.223	18.09
210.442	-4.44
210.661	30.38
210.879	65.19
211.098	61.1
211.316	18.09
211.535	22.19
211.753	171.69
211.972	95.91
212.191	-47.44
212.409	-16.73
212.628	63.15
212.846	-74.07
213.065	46.76
213.283	71.34
213.502	3.75
213.72	20.14
213.938	42.67
214.157	16.04
214.375	100.01
214.594	59.05
214.812	16.04
215.031	-22.87
215.249	-29.01
215.467	83.63
215.686	9.9
215.904	79.53
216.122	44.71
216.341	143.02
216.559	97.96
216.778	65.19
216.996	165.54
217.214	-35.16
217.432	32.43
217.651	-49.49
217.869	54.95
218.087	26.28
218.306	26.28
218.524	46.76
218.742	57
218.96	116.39
219.179	38.57
219.397	-20.82
219.615	192.17
219.833	173.74
220.051	-49.49
220.27	138.92
220.488	85.67
220.706	46.76
220.924	-29.01
221.142	-16.73
221.36	59.05
221.578	77.48
221.796	61.1
222.015	61.1
222.233	104.11
222.451	169.64
222.669	-78.16
222.887	100.01
223.105	-2.39
223.323	61.1
223.541	-39.25
223.759	83.63
223.977	102.06
224.195	36.52
224.413	130.73
224.631	24.23
224.849	114.34
225.067	218.79
225.285	1.71
225.503	-12.63
225.721	-72.02
225.939	46.76
226.157	48.81
226.375	251.56
226.592	13.99
226.81	57
227.028	155.3
227.246	132.78
227.464	128.68
227.682	93.87
227.9	91.82
228.117	28.33
228.335	63.15
228.553	-20.82
228.771	-69.97
228.989	-24.92
229.206	100.01
229.424	-63.83
229.642	38.57
229.86	3.75
230.077	110.25
230.295	116.39
230.513	50.86
230.731	104.11
230.948	206.5
231.166	118.44
231.384	-29.01
231.601	-22.87
231.819	159.4
232.037	7.85
232.254	-53.59
232.472	-20.82
232.689	16.04
232.907	63.15
233.125	-47.44
233.342	-74.07
233.56	-37.2
233.777	-49.49
233.995	7.85
234.213	132.78
234.43	79.53
234.648	16.04
234.865	36.52
235.083	61.1
235.3	54.95
235.518	126.63
235.735	134.82
235.953	59.05
236.17	18.09
236.388	-22.87
236.605	-51.54
236.822	134.82
237.04	63.15
237.257	32.43
237.475	-65.88
237.692	91.82
237.909	38.57
238.127	-43.35
238.344	140.97
238.562	63.15
238.779	-20.82
238.996	-39.25
239.214	50.86
239.431	11.95
239.648	13.99
239.865	63.15
240.083	89.77
240.3	87.72
240.517	-86.36
240.735	54.95
240.952	136.87
241.169	50.86
241.386	93.87
241.603	-33.11
241.821	-14.68
242.038	95.91
242.255	85.67
242.472	-53.59
242.689	102.06
242.907	57
243.124	65.19
243.341	36.52
243.558	-29.01
243.775	32.43
243.992	-65.88
244.209	153.26
244.426	192.17
244.643	67.24
244.86	79.53
245.078	65.19
245.295	46.76
245.512	63.15
245.729	-4.44
245.946	59.05
246.163	-41.3
246.38	7.85
246.597	85.67
246.814	59.05
247.031	26.28
247.248	38.57
247.464	91.82
247.681	44.71
247.898	36.52
248.115	97.96
248.332	-0.34
248.549	93.87
248.766	122.54
248.983	95.91
249.2	110.25
249.417	71.34
249.633	-20.82
249.85	85.67
250.067	16.04
250.284	-6.49
250.501	81.58
250.717	85.67
250.934	-57.68
251.151	-39.25
251.368	83.63
251.585	48.81
251.801	11.95
252.018	20.14
252.235	120.49
252.451	-51.54
252.668	40.62
252.885	102.06
253.102	40.62
253.318	-41.3
253.535	-2.39
253.752	-43.35
253.968	69.29
254.185	-47.44
254.401	20.14
254.618	13.99
254.835	59.05
255.051	140.97
255.268	44.71
255.484	36.52
255.701	-10.58
255.917	52.91
256.134	-61.78
256.351	26.28
256.567	-84.31
256.784	48.81
257	-88.4
257.217	93.87
257.433	106.15
257.65	57
257.866	85.67
258.082	-96.6
258.299	-61.78
258.515	112.3
258.732	38.57
258.948	-6.49
259.165	18.09
259.381	-29.01
259.597	132.78
259.814	73.39
260.03	11.95
260.246	83.63
260.463	179.88
260.679	97.96
260.895	54.95
261.112	65.19
261.328	65.19
261.544	42.67
261.761	181.93
261.977	-20.82
262.193	-100.69
262.409	67.24
262.626	59.05
262.842	13.99
263.058	38.57
263.274	65.19
263.49	38.57
263.707	89.77
263.923	118.44
264.139	-39.25
264.355	61.1
264.571	63.15
264.787	63.15
265.004	163.5
265.22	124.58
265.436	3.75
265.652	46.76
265.868	32.43
266.084	-22.87
266.3	18.09
266.516	-72.02
266.732	22.19
266.948	-24.92
267.164	-67.92
267.38	171.69
267.596	16.04
267.812	140.97
268.028	-20.82
268.244	69.29
268.46	91.82
268.676	5.8
268.892	20.14
269.108	-37.2
269.324	-35.16
269.54	3.75
269.756	153.26
269.972	-74.07
270.188	-24.92
270.403	32.43
270.619	18.09
270.835	40.62
271.051	-18.77
271.267	11.95
271.483	-51.54
271.698	69.29
271.914	61.1
272.13	30.38
272.346	46.76
272.562	-20.82
272.777	54.95
272.993	-29.01
273.209	-22.87
273.425	67.24
273.64	-55.64
273.856	77.48
274.072	-33.11
274.287	1.71
274.503	9.9
274.719	81.58
274.934	-82.26
275.15	-82.26
275.366	-39.25
275.581	9.9
275.797	40.62
276.012	145.06
276.228	26.28
276.444	5.8
276.659	124.58
276.875	5.8
277.09	-31.06
277.306	97.96
277.521	-8.53
277.737	44.71
277.952	124.58
278.168	93.87
278.383	16.04
278.599	20.14
278.814	120.49
279.03	28.33
279.245	194.22
279.461	110.25
279.676	140.97
279.892	-47.44
280.107	-8.53
280.322	36.52
280.538	42.67
280.753	-76.12
280.969	11.95
281.184	65.19
281.399	77.48
281.615	26.28
281.83	32.43
282.045	-80.21
282.26	-39.25
282.476	52.91
282.691	110.25
282.906	110.25
283.122	102.06
283.337	-45.4
283.552	69.29
283.767	-2.39
283.983	104.11
284.198	-33.11
284.413	89.77
284.628	-96.6
284.843	50.86
285.058	50.86
285.274	-14.68
285.489	11.95
285.704	89.77
285.919	38.57
286.134	44.71
286.349	46.76
286.564	52.91
286.779	157.35
286.995	-2.39
287.21	52.91
287.425	134.82
287.64	-14.68
287.855	177.83
288.07	-26.96
288.285	42.67
288.5	143.02
288.715	77.48
288.93	50.86
289.145	-29.01
289.36	91.82
289.575	7.85
289.79	212.65
290.004	-12.63
290.219	143.02
290.434	44.71
290.649	7.85
290.864	1.71
291.079	16.04
291.294	28.33
291.509	85.67
291.724	-29.01
291.938	-0.34
292.153	63.15
292.368	87.72
292.583	48.81
292.798	89.77
293.012	32.43
293.227	36.52
293.442	-22.87
293.657	91.82
293.871	143.02
294.086	57
294.301	89.77
294.516	149.16
294.73	5.8
294.945	18.09
295.16	67.24
295.374	124.58
295.589	16.04
295.804	-37.2
296.018	57
296.233	75.43
296.447	18.09
296.662	22.19
296.877	134.82
297.091	44.71
297.306	48.81
297.52	-59.73
297.735	59.05
297.949	36.52
298.164	34.47
298.378	34.47
298.593	-49.49
298.807	-14.68
299.022	65.19
299.236	155.3
299.451	-37.2
299.665	-10.58
299.88	104.11
300.094	65.19
300.309	-61.78
300.523	69.29
300.737	28.33
300.952	69.29
301.166	79.53
301.381	-24.92
301.595	7.85
301.809	38.57
302.024	18.09
302.238	11.95
302.452	149.16
302.667	61.1
302.881	134.82
303.095	110.25
303.309	34.47
303.524	-57.68
303.738	24.23
303.952	11.95
304.166	32.43
304.381	-110.93
304.595	163.5
304.809	-10.58
305.023	97.96
305.237	59.05
305.452	30.38
305.666	69.29
305.88	114.34
306.094	93.87
306.308	83.63
306.522	50.86
306.736	83.63
306.95	89.77
307.164	30.38
307.379	11.95
307.593	106.15
307.807	163.5
308.021	95.91
308.235	130.73
308.449	-151.89
308.663	-10.58
308.877	167.59
309.091	36.52
309.305	112.3
309.519	-65.88
309.733	93.87
309.947	-39.25
310.161	87.72
310.374	32.43
310.588	136.87
310.802	36.52
311.016	46.76
311.23	52.91
311.444	-31.06
311.658	-45.4
311.872	169.64
312.085	54.95
312.299	124.58
312.513	104.11
312.727	38.57
312.941	-53.59
313.154	50.86
313.368	36.52
313.582	18.09
313.796	44.71
314.009	83.63
314.223	112.3
314.437	116.39
314.651	75.43
314.864	42.67
315.078	-43.35
315.292	-49.49
315.505	54.95
315.719	128.68
315.933	79.53
316.146	28.33
316.36	32.43
316.573	110.25
316.787	100.01
317.001	42.67
317.214	3.75
317.428	46.76
317.641	-53.59
317.855	-51.54
318.068	69.29
318.282	28.33
318.495	249.51
318.709	136.87
318.922	26.28
319.136	149.16
319.349	67.24
319.563	34.47
319.776	100.01
319.99	-67.92
320.203	134.82
320.417	9.9
320.63	110.25
320.843	186.02
321.057	65.19
321.27	57
321.483	114.34
321.697	120.49
321.91	46.76
322.124	89.77
322.337	75.43
322.55	-0.34
322.763	61.1
322.977	48.81
323.19	1.71
323.403	67.24
323.617	-2.39
323.83	173.74
324.043	-31.06
324.256	-33.11
324.469	-51.54
324.683	100.01
324.896	3.75
325.109	1.71
325.322	-65.88
325.535	83.63
325.748	104.11
325.962	3.75
326.175	3.75
326.388	85.67
326.601	87.72
326.814	75.43
327.027	7.85
327.24	122.54
327.453	-98.64
327.666	126.63
327.879	226.98
328.092	124.58
328.305	16.04
328.518	-47.44
328.731	-61.78
328.944	-59.73
329.157	75.43
329.37	1.71
329.583	151.21
329.796	173.74
330.009	-0.34
330.222	102.06
330.435	46.76
330.648	-24.92
330.861	59.05
331.073	-0.34
331.286	136.87
331.499	26.28
331.712	-39.25
331.925	48.81
332.138	52.91
332.35	140.97
332.563	48.81
332.776	130.73
332.989	-43.35
333.202	-2.39
333.414	-29.01
333.627	5.8
333.84	28.33
334.053	85.67
334.265	-88.4
334.478	81.58
334.691	-31.06
334.903	22.19
335.116	-10.58
335.329	85.67
335.541	1.71
335.754	136.87
335.966	-53.59
336.179	-0.34
336.392	7.85
336.604	32.43
336.817	100.01
337.029	61.1
337.242	-2.39
337.454	61.1
337.667	42.67
337.88	91.82
338.092	28.33
338.305	79.53
338.517	-22.87
338.729	65.19
338.942	81.58
339.154	-121.17
339.367	-96.6
339.579	104.11
339.792	-33.11
340.004	59.05
340.217	42.67
340.429	85.67
340.641	9.9
340.854	-55.64
341.066	36.52
341.278	157.35
341.491	134.82
341.703	22.19
341.915	5.8
342.128	173.74
342.34	95.91
342.552	-31.06
342.764	7.85
342.977	59.05
343.189	18.09
343.401	24.23
343.613	50.86
343.826	61.1
344.038	-78.16
344.25	104.11
344.462	-24.92
344.674	69.29
344.886	7.85
345.099	116.39
345.311	91.82
345.523	48.81
345.735	-49.49
345.947	65.19
346.159	65.19
346.371	38.57
346.583	-6.49
346.795	210.6
347.007	32.43
347.219	3.75
347.431	-20.82
347.643	104.11
347.855	-53.59
348.067	196.26
348.279	-41.3
348.491	-72.02
348.703	83.63
348.915	22.19
349.127	-61.78
349.339	73.39
349.551	-6.49
349.763	77.48
349.975	40.62
350.187	102.06
350.399	145.06
350.61	44.71
350.822	3.75
351.034	124.58
351.246	54.95
351.458	100.01
351.669	108.2
351.881	126.63
352.093	89.77
352.305	143.02
352.517	42.67
352.728	79.53
352.94	81.58
353.152	50.86
353.363	-55.64
353.575	100.01
353.787	161.45
353.999	46.76
354.21	130.73
354.422	-102.74
354.633	11.95
354.845	50.86
355.057	77.48
355.268	18.09
355.48	110.25
355.692	-115.03
355.903	44.71
356.115	-29.01
356.326	-72.02
356.538	153.26
356.749	52.91
356.961	87.72
357.172	28.33
357.384	3.75
357.595	235.18
357.807	-33.11
358.018	71.34
358.23	44.71
358.441	132.78
358.653	16.04
358.864	52.91
359.075	-47.44
359.287	18.09
359.498	42.67
359.709	54.95
359.921	34.47
360.132	22.19
360.344	54.95
360.555	-8.53
360.766	71.34
360.977	-69.97
361.189	140.97
361.4	-14.68
361.611	114.34
361.823	97.96
362.034	42.67
362.245	-41.3
362.456	16.04
362.667	83.63
362.879	-153.94
363.09	54.95
363.301	40.62
363.512	-2.39
363.723	44.71
363.935	-41.3
364.146	50.86
364.357	40.62
364.568	59.05
364.779	46.76
364.99	136.87
365.201	-24.92
365.412	69.29
365.623	-94.55
365.834	122.54
366.045	-22.87
366.256	59.05
366.467	46.76
366.678	-31.06
366.889	-0.34
367.1	-10.58
367.311	110.25
367.522	-20.82
367.733	-37.2
367.944	63.15
368.155	3.75
368.366	61.1
368.577	44.71
368.788	91.82
368.999	5.8
369.209	118.44
369.42	202.41
369.631	249.51
369.842	36.52
370.053	59.05
370.264	57
370.474	-22.87
370.685	-6.49
370.896	13.99
371.107	134.82
371.317	110.25
371.528	71.34
371.739	75.43
371.95	16.04
372.16	65.19
372.371	-22.87
372.582	46.76
372.792	65.19
373.003	79.53
373.214	71.34
373.424	155.3
373.635	-115.03
373.846	87.72
374.056	7.85
374.267	26.28
374.477	48.81
374.688	-39.25
374.898	20.14
375.109	-8.53
375.319	-0.34
375.53	114.34
375.74	130.73
375.951	20.14
376.161	91.82
376.372	177.83
376.582	22.19
376.793	157.35
377.003	5.8
377.214	-12.63
377.424	89.77
377.635	50.86
377.845	-39.25
378.055	147.11
378.266	-31.06
378.476	3.75
378.686	75.43
378.897	7.85
379.107	61.1
379.317	16.04
379.528	-10.58
379.738	97.96
379.948	-26.96
380.158	40.62
380.369	-0.34
380.579	110.25
380.789	71.34
380.999	48.81
381.21	95.91
381.42	192.17
381.63	22.19
381.84	46.76
382.05	136.87
382.261	67.24
382.471	128.68
382.681	-4.44
382.891	173.74
383.101	52.91
383.311	-14.68
383.521	46.76
383.731	110.25
383.941	79.53
384.151	-78.16
384.361	54.95
384.571	69.29
384.781	30.38
384.991	163.5
385.201	181.93
385.411	61.1
385.621	63.15
385.831	36.52
386.041	69.29
386.251	40.62
386.461	87.72
386.671	20.14
386.881	143.02
387.091	67.24
387.301	147.11
387.511	61.1
387.72	3.75
387.93	13.99
388.14	-96.6
388.35	7.85
388.56	124.58
388.769	91.82
388.979	22.19
389.189	-115.03
389.399	126.63
389.609	63.15
389.818	67.24
390.028	95.91
390.238	89.77
390.447	46.76
390.657	69.29
390.867	-4.44
391.076	-61.78
391.286	-6.49
391.496	-0.34
391.705	120.49
391.915	46.76
392.125	167.59
392.334	9.9
392.544	128.68
392.753	46.76
392.963	73.39
393.172	24.23
393.382	20.14
393.591	128.68
393.801	-33.11
394.01	134.82
394.22	100.01
394.429	42.67
394.639	24.23
394.848	13.99
395.058	61.1
395.267	5.8
395.477	30.38
395.686	61.1
395.895	169.64
396.105	128.68
396.314	69.29
396.524	116.39
396.733	38.57
396.942	126.63
397.152	65.19
397.361	77.48
397.57	34.47
397.78	54.95
397.989	81.58
398.198	167.59
398.407	-4.44
398.617	61.1
398.826	-6.49
399.035	-4.44
399.244	20.14
399.453	11.95
399.663	54.95
399.872	75.43
400.081	-20.82
400.29	155.3
400.499	-63.83
400.708	159.4
400.917	-12.63
401.127	-4.44
401.336	-6.49
401.545	208.55
401.754	67.24
401.963	36.52
402.172	-16.73
402.381	9.9
402.59	71.34
402.799	67.24
403.008	102.06
403.217	44.71
403.426	130.73
403.635	3.75
403.844	79.53
404.053	-6.49
404.262	65.19
404.471	157.35
404.68	140.97
404.888	34.47
405.097	69.29
405.306	79.53
405.515	85.67
405.724	1.71
405.933	34.47
406.142	108.2
406.35	73.39
406.559	-22.87
406.768	28.33
406.977	132.78
407.185	42.67
407.394	83.63
407.603	-16.73
407.812	100.01
408.02	102.06
408.229	30.38
408.438	30.38
408.646	-59.73
408.855	40.62
409.064	71.34
409.272	3.75
409.481	89.77
409.69	-43.35
409.898	-2.39
410.107	73.39
410.315	155.3
410.524	-45.4
410.733	-12.63
410.941	67.24
411.15	71.34
411.358	52.91
411.567	106.15
411.775	18.09
411.984	110.25
412.192	126.63
412.401	-76.12
412.609	122.54
412.818	130.73
413.026	46.76
413.234	30.38
413.443	69.29
413.651	-63.83
413.86	26.28
414.068	40.62
414.276	157.35
414.485	-43.35
414.693	118.44
414.901	163.5
415.11	100.01
415.318	83.63
415.526	34.47
415.734	-6.49
415.943	11.95
416.151	163.5
416.359	81.58
416.567	61.1
416.776	67.24
416.984	93.87
417.192	163.5
417.4	50.86
417.608	-43.35
417.817	-47.44
418.025	81.58
418.233	192.17
418.441	11.95
418.649	-49.49
418.857	108.2
419.065	171.69
419.273	-10.58
419.481	52.91
419.689	69.29
419.897	38.57
420.105	-0.34
420.313	20.14
420.521	208.55
420.729	93.87
420.937	61.1
421.145	-41.3
421.353	97.96
421.561	151.21
421.769	61.1
421.977	69.29
422.185	114.34
422.393	85.67
422.601	100.01
422.809	18.09
423.017	73.39
423.224	102.06
423.432	130.73
423.64	-6.49
423.848	83.63
424.056	50.86
424.263	198.31
424.471	-88.4
424.679	114.34
424.887	-98.64
425.094	61.1
425.302	67.24
425.51	-2.39
425.718	87.72
425.925	16.04
426.133	97.96
426.341	214.7
426.548	-0.34
426.756	9.9
426.964	157.35
427.171	48.81
427.379	59.05
427.586	36.52
427.794	106.15
428.001	65.19
428.209	40.62
428.417	177.83
428.624	97.96
428.832	89.77
429.039	26.28
429.247	83.63
429.454	145.06
429.662	126.63
429.869	214.7
430.076	54.95
430.284	157.35
430.491	222.89
430.699	114.34
430.906	167.59
431.114	149.16
431.321	179.88
431.528	13.99
431.736	108.2
431.943	136.87
432.15	95.91
432.358	173.74
432.565	229.03
432.772	61.1
432.979	159.4
433.187	91.82
433.394	204.46
433.601	138.92
433.808	241.32
434.016	243.37
434.223	206.5
434.43	274.09
434.637	177.83
434.844	263.85
435.052	177.83
435.259	233.13
435.466	345.77
435.673	194.22
435.88	296.61
436.087	278.18
436.294	360.1
436.501	235.18
436.708	255.65
436.915	265.89
437.122	401.06
437.329	216.74
437.537	368.29
437.743	331.43
437.95	362.15
438.157	196.26
438.364	315.05
438.571	376.48
438.778	386.72
438.985	394.92
439.192	351.91
439.399	378.53
439.606	485.03
439.813	423.59
440.02	542.37
440.227	513.7
440.433	458.4
440.64	442.02
440.847	431.78
441.054	573.09
441.261	632.48
441.467	550.56
441.674	528.03
441.881	683.68
442.088	571.04
442.294	655.01
442.501	738.98
442.708	741.02
442.914	726.69
443.121	747.17
443.328	857.76
443.534	833.18
443.741	843.42
443.948	722.59
444.154	824.99
444.361	1103.51
444.568	984.73
444.774	917.15
444.981	863.9
445.187	1078.94
445.394	1042.07
445.6	988.83
445.807	1248.92
446.013	1121.95
446.22	1119.9
446.426	1273.5
446.633	1388.18
446.839	1607.31
447.046	1267.35
447.252	1504.92
447.459	1445.52
447.665	1468.05
447.871	1676.95
448.078	1801.87
448.284	1775.25
448.491	1814.16
448.697	1998.48
448.903	2051.72
449.11	1998.48
449.316	2041.48
449.522	2090.63
449.728	2260.62
449.935	2307.72
450.141	2268.81
450.347	2508.42
450.553	2446.98
450.76	2494.08
450.966	2735.74
451.172	2741.89
451.378	2858.62
451.584	3020.41
451.791	3184.25
451.997	3169.91
452.203	3329.66
452.409	3501.69
452.615	3667.57
452.821	3419.77
453.027	3559.03
453.233	3976.81
453.44	3923.57
453.646	4081.26
453.852	4175.47
454.058	4437.61
454.264	4441.7
454.47	4857.44
454.676	4933.22
454.882	5213.79
455.088	5115.48
455.294	5135.96
455.5	5781.07
455.705	6096.46
455.911	6014.54
456.117	6262.35
456.323	6307.4
456.529	6327.88
456.735	6966.85
456.941	7169.6
457.147	7519.8
457.352	7734.84
457.558	7976.5
457.764	8551.98
457.97	8543.78
458.176	8920.61
458.381	9537.05
458.587	9334.3
458.793	9999.89
458.999	9946.64
459.204	11210.24
459.41	11544.06
459.616	11275.77
459.821	11933.17
460.027	12692.97
460.233	13401.57
460.438	13102.56
460.644	14044.63
460.85	14224.85
461.055	14687.69
461.261	15414.72
461.466	15162.82
461.672	15422.91
461.878	17358.24
462.083	16893.35
462.289	17417.63
462.494	18023.83
462.7	18476.43
462.905	18472.34
463.111	19826.04
463.316	20974.95
463.522	21470.56
463.727	22261.08
463.932	22945.1
464.138	23381.32
464.343	24474.93
464.549	24759.6
464.754	26344.73
464.959	27082
465.165	27458.82
465.37	27165.96
465.575	27550.98
465.781	28992.75
465.986	30080.22
466.191	29816.04
466.397	29932.77
466.602	29236.46
466.807	30860.5
467.012	31472.84
467.218	31595.72
467.423	31999.17
467.628	32705.72
467.833	34817.18
468.038	33739.94
468.244	32965.81
468.449	35144.85
468.654	34315.42
