Data from USB4F104151__31__09-26-49-912.txt Node

Date: Wed Feb 26 09:26:49 EST 2025
User: louis
Spectrometer: USB4F10415
Trigger mode: 4
Integration Time (sec): 1.000000E-1
Scans to average: 1
Electric dark correction enabled: true
Nonlinearity correction enabled: false
Boxcar width: 0
XAxis mode: Wavelengths
Number of Pixels in Spectrum: 3648
>>>>>Begin Spectral Data<<<<<
178.204	-335.53
178.424	-335.53
178.644	-335.53
178.864	-407.2
179.084	-384.68
179.304	65.88
179.524	-91.82
179.744	45.4
179.964	26.96
180.184	31.06
180.404	-7.85
180.624	-34.47
180.844	-24.23
181.064	-85.67
181.283	43.35
181.503	-9.9
181.723	41.3
181.943	-48.81
182.163	203.09
182.383	-91.82
182.602	41.3
182.822	135.51
183.042	112.98
183.262	-32.43
183.482	-18.09
183.701	-28.33
183.921	31.06
184.141	-28.33
184.361	74.07
184.58	12.63
184.8	92.5
185.02	-67.24
185.239	102.74
185.459	129.36
185.679	172.37
185.898	-91.82
186.118	143.7
186.338	84.31
186.557	37.2
186.777	-61.1
186.997	47.44
187.216	33.11
187.436	84.31
187.655	104.79
187.875	29.01
188.095	67.92
188.314	98.64
188.534	80.21
188.753	-7.85
188.973	139.6
189.192	143.7
189.412	10.58
189.631	24.92
189.851	72.02
190.07	102.74
190.29	-5.8
190.509	39.25
190.729	31.06
190.948	127.32
191.168	280.91
191.387	29.01
191.607	-44.71
191.826	65.88
192.045	16.73
192.265	-11.95
192.484	43.35
192.704	2.39
192.923	-81.58
193.142	178.51
193.362	127.32
193.581	133.46
193.8	35.16
194.02	65.88
194.239	26.96
194.458	51.54
194.678	-24.23
194.897	8.53
195.116	143.7
195.335	6.49
195.555	49.49
195.774	57.68
195.993	119.12
196.212	-52.91
196.432	59.73
196.651	-40.62
196.87	-69.29
197.089	174.42
197.308	110.93
197.528	80.21
197.747	-61.1
197.966	82.26
198.185	92.5
198.404	-48.81
198.623	41.3
198.842	176.47
199.062	65.88
199.281	106.84
199.5	43.35
199.719	47.44
199.938	22.87
200.157	82.26
200.376	39.25
200.595	57.68
200.814	33.11
201.033	-20.14
201.252	63.83
201.471	29.01
201.69	102.74
201.909	63.83
202.128	14.68
202.347	94.55
202.566	8.53
202.785	-24.23
203.004	0.34
203.223	219.47
203.442	49.49
203.661	-5.8
203.879	39.25
204.098	94.55
204.317	8.53
204.536	41.3
204.755	51.54
204.974	39.25
205.193	41.3
205.411	123.22
205.63	119.12
205.849	55.64
206.068	55.64
206.287	12.63
206.505	35.16
206.724	96.6
206.943	14.68
207.162	-71.34
207.381	76.12
207.599	31.06
207.818	61.78
208.037	-42.67
208.255	61.78
208.474	33.11
208.693	39.25
208.911	-7.85
209.13	104.79
209.349	61.78
209.567	80.21
209.786	59.73
210.005	153.94
210.223	49.49
210.442	-18.09
210.661	51.54
210.879	55.64
211.098	35.16
211.316	-13.99
211.535	24.92
211.753	98.64
211.972	80.21
212.191	-7.85
212.409	33.11
212.628	88.4
212.846	-40.62
213.065	86.36
213.283	139.6
213.502	6.49
213.72	78.16
213.938	-26.28
214.157	-42.67
214.375	-5.8
214.594	-50.86
214.812	41.3
215.031	-36.52
215.249	45.4
215.467	24.92
215.686	10.58
215.904	43.35
216.122	90.45
216.341	153.94
216.559	10.58
216.778	78.16
216.996	80.21
217.214	-26.28
217.432	39.25
217.651	-83.63
217.869	29.01
218.087	14.68
218.306	14.68
218.524	-18.09
218.742	45.4
218.96	57.68
219.179	16.73
219.397	29.01
219.615	233.81
219.833	43.35
220.051	8.53
220.27	37.2
220.488	6.49
220.706	55.64
220.924	26.96
221.142	-59.05
221.36	94.55
221.578	20.82
221.796	63.83
222.015	123.22
222.233	63.83
222.451	24.92
222.669	6.49
222.887	61.78
223.105	-1.71
223.323	-28.33
223.541	-20.14
223.759	43.35
223.977	-7.85
224.195	123.22
224.413	129.36
224.631	33.11
224.849	90.45
225.067	141.65
225.285	6.49
225.503	-61.1
225.721	-48.81
225.939	20.82
226.157	22.87
226.375	186.71
226.592	-7.85
226.81	14.68
227.028	72.02
227.246	90.45
227.464	96.6
227.682	45.4
227.9	22.87
228.117	63.83
228.335	82.26
228.553	104.79
228.771	-73.39
228.989	47.44
229.206	82.26
229.424	43.35
229.642	74.07
229.86	20.82
230.077	98.64
230.295	59.73
230.513	106.84
230.731	102.74
230.948	137.56
231.166	117.08
231.384	-40.62
231.601	-13.99
231.819	123.22
232.037	-48.81
232.254	-61.1
232.472	0.34
232.689	0.34
232.907	16.73
233.125	76.12
233.342	72.02
233.56	37.2
233.777	37.2
233.995	92.5
234.213	47.44
234.43	115.03
234.648	24.92
234.865	-11.95
235.083	45.4
235.3	16.73
235.518	104.79
235.735	76.12
235.953	63.83
236.17	39.25
236.388	-5.8
236.605	10.58
236.822	72.02
237.04	24.92
237.257	51.54
237.475	8.53
237.692	-16.04
237.909	72.02
238.127	-20.14
238.344	100.69
238.562	18.77
238.779	-38.57
238.996	37.2
239.214	39.25
239.431	49.49
239.648	-24.23
239.865	65.88
240.083	131.41
240.3	-26.28
240.517	-63.15
240.735	-26.28
240.952	123.22
241.169	61.78
241.386	72.02
241.603	57.68
241.821	-11.95
242.038	133.46
242.255	53.59
242.472	-20.14
242.689	61.78
242.907	29.01
243.124	47.44
243.341	41.3
243.558	-50.86
243.775	-42.67
243.992	-93.87
244.209	33.11
244.426	137.56
244.643	49.49
244.86	8.53
245.078	57.68
245.295	37.2
245.512	29.01
245.729	-73.39
245.946	72.02
246.163	-13.99
246.38	-18.09
246.597	80.21
246.814	47.44
247.031	57.68
247.248	22.87
247.464	115.03
247.681	88.4
247.898	80.21
248.115	78.16
248.332	-36.52
248.549	121.17
248.766	176.47
248.983	129.36
249.2	41.3
249.417	65.88
249.633	22.87
249.85	2.39
250.067	-36.52
250.284	14.68
250.501	-13.99
250.717	49.49
250.934	-116.39
251.151	-32.43
251.368	0.34
251.585	61.78
251.801	82.26
252.018	4.44
252.235	178.51
252.451	-75.43
252.668	22.87
252.885	72.02
253.102	24.92
253.318	0.34
253.535	33.11
253.752	41.3
253.968	-9.9
254.185	-24.23
254.401	55.64
254.618	90.45
254.835	-77.48
255.051	117.08
255.268	86.36
255.484	-22.19
255.701	37.2
255.917	31.06
256.134	33.11
256.351	12.63
256.567	-44.71
256.784	-30.38
257	-134.82
257.217	88.4
257.433	47.44
257.65	74.07
257.866	155.99
258.082	-40.62
258.299	-44.71
258.515	104.79
258.732	12.63
258.948	18.77
259.165	82.26
259.381	-69.29
259.597	8.53
259.814	-1.71
260.03	4.44
260.246	41.3
260.463	39.25
260.679	24.92
260.895	-18.09
261.112	37.2
261.328	-16.04
261.544	-63.15
261.761	166.23
261.977	14.68
262.193	-24.23
262.409	55.64
262.626	47.44
262.842	94.55
263.058	39.25
263.274	57.68
263.49	88.4
263.707	88.4
263.923	47.44
264.139	-143.02
264.355	57.68
264.571	65.88
264.787	-36.52
265.004	18.77
265.22	22.87
265.436	-67.24
265.652	12.63
265.868	104.79
266.084	8.53
266.3	24.92
266.516	-50.86
266.732	53.59
266.948	72.02
267.164	31.06
267.38	39.25
267.596	98.64
267.812	145.75
268.028	57.68
268.244	-22.19
268.46	33.11
268.676	-20.14
268.892	49.49
269.108	-57
269.324	-22.19
269.54	-95.91
269.756	49.49
269.972	14.68
270.188	-3.75
270.403	-79.53
270.619	-20.14
270.835	47.44
271.051	-7.85
271.267	16.73
271.483	-30.38
271.698	76.12
271.914	129.36
272.13	76.12
272.346	-24.23
272.562	63.83
272.777	153.94
272.993	-3.75
273.209	10.58
273.425	-34.47
273.64	-52.91
273.856	98.64
274.072	8.53
274.287	41.3
274.503	115.03
274.719	47.44
274.934	-59.05
275.15	2.39
275.366	31.06
275.581	-46.76
275.797	41.3
276.012	24.92
276.228	-18.09
276.444	12.63
276.659	57.68
276.875	-104.11
277.09	82.26
277.306	-67.24
277.521	74.07
277.737	-11.95
277.952	55.64
278.168	55.64
278.383	16.73
278.599	16.73
278.814	69.97
279.03	49.49
279.245	184.66
279.461	57.68
279.676	86.36
279.892	-69.29
280.107	-69.29
280.322	-57
280.538	45.4
280.753	47.44
280.969	41.3
281.184	2.39
281.399	78.16
281.615	8.53
281.83	61.78
282.045	-87.72
282.26	-75.43
282.476	10.58
282.691	39.25
282.906	-1.71
283.122	29.01
283.337	-7.85
283.552	47.44
283.767	-36.52
283.983	90.45
284.198	33.11
284.413	57.68
284.628	-18.09
284.843	2.39
285.058	82.26
285.274	-26.28
285.489	-38.57
285.704	37.2
285.919	-50.86
286.134	-63.15
286.349	-34.47
286.564	10.58
286.779	49.49
286.995	35.16
287.21	-110.25
287.425	57.68
287.64	-9.9
287.855	53.59
288.07	-61.1
288.285	104.79
288.5	74.07
288.715	76.12
288.93	24.92
289.145	-38.57
289.36	4.44
289.575	-3.75
289.79	31.06
290.004	-87.72
290.219	88.4
290.434	-3.75
290.649	-89.77
290.864	12.63
291.079	41.3
291.294	61.78
291.509	76.12
291.724	26.96
291.938	-42.67
292.153	4.44
292.368	-7.85
292.583	110.93
292.798	96.6
293.012	29.01
293.227	33.11
293.442	-18.09
293.657	121.17
293.871	145.75
294.086	49.49
294.301	135.51
294.516	98.64
294.73	14.68
294.945	-85.67
295.16	74.07
295.374	139.6
295.589	88.4
295.804	-50.86
296.018	-16.04
296.233	39.25
296.447	33.11
296.662	-52.91
296.877	76.12
297.091	57.68
297.306	51.54
297.52	-22.19
297.735	-7.85
297.949	-7.85
298.164	-57
298.378	63.83
298.593	-42.67
298.807	-65.19
299.022	74.07
299.236	47.44
299.451	-11.95
299.665	20.82
299.88	18.77
300.094	-9.9
300.309	4.44
300.523	-9.9
300.737	-22.19
300.952	55.64
301.166	18.77
301.381	57.68
301.595	4.44
301.809	47.44
302.024	45.4
302.238	14.68
302.452	51.54
302.667	4.44
302.881	147.8
303.095	49.49
303.309	82.26
303.524	-34.47
303.738	24.92
303.952	-3.75
304.166	33.11
304.381	-48.81
304.595	172.37
304.809	-32.43
305.023	59.73
305.237	-28.33
305.452	78.16
305.666	57.68
305.88	98.64
306.094	61.78
306.308	92.5
306.522	102.74
306.736	31.06
306.95	51.54
307.164	8.53
307.379	-9.9
307.593	164.18
307.807	74.07
308.021	41.3
308.235	14.68
308.449	-89.77
308.663	33.11
308.877	131.41
309.091	-71.34
309.305	80.21
309.519	-100.01
309.733	98.64
309.947	-85.67
310.161	88.4
310.374	72.02
310.588	147.8
310.802	-26.28
311.016	-85.67
311.23	29.01
311.444	-18.09
311.658	-32.43
311.872	115.03
312.085	86.36
312.299	65.88
312.513	55.64
312.727	53.59
312.941	33.11
313.154	45.4
313.368	-63.15
313.582	63.83
313.796	53.59
314.009	43.35
314.223	65.88
314.437	63.83
314.651	104.79
314.864	-7.85
315.078	-42.67
315.292	-93.87
315.505	8.53
315.719	47.44
315.933	-20.14
316.146	-40.62
316.36	18.77
316.573	102.74
316.787	24.92
317.001	-28.33
317.214	-24.23
317.428	-30.38
317.641	4.44
317.855	45.4
318.068	-57
318.282	-44.71
318.495	121.17
318.709	24.92
318.922	106.84
319.136	119.12
319.349	47.44
319.563	51.54
319.776	72.02
319.99	-18.09
320.203	168.27
320.417	35.16
320.63	24.92
320.843	151.89
321.057	86.36
321.27	-50.86
321.483	98.64
321.697	155.99
321.91	18.77
322.124	8.53
322.337	24.92
322.55	-75.43
322.763	8.53
322.977	31.06
323.19	2.39
323.403	0.34
323.617	61.78
323.83	100.69
324.043	-32.43
324.256	41.3
324.469	-22.19
324.683	86.36
324.896	16.73
325.109	16.73
325.322	-52.91
325.535	96.6
325.748	39.25
325.962	-46.76
326.175	-32.43
326.388	41.3
326.601	35.16
326.814	-36.52
327.027	90.45
327.24	90.45
327.453	-59.05
327.666	51.54
327.879	6.49
328.092	49.49
328.305	14.68
328.518	-30.38
328.731	-7.85
328.944	4.44
329.157	4.44
329.37	8.53
329.583	104.79
329.796	139.6
330.009	-73.39
330.222	-32.43
330.435	16.73
330.648	33.11
330.861	106.84
331.073	-24.23
331.286	72.02
331.499	18.77
331.712	33.11
331.925	24.92
332.138	53.59
332.35	37.2
332.563	-7.85
332.776	149.84
332.989	-30.38
333.202	-1.71
333.414	33.11
333.627	22.87
333.84	82.26
334.053	94.55
334.265	-42.67
334.478	16.73
334.691	24.92
334.903	98.64
335.116	-54.95
335.329	-22.19
335.541	57.68
335.754	102.74
335.966	-38.57
336.179	-57
336.392	78.16
336.604	-18.09
336.817	41.3
337.029	24.92
337.242	24.92
337.454	78.16
337.667	24.92
337.88	125.27
338.092	57.68
338.305	123.22
338.517	-22.19
338.729	47.44
338.942	106.84
339.154	-42.67
339.367	-34.47
339.579	-18.09
339.792	-44.71
340.004	78.16
340.217	-52.91
340.429	41.3
340.641	-65.19
340.854	43.35
341.066	-26.28
341.278	61.78
341.491	112.98
341.703	16.73
341.915	0.34
342.128	80.21
342.34	-11.95
342.552	-106.15
342.764	18.77
342.977	31.06
343.189	12.63
343.401	45.4
343.613	-16.04
343.826	88.4
344.038	41.3
344.25	14.68
344.462	24.92
344.674	55.64
344.886	26.96
345.099	86.36
345.311	20.82
345.523	-16.04
345.735	8.53
345.947	2.39
346.159	106.84
346.371	-9.9
346.583	-7.85
346.795	119.12
347.007	-7.85
347.219	86.36
347.431	63.83
347.643	49.49
347.855	14.68
348.067	137.56
348.279	-73.39
348.491	-57
348.703	90.45
348.915	-9.9
349.127	-44.71
349.339	-24.23
349.551	-57
349.763	72.02
349.975	57.68
350.187	20.82
350.399	106.84
350.61	67.92
350.822	29.01
351.034	133.46
351.246	102.74
351.458	4.44
351.669	29.01
351.881	115.03
352.093	129.36
352.305	65.88
352.517	-24.23
352.728	92.5
352.94	74.07
353.152	82.26
353.363	-28.33
353.575	123.22
353.787	168.27
353.999	98.64
354.21	90.45
354.422	16.73
354.633	-7.85
354.845	12.63
355.057	-32.43
355.268	26.96
355.48	139.6
355.692	-54.95
355.903	57.68
356.115	-26.28
356.326	-59.05
356.538	8.53
356.749	41.3
356.961	61.78
357.172	-16.04
357.384	-40.62
357.595	143.7
357.807	-57
358.018	-63.15
358.23	-5.8
358.441	172.37
358.653	29.01
358.864	-38.57
359.075	20.82
359.287	-3.75
359.498	55.64
359.709	47.44
359.921	-5.8
360.132	31.06
360.344	4.44
360.555	29.01
360.766	41.3
360.977	84.31
361.189	178.51
361.4	14.68
361.611	96.6
361.823	65.88
362.034	39.25
362.245	-52.91
362.456	29.01
362.667	51.54
362.879	20.82
363.09	0.34
363.301	16.73
363.512	43.35
363.723	2.39
363.935	-54.95
364.146	12.63
364.357	61.78
364.568	69.97
364.779	-9.9
364.99	24.92
365.201	-46.76
365.412	31.06
365.623	-36.52
365.834	33.11
366.045	29.01
366.256	39.25
366.467	74.07
366.678	-36.52
366.889	-1.71
367.1	-32.43
367.311	139.6
367.522	-81.58
367.733	153.94
367.944	-3.75
368.155	-26.28
368.366	72.02
368.577	72.02
368.788	67.92
368.999	4.44
369.209	53.59
369.42	194.9
369.631	117.08
369.842	67.92
370.053	-85.67
370.264	57.68
370.474	8.53
370.685	41.3
370.896	8.53
371.107	88.4
371.317	8.53
371.528	-20.14
371.739	86.36
371.95	47.44
372.16	51.54
372.371	-26.28
372.582	-75.43
372.792	33.11
373.003	2.39
373.214	22.87
373.424	57.68
373.635	-42.67
373.846	145.75
374.056	-24.23
374.267	18.77
374.477	20.82
374.688	-44.71
374.898	78.16
375.109	67.92
375.319	92.5
375.53	41.3
375.74	31.06
375.951	53.59
376.161	14.68
376.372	82.26
376.582	-20.14
376.793	39.25
377.003	-44.71
377.214	-11.95
377.424	-7.85
377.635	-18.09
377.845	-42.67
378.055	69.97
378.266	-7.85
378.476	16.73
378.686	-9.9
378.897	53.59
379.107	20.82
379.317	-18.09
379.528	-20.14
379.738	145.75
379.948	-5.8
380.158	65.88
380.369	22.87
380.579	31.06
380.789	-9.9
380.999	82.26
381.21	102.74
381.42	129.36
381.63	61.78
381.84	94.55
382.05	78.16
382.261	112.98
382.471	0.34
382.681	-40.62
382.891	201.04
383.101	24.92
383.311	-54.95
383.521	-28.33
383.731	90.45
383.941	86.36
384.151	10.58
384.361	-11.95
384.571	88.4
384.781	88.4
384.991	108.88
385.201	141.65
385.411	76.12
385.621	20.82
385.831	18.77
386.041	41.3
386.251	-11.95
386.461	22.87
386.671	-32.43
386.881	57.68
387.091	-9.9
387.301	57.68
387.511	31.06
387.72	119.12
387.93	153.94
388.14	-48.81
388.35	72.02
388.56	72.02
388.769	72.02
388.979	22.87
389.189	-30.38
389.399	16.73
389.609	65.88
389.818	78.16
390.028	74.07
390.238	82.26
390.447	-9.9
390.657	72.02
390.867	-3.75
391.076	-130.73
391.286	0.34
391.496	24.92
391.705	49.49
391.915	104.79
392.125	98.64
392.334	0.34
392.544	57.68
392.753	65.88
392.963	-50.86
393.172	53.59
393.382	-50.86
393.591	129.36
393.801	-102.06
394.01	117.08
394.22	94.55
394.429	45.4
394.639	-36.52
394.848	94.55
395.058	16.73
395.267	43.35
395.477	69.97
395.686	47.44
395.895	137.56
396.105	147.8
396.314	-5.8
396.524	49.49
396.733	-63.15
396.942	153.94
397.152	29.01
397.361	98.64
397.57	53.59
397.78	-7.85
397.989	110.93
398.198	254.29
398.407	-26.28
398.617	35.16
398.826	53.59
399.035	-11.95
399.244	8.53
399.453	6.49
399.663	12.63
399.872	67.92
400.081	12.63
400.29	178.51
400.499	-81.58
400.708	90.45
400.917	-28.33
401.127	-63.15
401.336	-11.95
401.545	186.71
401.754	94.55
401.963	43.35
402.172	33.11
402.381	-32.43
402.59	-18.09
402.799	106.84
403.008	37.2
403.217	139.6
403.426	20.82
403.635	-50.86
403.844	33.11
404.053	12.63
404.262	16.73
404.471	151.89
404.68	119.12
404.888	0.34
405.097	35.16
405.306	39.25
405.515	63.83
405.724	16.73
405.933	86.36
406.142	41.3
406.35	110.93
406.559	-24.23
406.768	74.07
406.977	166.23
407.185	82.26
407.394	41.3
407.603	-30.38
407.812	45.4
408.02	110.93
408.229	-28.33
408.438	67.92
408.646	-34.47
408.855	57.68
409.064	145.75
409.272	29.01
409.481	74.07
409.69	61.78
409.898	-93.87
410.107	47.44
410.315	74.07
410.524	-9.9
410.733	61.78
410.941	0.34
411.15	55.64
411.358	104.79
411.567	119.12
411.775	45.4
411.984	0.34
412.192	61.78
412.401	-7.85
412.609	201.04
412.818	69.97
413.026	-7.85
413.234	8.53
413.443	-22.19
413.651	-3.75
413.86	41.3
414.068	115.03
414.276	106.84
414.485	8.53
414.693	82.26
414.901	192.85
415.11	45.4
415.318	67.92
415.526	-20.14
415.734	31.06
415.943	39.25
416.151	162.13
416.359	-26.28
416.567	0.34
416.776	22.87
416.984	131.41
417.192	135.51
417.4	-11.95
417.608	37.2
417.817	-57
418.025	98.64
418.233	115.03
418.441	-50.86
418.649	-54.95
418.857	72.02
419.065	162.13
419.273	-7.85
419.481	0.34
419.689	-5.8
419.897	51.54
420.105	-81.58
420.313	94.55
420.521	184.66
420.729	94.55
420.937	0.34
421.145	18.77
421.353	39.25
421.561	67.92
421.769	74.07
421.977	-48.81
422.185	94.55
422.393	-44.71
422.601	-13.99
422.809	26.96
423.017	45.4
423.224	33.11
423.432	78.16
423.64	16.73
423.848	98.64
424.056	35.16
424.263	-9.9
424.471	16.73
424.679	112.98
424.887	-57
425.094	143.7
425.302	24.92
425.51	-83.63
425.718	112.98
425.925	-59.05
426.133	29.01
426.341	143.7
426.548	88.4
426.756	0.34
426.964	8.53
427.171	-48.81
427.379	74.07
427.586	39.25
427.794	0.34
428.001	137.56
428.209	88.4
428.417	94.55
428.624	104.79
428.832	88.4
429.039	104.79
429.247	37.2
429.454	92.5
429.662	123.22
429.869	84.31
430.076	33.11
430.284	106.84
430.491	59.73
430.699	90.45
430.906	82.26
431.114	43.35
431.321	82.26
431.528	14.68
431.736	92.5
431.943	153.94
432.15	39.25
432.358	41.3
432.565	141.65
432.772	-83.63
432.979	155.99
433.187	49.49
433.394	94.55
433.601	-18.09
433.808	186.71
434.016	115.03
434.223	112.98
434.43	94.55
434.637	244.05
434.844	131.41
435.052	135.51
435.259	170.32
435.466	170.32
435.673	237.91
435.88	227.67
436.087	180.56
436.294	205.14
436.501	231.76
436.708	102.74
436.915	235.86
437.122	248.15
437.329	213.33
437.537	102.74
437.743	223.57
437.95	346.45
438.157	205.14
438.364	168.27
438.571	149.84
438.778	276.82
438.985	352.59
439.192	319.82
439.399	172.37
439.606	336.21
439.813	289.1
440.02	383.31
440.227	489.81
440.433	450.89
440.64	311.63
440.847	285.01
441.054	391.5
441.261	405.84
441.467	440.65
441.674	342.35
441.881	538.96
442.088	375.12
442.294	399.7
442.501	450.89
442.708	508.24
442.914	438.61
443.121	543.05
443.328	504.14
443.534	536.91
443.741	565.58
443.948	457.04
444.154	579.92
444.361	696.65
444.568	614.73
444.774	573.77
444.981	631.12
445.187	768.33
445.394	717.13
445.6	555.34
445.807	729.42
446.013	792.91
446.22	745.8
446.426	829.77
446.633	893.26
446.839	989.51
447.046	809.29
447.252	989.51
447.459	960.84
447.665	889.16
447.871	1139.01
448.078	1153.35
448.284	1171.78
448.491	1261.89
448.697	1227.07
448.903	1311.04
449.11	1270.08
449.316	1347.9
449.522	1515.84
449.728	1513.79
449.935	1532.22
450.141	1495.36
450.347	1683.77
450.553	1702.2
450.76	1663.29
450.966	1780.03
451.172	1782.07
451.378	1958.2
451.584	1866.04
451.791	2152.76
451.997	2079.03
452.203	2214.2
452.409	2236.72
452.615	2335.03
452.821	2269.49
453.027	2349.36
453.233	2550.06
453.44	2449.71
453.646	2726.19
453.852	2842.92
454.058	2918.7
454.264	2912.55
454.47	3158.31
454.676	3152.17
454.882	3399.97
455.088	3143.97
455.294	3424.55
455.5	3653.92
455.705	3864.86
455.911	4004.12
456.117	3950.87
456.323	4221.2
456.529	4167.96
456.735	4567.31
456.941	4634.89
457.147	4786.44
457.352	4997.39
457.558	4989.19
457.764	5482.75
457.97	5652.74
458.176	5677.31
458.381	6121.72
458.587	6146.3
458.793	6387.96
458.999	6351.09
459.204	7196.9
459.41	7422.18
459.616	7309.54
459.821	7758.05
460.027	8153.3
460.233	8503.51
460.438	8460.5
460.644	8818.89
460.85	9328.84
461.055	9625.79
461.261	10027.2
461.466	9758.91
461.672	9877.69
461.878	11227.31
462.083	10967.21
462.289	11172.01
462.494	11622.56
462.7	11763.87
462.905	11868.32
463.111	12900.5
463.316	13590.66
463.522	13670.53
463.727	14063.74
463.932	14581.88
464.138	15294.57
464.343	15716.45
464.549	15810.66
464.754	17221.71
464.959	17541.19
465.165	17762.37
465.37	17481.8
465.575	17668.17
465.781	18835.51
465.986	19662.89
466.191	19226.67
466.397	19193.9
466.602	18827.32
466.807	20209.7
467.012	20348.96
467.218	20611.1
467.423	20643.87
467.628	21422.09
467.833	22478.85
468.038	21889.03
468.244	21573.64
468.449	22829.05
468.654	22343.68
468.859	22218.75
469.064	22294.53
469.269	21727.24
469.474	21977.09
469.679	22636.54
469.885	22110.21
470.09	22581.24
470.295	22458.37
470.5	21628.94
