Data from USB4F104151__56__11-30-46-565.txt Node

Date: Wed Feb 26 11:30:46 EST 2025
User: louis
Spectrometer: USB4F10415
Trigger mode: 4
Integration Time (sec): 1.000000E-1
Scans to average: 1
Electric dark correction enabled: true
Nonlinearity correction enabled: false
Boxcar width: 0
XAxis mode: Wavelengths
Number of Pixels in Spectrum: 3648
>>>>>Begin Spectral Data<<<<<
178.204	-428.71
178.424	-428.71
178.644	-428.71
178.864	-393.89
179.084	-316.07
179.304	-23.21
179.524	-17.07
179.744	52.56
179.964	21.84
180.184	-12.97
180.404	42.32
180.624	30.04
180.844	-66.22
181.064	-43.69
181.283	-0.68
181.503	-45.74
181.723	62.8
181.943	-111.27
182.163	226.64
182.383	-2.73
182.602	73.04
182.822	122.2
183.042	132.44
183.262	17.75
183.482	-12.97
183.701	34.13
183.921	130.39
184.141	-6.83
184.361	150.87
184.58	56.66
184.8	5.46
185.02	-8.87
185.239	-31.4
185.459	126.29
185.679	46.42
185.898	-72.36
186.118	42.32
186.338	68.95
186.557	124.24
186.777	-64.17
186.997	77.14
187.216	42.32
187.436	216.4
187.655	46.42
187.875	122.2
188.095	54.61
188.314	183.63
188.534	148.82
188.753	-47.79
188.973	122.2
189.192	130.39
189.412	-0.68
189.631	54.61
189.851	32.08
190.07	152.91
190.29	-70.31
190.509	-17.07
190.729	42.32
190.948	146.77
191.168	222.55
191.387	122.2
191.607	3.41
191.826	83.28
192.045	-33.45
192.265	-8.87
192.484	75.09
192.704	9.56
192.923	44.37
193.142	175.44
193.362	114
193.581	142.68
193.8	118.1
194.02	105.81
194.239	71
194.458	148.82
194.678	56.66
194.897	-2.73
195.116	89.43
195.335	89.43
195.555	136.53
195.774	54.61
195.993	118.1
196.212	79.19
196.432	13.65
196.651	-27.31
196.87	5.46
197.089	236.88
197.308	56.66
197.528	75.09
197.747	-19.11
197.966	15.7
198.185	169.3
198.404	11.61
198.623	195.92
198.842	228.69
199.062	87.38
199.281	99.67
199.5	97.62
199.719	97.62
199.938	50.52
200.157	46.42
200.376	50.52
200.595	124.24
200.814	85.33
201.033	3.41
201.252	140.63
201.471	73.04
201.69	140.63
201.909	118.1
202.128	120.15
202.347	-45.74
202.566	81.24
202.785	-62.12
203.004	38.23
203.223	226.64
203.442	58.71
203.661	-68.27
203.879	97.62
204.098	200.02
204.317	-31.4
204.536	34.13
204.755	27.99
204.974	171.35
205.193	60.76
205.411	173.39
205.63	68.95
205.849	7.51
206.068	34.13
206.287	54.61
206.505	218.45
206.724	42.32
206.943	46.42
207.162	3.41
207.381	11.61
207.599	68.95
207.818	99.67
208.037	-23.21
208.255	66.9
208.474	73.04
208.693	66.9
208.911	19.8
209.13	132.44
209.349	103.76
209.567	126.29
209.786	101.72
210.005	169.3
210.223	19.8
210.442	-62.12
210.661	138.58
210.879	66.9
211.098	38.23
211.316	62.8
211.535	157.01
211.753	91.48
211.972	114
212.191	54.61
212.409	95.57
212.628	103.76
212.846	11.61
213.065	101.72
213.283	122.2
213.502	38.23
213.72	77.14
213.938	77.14
214.157	-8.87
214.375	105.81
214.594	-8.87
214.812	64.85
215.031	-33.45
215.249	68.95
215.467	77.14
215.686	13.65
215.904	97.62
216.122	34.13
216.341	118.1
216.559	62.8
216.778	103.76
216.996	183.63
217.214	48.47
217.432	1.37
217.651	13.65
217.869	77.14
218.087	36.18
218.306	5.46
218.524	52.56
218.742	48.47
218.96	73.04
219.179	71
219.397	9.56
219.615	218.45
219.833	120.15
220.051	-12.97
220.27	15.7
220.488	126.29
220.706	19.8
220.924	19.8
221.142	36.18
221.36	48.47
221.578	87.38
221.796	42.32
222.015	109.91
222.233	73.04
222.451	230.74
222.669	-10.92
222.887	54.61
223.105	-6.83
223.323	13.65
223.541	3.41
223.759	58.71
223.977	42.32
224.195	175.44
224.413	42.32
224.631	-6.83
224.849	15.7
225.067	269.65
225.285	48.47
225.503	17.75
225.721	-64.17
225.939	105.81
226.157	68.95
226.375	214.35
226.592	19.8
226.81	58.71
227.028	148.82
227.246	122.2
227.464	5.46
227.682	163.15
227.9	58.71
228.117	46.42
228.335	87.38
228.553	81.24
228.771	3.41
228.989	118.1
229.206	183.63
229.424	21.84
229.642	5.46
229.86	-15.02
230.077	171.35
230.295	60.76
230.513	105.81
230.731	89.43
230.948	116.05
231.166	185.68
231.384	30.04
231.601	-37.55
231.819	189.78
232.037	-43.69
232.254	-12.97
232.472	77.14
232.689	-4.78
232.907	169.3
233.125	9.56
233.342	-78.51
233.56	36.18
233.777	30.04
233.995	56.66
234.213	210.26
234.43	152.91
234.648	30.04
234.865	-39.59
235.083	89.43
235.3	93.52
235.518	144.72
235.735	126.29
235.953	159.06
236.17	109.91
236.388	32.08
236.605	48.47
236.822	136.53
237.04	42.32
237.257	-2.73
237.475	-0.68
237.692	15.7
237.909	109.91
238.127	-17.07
238.344	15.7
238.562	21.84
238.779	-19.11
238.996	-25.26
239.214	7.51
239.431	27.99
239.648	-21.16
239.865	144.72
240.083	77.14
240.3	-15.02
240.517	73.04
240.735	109.91
240.952	128.34
241.169	52.56
241.386	40.28
241.603	23.89
241.821	50.52
242.038	77.14
242.255	99.67
242.472	9.56
242.689	25.94
242.907	71
243.124	87.38
243.341	85.33
243.558	3.41
243.775	30.04
243.992	-88.75
244.209	126.29
244.426	175.44
244.643	21.84
244.86	-15.02
245.078	114
245.295	52.56
245.512	-8.87
245.729	-17.07
245.946	130.39
246.163	73.04
246.38	21.84
246.597	73.04
246.814	58.71
247.031	87.38
247.248	97.62
247.464	75.09
247.681	40.28
247.898	68.95
248.115	134.48
248.332	-10.92
248.549	134.48
248.766	234.83
248.983	62.8
249.2	23.89
249.417	95.57
249.633	50.52
249.85	42.32
250.067	17.75
250.284	-47.79
250.501	81.24
250.717	85.33
250.934	-51.88
251.151	-10.92
251.368	52.56
251.585	58.71
251.801	75.09
252.018	-0.68
252.235	150.87
252.451	-35.5
252.668	9.56
252.885	165.2
253.102	23.89
253.318	-6.83
253.535	36.18
253.752	-29.35
253.968	40.28
254.185	-17.07
254.401	-0.68
254.618	36.18
254.835	-8.87
255.051	132.44
255.268	101.72
255.484	-49.83
255.701	68.95
255.917	71
256.134	13.65
256.351	62.8
256.567	-90.79
256.784	-6.83
257	-68.27
257.217	171.35
257.433	89.43
257.65	54.61
257.866	91.48
258.082	7.51
258.299	-41.64
258.515	19.8
258.732	-33.45
258.948	38.23
259.165	83.28
259.381	-12.97
259.597	48.47
259.814	77.14
260.03	89.43
260.246	93.52
260.463	171.35
260.679	165.2
260.895	109.91
261.112	-74.41
261.328	9.56
261.544	25.94
261.761	277.84
261.977	54.61
262.193	-21.16
262.409	118.1
262.626	25.94
262.842	68.95
263.058	101.72
263.274	91.48
263.49	-2.73
263.707	109.91
263.923	146.77
264.139	-74.41
264.355	38.23
264.571	118.1
264.787	81.24
265.004	140.63
265.22	128.34
265.436	111.96
265.652	50.52
265.868	13.65
266.084	-45.74
266.3	97.62
266.516	-4.78
266.732	36.18
266.948	46.42
267.164	46.42
267.38	71
267.596	23.89
267.812	181.59
268.028	105.81
268.244	36.18
268.46	109.91
268.676	81.24
268.892	81.24
269.108	13.65
269.324	38.23
269.54	-12.97
269.756	111.96
269.972	-103.08
270.188	40.28
270.403	34.13
270.619	27.99
270.835	144.72
271.051	3.41
271.267	-6.83
271.483	-45.74
271.698	118.1
271.914	64.85
272.13	81.24
272.346	48.47
272.562	3.41
272.777	202.07
272.993	23.89
273.209	-21.16
273.425	99.67
273.64	-31.4
273.856	124.24
274.072	81.24
274.287	-58.03
274.503	101.72
274.719	128.34
274.934	-53.93
275.15	-33.45
275.366	-27.31
275.581	-2.73
275.797	30.04
276.012	66.9
276.228	-10.92
276.444	48.47
276.659	9.56
276.875	-12.97
277.09	138.58
277.306	27.99
277.521	183.63
277.737	87.38
277.952	105.81
278.168	3.41
278.383	79.19
278.599	91.48
278.814	107.86
279.03	97.62
279.245	197.97
279.461	97.62
279.676	91.48
279.892	15.7
280.107	1.37
280.322	32.08
280.538	60.76
280.753	23.89
280.969	109.91
281.184	54.61
281.399	159.06
281.615	50.52
281.83	64.85
282.045	-21.16
282.26	21.84
282.476	103.76
282.691	122.2
282.906	150.87
283.122	38.23
283.337	66.9
283.552	66.9
283.767	-12.97
283.983	154.96
284.198	38.23
284.413	75.09
284.628	-8.87
284.843	15.7
285.058	101.72
285.274	-37.55
285.489	36.18
285.704	83.28
285.919	58.71
286.134	-17.07
286.349	111.96
286.564	-33.45
286.779	114
286.995	-17.07
287.21	5.46
287.425	95.57
287.64	48.47
287.855	83.28
288.07	-25.26
288.285	142.68
288.5	157.01
288.715	116.05
288.93	23.89
289.145	-41.64
289.36	109.91
289.575	30.04
289.79	136.53
290.004	79.19
290.219	111.96
290.434	-37.55
290.649	93.52
290.864	-45.74
291.079	34.13
291.294	46.42
291.509	95.57
291.724	25.94
291.938	109.91
292.153	19.8
292.368	40.28
292.583	118.1
292.798	64.85
293.012	101.72
293.227	97.62
293.442	-29.35
293.657	66.9
293.871	114
294.086	81.24
294.301	185.68
294.516	95.57
294.73	87.38
294.945	7.51
295.16	77.14
295.374	206.16
295.589	122.2
295.804	56.66
296.018	62.8
296.233	152.91
296.447	40.28
296.662	71
296.877	177.49
297.091	75.09
297.306	81.24
297.52	-23.21
297.735	77.14
297.949	64.85
298.164	21.84
298.378	42.32
298.593	-47.79
298.807	32.08
299.022	89.43
299.236	169.3
299.451	73.04
299.665	1.37
299.88	17.75
300.094	95.57
300.309	66.9
300.523	64.85
300.737	15.7
300.952	161.11
301.166	103.76
301.381	1.37
301.595	-51.88
301.809	101.72
302.024	38.23
302.238	7.51
302.452	154.96
302.667	99.67
302.881	175.44
303.095	111.96
303.309	146.77
303.524	66.9
303.738	17.75
303.952	44.37
304.166	64.85
304.381	-135.85
304.595	187.73
304.809	21.84
305.023	130.39
305.237	7.51
305.452	62.8
305.666	36.18
305.88	60.76
306.094	163.15
306.308	21.84
306.522	83.28
306.736	124.24
306.95	126.29
307.164	73.04
307.379	71
307.593	206.16
307.807	222.55
308.021	111.96
308.235	134.48
308.449	-55.98
308.663	34.13
308.877	159.06
309.091	66.9
309.305	99.67
309.519	7.51
309.733	126.29
309.947	-33.45
310.161	173.39
310.374	120.15
310.588	87.38
310.802	-41.64
311.016	-19.11
311.23	54.61
311.444	-39.59
311.658	85.33
311.872	120.15
312.085	107.86
312.299	171.35
312.513	150.87
312.727	152.91
312.941	-60.07
313.154	38.23
313.368	107.86
313.582	5.46
313.796	42.32
314.009	32.08
314.223	109.91
314.437	46.42
314.651	148.82
314.864	56.66
315.078	99.67
315.292	-41.64
315.505	56.66
315.719	118.1
315.933	171.35
316.146	111.96
316.36	-35.5
316.573	163.15
316.787	173.39
317.001	89.43
317.214	17.75
317.428	54.61
317.641	50.52
317.855	-27.31
318.068	-12.97
318.282	48.47
318.495	189.78
318.709	173.39
318.922	97.62
319.136	142.68
319.349	95.57
319.563	-8.87
319.776	116.05
319.99	-0.68
320.203	150.87
320.417	105.81
320.63	103.76
320.843	191.83
321.057	130.39
321.27	68.95
321.483	81.24
321.697	163.15
321.91	93.52
322.124	87.38
322.337	97.62
322.55	40.28
322.763	116.05
322.977	27.99
323.19	50.52
323.403	50.52
323.617	66.9
323.83	132.44
324.043	50.52
324.256	5.46
324.469	-6.83
324.683	122.2
324.896	79.19
325.109	97.62
325.322	-72.36
325.535	111.96
325.748	136.53
325.962	27.99
326.175	54.61
326.388	60.76
326.601	148.82
326.814	3.41
327.027	62.8
327.24	138.58
327.453	-103.08
327.666	25.94
327.879	122.2
328.092	54.61
328.305	60.76
328.518	-72.36
328.731	101.72
328.944	15.7
329.157	79.19
329.37	60.76
329.583	247.12
329.796	148.82
330.009	23.89
330.222	105.81
330.435	52.56
330.648	25.94
330.861	81.24
331.073	142.68
331.286	103.76
331.499	79.19
331.712	-21.16
331.925	71
332.138	120.15
332.35	195.92
332.563	-82.6
332.776	93.52
332.989	-51.88
333.202	-25.26
333.414	-0.68
333.627	77.14
333.84	42.32
334.053	79.19
334.265	3.41
334.478	52.56
334.691	34.13
334.903	44.37
335.116	-37.55
335.329	-60.07
335.541	154.96
335.754	124.24
335.966	27.99
336.179	66.9
336.392	46.42
336.604	54.61
336.817	114
337.029	40.28
337.242	68.95
337.454	111.96
337.667	105.81
337.88	177.49
338.092	83.28
338.305	30.04
338.517	-0.68
338.729	71
338.942	195.92
339.154	-15.02
339.367	-125.61
339.579	107.86
339.792	-33.45
340.004	79.19
340.217	50.52
340.429	95.57
340.641	-2.73
340.854	25.94
341.066	-10.92
341.278	140.63
341.491	185.68
341.703	85.33
341.915	17.75
342.128	44.37
342.34	66.9
342.552	-25.26
342.764	71
342.977	-6.83
343.189	103.76
343.401	103.76
343.613	-78.51
343.826	1.37
344.038	-12.97
344.25	68.95
344.462	13.65
344.674	99.67
344.886	27.99
345.099	103.76
345.311	44.37
345.523	-8.87
345.735	-43.69
345.947	128.34
346.159	93.52
346.371	71
346.583	30.04
346.795	195.92
347.007	75.09
347.219	109.91
347.431	62.8
347.643	132.44
347.855	13.65
348.067	247.12
348.279	9.56
348.491	56.66
348.703	71
348.915	91.48
349.127	-4.78
349.339	-31.4
349.551	17.75
349.763	122.2
349.975	9.56
350.187	130.39
350.399	85.33
350.61	103.76
350.822	11.61
351.034	-2.73
351.246	62.8
351.458	73.04
351.669	99.67
351.881	116.05
352.093	187.73
352.305	146.77
352.517	40.28
352.728	169.3
352.94	73.04
353.152	89.43
353.363	17.75
353.575	56.66
353.787	247.12
353.999	114
354.21	183.63
354.422	-49.83
354.633	13.65
354.845	56.66
355.057	50.52
355.268	5.46
355.48	85.33
355.692	-23.21
355.903	50.52
356.115	36.18
356.326	-37.55
356.538	134.48
356.749	81.24
356.961	163.15
357.172	73.04
357.384	-29.35
357.595	222.55
357.807	30.04
358.018	-10.92
358.23	48.47
358.441	183.63
358.653	58.71
358.864	15.7
359.075	13.65
359.287	95.57
359.498	185.68
359.709	103.76
359.921	30.04
360.132	124.24
360.344	-33.45
360.555	36.18
360.766	36.18
360.977	23.89
361.189	77.14
361.4	25.94
361.611	124.24
361.823	185.68
362.034	48.47
362.245	-25.26
362.456	-10.92
362.667	165.2
362.879	105.81
363.09	52.56
363.301	109.91
363.512	103.76
363.723	60.76
363.935	71
364.146	81.24
364.357	89.43
364.568	77.14
364.779	25.94
364.99	105.81
365.201	-47.79
365.412	146.77
365.623	-15.02
365.834	30.04
366.045	58.71
366.256	62.8
366.467	103.76
366.678	71
366.889	32.08
367.1	-6.83
367.311	130.39
367.522	3.41
367.733	120.15
367.944	23.89
368.155	138.58
368.366	91.48
368.577	81.24
368.788	148.82
368.999	5.46
369.209	124.24
369.42	173.39
369.631	197.97
369.842	161.11
370.053	-29.35
370.264	89.43
370.474	-27.31
370.685	52.56
370.896	97.62
371.107	134.48
371.317	105.81
371.528	-33.45
371.739	157.01
371.95	87.38
372.16	105.81
372.371	1.37
372.582	120.15
372.792	56.66
373.003	-15.02
373.214	79.19
373.424	97.62
373.635	3.41
373.846	144.72
374.056	77.14
374.267	40.28
374.477	62.8
374.688	85.33
374.898	46.42
375.109	42.32
375.319	126.29
375.53	204.11
375.74	109.91
375.951	19.8
376.161	97.62
376.372	243.03
376.582	62.8
376.793	83.28
377.003	36.18
377.214	-35.5
377.424	142.68
377.635	105.81
377.845	-82.6
378.055	169.3
378.266	-6.83
378.476	36.18
378.686	114
378.897	128.34
379.107	91.48
379.317	79.19
379.528	23.89
379.738	105.81
379.948	9.56
380.158	224.59
380.369	66.9
380.579	93.52
380.789	85.33
380.999	107.86
381.21	167.25
381.42	230.74
381.63	1.37
381.84	146.77
382.05	58.71
382.261	120.15
382.471	128.34
382.681	54.61
382.891	105.81
383.101	17.75
383.311	11.61
383.521	34.13
383.731	224.59
383.941	122.2
384.151	116.05
384.361	25.94
384.571	68.95
384.781	85.33
384.991	271.7
385.201	154.96
385.411	161.11
385.621	105.81
385.831	-23.21
386.041	120.15
386.251	7.51
386.461	105.81
386.671	36.18
386.881	25.94
387.091	38.23
387.301	48.47
387.511	77.14
387.72	50.52
387.93	126.29
388.14	-29.35
388.35	91.48
388.56	89.43
388.769	89.43
388.979	89.43
389.189	101.72
389.399	122.2
389.609	118.1
389.818	116.05
390.028	-8.87
390.238	107.86
390.447	62.8
390.657	54.61
390.867	13.65
391.076	-35.5
391.286	118.1
391.496	36.18
391.705	19.8
391.915	171.35
392.125	216.4
392.334	48.47
392.544	105.81
392.753	11.61
392.963	15.7
393.172	36.18
393.382	-29.35
393.591	193.87
393.801	62.8
394.01	136.53
394.22	101.72
394.429	32.08
394.639	46.42
394.848	54.61
395.058	77.14
395.267	19.8
395.477	126.29
395.686	87.38
395.895	177.49
396.105	171.35
396.314	124.24
396.524	27.99
396.733	-2.73
396.942	167.25
397.152	48.47
397.361	245.07
397.57	107.86
397.78	132.44
397.989	79.19
398.198	228.69
398.407	81.24
398.617	40.28
398.826	62.8
399.035	85.33
399.244	99.67
399.453	58.71
399.663	58.71
399.872	91.48
400.081	-37.55
400.29	79.19
400.499	62.8
400.708	40.28
400.917	46.42
401.127	7.51
401.336	66.9
401.545	234.83
401.754	144.72
401.963	81.24
402.172	15.7
402.381	-68.27
402.59	19.8
402.799	48.47
403.008	77.14
403.217	77.14
403.426	107.86
403.635	-84.65
403.844	81.24
404.053	-66.22
404.262	34.13
404.471	79.19
404.68	13.65
404.888	111.96
405.097	34.13
405.306	103.76
405.515	126.29
405.724	48.47
405.933	144.72
406.142	116.05
406.35	130.39
406.559	132.44
406.768	62.8
406.977	265.55
407.185	44.37
407.394	71
407.603	27.99
407.812	68.95
408.02	159.06
408.229	68.95
408.438	120.15
408.646	9.56
408.855	-10.92
409.064	95.57
409.272	21.84
409.481	91.48
409.69	5.46
409.898	30.04
410.107	173.39
410.315	208.21
410.524	-27.31
410.733	136.53
410.941	99.67
411.15	144.72
411.358	136.53
411.567	189.78
411.775	95.57
411.984	60.76
412.192	140.63
412.401	73.04
412.609	189.78
412.818	183.63
413.026	62.8
413.234	-31.4
413.443	48.47
413.651	56.66
413.86	-35.5
414.068	191.83
414.276	167.25
414.485	60.76
414.693	185.68
414.901	243.03
415.11	97.62
415.318	60.76
415.526	77.14
415.734	79.19
415.943	142.68
416.151	152.91
416.359	40.28
416.567	3.41
416.776	85.33
416.984	136.53
417.192	183.63
417.4	-8.87
417.608	42.32
417.817	1.37
418.025	136.53
418.233	128.34
418.441	-41.64
418.649	-68.27
418.857	73.04
419.065	122.2
419.273	46.42
419.481	111.96
419.689	30.04
419.897	9.56
420.105	27.99
420.313	95.57
420.521	167.25
420.729	73.04
420.937	46.42
421.145	27.99
421.353	93.52
421.561	195.92
421.769	48.47
421.977	30.04
422.185	91.48
422.393	107.86
422.601	118.1
422.809	159.06
423.017	25.94
423.224	111.96
423.432	122.2
423.64	46.42
423.848	195.92
424.056	11.61
424.263	150.87
424.471	126.29
424.679	187.73
424.887	30.04
425.094	99.67
425.302	216.4
425.51	50.52
425.718	79.19
425.925	79.19
426.133	71
426.341	208.21
426.548	46.42
426.756	58.71
426.964	118.1
427.171	75.09
427.379	40.28
427.586	140.63
427.794	81.24
428.001	261.46
428.209	146.77
428.417	171.35
428.624	150.87
428.832	148.82
429.039	54.61
429.247	99.67
429.454	97.62
429.662	202.07
429.869	122.2
430.076	66.9
430.284	247.12
430.491	269.65
430.699	181.59
430.906	173.39
431.114	163.15
431.321	154.96
431.528	79.19
431.736	159.06
431.943	195.92
432.15	189.78
432.358	214.35
432.565	185.68
432.772	32.08
432.979	208.21
433.187	181.59
433.394	238.93
433.601	169.3
433.808	228.69
434.016	257.36
434.223	333.14
434.43	255.31
434.637	286.03
434.844	200.02
435.052	206.16
435.259	271.7
435.466	251.22
435.673	210.26
435.88	265.55
436.087	257.36
436.294	314.7
436.501	386.38
436.708	279.89
436.915	290.13
437.122	339.28
437.329	312.66
437.537	365.9
437.743	359.76
437.95	447.82
438.157	304.46
438.364	357.71
438.571	374.1
438.778	472.4
438.985	439.63
439.192	539.98
439.399	486.73
439.606	527.69
439.813	482.64
440.02	597.32
440.227	648.52
440.433	552.27
440.64	521.55
440.847	476.49
441.054	650.57
441.261	697.67
441.467	685.39
441.674	546.12
441.881	695.63
442.088	582.99
442.294	726.35
442.501	726.35
442.708	816.46
442.914	755.02
443.121	851.27
443.328	896.33
443.534	929.1
443.741	849.22
443.948	755.02
444.154	830.79
444.361	1217.86
444.568	1029.45
444.774	988.49
444.981	994.63
445.187	1121.6
445.394	1072.45
445.6	1070.4
445.807	1203.52
446.013	1246.53
446.22	1252.67
446.426	1365.31
446.633	1496.38
446.839	1510.72
447.046	1420.61
447.252	1566.01
447.459	1514.81
447.665	1545.53
447.871	1815.87
448.078	1916.22
448.284	1805.63
448.491	1893.69
448.697	1957.18
448.903	2155.83
449.11	2133.3
449.316	2161.97
449.522	2334
449.728	2393.39
449.935	2350.39
450.141	2444.59
450.347	2659.63
450.553	2665.77
450.76	2708.78
450.966	2823.47
451.172	2905.38
451.378	3026.22
451.584	3149.09
451.791	3267.88
451.997	3458.34
452.203	3560.73
452.409	3712.28
452.615	3763.48
452.821	3761.44
453.027	3806.49
453.233	4218.13
453.44	4060.44
453.646	4449.55
453.852	4367.63
454.058	4685.07
454.264	4756.75
454.47	5182.73
454.676	5166.34
454.882	5598.46
455.088	5467.39
455.294	5764.35
455.5	5850.36
455.705	6411.51
455.911	6374.64
456.117	6585.58
456.323	6776.05
456.529	6819.05
456.735	7474.4
456.941	7775.45
457.147	7849.18
457.352	8133.85
457.558	8508.63
457.764	8864.97
457.97	9196.74
458.176	9602.24
458.381	9813.18
458.587	9993.4
458.793	10704.05
458.999	10652.85
459.204	12051.61
459.41	12420.25
459.616	12068
459.821	12977.3
460.027	13540.49
460.233	14234.75
460.438	14247.04
460.644	15055.98
460.85	15238.25
461.055	15807.59
461.261	16563.29
461.466	16174.17
461.672	16649.3
461.878	18390.08
462.083	18256.96
462.289	18584.63
462.494	19180.59
462.7	19321.9
462.905	19821.61
463.111	21191.7
463.316	22461.44
463.522	22825.98
463.727	23329.78
463.932	24509.41
464.138	25125.85
464.343	26241.99
464.549	26457.03
464.754	28226.47
464.959	28902.3
465.165	29301.65
465.37	29186.97
465.575	29346.71
465.781	31101.82
465.986	32260.97
466.191	31726.45
466.397	31845.23
466.602	31452.02
466.807	33538.9
467.012	33551.19
467.218	34095.95
467.423	34411.34
467.628	35099.45
467.833	36838.18
468.038	36166.45
468.244	36018.99
468.449	37575.45
468.654	36905.76
468.859	36459.31
469.064	36623.14
