Data from USB4F104151__38__11-26-31-793.txt Node

Date: Wed Feb 26 11:26:31 EST 2025
User: louis
Spectrometer: USB4F10415
Trigger mode: 4
Integration Time (sec): 1.000000E-1
Scans to average: 1
Electric dark correction enabled: true
Nonlinearity correction enabled: false
Boxcar width: 0
XAxis mode: Wavelengths
Number of Pixels in Spectrum: 3648
>>>>>Begin Spectral Data<<<<<
178.204	-391.16
178.424	-391.16
178.644	-391.16
178.864	-403.45
179.084	-413.69
179.304	77.82
179.524	10.24
179.744	-22.53
179.964	75.77
180.184	34.82
180.404	-12.29
180.624	-55.3
180.844	24.58
181.064	-79.87
181.283	-8.19
181.503	-75.77
181.723	30.72
181.943	-96.25
182.163	159.74
182.383	-98.3
182.602	28.67
182.822	96.25
183.042	4.1
183.262	-61.44
183.482	-10.24
183.701	24.58
183.921	-61.44
184.141	-79.87
184.361	79.87
184.58	59.39
184.8	-20.48
185.02	0
185.239	34.82
185.459	45.06
185.679	106.49
185.898	-28.67
186.118	24.58
186.338	86.01
186.557	32.77
186.777	-86.01
186.997	-28.67
187.216	131.07
187.436	131.07
187.655	28.67
187.875	126.97
188.095	106.49
188.314	180.22
188.534	73.73
188.753	4.1
188.973	145.41
189.192	176.13
189.412	26.62
189.631	-26.62
189.851	30.72
190.07	61.44
190.29	-57.34
190.509	-53.25
190.729	32.77
190.948	155.65
191.168	272.38
191.387	110.59
191.607	-71.68
191.826	92.16
192.045	-2.05
192.265	4.1
192.484	102.4
192.704	-2.05
192.923	-6.14
193.142	90.11
193.362	49.15
193.581	106.49
193.8	63.49
194.02	92.16
194.239	-40.96
194.458	94.21
194.678	45.06
194.897	-36.86
195.116	100.35
195.335	45.06
195.555	-45.06
195.774	10.24
195.993	104.45
196.212	16.38
196.432	-55.3
196.651	49.15
196.87	-28.67
197.089	114.69
197.308	-63.49
197.528	22.53
197.747	-83.97
197.966	-4.1
198.185	159.74
198.404	-90.11
198.623	135.17
198.842	153.6
199.062	45.06
199.281	112.64
199.5	-12.29
199.719	63.49
199.938	118.78
200.157	116.73
200.376	12.29
200.595	102.4
200.814	51.2
201.033	30.72
201.252	151.55
201.471	26.62
201.69	118.78
201.909	40.96
202.128	96.25
202.347	-12.29
202.566	73.73
202.785	-77.82
203.004	10.24
203.223	239.61
203.442	24.58
203.661	-57.34
203.879	88.06
204.098	90.11
204.317	-26.62
204.536	104.45
204.755	118.78
204.974	118.78
205.193	-10.24
205.411	98.3
205.63	40.96
205.849	92.16
206.068	81.92
206.287	-71.68
206.505	157.69
206.724	47.1
206.943	-40.96
207.162	0
207.381	69.63
207.599	-16.38
207.818	45.06
208.037	-22.53
208.255	6.14
208.474	38.91
208.693	137.21
208.911	-2.05
209.13	2.05
209.349	90.11
209.567	104.45
209.786	118.78
210.005	63.49
210.223	79.87
210.442	-102.4
210.661	38.91
210.879	106.49
211.098	-24.58
211.316	61.44
211.535	71.68
211.753	67.58
211.972	30.72
212.191	18.43
212.409	79.87
212.628	53.25
212.846	-53.25
213.065	18.43
213.283	75.77
213.502	24.58
213.72	67.58
213.938	0
214.157	20.48
214.375	96.25
214.594	-71.68
214.812	59.39
215.031	-12.29
215.249	-24.58
215.467	16.38
215.686	59.39
215.904	24.58
216.122	-20.48
216.341	22.53
216.559	-14.34
216.778	75.77
216.996	147.45
217.214	-16.38
217.432	-28.67
217.651	-75.77
217.869	67.58
218.087	45.06
218.306	55.3
218.524	14.34
218.742	88.06
218.96	8.19
219.179	-26.62
219.397	-18.43
219.615	180.22
219.833	157.69
220.051	-57.34
220.27	69.63
220.488	143.36
220.706	18.43
220.924	-4.1
221.142	-83.97
221.36	14.34
221.578	53.25
221.796	-24.58
222.015	22.53
222.233	10.24
222.451	108.54
222.669	18.43
222.887	73.73
223.105	-59.39
223.323	-55.3
223.541	-26.62
223.759	71.68
223.977	-38.91
224.195	145.41
224.413	-12.29
224.631	71.68
224.849	100.35
225.067	217.08
225.285	-67.58
225.503	10.24
225.721	-112.64
225.939	-24.58
226.157	57.34
226.375	190.46
226.592	-90.11
226.81	14.34
227.028	24.58
227.246	157.69
227.464	18.43
227.682	118.78
227.9	114.69
228.117	94.21
228.335	65.54
228.553	22.53
228.771	20.48
228.989	47.1
229.206	26.62
229.424	55.3
229.642	-8.19
229.86	10.24
230.077	169.98
230.295	-61.44
230.513	10.24
230.731	0
230.948	176.13
231.166	153.6
231.384	-2.05
231.601	-57.34
231.819	139.26
232.037	-28.67
232.254	-10.24
232.472	22.53
232.689	-40.96
232.907	69.63
233.125	-49.15
233.342	36.86
233.56	-16.38
233.777	-45.06
233.995	10.24
234.213	137.21
234.43	71.68
234.648	-36.86
234.865	-34.82
235.083	75.77
235.3	118.78
235.518	81.92
235.735	59.39
235.953	36.86
236.17	-28.67
236.388	0
236.605	-28.67
236.822	94.21
237.04	165.89
237.257	18.43
237.475	-69.63
237.692	38.91
237.909	108.54
238.127	4.1
238.344	22.53
238.562	20.48
238.779	-61.44
238.996	-28.67
239.214	-8.19
239.431	81.92
239.648	30.72
239.865	83.97
240.083	28.67
240.3	-2.05
240.517	-10.24
240.735	38.91
240.952	88.06
241.169	59.39
241.386	73.73
241.603	-63.49
241.821	-47.1
242.038	104.45
242.255	126.97
242.472	-77.82
242.689	63.49
242.907	104.45
243.124	43.01
243.341	43.01
243.558	-6.14
243.775	-8.19
243.992	-69.63
244.209	92.16
244.426	77.82
244.643	112.64
244.86	-32.77
245.078	114.69
245.295	71.68
245.512	-6.14
245.729	-69.63
245.946	69.63
246.163	61.44
246.38	-71.68
246.597	88.06
246.814	45.06
247.031	-20.48
247.248	-4.1
247.464	77.82
247.681	10.24
247.898	20.48
248.115	55.3
248.332	-45.06
248.549	92.16
248.766	188.41
248.983	69.63
249.2	51.2
249.417	6.14
249.633	-6.14
249.85	45.06
250.067	-10.24
250.284	92.16
250.501	73.73
250.717	51.2
250.934	-86.01
251.151	75.77
251.368	-10.24
251.585	79.87
251.801	-18.43
252.018	-26.62
252.235	114.69
252.451	0
252.668	-22.53
252.885	38.91
253.102	55.3
253.318	-30.72
253.535	34.82
253.752	55.3
253.968	2.05
254.185	-86.01
254.401	57.34
254.618	86.01
254.835	-16.38
255.051	104.45
255.268	139.26
255.484	47.1
255.701	36.86
255.917	92.16
256.134	-63.49
256.351	61.44
256.567	-6.14
256.784	24.58
257	-96.25
257.217	26.62
257.433	69.63
257.65	47.1
257.866	124.93
258.082	-22.53
258.299	-73.73
258.515	49.15
258.732	-40.96
258.948	-16.38
259.165	20.48
259.381	-51.2
259.597	126.97
259.814	-40.96
260.03	34.82
260.246	-51.2
260.463	90.11
260.679	137.21
260.895	2.05
261.112	12.29
261.328	12.29
261.544	-86.01
261.761	169.98
261.977	10.24
262.193	-6.14
262.409	137.21
262.626	4.1
262.842	-12.29
263.058	-51.2
263.274	116.73
263.49	18.43
263.707	49.15
263.923	45.06
264.139	10.24
264.355	47.1
264.571	100.35
264.787	86.01
265.004	77.82
265.22	-26.62
265.436	55.3
265.652	4.1
265.868	110.59
266.084	-92.16
266.3	8.19
266.516	-4.1
266.732	57.34
266.948	36.86
267.164	34.82
267.38	159.74
267.596	106.49
267.812	210.94
268.028	104.45
268.244	26.62
268.46	-8.19
268.676	-106.49
268.892	77.82
269.108	-32.77
269.324	-18.43
269.54	-36.86
269.756	94.21
269.972	-118.78
270.188	-49.15
270.403	-40.96
270.619	43.01
270.835	71.68
271.051	67.58
271.267	0
271.483	-26.62
271.698	98.3
271.914	40.96
272.13	-18.43
272.346	67.58
272.562	28.67
272.777	73.73
272.993	-32.77
273.209	20.48
273.425	57.34
273.64	-2.05
273.856	47.1
274.072	-106.49
274.287	-26.62
274.503	145.41
274.719	49.15
274.934	-22.53
275.15	-104.45
275.366	106.49
275.581	-2.05
275.797	-22.53
276.012	-22.53
276.228	2.05
276.444	67.58
276.659	149.5
276.875	-40.96
277.09	22.53
277.306	-2.05
277.521	81.92
277.737	-4.1
277.952	30.72
278.168	45.06
278.383	34.82
278.599	47.1
278.814	112.64
279.03	59.39
279.245	100.35
279.461	65.54
279.676	55.3
279.892	-51.2
280.107	-59.39
280.322	-40.96
280.538	83.97
280.753	-34.82
280.969	71.68
281.184	51.2
281.399	137.21
281.615	112.64
281.83	12.29
282.045	-81.92
282.26	-4.1
282.476	30.72
282.691	75.77
282.906	79.87
283.122	14.34
283.337	-26.62
283.552	77.82
283.767	51.2
283.983	110.59
284.198	116.73
284.413	10.24
284.628	-59.39
284.843	-24.58
285.058	124.93
285.274	53.25
285.489	-51.2
285.704	96.25
285.919	-20.48
286.134	10.24
286.349	30.72
286.564	71.68
286.779	108.54
286.995	-16.38
287.21	-120.83
287.425	69.63
287.64	-38.91
287.855	67.58
288.07	-61.44
288.285	75.77
288.5	98.3
288.715	45.06
288.93	30.72
289.145	-36.86
289.36	96.25
289.575	-47.1
289.79	59.39
290.004	-38.91
290.219	92.16
290.434	32.77
290.649	-118.78
290.864	4.1
291.079	-14.34
291.294	30.72
291.509	40.96
291.724	-6.14
291.938	0
292.153	30.72
292.368	-22.53
292.583	38.91
292.798	96.25
293.012	34.82
293.227	59.39
293.442	10.24
293.657	65.54
293.871	133.12
294.086	63.49
294.301	196.61
294.516	110.59
294.73	34.82
294.945	-4.1
295.16	14.34
295.374	83.97
295.589	129.02
295.804	67.58
296.018	38.91
296.233	112.64
296.447	100.35
296.662	12.29
296.877	96.25
297.091	-6.14
297.306	-18.43
297.52	22.53
297.735	69.63
297.949	110.59
298.164	71.68
298.378	53.25
298.593	-96.25
298.807	4.1
299.022	86.01
299.236	86.01
299.451	-20.48
299.665	-32.77
299.88	8.19
300.094	47.1
300.309	-43.01
300.523	77.82
300.737	-30.72
300.952	79.87
301.166	-6.14
301.381	-81.92
301.595	-53.25
301.809	116.73
302.024	-65.53
302.238	32.77
302.452	114.69
302.667	24.58
302.881	63.49
303.095	49.15
303.309	55.3
303.524	-12.29
303.738	12.29
303.952	55.3
304.166	30.72
304.381	-90.11
304.595	174.08
304.809	-20.48
305.023	153.6
305.237	0
305.452	8.19
305.666	100.35
305.88	86.01
306.094	90.11
306.308	79.87
306.522	16.38
306.736	-12.29
306.95	108.54
307.164	-18.43
307.379	45.06
307.593	112.64
307.807	47.1
308.021	30.72
308.235	75.77
308.449	12.29
308.663	49.15
308.877	225.28
309.091	36.86
309.305	43.01
309.519	-129.02
309.733	59.39
309.947	-47.1
310.161	55.3
310.374	22.53
310.588	163.84
310.802	26.62
311.016	-40.96
311.23	81.92
311.444	-16.38
311.658	14.34
311.872	122.88
312.085	114.69
312.299	67.58
312.513	176.13
312.727	24.58
312.941	-34.82
313.154	120.83
313.368	22.53
313.582	-38.91
313.796	57.34
314.009	24.58
314.223	112.64
314.437	61.44
314.651	139.26
314.864	-47.1
315.078	40.96
315.292	-114.69
315.505	40.96
315.719	55.3
315.933	88.06
316.146	40.96
316.36	-92.16
316.573	83.97
316.787	55.3
317.001	32.77
317.214	-98.3
317.428	43.01
317.641	-12.29
317.855	-98.3
318.068	18.43
318.282	30.72
318.495	155.65
318.709	118.78
318.922	-16.38
319.136	118.78
319.349	92.16
319.563	4.1
319.776	34.82
319.99	-71.68
320.203	75.77
320.417	57.34
320.63	28.67
320.843	161.79
321.057	4.1
321.27	-24.58
321.483	92.16
321.697	86.01
321.91	88.06
322.124	118.78
322.337	61.44
322.55	-36.86
322.763	81.92
322.977	12.29
323.19	-47.1
323.403	118.78
323.617	69.63
323.83	86.01
324.043	-4.1
324.256	38.91
324.469	-75.77
324.683	122.88
324.896	73.73
325.109	-2.05
325.322	-22.53
325.535	49.15
325.748	63.49
325.962	26.62
326.175	38.91
326.388	45.06
326.601	92.16
326.814	18.43
327.027	28.67
327.24	180.22
327.453	-77.82
327.666	45.06
327.879	96.25
328.092	55.3
328.305	30.72
328.518	6.14
328.731	-90.11
328.944	34.82
329.157	51.2
329.37	-51.2
329.583	163.84
329.796	61.44
330.009	-90.11
330.222	110.59
330.435	135.17
330.648	-12.29
330.861	92.16
331.073	-10.24
331.286	81.92
331.499	34.82
331.712	-18.43
331.925	43.01
332.138	-20.48
332.35	63.49
332.563	-10.24
332.776	169.98
332.989	-32.77
333.202	55.3
333.414	14.34
333.627	86.01
333.84	-40.96
334.053	22.53
334.265	-30.72
334.478	24.58
334.691	63.49
334.903	4.1
335.116	-38.91
335.329	38.91
335.541	32.77
335.754	186.37
335.966	22.53
336.179	79.87
336.392	8.19
336.604	6.14
336.817	69.63
337.029	47.1
337.242	-38.91
337.454	6.14
337.667	18.43
337.88	81.92
338.092	106.49
338.305	75.77
338.517	6.14
338.729	102.4
338.942	36.86
339.154	-51.2
339.367	-73.73
339.579	77.82
339.792	-18.43
340.004	94.21
340.217	86.01
340.429	-18.43
340.641	6.14
340.854	43.01
341.066	57.34
341.278	30.72
341.491	165.89
341.703	32.77
341.915	-6.14
342.128	114.69
342.34	22.53
342.552	-40.96
342.764	-12.29
342.977	8.19
343.189	49.15
343.401	-16.38
343.613	-100.35
343.826	12.29
344.038	-12.29
344.25	-14.34
344.462	8.19
344.674	106.49
344.886	-77.82
345.099	83.97
345.311	-26.62
345.523	-18.43
345.735	-43.01
345.947	40.96
346.159	47.1
346.371	96.25
346.583	28.67
346.795	149.5
347.007	14.34
347.219	38.91
347.431	30.72
347.643	190.46
347.855	-18.43
348.067	75.77
348.279	-49.15
348.491	69.63
348.703	67.58
348.915	53.25
349.127	-45.06
349.339	40.96
349.551	-77.82
349.763	86.01
349.975	10.24
350.187	167.93
350.399	86.01
350.61	79.87
350.822	-6.14
351.034	24.58
351.246	96.25
351.458	51.2
351.669	26.62
351.881	96.25
352.093	139.26
352.305	59.39
352.517	106.49
352.728	141.31
352.94	18.43
353.152	81.92
353.363	-94.21
353.575	40.96
353.787	139.26
353.999	-61.44
354.21	108.54
354.422	-86.01
354.633	-2.05
354.845	-18.43
355.057	34.82
355.268	53.25
355.48	129.02
355.692	-114.69
355.903	4.1
356.115	36.86
356.326	-90.11
356.538	131.07
356.749	20.48
356.961	116.73
357.172	6.14
357.384	-22.53
357.595	237.56
357.807	-22.53
358.018	16.38
358.23	49.15
358.441	98.3
358.653	112.64
358.864	63.49
359.075	-24.58
359.287	55.3
359.498	104.45
359.709	18.43
359.921	36.86
360.132	16.38
360.344	18.43
360.555	36.86
360.766	57.34
360.977	14.34
361.189	102.4
361.4	24.58
361.611	129.02
361.823	65.54
362.034	36.86
362.245	-151.55
362.456	16.38
362.667	104.45
362.879	12.29
363.09	20.48
363.301	157.69
363.512	45.06
363.723	-77.82
363.935	-8.19
364.146	55.3
364.357	-43.01
364.568	40.96
364.779	-77.82
364.99	135.17
365.201	-63.49
365.412	90.11
365.623	-69.63
365.834	69.63
366.045	61.44
366.256	65.54
366.467	98.3
366.678	53.25
366.889	20.48
367.1	-40.96
367.311	94.21
367.522	-73.73
367.733	26.62
367.944	38.91
368.155	32.77
368.366	73.73
368.577	36.86
368.788	112.64
368.999	30.72
369.209	57.34
369.42	223.23
369.631	212.99
369.842	116.73
370.053	-28.67
370.264	26.62
370.474	-30.72
370.685	126.97
370.896	118.78
371.107	92.16
371.317	28.67
371.528	-20.48
371.739	167.93
371.95	38.91
372.16	118.78
372.371	-14.34
372.582	40.96
372.792	14.34
373.003	6.14
373.214	69.63
373.424	143.36
373.635	40.96
373.846	217.08
374.056	32.77
374.267	45.06
374.477	20.48
374.688	4.1
374.898	38.91
375.109	14.34
375.319	43.01
375.53	112.64
375.74	59.39
375.951	-71.68
376.161	129.02
376.372	77.82
376.582	-26.62
376.793	114.69
377.003	2.05
377.214	18.43
377.424	55.3
377.635	34.82
377.845	-32.77
378.055	118.78
378.266	-24.58
378.476	26.62
378.686	2.05
378.897	-18.43
379.107	186.37
379.317	75.77
379.528	79.87
379.738	34.82
379.948	-22.53
380.158	59.39
380.369	2.05
380.579	59.39
380.789	-6.14
380.999	49.15
381.21	32.77
381.42	131.07
381.63	-26.62
381.84	106.49
382.05	63.49
382.261	96.25
382.471	149.5
382.681	-16.38
382.891	124.93
383.101	71.68
383.311	-30.72
383.521	-32.77
383.731	184.32
383.941	57.34
384.151	-4.1
384.361	-2.05
384.571	38.91
384.781	47.1
384.991	120.83
385.201	139.26
385.411	81.92
385.621	47.1
385.831	40.96
386.041	55.3
386.251	8.19
386.461	38.91
386.671	69.63
386.881	83.97
387.091	-12.29
387.301	88.06
387.511	16.38
387.72	26.62
387.93	47.1
388.14	-34.82
388.35	122.88
388.56	55.3
388.769	30.72
388.979	14.34
389.189	-30.72
389.399	59.39
389.609	77.82
389.818	6.14
390.028	30.72
390.238	69.63
390.447	34.82
390.657	98.3
390.867	-18.43
391.076	-77.82
391.286	14.34
391.496	30.72
391.705	98.3
391.915	104.45
392.125	135.17
392.334	34.82
392.544	169.98
392.753	-10.24
392.963	-6.14
393.172	45.06
393.382	28.67
393.591	131.07
393.801	-63.49
394.01	120.83
394.22	100.35
394.429	32.77
394.639	100.35
394.848	30.72
395.058	126.97
395.267	-28.67
395.477	63.49
395.686	12.29
395.895	159.74
396.105	135.17
396.314	43.01
396.524	18.43
396.733	34.82
396.942	38.91
397.152	2.05
397.361	139.26
397.57	2.05
397.78	69.63
397.989	108.54
398.198	192.51
398.407	10.24
398.617	32.77
398.826	18.43
399.035	75.77
399.244	47.1
399.453	63.49
399.663	71.68
399.872	88.06
400.081	-67.58
400.29	126.97
400.499	-40.96
400.708	145.41
400.917	-38.91
401.127	14.34
401.336	-16.38
401.545	96.25
401.754	45.06
401.963	135.17
402.172	8.19
402.381	-34.82
402.59	0
402.799	6.14
403.008	88.06
403.217	106.49
403.426	98.3
403.635	-28.67
403.844	32.77
404.053	-71.68
404.262	73.73
404.471	141.31
404.68	8.19
404.888	-28.67
405.097	-20.48
405.306	69.63
405.515	122.88
405.724	102.4
405.933	96.25
406.142	104.45
406.35	118.78
406.559	-38.91
406.768	-16.38
406.977	133.12
407.185	90.11
407.394	26.62
407.603	-81.92
407.812	55.3
408.02	98.3
408.229	38.91
408.438	-22.53
408.646	-67.58
408.855	26.62
409.064	47.1
409.272	-22.53
409.481	174.08
409.69	0
409.898	-38.91
410.107	-10.24
410.315	47.1
410.524	-2.05
410.733	45.06
410.941	86.01
411.15	36.86
411.358	65.54
411.567	182.27
411.775	24.58
411.984	10.24
412.192	129.02
412.401	16.38
412.609	153.6
412.818	192.51
413.026	108.54
413.234	18.43
413.443	24.58
413.651	73.73
413.86	77.82
414.068	20.48
414.276	188.41
414.485	18.43
414.693	114.69
414.901	176.13
415.11	71.68
415.318	-14.34
415.526	26.62
415.734	86.01
415.943	18.43
416.151	94.21
416.359	-12.29
416.567	75.77
416.776	135.17
416.984	36.86
417.192	139.26
417.4	-83.97
417.608	0
417.817	-40.96
418.025	118.78
418.233	178.17
418.441	-20.48
418.649	45.06
418.857	63.49
419.065	116.73
419.273	-51.2
419.481	10.24
419.689	45.06
419.897	-6.14
420.105	-34.82
420.313	118.78
420.521	112.64
420.729	182.27
420.937	-6.14
421.145	-30.72
421.353	79.87
421.561	174.08
421.769	104.45
421.977	45.06
422.185	96.25
422.393	122.88
422.601	126.97
422.809	59.39
423.017	12.29
423.224	67.58
423.432	153.6
423.64	36.86
423.848	182.27
424.056	53.25
424.263	104.45
424.471	-2.05
424.679	190.46
424.887	20.48
425.094	102.4
425.302	49.15
425.51	45.06
425.718	122.88
425.925	57.34
426.133	28.67
426.341	157.69
426.548	20.48
426.756	38.91
426.964	112.64
427.171	-18.43
427.379	157.69
427.586	-18.43
427.794	161.79
428.001	147.45
428.209	83.97
428.417	133.12
428.624	98.3
428.832	77.82
429.039	106.49
429.247	90.11
429.454	153.6
429.662	243.71
429.869	159.74
430.076	118.78
430.284	210.94
430.491	270.33
430.699	141.31
430.906	190.46
431.114	79.87
431.321	124.93
431.528	129.02
431.736	151.55
431.943	176.13
432.15	208.89
432.358	180.22
432.565	233.47
432.772	18.43
432.979	235.52
433.187	79.87
433.394	202.75
433.601	145.41
433.808	260.09
434.016	237.56
434.223	305.15
434.43	176.13
434.637	268.28
434.844	329.72
435.052	188.41
435.259	276.48
435.466	251.9
435.673	249.85
435.88	294.91
436.087	337.91
436.294	354.3
436.501	337.91
436.708	292.86
436.915	307.2
437.122	421.88
437.329	319.48
437.537	337.91
437.743	331.77
437.95	460.79
438.157	444.41
438.364	325.63
438.571	446.46
438.778	468.98
438.985	411.64
439.192	528.38
439.399	401.4
439.606	575.48
439.813	591.86
440.02	626.68
440.227	718.84
440.433	581.62
440.64	550.9
440.847	473.08
441.054	624.63
441.261	677.88
441.467	673.78
441.674	669.69
441.881	739.32
442.088	706.55
442.294	780.28
442.501	858.1
442.708	837.62
442.914	794.61
443.121	940.02
443.328	901.11
443.534	966.64
443.741	931.83
443.948	960.5
444.154	1105.9
444.361	1279.98
444.568	1132.53
444.774	1140.72
444.981	1046.51
445.187	1290.22
445.394	1306.6
445.6	1282.03
445.807	1507.31
446.013	1353.71
446.22	1376.24
446.426	1513.45
446.633	1730.53
446.839	1744.87
447.046	1583.08
447.252	1839.08
447.459	1812.45
447.665	1796.07
447.871	2078.69
448.078	2162.66
448.284	2011.11
448.491	2310.11
448.697	2181.09
448.903	2412.51
449.11	2486.23
449.316	2428.89
449.522	2703.32
449.728	2699.22
449.935	2717.65
450.141	2748.37
450.347	3004.37
450.553	2912.21
450.76	3100.62
450.966	3188.69
451.172	3297.23
451.378	3354.57
451.584	3450.83
451.791	3852.23
451.997	3829.7
452.203	3997.64
452.409	4065.22
452.615	4116.42
452.821	4169.66
453.027	4278.21
453.233	4710.33
453.44	4693.94
453.646	4812.73
453.852	5089.2
454.058	5267.38
454.264	5509.04
454.47	5947.3
454.676	5873.57
454.882	6412.19
455.088	6074.28
455.294	6557.6
455.5	6727.58
455.705	7145.36
455.911	7053.2
456.117	7337.87
456.323	7661.45
456.529	7751.56
456.735	8277.89
456.941	8601.47
457.147	9009.01
457.352	9002.87
457.558	9467.76
457.764	9973.61
457.97	10497.89
458.176	10665.82
458.381	11267.92
458.587	11360.08
458.793	11892.55
458.999	11933.51
459.204	13037.37
459.41	13772.59
459.616	13645.62
459.821	14343.97
460.027	15087.39
460.233	15650.58
460.438	15787.79
460.644	16531.2
460.85	16668.42
461.055	17594.1
461.261	18255.59
461.466	17999.6
461.672	18261.74
461.878	20647.62
462.083	20518.6
462.289	20831.94
462.494	21286.59
462.7	21788.34
462.905	22195.89
463.111	23854.74
463.316	25022.08
463.522	24972.93
463.727	26537.58
463.932	27418.21
464.138	27962.97
464.343	29189.7
464.549	29199.94
464.754	31788.57
464.959	31997.46
465.165	33007.11
465.37	32695.82
465.575	32519.7
465.781	35300.84
465.986	35892.7
466.191	35763.68
466.397	35970.52
466.602	34842.09
466.807	36705.74
467.012	37434.82
467.218	38038.97
467.423	38315.45
467.628	39509.41
467.833	41313.67
468.038	40224.15
468.244	40355.22
468.449	41934.21
