Data from USB4F104151__102__10-35-43-227.txt Node

Date: Wed Feb 26 10:35:43 EST 2025
User: louis
Spectrometer: USB4F10415
Trigger mode: 4
Integration Time (sec): 1.000000E-1
Scans to average: 1
Electric dark correction enabled: true
Nonlinearity correction enabled: false
Boxcar width: 0
XAxis mode: Wavelengths
Number of Pixels in Spectrum: 3648
>>>>>Begin Spectral Data<<<<<
178.204	-381.26
178.424	-381.26
178.644	-381.26
178.864	-422.22
179.084	-430.41
179.304	-0.34
179.524	-51.54
179.744	30.38
179.964	54.95
180.184	5.8
180.404	77.48
180.624	24.23
180.844	-20.82
181.064	-94.55
181.283	-24.92
181.503	-55.64
181.723	54.95
181.943	-119.12
182.163	157.35
182.383	48.81
182.602	100.01
182.822	192.17
183.042	32.43
183.262	-80.21
183.482	13.99
183.701	61.1
183.921	57
184.141	40.62
184.361	26.28
184.58	5.8
184.8	44.71
185.02	-84.31
185.239	106.15
185.459	36.52
185.679	114.34
185.898	-78.16
186.118	61.1
186.338	81.58
186.557	22.19
186.777	24.23
186.997	26.28
187.216	34.47
187.436	249.51
187.655	18.09
187.875	100.01
188.095	61.1
188.314	143.02
188.534	118.44
188.753	-43.35
188.973	108.2
189.192	118.44
189.412	5.8
189.631	65.19
189.851	16.04
190.07	145.06
190.29	-106.84
190.509	-12.63
190.729	16.04
190.948	106.15
191.168	249.51
191.387	114.34
191.607	40.62
191.826	52.91
192.045	7.85
192.265	-76.12
192.484	28.33
192.704	-12.63
192.923	-65.88
193.142	206.5
193.362	134.82
193.581	153.26
193.8	42.67
194.02	118.44
194.239	26.28
194.458	134.82
194.678	16.04
194.897	3.75
195.116	69.29
195.335	28.33
195.555	50.86
195.774	-10.58
195.993	173.74
196.212	73.39
196.432	-12.63
196.651	91.82
196.87	50.86
197.089	233.13
197.308	52.91
197.528	9.9
197.747	-31.06
197.966	46.76
198.185	153.26
198.404	1.71
198.623	171.69
198.842	155.3
199.062	42.67
199.281	97.96
199.5	1.71
199.719	38.57
199.938	75.43
200.157	85.67
200.376	104.11
200.595	130.73
200.814	-37.2
201.033	7.85
201.252	140.97
201.471	30.38
201.69	36.52
201.909	3.75
202.128	89.77
202.347	81.58
202.566	-6.49
202.785	-41.3
203.004	-53.59
203.223	233.13
203.442	-14.68
203.661	18.09
203.879	95.91
204.098	118.44
204.317	-20.82
204.536	149.16
204.755	52.91
204.974	52.91
205.193	57
205.411	136.87
205.63	97.96
205.849	89.77
206.068	40.62
206.287	48.81
206.505	110.25
206.724	28.33
206.943	-10.58
207.162	22.19
207.381	106.15
207.599	40.62
207.818	36.52
208.037	-24.92
208.255	114.34
208.474	24.23
208.693	20.14
208.911	34.47
209.13	128.68
209.349	93.87
209.567	85.67
209.786	24.23
210.005	87.72
210.223	81.58
210.442	-94.55
210.661	52.91
210.879	38.57
211.098	61.1
211.316	5.8
211.535	71.34
211.753	153.26
211.972	38.57
212.191	3.75
212.409	24.23
212.628	30.38
212.846	-63.83
213.065	26.28
213.283	89.77
213.502	50.86
213.72	61.1
213.938	28.33
214.157	-41.3
214.375	136.87
214.594	5.8
214.812	9.9
215.031	-43.35
215.249	44.71
215.467	114.34
215.686	22.19
215.904	95.91
216.122	57
216.341	161.45
216.559	26.28
216.778	-4.44
216.996	165.54
217.214	-16.73
217.432	28.33
217.651	-74.07
217.869	97.96
218.087	5.8
218.306	57
218.524	42.67
218.742	16.04
218.96	110.25
219.179	-45.4
219.397	-0.34
219.615	265.89
219.833	50.86
220.051	-14.68
220.27	112.3
220.488	91.82
220.706	38.57
220.924	-22.87
221.142	24.23
221.36	108.2
221.578	89.77
221.796	-35.16
222.015	-33.11
222.233	79.53
222.451	126.63
222.669	-39.25
222.887	75.43
223.105	-16.73
223.323	3.75
223.541	22.19
223.759	16.04
223.977	20.14
224.195	128.68
224.413	147.11
224.631	-4.44
224.849	57
225.067	226.98
225.285	52.91
225.503	-45.4
225.721	-39.25
225.939	24.23
226.157	71.34
226.375	183.98
226.592	-35.16
226.81	22.19
227.028	75.43
227.246	147.11
227.464	54.95
227.682	179.88
227.9	30.38
228.117	114.34
228.335	89.77
228.553	85.67
228.771	13.99
228.989	46.76
229.206	149.16
229.424	28.33
229.642	-31.06
229.86	-117.08
230.077	91.82
230.295	42.67
230.513	134.82
230.731	3.75
230.948	163.5
231.166	124.58
231.384	67.24
231.601	-29.01
231.819	126.63
232.037	26.28
232.254	-12.63
232.472	-37.2
232.689	-35.16
232.907	87.72
233.125	16.04
233.342	-35.16
233.56	-4.44
233.777	38.57
233.995	38.57
234.213	143.02
234.43	108.2
234.648	44.71
234.865	-33.11
235.083	44.71
235.3	40.62
235.518	-2.39
235.735	93.87
235.953	149.16
236.17	97.96
236.388	77.48
236.605	81.58
236.822	153.26
237.04	112.3
237.257	20.14
237.475	16.04
237.692	18.09
237.909	59.05
238.127	-10.58
238.344	108.2
238.562	63.15
238.779	-49.49
238.996	3.75
239.214	46.76
239.431	100.01
239.648	32.43
239.865	110.25
240.083	108.2
240.3	40.62
240.517	7.85
240.735	30.38
240.952	186.02
241.169	108.2
241.386	11.95
241.603	-0.34
241.821	-29.01
242.038	67.24
242.255	81.58
242.472	-2.39
242.689	77.48
242.907	52.91
243.124	69.29
243.341	81.58
243.558	-37.2
243.775	-45.4
243.992	-4.44
244.209	147.11
244.426	206.5
244.643	63.15
244.86	104.11
245.078	83.63
245.295	77.48
245.512	-0.34
245.729	26.28
245.946	108.2
246.163	73.39
246.38	-43.35
246.597	77.48
246.814	5.8
247.031	3.75
247.248	34.47
247.464	57
247.681	143.02
247.898	5.8
248.115	24.23
248.332	-47.44
248.549	224.94
248.766	140.97
248.983	100.01
249.2	132.78
249.417	63.15
249.633	-12.63
249.85	67.24
250.067	36.52
250.284	46.76
250.501	-20.82
250.717	104.11
250.934	13.99
251.151	73.39
251.368	-14.68
251.585	65.19
251.801	83.63
252.018	-37.2
252.235	157.35
252.451	-26.96
252.668	42.67
252.885	100.01
253.102	-4.44
253.318	-37.2
253.535	-41.3
253.752	-51.54
253.968	11.95
254.185	-84.31
254.401	36.52
254.618	104.11
254.835	-2.39
255.051	61.1
255.268	59.05
255.484	16.04
255.701	38.57
255.917	81.58
256.134	-26.96
256.351	5.8
256.567	-39.25
256.784	24.23
257	-37.2
257.217	124.58
257.433	16.04
257.65	57
257.866	177.83
258.082	22.19
258.299	30.38
258.515	11.95
258.732	-10.58
258.948	5.8
259.165	112.3
259.381	59.05
259.597	128.68
259.814	46.76
260.03	-39.25
260.246	87.72
260.463	145.06
260.679	208.55
260.895	108.2
261.112	116.39
261.328	-0.34
261.544	7.85
261.761	181.93
261.977	-6.49
262.193	-14.68
262.409	130.73
262.626	-0.34
262.842	81.58
263.058	13.99
263.274	91.82
263.49	120.49
263.707	67.24
263.923	114.34
264.139	38.57
264.355	46.76
264.571	38.57
264.787	-18.77
265.004	97.96
265.22	38.57
265.436	65.19
265.652	50.86
265.868	59.05
266.084	-47.44
266.3	20.14
266.516	-6.49
266.732	36.52
266.948	46.76
267.164	34.47
267.38	149.16
267.596	11.95
267.812	118.44
268.028	54.95
268.244	-6.49
268.46	100.01
268.676	26.28
268.892	-0.34
269.108	-65.88
269.324	-10.58
269.54	-33.11
269.756	122.54
269.972	-31.06
270.188	-33.11
270.403	-65.88
270.619	28.33
270.835	114.34
271.051	3.75
271.267	-22.87
271.483	-35.16
271.698	134.82
271.914	28.33
272.13	28.33
272.346	7.85
272.562	34.47
272.777	104.11
272.993	104.11
273.209	22.19
273.425	77.48
273.64	-51.54
273.856	50.86
274.072	44.71
274.287	34.47
274.503	3.75
274.719	106.15
274.934	24.23
275.15	-24.92
275.366	42.67
275.581	61.1
275.797	61.1
276.012	18.09
276.228	-59.73
276.444	42.67
276.659	110.25
276.875	-51.54
277.09	-2.39
277.306	-33.11
277.521	38.57
277.737	-2.39
277.952	26.28
278.168	52.91
278.383	28.33
278.599	102.06
278.814	175.78
279.03	1.71
279.245	79.53
279.461	59.05
279.676	81.58
279.892	-127.32
280.107	24.23
280.322	-18.77
280.538	85.67
280.753	-20.82
280.969	77.48
281.184	22.19
281.399	177.83
281.615	112.3
281.83	-16.73
282.045	30.38
282.26	61.1
282.476	100.01
282.691	75.43
282.906	22.19
283.122	155.3
283.337	-10.58
283.552	79.53
283.767	-8.53
283.983	159.4
284.198	71.34
284.413	13.99
284.628	-37.2
284.843	83.63
285.058	95.91
285.274	-2.39
285.489	-4.44
285.704	106.15
285.919	-76.12
286.134	52.91
286.349	-16.73
286.564	-22.87
286.779	57
286.995	18.09
287.21	-86.36
287.425	57
287.64	40.62
287.855	34.47
288.07	-72.02
288.285	100.01
288.5	208.55
288.715	118.44
288.93	-6.49
289.145	-37.2
289.36	108.2
289.575	89.77
289.79	140.97
290.004	59.05
290.219	75.43
290.434	-6.49
290.649	11.95
290.864	34.47
291.079	48.81
291.294	34.47
291.509	87.72
291.724	18.09
291.938	48.81
292.153	42.67
292.368	-29.01
292.583	104.11
292.798	69.29
293.012	-24.92
293.227	36.52
293.442	61.1
293.657	116.39
293.871	61.1
294.086	52.91
294.301	181.93
294.516	104.11
294.73	32.43
294.945	3.75
295.16	-45.4
295.374	104.11
295.589	181.93
295.804	3.75
296.018	16.04
296.233	100.01
296.447	85.67
296.662	-90.45
296.877	73.39
297.091	61.1
297.306	63.15
297.52	-20.82
297.735	42.67
297.949	36.52
298.164	13.99
298.378	81.58
298.593	-53.59
298.807	59.05
299.022	44.71
299.236	186.02
299.451	24.23
299.665	50.86
299.88	-26.96
300.094	16.04
300.309	54.95
300.523	28.33
300.737	48.81
300.952	32.43
301.166	91.82
301.381	-16.73
301.595	-16.73
301.809	104.11
302.024	3.75
302.238	102.06
302.452	188.07
302.667	44.71
302.881	110.25
303.095	165.54
303.309	7.85
303.524	-24.92
303.738	-12.63
303.952	1.71
304.166	36.52
304.381	-112.98
304.595	159.4
304.809	-117.08
305.023	34.47
305.237	87.72
305.452	63.15
305.666	71.34
305.88	118.44
306.094	151.21
306.308	11.95
306.522	136.87
306.736	61.1
306.95	46.76
307.164	110.25
307.379	46.76
307.593	77.48
307.807	104.11
308.021	79.53
308.235	20.14
308.449	-84.31
308.663	20.14
308.877	241.32
309.091	67.24
309.305	40.62
309.519	-170.32
309.733	32.43
309.947	-51.54
310.161	20.14
310.374	22.19
310.588	75.43
310.802	-100.69
311.016	-33.11
311.23	36.52
311.444	-20.82
311.658	50.86
311.872	128.68
312.085	65.19
312.299	198.31
312.513	159.4
312.727	42.67
312.941	-0.34
313.154	-10.58
313.368	46.76
313.582	95.91
313.796	65.19
314.009	7.85
314.223	147.11
314.437	69.29
314.651	89.77
314.864	63.15
315.078	28.33
315.292	-41.3
315.505	22.19
315.719	67.24
315.933	108.2
316.146	54.95
316.36	-43.35
316.573	104.11
316.787	34.47
317.001	26.28
317.214	-59.73
317.428	71.34
317.641	-24.92
317.855	-26.96
318.068	71.34
318.282	52.91
318.495	153.26
318.709	77.48
318.922	54.95
319.136	140.97
319.349	108.2
319.563	-22.87
319.776	116.39
319.99	-24.92
320.203	32.43
320.417	54.95
320.63	106.15
320.843	91.82
321.057	93.87
321.27	26.28
321.483	26.28
321.697	134.82
321.91	38.57
322.124	87.72
322.337	71.34
322.55	-22.87
322.763	52.91
322.977	-43.35
323.19	-22.87
323.403	124.58
323.617	73.39
323.83	89.77
324.043	-18.77
324.256	81.58
324.469	-37.2
324.683	65.19
324.896	71.34
325.109	104.11
325.322	-59.73
325.535	177.83
325.748	167.59
325.962	-24.92
326.175	104.11
326.388	89.77
326.601	145.06
326.814	46.76
327.027	28.33
327.24	140.97
327.453	-67.92
327.666	59.05
327.879	128.68
328.092	91.82
328.305	71.34
328.518	-33.11
328.731	91.82
328.944	1.71
329.157	102.06
329.37	63.15
329.583	140.97
329.796	87.72
330.009	-4.44
330.222	65.19
330.435	130.73
330.648	50.86
330.861	26.28
331.073	91.82
331.286	130.73
331.499	73.39
331.712	-14.68
331.925	46.76
332.138	-10.58
332.35	130.73
332.563	-22.87
332.776	196.26
332.989	7.85
333.202	-10.58
333.414	65.19
333.627	65.19
333.84	28.33
334.053	136.87
334.265	-26.96
334.478	32.43
334.691	18.09
334.903	106.15
335.116	-88.4
335.329	16.04
335.541	95.91
335.754	126.63
335.966	110.25
336.179	40.62
336.392	-57.68
336.604	13.99
336.817	157.35
337.029	36.52
337.242	73.39
337.454	30.38
337.667	89.77
337.88	136.87
338.092	122.54
338.305	108.2
338.517	-26.96
338.729	67.24
338.942	196.26
339.154	-26.96
339.367	7.85
339.579	102.06
339.792	-55.64
340.004	-2.39
340.217	7.85
340.429	118.44
340.641	13.99
340.854	1.71
341.066	-12.63
341.278	122.54
341.491	106.15
341.703	32.43
341.915	-88.4
342.128	97.96
342.34	61.1
342.552	-37.2
342.764	59.05
342.977	-6.49
343.189	32.43
343.401	3.75
343.613	-100.69
343.826	71.34
344.038	-45.4
344.25	3.75
344.462	16.04
344.674	93.87
344.886	44.71
345.099	108.2
345.311	34.47
345.523	24.23
345.735	-80.21
345.947	28.33
346.159	-6.49
346.371	3.75
346.583	-6.49
346.795	198.31
347.007	18.09
347.219	3.75
347.431	-29.01
347.643	114.34
347.855	-16.73
348.067	153.26
348.279	-72.02
348.491	87.72
348.703	67.24
348.915	69.29
349.127	-63.83
349.339	3.75
349.551	-14.68
349.763	30.38
349.975	7.85
350.187	97.96
350.399	171.69
350.61	-2.39
350.822	-10.58
351.034	91.82
351.246	-2.39
351.458	63.15
351.669	106.15
351.881	194.22
352.093	216.74
352.305	159.4
352.517	108.2
352.728	130.73
352.94	13.99
353.152	46.76
353.363	-14.68
353.575	36.52
353.787	186.02
353.999	20.14
354.21	237.22
354.422	-39.25
354.633	13.99
354.845	-29.01
355.057	26.28
355.268	-6.49
355.48	59.05
355.692	-0.34
355.903	38.57
356.115	-49.49
356.326	-49.49
356.538	120.49
356.749	87.72
356.961	110.25
357.172	11.95
357.384	-57.68
357.595	243.37
357.807	-18.77
358.018	-31.06
358.23	65.19
358.441	138.92
358.653	42.67
358.864	24.23
359.075	5.8
359.287	75.43
359.498	97.96
359.709	104.11
359.921	48.81
360.132	85.67
360.344	5.8
360.555	-35.16
360.766	65.19
360.977	-24.92
361.189	57
361.4	-6.49
361.611	114.34
361.823	108.2
362.034	110.25
362.245	-53.59
362.456	59.05
362.667	54.95
362.879	-59.73
363.09	48.81
363.301	77.48
363.512	102.06
363.723	5.8
363.935	-24.92
364.146	143.02
364.357	34.47
364.568	-0.34
364.779	-16.73
364.99	89.77
365.201	-78.16
365.412	126.63
365.623	-2.39
365.834	87.72
366.045	34.47
366.256	57
366.467	85.67
366.678	85.67
366.889	38.57
367.1	7.85
367.311	83.63
367.522	-31.06
367.733	7.85
367.944	83.63
368.155	38.57
368.366	52.91
368.577	104.11
368.788	38.57
368.999	-31.06
369.209	46.76
369.42	220.84
369.631	245.41
369.842	77.48
370.053	13.99
370.264	30.38
370.474	-88.4
370.685	143.02
370.896	32.43
371.107	75.43
371.317	26.28
371.528	67.24
371.739	136.87
371.95	57
372.16	40.62
372.371	81.58
372.582	24.23
372.792	65.19
373.003	48.81
373.214	-0.34
373.424	134.82
373.635	-6.49
373.846	138.92
374.056	126.63
374.267	67.24
374.477	61.1
374.688	-4.44
374.898	73.39
375.109	75.43
375.319	140.97
375.53	120.49
375.74	57
375.951	-10.58
376.161	77.48
376.372	161.45
376.582	-31.06
376.793	161.45
377.003	20.14
377.214	-10.58
377.424	57
377.635	34.47
377.845	30.38
378.055	97.96
378.266	-92.5
378.476	112.3
378.686	-8.53
378.897	54.95
379.107	112.3
379.317	38.57
379.528	16.04
379.738	110.25
379.948	-59.73
380.158	165.54
380.369	48.81
380.579	7.85
380.789	40.62
380.999	83.63
381.21	67.24
381.42	233.13
381.63	1.71
381.84	30.38
382.05	20.14
382.261	54.95
382.471	118.44
382.681	40.62
382.891	130.73
383.101	59.05
383.311	-12.63
383.521	-12.63
383.731	87.72
383.941	122.54
384.151	77.48
384.361	16.04
384.571	59.05
384.781	91.82
384.991	216.74
385.201	81.58
385.411	108.2
385.621	9.9
385.831	54.95
386.041	89.77
386.251	-18.77
386.461	120.49
386.671	48.81
386.881	46.76
387.091	9.9
387.301	132.78
387.511	34.47
387.72	97.96
387.93	110.25
388.14	-31.06
388.35	73.39
388.56	102.06
388.769	110.25
388.979	87.72
389.189	9.9
389.399	89.77
389.609	40.62
389.818	89.77
390.028	61.1
390.238	44.71
390.447	22.19
390.657	52.91
390.867	75.43
391.076	-94.55
391.286	18.09
391.496	-10.58
391.705	-10.58
391.915	75.43
392.125	67.24
392.334	24.23
392.544	116.39
392.753	-14.68
392.963	-43.35
393.172	81.58
393.382	-57.68
393.591	169.64
393.801	44.71
394.01	140.97
394.22	110.25
394.429	-16.73
394.639	57
394.848	24.23
395.058	145.06
395.267	-37.2
395.477	95.91
395.686	-20.82
395.895	218.79
396.105	206.5
396.314	93.87
396.524	46.76
396.733	61.1
396.942	110.25
397.152	44.71
397.361	71.34
397.57	110.25
397.78	18.09
397.989	-8.53
398.198	167.59
398.407	-24.92
398.617	38.57
398.826	46.76
399.035	57
399.244	85.67
399.453	85.67
399.663	57
399.872	100.01
400.081	-35.16
400.29	192.17
400.499	-12.63
400.708	136.87
400.917	87.72
401.127	20.14
401.336	26.28
401.545	181.93
401.754	89.77
401.963	85.67
402.172	-37.2
402.381	-63.83
402.59	32.43
402.799	67.24
403.008	145.06
403.217	7.85
403.426	52.91
403.635	-35.16
403.844	-26.96
404.053	-16.73
404.262	16.04
404.471	198.31
404.68	87.72
404.888	30.38
405.097	24.23
405.306	-49.49
405.515	110.25
405.724	-18.77
405.933	59.05
406.142	-29.01
406.35	130.73
406.559	28.33
406.768	3.75
406.977	153.26
407.185	95.91
407.394	54.95
407.603	13.99
407.812	52.91
408.02	140.97
408.229	50.86
408.438	1.71
408.646	-86.36
408.855	42.67
409.064	20.14
409.272	13.99
409.481	118.44
409.69	-141.65
409.898	-8.53
410.107	75.43
410.315	93.87
410.524	-39.25
410.733	61.1
410.941	42.67
411.15	149.16
411.358	38.57
411.567	79.53
411.775	24.23
411.984	120.49
412.192	67.24
412.401	26.28
412.609	130.73
412.818	71.34
413.026	108.2
413.234	-29.01
413.443	42.67
413.651	-47.44
413.86	54.95
414.068	93.87
414.276	171.69
414.485	36.52
414.693	112.3
414.901	167.59
415.11	61.1
415.318	32.43
415.526	-20.82
415.734	108.2
415.943	63.15
416.151	79.53
416.359	69.29
416.567	42.67
416.776	71.34
416.984	5.8
417.192	181.93
417.4	1.71
417.608	-74.07
417.817	-53.59
418.025	91.82
418.233	177.83
418.441	-33.11
418.649	7.85
418.857	61.1
419.065	202.41
419.273	36.52
419.481	108.2
419.689	7.85
419.897	-39.25
420.105	-65.88
420.313	100.01
420.521	114.34
420.729	145.06
420.937	-26.96
421.145	-2.39
421.353	83.63
421.561	145.06
421.769	44.71
421.977	-22.87
422.185	20.14
422.393	-86.36
422.601	95.91
422.809	75.43
423.017	65.19
423.224	24.23
423.432	102.06
423.64	11.95
423.848	81.58
424.056	85.67
424.263	100.01
424.471	30.38
424.679	155.3
424.887	13.99
425.094	79.53
425.302	85.67
425.51	59.05
425.718	89.77
425.925	34.47
426.133	36.52
426.341	208.55
426.548	-63.83
426.756	50.86
426.964	24.23
427.171	-22.87
427.379	157.35
427.586	1.71
427.794	59.05
428.001	-4.44
428.209	65.19
428.417	181.93
428.624	102.06
428.832	44.71
429.039	59.05
429.247	93.87
429.454	100.01
429.662	177.83
429.869	81.58
430.076	-6.49
430.284	83.63
430.491	130.73
430.699	93.87
430.906	132.78
431.114	89.77
431.321	79.53
431.528	95.91
431.736	34.47
431.943	171.69
432.15	114.34
432.358	151.21
432.565	212.65
432.772	-47.44
432.979	167.59
433.187	136.87
433.394	87.72
433.601	77.48
433.808	216.74
434.016	220.84
434.223	161.45
434.43	48.81
434.637	202.41
434.844	204.46
435.052	75.43
435.259	159.4
435.466	226.98
435.673	165.54
435.88	136.87
436.087	169.64
436.294	216.74
436.501	204.46
436.708	155.3
436.915	118.44
437.122	165.54
437.329	106.15
437.537	200.36
437.743	179.88
437.95	298.66
438.157	212.65
438.364	255.65
438.571	159.4
438.778	276.13
438.985	186.02
439.192	235.18
439.399	165.54
439.606	247.46
439.813	300.71
440.02	341.67
440.227	431.78
440.433	278.18
440.64	208.55
440.847	237.22
441.054	372.39
441.261	396.96
441.467	345.77
441.674	202.41
441.881	325.29
442.088	360.1
442.294	386.72
442.501	532.13
442.708	478.88
442.914	384.68
443.121	392.87
443.328	435.88
443.534	462.5
443.741	462.5
443.948	327.33
444.154	573.09
444.361	626.34
444.568	519.84
444.774	552.61
444.981	460.45
445.187	630.43
445.394	550.56
445.6	575.14
445.807	646.82
446.013	601.76
446.22	482.98
446.426	714.4
446.633	761.5
446.839	919.2
447.046	730.78
447.252	837.28
447.459	765.6
447.665	792.22
447.871	894.62
448.078	1078.94
448.284	982.68
448.491	1037.98
448.697	1167
448.903	1111.71
449.11	1111.71
449.316	1101.47
449.522	1322.65
449.728	1316.5
449.935	1236.63
450.141	1259.16
450.347	1375.89
450.553	1232.54
450.76	1476.24
450.966	1455.76
451.172	1541.78
451.378	1453.72
451.584	1570.45
451.791	1762.96
451.997	1840.78
452.203	1730.19
452.409	1957.52
452.615	1896.08
452.821	1916.56
453.027	1836.69
453.233	2180.75
453.44	2162.31
453.646	2170.51
453.852	2365.06
454.058	2348.68
454.264	2500.23
454.47	2616.96
454.676	2756.22
454.882	2903.68
455.088	2723.46
455.294	2850.43
455.5	3047.04
455.705	3274.36
455.911	3131
456.117	3356.28
456.323	3565.17
456.529	3565.17
456.735	3839.6
456.941	3901.04
457.147	4132.46
457.352	4109.93
457.558	4173.42
457.764	4570.72
457.97	4626.02
458.176	4865.63
458.381	5090.91
458.587	5242.46
458.793	5242.46
458.999	5428.82
459.204	6157.9
459.41	6245.96
459.616	6149.71
459.821	6553.16
460.027	6745.67
460.233	7136.83
460.438	7163.45
460.644	7446.07
460.85	7659.06
461.055	7884.34
461.261	8273.45
461.466	8162.86
461.672	8306.22
461.878	9096.74
462.083	9158.17
462.289	9467.42
462.494	9729.56
462.7	9840.15
462.905	9823.76
463.111	10769.93
463.316	10978.82
463.522	11466.24
463.727	11746.81
463.932	12164.59
464.138	12772.84
464.343	13096.42
464.549	13489.63
464.754	13950.42
464.959	14366.16
465.165	14802.38
465.37	14691.79
465.575	14308.82
465.781	15478.21
465.986	15832.51
466.191	15748.54
466.397	15807.93
466.602	15609.28
466.807	16651.69
467.012	16596.4
467.218	17032.61
467.423	17005.99
467.628	17360.29
467.833	18345.36
468.038	17915.29
468.244	17870.23
468.449	18810.25
468.654	18259.35
468.859	18388.37
469.064	18228.63
469.269	17792.41
469.474	18068.89
