Data from USB4F104151__39__09-27-30-109.txt Node

Date: Wed Feb 26 09:27:30 EST 2025
User: louis
Spectrometer: USB4F10415
Trigger mode: 4
Integration Time (sec): 1.000000E-1
Scans to average: 1
Electric dark correction enabled: true
Nonlinearity correction enabled: false
Boxcar width: 0
XAxis mode: Wavelengths
Number of Pixels in Spectrum: 3648
>>>>>Begin Spectral Data<<<<<
178.204	-343.89
178.424	-343.89
178.644	-343.89
178.864	-309.07
179.084	-358.22
179.304	-1.88
179.524	-5.97
179.744	37.03
179.964	49.32
180.184	-12.12
180.404	10.41
180.624	-73.56
180.844	-34.64
181.064	-75.6
181.283	84.14
181.503	-36.69
181.723	59.56
181.943	-96.08
182.163	231.59
182.383	20.65
182.602	75.95
182.822	151.72
183.042	51.37
183.262	18.6
183.482	-5.97
183.701	59.56
183.921	49.32
184.141	-16.21
184.361	123.05
184.58	-38.74
184.8	73.9
185.02	-42.84
185.239	67.75
185.459	41.13
185.679	149.67
185.898	-106.32
186.118	-38.74
186.338	63.66
186.557	69.8
186.777	-57.17
186.997	6.31
187.216	90.28
187.436	129.19
187.655	170.15
187.875	73.9
188.095	77.99
188.314	250.02
188.534	125.1
188.753	59.56
188.973	100.52
189.192	98.47
189.412	16.55
189.631	51.37
189.851	65.71
190.07	108.71
190.29	-55.12
190.509	-12.12
190.729	22.7
190.948	159.91
191.168	223.4
191.387	112.81
191.607	88.23
191.826	65.71
192.045	2.22
192.265	-38.74
192.484	88.23
192.704	57.51
192.923	-63.32
193.142	278.69
193.362	63.66
193.581	149.67
193.8	59.56
194.02	112.81
194.239	63.66
194.458	123.05
194.678	59.56
194.897	-16.21
195.116	37.03
195.335	92.33
195.555	80.04
195.774	55.47
195.993	94.38
196.212	37.03
196.432	26.79
196.651	10.41
196.87	30.89
197.089	227.5
197.308	51.37
197.528	112.81
197.747	-12.12
197.966	90.28
198.185	71.85
198.404	-5.97
198.623	51.37
198.842	67.75
199.062	125.1
199.281	114.86
199.5	8.36
199.719	75.95
199.938	55.47
200.157	106.67
200.376	147.62
200.595	125.1
200.814	88.23
201.033	26.79
201.252	61.61
201.471	37.03
201.69	43.18
201.909	92.33
202.128	67.75
202.347	28.84
202.566	59.56
202.785	-10.07
203.004	-65.36
203.223	184.49
203.442	10.41
203.661	18.6
203.879	73.9
204.098	53.42
204.317	-5.97
204.536	63.66
204.755	34.99
204.974	57.51
205.193	10.41
205.411	116.9
205.63	8.36
205.849	135.34
206.068	16.55
206.287	43.18
206.505	67.75
206.724	-14.17
206.943	-10.07
207.162	-14.17
207.381	24.75
207.599	10.41
207.818	30.89
208.037	2.22
208.255	18.6
208.474	43.18
208.693	39.08
208.911	-1.88
209.13	59.56
209.349	90.28
209.567	90.28
209.786	84.14
210.005	129.19
210.223	43.18
210.442	-83.8
210.661	116.9
210.879	71.85
211.098	32.94
211.316	45.23
211.535	49.32
211.753	51.37
211.972	57.51
212.191	24.75
212.409	2.22
212.628	98.47
212.846	-24.4
213.065	67.75
213.283	141.48
213.502	57.51
213.72	-32.6
213.938	43.18
214.157	75.95
214.375	108.71
214.594	28.84
214.812	104.62
215.031	-1.88
215.249	49.32
215.467	41.13
215.686	57.51
215.904	86.19
216.122	49.32
216.341	133.29
216.559	8.36
216.778	47.27
216.996	100.52
217.214	18.6
217.432	-32.6
217.651	-5.97
217.869	71.85
218.087	16.55
218.306	16.55
218.524	106.67
218.742	90.28
218.96	100.52
219.179	-3.93
219.397	41.13
219.615	284.84
219.833	71.85
220.051	26.79
220.27	155.82
220.488	102.57
220.706	34.99
220.924	-10.07
221.142	-22.36
221.36	30.89
221.578	88.23
221.796	86.19
222.015	47.27
222.233	2.22
222.451	77.99
222.669	-1.88
222.887	18.6
223.105	65.71
223.323	-8.02
223.541	-30.55
223.759	73.9
223.977	34.99
224.195	139.43
224.413	96.43
224.631	131.24
224.849	63.66
225.067	207.02
225.285	-65.36
225.503	-8.02
225.721	-71.51
225.939	57.51
226.157	34.99
226.375	252.07
226.592	-67.41
226.81	82.09
227.028	65.71
227.246	174.25
227.464	73.9
227.682	49.32
227.9	182.44
228.117	-38.74
228.335	69.8
228.553	34.99
228.771	-12.12
228.989	10.41
229.206	112.81
229.424	-5.97
229.642	37.03
229.86	-1.88
230.077	77.99
230.295	-28.5
230.513	161.96
230.731	104.62
230.948	123.05
231.166	182.44
231.384	10.41
231.601	47.27
231.819	172.2
232.037	65.71
232.254	0.17
232.472	22.7
232.689	63.66
232.907	88.23
233.125	14.51
233.342	18.6
233.56	16.55
233.777	123.05
233.995	49.32
234.213	75.95
234.43	147.62
234.648	22.7
234.865	43.18
235.083	96.43
235.3	39.08
235.518	84.14
235.735	88.23
235.953	57.51
236.17	88.23
236.388	30.89
236.605	90.28
236.822	116.9
237.04	84.14
237.257	41.13
237.475	-14.17
237.692	123.05
237.909	57.51
238.127	43.18
238.344	108.71
238.562	37.03
238.779	-16.21
238.996	-5.97
239.214	22.7
239.431	98.47
239.648	20.65
239.865	104.62
240.083	108.71
240.3	47.27
240.517	12.46
240.735	-24.4
240.952	108.71
241.169	75.95
241.386	125.1
241.603	-24.4
241.821	-18.26
242.038	96.43
242.255	92.33
242.472	22.7
242.689	114.86
242.907	47.27
243.124	12.46
243.341	-1.88
243.558	30.89
243.775	-26.45
243.992	4.27
244.209	110.76
244.426	204.97
244.643	84.14
244.86	16.55
245.078	45.23
245.295	100.52
245.512	16.55
245.729	2.22
245.946	80.04
246.163	98.47
246.38	26.79
246.597	71.85
246.814	53.42
247.031	67.75
247.248	102.57
247.464	51.37
247.681	34.99
247.898	110.76
248.115	110.76
248.332	-53.08
248.549	59.56
248.766	118.95
248.983	137.38
249.2	65.71
249.417	196.78
249.633	12.46
249.85	28.84
250.067	39.08
250.284	80.04
250.501	114.86
250.717	92.33
250.934	-51.03
251.151	16.55
251.368	28.84
251.585	24.75
251.801	28.84
252.018	12.46
252.235	104.62
252.451	-42.84
252.668	24.75
252.885	100.52
253.102	51.37
253.318	18.6
253.535	32.94
253.752	88.23
253.968	-16.21
254.185	-51.03
254.401	51.37
254.618	73.9
254.835	-18.26
255.051	153.77
255.268	80.04
255.484	92.33
255.701	47.27
255.917	90.28
256.134	-30.55
256.351	47.27
256.567	-30.55
256.784	114.86
257	-73.56
257.217	135.34
257.433	145.58
257.65	90.28
257.866	172.2
258.082	-57.17
258.299	2.22
258.515	16.55
258.732	37.03
258.948	20.65
259.165	32.94
259.381	34.99
259.597	84.14
259.814	16.55
260.03	59.56
260.246	10.41
260.463	75.95
260.679	118.95
260.895	47.27
261.112	69.8
261.328	43.18
261.544	-28.5
261.761	225.45
261.977	6.31
262.193	-98.13
262.409	71.85
262.626	141.48
262.842	34.99
263.058	-46.93
263.274	86.19
263.49	30.89
263.707	116.9
263.923	75.95
264.139	-89.94
264.355	84.14
264.571	63.66
264.787	71.85
265.004	153.77
265.22	39.08
265.436	8.36
265.652	-20.31
265.868	12.46
266.084	8.36
266.3	26.79
266.516	-63.32
266.732	12.46
266.948	-5.97
267.164	4.27
267.38	86.19
267.596	30.89
267.812	100.52
268.028	39.08
268.244	-1.88
268.46	104.62
268.676	34.99
268.892	86.19
269.108	-5.97
269.324	-63.32
269.54	-71.51
269.756	73.9
269.972	39.08
270.188	18.6
270.403	-79.7
270.619	57.51
270.835	67.75
271.051	59.56
271.267	14.51
271.483	57.51
271.698	98.47
271.914	57.51
272.13	49.32
272.346	53.42
272.562	77.99
272.777	108.71
272.993	4.27
273.209	-30.55
273.425	92.33
273.64	12.46
273.856	71.85
274.072	-34.64
274.287	-71.51
274.503	116.9
274.719	108.71
274.934	2.22
275.15	-63.32
275.366	63.66
275.581	-32.6
275.797	-51.03
276.012	30.89
276.228	-8.02
276.444	57.51
276.659	121
276.875	20.65
277.09	-26.45
277.306	98.47
277.521	34.99
277.737	14.51
277.952	125.1
278.168	-14.17
278.383	80.04
278.599	69.8
278.814	43.18
279.03	0.17
279.245	65.71
279.461	30.89
279.676	59.56
279.892	-40.79
280.107	-38.74
280.322	-10.07
280.538	127.14
280.753	-46.93
280.969	39.08
281.184	-10.07
281.399	182.44
281.615	10.41
281.83	114.86
282.045	-8.02
282.26	-20.31
282.476	84.14
282.691	129.19
282.906	30.89
283.122	2.22
283.337	92.33
283.552	116.9
283.767	6.31
283.983	149.67
284.198	100.52
284.413	114.86
284.628	-44.88
284.843	8.36
285.058	77.99
285.274	49.32
285.489	-46.93
285.704	125.1
285.919	-42.84
286.134	20.65
286.349	-22.36
286.564	0.17
286.779	123.05
286.995	34.99
287.21	-59.22
287.425	88.23
287.64	-8.02
287.855	49.32
288.07	-42.84
288.285	106.67
288.5	129.19
288.715	104.62
288.93	6.31
289.145	37.03
289.36	84.14
289.575	16.55
289.79	69.8
290.004	-59.22
290.219	116.9
290.434	-1.88
290.649	49.32
290.864	-16.21
291.079	57.51
291.294	82.09
291.509	-8.02
291.724	32.94
291.938	24.75
292.153	41.13
292.368	57.51
292.583	71.85
292.798	59.56
293.012	104.62
293.227	57.51
293.442	10.41
293.657	77.99
293.871	164.01
294.086	-1.88
294.301	129.19
294.516	188.58
294.73	39.08
294.945	0.17
295.16	51.37
295.374	75.95
295.589	75.95
295.804	14.51
296.018	26.79
296.233	108.71
296.447	41.13
296.662	-46.93
296.877	168.1
297.091	139.43
297.306	139.43
297.52	-40.79
297.735	-16.21
297.949	43.18
298.164	-1.88
298.378	43.18
298.593	-14.17
298.807	8.36
299.022	84.14
299.236	149.67
299.451	-8.02
299.665	-18.26
299.88	12.46
300.094	67.75
300.309	-28.5
300.523	20.65
300.737	51.37
300.952	116.9
301.166	84.14
301.381	55.47
301.595	-38.74
301.809	0.17
302.024	-36.69
302.238	4.27
302.452	135.34
302.667	-18.26
302.881	170.15
303.095	139.43
303.309	61.61
303.524	-69.46
303.738	-53.08
303.952	-40.79
304.166	26.79
304.381	-67.41
304.595	155.82
304.809	41.13
305.023	75.95
305.237	-26.45
305.452	18.6
305.666	65.71
305.88	24.75
306.094	67.75
306.308	84.14
306.522	135.34
306.736	51.37
306.95	43.18
307.164	2.22
307.379	51.37
307.593	131.24
307.807	51.37
308.021	102.57
308.235	139.43
308.449	-5.97
308.663	45.23
308.877	184.49
309.091	75.95
309.305	43.18
309.519	-38.74
309.733	90.28
309.947	-67.41
310.161	43.18
310.374	57.51
310.588	161.96
310.802	55.47
311.016	-5.97
311.23	71.85
311.444	12.46
311.658	0.17
311.872	112.81
312.085	106.67
312.299	141.48
312.513	139.43
312.727	92.33
312.941	-63.32
313.154	45.23
313.368	10.41
313.582	67.75
313.796	-8.02
314.009	57.51
314.223	166.06
314.437	127.14
314.651	104.62
314.864	18.6
315.078	32.94
315.292	-91.99
315.505	8.36
315.719	112.81
315.933	37.03
316.146	-32.6
316.36	-100.18
316.573	82.09
316.787	86.19
317.001	16.55
317.214	-16.21
317.428	92.33
317.641	-61.27
317.855	18.6
318.068	92.33
318.282	116.9
318.495	215.21
318.709	106.67
318.922	77.99
319.136	137.38
319.349	73.9
319.563	-3.93
319.776	88.23
319.99	-112.47
320.203	153.77
320.417	-12.12
320.63	71.85
320.843	121
321.057	2.22
321.27	12.46
321.483	45.23
321.697	176.3
321.91	114.86
322.124	32.94
322.337	116.9
322.55	-36.69
322.763	84.14
322.977	8.36
323.19	20.65
323.403	114.86
323.617	32.94
323.83	166.06
324.043	45.23
324.256	71.85
324.469	-46.93
324.683	110.76
324.896	30.89
325.109	92.33
325.322	-38.74
325.535	114.86
325.748	92.33
325.962	34.99
326.175	92.33
326.388	108.71
326.601	133.29
326.814	34.99
327.027	14.51
327.24	151.72
327.453	2.22
327.666	82.09
327.879	16.55
328.092	129.19
328.305	41.13
328.518	34.99
328.731	-30.55
328.944	-3.93
329.157	41.13
329.37	10.41
329.583	94.38
329.796	186.54
330.009	-67.41
330.222	0.17
330.435	100.52
330.648	137.38
330.861	47.27
331.073	127.14
331.286	84.14
331.499	55.47
331.712	-83.8
331.925	45.23
332.138	26.79
332.35	125.1
332.563	26.79
332.776	75.95
332.989	-5.97
333.202	0.17
333.414	-14.17
333.627	82.09
333.84	41.13
334.053	73.9
334.265	-20.31
334.478	14.51
334.691	32.94
334.903	-3.93
335.116	-16.21
335.329	-5.97
335.541	73.9
335.754	182.44
335.966	6.31
336.179	30.89
336.392	43.18
336.604	-18.26
336.817	108.71
337.029	55.47
337.242	-1.88
337.454	61.61
337.667	88.23
337.88	16.55
338.092	37.03
338.305	63.66
338.517	28.84
338.729	39.08
338.942	135.34
339.154	-63.32
339.367	0.17
339.579	84.14
339.792	-34.64
340.004	-12.12
340.217	88.23
340.429	82.09
340.641	-24.4
340.854	-36.69
341.066	39.08
341.278	67.75
341.491	166.06
341.703	92.33
341.915	-24.4
342.128	39.08
342.34	59.56
342.552	-14.17
342.764	26.79
342.977	45.23
343.189	100.52
343.401	47.27
343.613	-26.45
343.826	8.36
344.038	-46.93
344.25	71.85
344.462	-16.21
344.674	22.7
344.886	61.61
345.099	8.36
345.311	90.28
345.523	0.17
345.735	-71.51
345.947	18.6
346.159	32.94
346.371	65.71
346.583	34.99
346.795	262.31
347.007	-46.93
347.219	98.47
347.431	51.37
347.643	123.05
347.855	-73.56
348.067	65.71
348.279	6.31
348.491	75.95
348.703	51.37
348.915	-8.02
349.127	47.27
349.339	98.47
349.551	-16.21
349.763	106.67
349.975	6.31
350.187	157.86
350.399	108.71
350.61	30.89
350.822	16.55
351.034	39.08
351.246	-28.5
351.458	51.37
351.669	164.01
351.881	84.14
352.093	149.67
352.305	80.04
352.517	71.85
352.728	116.9
352.94	28.84
353.152	59.56
353.363	63.66
353.575	63.66
353.787	147.62
353.999	88.23
354.21	121
354.422	-77.65
354.633	51.37
354.845	47.27
355.057	55.47
355.268	49.32
355.48	110.76
355.692	-67.41
355.903	73.9
356.115	-46.93
356.326	-81.75
356.538	108.71
356.749	88.23
356.961	100.52
357.172	6.31
357.384	-10.07
357.595	133.29
357.807	16.55
358.018	10.41
358.23	34.99
358.441	153.77
358.653	92.33
358.864	24.75
359.075	10.41
359.287	2.22
359.498	145.58
359.709	-3.93
359.921	26.79
360.132	24.75
360.344	10.41
360.555	6.31
360.766	80.04
360.977	-10.07
361.189	127.14
361.4	-65.36
361.611	125.1
361.823	32.94
362.034	2.22
362.245	10.41
362.456	57.51
362.667	73.9
362.879	-14.17
363.09	47.27
363.301	20.65
363.512	26.79
363.723	69.8
363.935	34.99
364.146	90.28
364.357	-5.97
364.568	92.33
364.779	-26.45
364.99	69.8
365.201	0.17
365.412	80.04
365.623	-59.22
365.834	65.71
366.045	-8.02
366.256	149.67
366.467	90.28
366.678	16.55
366.889	16.55
367.1	10.41
367.311	43.18
367.522	65.71
367.733	8.36
367.944	61.61
368.155	100.52
368.366	90.28
368.577	57.51
368.788	123.05
368.999	0.17
369.209	6.31
369.42	207.02
369.631	219.3
369.842	22.7
370.053	41.13
370.264	108.71
370.474	-30.55
370.685	88.23
370.896	14.51
371.107	94.38
371.317	49.32
371.528	12.46
371.739	106.67
371.95	41.13
372.16	102.57
372.371	4.27
372.582	-18.26
372.792	92.33
373.003	39.08
373.214	112.81
373.424	104.62
373.635	-1.88
373.846	73.9
374.056	2.22
374.267	61.61
374.477	41.13
374.688	20.65
374.898	73.9
375.109	43.18
375.319	65.71
375.53	63.66
375.74	75.95
375.951	-30.55
376.161	67.75
376.372	77.99
376.582	-28.5
376.793	75.95
377.003	-46.93
377.214	-34.64
377.424	102.57
377.635	51.37
377.845	10.41
378.055	65.71
378.266	-3.93
378.476	-10.07
378.686	16.55
378.897	104.62
379.107	6.31
379.317	28.84
379.528	4.27
379.738	57.51
379.948	-38.74
380.158	49.32
380.369	-5.97
380.579	123.05
380.789	53.42
380.999	121
381.21	96.43
381.42	125.1
381.63	16.55
381.84	127.14
382.05	65.71
382.261	135.34
382.471	116.9
382.681	-22.36
382.891	174.25
383.101	80.04
383.311	-79.7
383.521	30.89
383.731	92.33
383.941	90.28
384.151	-8.02
384.361	-5.97
384.571	51.37
384.781	47.27
384.991	157.86
385.201	129.19
385.411	94.38
385.621	43.18
385.831	16.55
386.041	28.84
386.251	65.71
386.461	137.38
386.671	10.41
386.881	125.1
387.091	-10.07
387.301	131.24
387.511	26.79
387.72	90.28
387.93	88.23
388.14	-77.65
388.35	63.66
388.56	82.09
388.769	82.09
388.979	43.18
389.189	-38.74
389.399	32.94
389.609	26.79
389.818	82.09
390.028	34.99
390.238	94.38
390.447	39.08
390.657	59.56
390.867	39.08
391.076	-55.12
391.286	73.9
391.496	65.71
391.705	24.75
391.915	106.67
392.125	108.71
392.334	-38.74
392.544	106.67
392.753	-1.88
392.963	63.66
393.172	26.79
393.382	34.99
393.591	170.15
393.801	18.6
394.01	149.67
394.22	57.51
394.429	26.79
394.639	49.32
394.848	166.06
395.058	6.31
395.267	45.23
395.477	75.95
395.686	14.51
395.895	170.15
396.105	121
396.314	145.58
396.524	114.86
396.733	-8.02
396.942	125.1
397.152	63.66
397.361	82.09
397.57	10.41
397.78	-30.55
397.989	141.48
398.198	143.53
398.407	-46.93
398.617	18.6
398.826	71.85
399.035	92.33
399.244	137.38
399.453	-18.26
399.663	18.6
399.872	34.99
400.081	77.99
400.29	145.58
400.499	-53.08
400.708	43.18
400.917	59.56
401.127	55.47
401.336	-20.31
401.545	174.25
401.754	98.47
401.963	47.27
402.172	6.31
402.381	-59.22
402.59	43.18
402.799	0.17
403.008	92.33
403.217	18.6
403.426	104.62
403.635	-59.22
403.844	-30.55
404.053	65.71
404.262	22.7
404.471	178.34
404.68	22.7
404.888	-24.4
405.097	73.9
405.306	4.27
405.515	63.66
405.724	-18.26
405.933	43.18
406.142	166.06
406.35	80.04
406.559	104.62
406.768	22.7
406.977	139.43
407.185	55.47
407.394	63.66
407.603	-67.41
407.812	84.14
408.02	145.58
408.229	84.14
408.438	92.33
408.646	-73.56
408.855	-20.31
409.064	22.7
409.272	18.6
409.481	-8.02
409.69	32.94
409.898	18.6
410.107	43.18
410.315	125.1
410.524	-8.02
410.733	28.84
410.941	65.71
411.15	61.61
411.358	80.04
411.567	125.1
411.775	8.36
411.984	-1.88
412.192	30.89
412.401	47.27
412.609	114.86
412.818	63.66
413.026	18.6
413.234	94.38
413.443	-14.17
413.651	-53.08
413.86	2.22
414.068	67.75
414.276	65.71
414.485	84.14
414.693	159.91
414.901	174.25
415.11	110.76
415.318	-1.88
415.526	-18.26
415.734	123.05
415.943	84.14
416.151	90.28
416.359	34.99
416.567	55.47
416.776	59.56
416.984	86.19
417.192	143.53
417.4	-55.12
417.608	16.55
417.817	77.99
418.025	157.86
418.233	104.62
418.441	-5.97
418.649	8.36
418.857	90.28
419.065	149.67
419.273	-65.36
419.481	129.19
419.689	-38.74
419.897	-55.12
420.105	-5.97
420.313	100.52
420.521	129.19
420.729	75.95
420.937	-8.02
421.145	-20.31
421.353	88.23
421.561	211.11
421.769	34.99
421.977	-69.46
422.185	80.04
422.393	57.51
422.601	133.29
422.809	92.33
423.017	106.67
423.224	-30.55
423.432	71.85
423.64	39.08
423.848	84.14
424.056	2.22
424.263	98.47
424.471	63.66
424.679	194.73
424.887	24.75
425.094	84.14
425.302	137.38
425.51	71.85
425.718	84.14
425.925	69.8
426.133	-32.6
426.341	180.39
426.548	41.13
426.756	-1.88
426.964	118.95
427.171	-42.84
427.379	67.75
427.586	92.33
427.794	96.43
428.001	108.71
428.209	88.23
428.417	121
428.624	104.62
428.832	108.71
429.039	51.37
429.247	69.8
429.454	102.57
429.662	149.67
429.869	77.99
430.076	49.32
430.284	147.62
430.491	157.86
430.699	57.51
430.906	153.77
431.114	0.17
431.321	73.9
431.528	92.33
431.736	116.9
431.943	82.09
432.15	178.34
432.358	100.52
432.565	151.72
432.772	12.46
432.979	94.38
433.187	137.38
433.394	123.05
433.601	32.94
433.808	182.44
434.016	170.15
434.223	104.62
434.43	135.34
434.637	149.67
434.844	135.34
435.052	196.78
435.259	190.63
435.466	243.88
435.673	166.06
435.88	211.11
436.087	176.3
436.294	278.69
436.501	274.6
436.708	164.01
436.915	153.77
437.122	182.44
437.329	137.38
437.537	180.39
437.743	166.06
437.95	338.09
438.157	256.17
438.364	235.69
438.571	290.98
438.778	278.69
438.985	313.51
439.192	303.27
439.399	192.68
439.606	217.26
439.813	325.8
440.02	366.76
440.227	520.35
440.433	420
440.64	278.69
440.847	272.55
441.054	372.9
441.261	495.78
441.467	403.62
441.674	340.13
441.881	438.44
442.088	352.42
442.294	454.82
442.501	522.4
442.708	415.91
442.914	383.14
443.121	391.33
443.328	481.44
443.534	520.35
443.741	493.73
443.948	473.25
444.154	567.46
444.361	780.45
444.568	622.75
444.774	587.94
444.981	458.92
445.187	663.71
445.394	741.54
445.6	632.99
445.807	721.06
446.013	708.77
446.22	571.55
446.426	823.45
446.633	841.89
446.839	919.71
447.046	624.8
447.252	956.57
447.459	817.31
447.665	917.66
447.871	954.52
448.078	1083.55
448.284	1083.55
448.491	1144.99
448.697	1245.34
448.903	1198.23
449.11	1263.77
449.316	1214.62
449.522	1341.59
449.728	1257.62
449.935	1423.51
450.141	1419.41
450.347	1568.91
450.553	1505.43
450.76	1544.34
450.966	1618.07
451.172	1730.7
451.378	1673.36
451.584	1812.62
451.791	1960.08
451.997	1998.99
452.203	1849.49
452.409	2074.76
452.615	2203.79
452.821	2115.72
453.027	2048.14
453.233	2488.45
453.44	2306.18
453.646	2492.55
453.852	2619.52
454.058	2728.07
454.264	2762.88
454.47	2916.48
454.676	2785.41
454.882	3098.75
455.088	3033.21
455.294	3129.47
455.5	3565.68
455.705	3633.27
455.911	3491.96
456.117	3756.15
456.323	3829.87
456.529	3680.37
456.735	4061.29
456.941	4323.43
457.147	4468.84
457.352	4599.91
457.558	4706.4
457.764	5097.56
457.97	5015.65
458.176	5300.31
458.381	5435.48
458.587	5558.36
458.793	5980.24
458.999	5898.32
459.204	6684.74
459.41	6832.19
459.616	6656.07
459.821	7309.37
460.027	7465.02
460.233	8013.87
460.438	7907.38
460.644	8431.66
460.85	8314.92
461.055	8708.13
461.261	9246.75
461.466	8939.55
461.672	9056.29
461.878	10168.34
462.083	9996.31
462.289	10381.32
462.494	10704.9
462.7	10737.67
462.905	10874.88
463.111	12001.27
463.316	12417.01
463.522	12765.16
463.727	12994.53
463.932	13617.11
464.138	13991.89
464.343	14340.05
464.549	14649.29
464.754	15579.07
464.959	15880.12
465.165	16215.99
465.37	16258.99
465.575	16080.82
465.781	17115.05
465.986	17528.74
466.191	17672.09
466.397	18061.21
466.602	17610.65
466.807	18446.23
467.012	18898.83
467.218	19097.48
467.423	18902.92
467.628	19570.56
467.833	20406.13
468.038	20111.22
468.244	19969.91
468.449	21008.23
468.654	20520.82
468.859	20492.15
469.064	20705.13
469.269	20072.31
469.474	20277.11
469.679	21061.48
469.885	20227.96
