Data from USB4F104151__42__09-27-47-006.txt Node

Date: Wed Feb 26 09:27:47 EST 2025
User: louis
Spectrometer: USB4F10415
Trigger mode: 4
Integration Time (sec): 1.000000E-1
Scans to average: 1
Electric dark correction enabled: true
Nonlinearity correction enabled: false
Boxcar width: 0
XAxis mode: Wavelengths
Number of Pixels in Spectrum: 3648
>>>>>Begin Spectral Data<<<<<
178.204	-394.4
178.424	-394.4
178.644	-394.4
178.864	-380.07
179.084	-283.81
179.304	-46.25
179.524	-126.12
179.744	-99.5
179.964	97.11
180.184	47.96
180.404	97.11
180.624	62.29
180.844	-44.2
181.064	-38.06
181.283	27.48
181.503	25.43
181.723	-3.24
181.943	-60.59
182.163	174.93
182.383	-99.5
182.602	111.44
182.822	193.36
183.042	35.67
183.262	-44.2
183.482	54.1
183.701	13.14
183.921	84.82
184.141	-13.48
184.361	37.72
184.58	105.3
184.8	93.01
185.02	-17.58
185.239	107.35
185.459	-9.39
185.679	45.91
185.898	-3.24
186.118	33.62
186.338	99.16
186.557	76.63
186.777	23.38
186.997	-38.06
187.216	-17.58
187.436	138.07
187.655	109.4
187.875	54.1
188.095	23.38
188.314	154.45
188.534	115.54
188.753	-5.29
188.973	170.83
189.192	95.06
189.412	52.05
189.631	82.77
189.851	56.15
190.07	162.64
190.29	-5.29
190.509	-17.58
190.729	-5.29
190.948	142.16
191.168	252.75
191.387	54.1
191.607	52.05
191.826	17.24
192.045	52.05
192.265	-25.77
192.484	80.72
192.704	-25.77
192.923	-13.48
193.142	219.99
193.362	86.87
193.581	66.39
193.8	70.48
194.02	138.07
194.239	35.67
194.458	78.68
194.678	31.57
194.897	29.52
195.116	-5.29
195.335	58.2
195.555	101.2
195.774	13.14
195.993	84.82
196.212	74.58
196.432	11.09
196.651	58.2
196.87	72.53
197.089	224.08
197.308	70.48
197.528	88.92
197.747	-21.67
197.966	11.09
198.185	160.59
198.404	-50.35
198.623	187.22
198.842	129.88
199.062	80.72
199.281	80.72
199.5	70.48
199.719	43.86
199.938	35.67
200.157	76.63
200.376	95.06
200.595	166.74
200.814	74.58
201.033	-13.48
201.252	88.92
201.471	47.96
201.69	27.48
201.909	19.29
202.128	39.76
202.347	70.48
202.566	-60.59
202.785	-91.31
203.004	-29.87
203.223	224.08
203.442	29.52
203.661	72.53
203.879	72.53
204.098	86.87
204.317	-29.87
204.536	9.05
204.755	66.39
204.974	45.91
205.193	60.24
205.411	164.69
205.63	164.69
205.849	7
206.068	27.48
206.287	39.76
206.505	111.44
206.724	45.91
206.943	-31.91
207.162	-72.87
207.381	54.1
207.599	76.63
207.818	31.57
208.037	45.91
208.255	111.44
208.474	45.91
208.693	19.29
208.911	-1.19
209.13	15.19
209.349	41.81
209.567	90.96
209.786	138.07
210.005	76.63
210.223	41.81
210.442	-9.39
210.661	35.67
210.879	9.05
211.098	88.92
211.316	56.15
211.535	105.3
211.753	15.19
211.972	103.25
212.191	88.92
212.409	0.85
212.628	97.11
212.846	84.82
213.065	121.68
213.283	170.83
213.502	121.68
213.72	27.48
213.938	-1.19
214.157	68.44
214.375	97.11
214.594	-38.06
214.812	136.02
215.031	2.9
215.249	-38.06
215.467	11.09
215.686	25.43
215.904	60.24
216.122	23.38
216.341	115.54
216.559	84.82
216.778	166.74
216.996	152.4
217.214	7
217.432	56.15
217.651	88.92
217.869	29.52
218.087	-3.24
218.306	-33.96
218.524	82.77
218.742	103.25
218.96	148.31
219.179	152.4
219.397	-23.72
219.615	228.18
219.833	88.92
220.051	21.33
220.27	123.73
220.488	142.16
220.706	60.24
220.924	-25.77
221.142	0.85
221.36	103.25
221.578	19.29
221.796	23.38
222.015	54.1
222.233	-1.19
222.451	97.11
222.669	-13.48
222.887	19.29
223.105	86.87
223.323	31.57
223.541	-3.24
223.759	0.85
223.977	-21.67
224.195	119.64
224.413	127.83
224.631	31.57
224.849	47.96
225.067	215.89
225.285	72.53
225.503	31.57
225.721	-173.22
225.939	60.24
226.157	-3.24
226.375	215.89
226.592	-13.48
226.81	-64.68
227.028	162.64
227.246	31.57
227.464	86.87
227.682	50
227.9	47.96
228.117	56.15
228.335	31.57
228.553	0.85
228.771	84.82
228.989	-7.34
229.206	78.68
229.424	4.95
229.642	2.9
229.86	37.72
230.077	166.74
230.295	74.58
230.513	52.05
230.731	80.72
230.948	195.41
231.166	142.16
231.384	-13.48
231.601	-19.63
231.819	158.55
232.037	9.05
232.254	11.09
232.472	2.9
232.689	31.57
232.907	117.59
233.125	31.57
233.342	11.09
233.56	72.53
233.777	27.48
233.995	35.67
234.213	160.59
234.43	43.86
234.648	68.44
234.865	78.68
235.083	50
235.3	47.96
235.518	47.96
235.735	170.83
235.953	105.3
236.17	88.92
236.388	99.16
236.605	31.57
236.822	187.22
237.04	121.68
237.257	88.92
237.475	-66.73
237.692	90.96
237.909	50
238.127	31.57
238.344	60.24
238.562	95.06
238.779	-27.82
238.996	-23.72
239.214	29.52
239.431	68.44
239.648	47.96
239.865	9.05
240.083	72.53
240.3	-1.19
240.517	-25.77
240.735	60.24
240.952	70.48
241.169	7
241.386	54.1
241.603	113.49
241.821	-5.29
242.038	146.26
242.255	35.67
242.472	-52.39
242.689	70.48
242.907	68.44
243.124	7
243.341	-33.96
243.558	-19.63
243.775	-27.82
243.992	-42.15
244.209	31.57
244.426	166.74
244.643	66.39
244.86	95.06
245.078	191.31
245.295	47.96
245.512	52.05
245.729	-7.34
245.946	43.86
246.163	19.29
246.38	82.77
246.597	2.9
246.814	4.95
247.031	60.24
247.248	13.14
247.464	64.34
247.681	80.72
247.898	23.38
248.115	29.52
248.332	-79.02
248.549	97.11
248.766	174.93
248.983	97.11
249.2	45.91
249.417	60.24
249.633	25.43
249.85	58.2
250.067	17.24
250.284	-1.19
250.501	29.52
250.717	50
250.934	37.72
251.151	-3.24
251.368	-17.58
251.585	103.25
251.801	11.09
252.018	-109.74
252.235	105.3
252.451	-27.82
252.668	31.57
252.885	33.62
253.102	35.67
253.318	-42.15
253.535	35.67
253.752	52.05
253.968	88.92
254.185	-60.59
254.401	62.29
254.618	-36.01
254.835	11.09
255.051	88.92
255.268	99.16
255.484	7
255.701	-13.48
255.917	74.58
256.134	-36.01
256.351	0.85
256.567	-1.19
256.784	50
257	-38.06
257.217	88.92
257.433	144.21
257.65	47.96
257.866	201.55
258.082	-74.92
258.299	33.62
258.515	31.57
258.732	-1.19
258.948	21.33
259.165	76.63
259.381	35.67
259.597	119.64
259.814	95.06
260.03	-1.19
260.246	-13.48
260.463	64.34
260.679	154.45
260.895	47.96
261.112	43.86
261.328	72.53
261.544	13.14
261.761	176.98
261.977	27.48
262.193	-36.01
262.409	74.58
262.626	62.29
262.842	93.01
263.058	35.67
263.274	76.63
263.49	78.68
263.707	131.92
263.923	62.29
264.139	-97.45
264.355	25.43
264.571	146.26
264.787	15.19
265.004	39.76
265.22	78.68
265.436	54.1
265.652	68.44
265.868	39.76
266.084	23.38
266.3	72.53
266.516	-54.44
266.732	54.1
266.948	19.29
267.164	27.48
267.38	146.26
267.596	80.72
267.812	172.88
268.028	93.01
268.244	-36.01
268.46	27.48
268.676	123.73
268.892	27.48
269.108	-17.58
269.324	-13.48
269.54	-62.63
269.756	76.63
269.972	-3.24
270.188	43.86
270.403	-9.39
270.619	35.67
270.835	31.57
271.051	54.1
271.267	-50.35
271.483	4.95
271.698	115.54
271.914	95.06
272.13	84.82
272.346	37.72
272.562	17.24
272.777	166.74
272.993	-9.39
273.209	-44.2
273.425	70.48
273.64	13.14
273.856	142.16
274.072	15.19
274.287	-17.58
274.503	127.83
274.719	127.83
274.934	-60.59
275.15	-58.54
275.366	101.2
275.581	37.72
275.797	103.25
276.012	15.19
276.228	9.05
276.444	154.45
276.659	154.45
276.875	-74.92
277.09	82.77
277.306	47.96
277.521	15.19
277.737	29.52
277.952	25.43
278.168	68.44
278.383	41.81
278.599	54.1
278.814	133.97
279.03	7
279.245	113.49
279.461	45.91
279.676	74.58
279.892	-11.43
280.107	7
280.322	-107.69
280.538	7
280.753	-11.43
280.969	60.24
281.184	113.49
281.399	127.83
281.615	113.49
281.83	-19.63
282.045	-54.44
282.26	-79.02
282.476	-9.39
282.691	138.07
282.906	9.05
283.122	43.86
283.337	-25.77
283.552	127.83
283.767	-23.72
283.983	60.24
284.198	25.43
284.413	133.97
284.628	-52.39
284.843	47.96
285.058	152.4
285.274	13.14
285.489	-17.58
285.704	107.35
285.919	-101.55
286.134	39.76
286.349	119.64
286.564	23.38
286.779	154.45
286.995	-1.19
287.21	-64.68
287.425	4.95
287.64	4.95
287.855	111.44
288.07	-68.78
288.285	127.83
288.5	58.2
288.715	60.24
288.93	37.72
289.145	-38.06
289.36	23.38
289.575	11.09
289.79	121.68
290.004	-3.24
290.219	80.72
290.434	-119.98
290.649	0.85
290.864	-66.73
291.079	-5.29
291.294	76.63
291.509	54.1
291.724	45.91
291.938	-95.4
292.153	52.05
292.368	41.81
292.583	29.52
292.798	117.59
293.012	29.52
293.227	101.2
293.442	47.96
293.657	45.91
293.871	179.03
294.086	66.39
294.301	121.68
294.516	127.83
294.73	23.38
294.945	-58.54
295.16	-17.58
295.374	113.49
295.589	117.59
295.804	13.14
296.018	88.92
296.233	142.16
296.447	117.59
296.662	-7.34
296.877	168.79
297.091	31.57
297.306	7
297.52	52.05
297.735	37.72
297.949	80.72
298.164	47.96
298.378	-1.19
298.593	-23.72
298.807	13.14
299.022	78.68
299.236	101.2
299.451	39.76
299.665	60.24
299.88	11.09
300.094	52.05
300.309	15.19
300.523	127.83
300.737	-5.29
300.952	162.64
301.166	2.9
301.381	-1.19
301.595	4.95
301.809	31.57
302.024	-21.67
302.238	-72.87
302.452	101.2
302.667	64.34
302.881	107.35
303.095	140.12
303.309	58.2
303.524	-54.44
303.738	-9.39
303.952	54.1
304.166	54.1
304.381	-29.87
304.595	84.82
304.809	-19.63
305.023	54.1
305.237	-11.43
305.452	41.81
305.666	76.63
305.88	117.59
306.094	-36.01
306.308	97.11
306.522	154.45
306.736	84.82
306.95	154.45
307.164	-9.39
307.379	60.24
307.593	203.6
307.807	119.64
308.021	111.44
308.235	72.53
308.449	-54.44
308.663	-15.53
308.877	242.51
309.091	-5.29
309.305	45.91
309.519	-83.11
309.733	138.07
309.947	-50.35
310.161	33.62
310.374	74.58
310.588	80.72
310.802	-17.58
311.016	-40.11
311.23	60.24
311.444	-50.35
311.658	43.86
311.872	80.72
312.085	103.25
312.299	162.64
312.513	195.41
312.727	25.43
312.941	45.91
313.154	35.67
313.368	86.87
313.582	111.44
313.796	31.57
314.009	56.15
314.223	232.27
314.437	45.91
314.651	39.76
314.864	19.29
315.078	11.09
315.292	-42.15
315.505	23.38
315.719	27.48
315.933	54.1
316.146	11.09
316.36	33.62
316.573	111.44
316.787	27.48
317.001	50
317.214	-138.41
317.428	-23.72
317.641	15.19
317.855	-7.34
318.068	101.2
318.282	-1.19
318.495	127.83
318.709	84.82
318.922	13.14
319.136	97.11
319.349	133.97
319.563	23.38
319.776	111.44
319.99	2.9
320.203	111.44
320.417	21.33
320.63	45.91
320.843	136.02
321.057	105.3
321.27	45.91
321.483	127.83
321.697	183.12
321.91	41.81
322.124	64.34
322.337	97.11
322.55	29.52
322.763	4.95
322.977	66.39
323.19	-3.24
323.403	4.95
323.617	62.29
323.83	66.39
324.043	86.87
324.256	-3.24
324.469	31.57
324.683	156.5
324.896	60.24
325.109	23.38
325.322	-136.36
325.535	76.63
325.748	70.48
325.962	-17.58
326.175	86.87
326.388	31.57
326.601	99.16
326.814	-29.87
327.027	105.3
327.24	166.74
327.453	-50.35
327.666	11.09
327.879	82.77
328.092	47.96
328.305	54.1
328.518	-1.19
328.731	11.09
328.944	33.62
329.157	11.09
329.37	47.96
329.583	170.83
329.796	117.59
330.009	-58.54
330.222	84.82
330.435	152.4
330.648	29.52
330.861	23.38
331.073	97.11
331.286	70.48
331.499	43.86
331.712	13.14
331.925	45.91
332.138	80.72
332.35	107.35
332.563	11.09
332.776	148.31
332.989	7
333.202	68.44
333.414	27.48
333.627	17.24
333.84	-13.48
334.053	90.96
334.265	-95.4
334.478	13.14
334.691	72.53
334.903	37.72
335.116	62.29
335.329	109.4
335.541	64.34
335.754	187.22
335.966	39.76
336.179	88.92
336.392	39.76
336.604	45.91
336.817	109.4
337.029	78.68
337.242	68.44
337.454	19.29
337.667	4.95
337.88	117.59
338.092	29.52
338.305	-5.29
338.517	-50.35
338.729	105.3
338.942	121.68
339.154	-91.31
339.367	-99.5
339.579	152.4
339.792	-74.92
340.004	21.33
340.217	13.14
340.429	86.87
340.641	31.57
340.854	-83.11
341.066	45.91
341.278	129.88
341.491	105.3
341.703	52.05
341.915	39.76
342.128	58.2
342.34	70.48
342.552	-58.54
342.764	45.91
342.977	-58.54
343.189	88.92
343.401	58.2
343.613	-119.98
343.826	39.76
344.038	15.19
344.25	23.38
344.462	7
344.674	136.02
344.886	13.14
345.099	50
345.311	4.95
345.523	56.15
345.735	-58.54
345.947	148.31
346.159	-36.01
346.371	70.48
346.583	-13.48
346.795	162.64
347.007	-9.39
347.219	21.33
347.431	47.96
347.643	80.72
347.855	-25.77
348.067	88.92
348.279	-13.48
348.491	56.15
348.703	68.44
348.915	21.33
349.127	-9.39
349.339	23.38
349.551	-56.49
349.763	80.72
349.975	27.48
350.187	113.49
350.399	170.83
350.61	70.48
350.822	64.34
351.034	86.87
351.246	43.86
351.458	33.62
351.669	60.24
351.881	105.3
352.093	54.1
352.305	105.3
352.517	97.11
352.728	93.01
352.94	121.68
353.152	64.34
353.363	58.2
353.575	2.9
353.787	76.63
353.999	7
354.21	150.36
354.422	-17.58
354.633	23.38
354.845	60.24
355.057	93.01
355.268	86.87
355.48	131.92
355.692	17.24
355.903	39.76
356.115	4.95
356.326	-27.82
356.538	123.73
356.749	82.77
356.961	21.33
357.172	29.52
357.384	-60.59
357.595	195.41
357.807	47.96
358.018	-7.34
358.23	47.96
358.441	152.4
358.653	99.16
358.864	23.38
359.075	64.34
359.287	72.53
359.498	47.96
359.709	95.06
359.921	39.76
360.132	31.57
360.344	17.24
360.555	31.57
360.766	13.14
360.977	-27.82
361.189	129.88
361.4	21.33
361.611	172.88
361.823	23.38
362.034	76.63
362.245	-31.91
362.456	-9.39
362.667	97.11
362.879	4.95
363.09	93.01
363.301	111.44
363.512	23.38
363.723	58.2
363.935	-33.96
364.146	82.77
364.357	-5.29
364.568	50
364.779	7
364.99	119.64
365.201	27.48
365.412	113.49
365.623	-50.35
365.834	56.15
366.045	64.34
366.256	133.97
366.467	179.03
366.678	60.24
366.889	47.96
367.1	-46.25
367.311	74.58
367.522	-5.29
367.733	93.01
367.944	101.2
368.155	7
368.366	58.2
368.577	172.88
368.788	93.01
368.999	0.85
369.209	-25.77
369.42	136.02
369.631	125.78
369.842	15.19
370.053	-46.25
370.264	158.55
370.474	-62.63
370.685	54.1
370.896	27.48
371.107	129.88
371.317	84.82
371.528	-25.77
371.739	80.72
371.95	15.19
372.16	52.05
372.371	-11.43
372.582	7
372.792	-25.77
373.003	31.57
373.214	95.06
373.424	160.59
373.635	-17.58
373.846	125.78
374.056	56.15
374.267	113.49
374.477	19.29
374.688	9.05
374.898	58.2
375.109	72.53
375.319	27.48
375.53	88.92
375.74	62.29
375.951	-1.19
376.161	37.72
376.372	195.41
376.582	60.24
376.793	39.76
377.003	-19.63
377.214	23.38
377.424	70.48
377.635	-11.43
377.845	7
378.055	158.55
378.266	-5.29
378.476	107.35
378.686	113.49
378.897	60.24
379.107	72.53
379.317	125.78
379.528	95.06
379.738	121.68
379.948	-42.15
380.158	125.78
380.369	76.63
380.579	62.29
380.789	-21.67
380.999	54.1
381.21	84.82
381.42	213.84
381.63	21.33
381.84	86.87
382.05	-11.43
382.261	185.17
382.471	88.92
382.681	4.95
382.891	191.31
383.101	60.24
383.311	-44.2
383.521	4.95
383.731	70.48
383.941	103.25
384.151	27.48
384.361	-1.19
384.571	70.48
384.781	39.76
384.991	154.45
385.201	211.79
385.411	103.25
385.621	35.67
385.831	39.76
386.041	45.91
386.251	105.3
386.461	166.74
386.671	45.91
386.881	13.14
387.091	19.29
387.301	162.64
387.511	-7.34
387.72	95.06
387.93	101.2
388.14	-52.39
388.35	15.19
388.56	52.05
388.769	127.83
388.979	45.91
389.189	-95.4
389.399	21.33
389.609	150.36
389.818	105.3
390.028	64.34
390.238	111.44
390.447	-3.24
390.657	99.16
390.867	64.34
391.076	-91.31
391.286	31.57
391.496	56.15
391.705	4.95
391.915	39.76
392.125	127.83
392.334	17.24
392.544	103.25
392.753	35.67
392.963	-27.82
393.172	68.44
393.382	39.76
393.591	111.44
393.801	21.33
394.01	136.02
394.22	84.82
394.429	41.81
394.639	-9.39
394.848	70.48
395.058	64.34
395.267	-25.77
395.477	31.57
395.686	62.29
395.895	252.75
396.105	224.08
396.314	181.07
396.524	23.38
396.733	101.2
396.942	105.3
397.152	78.68
397.361	90.96
397.57	56.15
397.78	39.76
397.989	19.29
398.198	215.89
398.407	15.19
398.617	52.05
398.826	64.34
399.035	-1.19
399.244	117.59
399.453	11.09
399.663	101.2
399.872	72.53
400.081	-3.24
400.29	76.63
400.499	-50.35
400.708	95.06
400.917	52.05
401.127	84.82
401.336	58.2
401.545	158.55
401.754	97.11
401.963	35.67
402.172	54.1
402.381	11.09
402.59	9.05
402.799	11.09
403.008	76.63
403.217	64.34
403.426	45.91
403.635	-17.58
403.844	50
404.053	-7.34
404.262	19.29
404.471	105.3
404.68	142.16
404.888	19.29
405.097	4.95
405.306	29.52
405.515	43.86
405.724	37.72
405.933	82.77
406.142	54.1
406.35	119.64
406.559	-5.29
406.768	80.72
406.977	97.11
407.185	39.76
407.394	101.2
407.603	-17.58
407.812	64.34
408.02	162.64
408.229	2.9
408.438	-19.63
408.646	-42.15
408.855	84.82
409.064	93.01
409.272	15.19
409.481	60.24
409.69	-33.96
409.898	-54.44
410.107	70.48
410.315	95.06
410.524	64.34
410.733	27.48
410.941	78.68
411.15	90.96
411.358	158.55
411.567	168.79
411.775	19.29
411.984	58.2
412.192	88.92
412.401	43.86
412.609	191.31
412.818	45.91
413.026	35.67
413.234	-36.01
413.443	72.53
413.651	-36.01
413.86	4.95
414.068	150.36
414.276	111.44
414.485	31.57
414.693	136.02
414.901	201.55
415.11	64.34
415.318	29.52
415.526	62.29
415.734	50
415.943	101.2
416.151	119.64
416.359	35.67
416.567	64.34
416.776	25.43
416.984	111.44
417.192	179.03
417.4	45.91
417.608	72.53
417.817	-52.39
418.025	35.67
418.233	166.74
418.441	31.57
418.649	-79.02
418.857	70.48
419.065	168.79
419.273	-31.91
419.481	88.92
419.689	78.68
419.897	25.43
420.105	-107.69
420.313	166.74
420.521	107.35
420.729	95.06
420.937	68.44
421.145	-50.35
421.353	72.53
421.561	174.93
421.769	105.3
421.977	-29.87
422.185	70.48
422.393	-11.43
422.601	133.97
422.809	101.2
423.017	27.48
423.224	31.57
423.432	113.49
423.64	37.72
423.848	101.2
424.056	15.19
424.263	119.64
424.471	74.58
424.679	119.64
424.887	-72.87
425.094	52.05
425.302	144.21
425.51	31.57
425.718	115.54
425.925	66.39
426.133	4.95
426.341	209.75
426.548	93.01
426.756	62.29
426.964	121.68
427.171	19.29
427.379	23.38
427.586	-5.29
427.794	56.15
428.001	140.12
428.209	111.44
428.417	33.62
428.624	72.53
428.832	189.27
429.039	43.86
429.247	29.52
429.454	19.29
429.662	158.55
429.869	93.01
430.076	86.87
430.284	82.77
430.491	174.93
430.699	68.44
430.906	262.99
431.114	109.4
431.321	105.3
431.528	146.26
431.736	146.26
431.943	97.11
432.15	140.12
432.358	154.45
432.565	234.32
432.772	-66.73
432.979	187.22
433.187	82.77
433.394	176.98
433.601	13.14
433.808	156.5
434.016	197.46
434.223	107.35
434.43	131.92
434.637	170.83
434.844	252.75
435.052	176.98
435.259	195.41
435.466	215.89
435.673	129.88
435.88	301.9
436.087	226.13
436.294	203.6
436.501	252.75
436.708	148.31
436.915	187.22
437.122	293.71
437.329	191.31
437.537	148.31
437.743	281.43
437.95	281.43
438.157	203.6
438.364	183.12
438.571	185.17
438.778	299.86
438.985	285.52
439.192	334.67
439.399	338.77
439.606	375.63
439.813	349.01
440.02	394.06
440.227	453.45
440.433	441.17
440.64	308.05
440.847	299.86
441.054	443.21
441.261	494.41
441.467	439.12
441.674	398.16
441.881	396.11
442.088	449.36
442.294	473.93
442.501	494.41
442.708	557.9
442.914	424.78
443.121	594.76
443.328	557.9
443.534	633.68
443.741	588.62
443.948	535.37
444.154	674.64
444.361	707.4
444.568	703.31
444.774	727.88
444.981	670.54
445.187	754.51
445.394	774.99
445.6	783.18
445.807	848.71
446.013	795.47
446.22	752.46
446.426	856.9
446.633	926.54
446.839	1051.46
447.046	930.63
447.252	1045.32
447.459	1022.79
447.665	959.3
447.871	1137.48
448.078	1313.6
448.284	1270.59
448.491	1299.27
448.697	1377.09
448.903	1377.09
449.11	1506.11
449.316	1305.41
449.522	1563.45
449.728	1614.65
449.935	1661.76
450.141	1653.56
450.347	1725.24
450.553	1766.2
450.76	1788.73
450.966	1864.5
451.172	1964.86
451.378	1932.09
451.584	2100.02
451.791	2255.67
451.997	2255.67
452.203	2249.52
452.409	2495.28
452.615	2517.81
452.821	2435.89
453.027	2474.8
453.233	2814.76
453.44	2681.64
453.646	2743.08
453.852	2988.84
454.058	3148.58
454.264	3257.12
454.47	3425.06
454.676	3418.91
454.882	3709.72
455.088	3414.82
455.294	3801.88
455.5	4053.78
455.705	4162.33
455.911	4039.45
456.117	4217.62
456.323	4508.43
456.529	4475.67
456.735	4922.12
456.941	5012.23
457.147	5223.17
457.352	5374.72
457.558	5405.44
457.764	5769.98
457.97	5929.72
458.176	6243.06
458.381	6476.53
458.587	6343.41
458.793	7009
458.999	6808.3
459.204	7570.15
459.41	7963.36
459.616	7721.7
459.821	8377.05
460.027	8583.89
460.233	9177.8
460.438	8999.63
460.644	9485
460.85	9857.73
461.055	10062.52
461.261	10670.77
461.466	10369.72
461.672	10549.94
461.878	11727.52
462.083	11883.17
462.289	11973.28
462.494	12411.54
462.7	12632.72
462.905	12618.39
463.111	13881.99
463.316	14404.22
463.522	14539.38
463.727	15039.09
463.932	15520.36
464.138	16120.42
464.343	16882.26
464.549	16937.55
464.754	18299.45
464.959	18557.5
465.165	18690.62
465.37	18768.44
465.575	19016.24
465.781	20138.53
465.986	20793.88
466.191	20376.09
466.397	20836.89
466.602	20138.53
466.807	21277.2
467.012	21654.03
467.218	22073.86
467.423	22100.48
467.628	22557.18
467.833	23712.24
468.038	23507.44
468.244	22874.62
468.449	24257
468.654	24023.53
468.859	23628.27
469.064	23685.61
469.269	23220.72
469.474	23640.56
469.679	23974.38
469.885	23540.21
470.09	23673.32
470.295	23747.05
470.5	23476.72
