Data from USB4F104151__65__10-26-57-924.txt Node

Date: Wed Feb 26 10:26:57 EST 2025
User: louis
Spectrometer: USB4F10415
Trigger mode: 4
Integration Time (sec): 1.000000E-1
Scans to average: 1
Electric dark correction enabled: true
Nonlinearity correction enabled: false
Boxcar width: 0
XAxis mode: Wavelengths
Number of Pixels in Spectrum: 3648
>>>>>Begin Spectral Data<<<<<
178.204	-425.47
178.424	-425.47
178.644	-425.47
178.864	-376.31
179.084	-427.51
179.304	-26.11
179.524	37.38
179.744	-81.41
179.964	12.8
180.184	78.33
180.404	35.33
180.624	-9.73
180.844	-15.87
181.064	-93.69
181.283	29.18
181.503	-42.5
181.723	76.29
181.943	-75.26
182.163	193.02
182.383	-97.79
182.602	115.2
182.822	160.25
183.042	129.53
183.262	-48.64
183.482	-71.17
183.701	-17.92
183.921	82.43
184.141	-46.59
184.361	86.53
184.58	10.75
184.8	47.62
185.02	-44.54
185.239	39.42
185.459	131.58
185.679	98.81
185.898	-95.74
186.118	61.95
186.338	61.95
186.557	25.09
186.777	-62.98
186.997	-9.73
187.216	8.7
187.436	162.3
187.655	111.1
187.875	111.1
188.095	88.57
188.314	107.01
188.534	160.25
188.753	-32.26
188.973	113.15
189.192	145.92
189.412	-24.06
189.631	16.9
189.851	64
190.07	109.05
190.29	-44.54
190.509	29.18
190.729	-22.02
190.948	94.72
191.168	190.97
191.387	8.7
191.607	12.8
191.826	37.38
192.045	0.51
192.265	33.28
192.484	72.19
192.704	51.71
192.923	-83.45
193.142	143.87
193.362	92.67
193.581	102.91
193.8	33.28
194.02	88.57
194.239	57.86
194.458	143.87
194.678	-19.97
194.897	0.51
195.116	14.85
195.335	66.05
195.555	66.05
195.774	-85.5
195.993	64
196.212	4.61
196.432	16.9
196.651	-69.12
196.87	20.99
197.089	197.12
197.308	-42.5
197.528	51.71
197.747	-105.98
197.966	4.61
198.185	92.67
198.404	-1.54
198.623	133.63
198.842	117.25
199.062	4.61
199.281	121.34
199.5	102.91
199.719	43.52
199.938	84.48
200.157	88.57
200.376	66.05
200.595	109.05
200.814	76.29
201.033	-62.98
201.252	170.49
201.471	51.71
201.69	51.71
201.909	49.66
202.128	47.62
202.347	51.71
202.566	-65.02
202.785	-46.59
203.004	-83.45
203.223	221.69
203.442	111.1
203.661	-97.79
203.879	92.67
204.098	94.72
204.317	18.94
204.536	64
204.755	35.33
204.974	66.05
205.193	-24.06
205.411	57.86
205.63	115.2
205.849	64
206.068	-48.64
206.287	-60.93
206.505	162.3
206.724	-11.78
206.943	-3.58
207.162	31.23
207.381	76.29
207.599	-65.02
207.818	51.71
208.037	-65.02
208.255	45.57
208.474	41.47
208.693	74.24
208.911	-17.92
209.13	102.91
209.349	82.43
209.567	145.92
209.786	96.77
210.005	137.73
210.223	-3.58
210.442	-89.6
210.661	10.75
210.879	29.18
211.098	64
211.316	31.23
211.535	49.66
211.753	35.33
211.972	72.19
212.191	25.09
212.409	12.8
212.628	72.19
212.846	-19.97
213.065	4.61
213.283	135.68
213.502	8.7
213.72	37.38
213.938	-1.54
214.157	-58.88
214.375	76.29
214.594	39.42
214.812	129.53
215.031	-97.79
215.249	-9.73
215.467	104.96
215.686	6.66
215.904	109.05
216.122	-34.3
216.341	119.29
216.559	-28.16
216.778	74.24
216.996	115.2
217.214	-52.74
217.432	59.9
217.651	-11.78
217.869	115.2
218.087	12.8
218.306	64
218.524	70.14
218.742	8.7
218.96	96.77
219.179	-28.16
219.397	41.47
219.615	150.01
219.833	104.96
220.051	-30.21
220.27	70.14
220.488	117.25
220.706	78.33
220.924	12.8
221.142	-50.69
221.36	61.95
221.578	59.9
221.796	-9.73
222.015	102.91
222.233	96.77
222.451	147.97
222.669	-34.3
222.887	18.94
223.105	55.81
223.323	43.52
223.541	-11.78
223.759	88.57
223.977	14.85
224.195	107.01
224.413	49.66
224.631	-13.82
224.849	61.95
225.067	164.35
225.285	-54.78
225.503	-15.87
225.721	-42.5
225.939	-69.12
226.157	16.9
226.375	199.16
226.592	-40.45
226.81	-19.97
227.028	131.58
227.246	96.77
227.464	6.66
227.682	104.96
227.9	4.61
228.117	18.94
228.335	100.86
228.553	29.18
228.771	-38.4
228.989	18.94
229.206	8.7
229.424	-19.97
229.642	-30.21
229.86	-17.92
230.077	125.44
230.295	41.47
230.513	80.38
230.731	10.75
230.948	156.16
231.166	133.63
231.384	-11.78
231.601	-1.54
231.819	244.22
232.037	-58.88
232.254	10.75
232.472	-58.88
232.689	-17.92
232.907	70.14
233.125	100.86
233.342	-30.21
233.56	-42.5
233.777	-1.54
233.995	-24.06
234.213	57.86
234.43	127.49
234.648	-91.65
234.865	-9.73
235.083	33.28
235.3	10.75
235.518	39.42
235.735	154.11
235.953	76.29
236.17	66.05
236.388	14.85
236.605	104.96
236.822	100.86
237.04	78.33
237.257	104.96
237.475	-7.68
237.692	57.86
237.909	113.15
238.127	57.86
238.344	6.66
238.562	-34.3
238.779	-85.5
238.996	-52.74
239.214	23.04
239.431	53.76
239.648	-15.87
239.865	117.25
240.083	-28.16
240.3	-69.12
240.517	25.09
240.735	-34.3
240.952	190.97
241.169	100.86
241.386	-17.92
241.603	20.99
241.821	-32.26
242.038	88.57
242.255	115.2
242.472	-77.31
242.689	8.7
242.907	51.71
243.124	78.33
243.341	2.56
243.558	-103.93
243.775	-42.5
243.992	-1.54
244.209	20.99
244.426	51.71
244.643	45.57
244.86	-42.5
245.078	88.57
245.295	90.62
245.512	-50.69
245.729	-48.64
245.946	80.38
246.163	8.7
246.38	23.04
246.597	39.42
246.814	6.66
247.031	-40.45
247.248	-13.82
247.464	145.92
247.681	33.28
247.898	72.19
248.115	72.19
248.332	-38.4
248.549	129.53
248.766	100.86
248.983	104.96
249.2	74.24
249.417	49.66
249.633	-5.63
249.85	59.9
250.067	-5.63
250.284	20.99
250.501	70.14
250.717	33.28
250.934	23.04
251.151	-17.92
251.368	39.42
251.585	80.38
251.801	47.62
252.018	-91.65
252.235	35.33
252.451	-38.4
252.668	-9.73
252.885	117.25
253.102	39.42
253.318	-17.92
253.535	-69.12
253.752	14.85
253.968	-38.4
254.185	-122.37
254.401	4.61
254.618	16.9
254.835	-42.5
255.051	135.68
255.268	35.33
255.484	78.33
255.701	-17.92
255.917	-15.87
256.134	-56.83
256.351	-11.78
256.567	-44.54
256.784	6.66
257	-79.36
257.217	-42.5
257.433	111.1
257.65	-65.02
257.866	135.68
258.082	-11.78
258.299	-3.58
258.515	150.01
258.732	-19.97
258.948	45.57
259.165	55.81
259.381	-56.83
259.597	49.66
259.814	0.51
260.03	94.72
260.246	10.75
260.463	88.57
260.679	59.9
260.895	53.76
261.112	-15.87
261.328	-1.54
261.544	-40.45
261.761	246.27
261.977	-95.74
262.193	-5.63
262.409	78.33
262.626	20.99
262.842	0.51
263.058	4.61
263.274	37.38
263.49	80.38
263.707	82.43
263.923	121.34
264.139	-60.93
264.355	20.99
264.571	53.76
264.787	2.56
265.004	121.34
265.22	47.62
265.436	-1.54
265.652	0.51
265.868	49.66
266.084	-99.84
266.3	-11.78
266.516	-36.35
266.732	61.95
266.948	43.52
267.164	-58.88
267.38	18.94
267.596	51.71
267.812	203.26
268.028	39.42
268.244	-38.4
268.46	53.76
268.676	41.47
268.892	0.51
269.108	-13.82
269.324	-3.58
269.54	-89.6
269.756	47.62
269.972	-34.3
270.188	-28.16
270.403	14.85
270.619	92.67
270.835	90.62
271.051	31.23
271.267	-67.07
271.483	-50.69
271.698	158.21
271.914	72.19
272.13	59.9
272.346	-1.54
272.562	-7.68
272.777	127.49
272.993	41.47
273.209	-3.58
273.425	86.53
273.64	-28.16
273.856	90.62
274.072	-1.54
274.287	43.52
274.503	41.47
274.719	117.25
274.934	-30.21
275.15	-118.27
275.366	82.43
275.581	-52.74
275.797	55.81
276.012	90.62
276.228	-48.64
276.444	78.33
276.659	119.29
276.875	-22.02
277.09	25.09
277.306	4.61
277.521	25.09
277.737	37.38
277.952	51.71
278.168	59.9
278.383	74.24
278.599	-30.21
278.814	150.01
279.03	86.53
279.245	158.21
279.461	27.14
279.676	141.82
279.892	-83.45
280.107	-17.92
280.322	-50.69
280.538	16.9
280.753	-62.98
280.969	64
281.184	37.38
281.399	150.01
281.615	0.51
281.83	10.75
282.045	49.66
282.26	-48.64
282.476	6.66
282.691	184.83
282.906	-9.73
283.122	92.67
283.337	-54.78
283.552	10.75
283.767	-34.3
283.983	74.24
284.198	61.95
284.413	4.61
284.628	0.51
284.843	6.66
285.058	23.04
285.274	23.04
285.489	-11.78
285.704	82.43
285.919	-32.26
286.134	-42.5
286.349	-65.02
286.564	20.99
286.779	162.3
286.995	-99.84
287.21	-58.88
287.425	113.15
287.64	16.9
287.855	16.9
288.07	-91.65
288.285	29.18
288.5	76.29
288.715	45.57
288.93	0.51
289.145	-19.97
289.36	125.44
289.575	-42.5
289.79	121.34
290.004	27.14
290.219	72.19
290.434	18.94
290.649	-11.78
290.864	-120.32
291.079	31.23
291.294	6.66
291.509	66.05
291.724	-5.63
291.938	-62.98
292.153	23.04
292.368	-9.73
292.583	98.81
292.798	80.38
293.012	-28.16
293.227	94.72
293.442	-38.4
293.657	59.9
293.871	111.1
294.086	53.76
294.301	154.11
294.516	80.38
294.73	111.1
294.945	-5.63
295.16	-38.4
295.374	127.49
295.589	104.96
295.804	12.8
296.018	94.72
296.233	92.67
296.447	-50.69
296.662	4.61
296.877	195.07
297.091	80.38
297.306	-79.36
297.52	-46.59
297.735	18.94
297.949	41.47
298.164	23.04
298.378	16.9
298.593	10.75
298.807	18.94
299.022	51.71
299.236	104.96
299.451	29.18
299.665	-142.85
299.88	-42.5
300.094	12.8
300.309	35.33
300.523	86.53
300.737	8.7
300.952	47.62
301.166	98.81
301.381	-87.55
301.595	35.33
301.809	4.61
302.024	29.18
302.238	-40.45
302.452	57.86
302.667	41.47
302.881	125.44
303.095	172.54
303.309	-1.54
303.524	-95.74
303.738	-5.63
303.952	-26.11
304.166	25.09
304.381	-103.93
304.595	139.77
304.809	-114.17
305.023	2.56
305.237	-36.35
305.452	25.09
305.666	82.43
305.88	156.16
306.094	94.72
306.308	20.99
306.522	55.81
306.736	-38.4
306.95	57.86
307.164	29.18
307.379	51.71
307.593	160.25
307.807	119.29
308.021	115.2
308.235	33.28
308.449	-140.8
308.663	-50.69
308.877	168.45
309.091	72.19
309.305	27.14
309.519	-91.65
309.733	100.86
309.947	2.56
310.161	43.52
310.374	107.01
310.588	80.38
310.802	-40.45
311.016	-54.78
311.23	66.05
311.444	-34.3
311.658	-11.78
311.872	127.49
312.085	86.53
312.299	82.43
312.513	84.48
312.727	72.19
312.941	-22.02
313.154	29.18
313.368	-60.93
313.582	18.94
313.796	49.66
314.009	29.18
314.223	137.73
314.437	76.29
314.651	133.63
314.864	18.94
315.078	-36.35
315.292	-77.31
315.505	6.66
315.719	86.53
315.933	82.43
316.146	-1.54
316.36	27.14
316.573	193.02
316.787	53.76
317.001	90.62
317.214	-60.93
317.428	49.66
317.641	-60.93
317.855	-11.78
318.068	4.61
318.282	-22.02
318.495	246.27
318.709	121.34
318.922	29.18
319.136	156.16
319.349	27.14
319.563	-95.74
319.776	96.77
319.99	-62.98
320.203	35.33
320.417	23.04
320.63	113.15
320.843	115.2
321.057	84.48
321.27	41.47
321.483	29.18
321.697	104.96
321.91	59.9
322.124	-30.21
322.337	68.09
322.55	8.7
322.763	35.33
322.977	-1.54
323.19	-52.74
323.403	14.85
323.617	4.61
323.83	119.29
324.043	41.47
324.256	8.7
324.469	-36.35
324.683	107.01
324.896	43.52
325.109	49.66
325.322	-140.8
325.535	64
325.748	86.53
325.962	-9.73
326.175	41.47
326.388	-11.78
326.601	104.96
326.814	-7.68
327.027	31.23
327.24	131.58
327.453	-91.65
327.666	68.09
327.879	119.29
328.092	94.72
328.305	109.05
328.518	23.04
328.731	6.66
328.944	35.33
329.157	82.43
329.37	39.42
329.583	213.5
329.796	115.2
330.009	-42.5
330.222	53.76
330.435	43.52
330.648	102.91
330.861	70.14
331.073	72.19
331.286	6.66
331.499	14.85
331.712	-11.78
331.925	12.8
332.138	-22.02
332.35	96.77
332.563	-3.58
332.776	27.14
332.989	-54.78
333.202	23.04
333.414	14.85
333.627	29.18
333.84	43.52
334.053	68.09
334.265	-56.83
334.478	0.51
334.691	49.66
334.903	96.77
335.116	-46.59
335.329	61.95
335.541	102.91
335.754	209.4
335.966	-5.63
336.179	-1.54
336.392	-11.78
336.604	72.19
336.817	109.05
337.029	133.63
337.242	2.56
337.454	20.99
337.667	-9.73
337.88	119.29
338.092	49.66
338.305	78.33
338.517	23.04
338.729	47.62
338.942	72.19
339.154	-136.7
339.367	-30.21
339.579	66.05
339.792	-89.6
340.004	12.8
340.217	55.81
340.429	90.62
340.641	-97.79
340.854	16.9
341.066	-75.26
341.278	119.29
341.491	154.11
341.703	45.57
341.915	4.61
342.128	49.66
342.34	33.28
342.552	-52.74
342.764	-13.82
342.977	-13.82
343.189	84.48
343.401	49.66
343.613	-167.42
343.826	102.91
344.038	-99.84
344.25	47.62
344.462	-50.69
344.674	61.95
344.886	-15.87
345.099	16.9
345.311	113.15
345.523	-83.45
345.735	-118.27
345.947	6.66
346.159	92.67
346.371	-3.58
346.583	37.38
346.795	201.21
347.007	31.23
347.219	78.33
347.431	-50.69
347.643	88.57
347.855	-50.69
348.067	115.2
348.279	-22.02
348.491	47.62
348.703	68.09
348.915	16.9
349.127	-89.6
349.339	23.04
349.551	23.04
349.763	84.48
349.975	-11.78
350.187	88.57
350.399	94.72
350.61	14.85
350.822	-1.54
351.034	12.8
351.246	14.85
351.458	23.04
351.669	96.77
351.881	84.48
352.093	27.14
352.305	107.01
352.517	64
352.728	70.14
352.94	39.42
353.152	31.23
353.363	-83.45
353.575	-5.63
353.787	170.49
353.999	-19.97
354.21	147.97
354.422	74.24
354.633	53.76
354.845	-17.92
355.057	115.2
355.268	-7.68
355.48	199.16
355.692	-28.16
355.903	6.66
356.115	-54.78
356.326	-54.78
356.538	160.25
356.749	43.52
356.961	143.87
357.172	133.63
357.384	-38.4
357.595	152.06
357.807	-26.11
358.018	6.66
358.23	16.9
358.441	131.58
358.653	37.38
358.864	16.9
359.075	25.09
359.287	16.9
359.498	78.33
359.709	64
359.921	20.99
360.132	90.62
360.344	20.99
360.555	-11.78
360.766	14.85
360.977	49.66
361.189	143.87
361.4	2.56
361.611	37.38
361.823	12.8
362.034	25.09
362.245	-81.41
362.456	-32.26
362.667	78.33
362.879	-85.5
363.09	72.19
363.301	-11.78
363.512	31.23
363.723	-32.26
363.935	27.14
364.146	117.25
364.357	-75.26
364.568	78.33
364.779	16.9
364.99	156.16
365.201	-62.98
365.412	115.2
365.623	-81.41
365.834	29.18
366.045	100.86
366.256	117.25
366.467	82.43
366.678	-19.97
366.889	8.7
367.1	20.99
367.311	68.09
367.522	-30.21
367.733	117.25
367.944	94.72
368.155	-42.5
368.366	137.73
368.577	23.04
368.788	72.19
368.999	-15.87
369.209	20.99
369.42	129.53
369.631	225.79
369.842	80.38
370.053	-40.45
370.264	88.57
370.474	-40.45
370.685	61.95
370.896	-26.11
371.107	104.96
371.317	94.72
371.528	51.71
371.739	158.21
371.95	100.86
372.16	49.66
372.371	-69.12
372.582	-17.92
372.792	59.9
373.003	88.57
373.214	51.71
373.424	74.24
373.635	-9.73
373.846	94.72
374.056	31.23
374.267	96.77
374.477	72.19
374.688	-58.88
374.898	14.85
375.109	-26.11
375.319	80.38
375.53	113.15
375.74	88.57
375.951	-24.06
376.161	82.43
376.372	117.25
376.582	-79.36
376.793	43.52
377.003	-7.68
377.214	-42.5
377.424	113.15
377.635	-19.97
377.845	-26.11
378.055	84.48
378.266	-11.78
378.476	-34.3
378.686	35.33
378.897	18.94
379.107	113.15
379.317	20.99
379.528	39.42
379.738	92.67
379.948	0.51
380.158	33.28
380.369	135.68
380.579	4.61
380.789	4.61
380.999	59.9
381.21	90.62
381.42	162.3
381.63	2.56
381.84	2.56
382.05	45.57
382.261	156.16
382.471	162.3
382.681	12.8
382.891	174.59
383.101	-24.06
383.311	-11.78
383.521	37.38
383.731	59.9
383.941	27.14
384.151	39.42
384.361	74.24
384.571	86.53
384.781	20.99
384.991	166.4
385.201	168.45
385.411	143.87
385.621	72.19
385.831	80.38
386.041	80.38
386.251	33.28
386.461	66.05
386.671	-34.3
386.881	88.57
387.091	37.38
387.301	98.81
387.511	66.05
387.72	23.04
387.93	109.05
388.14	-110.08
388.35	18.94
388.56	117.25
388.769	152.06
388.979	23.04
389.189	-1.54
389.399	55.81
389.609	35.33
389.818	115.2
390.028	-48.64
390.238	125.44
390.447	-40.45
390.657	-1.54
390.867	45.57
391.076	-46.59
391.286	20.99
391.496	-38.4
391.705	18.94
391.915	152.06
392.125	96.77
392.334	18.94
392.544	178.69
392.753	57.86
392.963	6.66
393.172	8.7
393.382	-54.78
393.591	82.43
393.801	-13.82
394.01	184.83
394.22	74.24
394.429	78.33
394.639	39.42
394.848	86.53
395.058	61.95
395.267	43.52
395.477	37.38
395.686	82.43
395.895	104.96
396.105	152.06
396.314	72.19
396.524	115.2
396.733	-46.59
396.942	160.25
397.152	39.42
397.361	70.14
397.57	18.94
397.78	-79.36
397.989	98.81
398.198	127.49
398.407	100.86
398.617	10.75
398.826	43.52
399.035	25.09
399.244	143.87
399.453	49.66
399.663	33.28
399.872	119.29
400.081	-50.69
400.29	29.18
400.499	-13.82
400.708	107.01
400.917	0.51
401.127	0.51
401.336	-85.5
401.545	154.11
401.754	133.63
401.963	92.67
402.172	-17.92
402.381	-30.21
402.59	-56.83
402.799	47.62
403.008	96.77
403.217	84.48
403.426	74.24
403.635	-169.47
403.844	-5.63
404.053	14.85
404.262	-11.78
404.471	217.6
404.68	57.86
404.888	6.66
405.097	64
405.306	-1.54
405.515	41.47
405.724	64
405.933	141.82
406.142	29.18
406.35	113.15
406.559	-7.68
406.768	10.75
406.977	88.57
407.185	37.38
407.394	18.94
407.603	-85.5
407.812	78.33
408.02	133.63
408.229	6.66
408.438	29.18
408.646	-65.02
408.855	-22.02
409.064	37.38
409.272	-52.74
409.481	43.52
409.69	-54.78
409.898	23.04
410.107	43.52
410.315	82.43
410.524	45.57
410.733	8.7
410.941	6.66
411.15	61.95
411.358	61.95
411.567	178.69
411.775	90.62
411.984	35.33
412.192	92.67
412.401	47.62
412.609	174.59
412.818	57.86
413.026	131.58
413.234	88.57
413.443	8.7
413.651	-65.02
413.86	33.28
414.068	74.24
414.276	143.87
414.485	2.56
414.693	158.21
414.901	195.07
415.11	84.48
415.318	41.47
415.526	47.62
415.734	131.58
415.943	6.66
416.151	61.95
416.359	27.14
416.567	66.05
416.776	29.18
416.984	88.57
417.192	158.21
417.4	4.61
417.608	57.86
417.817	-17.92
418.025	78.33
418.233	156.16
418.441	-93.69
418.649	-56.83
418.857	-46.59
419.065	86.53
419.273	-7.68
419.481	-24.06
419.689	88.57
419.897	18.94
420.105	-103.93
420.313	66.05
420.521	96.77
420.729	80.38
420.937	-48.64
421.145	-22.02
421.353	107.01
421.561	158.21
421.769	104.96
421.977	-22.02
422.185	61.95
422.393	31.23
422.601	23.04
422.809	70.14
423.017	51.71
423.224	51.71
423.432	33.28
423.64	-3.58
423.848	20.99
424.056	29.18
424.263	135.68
424.471	35.33
424.679	88.57
424.887	0.51
425.094	78.33
425.302	119.29
425.51	57.86
425.718	180.73
425.925	8.7
426.133	45.57
426.341	172.54
426.548	68.09
426.756	0.51
426.964	70.14
427.171	-60.93
427.379	96.77
427.586	6.66
427.794	119.29
428.001	121.34
428.209	131.58
428.417	119.29
428.624	217.6
428.832	125.44
429.039	45.57
429.247	37.38
429.454	135.68
429.662	104.96
429.869	102.91
430.076	143.87
430.284	78.33
430.491	141.82
430.699	119.29
430.906	121.34
431.114	90.62
431.321	70.14
431.528	29.18
431.736	141.82
431.943	123.39
432.15	107.01
432.358	145.92
432.565	209.4
432.772	-30.21
432.979	209.4
433.187	139.77
433.394	135.68
433.601	25.09
433.808	174.59
434.016	219.64
434.223	207.36
434.43	211.45
434.637	178.69
434.844	260.6
435.052	178.69
435.259	291.32
435.466	166.4
435.673	141.82
435.88	332.28
436.087	262.65
436.294	260.6
436.501	225.79
436.708	213.5
436.915	195.07
437.122	305.66
437.329	143.87
437.537	215.55
437.743	270.84
437.95	367.1
438.157	242.17
438.364	344.57
438.571	297.47
438.778	354.81
438.985	332.28
439.192	379.39
439.399	270.84
439.606	336.38
439.813	461.3
440.02	457.21
440.227	557.56
440.433	461.3
440.64	389.63
440.847	385.53
441.054	412.15
441.261	487.93
441.467	492.02
441.674	532.98
441.881	563.7
442.088	575.99
442.294	565.75
442.501	633.33
442.708	711.16
442.914	623.09
443.121	666.1
443.328	709.11
443.534	786.93
443.741	711.16
443.948	545.27
444.154	797.17
444.361	946.67
444.568	811.51
444.774	739.83
444.981	768.5
445.187	969.2
445.394	918
445.6	928.24
445.807	1018.35
446.013	1110.51
446.22	897.52
446.426	1028.59
446.633	1159.66
446.839	1370.6
447.046	1104.37
447.252	1221.1
447.459	1307.12
447.665	1282.54
447.871	1473
448.078	1589.74
448.284	1571.3
448.491	1659.37
448.697	1671.65
448.903	1726.95
449.11	1761.77
449.316	1661.41
449.522	1855.97
449.728	2052.58
449.935	1964.51
450.141	2054.62
450.347	2187.74
450.553	2025.95
450.76	2234.85
450.966	2466.27
451.172	2386.4
451.378	2509.27
451.584	2439.64
451.791	2738.65
451.997	2724.31
452.203	2898.39
452.409	3006.93
452.615	3135.95
452.821	3133.9
453.027	3150.29
453.233	3492.3
453.44	3193.3
453.646	3420.62
453.852	3678.66
454.058	3944.9
454.264	3946.95
454.47	4241.86
454.676	4248
454.882	4538.81
455.088	4489.66
455.294	4655.54
455.5	5005.75
455.705	5253.55
455.911	5110.19
456.117	5419.44
456.323	5540.27
456.529	5714.34
456.735	6185.38
456.941	6328.74
457.147	6564.25
457.352	6676.89
457.558	6996.37
457.764	7238.03
457.97	7569.8
458.176	7784.84
458.381	8112.52
458.587	8386.94
458.793	8679.8
458.999	8677.76
459.204	9744.75
459.41	10180.96
459.616	9931.11
459.821	10565.98
460.027	10824.03
460.233	11624.78
460.438	11395.41
460.644	12294.47
460.85	12132.68
461.055	12751.17
461.261	13375.8
461.466	13216.05
461.672	13449.52
461.878	14991.64
462.083	15083.8
462.289	15030.55
462.494	15683.86
462.7	15894.8
462.905	16261.38
463.111	17541.36
463.316	18137.32
463.522	18600.16
463.727	19169.5
463.932	20216.01
464.138	20783.3
464.343	21307.58
464.549	21487.8
464.754	22950.05
464.959	23546.01
465.165	23890.07
465.37	23842.96
465.575	23851.16
465.781	25321.6
465.986	26159.22
466.191	26017.91
466.397	26445.93
466.602	25620.6
466.807	26867.81
467.012	27689.05
467.218	27844.7
467.423	27875.41
467.628	28944.45
467.833	30623.79
468.038	30132.28
468.244	29073.48
468.449	30562.35
468.654	30009.4
468.859	29917.24
469.064	30093.36
469.269	29280.32
469.474	29775.93
