Data from USB4F104151__37__11-26-31-093.txt Node

Date: Wed Feb 26 11:26:31 EST 2025
User: louis
Spectrometer: USB4F10415
Trigger mode: 4
Integration Time (sec): 1.000000E-1
Scans to average: 1
Electric dark correction enabled: true
Nonlinearity correction enabled: false
Boxcar width: 0
XAxis mode: Wavelengths
Number of Pixels in Spectrum: 3648
>>>>>Begin Spectral Data<<<<<
178.204	-361.3
178.424	-361.3
178.644	-361.3
178.864	-361.3
179.084	-430.93
179.304	-0.85
179.524	-7
179.744	15.53
179.964	54.44
180.184	-64.34
180.404	40.11
180.624	-29.52
180.844	9.39
181.064	-37.72
181.283	52.39
181.503	-68.44
181.723	36.01
181.943	-76.63
182.163	214.18
182.383	-35.67
182.602	91.31
182.822	134.31
183.042	126.12
183.262	25.77
183.482	15.53
183.701	79.02
183.921	50.35
184.141	-52.05
184.361	62.63
184.58	23.72
184.8	58.54
185.02	33.96
185.239	52.39
185.459	150.7
185.679	109.74
185.898	-62.29
186.118	107.69
186.338	105.64
186.557	132.26
186.777	19.63
186.997	52.39
187.216	21.67
187.436	117.93
187.655	33.96
187.875	142.5
188.095	46.25
188.314	193.7
188.534	109.74
188.753	-64.34
188.973	156.84
189.192	146.6
189.412	64.68
189.631	95.4
189.851	122.02
190.07	189.61
190.29	-35.67
190.509	-4.95
190.729	27.82
190.948	107.69
191.168	285.86
191.387	117.93
191.607	-19.29
191.826	113.83
192.045	48.3
192.265	-41.81
192.484	146.6
192.704	-41.81
192.923	-9.05
193.142	173.22
193.362	70.83
193.581	171.18
193.8	105.64
194.02	124.07
194.239	27.82
194.458	52.39
194.678	-21.33
194.897	-43.86
195.116	97.45
195.335	48.3
195.555	128.17
195.774	21.67
195.993	93.35
196.212	-7
196.432	58.54
196.651	50.35
196.87	64.68
197.089	281.77
197.308	62.63
197.528	101.55
197.747	-29.52
197.966	48.3
198.185	85.16
198.404	-27.48
198.623	85.16
198.842	162.98
199.062	81.07
199.281	193.7
199.5	-23.38
199.719	81.07
199.938	103.59
200.157	93.35
200.376	44.2
200.595	115.88
200.814	83.11
201.033	9.39
201.252	119.98
201.471	42.15
201.69	50.35
201.909	87.21
202.128	132.26
202.347	142.5
202.566	68.78
202.785	-47.96
203.004	-25.43
203.223	310.44
203.442	38.06
203.661	-56.15
203.879	99.5
204.098	165.03
204.317	-7
204.536	107.69
204.755	44.2
204.974	134.31
205.193	44.2
205.411	134.31
205.63	128.17
205.849	58.54
206.068	89.26
206.287	-7
206.505	146.6
206.724	27.82
206.943	9.39
207.162	13.48
207.381	89.26
207.599	27.82
207.818	38.06
208.037	-27.48
208.255	31.91
208.474	48.3
208.693	-35.67
208.911	19.63
209.13	142.5
209.349	148.65
209.567	66.73
209.786	76.97
210.005	66.73
210.223	42.15
210.442	-72.53
210.661	-37.72
210.879	97.45
211.098	81.07
211.316	93.35
211.535	31.91
211.753	136.36
211.972	58.54
212.191	1.19
212.409	36.01
212.628	130.22
212.846	17.58
213.065	72.87
213.283	109.74
213.502	-39.76
213.72	99.5
213.938	46.25
214.157	85.16
214.375	124.07
214.594	-2.9
214.812	29.87
215.031	13.48
215.249	25.77
215.467	-23.38
215.686	46.25
215.904	74.92
216.122	62.63
216.341	91.31
216.559	79.02
216.778	111.78
216.996	17.58
217.214	1.19
217.432	31.91
217.651	-39.76
217.869	76.97
218.087	-27.48
218.306	-27.48
218.524	38.06
218.742	3.24
218.96	91.31
219.179	70.83
219.397	-52.05
219.615	246.95
219.833	150.7
220.051	33.96
220.27	144.55
220.488	54.44
220.706	31.91
220.924	1.19
221.142	-78.68
221.36	89.26
221.578	83.11
221.796	11.43
222.015	60.59
222.233	83.11
222.451	128.17
222.669	-31.57
222.887	60.59
223.105	1.19
223.323	58.54
223.541	-72.53
223.759	38.06
223.977	33.96
224.195	173.22
224.413	128.17
224.631	31.91
224.849	33.96
225.067	183.46
225.285	5.29
225.503	13.48
225.721	-121.68
225.939	132.26
226.157	-0.85
226.375	208.04
226.592	36.01
226.81	66.73
227.028	140.46
227.246	115.88
227.464	36.01
227.682	146.6
227.9	42.15
228.117	15.53
228.335	117.93
228.553	3.24
228.771	17.58
228.989	70.83
229.206	117.93
229.424	31.91
229.642	70.83
229.86	-39.76
230.077	122.02
230.295	27.82
230.513	115.88
230.731	85.16
230.948	279.72
231.166	156.84
231.384	52.39
231.601	-39.76
231.819	185.51
232.037	9.39
232.254	31.91
232.472	-29.52
232.689	56.49
232.907	173.22
233.125	17.58
233.342	-29.52
233.56	46.25
233.777	89.26
233.995	117.93
234.213	81.07
234.43	50.35
234.648	95.4
234.865	113.83
235.083	134.31
235.3	21.67
235.518	111.78
235.735	128.17
235.953	115.88
236.17	23.72
236.388	27.82
236.605	-37.72
236.822	97.45
237.04	154.79
237.257	58.54
237.475	-0.85
237.692	72.87
237.909	74.92
238.127	-15.19
238.344	13.48
238.562	-4.95
238.779	-52.05
238.996	-19.29
239.214	21.67
239.431	115.88
239.648	50.35
239.865	136.36
240.083	103.59
240.3	40.11
240.517	27.82
240.735	15.53
240.952	132.26
241.169	95.4
241.386	142.5
241.603	52.39
241.821	-29.52
242.038	58.54
242.255	105.64
242.472	-0.85
242.689	62.63
242.907	117.93
243.124	93.35
243.341	74.92
243.558	7.34
243.775	-66.39
243.992	-109.4
244.209	99.5
244.426	162.98
244.643	105.64
244.86	-35.67
245.078	109.74
245.295	38.06
245.512	31.91
245.729	-37.72
245.946	74.92
246.163	111.78
246.38	15.53
246.597	130.22
246.814	38.06
247.031	83.11
247.248	-4.95
247.464	144.55
247.681	44.2
247.898	91.31
248.115	68.78
248.332	11.43
248.549	148.65
248.766	210.09
248.983	85.16
249.2	40.11
249.417	117.93
249.633	60.59
249.85	85.16
250.067	23.72
250.284	-23.38
250.501	83.11
250.717	124.07
250.934	-52.05
251.151	46.25
251.368	-64.34
251.585	38.06
251.801	85.16
252.018	-21.33
252.235	1.19
252.451	-45.91
252.668	-43.86
252.885	165.03
253.102	21.67
253.318	27.82
253.535	19.63
253.752	-19.29
253.968	62.63
254.185	-45.91
254.401	87.21
254.618	52.39
254.835	23.72
255.051	181.42
255.268	21.67
255.484	56.49
255.701	76.97
255.917	99.5
256.134	-29.52
256.351	-9.05
256.567	11.43
256.784	128.17
257	-41.81
257.217	144.55
257.433	105.64
257.65	60.59
257.866	242.85
258.082	-45.91
258.299	21.67
258.515	46.25
258.732	-21.33
258.948	-41.81
259.165	111.78
259.381	-37.72
259.597	48.3
259.814	11.43
260.03	64.68
260.246	11.43
260.463	105.64
260.679	111.78
260.895	64.68
261.112	31.91
261.328	48.3
261.544	36.01
261.761	199.85
261.977	-19.29
262.193	-64.34
262.409	119.98
262.626	-2.9
262.842	-37.72
263.058	46.25
263.274	173.22
263.49	44.2
263.707	91.31
263.923	62.63
264.139	-60.24
264.355	-95.06
264.571	146.6
264.787	103.59
265.004	154.79
265.22	25.77
265.436	25.77
265.652	44.2
265.868	128.17
266.084	-47.96
266.3	3.24
266.516	-7
266.732	95.4
266.948	89.26
267.164	15.53
267.38	126.12
267.596	132.26
267.812	167.08
268.028	50.35
268.244	76.97
268.46	58.54
268.676	-35.67
268.892	119.98
269.108	-70.48
269.324	-82.77
269.54	-86.87
269.756	27.82
269.972	-13.14
270.188	107.69
270.403	7.34
270.619	33.96
270.835	117.93
271.051	60.59
271.267	3.24
271.483	38.06
271.698	113.83
271.914	95.4
272.13	60.59
272.346	66.73
272.562	44.2
272.777	179.37
272.993	74.92
273.209	-27.48
273.425	154.79
273.64	9.39
273.856	62.63
274.072	-29.52
274.287	25.77
274.503	64.68
274.719	134.31
274.934	58.54
275.15	-111.44
275.366	15.53
275.581	-52.05
275.797	13.48
276.012	70.83
276.228	27.82
276.444	83.11
276.659	189.61
276.875	-4.95
277.09	40.11
277.306	76.97
277.521	33.96
277.737	31.91
277.952	111.78
278.168	68.78
278.383	50.35
278.599	46.25
278.814	50.35
279.03	17.58
279.245	150.7
279.461	1.19
279.676	52.39
279.892	-11.09
280.107	40.11
280.322	19.63
280.538	76.97
280.753	-2.9
280.969	79.02
281.184	31.91
281.399	197.8
281.615	107.69
281.83	-15.19
282.045	-68.44
282.26	-21.33
282.476	1.19
282.691	29.87
282.906	79.02
283.122	58.54
283.337	-7
283.552	128.17
283.767	119.98
283.983	103.59
284.198	-25.43
284.413	113.83
284.628	-33.62
284.843	25.77
285.058	150.7
285.274	17.58
285.489	-23.38
285.704	56.49
285.919	-13.14
286.134	76.97
286.349	66.73
286.564	-35.67
286.779	171.18
286.995	66.73
287.21	-70.48
287.425	19.63
287.64	-2.9
287.855	79.02
288.07	-72.53
288.285	158.89
288.5	148.65
288.715	119.98
288.93	-21.33
289.145	17.58
289.36	152.74
289.575	-82.77
289.79	124.07
290.004	95.4
290.219	103.59
290.434	99.5
290.649	29.87
290.864	-21.33
291.079	74.92
291.294	21.67
291.509	107.69
291.724	74.92
291.938	-11.09
292.153	68.78
292.368	38.06
292.583	48.3
292.798	134.31
293.012	29.87
293.227	56.49
293.442	-7
293.657	17.58
293.871	103.59
294.086	33.96
294.301	220.33
294.516	205.99
294.73	107.69
294.945	-47.96
295.16	29.87
295.374	107.69
295.589	148.65
295.804	-84.82
296.018	83.11
296.233	191.66
296.447	113.83
296.662	-4.95
296.877	179.37
297.091	91.31
297.306	33.96
297.52	3.24
297.735	97.45
297.949	13.48
298.164	40.11
298.378	62.63
298.593	9.39
298.807	44.2
299.022	66.73
299.236	132.26
299.451	3.24
299.665	21.67
299.88	58.54
300.094	83.11
300.309	54.44
300.523	138.41
300.737	7.34
300.952	89.26
301.166	85.16
301.381	36.01
301.595	-9.05
301.809	27.82
302.024	56.49
302.238	-58.2
302.452	107.69
302.667	52.39
302.881	122.02
303.095	126.12
303.309	74.92
303.524	29.87
303.738	17.58
303.952	29.87
304.166	72.87
304.381	-86.87
304.595	113.83
304.809	1.19
305.023	64.68
305.237	-0.85
305.452	42.15
305.666	9.39
305.88	160.94
306.094	199.85
306.308	81.07
306.522	124.07
306.736	58.54
306.95	74.92
307.164	17.58
307.379	-2.9
307.593	136.36
307.807	93.35
308.021	107.69
308.235	-9.05
308.449	-13.14
308.663	76.97
308.877	255.14
309.091	64.68
309.305	126.12
309.519	-7
309.733	148.65
309.947	-39.76
310.161	15.53
310.374	85.16
310.588	191.66
310.802	15.53
311.016	31.91
311.23	89.26
311.444	-25.43
311.658	85.16
311.872	130.22
312.085	76.97
312.299	158.89
312.513	117.93
312.727	56.49
312.941	-39.76
313.154	93.35
313.368	81.07
313.582	128.17
313.796	60.59
314.009	5.29
314.223	185.51
314.437	17.58
314.651	87.21
314.864	54.44
315.078	21.67
315.292	-19.29
315.505	3.24
315.719	1.19
315.933	130.22
316.146	11.43
316.36	-9.05
316.573	162.98
316.787	101.55
317.001	107.69
317.214	29.87
317.428	-11.09
317.641	-82.77
317.855	9.39
318.068	132.26
318.282	79.02
318.495	187.56
318.709	167.08
318.922	52.39
319.136	148.65
319.349	9.39
319.563	46.25
319.776	87.21
319.99	15.53
320.203	50.35
320.417	38.06
320.63	79.02
320.843	140.46
321.057	52.39
321.27	154.79
321.483	111.78
321.697	126.12
321.91	36.01
322.124	29.87
322.337	74.92
322.55	50.35
322.763	33.96
322.977	-0.85
323.19	40.11
323.403	76.97
323.617	54.44
323.83	185.51
324.043	9.39
324.256	85.16
324.469	-13.14
324.683	113.83
324.896	44.2
325.109	62.63
325.322	-121.68
325.535	97.45
325.748	136.36
325.962	42.15
326.175	54.44
326.388	52.39
326.601	171.18
326.814	64.68
327.027	60.59
327.24	142.5
327.453	-119.64
327.666	150.7
327.879	109.74
328.092	146.6
328.305	38.06
328.518	-2.9
328.731	-41.81
328.944	9.39
329.157	48.3
329.37	52.39
329.583	212.14
329.796	142.5
330.009	-0.85
330.222	15.53
330.435	101.55
330.648	95.4
330.861	62.63
331.073	115.88
331.286	160.94
331.499	99.5
331.712	-52.05
331.925	113.83
332.138	-9.05
332.35	52.39
332.563	38.06
332.776	130.22
332.989	5.29
333.202	66.73
333.414	40.11
333.627	-37.72
333.84	38.06
334.053	5.29
334.265	-50
334.478	-86.87
334.691	46.25
334.903	-17.24
335.116	15.53
335.329	-31.57
335.541	52.39
335.754	189.61
335.966	99.5
336.179	17.58
336.392	-13.14
336.604	68.78
336.817	122.02
337.029	105.64
337.242	83.11
337.454	85.16
337.667	48.3
337.88	113.83
338.092	95.4
338.305	66.73
338.517	-47.96
338.729	150.7
338.942	140.46
339.154	-13.14
339.367	-7
339.579	66.73
339.792	74.92
340.004	68.78
340.217	109.74
340.429	36.01
340.641	-9.05
340.854	-7
341.066	40.11
341.278	179.37
341.491	191.66
341.703	70.83
341.915	-54.1
342.128	107.69
342.34	85.16
342.552	-29.52
342.764	23.72
342.977	-2.9
343.189	58.54
343.401	50.35
343.613	-33.62
343.826	9.39
344.038	-7
344.25	79.02
344.462	48.3
344.674	97.45
344.886	74.92
345.099	107.69
345.311	158.89
345.523	58.54
345.735	-78.68
345.947	85.16
346.159	134.31
346.371	48.3
346.583	38.06
346.795	150.7
347.007	-0.85
347.219	27.82
347.431	9.39
347.643	89.26
347.855	-95.06
348.067	117.93
348.279	-95.06
348.491	36.01
348.703	179.37
348.915	52.39
349.127	68.78
349.339	89.26
349.551	40.11
349.763	46.25
349.975	7.34
350.187	122.02
350.399	97.45
350.61	76.97
350.822	1.19
351.034	42.15
351.246	68.78
351.458	44.2
351.669	48.3
351.881	70.83
352.093	85.16
352.305	87.21
352.517	107.69
352.728	181.42
352.94	122.02
353.152	101.55
353.363	-11.09
353.575	83.11
353.787	165.03
353.999	60.59
354.21	89.26
354.422	87.21
354.633	40.11
354.845	87.21
355.057	81.07
355.268	33.96
355.48	136.36
355.692	-21.33
355.903	68.78
356.115	-41.81
356.326	-78.68
356.538	193.7
356.749	40.11
356.961	128.17
357.172	109.74
357.384	13.48
357.595	199.85
357.807	31.91
358.018	23.72
358.23	68.78
358.441	175.27
358.653	48.3
358.864	89.26
359.075	-29.52
359.287	119.98
359.498	60.59
359.709	66.73
359.921	58.54
360.132	15.53
360.344	17.58
360.555	-35.67
360.766	91.31
360.977	23.72
361.189	113.83
361.4	-23.38
361.611	158.89
361.823	101.55
362.034	29.87
362.245	-76.63
362.456	13.48
362.667	128.17
362.879	23.72
363.09	70.83
363.301	99.5
363.512	64.68
363.723	-7
363.935	58.54
364.146	115.88
364.357	66.73
364.568	68.78
364.779	-39.76
364.99	167.08
365.201	-0.85
365.412	40.11
365.623	-115.54
365.834	70.83
366.045	60.59
366.256	-0.85
366.467	91.31
366.678	91.31
366.889	58.54
367.1	19.63
367.311	72.87
367.522	-2.9
367.733	66.73
367.944	101.55
368.155	113.83
368.366	87.21
368.577	48.3
368.788	122.02
368.999	-41.81
369.209	79.02
369.42	242.85
369.631	281.77
369.842	113.83
370.053	25.77
370.264	109.74
370.474	-35.67
370.685	93.35
370.896	9.39
371.107	119.98
371.317	95.4
371.528	1.19
371.739	130.22
371.95	93.35
372.16	113.83
372.371	-52.05
372.582	3.24
372.792	68.78
373.003	95.4
373.214	54.44
373.424	54.44
373.635	-13.14
373.846	150.7
374.056	27.82
374.267	44.2
374.477	31.91
374.688	-62.29
374.898	105.64
375.109	38.06
375.319	66.73
375.53	156.84
375.74	54.44
375.951	23.72
376.161	91.31
376.372	91.31
376.582	66.73
376.793	107.69
377.003	-17.24
377.214	-19.29
377.424	72.87
377.635	99.5
377.845	25.77
378.055	134.31
378.266	-15.19
378.476	109.74
378.686	70.83
378.897	66.73
379.107	173.22
379.317	48.3
379.528	-11.09
379.738	23.72
379.948	-15.19
380.158	52.39
380.369	50.35
380.579	97.45
380.789	15.53
380.999	50.35
381.21	62.63
381.42	167.08
381.63	-33.62
381.84	101.55
382.05	11.43
382.261	165.03
382.471	74.92
382.681	40.11
382.891	44.2
383.101	136.36
383.311	-27.48
383.521	23.72
383.731	79.02
383.941	126.12
384.151	68.78
384.361	42.15
384.571	36.01
384.781	109.74
384.991	167.08
385.201	193.7
385.411	97.45
385.621	87.21
385.831	107.69
386.041	17.58
386.251	105.64
386.461	111.78
386.671	44.2
386.881	134.31
387.091	58.54
387.301	111.78
387.511	103.59
387.72	124.07
387.93	60.59
388.14	-136.02
388.35	97.45
388.56	142.5
388.769	169.13
388.979	95.4
389.189	-21.33
389.399	115.88
389.609	52.39
389.818	66.73
390.028	7.34
390.238	142.5
390.447	-33.62
390.657	89.26
390.867	38.06
391.076	1.19
391.286	58.54
391.496	-50
391.705	17.58
391.915	101.55
392.125	101.55
392.334	3.24
392.544	205.99
392.753	21.67
392.963	19.63
393.172	-15.19
393.382	-35.67
393.591	146.6
393.801	-31.57
394.01	173.22
394.22	66.73
394.429	36.01
394.639	13.48
394.848	1.19
395.058	70.83
395.267	111.78
395.477	72.87
395.686	23.72
395.895	185.51
396.105	234.66
396.314	56.49
396.524	66.73
396.733	81.07
396.942	76.97
397.152	87.21
397.361	160.94
397.57	52.39
397.78	52.39
397.989	138.41
398.198	146.6
398.407	13.48
398.617	33.96
398.826	111.78
399.035	9.39
399.244	23.72
399.453	76.97
399.663	40.11
399.872	95.4
400.081	-58.2
400.29	173.22
400.499	46.25
400.708	183.46
400.917	19.63
401.127	-29.52
401.336	-7
401.545	183.46
401.754	107.69
401.963	81.07
402.172	31.91
402.381	-27.48
402.59	-45.91
402.799	58.54
403.008	154.79
403.217	50.35
403.426	52.39
403.635	-113.49
403.844	91.31
404.053	42.15
404.262	62.63
404.471	107.69
404.68	-45.91
404.888	74.92
405.097	103.59
405.306	68.78
405.515	154.79
405.724	29.87
405.933	126.12
406.142	60.59
406.35	134.31
406.559	-15.19
406.768	40.11
406.977	162.98
407.185	81.07
407.394	46.25
407.603	-13.14
407.812	3.24
408.02	134.31
408.229	42.15
408.438	119.98
408.646	36.01
408.855	83.11
409.064	42.15
409.272	-0.85
409.481	119.98
409.69	15.53
409.898	-29.52
410.107	101.55
410.315	138.41
410.524	7.34
410.733	46.25
410.941	19.63
411.15	85.16
411.358	72.87
411.567	165.03
411.775	15.53
411.984	54.44
412.192	-23.38
412.401	38.06
412.609	228.52
412.818	130.22
413.026	99.5
413.234	58.54
413.443	119.98
413.651	-64.34
413.86	48.3
414.068	183.46
414.276	169.13
414.485	-17.24
414.693	134.31
414.901	193.7
415.11	50.35
415.318	68.78
415.526	115.88
415.734	111.78
415.943	81.07
416.151	117.93
416.359	13.48
416.567	68.78
416.776	83.11
416.984	171.18
417.192	126.12
417.4	66.73
417.608	105.64
417.817	13.48
418.025	134.31
418.233	134.31
418.441	-0.85
418.649	-21.33
418.857	101.55
419.065	160.94
419.273	48.3
419.481	83.11
419.689	111.78
419.897	-19.29
420.105	-21.33
420.313	107.69
420.521	66.73
420.729	150.7
420.937	-27.48
421.145	-25.43
421.353	113.83
421.561	222.38
421.769	52.39
421.977	17.58
422.185	66.73
422.393	23.72
422.601	122.02
422.809	68.78
423.017	72.87
423.224	68.78
423.432	214.18
423.64	25.77
423.848	142.5
424.056	58.54
424.263	85.16
424.471	60.59
424.679	167.08
424.887	-11.09
425.094	70.83
425.302	128.17
425.51	52.39
425.718	158.89
425.925	97.45
426.133	29.87
426.341	314.53
426.548	95.4
426.756	111.78
426.964	87.21
427.171	70.83
427.379	11.43
427.586	117.93
427.794	150.7
428.001	136.36
428.209	115.88
428.417	158.89
428.624	128.17
428.832	193.7
429.039	191.66
429.247	115.88
429.454	201.9
429.662	224.42
429.869	199.85
430.076	89.26
430.284	216.23
430.491	134.31
430.699	171.18
430.906	240.81
431.114	105.64
431.321	173.22
431.528	122.02
431.736	107.69
431.943	124.07
432.15	244.9
432.358	230.57
432.565	281.77
432.772	54.44
432.979	165.03
433.187	122.02
433.394	316.58
433.601	56.49
433.808	281.77
434.016	320.68
434.223	236.71
434.43	191.66
434.637	298.15
434.844	328.87
435.052	302.25
435.259	324.77
435.466	308.39
435.673	224.42
435.88	373.92
436.087	425.12
436.294	418.98
436.501	322.73
436.708	292.01
436.915	316.58
437.122	386.21
437.329	269.48
437.537	470.18
437.743	349.35
437.95	466.08
438.157	429.22
438.364	414.88
438.571	513.19
438.778	605.35
438.985	517.28
439.192	586.91
439.399	416.93
439.606	554.15
439.813	554.15
440.02	705.7
440.227	709.79
440.433	685.22
440.64	609.44
440.847	584.87
441.054	648.35
441.261	771.23
441.467	679.07
441.674	672.93
441.881	773.28
442.088	707.74
442.294	724.13
442.501	836.77
442.708	918.68
442.914	865.44
443.121	922.78
443.328	906.4
443.534	1066.14
443.741	998.56
443.948	982.17
444.154	1119.39
444.361	1172.63
444.568	1195.16
444.774	1150.11
444.981	1105.05
445.187	1244.31
445.394	1367.19
445.6	1315.99
445.807	1416.34
446.013	1387.67
446.22	1420.44
446.426	1596.56
446.633	1561.75
446.839	1797.26
447.046	1670.29
447.252	1799.31
447.459	1768.59
447.665	1746.06
447.871	2036.88
448.078	2139.27
448.284	2061.45
448.491	2192.52
448.697	2251.91
448.903	2401.41
449.11	2374.79
449.316	2395.27
449.522	2569.35
449.728	2686.08
449.935	2833.54
450.141	2815.1
450.347	3177.59
450.553	3052.67
450.76	3146.87
450.966	3300.47
451.172	3300.47
451.378	3540.08
451.584	3499.13
451.791	3687.54
451.997	3980.4
452.203	3861.62
452.409	4244.59
452.615	4367.46
452.821	4220.01
453.027	4316.26
453.233	4762.72
453.44	4650.08
453.646	4971.61
453.852	5188.7
454.058	5153.88
454.264	5422.17
454.47	5766.23
454.676	5833.81
454.882	6315.08
455.088	5956.69
455.294	6429.77
455.5	6956.1
455.705	7126.08
455.911	7179.33
456.117	7357.5
456.323	7619.64
456.529	7719.99
456.735	8371.24
456.941	8547.37
457.147	8963.11
457.352	9194.53
457.558	9425.95
457.764	10038.29
457.97	10165.26
458.176	10605.58
458.381	11256.83
458.587	11480.06
458.793	11879.41
458.999	12033.01
459.204	13571.04
459.41	14033.88
459.616	13632.47
459.821	14537.68
460.027	15086.53
460.233	15670.2
460.438	15926.2
460.644	16909.22
460.85	16976.81
461.055	17605.53
461.261	18473.87
461.466	18176.92
461.672	18545.55
461.878	20859.76
462.083	20663.15
462.289	20867.95
462.494	21642.08
462.7	21887.84
462.905	22027.1
463.111	23878.46
463.316	24843.06
463.522	25477.93
463.727	25897.76
463.932	27331.34
464.138	28091.13
464.343	29422.31
464.549	29291.24
464.754	31490.76
464.959	32514.75
465.165	32819.89
465.37	33082.03
465.575	32594.62
465.781	34976.4
465.986	36250.24
466.191	35512.97
466.397	35689.1
466.602	34749.08
466.807	36985.46
467.012	37818.99
467.218	38163.04
467.423	38312.55
467.628	39522.9
467.833	41380.4
468.038	40723.01
468.244	39975.5
468.449	42060.33
