Data from USB4F104151__100__10-35-37-127.txt Node

Date: Wed Feb 26 10:35:37 EST 2025
User: louis
Spectrometer: USB4F10415
Trigger mode: 4
Integration Time (sec): 1.000000E-1
Scans to average: 1
Electric dark correction enabled: true
Nonlinearity correction enabled: false
Boxcar width: 0
XAxis mode: Wavelengths
Number of Pixels in Spectrum: 3648
>>>>>Begin Spectral Data<<<<<
178.204	-419.49
178.424	-419.49
178.644	-419.49
178.864	-472.74
179.084	-347.81
179.304	10.58
179.524	41.3
179.744	16.73
179.964	6.49
180.184	-26.28
180.404	47.44
180.624	18.77
180.844	63.83
181.064	-77.48
181.283	-63.15
181.503	-79.53
181.723	41.3
181.943	-54.95
182.163	168.27
182.383	-73.39
182.602	55.64
182.822	45.4
183.042	88.4
183.262	-91.82
183.482	2.39
183.701	0.34
183.921	12.63
184.141	-81.58
184.361	119.12
184.58	69.97
184.8	63.83
185.02	-11.95
185.239	141.65
185.459	86.36
185.679	166.23
185.898	-73.39
186.118	26.96
186.338	-34.47
186.557	223.57
186.777	78.16
186.997	-42.67
187.216	12.63
187.436	129.36
187.655	69.97
187.875	61.78
188.095	-5.8
188.314	141.65
188.534	108.88
188.753	-26.28
188.973	98.64
189.192	205.14
189.412	29.01
189.631	53.59
189.851	63.83
190.07	215.38
190.29	-59.05
190.509	2.39
190.729	16.73
190.948	178.51
191.168	235.86
191.387	78.16
191.607	10.58
191.826	67.92
192.045	125.27
192.265	0.34
192.484	82.26
192.704	37.2
192.923	-44.71
193.142	192.85
193.362	121.17
193.581	166.23
193.8	92.5
194.02	80.21
194.239	-20.14
194.458	45.4
194.678	-1.71
194.897	78.16
195.116	41.3
195.335	39.25
195.555	86.36
195.774	24.92
195.993	174.42
196.212	-61.1
196.432	-57
196.651	-13.99
196.87	6.49
197.089	250.19
197.308	61.78
197.528	10.58
197.747	6.49
197.966	47.44
198.185	180.56
198.404	8.53
198.623	155.99
198.842	74.07
199.062	100.69
199.281	98.64
199.5	80.21
199.719	84.31
199.938	74.07
200.157	141.65
200.376	65.88
200.595	119.12
200.814	35.16
201.033	43.35
201.252	164.18
201.471	65.88
201.69	53.59
201.909	14.68
202.128	53.59
202.347	131.41
202.566	18.77
202.785	-34.47
203.004	-32.43
203.223	317.78
203.442	20.82
203.661	-75.43
203.879	63.83
204.098	135.51
204.317	-26.28
204.536	65.88
204.755	84.31
204.974	78.16
205.193	35.16
205.411	78.16
205.63	90.45
205.849	14.68
206.068	41.3
206.287	-22.19
206.505	102.74
206.724	31.06
206.943	-65.19
207.162	-40.62
207.381	86.36
207.599	0.34
207.818	69.97
208.037	-26.28
208.255	35.16
208.474	104.79
208.693	35.16
208.911	47.44
209.13	108.88
209.349	92.5
209.567	88.4
209.786	35.16
210.005	59.73
210.223	6.49
210.442	-75.43
210.661	10.58
210.879	78.16
211.098	45.4
211.316	53.59
211.535	35.16
211.753	108.88
211.972	119.12
212.191	59.73
212.409	4.44
212.628	39.25
212.846	53.59
213.065	-7.85
213.283	49.49
213.502	-59.05
213.72	12.63
213.938	98.64
214.157	18.77
214.375	135.51
214.594	-38.57
214.812	108.88
215.031	31.06
215.249	82.26
215.467	10.58
215.686	26.96
215.904	94.55
216.122	8.53
216.341	137.56
216.559	4.44
216.778	135.51
216.996	182.61
217.214	65.88
217.432	65.88
217.651	-87.72
217.869	121.17
218.087	-18.09
218.306	49.49
218.524	108.88
218.742	-3.75
218.96	65.88
219.179	-130.73
219.397	-13.99
219.615	182.61
219.833	94.55
220.051	-48.81
220.27	69.97
220.488	72.02
220.706	94.55
220.924	24.92
221.142	20.82
221.36	-34.47
221.578	41.3
221.796	-11.95
222.015	59.73
222.233	59.73
222.451	98.64
222.669	-32.43
222.887	74.07
223.105	16.73
223.323	108.88
223.541	4.44
223.759	47.44
223.977	37.2
224.195	207.19
224.413	4.44
224.631	24.92
224.849	47.44
225.067	215.38
225.285	-36.52
225.503	14.68
225.721	-132.78
225.939	-30.38
226.157	20.82
226.375	207.19
226.592	-24.23
226.81	74.07
227.028	74.07
227.246	170.32
227.464	24.92
227.682	137.56
227.9	84.31
228.117	45.4
228.335	55.64
228.553	47.44
228.771	65.88
228.989	33.11
229.206	117.08
229.424	-40.62
229.642	-3.75
229.86	-46.76
230.077	110.93
230.295	76.12
230.513	35.16
230.731	37.2
230.948	162.13
231.166	110.93
231.384	-9.9
231.601	-32.43
231.819	110.93
232.037	43.35
232.254	-59.05
232.472	22.87
232.689	29.01
232.907	162.13
233.125	-9.9
233.342	-73.39
233.56	4.44
233.777	14.68
233.995	16.73
234.213	63.83
234.43	43.35
234.648	16.73
234.865	4.44
235.083	76.12
235.3	53.59
235.518	59.73
235.735	31.06
235.953	135.51
236.17	16.73
236.388	65.88
236.605	-11.95
236.822	86.36
237.04	145.75
237.257	31.06
237.475	-91.82
237.692	2.39
237.909	49.49
238.127	4.44
238.344	65.88
238.562	76.12
238.779	-73.39
238.996	-116.39
239.214	74.07
239.431	74.07
239.648	43.35
239.865	78.16
240.083	45.4
240.3	-34.47
240.517	16.73
240.735	8.53
240.952	153.94
241.169	147.8
241.386	-24.23
241.603	26.96
241.821	-61.1
242.038	78.16
242.255	143.7
242.472	-104.11
242.689	104.79
242.907	84.31
243.124	26.96
243.341	74.07
243.558	55.64
243.775	-5.8
243.992	-9.9
244.209	20.82
244.426	127.32
244.643	51.54
244.86	24.92
245.078	90.45
245.295	92.5
245.512	12.63
245.729	29.01
245.946	41.3
246.163	76.12
246.38	-18.09
246.597	102.74
246.814	-9.9
247.031	10.58
247.248	69.97
247.464	123.22
247.681	31.06
247.898	51.54
248.115	115.03
248.332	20.82
248.549	198.99
248.766	141.65
248.983	96.6
249.2	55.64
249.417	88.4
249.633	26.96
249.85	67.92
250.067	-22.19
250.284	-24.23
250.501	72.02
250.717	82.26
250.934	-54.95
251.151	59.73
251.368	-1.71
251.585	29.01
251.801	24.92
252.018	-61.1
252.235	100.69
252.451	-40.62
252.668	-18.09
252.885	153.94
253.102	74.07
253.318	-22.19
253.535	0.34
253.752	33.11
253.968	-7.85
254.185	-34.47
254.401	127.32
254.618	78.16
254.835	29.01
255.051	129.36
255.268	104.79
255.484	63.83
255.701	26.96
255.917	41.3
256.134	-59.05
256.351	31.06
256.567	-28.33
256.784	26.96
257	-65.19
257.217	88.4
257.433	37.2
257.65	-3.75
257.866	76.12
258.082	-5.8
258.299	-26.28
258.515	61.78
258.732	-132.78
258.948	-3.75
259.165	2.39
259.381	-59.05
259.597	74.07
259.814	-5.8
260.03	26.96
260.246	12.63
260.463	82.26
260.679	162.13
260.895	55.64
261.112	41.3
261.328	76.12
261.544	12.63
261.761	174.42
261.977	-28.33
262.193	-57
262.409	92.5
262.626	80.21
262.842	10.58
263.058	6.49
263.274	137.56
263.49	-13.99
263.707	102.74
263.923	98.64
264.139	-26.28
264.355	98.64
264.571	84.31
264.787	90.45
265.004	121.17
265.22	-40.62
265.436	-18.09
265.652	8.53
265.868	29.01
266.084	-16.04
266.3	-13.99
266.516	-50.86
266.732	29.01
266.948	112.98
267.164	57.68
267.38	182.61
267.596	61.78
267.812	153.94
268.028	22.87
268.244	88.4
268.46	24.92
268.676	4.44
268.892	35.16
269.108	-81.58
269.324	18.77
269.54	-59.05
269.756	184.66
269.972	4.44
270.188	-34.47
270.403	14.68
270.619	31.06
270.835	57.68
271.051	20.82
271.267	6.49
271.483	16.73
271.698	117.08
271.914	49.49
272.13	-1.71
272.346	24.92
272.562	39.25
272.777	112.98
272.993	4.44
273.209	-83.63
273.425	59.73
273.64	-85.67
273.856	100.69
274.072	-22.19
274.287	2.39
274.503	90.45
274.719	96.6
274.934	63.83
275.15	-38.57
275.366	0.34
275.581	37.2
275.797	55.64
276.012	43.35
276.228	6.49
276.444	31.06
276.659	174.42
276.875	-5.8
277.09	22.87
277.306	59.73
277.521	53.59
277.737	57.68
277.952	92.5
278.168	65.88
278.383	86.36
278.599	-11.95
278.814	67.92
279.03	22.87
279.245	100.69
279.461	-13.99
279.676	78.16
279.892	-40.62
280.107	6.49
280.322	-75.43
280.538	55.64
280.753	-32.43
280.969	86.36
281.184	45.4
281.399	80.21
281.615	6.49
281.83	-1.71
282.045	-102.06
282.26	-116.39
282.476	108.88
282.691	80.21
282.906	-11.95
283.122	16.73
283.337	6.49
283.552	49.49
283.767	-38.57
283.983	61.78
284.198	37.2
284.413	78.16
284.628	-59.05
284.843	53.59
285.058	88.4
285.274	-7.85
285.489	8.53
285.704	194.9
285.919	14.68
286.134	41.3
286.349	160.08
286.564	6.49
286.779	59.73
286.995	45.4
287.21	76.12
287.425	24.92
287.64	24.92
287.855	129.36
288.07	16.73
288.285	102.74
288.5	86.36
288.715	69.97
288.93	14.68
289.145	-50.86
289.36	147.8
289.575	-11.95
289.79	57.68
290.004	-26.28
290.219	123.22
290.434	-13.99
290.649	29.01
290.864	4.44
291.079	16.73
291.294	112.98
291.509	78.16
291.724	47.44
291.938	-52.91
292.153	90.45
292.368	53.59
292.583	61.78
292.798	53.59
293.012	-3.75
293.227	43.35
293.442	18.77
293.657	55.64
293.871	117.08
294.086	6.49
294.301	201.04
294.516	108.88
294.73	61.78
294.945	0.34
295.16	49.49
295.374	63.83
295.589	121.17
295.804	-1.71
296.018	86.36
296.233	57.68
296.447	22.87
296.662	6.49
296.877	106.84
297.091	51.54
297.306	-22.19
297.52	6.49
297.735	57.68
297.949	-30.38
298.164	18.77
298.378	51.54
298.593	-34.47
298.807	12.63
299.022	84.31
299.236	158.03
299.451	18.77
299.665	29.01
299.88	78.16
300.094	41.3
300.309	55.64
300.523	24.92
300.737	22.87
300.952	39.25
301.166	160.08
301.381	-11.95
301.595	-13.99
301.809	12.63
302.024	-50.86
302.238	-36.52
302.452	125.27
302.667	14.68
302.881	188.75
303.095	39.25
303.309	102.74
303.524	43.35
303.738	-22.19
303.952	10.58
304.166	115.03
304.381	-130.73
304.595	106.84
304.809	2.39
305.023	92.5
305.237	0.34
305.452	-20.14
305.666	127.32
305.88	178.51
306.094	143.7
306.308	96.6
306.522	133.46
306.736	49.49
306.95	20.82
307.164	-46.76
307.379	18.77
307.593	0.34
307.807	176.47
308.021	63.83
308.235	45.4
308.449	-30.38
308.663	53.59
308.877	190.8
309.091	49.49
309.305	61.78
309.519	-91.82
309.733	51.54
309.947	-48.81
310.161	43.35
310.374	55.64
310.588	84.31
310.802	-79.53
311.016	29.01
311.23	37.2
311.444	-5.8
311.658	-1.71
311.872	172.37
312.085	121.17
312.299	125.27
312.513	123.22
312.727	-11.95
312.941	2.39
313.154	108.88
313.368	10.58
313.582	94.55
313.796	57.68
314.009	-5.8
314.223	108.88
314.437	53.59
314.651	86.36
314.864	20.82
315.078	69.97
315.292	-18.09
315.505	-11.95
315.719	74.07
315.933	96.6
316.146	-104.11
316.36	0.34
316.573	106.84
316.787	69.97
317.001	53.59
317.214	31.06
317.428	55.64
317.641	-63.15
317.855	26.96
318.068	90.45
318.282	94.55
318.495	112.98
318.709	16.73
318.922	-13.99
319.136	102.74
319.349	166.23
319.563	-16.04
319.776	67.92
319.99	-75.43
320.203	147.8
320.417	78.16
320.63	88.4
320.843	129.36
321.057	29.01
321.27	88.4
321.483	51.54
321.697	121.17
321.91	4.44
322.124	-5.8
322.337	39.25
322.55	0.34
322.763	63.83
322.977	-3.75
323.19	-75.43
323.403	47.44
323.617	76.12
323.83	106.84
324.043	-34.47
324.256	43.35
324.469	14.68
324.683	145.75
324.896	92.5
325.109	119.12
325.322	-28.33
325.535	121.17
325.748	139.6
325.962	-1.71
326.175	74.07
326.388	69.97
326.601	78.16
326.814	-32.43
327.027	-7.85
327.24	121.17
327.453	12.63
327.666	129.36
327.879	133.46
328.092	100.69
328.305	104.79
328.518	-38.57
328.731	16.73
328.944	69.97
329.157	47.44
329.37	18.77
329.583	196.95
329.796	119.12
330.009	20.82
330.222	0.34
330.435	98.64
330.648	80.21
330.861	-11.95
331.073	47.44
331.286	129.36
331.499	82.26
331.712	37.2
331.925	63.83
332.138	74.07
332.35	96.6
332.563	8.53
332.776	129.36
332.989	0.34
333.202	2.39
333.414	51.54
333.627	24.92
333.84	-7.85
334.053	2.39
334.265	-24.23
334.478	35.16
334.691	67.92
334.903	63.83
335.116	4.44
335.329	57.68
335.541	104.79
335.754	115.03
335.966	-24.23
336.179	47.44
336.392	2.39
336.604	84.31
336.817	96.6
337.029	45.4
337.242	49.49
337.454	141.65
337.667	10.58
337.88	121.17
338.092	18.77
338.305	53.59
338.517	16.73
338.729	106.84
338.942	69.97
339.154	-11.95
339.367	-46.76
339.579	94.55
339.792	29.01
340.004	158.03
340.217	72.02
340.429	110.93
340.641	10.58
340.854	-20.14
341.066	-24.23
341.278	106.84
341.491	158.03
341.703	6.49
341.915	-5.8
342.128	82.26
342.34	6.49
342.552	10.58
342.764	67.92
342.977	-44.71
343.189	47.44
343.401	33.11
343.613	-48.81
343.826	96.6
344.038	-52.91
344.25	108.88
344.462	49.49
344.674	31.06
344.886	63.83
345.099	160.08
345.311	96.6
345.523	37.2
345.735	-89.77
345.947	92.5
346.159	-52.91
346.371	6.49
346.583	14.68
346.795	149.84
347.007	41.3
347.219	86.36
347.431	6.49
347.643	147.8
347.855	10.58
348.067	94.55
348.279	-34.47
348.491	53.59
348.703	131.41
348.915	8.53
349.127	18.77
349.339	74.07
349.551	24.92
349.763	61.78
349.975	8.53
350.187	145.75
350.399	119.12
350.61	74.07
350.822	31.06
351.034	31.06
351.246	72.02
351.458	102.74
351.669	137.56
351.881	80.21
352.093	135.51
352.305	127.32
352.517	22.87
352.728	78.16
352.94	29.01
353.152	110.93
353.363	-30.38
353.575	8.53
353.787	106.84
353.999	59.73
354.21	149.84
354.422	-9.9
354.633	-77.48
354.845	4.44
355.057	-54.95
355.268	49.49
355.48	67.92
355.692	41.3
355.903	2.39
356.115	-40.62
356.326	-46.76
356.538	90.45
356.749	94.55
356.961	166.23
357.172	98.64
357.384	-32.43
357.595	242
357.807	67.92
358.018	37.2
358.23	90.45
358.441	96.6
358.653	41.3
358.864	-5.8
359.075	-73.39
359.287	53.59
359.498	141.65
359.709	92.5
359.921	-3.75
360.132	82.26
360.344	-13.99
360.555	-9.9
360.766	72.02
360.977	-3.75
361.189	90.45
361.4	117.08
361.611	63.83
361.823	108.88
362.034	6.49
362.245	-36.52
362.456	63.83
362.667	47.44
362.879	-32.43
363.09	29.01
363.301	94.55
363.512	37.2
363.723	29.01
363.935	-77.48
364.146	129.36
364.357	33.11
364.568	110.93
364.779	-73.39
364.99	186.71
365.201	29.01
365.412	137.56
365.623	-65.19
365.834	6.49
366.045	55.64
366.256	55.64
366.467	24.92
366.678	-28.33
366.889	26.96
367.1	6.49
367.311	37.2
367.522	37.2
367.733	100.69
367.944	80.21
368.155	-30.38
368.366	72.02
368.577	96.6
368.788	47.44
368.999	-65.19
369.209	45.4
369.42	172.37
369.631	215.38
369.842	88.4
370.053	16.73
370.264	125.27
370.474	-40.62
370.685	61.78
370.896	29.01
371.107	162.13
371.317	59.73
371.528	4.44
371.739	108.88
371.95	49.49
372.16	88.4
372.371	-106.15
372.582	53.59
372.792	14.68
373.003	59.73
373.214	61.78
373.424	80.21
373.635	14.68
373.846	110.93
374.056	65.88
374.267	0.34
374.477	78.16
374.688	-89.77
374.898	37.2
375.109	47.44
375.319	74.07
375.53	123.22
375.74	61.78
375.951	-5.8
376.161	22.87
376.372	53.59
376.582	47.44
376.793	65.88
377.003	59.73
377.214	-5.8
377.424	47.44
377.635	24.92
377.845	37.2
378.055	143.7
378.266	-73.39
378.476	24.92
378.686	-11.95
378.897	123.22
379.107	160.08
379.317	110.93
379.528	-83.63
379.738	94.55
379.948	-89.77
380.158	80.21
380.369	0.34
380.579	112.98
380.789	43.35
380.999	74.07
381.21	0.34
381.42	184.66
381.63	18.77
381.84	104.79
382.05	12.63
382.261	119.12
382.471	78.16
382.681	-36.52
382.891	143.7
383.101	76.12
383.311	-81.58
383.521	-22.19
383.731	53.59
383.941	127.32
384.151	94.55
384.361	29.01
384.571	29.01
384.781	86.36
384.991	213.33
385.201	176.47
385.411	39.25
385.621	-1.71
385.831	20.82
386.041	33.11
386.251	24.92
386.461	57.68
386.671	-9.9
386.881	74.07
387.091	-26.28
387.301	151.89
387.511	51.54
387.72	37.2
387.93	135.51
388.14	-95.91
388.35	86.36
388.56	102.74
388.769	129.36
388.979	-13.99
389.189	26.96
389.399	10.58
389.609	53.59
389.818	106.84
390.028	35.16
390.238	51.54
390.447	-26.28
390.657	57.68
390.867	20.82
391.076	-73.39
391.286	-20.14
391.496	-36.52
391.705	45.4
391.915	201.04
392.125	74.07
392.334	-22.19
392.544	78.16
392.753	119.12
392.963	-32.43
393.172	-48.81
393.382	-5.8
393.591	162.13
393.801	12.63
394.01	252.24
394.22	61.78
394.429	8.53
394.639	72.02
394.848	22.87
395.058	31.06
395.267	-32.43
395.477	110.93
395.686	35.16
395.895	252.24
396.105	178.51
396.314	115.03
396.524	86.36
396.733	6.49
396.942	100.69
397.152	137.56
397.361	41.3
397.57	80.21
397.78	-1.71
397.989	88.4
398.198	145.75
398.407	-54.95
398.617	55.64
398.826	29.01
399.035	160.08
399.244	80.21
399.453	51.54
399.663	53.59
399.872	35.16
400.081	20.82
400.29	158.03
400.499	53.59
400.708	41.3
400.917	0.34
401.127	55.64
401.336	0.34
401.545	223.57
401.754	201.04
401.963	98.64
402.172	20.82
402.381	-28.33
402.59	4.44
402.799	22.87
403.008	131.41
403.217	4.44
403.426	121.17
403.635	-50.86
403.844	-48.81
404.053	-57
404.262	-42.67
404.471	178.51
404.68	57.68
404.888	65.88
405.097	104.79
405.306	78.16
405.515	129.36
405.724	-3.75
405.933	78.16
406.142	108.88
406.35	98.64
406.559	47.44
406.768	45.4
406.977	237.91
407.185	24.92
407.394	26.96
407.603	-48.81
407.812	94.55
408.02	110.93
408.229	-11.95
408.438	53.59
408.646	-44.71
408.855	53.59
409.064	53.59
409.272	63.83
409.481	35.16
409.69	-65.19
409.898	88.4
410.107	61.78
410.315	106.84
410.524	45.4
410.733	-9.9
410.941	104.79
411.15	115.03
411.358	135.51
411.567	129.36
411.775	55.64
411.984	-28.33
412.192	33.11
412.401	78.16
412.609	235.86
412.818	190.8
413.026	90.45
413.234	-13.99
413.443	61.78
413.651	43.35
413.86	61.78
414.068	147.8
414.276	172.37
414.485	-36.52
414.693	131.41
414.901	186.71
415.11	121.17
415.318	-22.19
415.526	96.6
415.734	76.12
415.943	65.88
416.151	158.03
416.359	45.4
416.567	43.35
416.776	115.03
416.984	153.94
417.192	151.89
417.4	-95.91
417.608	41.3
417.817	-3.75
418.025	160.08
418.233	133.46
418.441	55.64
418.649	29.01
418.857	94.55
419.065	135.51
419.273	76.12
419.481	84.31
419.689	20.82
419.897	51.54
420.105	-9.9
420.313	170.32
420.521	172.37
420.729	100.69
420.937	69.97
421.145	14.68
421.353	47.44
421.561	151.89
421.769	-28.33
421.977	-97.96
422.185	112.98
422.393	-5.8
422.601	90.45
422.809	67.92
423.017	20.82
423.224	168.27
423.432	78.16
423.64	20.82
423.848	131.41
424.056	-7.85
424.263	41.3
424.471	55.64
424.679	102.74
424.887	-1.71
425.094	145.75
425.302	125.27
425.51	41.3
425.718	143.7
425.925	110.93
426.133	61.78
426.341	131.41
426.548	74.07
426.756	94.55
426.964	45.4
427.171	-54.95
427.379	-20.14
427.586	182.61
427.794	53.59
428.001	149.84
428.209	82.26
428.417	123.22
428.624	143.7
428.832	102.74
429.039	22.87
429.247	92.5
429.454	59.73
429.662	186.71
429.869	57.68
430.076	127.32
430.284	100.69
430.491	213.33
430.699	178.51
430.906	215.38
431.114	117.08
431.321	166.23
431.528	61.78
431.736	61.78
431.943	119.12
432.15	121.17
432.358	133.46
432.565	215.38
432.772	24.92
432.979	123.22
433.187	125.27
433.394	176.47
433.601	104.79
433.808	280.91
434.016	256.34
434.223	239.95
434.43	196.95
434.637	192.85
434.844	260.43
435.052	260.43
435.259	176.47
435.466	184.66
435.673	178.51
435.88	229.71
436.087	313.68
436.294	377.17
436.501	215.38
436.708	235.86
436.915	227.67
437.122	344.4
437.329	145.75
437.537	328.02
437.743	317.78
437.95	358.74
438.157	391.5
438.364	319.82
438.571	373.07
438.778	424.27
438.985	416.08
439.192	485.71
439.399	416.08
439.606	405.84
439.813	418.13
440.02	586.06
440.227	561.48
440.433	506.19
440.64	362.83
440.847	469.33
441.054	559.44
441.261	749.9
441.467	551.24
441.674	518.48
441.881	594.25
442.088	592.2
442.294	721.23
442.501	645.45
442.708	649.55
442.914	696.65
443.121	842.06
443.328	756.04
443.534	860.49
443.741	782.67
443.948	645.45
444.154	909.64
444.361	1038.66
444.568	829.77
444.774	913.74
444.981	799.05
445.187	1083.72
445.394	1005.89
445.6	989.51
445.807	1149.25
446.013	1096
446.22	1104.2
446.426	1329.47
446.633	1349.95
446.839	1540.41
447.046	1202.5
447.252	1458.5
447.459	1538.37
447.665	1415.49
447.871	1669.44
448.078	1763.64
448.284	1575.23
448.491	1792.31
448.697	1796.41
448.903	1861.94
449.11	1966.39
449.316	1982.78
449.522	2140.47
449.728	2281.78
449.935	2226.48
450.141	2214.2
450.347	2425.14
450.553	2341.17
450.76	2455.86
450.966	2613.55
451.172	2664.75
451.378	2840.87
451.584	2908.46
451.791	3199.27
451.997	3148.07
452.203	3262.76
452.409	3344.67
452.615	3526.94
452.821	3295.52
453.027	3361.06
453.233	3897.63
453.44	3619.1
453.646	4065.56
453.852	4100.37
454.058	4352.27
454.264	4532.5
454.47	4761.87
454.676	4759.82
454.882	5329.16
455.088	4890.89
455.294	5189.89
455.5	5441.79
455.705	5779.71
455.911	5781.76
456.117	5849.34
456.323	6324.47
456.529	6277.37
456.735	6848.75
456.941	6967.53
457.147	7104.74
457.352	7549.15
457.558	7622.88
457.764	8143.07
457.97	8323.29
458.176	8722.64
458.381	9152.71
458.587	9345.22
458.793	9707.71
458.999	9619.65
459.204	10637.49
459.41	11270.31
459.616	11172.01
459.821	11794.59
460.027	12374.17
460.233	12763.28
460.438	12892.3
460.644	13400.2
460.85	13721.73
461.055	14272.64
461.261	15024.24
461.466	14469.24
461.672	15261.8
461.878	16988.24
462.083	16423
462.289	16775.25
462.494	17653.83
462.7	17489.99
462.905	18049.09
463.111	19195.95
463.316	20428.83
463.522	20428.83
463.727	21510.16
463.932	22263.81
464.138	22810.62
464.343	23971.82
464.549	23861.23
464.754	25522.13
464.959	26202.05
465.165	26609.6
465.37	26689.47
465.575	26701.76
465.781	28526.5
465.986	29466.52
466.191	28544.93
466.397	29302.68
466.602	28151.72
466.807	29998.99
467.012	30414.73
467.218	30984.06
467.423	30924.67
467.628	31788.91
467.833	33627.99
468.038	33101.66
468.244	32370.54
468.449	34367.3
468.654	33165.15
468.859	33240.92
469.064	33638.23
469.269	32356.2
469.474	32816.99
