Data from USB4F104151__67__09-29-26-895.txt Node

Date: Wed Feb 26 09:29:26 EST 2025
User: louis
Spectrometer: USB4F10415
Trigger mode: 4
Integration Time (sec): 1.000000E-1
Scans to average: 1
Electric dark correction enabled: true
Nonlinearity correction enabled: false
Boxcar width: 0
XAxis mode: Wavelengths
Number of Pixels in Spectrum: 3648
>>>>>Begin Spectral Data<<<<<
178.204	-353.1
178.424	-353.1
178.644	-353.1
178.864	-346.96
179.084	-418.64
179.304	17.58
179.524	33.96
179.744	-15.19
179.964	-7
180.184	-56.15
180.404	103.59
180.624	33.96
180.844	-11.09
181.064	-90.96
181.283	-31.57
181.503	-43.86
181.723	66.73
181.943	-93.01
182.163	87.21
182.383	-64.34
182.602	15.53
182.822	99.5
183.042	23.72
183.262	-50
183.482	-23.38
183.701	-2.9
183.921	83.11
184.141	-76.63
184.361	19.63
184.58	50.35
184.8	44.2
185.02	-33.62
185.239	36.01
185.459	40.11
185.679	72.87
185.898	-78.68
186.118	15.53
186.338	-17.24
186.557	130.22
186.777	-88.92
186.997	-54.1
187.216	-52.05
187.436	201.9
187.655	17.58
187.875	81.07
188.095	3.24
188.314	74.92
188.534	89.26
188.753	-62.29
188.973	60.59
189.192	199.85
189.412	9.39
189.631	33.96
189.851	68.78
190.07	122.02
190.29	-60.24
190.509	58.54
190.729	-27.48
190.948	97.45
191.168	249
191.387	117.93
191.607	33.96
191.826	56.49
192.045	13.48
192.265	-50
192.484	9.39
192.704	13.48
192.923	-66.39
193.142	146.6
193.362	91.31
193.581	122.02
193.8	79.02
194.02	95.4
194.239	58.54
194.458	109.74
194.678	29.87
194.897	-47.96
195.116	23.72
195.335	29.87
195.555	70.83
195.774	-29.52
195.993	-45.91
196.212	-11.09
196.432	-47.96
196.651	-7
196.87	21.67
197.089	218.28
197.308	-0.85
197.528	68.78
197.747	-121.68
197.966	119.98
198.185	33.96
198.404	-17.24
198.623	97.45
198.842	70.83
199.062	91.31
199.281	48.3
199.5	-64.34
199.719	17.58
199.938	124.07
200.157	46.25
200.376	91.31
200.595	62.63
200.814	-27.48
201.033	-35.67
201.252	115.88
201.471	-4.95
201.69	93.35
201.909	56.49
202.128	46.25
202.347	50.35
202.566	-7
202.785	-76.63
203.004	33.96
203.223	269.48
203.442	111.78
203.661	-52.05
203.879	58.54
204.098	66.73
204.317	-37.72
204.536	83.11
204.755	9.39
204.974	38.06
205.193	-25.43
205.411	117.93
205.63	72.87
205.849	33.96
206.068	-29.52
206.287	-84.82
206.505	87.21
206.724	58.54
206.943	-47.96
207.162	-62.29
207.381	42.15
207.599	17.58
207.818	-19.29
208.037	-13.14
208.255	-72.53
208.474	50.35
208.693	58.54
208.911	-86.87
209.13	5.29
209.349	52.39
209.567	42.15
209.786	25.77
210.005	-17.24
210.223	-23.38
210.442	-154.45
210.661	5.29
210.879	-23.38
211.098	-11.09
211.316	89.26
211.535	15.53
211.753	-33.62
211.972	-13.14
212.191	13.48
212.409	-52.05
212.628	115.88
212.846	-54.1
213.065	33.96
213.283	54.44
213.502	-50
213.72	-2.9
213.938	-33.62
214.157	-31.57
214.375	95.4
214.594	-43.86
214.812	58.54
215.031	-88.92
215.249	17.58
215.467	-27.48
215.686	-35.67
215.904	56.49
216.122	-66.39
216.341	109.74
216.559	50.35
216.778	54.44
216.996	3.24
217.214	-19.29
217.432	-45.91
217.651	-78.68
217.869	25.77
218.087	-17.24
218.306	-99.16
218.524	31.91
218.742	-2.9
218.96	119.98
219.179	-25.43
219.397	42.15
219.615	195.75
219.833	29.87
220.051	-50
220.27	33.96
220.488	109.74
220.706	58.54
220.924	-41.81
221.142	-35.67
221.36	9.39
221.578	40.11
221.796	13.48
222.015	31.91
222.233	38.06
222.451	119.98
222.669	-25.43
222.887	66.73
223.105	-45.91
223.323	-58.2
223.541	-13.14
223.759	-19.29
223.977	5.29
224.195	89.26
224.413	27.82
224.631	44.2
224.849	52.39
225.067	177.32
225.285	-9.05
225.503	-72.53
225.721	-146.26
225.939	42.15
226.157	-7
226.375	195.75
226.592	-43.86
226.81	7.34
227.028	52.39
227.246	70.83
227.464	-17.24
227.682	132.26
227.9	17.58
228.117	38.06
228.335	38.06
228.553	-39.76
228.771	42.15
228.989	17.58
229.206	40.11
229.424	17.58
229.642	-62.29
229.86	-60.24
230.077	93.35
230.295	-60.24
230.513	136.36
230.731	68.78
230.948	160.94
231.166	103.59
231.384	-23.38
231.601	-50
231.819	54.44
232.037	-47.96
232.254	-13.14
232.472	48.3
232.689	-39.76
232.907	42.15
233.125	56.49
233.342	-58.2
233.56	11.43
233.777	-11.09
233.995	-27.48
234.213	74.92
234.43	-50
234.648	-31.57
234.865	5.29
235.083	54.44
235.3	58.54
235.518	42.15
235.735	99.5
235.953	27.82
236.17	-13.14
236.388	-7
236.605	38.06
236.822	79.02
237.04	81.07
237.257	52.39
237.475	-13.14
237.692	33.96
237.909	21.67
238.127	1.19
238.344	46.25
238.562	68.78
238.779	-107.35
238.996	-60.24
239.214	23.72
239.431	25.77
239.648	-29.52
239.865	1.19
240.083	56.49
240.3	3.24
240.517	-74.58
240.735	25.77
240.952	115.88
241.169	23.72
241.386	17.58
241.603	-29.52
241.821	-27.48
242.038	103.59
242.255	115.88
242.472	-136.02
242.689	38.06
242.907	54.44
243.124	-35.67
243.341	-43.86
243.558	-50
243.775	-72.53
243.992	-109.4
244.209	103.59
244.426	154.79
244.643	54.44
244.86	27.82
245.078	48.3
245.295	48.3
245.512	-33.62
245.729	-70.48
245.946	21.67
246.163	7.34
246.38	70.83
246.597	-17.24
246.814	31.91
247.031	25.77
247.248	-13.14
247.464	46.25
247.681	60.59
247.898	17.58
248.115	81.07
248.332	-31.57
248.549	152.74
248.766	169.13
248.983	83.11
249.2	-4.95
249.417	-39.76
249.633	-31.57
249.85	50.35
250.067	-31.57
250.284	27.82
250.501	50.35
250.717	1.19
250.934	-103.25
251.151	-17.24
251.368	31.91
251.585	-0.85
251.801	17.58
252.018	9.39
252.235	11.43
252.451	-105.3
252.668	-23.38
252.885	109.74
253.102	-7
253.318	-50
253.535	15.53
253.752	-47.96
253.968	64.68
254.185	-56.15
254.401	-33.62
254.618	-43.86
254.835	9.39
255.051	58.54
255.268	140.46
255.484	42.15
255.701	-2.9
255.917	13.48
256.134	-13.14
256.351	-39.76
256.567	-43.86
256.784	-27.48
257	-74.58
257.217	29.87
257.433	38.06
257.65	38.06
257.866	29.87
258.082	-15.19
258.299	-33.62
258.515	40.11
258.732	-52.05
258.948	21.67
259.165	64.68
259.381	-25.43
259.597	1.19
259.814	-2.9
260.03	11.43
260.246	-58.2
260.463	48.3
260.679	130.22
260.895	3.24
261.112	111.78
261.328	-17.24
261.544	-58.2
261.761	107.69
261.977	-37.72
262.193	-7
262.409	87.21
262.626	-7
262.842	-29.52
263.058	-4.95
263.274	79.02
263.49	3.24
263.707	46.25
263.923	58.54
264.139	-97.11
264.355	1.19
264.571	85.16
264.787	66.73
265.004	33.96
265.22	38.06
265.436	33.96
265.652	-25.43
265.868	31.91
266.084	-101.2
266.3	46.25
266.516	-23.38
266.732	-19.29
266.948	-74.58
267.164	-66.39
267.38	1.19
267.596	89.26
267.812	111.78
268.028	-21.33
268.244	-76.63
268.46	25.77
268.676	-56.15
268.892	-70.48
269.108	-76.63
269.324	-121.68
269.54	-125.78
269.756	87.21
269.972	-68.44
270.188	-47.96
270.403	-86.87
270.619	-31.57
270.835	38.06
271.051	-41.81
271.267	-72.53
271.483	21.67
271.698	17.58
271.914	-0.85
272.13	-11.09
272.346	48.3
272.562	54.44
272.777	119.98
272.993	-60.24
273.209	-68.44
273.425	3.24
273.64	-150.36
273.856	117.93
274.072	-52.05
274.287	-72.53
274.503	-52.05
274.719	-0.85
274.934	-7
275.15	-56.15
275.366	-2.9
275.581	-27.48
275.797	-70.48
276.012	81.07
276.228	-74.58
276.444	38.06
276.659	60.59
276.875	-7
277.09	-52.05
277.306	-52.05
277.521	-21.33
277.737	-11.09
277.952	70.83
278.168	36.01
278.383	27.82
278.599	-37.72
278.814	91.31
279.03	23.72
279.245	66.73
279.461	3.24
279.676	42.15
279.892	-64.34
280.107	-15.19
280.322	-109.4
280.538	-21.33
280.753	-47.96
280.969	58.54
281.184	-43.86
281.399	134.31
281.615	27.82
281.83	87.21
282.045	-72.53
282.26	-68.44
282.476	56.49
282.691	117.93
282.906	40.11
283.122	-62.29
283.337	-50
283.552	21.67
283.767	-37.72
283.983	79.02
284.198	-43.86
284.413	3.24
284.628	-33.62
284.843	68.78
285.058	38.06
285.274	-64.34
285.489	-70.48
285.704	66.73
285.919	-105.3
286.134	85.16
286.349	-86.87
286.564	13.48
286.779	42.15
286.995	19.63
287.21	-90.96
287.425	70.83
287.64	-9.05
287.855	58.54
288.07	-66.39
288.285	113.83
288.5	68.78
288.715	7.34
288.93	38.06
289.145	-33.62
289.36	50.35
289.575	-64.34
289.79	68.78
290.004	23.72
290.219	66.73
290.434	-11.09
290.649	-50
290.864	-2.9
291.079	-64.34
291.294	91.31
291.509	29.87
291.724	36.01
291.938	83.11
292.153	7.34
292.368	-70.48
292.583	-0.85
292.798	83.11
293.012	-39.76
293.227	13.48
293.442	-17.24
293.657	60.59
293.871	15.53
294.086	38.06
294.301	119.98
294.516	97.45
294.73	38.06
294.945	-23.38
295.16	-56.15
295.374	81.07
295.589	56.49
295.804	-64.34
296.018	33.96
296.233	103.59
296.447	-0.85
296.662	3.24
296.877	68.78
297.091	107.69
297.306	-11.09
297.52	-50
297.735	5.29
297.949	-9.05
298.164	19.63
298.378	-15.19
298.593	-72.53
298.807	-93.01
299.022	-47.96
299.236	36.01
299.451	-103.25
299.665	-39.76
299.88	5.29
300.094	-9.05
300.309	31.91
300.523	-39.76
300.737	-60.24
300.952	79.02
301.166	13.48
301.381	-93.01
301.595	-60.24
301.809	-54.1
302.024	1.19
302.238	-35.67
302.452	64.68
302.667	-43.86
302.881	36.01
303.095	56.49
303.309	1.19
303.524	25.77
303.738	17.58
303.952	-86.87
304.166	48.3
304.381	-74.58
304.595	93.35
304.809	17.58
305.023	62.63
305.237	-47.96
305.452	-58.2
305.666	85.16
305.88	64.68
306.094	119.98
306.308	50.35
306.522	68.78
306.736	60.59
306.95	17.58
307.164	-86.87
307.379	25.77
307.593	115.88
307.807	29.87
308.021	113.83
308.235	81.07
308.449	-31.57
308.663	25.77
308.877	142.5
309.091	21.67
309.305	25.77
309.519	-103.25
309.733	79.02
309.947	-101.2
310.161	44.2
310.374	-23.38
310.588	70.83
310.802	-64.34
311.016	-47.96
311.23	54.44
311.444	-9.05
311.658	70.83
311.872	72.87
312.085	79.02
312.299	130.22
312.513	136.36
312.727	50.35
312.941	-56.15
313.154	-23.38
313.368	9.39
313.582	-43.86
313.796	56.49
314.009	9.39
314.223	64.68
314.437	38.06
314.651	23.72
314.864	-4.95
315.078	-52.05
315.292	-148.31
315.505	1.19
315.719	62.63
315.933	-2.9
316.146	15.53
316.36	1.19
316.573	146.6
316.787	68.78
317.001	-9.05
317.214	-41.81
317.428	17.58
317.641	-23.38
317.855	-43.86
318.068	-17.24
318.282	-37.72
318.495	119.98
318.709	58.54
318.922	-68.44
319.136	81.07
319.349	79.02
319.563	-27.48
319.776	-66.39
319.99	-121.68
320.203	60.59
320.417	-35.67
320.63	50.35
320.843	132.26
321.057	11.43
321.27	-41.81
321.483	36.01
321.697	83.11
321.91	36.01
322.124	66.73
322.337	-0.85
322.55	-27.48
322.763	79.02
322.977	-31.57
323.19	-15.19
323.403	76.97
323.617	40.11
323.83	11.43
324.043	-4.95
324.256	13.48
324.469	50.35
324.683	64.68
324.896	11.43
325.109	7.34
325.322	-39.76
325.535	111.78
325.748	-2.9
325.962	1.19
326.175	9.39
326.388	46.25
326.601	70.83
326.814	-68.44
327.027	1.19
327.24	62.63
327.453	-125.78
327.666	36.01
327.879	29.87
328.092	72.87
328.305	5.29
328.518	9.39
328.731	-25.43
328.944	-27.48
329.157	-11.09
329.37	17.58
329.583	7.34
329.796	109.74
330.009	-99.16
330.222	99.5
330.435	91.31
330.648	66.73
330.861	-21.33
331.073	-31.57
331.286	83.11
331.499	-19.29
331.712	-31.57
331.925	48.3
332.138	1.19
332.35	62.63
332.563	9.39
332.776	89.26
332.989	-27.48
333.202	66.73
333.414	-31.57
333.627	-35.67
333.84	-37.72
334.053	-78.68
334.265	-0.85
334.478	-47.96
334.691	-13.14
334.903	-43.86
335.116	-47.96
335.329	-9.05
335.541	-7
335.754	72.87
335.966	-64.34
336.179	-9.05
336.392	9.39
336.604	-15.19
336.817	66.73
337.029	-23.38
337.242	19.63
337.454	105.64
337.667	31.91
337.88	9.39
338.092	46.25
338.305	38.06
338.517	-97.11
338.729	-4.95
338.942	62.63
339.154	-129.88
339.367	-23.38
339.579	52.39
339.792	-4.95
340.004	99.5
340.217	-64.34
340.429	17.58
340.641	-52.05
340.854	-15.19
341.066	-47.96
341.278	140.46
341.491	124.07
341.703	19.63
341.915	-11.09
342.128	76.97
342.34	13.48
342.552	-45.91
342.764	-25.43
342.977	-35.67
343.189	21.67
343.401	3.24
343.613	-50
343.826	11.43
344.038	-17.24
344.25	-17.24
344.462	-15.19
344.674	91.31
344.886	-25.43
345.099	93.35
345.311	62.63
345.523	-74.58
345.735	-80.72
345.947	25.77
346.159	19.63
346.371	3.24
346.583	-9.05
346.795	70.83
347.007	-17.24
347.219	109.74
347.431	29.87
347.643	99.5
347.855	-56.15
348.067	140.46
348.279	-74.58
348.491	-35.67
348.703	13.48
348.915	-7
349.127	-50
349.339	17.58
349.551	-80.72
349.763	9.39
349.975	15.53
350.187	-11.09
350.399	42.15
350.61	68.78
350.822	-25.43
351.034	85.16
351.246	25.77
351.458	-17.24
351.669	64.68
351.881	58.54
352.093	66.73
352.305	52.39
352.517	40.11
352.728	87.21
352.94	-52.05
353.152	58.54
353.363	-60.24
353.575	48.3
353.787	152.74
353.999	-31.57
354.21	109.74
354.422	-172.88
354.633	-15.19
354.845	17.58
355.057	19.63
355.268	-23.38
355.48	74.92
355.692	-66.39
355.903	42.15
356.115	-66.39
356.326	-19.29
356.538	138.41
356.749	17.58
356.961	107.69
357.172	23.72
357.384	-54.1
357.595	177.32
357.807	-64.34
358.018	58.54
358.23	-31.57
358.441	74.92
358.653	38.06
358.864	13.48
359.075	-105.3
359.287	42.15
359.498	95.4
359.709	46.25
359.921	17.58
360.132	5.29
360.344	74.92
360.555	13.48
360.766	7.34
360.977	25.77
361.189	48.3
361.4	-0.85
361.611	87.21
361.823	105.64
362.034	-11.09
362.245	-15.19
362.456	17.58
362.667	19.63
362.879	7.34
363.09	33.96
363.301	13.48
363.512	42.15
363.723	25.77
363.935	-47.96
364.146	56.49
364.357	-47.96
364.568	-21.33
364.779	1.19
364.99	68.78
365.201	-31.57
365.412	74.92
365.623	-88.92
365.834	25.77
366.045	25.77
366.256	54.44
366.467	33.96
366.678	1.19
366.889	-47.96
367.1	-31.57
367.311	33.96
367.522	-93.01
367.733	64.68
367.944	19.63
368.155	19.63
368.366	74.92
368.577	38.06
368.788	119.98
368.999	-7
369.209	-74.58
369.42	156.84
369.631	150.7
369.842	72.87
370.053	15.53
370.264	115.88
370.474	-47.96
370.685	50.35
370.896	-103.25
371.107	146.6
371.317	85.16
371.528	-0.85
371.739	109.74
371.95	15.53
372.16	11.43
372.371	1.19
372.582	-37.72
372.792	36.01
373.003	11.43
373.214	-11.09
373.424	56.49
373.635	-103.25
373.846	58.54
374.056	54.44
374.267	52.39
374.477	46.25
374.688	-47.96
374.898	58.54
375.109	19.63
375.319	17.58
375.53	107.69
375.74	136.36
375.951	17.58
376.161	40.11
376.372	103.59
376.582	-78.68
376.793	25.77
377.003	-47.96
377.214	-64.34
377.424	54.44
377.635	58.54
377.845	-47.96
378.055	152.74
378.266	-23.38
378.476	-9.05
378.686	29.87
378.897	50.35
379.107	50.35
379.317	33.96
379.528	-27.48
379.738	126.12
379.948	-101.2
380.158	15.53
380.369	40.11
380.579	95.4
380.789	-64.34
380.999	52.39
381.21	31.91
381.42	107.69
381.63	25.77
381.84	29.87
382.05	48.3
382.261	115.88
382.471	122.02
382.681	-125.78
382.891	91.31
383.101	1.19
383.311	-56.15
383.521	-54.1
383.731	42.15
383.941	101.55
384.151	-4.95
384.361	76.97
384.571	54.44
384.781	103.59
384.991	72.87
385.201	99.5
385.411	54.44
385.621	25.77
385.831	7.34
386.041	-41.81
386.251	40.11
386.461	58.54
386.671	-25.43
386.881	-25.43
387.091	33.96
387.301	101.55
387.511	42.15
387.72	23.72
387.93	68.78
388.14	-58.2
388.35	7.34
388.56	105.64
388.769	74.92
388.979	89.26
389.189	-17.24
389.399	-31.57
389.609	25.77
389.818	29.87
390.028	74.92
390.238	64.68
390.447	42.15
390.657	-27.48
390.867	-39.76
391.076	-62.29
391.286	-37.72
391.496	-7
391.705	-0.85
391.915	83.11
392.125	50.35
392.334	-13.14
392.544	99.5
392.753	31.91
392.963	-31.57
393.172	42.15
393.382	27.82
393.591	74.92
393.801	-54.1
394.01	87.21
394.22	74.92
394.429	-31.57
394.639	9.39
394.848	66.73
395.058	15.53
395.267	-80.72
395.477	42.15
395.686	3.24
395.895	115.88
396.105	138.41
396.314	-60.24
396.524	36.01
396.733	-17.24
396.942	146.6
397.152	76.97
397.361	107.69
397.57	-0.85
397.78	9.39
397.989	54.44
398.198	150.7
398.407	46.25
398.617	-7
398.826	33.96
399.035	-56.15
399.244	105.64
399.453	-31.57
399.663	-33.62
399.872	31.91
400.081	-23.38
400.29	70.83
400.499	-52.05
400.708	105.64
400.917	31.91
401.127	-23.38
401.336	-101.2
401.545	167.08
401.754	103.59
401.963	87.21
402.172	-4.95
402.381	25.77
402.59	-35.67
402.799	-78.68
403.008	81.07
403.217	54.44
403.426	103.59
403.635	-82.77
403.844	-35.67
404.053	-88.92
404.262	-80.72
404.471	87.21
404.68	50.35
404.888	38.06
405.097	-25.43
405.306	23.72
405.515	17.58
405.724	-41.81
405.933	97.45
406.142	31.91
406.35	5.29
406.559	-4.95
406.768	93.35
406.977	50.35
407.185	46.25
407.394	31.91
407.603	-138.07
407.812	25.77
408.02	25.77
408.229	17.58
408.438	7.34
408.646	-84.82
408.855	44.2
409.064	1.19
409.272	-13.14
409.481	42.15
409.69	-103.25
409.898	-56.15
410.107	38.06
410.315	99.5
410.524	-25.43
410.733	44.2
410.941	33.96
411.15	27.82
411.358	54.44
411.567	93.35
411.775	7.34
411.984	21.67
412.192	97.45
412.401	-9.05
412.609	107.69
412.818	66.73
413.026	42.15
413.234	64.68
413.443	13.48
413.651	-23.38
413.86	-29.52
414.068	130.22
414.276	165.03
414.485	-27.48
414.693	33.96
414.901	124.07
415.11	-35.67
415.318	66.73
415.526	56.49
415.734	50.35
415.943	19.63
416.151	97.45
416.359	33.96
416.567	-35.67
416.776	1.19
416.984	85.16
417.192	113.83
417.4	-39.76
417.608	-29.52
417.817	-45.91
418.025	70.83
418.233	140.46
418.441	-68.44
418.649	-35.67
418.857	42.15
419.065	140.46
419.273	-80.72
419.481	19.63
419.689	58.54
419.897	13.48
420.105	-105.3
420.313	66.73
420.521	99.5
420.729	58.54
420.937	58.54
421.145	-33.62
421.353	15.53
421.561	138.41
421.769	50.35
421.977	-54.1
422.185	70.83
422.393	-23.38
422.601	17.58
422.809	107.69
423.017	-2.9
423.224	81.07
423.432	-0.85
423.64	-93.01
423.848	48.3
424.056	-78.68
424.263	33.96
424.471	-33.62
424.679	64.68
424.887	-64.34
425.094	83.11
425.302	27.82
425.51	-27.48
425.718	150.7
425.925	169.13
426.133	-4.95
426.341	144.55
426.548	-39.76
426.756	42.15
426.964	52.39
427.171	-58.2
427.379	70.83
427.586	29.87
427.794	113.83
428.001	48.3
428.209	13.48
428.417	185.51
428.624	83.11
428.832	52.39
429.039	38.06
429.247	68.78
429.454	181.42
429.662	107.69
429.869	83.11
430.076	50.35
430.284	99.5
430.491	138.41
430.699	31.91
430.906	156.84
431.114	21.67
431.321	171.18
431.528	74.92
431.736	136.36
431.943	58.54
432.15	48.3
432.358	197.8
432.565	201.9
432.772	5.29
432.979	126.12
433.187	74.92
433.394	115.88
433.601	58.54
433.808	113.83
434.016	173.22
434.223	105.64
434.43	74.92
434.637	257.19
434.844	142.5
435.052	111.78
435.259	205.99
435.466	208.04
435.673	181.42
435.88	203.94
436.087	263.33
436.294	265.38
436.501	191.66
436.708	222.38
436.915	162.98
437.122	281.77
437.329	154.79
437.537	263.33
437.743	246.95
437.95	332.97
438.157	361.64
438.364	263.33
438.571	273.57
438.778	394.4
438.985	294.05
439.192	341.16
439.399	332.97
439.606	343.21
439.813	423.08
440.02	517.28
440.227	515.23
440.433	533.67
440.64	474.28
440.847	472.23
441.054	527.52
441.261	574.63
441.467	556.19
441.674	402.6
441.881	603.3
442.088	545.95
442.294	656.54
442.501	715.94
442.708	644.26
442.914	650.4
443.121	668.83
443.328	730.27
443.534	754.85
443.741	754.85
443.948	658.59
444.154	779.42
444.361	980.12
444.568	892.06
444.774	763.04
444.981	750.75
445.187	982.17
445.394	980.12
445.6	910.49
445.807	1158.3
446.013	1049.75
446.22	1025.18
446.426	1201.3
446.633	1242.26
446.839	1332.37
447.046	1264.79
447.252	1291.41
447.459	1307.8
447.665	1342.61
447.871	1547.41
448.078	1600.66
448.284	1590.42
448.491	1709.2
448.697	1746.06
448.903	1819.79
449.11	1850.51
449.316	1846.41
449.522	1940.62
449.728	2045.07
449.935	2141.32
450.141	2147.47
450.347	2299.02
450.553	2167.95
450.76	2401.41
450.966	2466.95
451.172	2550.92
451.378	2675.84
451.584	2659.46
451.791	2786.43
451.997	2860.16
452.203	3032.19
452.409	3114.11
452.615	3241.08
452.821	3368.06
453.027	3245.18
453.233	3677.3
453.44	3611.76
453.646	3732.59
453.852	3941.49
454.058	4037.74
454.264	4211.82
454.47	4414.57
454.676	4514.92
454.882	4858.98
455.088	4641.89
455.294	4932.7
455.5	5280.86
455.705	5395.54
455.911	5391.45
456.117	5635.16
456.323	5905.49
456.529	5739.6
456.735	6573.13
456.941	6597.7
457.147	6849.6
457.352	7001.15
457.558	7232.57
457.764	7523.38
457.97	7752.76
458.176	8188.97
458.381	8639.53
458.587	8907.81
458.793	9124.9
458.999	9118.75
459.204	10308.62
459.41	10642.44
459.616	10664.97
459.821	11047.94
460.027	11305.98
460.233	11981.81
460.438	12223.47
460.644	12831.72
460.85	13005.8
461.055	13448.16
461.261	14050.26
461.466	13738.97
461.672	14035.92
461.878	15836.09
462.083	15727.55
462.289	15973.3
462.494	16706.48
462.7	16722.86
462.905	16962.47
463.111	18244.5
463.316	19141.51
463.522	19217.29
463.727	19929.98
463.932	20867.95
464.138	21498.72
464.343	22164.31
464.549	22412.12
464.754	24042.3
464.959	24890.16
465.165	25156.39
465.37	25006.89
465.575	25248.55
465.781	26784.53
465.986	27435.78
466.191	27335.43
466.397	27095.82
466.602	26764.05
466.807	28154.62
467.012	28625.65
467.218	29121.26
467.423	29348.59
467.628	30196.45
467.833	31957.7
468.038	30849.75
468.244	30558.94
468.449	32103.1
468.654	31898.31
468.859	31193.81
