Data from USB4F104151__14__10-23-13-949.txt Node

Date: Wed Feb 26 10:23:13 EST 2025
User: louis
Spectrometer: USB4F10415
Trigger mode: 4
Integration Time (sec): 1.000000E-1
Scans to average: 1
Electric dark correction enabled: true
Nonlinearity correction enabled: false
Boxcar width: 0
XAxis mode: Wavelengths
Number of Pixels in Spectrum: 3648
>>>>>Begin Spectral Data<<<<<
178.204	-391.33
178.424	-391.33
178.644	-391.33
178.864	-460.96
179.084	-424.1
179.304	53.08
179.524	65.36
179.744	-59.56
179.964	8.02
180.184	-30.89
180.404	28.5
180.624	24.4
180.844	16.21
181.064	-90.28
181.283	1.88
181.503	-86.19
181.723	69.46
181.943	-96.43
182.163	180.05
182.383	-2.22
182.602	5.97
182.822	155.47
183.042	65.36
183.262	-20.65
183.482	-41.13
183.701	-2.22
183.921	126.8
184.141	-88.23
184.361	145.24
184.58	112.47
184.8	32.6
185.02	-0.17
185.239	79.7
185.459	128.85
185.679	34.64
185.898	-127.14
186.118	-4.27
186.338	-10.41
186.557	30.55
186.777	-28.84
186.997	-10.41
187.216	-6.31
187.436	247.63
187.655	22.36
187.875	75.6
188.095	-18.6
188.314	114.52
188.534	135
188.753	-18.6
188.973	110.42
189.192	100.18
189.412	51.03
189.631	-22.7
189.851	104.28
190.07	126.8
190.29	-118.95
190.509	-30.89
190.729	3.93
190.948	149.33
191.168	233.3
191.387	83.8
191.607	-57.51
191.826	96.08
192.045	5.97
192.265	-77.99
192.484	110.42
192.704	24.4
192.923	-77.99
193.142	171.86
193.362	98.13
193.581	120.66
193.8	5.97
194.02	12.12
194.239	16.21
194.458	94.04
194.678	-8.36
194.897	-51.37
195.116	79.7
195.335	-6.31
195.555	59.22
195.774	-92.33
195.993	59.22
196.212	34.64
196.432	-22.7
196.651	-8.36
196.87	24.4
197.089	151.38
197.308	40.79
197.528	102.23
197.747	-32.94
197.966	36.69
198.185	163.67
198.404	-39.08
198.623	79.7
198.842	116.56
199.062	38.74
199.281	180.05
199.5	32.6
199.719	55.12
199.938	71.51
200.157	46.93
200.376	118.61
200.595	104.28
200.814	44.88
201.033	10.07
201.252	139.09
201.471	51.03
201.69	69.46
201.909	46.93
202.128	1.88
202.347	73.56
202.566	20.31
202.785	-24.75
203.004	-6.31
203.223	167.76
203.442	-18.6
203.661	-88.23
203.879	48.98
204.098	204.63
204.317	-2.22
204.536	51.03
204.755	91.99
204.974	63.32
205.193	-24.75
205.411	69.46
205.63	149.33
205.849	71.51
206.068	-16.55
206.287	-98.47
206.505	102.23
206.724	22.36
206.943	-65.71
207.162	-0.17
207.381	112.47
207.599	87.89
207.818	-12.46
208.037	-4.27
208.255	-34.99
208.474	18.26
208.693	-43.18
208.911	-80.04
209.13	57.17
209.349	42.84
209.567	40.79
209.786	102.23
210.005	67.41
210.223	130.9
210.442	-96.43
210.661	96.08
210.879	65.36
211.098	34.64
211.316	-4.27
211.535	106.32
211.753	96.08
211.972	-6.31
212.191	-51.37
212.409	20.31
212.628	12.12
212.846	-8.36
213.065	55.12
213.283	210.77
213.502	59.22
213.72	81.75
213.938	3.93
214.157	-51.37
214.375	40.79
214.594	22.36
214.812	65.36
215.031	-39.08
215.249	57.17
215.467	104.28
215.686	59.22
215.904	-14.51
216.122	75.6
216.341	85.84
216.559	-51.37
216.778	110.42
216.996	120.66
217.214	38.74
217.432	1.88
217.651	-129.19
217.869	12.12
218.087	26.45
218.306	1.88
218.524	30.55
218.742	-0.17
218.96	98.13
219.179	14.17
219.397	-16.55
219.615	157.52
219.833	143.19
220.051	-12.46
220.27	118.61
220.488	159.57
220.706	24.4
220.924	-94.38
221.142	8.02
221.36	73.56
221.578	61.27
221.796	-4.27
222.015	104.28
222.233	5.97
222.451	239.44
222.669	-59.56
222.887	63.32
223.105	-26.79
223.323	96.08
223.541	-65.71
223.759	55.12
223.977	40.79
224.195	139.09
224.413	79.7
224.631	16.21
224.849	-34.99
225.067	194.39
225.285	-98.47
225.503	28.5
225.721	-135.34
225.939	38.74
226.157	-6.31
226.375	237.39
226.592	-10.41
226.81	22.36
227.028	53.08
227.246	165.71
227.464	38.74
227.682	63.32
227.9	61.27
228.117	18.26
228.335	22.36
228.553	46.93
228.771	-22.7
228.989	71.51
229.206	182.1
229.424	-88.23
229.642	-49.32
229.86	22.36
230.077	85.84
230.295	26.45
230.513	22.36
230.731	51.03
230.948	194.39
231.166	85.84
231.384	-24.75
231.601	59.22
231.819	235.35
232.037	-69.8
232.254	-22.7
232.472	3.93
232.689	-59.56
232.907	104.28
233.125	12.12
233.342	-71.85
233.56	-51.37
233.777	-0.17
233.995	61.27
234.213	75.6
234.43	79.7
234.648	28.5
234.865	-69.8
235.083	46.93
235.3	96.08
235.518	145.24
235.735	59.22
235.953	108.37
236.17	22.36
236.388	112.47
236.605	3.93
236.822	51.03
237.04	83.8
237.257	71.51
237.475	-47.27
237.692	-12.46
237.909	42.84
238.127	34.64
238.344	51.03
238.562	32.6
238.779	-63.66
238.996	-55.47
239.214	16.21
239.431	38.74
239.648	-49.32
239.865	73.56
240.083	26.45
240.3	-55.47
240.517	-30.89
240.735	65.36
240.952	120.66
241.169	14.17
241.386	79.7
241.603	110.42
241.821	-82.09
242.038	85.84
242.255	55.12
242.472	-47.27
242.689	120.66
242.907	106.32
243.124	26.45
243.341	-53.42
243.558	-14.51
243.775	-47.27
243.992	-39.08
244.209	94.04
244.426	102.23
244.643	61.27
244.86	-10.41
245.078	112.47
245.295	67.41
245.512	-37.03
245.729	42.84
245.946	59.22
246.163	-10.41
246.38	1.88
246.597	81.75
246.814	-8.36
247.031	1.88
247.248	-49.32
247.464	98.13
247.681	57.17
247.898	63.32
248.115	89.94
248.332	-45.23
248.549	100.18
248.766	116.56
248.983	14.17
249.2	34.64
249.417	124.76
249.633	-75.95
249.85	102.23
250.067	-2.22
250.284	3.93
250.501	44.88
250.717	12.12
250.934	-98.47
251.151	8.02
251.368	22.36
251.585	71.51
251.801	77.65
252.018	-53.42
252.235	108.37
252.451	-39.08
252.668	-39.08
252.885	98.13
253.102	61.27
253.318	-8.36
253.535	51.03
253.752	30.55
253.968	-39.08
254.185	-108.71
254.401	30.55
254.618	61.27
254.835	-20.65
255.051	128.85
255.268	71.51
255.484	14.17
255.701	34.64
255.917	20.31
256.134	-80.04
256.351	5.97
256.567	-57.51
256.784	-8.36
257	-86.19
257.217	14.17
257.433	42.84
257.65	18.26
257.866	141.14
258.082	-131.24
258.299	-121
258.515	8.02
258.732	18.26
258.948	-34.99
259.165	-20.65
259.381	-59.56
259.597	40.79
259.814	-14.51
260.03	-10.41
260.246	42.84
260.463	137.04
260.679	57.17
260.895	40.79
261.112	38.74
261.328	26.45
261.544	10.07
261.761	237.39
261.977	-34.99
262.193	-63.66
262.409	85.84
262.626	22.36
262.842	36.69
263.058	-26.79
263.274	96.08
263.49	61.27
263.707	102.23
263.923	98.13
264.139	-53.42
264.355	38.74
264.571	96.08
264.787	83.8
265.004	91.99
265.22	16.21
265.436	-49.32
265.652	-18.6
265.868	91.99
266.084	-71.85
266.3	73.56
266.516	-118.95
266.732	12.12
266.948	-0.17
267.164	20.31
267.38	128.85
267.596	26.45
267.812	132.95
268.028	1.88
268.244	-82.09
268.46	14.17
268.676	-41.13
268.892	59.22
269.108	-22.7
269.324	-8.36
269.54	-30.89
269.756	91.99
269.972	-18.6
270.188	-98.47
270.403	-88.23
270.619	-8.36
270.835	48.98
271.051	-34.99
271.267	-61.61
271.483	-77.99
271.698	65.36
271.914	57.17
272.13	79.7
272.346	-51.37
272.562	-34.99
272.777	96.08
272.993	10.07
273.209	1.88
273.425	28.5
273.64	-69.8
273.856	51.03
274.072	-53.42
274.287	-39.08
274.503	26.45
274.719	87.89
274.934	10.07
275.15	-88.23
275.366	3.93
275.581	-65.71
275.797	53.08
276.012	67.41
276.228	1.88
276.444	20.31
276.659	149.33
276.875	-6.31
277.09	-51.37
277.306	-37.03
277.521	57.17
277.737	30.55
277.952	85.84
278.168	34.64
278.383	112.47
278.599	20.31
278.814	91.99
279.03	51.03
279.245	89.94
279.461	42.84
279.676	83.8
279.892	38.74
280.107	-39.08
280.322	-51.37
280.538	67.41
280.753	-84.14
280.969	40.79
281.184	36.69
281.399	130.9
281.615	-49.32
281.83	14.17
282.045	-28.84
282.26	-108.71
282.476	-12.46
282.691	53.08
282.906	51.03
283.122	24.4
283.337	-63.66
283.552	63.32
283.767	-14.51
283.983	73.56
284.198	-2.22
284.413	30.55
284.628	-47.27
284.843	77.65
285.058	155.47
285.274	1.88
285.489	-59.56
285.704	65.36
285.919	57.17
286.134	8.02
286.349	-4.27
286.564	30.55
286.779	106.32
286.995	-26.79
287.21	-75.95
287.425	59.22
287.64	8.02
287.855	55.12
288.07	-145.58
288.285	12.12
288.5	32.6
288.715	81.75
288.93	42.84
289.145	22.36
289.36	71.51
289.575	-92.33
289.79	79.7
290.004	-6.31
290.219	122.71
290.434	-6.31
290.649	26.45
290.864	28.5
291.079	-92.33
291.294	30.55
291.509	81.75
291.724	26.45
291.938	14.17
292.153	34.64
292.368	-4.27
292.583	75.6
292.798	69.46
293.012	61.27
293.227	75.6
293.442	14.17
293.657	112.47
293.871	147.28
294.086	81.75
294.301	167.76
294.516	112.47
294.73	65.36
294.945	-75.95
295.16	-24.75
295.374	118.61
295.589	118.61
295.804	-6.31
296.018	51.03
296.233	61.27
296.447	28.5
296.662	-61.61
296.877	173.91
297.091	124.76
297.306	-55.47
297.52	-28.84
297.735	51.03
297.949	16.21
298.164	32.6
298.378	38.74
298.593	-55.47
298.807	-45.23
299.022	73.56
299.236	202.58
299.451	26.45
299.665	-102.57
299.88	-18.6
300.094	34.64
300.309	38.74
300.523	-6.31
300.737	18.26
300.952	51.03
301.166	16.21
301.381	-12.46
301.595	-6.31
301.809	34.64
302.024	63.32
302.238	51.03
302.452	85.84
302.667	-32.94
302.881	112.47
303.095	81.75
303.309	40.79
303.524	30.55
303.738	12.12
303.952	-22.7
304.166	53.08
304.381	-147.62
304.595	169.81
304.809	-32.94
305.023	69.46
305.237	44.88
305.452	73.56
305.666	83.8
305.88	87.89
306.094	53.08
306.308	34.64
306.522	124.76
306.736	104.28
306.95	71.51
307.164	-2.22
307.379	-4.27
307.593	186.19
307.807	83.8
308.021	55.12
308.235	94.04
308.449	-34.99
308.663	28.5
308.877	104.28
309.091	42.84
309.305	151.38
309.519	-92.33
309.733	83.8
309.947	-90.28
310.161	18.26
310.374	75.6
310.588	87.89
310.802	-10.41
311.016	-51.37
311.23	83.8
311.444	38.74
311.658	1.88
311.872	118.61
312.085	28.5
312.299	91.99
312.513	69.46
312.727	30.55
312.941	-114.86
313.154	124.76
313.368	20.31
313.582	22.36
313.796	-0.17
314.009	26.45
314.223	108.37
314.437	71.51
314.651	79.7
314.864	-16.55
315.078	-14.51
315.292	-55.47
315.505	38.74
315.719	20.31
315.933	104.28
316.146	-43.18
316.36	-24.75
316.573	184.15
316.787	87.89
317.001	-18.6
317.214	-51.37
317.428	38.74
317.641	-80.04
317.855	51.03
318.068	38.74
318.282	51.03
318.495	173.91
318.709	32.6
318.922	8.02
319.136	79.7
319.349	118.61
319.563	-63.66
319.776	71.51
319.99	-110.76
320.203	159.57
320.417	63.32
320.63	30.55
320.843	141.14
321.057	24.4
321.27	-30.89
321.483	94.04
321.697	77.65
321.91	89.94
322.124	108.37
322.337	73.56
322.55	-59.56
322.763	46.93
322.977	36.69
323.19	-10.41
323.403	10.07
323.617	63.32
323.83	104.28
324.043	106.32
324.256	-32.94
324.469	38.74
324.683	161.62
324.896	69.46
325.109	-14.51
325.322	-37.03
325.535	57.17
325.748	81.75
325.962	28.5
326.175	38.74
326.388	38.74
326.601	30.55
326.814	10.07
327.027	44.88
327.24	77.65
327.453	-125.1
327.666	59.22
327.879	38.74
328.092	67.41
328.305	24.4
328.518	22.36
328.731	16.21
328.944	-10.41
329.157	-2.22
329.37	-55.47
329.583	151.38
329.796	81.75
330.009	-10.41
330.222	36.69
330.435	51.03
330.648	-20.65
330.861	16.21
331.073	28.5
331.286	116.56
331.499	-26.79
331.712	-18.6
331.925	-10.41
332.138	3.93
332.35	135
332.563	-26.79
332.776	135
332.989	-10.41
333.202	-2.22
333.414	81.75
333.627	-37.03
333.84	-16.55
334.053	89.94
334.265	-20.65
334.478	-30.89
334.691	-24.75
334.903	-41.13
335.116	69.46
335.329	5.97
335.541	135
335.754	137.04
335.966	16.21
336.179	-14.51
336.392	28.5
336.604	53.08
336.817	91.99
337.029	87.89
337.242	-26.79
337.454	61.27
337.667	3.93
337.88	137.04
338.092	51.03
338.305	67.41
338.517	10.07
338.729	5.97
338.942	100.18
339.154	-30.89
339.367	-110.76
339.579	46.93
339.792	-20.65
340.004	59.22
340.217	30.55
340.429	53.08
340.641	-63.66
340.854	-18.6
341.066	-86.19
341.278	87.89
341.491	173.91
341.703	-6.31
341.915	-100.52
342.128	79.7
342.34	51.03
342.552	-108.71
342.764	36.69
342.977	-49.32
343.189	32.6
343.401	30.55
343.613	-26.79
343.826	59.22
344.038	-43.18
344.25	-4.27
344.462	-86.19
344.674	71.51
344.886	16.21
345.099	114.52
345.311	108.37
345.523	-39.08
345.735	-57.51
345.947	44.88
346.159	-10.41
346.371	-0.17
346.583	26.45
346.795	63.32
347.007	14.17
347.219	69.46
347.431	28.5
347.643	165.71
347.855	14.17
348.067	149.33
348.279	-80.04
348.491	26.45
348.703	108.37
348.915	34.64
349.127	-73.9
349.339	-34.99
349.551	-69.8
349.763	38.74
349.975	34.64
350.187	79.7
350.399	137.04
350.61	75.6
350.822	16.21
351.034	10.07
351.246	8.02
351.458	63.32
351.669	77.65
351.881	30.55
352.093	77.65
352.305	120.66
352.517	44.88
352.728	38.74
352.94	102.23
353.152	77.65
353.363	-63.66
353.575	94.04
353.787	53.08
353.999	77.65
354.21	137.04
354.422	-43.18
354.633	26.45
354.845	87.89
355.057	-10.41
355.268	30.55
355.48	114.52
355.692	-90.28
355.903	28.5
356.115	-53.42
356.326	-90.28
356.538	77.65
356.749	65.36
356.961	114.52
357.172	22.36
357.384	-57.51
357.595	268.11
357.807	5.97
358.018	38.74
358.23	-53.42
358.441	147.28
358.653	128.85
358.864	-10.41
359.075	-16.55
359.287	24.4
359.498	112.47
359.709	-39.08
359.921	57.17
360.132	-0.17
360.344	-4.27
360.555	-53.42
360.766	26.45
360.977	8.02
361.189	67.41
361.4	5.97
361.611	102.23
361.823	83.8
362.034	-26.79
362.245	-71.85
362.456	1.88
362.667	30.55
362.879	-51.37
363.09	-30.89
363.301	-8.36
363.512	26.45
363.723	65.36
363.935	-45.23
364.146	30.55
364.357	69.46
364.568	98.13
364.779	-47.27
364.99	198.48
365.201	-30.89
365.412	94.04
365.623	30.55
365.834	65.36
366.045	-10.41
366.256	59.22
366.467	98.13
366.678	63.32
366.889	28.5
367.1	-55.47
367.311	104.28
367.522	-18.6
367.733	71.51
367.944	8.02
368.155	26.45
368.366	108.37
368.577	89.94
368.788	81.75
368.999	-112.81
369.209	20.31
369.42	206.67
369.631	155.47
369.842	65.36
370.053	-16.55
370.264	128.85
370.474	-43.18
370.685	67.41
370.896	-43.18
371.107	126.8
371.317	59.22
371.528	36.69
371.739	118.61
371.95	40.79
372.16	96.08
372.371	-145.58
372.582	53.08
372.792	55.12
373.003	1.88
373.214	79.7
373.424	30.55
373.635	-47.27
373.846	57.17
374.056	-4.27
374.267	51.03
374.477	53.08
374.688	57.17
374.898	71.51
375.109	-14.51
375.319	-43.18
375.53	51.03
375.74	28.5
375.951	30.55
376.161	89.94
376.372	63.32
376.582	57.17
376.793	108.37
377.003	-80.04
377.214	-80.04
377.424	16.21
377.635	-12.46
377.845	-18.6
378.055	98.13
378.266	-26.79
378.476	-28.84
378.686	-10.41
378.897	30.55
379.107	110.42
379.317	65.36
379.528	-8.36
379.738	48.98
379.948	-71.85
380.158	73.56
380.369	20.31
380.579	57.17
380.789	-39.08
380.999	69.46
381.21	120.66
381.42	124.76
381.63	18.26
381.84	94.04
382.05	34.64
382.261	89.94
382.471	24.4
382.681	-80.04
382.891	114.52
383.101	24.4
383.311	-65.71
383.521	-57.51
383.731	-10.41
383.941	71.51
384.151	38.74
384.361	-18.6
384.571	104.28
384.781	20.31
384.991	200.53
385.201	188.24
385.411	81.75
385.621	87.89
385.831	67.41
386.041	-41.13
386.251	48.98
386.461	57.17
386.671	3.93
386.881	79.7
387.091	-16.55
387.301	118.61
387.511	38.74
387.72	40.79
387.93	16.21
388.14	-28.84
388.35	34.64
388.56	67.41
388.769	61.27
388.979	44.88
389.189	-63.66
389.399	-16.55
389.609	44.88
389.818	34.64
390.028	89.94
390.238	91.99
390.447	-26.79
390.657	51.03
390.867	-10.41
391.076	-77.99
391.286	-12.46
391.496	14.17
391.705	28.5
391.915	77.65
392.125	120.66
392.334	65.36
392.544	126.8
392.753	16.21
392.963	10.07
393.172	106.32
393.382	61.27
393.591	239.44
393.801	-8.36
394.01	75.6
394.22	67.41
394.429	-8.36
394.639	8.02
394.848	-6.31
395.058	1.88
395.267	-98.47
395.477	46.93
395.686	73.56
395.895	163.67
396.105	163.67
396.314	153.43
396.524	46.93
396.733	22.36
396.942	102.23
397.152	40.79
397.361	114.52
397.57	36.69
397.78	28.5
397.989	59.22
398.198	126.8
398.407	51.03
398.617	5.97
398.826	94.04
399.035	5.97
399.244	94.04
399.453	16.21
399.663	3.93
399.872	3.93
400.081	-75.95
400.29	145.24
400.499	-100.52
400.708	51.03
400.917	-37.03
401.127	-20.65
401.336	-37.03
401.545	135
401.754	5.97
401.963	38.74
402.172	-4.27
402.381	-22.7
402.59	59.22
402.799	30.55
403.008	98.13
403.217	112.47
403.426	26.45
403.635	-96.43
403.844	73.56
404.053	-34.99
404.262	-12.46
404.471	130.9
404.68	-34.99
404.888	-14.51
405.097	-10.41
405.306	36.69
405.515	65.36
405.724	32.6
405.933	83.8
406.142	67.41
406.35	145.24
406.559	1.88
406.768	-2.22
406.977	126.8
407.185	38.74
407.394	55.12
407.603	32.6
407.812	40.79
408.02	120.66
408.229	-41.13
408.438	34.64
408.646	-12.46
408.855	18.26
409.064	18.26
409.272	63.32
409.481	46.93
409.69	-22.7
409.898	16.21
410.107	40.79
410.315	5.97
410.524	-37.03
410.733	26.45
410.941	28.5
411.15	75.6
411.358	65.36
411.567	143.19
411.775	34.64
411.984	3.93
412.192	55.12
412.401	-61.61
412.609	167.76
412.818	71.51
413.026	151.38
413.234	-28.84
413.443	38.74
413.651	20.31
413.86	5.97
414.068	106.32
414.276	32.6
414.485	-8.36
414.693	157.52
414.901	169.81
415.11	91.99
415.318	32.6
415.526	48.98
415.734	132.95
415.943	87.89
416.151	139.09
416.359	67.41
416.567	77.65
416.776	63.32
416.984	114.52
417.192	175.95
417.4	-49.32
417.608	-8.36
417.817	-28.84
418.025	91.99
418.233	182.1
418.441	-2.22
418.649	-16.55
418.857	69.46
419.065	137.04
419.273	-63.66
419.481	-2.22
419.689	108.37
419.897	24.4
420.105	-24.75
420.313	98.13
420.521	94.04
420.729	120.66
420.937	-18.6
421.145	8.02
421.353	77.65
421.561	108.37
421.769	44.88
421.977	5.97
422.185	48.98
422.393	55.12
422.601	106.32
422.809	65.36
423.017	100.18
423.224	12.12
423.432	180.05
423.64	12.12
423.848	120.66
424.056	12.12
424.263	53.08
424.471	55.12
424.679	85.84
424.887	-26.79
425.094	130.9
425.302	94.04
425.51	-8.36
425.718	128.85
425.925	-14.51
426.133	-41.13
426.341	157.52
426.548	22.36
426.756	79.7
426.964	149.33
427.171	-8.36
427.379	22.36
427.586	16.21
427.794	79.7
428.001	79.7
428.209	87.89
428.417	155.47
428.624	61.27
428.832	116.56
429.039	46.93
429.247	-0.17
429.454	32.6
429.662	216.91
429.869	79.7
430.076	59.22
430.284	96.08
430.491	126.8
430.699	147.28
430.906	130.9
431.114	126.8
431.321	98.13
431.528	77.65
431.736	87.89
431.943	120.66
432.15	196.43
432.358	167.76
432.565	229.2
432.772	-20.65
432.979	184.15
433.187	151.38
433.394	231.25
433.601	102.23
433.808	173.91
434.016	223.06
434.223	98.13
434.43	159.57
434.637	190.29
434.844	300.88
435.052	184.15
435.259	192.34
435.466	249.68
435.673	227.15
435.88	239.44
436.087	192.34
436.294	302.93
436.501	274.26
436.708	241.49
436.915	206.67
437.122	311.12
437.329	245.59
437.537	245.59
437.743	243.54
437.95	382.8
438.157	290.64
438.364	233.3
438.571	223.06
438.778	311.12
438.985	370.51
439.192	315.22
439.399	321.36
439.606	323.41
439.813	333.65
440.02	491.34
440.227	513.87
440.433	524.11
440.64	397.14
440.847	319.31
441.054	456.53
441.261	546.64
441.467	464.72
441.674	399.18
441.881	642.89
442.088	530.25
442.294	542.54
442.501	614.22
442.708	636.75
442.914	558.92
443.121	665.42
443.328	657.23
443.534	788.3
443.741	757.58
443.948	585.55
444.154	765.77
444.361	855.88
444.568	714.57
444.774	894.79
444.981	786.25
445.187	972.61
445.394	843.59
445.6	878.41
445.807	991.05
446.013	1011.53
446.22	872.26
446.426	1122.12
446.633	1185.6
446.839	1279.81
447.046	1070.92
447.252	1267.52
447.459	1271.62
447.665	1193.8
447.871	1441.6
448.078	1490.75
448.284	1580.86
448.491	1562.43
448.697	1587.01
448.903	1744.7
449.11	1736.51
449.316	1582.91
449.522	1886.01
449.728	1963.83
449.935	2096.95
450.141	2035.51
450.347	2049.85
450.553	2074.42
450.76	2244.4
450.966	2178.87
451.172	2279.22
451.378	2332.47
451.584	2539.31
451.791	2694.96
451.997	2692.91
452.203	2860.84
452.409	2950.95
452.615	3043.11
452.821	2944.81
453.027	2893.61
453.233	3434.27
453.44	3217.19
453.646	3434.27
453.852	3567.39
454.058	3819.29
454.264	3831.58
454.47	4187.93
454.676	4108.05
454.882	4558.61
455.088	4445.97
455.294	4669.2
455.5	4935.43
455.705	5220.1
455.911	5076.74
456.117	5306.12
456.323	5478.15
456.529	5455.62
456.735	6031.1
456.941	6199.03
457.147	6360.82
457.352	6420.21
457.558	6608.62
457.764	7251.69
457.97	7261.93
458.176	7835.36
458.381	8087.26
458.587	8263.38
458.793	8378.07
458.999	8525.52
459.204	9717.44
459.41	9934.53
459.616	9567.94
459.821	10401.46
460.027	10737.33
460.233	11228.84
460.438	11261.61
460.644	11925.15
460.85	12009.12
461.055	12652.18
461.261	13360.78
461.466	12781.2
461.672	13088.4
461.878	14587.51
462.083	14524.02
462.289	14782.07
462.494	15160.94
462.7	15533.67
462.905	15652.45
463.111	17233.49
463.316	17573.45
463.522	17978.95
463.727	18611.77
463.932	19256.88
464.138	20172.32
464.343	20608.54
464.549	20913.69
464.754	22529.53
464.959	22965.75
465.165	23617
465.37	23537.13
465.575	23274.99
465.781	24692.19
465.986	25558.48
466.191	25069.01
466.397	25169.37
466.602	24481.25
466.807	26076.62
467.012	26469.83
467.218	27004.35
467.423	26873.28
467.628	27936.17
467.833	29300.12
468.038	28646.82
468.244	27741.61
468.449	29646.22
468.654	28870.04
468.859	28849.57
