Data from USB4F104151__61__11-30-50-965.txt Node

Date: Wed Feb 26 11:30:50 EST 2025
User: louis
Spectrometer: USB4F10415
Trigger mode: 4
Integration Time (sec): 1.000000E-1
Scans to average: 1
Electric dark correction enabled: true
Nonlinearity correction enabled: false
Boxcar width: 0
XAxis mode: Wavelengths
Number of Pixels in Spectrum: 3648
>>>>>Begin Spectral Data<<<<<
178.204	-427.51
178.424	-427.51
178.644	-427.51
178.864	-374.27
179.084	-337.4
179.304	-48.64
179.524	-28.16
179.744	57.86
179.964	59.9
180.184	8.7
180.404	20.99
180.624	-69.12
180.844	37.38
181.064	-13.82
181.283	61.95
181.503	-62.98
181.723	-24.06
181.943	-89.6
182.163	193.02
182.383	23.04
182.602	107.01
182.822	166.4
183.042	41.47
183.262	-44.54
183.482	59.9
183.701	86.53
183.921	14.85
184.141	-60.93
184.361	68.09
184.58	31.23
184.8	31.23
185.02	-5.63
185.239	121.34
185.459	125.44
185.679	74.24
185.898	-58.88
186.118	72.19
186.338	45.57
186.557	68.09
186.777	-56.83
186.997	47.62
187.216	76.29
187.436	209.4
187.655	78.33
187.875	94.72
188.095	86.53
188.314	61.95
188.534	74.24
188.753	78.33
188.973	139.77
189.192	207.36
189.412	-40.45
189.631	61.95
189.851	156.16
190.07	260.6
190.29	-83.45
190.509	-30.21
190.729	111.1
190.948	47.62
191.168	227.84
191.387	70.14
191.607	82.43
191.826	51.71
192.045	41.47
192.265	23.04
192.484	39.42
192.704	100.86
192.923	-73.21
193.142	152.06
193.362	170.49
193.581	164.35
193.8	80.38
194.02	119.29
194.239	61.95
194.458	53.76
194.678	-5.63
194.897	10.75
195.116	12.8
195.335	47.62
195.555	74.24
195.774	66.05
195.993	145.92
196.212	47.62
196.432	-40.45
196.651	66.05
196.87	8.7
197.089	281.08
197.308	131.58
197.528	43.52
197.747	-54.78
197.966	23.04
198.185	141.82
198.404	-65.02
198.623	119.29
198.842	109.05
199.062	107.01
199.281	39.42
199.5	117.25
199.719	80.38
199.938	107.01
200.157	121.34
200.376	133.63
200.595	176.64
200.814	113.15
201.033	-32.26
201.252	158.21
201.471	74.24
201.69	111.1
201.909	74.24
202.128	137.73
202.347	33.28
202.566	102.91
202.785	-36.35
203.004	-30.21
203.223	270.84
203.442	143.87
203.661	-9.73
203.879	113.15
204.098	139.77
204.317	27.14
204.536	76.29
204.755	51.71
204.974	156.16
205.193	49.66
205.411	158.21
205.63	107.01
205.849	133.63
206.068	4.61
206.287	29.18
206.505	152.06
206.724	51.71
206.943	41.47
207.162	27.14
207.381	55.81
207.599	47.62
207.818	80.38
208.037	-22.02
208.255	55.81
208.474	115.2
208.693	127.49
208.911	29.18
209.13	102.91
209.349	111.1
209.567	115.2
209.786	115.2
210.005	141.82
210.223	133.63
210.442	-60.93
210.661	39.42
210.879	27.14
211.098	53.76
211.316	51.71
211.535	64
211.753	45.57
211.972	-3.58
212.191	-36.35
212.409	107.01
212.628	96.77
212.846	31.23
213.065	23.04
213.283	180.73
213.502	39.42
213.72	88.57
213.938	41.47
214.157	8.7
214.375	164.35
214.594	2.56
214.812	94.72
215.031	80.38
215.249	57.86
215.467	45.57
215.686	49.66
215.904	10.75
216.122	100.86
216.341	152.06
216.559	145.92
216.778	143.87
216.996	141.82
217.214	39.42
217.432	16.9
217.651	-48.64
217.869	111.1
218.087	47.62
218.306	-42.5
218.524	66.05
218.742	86.53
218.96	139.77
219.179	31.23
219.397	4.61
219.615	293.37
219.833	172.54
220.051	23.04
220.27	107.01
220.488	131.58
220.706	100.86
220.924	35.33
221.142	-48.64
221.36	164.35
221.578	98.81
221.796	76.29
222.015	23.04
222.233	20.99
222.451	102.91
222.669	-75.26
222.887	88.57
223.105	57.86
223.323	33.28
223.541	59.9
223.759	18.94
223.977	61.95
224.195	158.21
224.413	12.8
224.631	61.95
224.849	80.38
225.067	238.08
225.285	31.23
225.503	59.9
225.721	-75.26
225.939	18.94
226.157	51.71
226.375	176.64
226.592	33.28
226.81	82.43
227.028	133.63
227.246	117.25
227.464	164.35
227.682	215.55
227.9	117.25
228.117	113.15
228.335	100.86
228.553	33.28
228.771	70.14
228.989	170.49
229.206	109.05
229.424	33.28
229.642	4.61
229.86	-15.87
230.077	170.49
230.295	-19.97
230.513	152.06
230.731	82.43
230.948	121.34
231.166	145.92
231.384	16.9
231.601	51.71
231.819	141.82
232.037	70.14
232.254	-65.02
232.472	-34.3
232.689	25.09
232.907	168.45
233.125	86.53
233.342	74.24
233.56	23.04
233.777	18.94
233.995	43.52
234.213	170.49
234.43	84.48
234.648	49.66
234.865	39.42
235.083	82.43
235.3	74.24
235.518	80.38
235.735	195.07
235.953	25.09
236.17	49.66
236.388	18.94
236.605	90.62
236.822	160.25
237.04	205.31
237.257	27.14
237.475	37.38
237.692	68.09
237.909	102.91
238.127	27.14
238.344	88.57
238.562	90.62
238.779	57.86
238.996	-50.69
239.214	39.42
239.431	143.87
239.648	20.99
239.865	80.38
240.083	27.14
240.3	37.38
240.517	25.09
240.735	80.38
240.952	119.29
241.169	145.92
241.386	176.64
241.603	25.09
241.821	2.56
242.038	59.9
242.255	127.49
242.472	-75.26
242.689	84.48
242.907	86.53
243.124	55.81
243.341	64
243.558	33.28
243.775	-124.41
243.992	16.9
244.209	119.29
244.426	197.12
244.643	68.09
244.86	102.91
245.078	121.34
245.295	135.68
245.512	45.57
245.729	76.29
245.946	86.53
246.163	133.63
246.38	53.76
246.597	64
246.814	88.57
247.031	-1.54
247.248	68.09
247.464	66.05
247.681	31.23
247.898	147.97
248.115	117.25
248.332	-1.54
248.549	129.53
248.766	238.08
248.983	80.38
249.2	98.81
249.417	150.01
249.633	18.94
249.85	178.69
250.067	43.52
250.284	41.47
250.501	80.38
250.717	104.96
250.934	25.09
251.151	74.24
251.368	45.57
251.585	-44.54
251.801	41.47
252.018	6.66
252.235	170.49
252.451	-26.11
252.668	-7.68
252.885	111.1
253.102	129.53
253.318	16.9
253.535	135.68
253.752	70.14
253.968	53.76
254.185	-1.54
254.401	66.05
254.618	131.58
254.835	20.99
255.051	135.68
255.268	154.11
255.484	156.16
255.701	8.7
255.917	121.34
256.134	23.04
256.351	59.9
256.567	-28.16
256.784	6.66
257	-38.4
257.217	156.16
257.433	86.53
257.65	14.85
257.866	70.14
258.082	-3.58
258.299	-40.45
258.515	104.96
258.732	68.09
258.948	-3.58
259.165	-15.87
259.381	0.51
259.597	70.14
259.814	31.23
260.03	-3.58
260.246	102.91
260.463	141.82
260.679	133.63
260.895	61.95
261.112	123.39
261.328	57.86
261.544	-15.87
261.761	158.21
261.977	-69.12
262.193	-11.78
262.409	111.1
262.626	-13.82
262.842	4.61
263.058	-1.54
263.274	102.91
263.49	109.05
263.707	117.25
263.923	76.29
264.139	-7.68
264.355	53.76
264.571	113.15
264.787	135.68
265.004	156.16
265.22	102.91
265.436	-44.54
265.652	-13.82
265.868	90.62
266.084	-17.92
266.3	39.42
266.516	-13.82
266.732	88.57
266.948	14.85
267.164	0.51
267.38	111.1
267.596	107.01
267.812	160.25
268.028	61.95
268.244	-5.63
268.46	90.62
268.676	18.94
268.892	119.29
269.108	-34.3
269.324	25.09
269.54	59.9
269.756	115.2
269.972	-62.98
270.188	80.38
270.403	-62.98
270.619	90.62
270.835	145.92
271.051	12.8
271.267	27.14
271.483	-9.73
271.698	80.38
271.914	57.86
272.13	-3.58
272.346	61.95
272.562	119.29
272.777	127.49
272.993	61.95
273.209	23.04
273.425	90.62
273.64	-85.5
273.856	170.49
274.072	-85.5
274.287	6.66
274.503	82.43
274.719	145.92
274.934	35.33
275.15	-85.5
275.366	-17.92
275.581	41.47
275.797	98.81
276.012	68.09
276.228	-48.64
276.444	61.95
276.659	133.63
276.875	41.47
277.09	-11.78
277.306	4.61
277.521	35.33
277.737	23.04
277.952	182.78
278.168	27.14
278.383	33.28
278.599	88.57
278.814	197.12
279.03	55.81
279.245	158.21
279.461	55.81
279.676	92.67
279.892	-1.54
280.107	10.75
280.322	6.66
280.538	35.33
280.753	43.52
280.969	51.71
281.184	51.71
281.399	158.21
281.615	-22.02
281.83	90.62
282.045	6.66
282.26	61.95
282.476	86.53
282.691	43.52
282.906	55.81
283.122	41.47
283.337	37.38
283.552	133.63
283.767	61.95
283.983	94.72
284.198	20.99
284.413	72.19
284.628	-71.17
284.843	68.09
285.058	92.67
285.274	33.28
285.489	0.51
285.704	107.01
285.919	135.68
286.134	61.95
286.349	43.52
286.564	6.66
286.779	150.01
286.995	70.14
287.21	25.09
287.425	113.15
287.64	-38.4
287.855	80.38
288.07	-32.26
288.285	158.21
288.5	37.38
288.715	47.62
288.93	70.14
289.145	-11.78
289.36	195.07
289.575	0.51
289.79	70.14
290.004	-9.73
290.219	74.24
290.434	51.71
290.649	23.04
290.864	59.9
291.079	80.38
291.294	-97.79
291.509	78.33
291.724	-15.87
291.938	35.33
292.153	100.86
292.368	-15.87
292.583	12.8
292.798	125.44
293.012	98.81
293.227	107.01
293.442	-50.69
293.657	131.58
293.871	176.64
294.086	133.63
294.301	162.3
294.516	145.92
294.73	107.01
294.945	-7.68
295.16	147.97
295.374	160.25
295.589	154.11
295.804	16.9
296.018	141.82
296.233	178.69
296.447	113.15
296.662	2.56
296.877	158.21
297.091	94.72
297.306	33.28
297.52	111.1
297.735	78.33
297.949	16.9
298.164	111.1
298.378	-7.68
298.593	-67.07
298.807	8.7
299.022	82.43
299.236	178.69
299.451	4.61
299.665	23.04
299.88	82.43
300.094	154.11
300.309	12.8
300.523	82.43
300.737	35.33
300.952	29.18
301.166	98.81
301.381	18.94
301.595	8.7
301.809	68.09
302.024	35.33
302.238	49.66
302.452	92.67
302.667	23.04
302.881	147.97
303.095	160.25
303.309	102.91
303.524	-44.54
303.738	53.76
303.952	-13.82
304.166	68.09
304.381	-75.26
304.595	182.78
304.809	27.14
305.023	33.28
305.237	4.61
305.452	121.34
305.666	102.91
305.88	176.64
306.094	160.25
306.308	61.95
306.522	186.88
306.736	33.28
306.95	135.68
307.164	41.47
307.379	53.76
307.593	141.82
307.807	164.35
308.021	41.47
308.235	111.1
308.449	-36.35
308.663	20.99
308.877	279.04
309.091	90.62
309.305	166.4
309.519	-81.41
309.733	150.01
309.947	-73.21
310.161	107.01
310.374	133.63
310.588	119.29
310.802	64
311.016	18.94
311.23	80.38
311.444	-13.82
311.658	-13.82
311.872	172.54
312.085	205.31
312.299	156.16
312.513	129.53
312.727	43.52
312.941	47.62
313.154	100.86
313.368	98.81
313.582	16.9
313.796	82.43
314.009	47.62
314.223	96.77
314.437	139.77
314.651	133.63
314.864	74.24
315.078	8.7
315.292	-17.92
315.505	33.28
315.719	78.33
315.933	127.49
316.146	-50.69
316.36	-5.63
316.573	229.88
316.787	102.91
317.001	68.09
317.214	-7.68
317.428	-19.97
317.641	33.28
317.855	115.2
318.068	45.57
318.282	92.67
318.495	186.88
318.709	119.29
318.922	64
319.136	158.21
319.349	123.39
319.563	39.42
319.776	111.1
319.99	-46.59
320.203	107.01
320.417	72.19
320.63	111.1
320.843	178.69
321.057	107.01
321.27	-22.02
321.483	10.75
321.697	221.69
321.91	39.42
322.124	68.09
322.337	0.51
322.55	-19.97
322.763	16.9
322.977	64
323.19	-73.21
323.403	64
323.617	45.57
323.83	158.21
324.043	6.66
324.256	70.14
324.469	12.8
324.683	178.69
324.896	33.28
325.109	37.38
325.322	-24.06
325.535	182.78
325.748	184.83
325.962	64
326.175	80.38
326.388	94.72
326.601	125.44
326.814	14.85
327.027	68.09
327.24	129.53
327.453	-83.45
327.666	64
327.879	166.4
328.092	41.47
328.305	84.48
328.518	57.86
328.731	49.66
328.944	102.91
329.157	80.38
329.37	-1.54
329.583	147.97
329.796	127.49
330.009	-17.92
330.222	154.11
330.435	109.05
330.648	102.91
330.861	39.42
331.073	51.71
331.286	133.63
331.499	84.48
331.712	-9.73
331.925	59.9
332.138	90.62
332.35	131.58
332.563	-71.17
332.776	68.09
332.989	-11.78
333.202	123.39
333.414	66.05
333.627	102.91
333.84	51.71
334.053	20.99
334.265	43.52
334.478	49.66
334.691	29.18
334.903	147.97
335.116	12.8
335.329	102.91
335.541	150.01
335.754	184.83
335.966	18.94
336.179	61.95
336.392	59.9
336.604	90.62
336.817	152.06
337.029	39.42
337.242	74.24
337.454	147.97
337.667	61.95
337.88	178.69
338.092	84.48
338.305	117.25
338.517	74.24
338.729	90.62
338.942	150.01
339.154	33.28
339.367	-87.55
339.579	154.11
339.792	0.51
340.004	133.63
340.217	31.23
340.429	92.67
340.641	-3.58
340.854	-30.21
341.066	102.91
341.278	164.35
341.491	182.78
341.703	23.04
341.915	55.81
342.128	164.35
342.34	82.43
342.552	-13.82
342.764	29.18
342.977	68.09
343.189	111.1
343.401	129.53
343.613	-52.74
343.826	68.09
344.038	10.75
344.25	39.42
344.462	27.14
344.674	78.33
344.886	16.9
345.099	55.81
345.311	39.42
345.523	12.8
345.735	-34.3
345.947	16.9
346.159	41.47
346.371	8.7
346.583	-9.73
346.795	211.45
347.007	14.85
347.219	0.51
347.431	121.34
347.643	107.01
347.855	20.99
348.067	121.34
348.279	-3.58
348.491	68.09
348.703	154.11
348.915	55.81
349.127	35.33
349.339	147.97
349.551	64
349.763	51.71
349.975	35.33
350.187	174.59
350.399	193.02
350.61	43.52
350.822	33.28
351.034	98.81
351.246	123.39
351.458	96.77
351.669	100.86
351.881	74.24
352.093	113.15
352.305	172.54
352.517	100.86
352.728	186.88
352.94	59.9
353.152	72.19
353.363	4.61
353.575	164.35
353.787	158.21
353.999	88.57
354.21	250.36
354.422	39.42
354.633	61.95
354.845	98.81
355.057	29.18
355.268	68.09
355.48	168.45
355.692	12.8
355.903	66.05
356.115	-36.35
356.326	4.61
356.538	172.54
356.749	94.72
356.961	184.83
357.172	41.47
357.384	-17.92
357.595	137.73
357.807	20.99
358.018	-60.93
358.23	55.81
358.441	233.98
358.653	121.34
358.864	109.05
359.075	45.57
359.287	27.14
359.498	66.05
359.709	100.86
359.921	49.66
360.132	45.57
360.344	23.04
360.555	-32.26
360.766	86.53
360.977	14.85
361.189	96.77
361.4	31.23
361.611	129.53
361.823	98.81
362.034	109.05
362.245	-128.51
362.456	88.57
362.667	129.53
362.879	-15.87
363.09	117.25
363.301	117.25
363.512	107.01
363.723	-7.68
363.935	33.28
364.146	143.87
364.357	29.18
364.568	20.99
364.779	2.56
364.99	119.29
365.201	-36.35
365.412	139.77
365.623	-52.74
365.834	170.49
366.045	41.47
366.256	107.01
366.467	100.86
366.678	20.99
366.889	145.92
367.1	51.71
367.311	143.87
367.522	-24.06
367.733	72.19
367.944	137.73
368.155	41.47
368.366	125.44
368.577	78.33
368.788	174.59
368.999	8.7
369.209	47.62
369.42	252.41
369.631	178.69
369.842	47.62
370.053	-32.26
370.264	115.2
370.474	8.7
370.685	-11.78
370.896	64
371.107	70.14
371.317	121.34
371.528	31.23
371.739	111.1
371.95	168.45
372.16	147.97
372.371	-3.58
372.582	-24.06
372.792	111.1
373.003	55.81
373.214	139.77
373.424	100.86
373.635	-36.35
373.846	150.01
374.056	84.48
374.267	76.29
374.477	125.44
374.688	29.18
374.898	90.62
375.109	51.71
375.319	74.24
375.53	55.81
375.74	61.95
375.951	47.62
376.161	94.72
376.372	168.45
376.582	51.71
376.793	78.33
377.003	82.43
377.214	14.85
377.424	125.44
377.635	43.52
377.845	25.09
378.055	188.93
378.266	-24.06
378.476	35.33
378.686	109.05
378.897	33.28
379.107	143.87
379.317	35.33
379.528	-56.83
379.738	96.77
379.948	35.33
380.158	51.71
380.369	53.76
380.579	184.83
380.789	45.57
380.999	109.05
381.21	88.57
381.42	207.36
381.63	20.99
381.84	119.29
382.05	78.33
382.261	84.48
382.471	145.92
382.681	16.9
382.891	172.54
383.101	98.81
383.311	18.94
383.521	-17.92
383.731	137.73
383.941	119.29
384.151	72.19
384.361	51.71
384.571	37.38
384.781	51.71
384.991	135.68
385.201	160.25
385.411	129.53
385.621	133.63
385.831	133.63
386.041	96.77
386.251	61.95
386.461	145.92
386.671	4.61
386.881	31.23
387.091	115.2
387.301	76.29
387.511	29.18
387.72	111.1
387.93	94.72
388.14	2.56
388.35	66.05
388.56	127.49
388.769	107.01
388.979	25.09
389.189	-19.97
389.399	90.62
389.609	158.21
389.818	47.62
390.028	152.06
390.238	127.49
390.447	16.9
390.657	66.05
390.867	16.9
391.076	-30.21
391.286	20.99
391.496	6.66
391.705	12.8
391.915	154.11
392.125	139.77
392.334	68.09
392.544	156.16
392.753	74.24
392.963	4.61
393.172	111.1
393.382	43.52
393.591	98.81
393.801	12.8
394.01	193.02
394.22	90.62
394.429	64
394.639	33.28
394.848	88.57
395.058	102.91
395.267	76.29
395.477	107.01
395.686	70.14
395.895	193.02
396.105	215.55
396.314	-1.54
396.524	111.1
396.733	-7.68
396.942	156.16
397.152	88.57
397.361	129.53
397.57	119.29
397.78	45.57
397.989	131.58
398.198	219.64
398.407	76.29
398.617	66.05
398.826	82.43
399.035	18.94
399.244	94.72
399.453	14.85
399.663	6.66
399.872	98.81
400.081	20.99
400.29	156.16
400.499	-17.92
400.708	47.62
400.917	51.71
401.127	98.81
401.336	78.33
401.545	279.04
401.754	111.1
401.963	107.01
402.172	43.52
402.381	72.19
402.59	45.57
402.799	72.19
403.008	141.82
403.217	92.67
403.426	37.38
403.635	-91.65
403.844	23.04
404.053	-17.92
404.262	31.23
404.471	221.69
404.68	166.4
404.888	-1.54
405.097	76.29
405.306	113.15
405.515	90.62
405.724	31.23
405.933	111.1
406.142	145.92
406.35	143.87
406.559	16.9
406.768	49.66
406.977	172.54
407.185	84.48
407.394	113.15
407.603	2.56
407.812	139.77
408.02	123.39
408.229	41.47
408.438	80.38
408.646	2.56
408.855	100.86
409.064	78.33
409.272	92.67
409.481	107.01
409.69	29.18
409.898	-24.06
410.107	51.71
410.315	82.43
410.524	-1.54
410.733	96.77
410.941	72.19
411.15	123.39
411.358	193.02
411.567	178.69
411.775	-9.73
411.984	98.81
412.192	88.57
412.401	23.04
412.609	244.22
412.818	76.29
413.026	184.83
413.234	131.58
413.443	49.66
413.651	-28.16
413.86	4.61
414.068	190.97
414.276	250.36
414.485	59.9
414.693	209.4
414.901	227.84
415.11	100.86
415.318	41.47
415.526	139.77
415.734	70.14
415.943	82.43
416.151	117.25
416.359	113.15
416.567	51.71
416.776	168.45
416.984	139.77
417.192	133.63
417.4	29.18
417.608	68.09
417.817	6.66
418.025	90.62
418.233	180.73
418.441	57.86
418.649	14.85
418.857	170.49
419.065	113.15
419.273	33.28
419.481	92.67
419.689	53.76
419.897	-7.68
420.105	-15.87
420.313	137.73
420.521	147.97
420.729	147.97
420.937	35.33
421.145	23.04
421.353	82.43
421.561	184.83
421.769	109.05
421.977	59.9
422.185	166.4
422.393	78.33
422.601	145.92
422.809	115.2
423.017	96.77
423.224	145.92
423.432	135.68
423.64	86.53
423.848	86.53
424.056	10.75
424.263	125.44
424.471	104.96
424.679	195.07
424.887	14.85
425.094	213.5
425.302	129.53
425.51	23.04
425.718	129.53
425.925	123.39
426.133	70.14
426.341	225.79
426.548	113.15
426.756	125.44
426.964	113.15
427.171	59.9
427.379	96.77
427.586	94.72
427.794	164.35
428.001	150.01
428.209	178.69
428.417	209.4
428.624	164.35
428.832	82.43
429.039	117.25
429.247	168.45
429.454	74.24
429.662	205.31
429.869	176.64
430.076	150.01
430.284	211.45
430.491	246.27
430.699	156.16
430.906	238.08
431.114	176.64
431.321	172.54
431.528	150.01
431.736	209.4
431.943	201.21
432.15	205.31
432.358	174.59
432.565	270.84
432.772	117.25
432.979	201.21
433.187	162.3
433.394	289.28
433.601	158.21
433.808	307.71
434.016	301.56
434.223	244.22
434.43	256.51
434.637	352.76
434.844	270.84
435.052	221.69
435.259	291.32
435.466	272.89
435.673	295.42
435.88	340.47
436.087	424.44
436.294	457.21
436.501	383.48
436.708	324.09
436.915	401.91
437.122	395.77
437.329	338.43
437.537	422.39
437.743	397.82
437.95	449.02
438.157	451.07
438.364	567.8
438.571	461.3
438.778	573.94
438.985	600.57
439.192	598.52
439.399	578.04
439.606	582.14
439.813	709.11
440.02	805.36
440.227	877.04
440.433	705.01
440.64	692.73
440.847	664.05
441.054	662.01
441.261	870.9
441.467	799.22
441.674	682.49
441.881	858.61
442.088	825.84
442.294	846.32
442.501	915.95
442.708	983.54
442.914	954.87
443.121	1112.56
443.328	1143.28
443.534	1085.94
443.741	1118.7
443.948	954.87
444.154	1122.8
444.361	1323.5
444.568	1253.87
444.774	1303.02
444.981	1174
445.187	1427.95
445.394	1497.58
445.6	1393.13
445.807	1657.32
446.013	1561.06
446.22	1552.87
446.426	1749.48
446.633	1886.69
446.839	1984.99
447.046	1790.44
447.252	2015.71
447.459	2095.58
447.665	1946.08
447.871	2253.28
448.078	2482.65
448.284	2277.85
448.491	2470.36
448.697	2515.42
448.903	2734.55
449.11	2662.87
449.316	2693.59
449.522	2839
449.728	3133.9
449.935	3269.07
450.141	3099.09
450.347	3447.24
450.553	3379.66
450.76	3394
450.966	3779.01
451.172	3768.77
451.378	3758.53
451.584	3924.42
451.791	4311.49
451.997	4196.8
452.203	4532.67
452.409	4712.89
452.615	4843.96
452.821	4813.24
453.027	4774.33
453.233	5181.87
453.44	5237.17
453.646	5607.85
453.852	5863.85
454.058	6007.2
454.264	6207.91
454.47	6668.7
454.676	6599.07
454.882	7180.69
455.088	6939.03
455.294	7377.3
455.5	7889.29
455.705	8313.22
455.911	8284.55
456.117	8454.53
456.323	8788.35
456.529	8761.72
456.735	9423.22
456.941	9967.98
457.147	10176.87
457.352	10109.29
457.558	10791.26
457.764	11354.45
457.97	11839.82
458.176	12083.53
458.381	13019.45
458.587	12831.04
458.793	13769.01
458.999	13646.13
459.204	15655.19
459.41	15866.13
459.616	15477.01
459.821	16615.68
460.027	17291.51
460.233	18122.99
460.438	18284.78
460.644	19273.95
460.85	19388.63
461.055	20121.8
461.261	20988.1
461.466	21100.73
461.672	21231.8
461.878	23670.93
462.083	23363.74
462.289	23955.6
462.494	25290.88
462.7	25120.9
462.905	25397.37
463.111	27619.42
463.316	28901.45
463.522	29513.79
463.727	30699.56
463.932	31698.97
464.138	32438.29
464.343	34017.27
464.549	33947.64
464.754	35915.74
464.959	37083.08
465.165	38057.92
465.37	37615.55
465.575	37752.77
465.781	39974.81
465.986	41203.6
466.191	41117.58
466.397	40867.73
466.602	40099.74
466.807	42514.3
467.012	43374.44
467.218	43804.52
467.423	43951.97
467.628	45225.81
467.833	47304.49
468.038	46696.25
