Data from USB4F104151__49__11-26-50-391.txt Node

Date: Wed Feb 26 11:26:50 EST 2025
User: louis
Spectrometer: USB4F10415
Trigger mode: 4
Integration Time (sec): 1.000000E-1
Scans to average: 1
Electric dark correction enabled: true
Nonlinearity correction enabled: false
Boxcar width: 0
XAxis mode: Wavelengths
Number of Pixels in Spectrum: 3648
>>>>>Begin Spectral Data<<<<<
178.204	-349.52
178.424	-349.52
178.644	-349.52
178.864	-410.96
179.084	-361.81
179.304	-7.51
179.524	17.07
179.744	37.55
179.964	58.03
180.184	-15.7
180.404	15.02
180.624	8.87
180.844	-73.04
181.064	-71
181.283	35.5
181.503	-25.94
181.723	21.16
181.943	-77.14
182.163	154.28
182.383	0.68
182.602	133.8
182.822	150.18
183.042	111.27
183.262	-13.65
183.482	19.11
183.701	23.21
183.921	72.36
184.141	-66.9
184.361	72.36
184.58	21.16
184.8	68.27
185.02	45.74
185.239	66.22
185.459	111.27
185.679	172.71
185.898	-46.42
186.118	129.7
186.338	-11.61
186.557	80.55
186.777	-109.91
186.997	70.31
187.216	92.84
187.436	107.18
187.655	68.27
187.875	92.84
188.095	-3.41
188.314	162.47
188.534	146.09
188.753	10.92
188.973	135.85
189.192	107.18
189.412	29.35
189.631	74.41
189.851	53.93
190.07	88.75
190.29	-13.65
190.509	-30.04
190.729	31.4
190.948	172.71
191.168	256.68
191.387	105.13
191.607	37.55
191.826	131.75
192.045	-21.85
192.265	68.27
192.484	141.99
192.704	146.09
192.923	-66.9
193.142	170.66
193.362	137.9
193.581	107.18
193.8	129.7
194.02	146.09
194.239	127.66
194.458	88.75
194.678	8.87
194.897	-27.99
195.116	51.88
195.335	10.92
195.555	37.55
195.774	23.21
195.993	107.18
196.212	66.22
196.432	39.59
196.651	27.31
196.87	33.45
197.089	311.97
197.308	-23.89
197.528	45.74
197.747	-21.85
197.966	82.6
198.185	193.19
198.404	19.11
198.623	117.42
198.842	90.79
199.062	178.86
199.281	133.8
199.5	12.97
199.719	31.4
199.938	21.16
200.157	64.17
200.376	127.66
200.595	125.61
200.814	84.65
201.033	35.5
201.252	141.99
201.471	121.51
201.69	74.41
201.909	70.31
202.128	109.22
202.347	70.31
202.566	-1.37
202.785	-146.77
203.004	2.73
203.223	230.06
203.442	101.03
203.661	6.83
203.879	135.85
204.098	92.84
204.317	41.64
204.536	133.8
204.755	90.79
204.974	60.07
205.193	23.21
205.411	125.61
205.63	121.51
205.849	101.03
206.068	12.97
206.287	-79.19
206.505	105.13
206.724	-32.08
206.943	-7.51
207.162	10.92
207.381	86.7
207.599	-46.42
207.818	94.89
208.037	19.11
208.255	51.88
208.474	92.84
208.693	86.7
208.911	29.35
209.13	125.61
209.349	139.94
209.567	101.03
209.786	117.42
210.005	68.27
210.223	45.74
210.442	-73.04
210.661	17.07
210.879	84.65
211.098	60.07
211.316	23.21
211.535	113.32
211.753	62.12
211.972	33.45
212.191	15.02
212.409	41.64
212.628	103.08
212.846	-36.18
213.065	74.41
213.283	176.81
213.502	37.55
213.72	68.27
213.938	35.5
214.157	-1.37
214.375	68.27
214.594	60.07
214.812	92.84
215.031	21.16
215.249	2.73
215.467	90.79
215.686	74.41
215.904	60.07
216.122	131.75
216.341	180.9
216.559	74.41
216.778	152.23
216.996	152.23
217.214	17.07
217.432	-11.61
217.651	45.74
217.869	90.79
218.087	51.88
218.306	45.74
218.524	43.69
218.742	137.9
218.96	101.03
219.179	29.35
219.397	62.12
219.615	311.97
219.833	78.51
220.051	23.21
220.27	80.55
220.488	115.37
220.706	76.46
220.924	-77.14
221.142	15.02
221.36	76.46
221.578	35.5
221.796	47.79
222.015	66.22
222.233	39.59
222.451	172.71
222.669	-17.75
222.887	109.22
223.105	17.07
223.323	6.83
223.541	31.4
223.759	137.9
223.977	115.37
224.195	105.13
224.413	78.51
224.631	-11.61
224.849	92.84
225.067	246.44
225.285	31.4
225.503	64.17
225.721	-79.19
225.939	70.31
226.157	82.6
226.375	260.77
226.592	96.94
226.81	-27.99
227.028	123.56
227.246	92.84
227.464	135.85
227.682	82.6
227.9	115.37
228.117	109.22
228.335	53.93
228.553	53.93
228.771	74.41
228.989	35.5
229.206	49.83
229.424	55.98
229.642	-9.56
229.86	-42.32
230.077	197.29
230.295	109.22
230.513	51.88
230.731	64.17
230.948	258.73
231.166	139.94
231.384	60.07
231.601	-30.04
231.819	131.75
232.037	27.31
232.254	27.31
232.472	51.88
232.689	41.64
232.907	121.51
233.125	10.92
233.342	15.02
233.56	31.4
233.777	-30.04
233.995	-52.56
234.213	150.18
234.43	90.79
234.648	35.5
234.865	17.07
235.083	137.9
235.3	35.5
235.518	74.41
235.735	86.7
235.953	82.6
236.17	15.02
236.388	0.68
236.605	45.74
236.822	185
237.04	101.03
237.257	105.13
237.475	33.45
237.692	43.69
237.909	98.99
238.127	64.17
238.344	129.7
238.562	68.27
238.779	-23.89
238.996	-81.24
239.214	45.74
239.431	117.42
239.648	-27.99
239.865	51.88
240.083	78.51
240.3	-54.61
240.517	0.68
240.735	76.46
240.952	131.75
241.169	64.17
241.386	29.35
241.603	29.35
241.821	4.78
242.038	101.03
242.255	80.55
242.472	-48.47
242.689	115.37
242.907	121.51
243.124	21.16
243.341	10.92
243.558	0.68
243.775	-142.68
243.992	43.69
244.209	94.89
244.426	139.94
244.643	74.41
244.86	2.73
245.078	25.26
245.295	45.74
245.512	64.17
245.729	12.97
245.946	64.17
246.163	68.27
246.38	101.03
246.597	82.6
246.814	33.45
247.031	135.85
247.248	76.46
247.464	152.23
247.681	68.27
247.898	74.41
248.115	78.51
248.332	12.97
248.549	174.76
248.766	209.58
248.983	121.51
249.2	53.93
249.417	78.51
249.633	15.02
249.85	74.41
250.067	64.17
250.284	47.79
250.501	43.69
250.717	92.84
250.934	-38.23
251.151	43.69
251.368	45.74
251.585	-9.56
251.801	0.68
252.018	41.64
252.235	113.32
252.451	4.78
252.668	23.21
252.885	117.42
253.102	82.6
253.318	66.22
253.535	17.07
253.752	35.5
253.968	33.45
254.185	8.87
254.401	49.83
254.618	107.18
254.835	10.92
255.051	92.84
255.268	92.84
255.484	25.26
255.701	-7.51
255.917	64.17
256.134	4.78
256.351	33.45
256.567	17.07
256.784	45.74
257	-73.04
257.217	105.13
257.433	111.27
257.65	105.13
257.866	121.51
258.082	0.68
258.299	-73.04
258.515	27.31
258.732	51.88
258.948	-50.52
259.165	70.31
259.381	-42.32
259.597	158.38
259.814	119.46
260.03	0.68
260.246	82.6
260.463	135.85
260.679	150.18
260.895	41.64
261.112	94.89
261.328	107.18
261.544	-30.04
261.761	201.38
261.977	6.83
262.193	-1.37
262.409	117.42
262.626	53.93
262.842	92.84
263.058	8.87
263.274	82.6
263.49	-1.37
263.707	47.79
263.923	129.7
264.139	-25.94
264.355	49.83
264.571	-9.56
264.787	80.55
265.004	64.17
265.22	117.42
265.436	2.73
265.652	-40.28
265.868	12.97
266.084	8.87
266.3	98.99
266.516	-46.42
266.732	123.56
266.948	96.94
267.164	86.7
267.38	94.89
267.596	105.13
267.812	141.99
268.028	43.69
268.244	62.12
268.46	4.78
268.676	-3.41
268.892	78.51
269.108	72.36
269.324	-60.76
269.54	-11.61
269.756	68.27
269.972	-15.7
270.188	-48.47
270.403	76.46
270.619	-7.51
270.835	76.46
271.051	35.5
271.267	39.59
271.483	25.26
271.698	53.93
271.914	98.99
272.13	84.65
272.346	64.17
272.562	37.55
272.777	84.65
272.993	60.07
273.209	23.21
273.425	90.79
273.64	-93.52
273.856	76.46
274.072	43.69
274.287	29.35
274.503	53.93
274.719	162.47
274.934	4.78
275.15	-46.42
275.366	-25.94
275.581	-40.28
275.797	-15.7
276.012	-19.8
276.228	29.35
276.444	-11.61
276.659	137.9
276.875	-56.66
277.09	-23.89
277.306	62.12
277.521	33.45
277.737	92.84
277.952	90.79
278.168	31.4
278.383	76.46
278.599	68.27
278.814	58.03
279.03	31.4
279.245	189.1
279.461	-11.61
279.676	111.27
279.892	-17.75
280.107	41.64
280.322	31.4
280.538	80.55
280.753	-11.61
280.969	29.35
281.184	103.08
281.399	158.38
281.615	78.51
281.83	55.98
282.045	-25.94
282.26	-17.75
282.476	17.07
282.691	55.98
282.906	115.37
283.122	80.55
283.337	4.78
283.552	84.65
283.767	-3.41
283.983	98.99
284.198	47.79
284.413	113.32
284.628	-23.89
284.843	39.59
285.058	170.66
285.274	10.92
285.489	25.26
285.704	119.46
285.919	2.73
286.134	35.5
286.349	51.88
286.564	64.17
286.779	88.75
286.995	-40.28
287.21	6.83
287.425	107.18
287.64	37.55
287.855	39.59
288.07	-21.85
288.285	139.94
288.5	217.77
288.715	80.55
288.93	35.5
289.145	10.92
289.36	123.56
289.575	35.5
289.79	96.94
290.004	43.69
290.219	193.19
290.434	4.78
290.649	8.87
290.864	12.97
291.079	17.07
291.294	12.97
291.509	193.19
291.724	74.41
291.938	23.21
292.153	51.88
292.368	-7.51
292.583	66.22
292.798	74.41
293.012	72.36
293.227	39.59
293.442	49.83
293.657	80.55
293.871	131.75
294.086	84.65
294.301	154.28
294.516	107.18
294.73	47.79
294.945	-58.71
295.16	17.07
295.374	154.28
295.589	82.6
295.804	58.03
296.018	121.51
296.233	195.24
296.447	25.26
296.662	-89.43
296.877	49.83
297.091	125.61
297.306	82.6
297.52	-9.56
297.735	123.56
297.949	55.98
298.164	55.98
298.378	47.79
298.593	-23.89
298.807	37.55
299.022	27.31
299.236	187.05
299.451	76.46
299.665	10.92
299.88	37.55
300.094	64.17
300.309	31.4
300.523	-11.61
300.737	-15.7
300.952	88.75
301.166	103.08
301.381	47.79
301.595	8.87
301.809	-17.75
302.024	41.64
302.238	19.11
302.452	76.46
302.667	2.73
302.881	172.71
303.095	103.08
303.309	94.89
303.524	96.94
303.738	86.7
303.952	23.21
304.166	51.88
304.381	-111.96
304.595	197.29
304.809	4.78
305.023	39.59
305.237	23.21
305.452	41.64
305.666	111.27
305.88	117.42
306.094	98.99
306.308	53.93
306.522	55.98
306.736	43.69
306.95	123.56
307.164	-3.41
307.379	-25.94
307.593	189.1
307.807	129.7
308.021	105.13
308.235	109.22
308.449	-77.14
308.663	51.88
308.877	174.76
309.091	62.12
309.305	80.55
309.519	-93.52
309.733	113.32
309.947	-42.32
310.161	45.74
310.374	111.27
310.588	117.42
310.802	0.68
311.016	35.5
311.23	98.99
311.444	-21.85
311.658	76.46
311.872	133.8
312.085	109.22
312.299	107.18
312.513	154.28
312.727	-19.8
312.941	-52.56
313.154	125.61
313.368	37.55
313.582	29.35
313.796	60.07
314.009	53.93
314.223	150.18
314.437	90.79
314.651	4.78
314.864	70.31
315.078	35.5
315.292	37.55
315.505	-9.56
315.719	113.32
315.933	76.46
316.146	-64.85
316.36	23.21
316.573	187.05
316.787	41.64
317.001	78.51
317.214	19.11
317.428	62.12
317.641	4.78
317.855	12.97
318.068	90.79
318.282	23.21
318.495	152.23
318.709	105.13
318.922	131.75
319.136	137.9
319.349	172.71
319.563	62.12
319.776	98.99
319.99	-66.9
320.203	103.08
320.417	60.07
320.63	133.8
320.843	232.1
321.057	64.17
321.27	17.07
321.483	72.36
321.697	148.14
321.91	72.36
322.124	8.87
322.337	62.12
322.55	-52.56
322.763	119.46
322.977	43.69
323.19	60.07
323.403	51.88
323.617	133.8
323.83	172.71
324.043	23.21
324.256	115.37
324.469	-27.99
324.683	207.53
324.896	-7.51
325.109	60.07
325.322	19.11
325.535	125.61
325.748	105.13
325.962	15.02
326.175	148.14
326.388	43.69
326.601	160.42
326.814	15.02
327.027	66.22
327.24	113.32
327.453	0.68
327.666	74.41
327.879	125.61
328.092	49.83
328.305	21.16
328.518	2.73
328.731	70.31
328.944	29.35
329.157	191.14
329.37	-9.56
329.583	193.19
329.796	174.76
330.009	-62.8
330.222	103.08
330.435	144.04
330.648	127.66
330.861	92.84
331.073	6.83
331.286	135.85
331.499	55.98
331.712	-54.61
331.925	76.46
332.138	-5.46
332.35	156.33
332.563	72.36
332.776	137.9
332.989	-34.13
333.202	82.6
333.414	96.94
333.627	117.42
333.84	-1.37
334.053	78.51
334.265	101.03
334.478	25.26
334.691	74.41
334.903	66.22
335.116	-50.52
335.329	-9.56
335.541	66.22
335.754	193.19
335.966	78.51
336.179	76.46
336.392	47.79
336.604	41.64
336.817	76.46
337.029	68.27
337.242	51.88
337.454	127.66
337.667	21.16
337.88	160.42
338.092	160.42
338.305	70.31
338.517	21.16
338.729	45.74
338.942	176.81
339.154	-15.7
339.367	-30.04
339.579	90.79
339.792	-11.61
340.004	113.32
340.217	72.36
340.429	94.89
340.641	33.45
340.854	-15.7
341.066	0.68
341.278	170.66
341.491	150.18
341.703	-7.51
341.915	-60.76
342.128	127.66
342.34	92.84
342.552	10.92
342.764	88.75
342.977	66.22
343.189	78.51
343.401	27.31
343.613	-75.09
343.826	121.51
344.038	29.35
344.25	98.99
344.462	-38.23
344.674	25.26
344.886	121.51
345.099	72.36
345.311	119.46
345.523	101.03
345.735	-25.94
345.947	107.18
346.159	101.03
346.371	43.69
346.583	27.31
346.795	152.23
347.007	15.02
347.219	88.75
347.431	55.98
347.643	150.18
347.855	62.12
348.067	119.46
348.279	-103.76
348.491	123.56
348.703	84.65
348.915	31.4
349.127	-1.37
349.339	53.93
349.551	60.07
349.763	139.94
349.975	98.99
350.187	137.9
350.399	193.19
350.61	96.94
350.822	37.55
351.034	74.41
351.246	80.55
351.458	94.89
351.669	80.55
351.881	164.52
352.093	82.6
352.305	58.03
352.517	60.07
352.728	117.42
352.94	51.88
353.152	96.94
353.363	-48.47
353.575	58.03
353.787	197.29
353.999	127.66
354.21	154.28
354.422	27.31
354.633	39.59
354.845	6.83
355.057	78.51
355.268	101.03
355.48	96.94
355.692	-83.28
355.903	86.7
356.115	17.07
356.326	-36.18
356.538	193.19
356.749	148.14
356.961	158.38
357.172	45.74
357.384	-17.75
357.595	176.81
357.807	49.83
358.018	70.31
358.23	88.75
358.441	139.94
358.653	74.41
358.864	62.12
359.075	-38.23
359.287	72.36
359.498	178.86
359.709	109.22
359.921	41.64
360.132	92.84
360.344	33.45
360.555	-1.37
360.766	19.11
360.977	21.16
361.189	141.99
361.4	45.74
361.611	115.37
361.823	113.32
362.034	82.6
362.245	-62.8
362.456	49.83
362.667	117.42
362.879	-40.28
363.09	21.16
363.301	117.42
363.512	78.51
363.723	12.97
363.935	-7.51
364.146	154.28
364.357	72.36
364.568	53.93
364.779	-40.28
364.99	125.61
365.201	-25.94
365.412	211.62
365.623	4.78
365.834	39.59
366.045	105.13
366.256	-36.18
366.467	135.85
366.678	-7.51
366.889	88.75
367.1	2.73
367.311	172.71
367.522	74.41
367.733	131.75
367.944	88.75
368.155	55.98
368.366	127.66
368.577	70.31
368.788	166.57
368.999	-36.18
369.209	105.13
369.42	223.91
369.631	137.9
369.842	125.61
370.053	31.4
370.264	148.14
370.474	-66.9
370.685	45.74
370.896	43.69
371.107	164.52
371.317	115.37
371.528	6.83
371.739	152.23
371.95	76.46
372.16	96.94
372.371	12.97
372.582	43.69
372.792	80.55
373.003	70.31
373.214	45.74
373.424	78.51
373.635	23.21
373.846	113.32
374.056	78.51
374.267	115.37
374.477	43.69
374.688	51.88
374.898	80.55
375.109	111.27
375.319	74.41
375.53	111.27
375.74	96.94
375.951	-21.85
376.161	23.21
376.372	98.99
376.582	19.11
376.793	111.27
377.003	60.07
377.214	25.26
377.424	139.94
377.635	-5.46
377.845	-60.76
378.055	168.62
378.266	47.79
378.476	55.98
378.686	64.17
378.897	53.93
379.107	92.84
379.317	121.51
379.528	-30.04
379.738	101.03
379.948	35.5
380.158	129.7
380.369	62.12
380.579	60.07
380.789	55.98
380.999	74.41
381.21	113.32
381.42	176.81
381.63	127.66
381.84	101.03
382.05	70.31
382.261	182.95
382.471	135.85
382.681	-3.41
382.891	219.82
383.101	68.27
383.311	29.35
383.521	17.07
383.731	131.75
383.941	162.47
384.151	43.69
384.361	82.6
384.571	66.22
384.781	133.8
384.991	146.09
385.201	133.8
385.411	101.03
385.621	107.18
385.831	-11.61
386.041	-5.46
386.251	55.98
386.461	84.65
386.671	133.8
386.881	117.42
387.091	70.31
387.301	101.03
387.511	-56.66
387.72	78.51
387.93	64.17
388.14	-89.43
388.35	39.59
388.56	133.8
388.769	131.75
388.979	135.85
389.189	6.83
389.399	31.4
389.609	72.36
389.818	109.22
390.028	84.65
390.238	111.27
390.447	37.55
390.657	31.4
390.867	60.07
391.076	6.83
391.286	113.32
391.496	49.83
391.705	55.98
391.915	199.34
392.125	133.8
392.334	-19.8
392.544	156.33
392.753	27.31
392.963	-15.7
393.172	33.45
393.382	23.21
393.591	238.25
393.801	70.31
394.01	137.9
394.22	94.89
394.429	33.45
394.639	62.12
394.848	41.64
395.058	45.74
395.267	12.97
395.477	131.75
395.686	35.5
395.895	228.01
396.105	217.77
396.314	76.46
396.524	35.5
396.733	23.21
396.942	164.52
397.152	66.22
397.361	178.86
397.57	45.74
397.78	-27.99
397.989	19.11
398.198	195.24
398.407	47.79
398.617	-7.51
398.826	64.17
399.035	66.22
399.244	170.66
399.453	70.31
399.663	70.31
399.872	37.55
400.081	-103.76
400.29	209.58
400.499	-25.94
400.708	105.13
400.917	90.79
401.127	12.97
401.336	-1.37
401.545	213.67
401.754	84.65
401.963	27.31
402.172	-17.75
402.381	17.07
402.59	82.6
402.799	90.79
403.008	117.42
403.217	58.03
403.426	148.14
403.635	39.59
403.844	6.83
404.053	21.16
404.262	23.21
404.471	193.19
404.68	105.13
404.888	55.98
405.097	43.69
405.306	60.07
405.515	141.99
405.724	10.92
405.933	74.41
406.142	72.36
406.35	92.84
406.559	-13.65
406.768	82.6
406.977	146.09
407.185	62.12
407.394	135.85
407.603	-50.52
407.812	82.6
408.02	135.85
408.229	150.18
408.438	70.31
408.646	-60.76
408.855	17.07
409.064	92.84
409.272	121.51
409.481	154.28
409.69	53.93
409.898	-7.51
410.107	94.89
410.315	84.65
410.524	29.35
410.733	70.31
410.941	31.4
411.15	117.42
411.358	82.6
411.567	113.32
411.775	172.71
411.984	80.55
412.192	88.75
412.401	2.73
412.609	150.18
412.818	144.04
413.026	88.75
413.234	78.51
413.443	103.08
413.651	-11.61
413.86	49.83
414.068	187.05
414.276	187.05
414.485	0.68
414.693	156.33
414.901	236.2
415.11	98.99
415.318	-3.41
415.526	-40.28
415.734	154.28
415.943	160.42
416.151	131.75
416.359	55.98
416.567	66.22
416.776	6.83
416.984	45.74
417.192	154.28
417.4	62.12
417.608	35.5
417.817	43.69
418.025	96.94
418.233	119.46
418.441	4.78
418.649	51.88
418.857	191.14
419.065	105.13
419.273	27.31
419.481	105.13
419.689	43.69
419.897	25.26
420.105	53.93
420.313	146.09
420.521	193.19
420.729	148.14
420.937	4.78
421.145	-1.37
421.353	72.36
421.561	185
421.769	10.92
421.977	33.45
422.185	66.22
422.393	43.69
422.601	121.51
422.809	109.22
423.017	0.68
423.224	174.76
423.432	123.56
423.64	43.69
423.848	84.65
424.056	-3.41
424.263	101.03
424.471	43.69
424.679	156.33
424.887	80.55
425.094	115.37
425.302	92.84
425.51	60.07
425.718	53.93
425.925	121.51
426.133	64.17
426.341	273.06
426.548	41.64
426.756	74.41
426.964	111.27
427.171	-1.37
427.379	84.65
427.586	17.07
427.794	176.81
428.001	105.13
428.209	117.42
428.417	172.71
428.624	109.22
428.832	209.58
429.039	127.66
429.247	84.65
429.454	174.76
429.662	215.72
429.869	123.56
430.076	123.56
430.284	117.42
430.491	162.47
430.699	158.38
430.906	174.76
431.114	49.83
431.321	84.65
431.528	66.22
431.736	92.84
431.943	141.99
432.15	225.96
432.358	148.14
432.565	258.73
432.772	-9.56
432.979	207.53
433.187	39.59
433.394	178.86
433.601	148.14
433.808	221.86
434.016	213.67
434.223	182.95
434.43	123.56
434.637	230.06
434.844	258.73
435.052	176.81
435.259	205.48
435.466	160.42
435.673	223.91
435.88	250.53
436.087	318.12
436.294	250.53
436.501	219.82
436.708	164.52
436.915	273.06
437.122	291.49
437.329	182.95
437.537	264.87
437.743	236.2
437.95	322.21
438.157	277.16
438.364	225.96
438.571	234.15
438.778	309.93
438.985	334.5
439.192	365.22
439.399	271.01
439.606	328.36
439.813	436.9
440.02	486.05
440.227	484
440.433	428.71
440.64	285.35
440.847	334.5
441.054	451.24
441.261	522.91
441.467	477.86
441.674	379.56
441.881	484
442.088	514.72
442.294	506.53
442.501	535.2
442.708	418.47
442.914	484
443.121	656.03
443.328	594.59
443.534	590.5
443.741	672.42
443.948	531.11
444.154	670.37
444.361	815.77
444.568	672.42
444.774	639.65
444.981	615.07
445.187	805.53
445.394	688.8
445.6	785.05
445.807	916.12
446.013	869.02
446.22	789.15
446.426	934.56
446.633	1002.14
446.839	1245.85
447.046	850.59
447.252	1094.3
447.459	1096.35
447.665	1098.39
447.871	1225.37
448.078	1251.99
448.284	1301.14
448.491	1348.25
448.697	1309.33
448.903	1362.58
449.11	1487.51
449.316	1598.1
449.522	1544.85
449.728	1622.67
449.935	1712.78
450.141	1784.46
450.347	1948.3
450.553	1763.98
450.76	1866.38
450.966	2017.93
451.172	2169.48
451.378	2024.08
451.584	2243.21
451.791	2370.18
451.997	2230.92
452.203	2347.65
452.409	2417.29
452.615	2677.38
452.821	2550.4
453.027	2630.27
453.233	2994.81
453.44	2794.11
453.646	2970.24
453.852	3111.55
454.058	3101.31
454.264	3332.73
454.47	3560.05
454.676	3467.89
454.882	3844.72
455.088	3574.39
455.294	3877.49
455.5	4176.49
455.705	4409.96
455.911	4305.51
456.117	4463.21
456.323	4631.14
456.529	4500.07
456.735	5081.69
456.941	5071.45
457.147	5343.83
457.352	5544.53
457.558	5620.31
457.764	6197.84
457.97	6072.91
458.176	6273.61
458.381	6679.11
458.587	6953.54
458.793	7203.39
458.999	7174.72
459.204	8022.58
459.41	8438.31
459.616	8084.02
459.821	8444.46
460.027	8921.63
460.233	9517.59
460.438	9619.99
460.644	9966.1
460.85	10088.98
461.055	10650.12
461.261	11057.67
461.466	11078.15
461.672	10912.26
461.878	12311.02
462.083	11926
462.289	12325.36
462.494	12927.46
462.7	13140.45
462.905	13212.13
463.111	14186.96
463.316	14967.24
463.522	15430.08
463.727	15690.17
463.932	16775.59
464.138	17162.66
464.343	17652.13
464.549	17572.25
464.754	19040.65
464.959	19618.18
465.165	19886.46
465.37	19730.81
465.575	19861.88
465.781	20859.24
465.986	21727.58
466.191	21211.49
466.397	21541.22
466.602	21172.58
466.807	22526.29
467.012	22688.08
467.218	22982.99
467.423	23370.05
467.628	23894.33
467.833	25088.3
468.038	24744.24
468.244	24095.03
468.449	25399.59
468.654	24965.42
468.859	24707.38
