Data from USB4F104151__8__09-24-48-925.txt Node

Date: Wed Feb 26 09:24:48 EST 2025
User: louis
Spectrometer: USB4F10415
Trigger mode: 4
Integration Time (sec): 1.000000E-1
Scans to average: 1
Electric dark correction enabled: true
Nonlinearity correction enabled: false
Boxcar width: 0
XAxis mode: Wavelengths
Number of Pixels in Spectrum: 3648
>>>>>Begin Spectral Data<<<<<
178.204	-281.77
178.424	-281.77
178.644	-281.77
178.864	-353.45
179.084	-347.3
179.304	-17.58
179.524	-48.3
179.744	-50.35
179.964	84.82
180.184	23.38
180.404	72.53
180.624	-9.39
180.844	-25.77
181.064	-46.25
181.283	72.53
181.503	-85.16
181.723	29.52
181.943	-117.93
182.163	170.83
182.383	41.81
182.602	152.4
182.822	154.45
183.042	29.52
183.262	31.57
183.482	105.3
183.701	19.29
183.921	41.81
184.141	-42.15
184.361	64.34
184.58	84.82
184.8	50
185.02	-19.63
185.239	45.91
185.459	93.01
185.679	72.53
185.898	-68.78
186.118	117.59
186.338	39.76
186.557	80.72
186.777	-74.92
186.997	37.72
187.216	15.19
187.436	179.03
187.655	37.72
187.875	97.11
188.095	64.34
188.314	95.06
188.534	107.35
188.753	-25.77
188.973	-25.77
189.192	138.07
189.412	31.57
189.631	23.38
189.851	66.39
190.07	133.97
190.29	33.62
190.509	-95.4
190.729	-27.82
190.948	148.31
191.168	242.51
191.387	84.82
191.607	23.38
191.826	15.19
192.045	7
192.265	15.19
192.484	52.05
192.704	-25.77
192.923	4.95
193.142	199.51
193.362	101.2
193.581	113.49
193.8	27.48
194.02	121.68
194.239	27.48
194.458	76.63
194.678	19.29
194.897	29.52
195.116	52.05
195.335	31.57
195.555	-95.4
195.774	-5.29
195.993	103.25
196.212	-46.25
196.432	39.76
196.651	13.14
196.87	37.72
197.089	232.27
197.308	111.44
197.528	133.97
197.747	-25.77
197.966	86.87
198.185	127.83
198.404	-66.73
198.623	68.44
198.842	107.35
199.062	107.35
199.281	47.96
199.5	39.76
199.719	80.72
199.938	45.91
200.157	154.45
200.376	80.72
200.595	109.4
200.814	52.05
201.033	0.85
201.252	125.78
201.471	54.1
201.69	37.72
201.909	68.44
202.128	31.57
202.347	160.59
202.566	7
202.785	-91.31
203.004	-52.39
203.223	195.41
203.442	52.05
203.661	-68.78
203.879	115.54
204.098	80.72
204.317	101.2
204.536	105.3
204.755	111.44
204.974	166.74
205.193	43.86
205.411	74.58
205.63	47.96
205.849	-15.53
206.068	-68.78
206.287	-5.29
206.505	35.67
206.724	47.96
206.943	-25.77
207.162	62.29
207.381	54.1
207.599	-9.39
207.818	31.57
208.037	-44.2
208.255	-38.06
208.474	37.72
208.693	80.72
208.911	-1.19
209.13	35.67
209.349	62.29
209.567	54.1
209.786	95.06
210.005	52.05
210.223	11.09
210.442	-33.96
210.661	93.01
210.879	7
211.098	35.67
211.316	45.91
211.535	27.48
211.753	31.57
211.972	72.53
212.191	11.09
212.409	70.48
212.628	27.48
212.846	-50.35
213.065	95.06
213.283	115.54
213.502	70.48
213.72	-25.77
213.938	68.44
214.157	-27.82
214.375	90.96
214.594	31.57
214.812	35.67
215.031	7
215.249	62.29
215.467	33.62
215.686	70.48
215.904	93.01
216.122	31.57
216.341	56.15
216.559	23.38
216.778	84.82
216.996	109.4
217.214	-60.59
217.432	15.19
217.651	-9.39
217.869	52.05
218.087	72.53
218.306	52.05
218.524	50
218.742	-25.77
218.96	80.72
219.179	7
219.397	50
219.615	236.37
219.833	125.78
220.051	21.33
220.27	179.03
220.488	133.97
220.706	50
220.924	-1.19
221.142	31.57
221.36	56.15
221.578	33.62
221.796	41.81
222.015	70.48
222.233	31.57
222.451	119.64
222.669	9.05
222.887	19.29
223.105	80.72
223.323	19.29
223.541	7
223.759	37.72
223.977	-36.01
224.195	111.44
224.413	101.2
224.631	35.67
224.849	109.4
225.067	219.99
225.285	-11.43
225.503	0.85
225.721	-50.35
225.939	54.1
226.157	-17.58
226.375	121.68
226.592	-70.83
226.81	148.31
227.028	-1.19
227.246	162.64
227.464	7
227.682	181.07
227.9	95.06
228.117	56.15
228.335	84.82
228.553	39.76
228.771	50
228.989	64.34
229.206	95.06
229.424	76.63
229.642	11.09
229.86	11.09
230.077	119.64
230.295	35.67
230.513	125.78
230.731	-1.19
230.948	262.99
231.166	125.78
231.384	29.52
231.601	-23.72
231.819	97.11
232.037	-25.77
232.254	-52.39
232.472	-29.87
232.689	-27.82
232.907	56.15
233.125	21.33
233.342	4.95
233.56	-46.25
233.777	43.86
233.995	60.24
234.213	164.69
234.43	21.33
234.648	33.62
234.865	86.87
235.083	43.86
235.3	97.11
235.518	99.16
235.735	66.39
235.953	125.78
236.17	7
236.388	-9.39
236.605	-13.48
236.822	4.95
237.04	131.92
237.257	68.44
237.475	2.9
237.692	93.01
237.909	88.92
238.127	-25.77
238.344	105.3
238.562	64.34
238.779	-93.35
238.996	-115.88
239.214	66.39
239.431	60.24
239.648	-52.39
239.865	15.19
240.083	66.39
240.3	-27.82
240.517	29.52
240.735	101.2
240.952	168.79
241.169	127.83
241.386	76.63
241.603	54.1
241.821	-42.15
242.038	68.44
242.255	62.29
242.472	-29.87
242.689	41.81
242.907	15.19
243.124	2.9
243.341	52.05
243.558	2.9
243.775	-40.11
243.992	-42.15
244.209	113.49
244.426	144.21
244.643	64.34
244.86	-60.59
245.078	119.64
245.295	21.33
245.512	39.76
245.729	-52.39
245.946	50
246.163	-9.39
246.38	21.33
246.597	39.76
246.814	39.76
247.031	39.76
247.248	-1.19
247.464	41.81
247.681	84.82
247.898	-1.19
248.115	39.76
248.332	-46.25
248.549	117.59
248.766	154.45
248.983	119.64
249.2	35.67
249.417	111.44
249.633	23.38
249.85	-1.19
250.067	-3.24
250.284	88.92
250.501	9.05
250.717	88.92
250.934	-58.54
251.151	70.48
251.368	35.67
251.585	72.53
251.801	70.48
252.018	-25.77
252.235	125.78
252.451	-74.92
252.668	23.38
252.885	37.72
253.102	17.24
253.318	23.38
253.535	0.85
253.752	-21.67
253.968	66.39
254.185	-50.35
254.401	-3.24
254.618	39.76
254.835	-52.39
255.051	123.73
255.268	60.24
255.484	-9.39
255.701	-52.39
255.917	127.83
256.134	45.91
256.351	86.87
256.567	-54.44
256.784	19.29
257	-36.01
257.217	64.34
257.433	60.24
257.65	76.63
257.866	111.44
258.082	-72.87
258.299	2.9
258.515	103.25
258.732	15.19
258.948	62.29
259.165	52.05
259.381	-91.31
259.597	25.43
259.814	-11.43
260.03	82.77
260.246	-33.96
260.463	127.83
260.679	181.07
260.895	-17.58
261.112	80.72
261.328	-3.24
261.544	-27.82
261.761	103.25
261.977	47.96
262.193	-42.15
262.409	54.1
262.626	150.36
262.842	-17.58
263.058	4.95
263.274	-19.63
263.49	78.68
263.707	23.38
263.923	60.24
264.139	-36.01
264.355	39.76
264.571	123.73
264.787	64.34
265.004	117.59
265.22	101.2
265.436	-9.39
265.652	19.29
265.868	23.38
266.084	-7.34
266.3	-15.53
266.516	2.9
266.732	7
266.948	-44.2
267.164	11.09
267.38	66.39
267.596	103.25
267.812	142.16
268.028	4.95
268.244	-3.24
268.46	64.34
268.676	-15.53
268.892	62.29
269.108	72.53
269.324	21.33
269.54	-44.2
269.756	52.05
269.972	-42.15
270.188	7
270.403	-33.96
270.619	109.4
270.835	62.29
271.051	95.06
271.267	-33.96
271.483	74.58
271.698	25.43
271.914	90.96
272.13	-9.39
272.346	-58.54
272.562	23.38
272.777	154.45
272.993	70.48
273.209	-42.15
273.425	23.38
273.64	-13.48
273.856	125.78
274.072	2.9
274.287	31.57
274.503	86.87
274.719	109.4
274.934	68.44
275.15	-7.34
275.366	27.48
275.581	60.24
275.797	-42.15
276.012	72.53
276.228	-15.53
276.444	39.76
276.659	181.07
276.875	-76.97
277.09	-54.44
277.306	-7.34
277.521	80.72
277.737	78.68
277.952	-25.77
278.168	37.72
278.383	58.2
278.599	29.52
278.814	88.92
279.03	2.9
279.245	54.1
279.461	-17.58
279.676	68.44
279.892	-31.91
280.107	-1.19
280.322	-23.72
280.538	86.87
280.753	-21.67
280.969	-9.39
281.184	23.38
281.399	113.49
281.615	-3.24
281.83	52.05
282.045	-58.54
282.26	-38.06
282.476	19.29
282.691	150.36
282.906	31.57
283.122	84.82
283.337	-9.39
283.552	19.29
283.767	37.72
283.983	17.24
284.198	27.48
284.413	21.33
284.628	-40.11
284.843	70.48
285.058	47.96
285.274	-25.77
285.489	-5.29
285.704	138.07
285.919	27.48
286.134	-13.48
286.349	-3.24
286.564	15.19
286.779	138.07
286.995	62.29
287.21	-68.78
287.425	86.87
287.64	-44.2
287.855	39.76
288.07	-83.11
288.285	93.01
288.5	105.3
288.715	97.11
288.93	45.91
289.145	-29.87
289.36	80.72
289.575	23.38
289.79	47.96
290.004	-29.87
290.219	27.48
290.434	-101.55
290.649	-17.58
290.864	7
291.079	29.52
291.294	11.09
291.509	47.96
291.724	62.29
291.938	56.15
292.153	35.67
292.368	-25.77
292.583	-13.48
292.798	84.82
293.012	76.63
293.227	80.72
293.442	-46.25
293.657	144.21
293.871	74.58
294.086	70.48
294.301	144.21
294.516	56.15
294.73	62.29
294.945	0.85
295.16	11.09
295.374	168.79
295.589	103.25
295.804	-19.63
296.018	-33.96
296.233	90.96
296.447	15.19
296.662	-27.82
296.877	109.4
297.091	-5.29
297.306	4.95
297.52	-5.29
297.735	84.82
297.949	4.95
298.164	25.43
298.378	33.62
298.593	4.95
298.807	-15.53
299.022	31.57
299.236	142.16
299.451	23.38
299.665	39.76
299.88	58.2
300.094	-5.29
300.309	62.29
300.523	-11.43
300.737	52.05
300.952	109.4
301.166	90.96
301.381	-25.77
301.595	2.9
301.809	-9.39
302.024	33.62
302.238	31.57
302.452	154.45
302.667	43.86
302.881	62.29
303.095	31.57
303.309	-3.24
303.524	-38.06
303.738	4.95
303.952	-25.77
304.166	27.48
304.381	-17.58
304.595	109.4
304.809	-52.39
305.023	-15.53
305.237	-1.19
305.452	62.29
305.666	70.48
305.88	50
306.094	138.07
306.308	39.76
306.522	162.64
306.736	93.01
306.95	142.16
307.164	-13.48
307.379	72.53
307.593	166.74
307.807	39.76
308.021	29.52
308.235	68.44
308.449	-48.3
308.663	4.95
308.877	191.31
309.091	-9.39
309.305	21.33
309.519	-56.49
309.733	105.3
309.947	-29.87
310.161	58.2
310.374	29.52
310.588	78.68
310.802	-95.4
311.016	29.52
311.23	105.3
311.444	19.29
311.658	111.44
311.872	144.21
312.085	88.92
312.299	133.97
312.513	217.94
312.727	-9.39
312.941	11.09
313.154	127.83
313.368	-19.63
313.582	-38.06
313.796	47.96
314.009	11.09
314.223	93.01
314.437	119.64
314.651	54.1
314.864	-23.72
315.078	4.95
315.292	29.52
315.505	-15.53
315.719	76.63
315.933	97.11
316.146	-7.34
316.36	-17.58
316.573	138.07
316.787	88.92
317.001	39.76
317.214	2.9
317.428	62.29
317.641	-68.78
317.855	-44.2
318.068	31.57
318.282	56.15
318.495	146.26
318.709	-1.19
318.922	23.38
319.136	97.11
319.349	56.15
319.563	7
319.776	68.44
319.99	-15.53
320.203	127.83
320.417	-31.91
320.63	64.34
320.843	156.5
321.057	13.14
321.27	52.05
321.483	113.49
321.697	160.59
321.91	-7.34
322.124	31.57
322.337	52.05
322.55	-81.07
322.763	76.63
322.977	21.33
323.19	-58.54
323.403	23.38
323.617	-15.53
323.83	146.26
324.043	-3.24
324.256	76.63
324.469	-1.19
324.683	111.44
324.896	11.09
325.109	17.24
325.322	-42.15
325.535	80.72
325.748	76.63
325.962	39.76
326.175	111.44
326.388	41.81
326.601	174.93
326.814	-11.43
327.027	52.05
327.24	121.68
327.453	-33.96
327.666	80.72
327.879	103.25
328.092	117.59
328.305	13.14
328.518	7
328.731	25.43
328.944	2.9
329.157	82.77
329.37	64.34
329.583	211.79
329.796	60.24
330.009	-93.35
330.222	39.76
330.435	111.44
330.648	19.29
330.861	-36.01
331.073	76.63
331.286	117.59
331.499	-60.59
331.712	-64.68
331.925	21.33
332.138	7
332.35	72.53
332.563	27.48
332.776	121.68
332.989	-58.54
333.202	-17.58
333.414	45.91
333.627	-1.19
333.84	43.86
334.053	35.67
334.265	-5.29
334.478	-9.39
334.691	45.91
334.903	74.58
335.116	-13.48
335.329	23.38
335.541	72.53
335.754	146.26
335.966	27.48
336.179	4.95
336.392	-13.48
336.604	-21.67
336.817	95.06
337.029	95.06
337.242	-1.19
337.454	111.44
337.667	72.53
337.88	234.32
338.092	0.85
338.305	121.68
338.517	-5.29
338.729	84.82
338.942	166.74
339.154	-72.87
339.367	-33.96
339.579	105.3
339.792	54.1
340.004	101.2
340.217	-17.58
340.429	64.34
340.641	-27.82
340.854	19.29
341.066	-13.48
341.278	119.64
341.491	209.75
341.703	35.67
341.915	-11.43
342.128	66.39
342.34	60.24
342.552	7
342.764	19.29
342.977	64.34
343.189	11.09
343.401	-36.01
343.613	-3.24
343.826	64.34
344.038	-9.39
344.25	35.67
344.462	29.52
344.674	13.14
344.886	84.82
345.099	43.86
345.311	37.72
345.523	-9.39
345.735	-31.91
345.947	4.95
346.159	54.1
346.371	37.72
346.583	138.07
346.795	144.21
347.007	4.95
347.219	78.68
347.431	35.67
347.643	56.15
347.855	-29.87
348.067	54.1
348.279	-74.92
348.491	99.16
348.703	50
348.915	60.24
349.127	-60.59
349.339	95.06
349.551	-52.39
349.763	-5.29
349.975	19.29
350.187	117.59
350.399	84.82
350.61	25.43
350.822	-9.39
351.034	25.43
351.246	97.11
351.458	68.44
351.669	72.53
351.881	99.16
352.093	68.44
352.305	50
352.517	86.87
352.728	121.68
352.94	99.16
353.152	13.14
353.363	-13.48
353.575	35.67
353.787	29.52
353.999	64.34
354.21	86.87
354.422	2.9
354.633	50
354.845	39.76
355.057	35.67
355.268	-11.43
355.48	95.06
355.692	-36.01
355.903	127.83
356.115	-64.68
356.326	-52.39
356.538	133.97
356.749	-9.39
356.961	64.34
357.172	-1.19
357.384	52.05
357.595	154.45
357.807	-11.43
358.018	-27.82
358.23	56.15
358.441	146.26
358.653	62.29
358.864	47.96
359.075	29.52
359.287	-1.19
359.498	76.63
359.709	84.82
359.921	-7.34
360.132	13.14
360.344	41.81
360.555	-9.39
360.766	43.86
360.977	54.1
361.189	101.2
361.4	7
361.611	146.26
361.823	62.29
362.034	29.52
362.245	-11.43
362.456	45.91
362.667	27.48
362.879	-70.83
363.09	-15.53
363.301	37.72
363.512	-33.96
363.723	54.1
363.935	17.24
364.146	150.36
364.357	37.72
364.568	105.3
364.779	-19.63
364.99	45.91
365.201	-1.19
365.412	72.53
365.623	-15.53
365.834	25.43
366.045	2.9
366.256	84.82
366.467	58.2
366.678	31.57
366.889	62.29
367.1	-66.73
367.311	119.64
367.522	-9.39
367.733	43.86
367.944	164.69
368.155	50
368.366	158.55
368.577	154.45
368.788	88.92
368.999	-64.68
369.209	88.92
369.42	113.49
369.631	174.93
369.842	2.9
370.053	17.24
370.264	107.35
370.474	-31.91
370.685	99.16
370.896	54.1
371.107	181.07
371.317	47.96
371.528	47.96
371.739	76.63
371.95	60.24
372.16	54.1
372.371	-17.58
372.582	-60.59
372.792	95.06
373.003	103.25
373.214	-19.63
373.424	7
373.635	43.86
373.846	119.64
374.056	72.53
374.267	-7.34
374.477	31.57
374.688	62.29
374.898	52.05
375.109	54.1
375.319	86.87
375.53	121.68
375.74	136.02
375.951	41.81
376.161	-1.19
376.372	125.78
376.582	15.19
376.793	39.76
377.003	15.19
377.214	27.48
377.424	33.62
377.635	15.19
377.845	-52.39
378.055	109.4
378.266	-9.39
378.476	58.2
378.686	-33.96
378.897	62.29
379.107	52.05
379.317	95.06
379.528	4.95
379.738	21.33
379.948	64.34
380.158	80.72
380.369	21.33
380.579	88.92
380.789	37.72
380.999	52.05
381.21	93.01
381.42	211.79
381.63	-42.15
381.84	70.48
382.05	62.29
382.261	54.1
382.471	80.72
382.681	-1.19
382.891	80.72
383.101	70.48
383.311	60.24
383.521	-21.67
383.731	88.92
383.941	125.78
384.151	45.91
384.361	47.96
384.571	41.81
384.781	56.15
384.991	162.64
385.201	207.7
385.411	136.02
385.621	54.1
385.831	84.82
386.041	127.83
386.251	7
386.461	150.36
386.671	27.48
386.881	95.06
387.091	50
387.301	125.78
387.511	-64.68
387.72	39.76
387.93	52.05
388.14	-44.2
388.35	45.91
388.56	138.07
388.769	72.53
388.979	-11.43
389.189	-25.77
389.399	78.68
389.609	86.87
389.818	129.88
390.028	93.01
390.238	90.96
390.447	19.29
390.657	0.85
390.867	15.19
391.076	-58.54
391.286	74.58
391.496	-17.58
391.705	125.78
391.915	27.48
392.125	119.64
392.334	103.25
392.544	109.4
392.753	-5.29
392.963	-9.39
393.172	39.76
393.382	-7.34
393.591	111.44
393.801	-9.39
394.01	179.03
394.22	52.05
394.429	35.67
394.639	-3.24
394.848	80.72
395.058	39.76
395.267	47.96
395.477	56.15
395.686	109.4
395.895	117.59
396.105	113.49
396.314	105.3
396.524	101.2
396.733	15.19
396.942	103.25
397.152	154.45
397.361	58.2
397.57	47.96
397.78	80.72
397.989	125.78
398.198	125.78
398.407	72.53
398.617	21.33
398.826	35.67
399.035	115.54
399.244	-5.29
399.453	70.48
399.663	99.16
399.872	107.35
400.081	-33.96
400.29	68.44
400.499	-17.58
400.708	76.63
400.917	97.11
401.127	33.62
401.336	29.52
401.545	136.02
401.754	123.73
401.963	113.49
402.172	9.05
402.381	-29.87
402.59	13.14
402.799	31.57
403.008	113.49
403.217	95.06
403.426	4.95
403.635	-50.35
403.844	64.34
404.053	62.29
404.262	11.09
404.471	168.79
404.68	41.81
404.888	37.72
405.097	-17.58
405.306	97.11
405.515	113.49
405.724	-36.01
405.933	207.7
406.142	66.39
406.35	166.74
406.559	15.19
406.768	56.15
406.977	119.64
407.185	52.05
407.394	84.82
407.603	-1.19
407.812	109.4
408.02	101.2
408.229	15.19
408.438	25.43
408.646	39.76
408.855	90.96
409.064	76.63
409.272	11.09
409.481	105.3
409.69	-33.96
409.898	39.76
410.107	64.34
410.315	93.01
410.524	-7.34
410.733	136.02
410.941	86.87
411.15	29.52
411.358	113.49
411.567	99.16
411.775	101.2
411.984	4.95
412.192	125.78
412.401	129.88
412.609	129.88
412.818	80.72
413.026	7
413.234	70.48
413.443	39.76
413.651	-60.59
413.86	19.29
414.068	144.21
414.276	86.87
414.485	-31.91
414.693	119.64
414.901	174.93
415.11	99.16
415.318	17.24
415.526	27.48
415.734	142.16
415.943	105.3
416.151	72.53
416.359	82.77
416.567	56.15
416.776	99.16
416.984	97.11
417.192	164.69
417.4	37.72
417.608	47.96
417.817	-7.34
418.025	54.1
418.233	148.31
418.441	-9.39
418.649	62.29
418.857	52.05
419.065	76.63
419.273	-1.19
419.481	95.06
419.689	35.67
419.897	129.88
420.105	-1.19
420.313	164.69
420.521	174.93
420.729	150.36
420.937	56.15
421.145	-66.73
421.353	88.92
421.561	109.4
421.769	60.24
421.977	11.09
422.185	80.72
422.393	86.87
422.601	103.25
422.809	107.35
423.017	88.92
423.224	99.16
423.432	138.07
423.64	23.38
423.848	144.21
424.056	80.72
424.263	111.44
424.471	29.52
424.679	99.16
424.887	37.72
425.094	166.74
425.302	35.67
425.51	86.87
425.718	80.72
425.925	115.54
426.133	-29.87
426.341	234.32
426.548	-42.15
426.756	78.68
426.964	-11.43
427.171	-21.67
427.379	189.27
427.586	45.91
427.794	78.68
428.001	203.6
428.209	146.26
428.417	236.37
428.624	113.49
428.832	111.44
429.039	93.01
429.247	138.07
429.454	88.92
429.662	119.64
429.869	201.55
430.076	154.45
430.284	70.48
430.491	217.94
430.699	140.12
430.906	240.47
431.114	74.58
431.321	199.51
431.528	105.3
431.736	211.79
431.943	158.55
432.15	199.51
432.358	156.5
432.565	236.37
432.772	76.63
432.979	230.23
433.187	138.07
433.394	224.08
433.601	164.69
433.808	193.36
434.016	285.52
434.223	248.66
434.43	138.07
434.637	262.99
434.844	289.62
435.052	277.33
435.259	293.71
435.466	267.09
435.673	320.34
435.88	365.39
436.087	351.06
436.294	408.4
436.501	369.49
436.708	314.19
436.915	285.52
437.122	310.1
437.329	310.1
437.537	367.44
437.743	379.73
437.95	537.42
438.157	389.97
438.364	447.31
438.571	441.17
438.778	447.31
438.985	588.62
439.192	506.7
439.399	414.54
439.606	469.84
439.813	602.96
440.02	688.97
440.227	676.68
440.433	551.76
440.64	641.87
440.847	613.2
441.054	697.16
441.261	711.5
441.467	691.02
441.674	703.31
441.881	822.09
442.088	731.98
442.294	834.38
442.501	949.06
442.708	910.15
442.914	928.58
443.121	932.68
443.328	928.58
443.534	1004.36
443.741	1086.28
443.948	1016.65
444.154	1112.9
444.361	1280.83
444.568	1137.48
444.774	1149.76
444.981	1160
445.187	1450.82
445.394	1342.27
445.6	1344.32
445.807	1571.65
446.013	1508.16
446.22	1450.82
446.426	1643.32
446.633	1717.05
446.839	1891.13
447.046	1686.33
447.252	1973.05
447.459	1958.71
447.665	1942.33
447.871	2202.42
448.078	2255.67
448.284	2362.16
448.491	2265.91
448.697	2556.72
448.903	2669.36
449.11	2485.04
449.316	2530.09
449.522	2767.66
449.728	2798.38
449.935	2882.35
450.141	2904.87
450.347	3078.95
450.553	3234.6
450.76	3224.36
450.966	3463.97
451.172	3402.53
451.378	3650.33
451.584	3773.21
451.791	4160.28
451.997	4180.76
452.203	4254.48
452.409	4465.43
452.615	4707.09
452.821	4406.03
453.027	4389.65
453.233	5159.69
453.44	5106.44
453.646	5245.7
453.852	5298.95
454.058	5819.13
454.264	5831.42
454.47	6122.23
454.676	6290.17
454.882	6871.79
455.088	6353.65
455.294	6974.19
455.5	7285.48
455.705	7789.28
455.911	7699.17
456.117	8192.73
456.323	8067.8
456.529	8225.5
456.735	8985.29
456.941	9239.24
457.147	9728.7
457.352	9761.47
457.558	10242.75
457.764	10951.34
457.97	11002.54
458.176	11504.29
458.381	12268.19
458.587	12282.52
458.793	13015.69
458.999	12890.77
459.204	14424.7
459.41	14879.35
459.616	14678.65
459.821	15676.01
460.027	16314.97
460.233	17109.58
460.438	17058.39
460.644	17953.35
460.85	18328.13
461.055	19061.3
461.261	19946.02
461.466	19448.36
461.672	19960.36
461.878	22665.72
462.083	21897.74
462.289	22725.11
462.494	23462.38
462.7	23464.43
462.905	24119.78
463.111	25653.71
463.316	27103.67
463.522	27443.63
463.727	28285.35
463.932	29417.88
464.138	30427.53
464.343	31492.47
464.549	31457.65
464.754	34365.77
464.959	34816.32
465.165	35287.35
465.37	35563.83
465.575	35266.88
465.781	37882.13
465.986	38854.92
466.191	37921.04
466.397	38535.43
466.602	37624.09
466.807	39811.32
467.012	40579.31
467.218	41079.01
467.423	41130.21
467.628	42496.2
467.833	44032.18
468.038	44101.81
468.244	42563.79
468.449	45101.22
468.654	44445.87
468.859	44034.23
469.064	43980.98
469.269	43032.77
469.474	43323.58
469.679	45062.31
469.885	43165.89
