Data from USB4F104151__3__10-22-13-455.txt Node

Date: Wed Feb 26 10:22:13 EST 2025
User: louis
Spectrometer: USB4F10415
Trigger mode: 4
Integration Time (sec): 1.000000E-1
Scans to average: 1
Electric dark correction enabled: true
Nonlinearity correction enabled: false
Boxcar width: 0
XAxis mode: Wavelengths
Number of Pixels in Spectrum: 3648
>>>>>Begin Spectral Data<<<<<
178.204	-439.12
178.424	-439.12
178.644	-439.12
178.864	-488.27
179.084	-336.72
179.304	-31.57
179.524	-50
179.744	21.67
179.964	126.12
180.184	38.06
180.404	-35.67
180.624	-7
180.844	-9.05
181.064	-54.1
181.283	-0.85
181.503	-23.38
181.723	25.77
181.943	-105.3
182.163	136.36
182.383	-52.05
182.602	19.63
182.822	117.93
183.042	79.02
183.262	-31.57
183.482	-45.91
183.701	44.2
183.921	85.16
184.141	17.58
184.361	11.43
184.58	19.63
184.8	76.97
185.02	62.63
185.239	74.92
185.459	74.92
185.679	68.78
185.898	-68.44
186.118	-45.91
186.338	19.63
186.557	105.64
186.777	-88.92
186.997	9.39
187.216	54.44
187.436	189.61
187.655	62.63
187.875	107.69
188.095	46.25
188.314	64.68
188.534	101.55
188.753	-9.05
188.973	140.46
189.192	99.5
189.412	-11.09
189.631	40.11
189.851	87.21
190.07	162.98
190.29	-78.68
190.509	-17.24
190.729	17.58
190.948	101.55
191.168	203.94
191.387	97.45
191.607	81.07
191.826	107.69
192.045	56.49
192.265	-0.85
192.484	72.87
192.704	-74.58
192.923	-56.15
193.142	205.99
193.362	66.73
193.581	109.74
193.8	50.35
194.02	105.64
194.239	29.87
194.458	66.73
194.678	-27.48
194.897	-21.33
195.116	40.11
195.335	81.07
195.555	-58.2
195.774	-13.14
195.993	109.74
196.212	27.82
196.432	3.24
196.651	-33.62
196.87	29.87
197.089	212.14
197.308	101.55
197.528	101.55
197.747	-82.77
197.966	68.78
198.185	130.22
198.404	5.29
198.623	111.78
198.842	175.27
199.062	81.07
199.281	38.06
199.5	-15.19
199.719	64.68
199.938	46.25
200.157	42.15
200.376	97.45
200.595	111.78
200.814	25.77
201.033	-0.85
201.252	199.85
201.471	74.92
201.69	70.83
201.909	-0.85
202.128	81.07
202.347	85.16
202.566	-9.05
202.785	-84.82
203.004	-43.86
203.223	308.39
203.442	117.93
203.661	11.43
203.879	113.83
204.098	29.87
204.317	-54.1
204.536	122.02
204.755	165.03
204.974	74.92
205.193	-17.24
205.411	93.35
205.63	93.35
205.849	60.59
206.068	-41.81
206.287	54.44
206.505	156.84
206.724	83.11
206.943	-86.87
207.162	-86.87
207.381	38.06
207.599	-13.14
207.818	83.11
208.037	-50
208.255	11.43
208.474	97.45
208.693	-19.29
208.911	13.48
209.13	17.58
209.349	33.96
209.567	42.15
209.786	111.78
210.005	134.31
210.223	17.58
210.442	-158.55
210.661	13.48
210.879	93.35
211.098	38.06
211.316	15.53
211.535	38.06
211.753	5.29
211.972	142.5
212.191	-17.24
212.409	60.59
212.628	70.83
212.846	-50
213.065	-13.14
213.283	64.68
213.502	105.64
213.72	42.15
213.938	-25.43
214.157	-13.14
214.375	191.66
214.594	38.06
214.812	64.68
215.031	48.3
215.249	40.11
215.467	109.74
215.686	3.24
215.904	74.92
216.122	-25.43
216.341	109.74
216.559	-54.1
216.778	128.17
216.996	158.89
217.214	70.83
217.432	-4.95
217.651	-64.34
217.869	13.48
218.087	-9.05
218.306	-25.43
218.524	58.54
218.742	23.72
218.96	52.39
219.179	-7
219.397	23.72
219.615	228.52
219.833	76.97
220.051	-39.76
220.27	142.5
220.488	64.68
220.706	81.07
220.924	15.53
221.142	-39.76
221.36	50.35
221.578	-31.57
221.796	11.43
222.015	93.35
222.233	36.01
222.451	179.37
222.669	-0.85
222.887	89.26
223.105	-37.72
223.323	89.26
223.541	-74.58
223.759	9.39
223.977	-9.05
224.195	126.12
224.413	95.4
224.631	62.63
224.849	36.01
225.067	150.7
225.285	3.24
225.503	-82.77
225.721	-127.83
225.939	27.82
226.157	15.53
226.375	212.14
226.592	17.58
226.81	21.67
227.028	101.55
227.246	81.07
227.464	-4.95
227.682	177.32
227.9	62.63
228.117	11.43
228.335	25.77
228.553	21.67
228.771	9.39
228.989	42.15
229.206	76.97
229.424	-0.85
229.642	42.15
229.86	-33.62
230.077	185.51
230.295	36.01
230.513	132.26
230.731	58.54
230.948	142.5
231.166	140.46
231.384	29.87
231.601	-47.96
231.819	220.33
232.037	-62.29
232.254	-7
232.472	-25.43
232.689	25.77
232.907	54.44
233.125	33.96
233.342	42.15
233.56	-4.95
233.777	40.11
233.995	19.63
234.213	122.02
234.43	148.65
234.648	-70.48
234.865	3.24
235.083	48.3
235.3	44.2
235.518	60.59
235.735	148.65
235.953	93.35
236.17	25.77
236.388	25.77
236.605	56.49
236.822	138.41
237.04	101.55
237.257	36.01
237.475	-21.33
237.692	66.73
237.909	111.78
238.127	17.58
238.344	152.74
238.562	48.3
238.779	-2.9
238.996	-82.77
239.214	33.96
239.431	27.82
239.648	29.87
239.865	27.82
240.083	66.73
240.3	19.63
240.517	-25.43
240.735	-9.05
240.952	66.73
241.169	95.4
241.386	29.87
241.603	-4.95
241.821	-25.43
242.038	103.59
242.255	156.84
242.472	-52.05
242.689	62.63
242.907	50.35
243.124	48.3
243.341	52.39
243.558	-70.48
243.775	-68.44
243.992	-13.14
244.209	128.17
244.426	152.74
244.643	36.01
244.86	-11.09
245.078	87.21
245.295	27.82
245.512	70.83
245.729	-7
245.946	-15.19
246.163	64.68
246.38	33.96
246.597	3.24
246.814	62.63
247.031	54.44
247.248	31.91
247.464	66.73
247.681	70.83
247.898	113.83
248.115	89.26
248.332	-52.05
248.549	181.42
248.766	117.93
248.983	109.74
249.2	89.26
249.417	138.41
249.633	-23.38
249.85	99.5
250.067	91.31
250.284	81.07
250.501	144.55
250.717	27.82
250.934	-66.39
251.151	-39.76
251.368	42.15
251.585	83.11
251.801	54.44
252.018	-43.86
252.235	191.66
252.451	-9.05
252.668	-37.72
252.885	91.31
253.102	81.07
253.318	-58.2
253.535	-23.38
253.752	-0.85
253.968	-33.62
254.185	-31.57
254.401	99.5
254.618	38.06
254.835	50.35
255.051	72.87
255.268	46.25
255.484	48.3
255.701	89.26
255.917	17.58
256.134	-37.72
256.351	44.2
256.567	-68.44
256.784	21.67
257	-0.85
257.217	70.83
257.433	5.29
257.65	19.63
257.866	115.88
258.082	76.97
258.299	-35.67
258.515	113.83
258.732	15.53
258.948	-107.35
259.165	79.02
259.381	-21.33
259.597	74.92
259.814	-4.95
260.03	-76.63
260.246	-7
260.463	128.17
260.679	124.07
260.895	9.39
261.112	72.87
261.328	19.63
261.544	-0.85
261.761	111.78
261.977	-25.43
262.193	-82.77
262.409	-13.14
262.626	-11.09
262.842	21.67
263.058	-11.09
263.274	58.54
263.49	46.25
263.707	68.78
263.923	85.16
264.139	-70.48
264.355	15.53
264.571	101.55
264.787	97.45
265.004	68.78
265.22	44.2
265.436	-58.2
265.652	-19.29
265.868	-29.52
266.084	-97.11
266.3	21.67
266.516	-23.38
266.732	27.82
266.948	60.59
267.164	25.77
267.38	70.83
267.596	97.45
267.812	197.8
268.028	101.55
268.244	-41.81
268.46	48.3
268.676	17.58
268.892	62.63
269.108	-15.19
269.324	-64.34
269.54	-58.2
269.756	42.15
269.972	-107.35
270.188	58.54
270.403	7.34
270.619	7.34
270.835	74.92
271.051	44.2
271.267	-33.62
271.483	3.24
271.698	103.59
271.914	1.19
272.13	54.44
272.346	76.97
272.562	-35.67
272.777	48.3
272.993	-78.68
273.209	-68.44
273.425	74.92
273.64	-86.87
273.856	134.31
274.072	-11.09
274.287	9.39
274.503	115.88
274.719	111.78
274.934	-15.19
275.15	-19.29
275.366	-11.09
275.581	-54.1
275.797	-17.24
276.012	40.11
276.228	-62.29
276.444	33.96
276.659	138.41
276.875	13.48
277.09	44.2
277.306	72.87
277.521	33.96
277.737	62.63
277.952	132.26
278.168	-39.76
278.383	33.96
278.599	33.96
278.814	50.35
279.03	15.53
279.245	152.74
279.461	58.54
279.676	165.03
279.892	-56.15
280.107	-62.29
280.322	-74.58
280.538	33.96
280.753	-70.48
280.969	74.92
281.184	23.72
281.399	93.35
281.615	44.2
281.83	42.15
282.045	-37.72
282.26	-54.1
282.476	36.01
282.691	83.11
282.906	31.91
283.122	-27.48
283.337	31.91
283.552	72.87
283.767	-17.24
283.983	66.73
284.198	-25.43
284.413	74.92
284.628	-68.44
284.843	38.06
285.058	111.78
285.274	79.02
285.489	19.63
285.704	64.68
285.919	-35.67
286.134	23.72
286.349	25.77
286.564	-62.29
286.779	169.13
286.995	23.72
287.21	-56.15
287.425	81.07
287.64	-31.57
287.855	-19.29
288.07	5.29
288.285	138.41
288.5	91.31
288.715	13.48
288.93	54.44
289.145	-41.81
289.36	40.11
289.575	9.39
289.79	95.4
290.004	33.96
290.219	72.87
290.434	-23.38
290.649	-64.34
290.864	40.11
291.079	15.53
291.294	136.36
291.509	48.3
291.724	54.44
291.938	-62.29
292.153	60.59
292.368	-7
292.583	89.26
292.798	117.93
293.012	66.73
293.227	31.91
293.442	46.25
293.657	87.21
293.871	150.7
294.086	64.68
294.301	87.21
294.516	87.21
294.73	70.83
294.945	-68.44
295.16	74.92
295.374	89.26
295.589	38.06
295.804	1.19
296.018	11.43
296.233	105.64
296.447	42.15
296.662	25.77
296.877	85.16
297.091	64.68
297.306	44.2
297.52	66.73
297.735	97.45
297.949	36.01
298.164	44.2
298.378	36.01
298.593	-7
298.807	-23.38
299.022	36.01
299.236	140.46
299.451	-37.72
299.665	-13.14
299.88	-23.38
300.094	117.93
300.309	70.83
300.523	50.35
300.737	-56.15
300.952	38.06
301.166	21.67
301.381	-35.67
301.595	-4.95
301.809	85.16
302.024	46.25
302.238	17.58
302.452	113.83
302.667	58.54
302.881	205.99
303.095	85.16
303.309	134.31
303.524	27.82
303.738	19.63
303.952	-41.81
304.166	13.48
304.381	-80.72
304.595	89.26
304.809	42.15
305.023	89.26
305.237	-13.14
305.452	79.02
305.666	117.93
305.88	115.88
306.094	117.93
306.308	113.83
306.522	136.36
306.736	-29.52
306.95	70.83
307.164	21.67
307.379	3.24
307.593	101.55
307.807	156.84
308.021	76.97
308.235	17.58
308.449	-72.53
308.663	-7
308.877	126.12
309.091	74.92
309.305	3.24
309.519	-41.81
309.733	148.65
309.947	-68.44
310.161	136.36
310.374	40.11
310.588	87.21
310.802	-62.29
311.016	60.59
311.23	124.07
311.444	42.15
311.658	-29.52
311.872	103.59
312.085	158.89
312.299	144.55
312.513	31.91
312.727	58.54
312.941	-39.76
313.154	54.44
313.368	7.34
313.582	74.92
313.796	9.39
314.009	-7
314.223	142.5
314.437	130.22
314.651	-27.48
314.864	-27.48
315.078	23.72
315.292	-50
315.505	-45.91
315.719	70.83
315.933	40.11
316.146	9.39
316.36	-33.62
316.573	68.78
316.787	48.3
317.001	70.83
317.214	-15.19
317.428	44.2
317.641	-33.62
317.855	-0.85
318.068	72.87
318.282	64.68
318.495	187.56
318.709	74.92
318.922	70.83
319.136	101.55
319.349	134.31
319.563	-54.1
319.776	109.74
319.99	-54.1
320.203	42.15
320.417	25.77
320.63	3.24
320.843	126.12
321.057	29.87
321.27	58.54
321.483	138.41
321.697	60.59
321.91	64.68
322.124	-15.19
322.337	70.83
322.55	-4.95
322.763	68.78
322.977	44.2
323.19	-19.29
323.403	13.48
323.617	87.21
323.83	119.98
324.043	9.39
324.256	128.17
324.469	-45.91
324.683	95.4
324.896	40.11
325.109	64.68
325.322	-185.17
325.535	48.3
325.748	99.5
325.962	9.39
326.175	70.83
326.388	93.35
326.601	87.21
326.814	-2.9
327.027	21.67
327.24	154.79
327.453	-37.72
327.666	144.55
327.879	148.65
328.092	40.11
328.305	25.77
328.518	60.59
328.731	9.39
328.944	93.35
329.157	70.83
329.37	-4.95
329.583	154.79
329.796	210.09
330.009	-37.72
330.222	89.26
330.435	140.46
330.648	7.34
330.861	62.63
331.073	113.83
331.286	115.88
331.499	-23.38
331.712	-80.72
331.925	3.24
332.138	-21.33
332.35	87.21
332.563	3.24
332.776	64.68
332.989	-66.39
333.202	-47.96
333.414	44.2
333.627	74.92
333.84	7.34
334.053	70.83
334.265	-17.24
334.478	-4.95
334.691	62.63
334.903	9.39
335.116	-41.81
335.329	42.15
335.541	62.63
335.754	158.89
335.966	-33.62
336.179	-45.91
336.392	46.25
336.604	-27.48
336.817	89.26
337.029	56.49
337.242	46.25
337.454	64.68
337.667	66.73
337.88	62.63
338.092	-25.43
338.305	48.3
338.517	52.39
338.729	117.93
338.942	122.02
339.154	-35.67
339.367	-31.57
339.579	36.01
339.792	-47.96
340.004	79.02
340.217	-23.38
340.429	70.83
340.641	-52.05
340.854	-97.11
341.066	93.35
341.278	113.83
341.491	144.55
341.703	48.3
341.915	1.19
342.128	134.31
342.34	38.06
342.552	-13.14
342.764	9.39
342.977	-45.91
343.189	40.11
343.401	27.82
343.613	-17.24
343.826	87.21
344.038	-152.4
344.25	72.87
344.462	23.72
344.674	31.91
344.886	-86.87
345.099	-25.43
345.311	89.26
345.523	11.43
345.735	-152.4
345.947	62.63
346.159	36.01
346.371	-19.29
346.583	99.5
346.795	130.22
347.007	19.63
347.219	83.11
347.431	-17.24
347.643	64.68
347.855	13.48
348.067	134.31
348.279	-19.29
348.491	91.31
348.703	89.26
348.915	38.06
349.127	29.87
349.339	29.87
349.551	-21.33
349.763	72.87
349.975	38.06
350.187	72.87
350.399	177.32
350.61	128.17
350.822	33.96
351.034	42.15
351.246	29.87
351.458	76.97
351.669	23.72
351.881	46.25
352.093	101.55
352.305	109.74
352.517	97.45
352.728	119.98
352.94	44.2
353.152	89.26
353.363	23.72
353.575	42.15
353.787	144.55
353.999	31.91
354.21	109.74
354.422	-7
354.633	7.34
354.845	97.45
355.057	44.2
355.268	40.11
355.48	107.69
355.692	-19.29
355.903	1.19
356.115	13.48
356.326	-115.54
356.538	152.74
356.749	87.21
356.961	142.5
357.172	-37.72
357.384	-62.29
357.595	171.18
357.807	48.3
358.018	46.25
358.23	38.06
358.441	132.26
358.653	25.77
358.864	-11.09
359.075	15.53
359.287	60.59
359.498	162.98
359.709	60.59
359.921	-35.67
360.132	54.44
360.344	64.68
360.555	3.24
360.766	13.48
360.977	7.34
361.189	64.68
361.4	3.24
361.611	27.82
361.823	101.55
362.034	-2.9
362.245	-109.4
362.456	48.3
362.667	25.77
362.879	1.19
363.09	27.82
363.301	132.26
363.512	44.2
363.723	-13.14
363.935	7.34
364.146	107.69
364.357	72.87
364.568	79.02
364.779	-27.48
364.99	122.02
365.201	-25.43
365.412	173.22
365.623	-133.97
365.834	62.63
366.045	62.63
366.256	15.53
366.467	160.94
366.678	-52.05
366.889	81.07
367.1	40.11
367.311	167.08
367.522	40.11
367.733	42.15
367.944	101.55
368.155	17.58
368.366	111.78
368.577	101.55
368.788	64.68
368.999	-17.24
369.209	15.53
369.42	191.66
369.631	232.62
369.842	85.16
370.053	17.58
370.264	52.39
370.474	-4.95
370.685	74.92
370.896	44.2
371.107	58.54
371.317	-9.05
371.528	-27.48
371.739	99.5
371.95	103.59
372.16	40.11
372.371	-45.91
372.582	-21.33
372.792	74.92
373.003	66.73
373.214	101.55
373.424	103.59
373.635	-74.58
373.846	117.93
374.056	-0.85
374.267	31.91
374.477	130.22
374.688	-31.57
374.898	44.2
375.109	38.06
375.319	42.15
375.53	97.45
375.74	93.35
375.951	-25.43
376.161	74.92
376.372	83.11
376.582	-25.43
376.793	56.49
377.003	-23.38
377.214	60.59
377.424	68.78
377.635	25.77
377.845	-43.86
378.055	46.25
378.266	-13.14
378.476	48.3
378.686	87.21
378.897	5.29
379.107	105.64
379.317	40.11
379.528	11.43
379.738	101.55
379.948	-70.48
380.158	91.31
380.369	-41.81
380.579	128.17
380.789	42.15
380.999	91.31
381.21	58.54
381.42	189.61
381.63	15.53
381.84	70.83
382.05	74.92
382.261	-2.9
382.471	103.59
382.681	56.49
382.891	107.69
383.101	25.77
383.311	-4.95
383.521	-45.91
383.731	169.13
383.941	89.26
384.151	1.19
384.361	25.77
384.571	76.97
384.781	44.2
384.991	146.6
385.201	171.18
385.411	126.12
385.621	81.07
385.831	119.98
386.041	-50
386.251	52.39
386.461	19.63
386.671	-0.85
386.881	44.2
387.091	-27.48
387.301	83.11
387.511	-11.09
387.72	146.6
387.93	130.22
388.14	-23.38
388.35	-13.14
388.56	140.46
388.769	99.5
388.979	-9.05
389.189	-41.81
389.399	7.34
389.609	40.11
389.818	119.98
390.028	83.11
390.238	31.91
390.447	27.82
390.657	83.11
390.867	48.3
391.076	-111.44
391.286	29.87
391.496	1.19
391.705	-80.72
391.915	140.46
392.125	76.97
392.334	1.19
392.544	257.19
392.753	79.02
392.963	7.34
393.172	-45.91
393.382	-41.81
393.591	203.94
393.801	-19.29
394.01	72.87
394.22	85.16
394.429	21.67
394.639	52.39
394.848	58.54
395.058	60.59
395.267	1.19
395.477	81.07
395.686	27.82
395.895	187.56
396.105	152.74
396.314	36.01
396.524	89.26
396.733	31.91
396.942	101.55
397.152	40.11
397.361	83.11
397.57	38.06
397.78	-0.85
397.989	50.35
398.198	136.36
398.407	-17.24
398.617	48.3
398.826	105.64
399.035	79.02
399.244	130.22
399.453	52.39
399.663	36.01
399.872	21.67
400.081	-93.01
400.29	74.92
400.499	-62.29
400.708	76.97
400.917	7.34
401.127	-54.1
401.336	-0.85
401.545	228.52
401.754	50.35
401.963	62.63
402.172	-35.67
402.381	-50
402.59	29.87
402.799	17.58
403.008	109.74
403.217	25.77
403.426	-13.14
403.635	-9.05
403.844	-21.33
404.053	-15.19
404.262	-39.76
404.471	144.55
404.68	-0.85
404.888	-19.29
405.097	-0.85
405.306	33.96
405.515	74.92
405.724	64.68
405.933	36.01
406.142	-2.9
406.35	117.93
406.559	-15.19
406.768	25.77
406.977	154.79
407.185	40.11
407.394	83.11
407.603	15.53
407.812	42.15
408.02	79.02
408.229	3.24
408.438	50.35
408.646	-43.86
408.855	99.5
409.064	103.59
409.272	33.96
409.481	40.11
409.69	33.96
409.898	-17.24
410.107	7.34
410.315	54.44
410.524	-39.76
410.733	3.24
410.941	60.59
411.15	122.02
411.358	130.22
411.567	150.7
411.775	7.34
411.984	44.2
412.192	68.78
412.401	9.39
412.609	111.78
412.818	81.07
413.026	58.54
413.234	52.39
413.443	70.83
413.651	23.72
413.86	19.63
414.068	36.01
414.276	228.52
414.485	-33.62
414.693	130.22
414.901	152.74
415.11	122.02
415.318	15.53
415.526	-23.38
415.734	132.26
415.943	-23.38
416.151	97.45
416.359	-29.52
416.567	42.15
416.776	52.39
416.984	140.46
417.192	107.69
417.4	-17.24
417.608	-41.81
417.817	-29.52
418.025	-0.85
418.233	148.65
418.441	-7
418.649	48.3
418.857	3.24
419.065	50.35
419.273	-54.1
419.481	38.06
419.689	29.87
419.897	-29.52
420.105	-90.96
420.313	87.21
420.521	79.02
420.729	23.72
420.937	-2.9
421.145	-7
421.353	79.02
421.561	97.45
421.769	70.83
421.977	-13.14
422.185	70.83
422.393	-9.05
422.601	93.35
422.809	21.67
423.017	99.5
423.224	56.49
423.432	148.65
423.64	-17.24
423.848	122.02
424.056	-35.67
424.263	138.41
424.471	-17.24
424.679	105.64
424.887	-86.87
425.094	105.64
425.302	144.55
425.51	7.34
425.718	150.7
425.925	1.19
426.133	13.48
426.341	181.42
426.548	9.39
426.756	-41.81
426.964	33.96
427.171	-11.09
427.379	-9.05
427.586	23.72
427.794	140.46
428.001	31.91
428.209	60.59
428.417	74.92
428.624	72.87
428.832	56.49
429.039	56.49
429.247	222.38
429.454	64.68
429.662	134.31
429.869	101.55
430.076	42.15
430.284	85.16
430.491	136.36
430.699	128.17
430.906	107.69
431.114	60.59
431.321	52.39
431.528	40.11
431.736	58.54
431.943	81.07
432.15	105.64
432.358	97.45
432.565	117.93
432.772	-39.76
432.979	146.6
433.187	-29.52
433.394	144.55
433.601	33.96
433.808	193.7
434.016	48.3
434.223	85.16
434.43	126.12
434.637	132.26
434.844	85.16
435.052	52.39
435.259	136.36
435.466	152.74
435.673	101.55
435.88	111.78
436.087	191.66
436.294	205.99
436.501	187.56
436.708	107.69
436.915	132.26
437.122	199.85
437.329	111.78
437.537	162.98
437.743	150.7
437.95	244.9
438.157	160.94
438.364	132.26
438.571	191.66
438.778	242.85
438.985	197.8
439.192	255.14
439.399	142.5
439.606	226.47
439.813	341.16
440.02	214.18
440.227	392.36
440.433	298.15
440.64	238.76
440.847	240.81
441.054	199.85
441.261	330.92
441.467	183.46
441.674	226.47
441.881	345.25
442.088	292.01
442.294	363.69
442.501	343.21
442.708	439.46
442.914	375.97
443.121	382.12
443.328	459.94
443.534	427.17
443.741	480.42
443.948	384.16
444.154	404.64
444.361	517.28
444.568	445.6
444.774	490.66
444.981	363.69
445.187	560.29
445.394	484.52
445.6	527.52
445.807	593.06
446.013	560.29
446.22	392.36
446.426	545.95
446.633	711.84
446.839	775.33
447.046	660.64
447.252	738.46
447.459	707.74
447.665	740.51
447.871	971.93
448.078	908.44
448.284	1012.89
448.491	902.3
448.697	1008.8
448.903	890.01
449.11	1055.9
449.316	965.79
449.522	1078.43
449.728	1031.32
449.935	1182.87
450.141	1156.25
450.347	1340.57
450.553	1186.97
450.76	1199.26
450.966	1242.26
451.172	1346.71
451.378	1490.07
451.584	1418.39
451.791	1586.32
451.997	1586.32
452.203	1559.7
452.409	1764.5
452.615	1852.56
452.821	1856.65
453.027	1684.62
453.233	2106.51
453.44	1879.18
453.646	1893.52
453.852	2100.36
454.058	2139.27
454.264	2165.9
454.47	2460.81
454.676	2362.5
454.882	2557.06
455.088	2561.16
455.294	2710.66
455.5	2727.04
455.705	2925.69
455.911	2950.27
456.117	2880.64
456.323	3220.6
456.529	3124.35
456.735	3396.73
456.941	3476.6
457.147	3662.96
457.352	3830.9
457.558	3818.61
457.764	4138.09
457.97	4146.28
458.176	4281.45
458.381	4650.08
458.587	4576.36
458.793	4895.84
458.999	4727.91
459.204	5489.75
459.41	5545.05
459.616	5401.69
459.821	5844.05
460.027	5964.88
460.233	6491.21
460.438	6421.58
460.644	6976.58
460.85	6804.55
461.055	7027.78
461.261	7404.6
461.466	7337.02
461.672	7441.47
461.878	8266.8
462.083	8293.42
462.289	8256.56
462.494	8608.81
462.7	8709.16
462.905	8875.04
463.111	9577.5
463.316	9929.75
463.522	10329.1
463.727	10566.67
463.932	11111.43
464.138	11367.42
464.343	11828.21
464.549	11887.61
464.754	12975.08
464.959	12979.17
465.165	13339.62
465.37	13222.88
465.575	13368.29
465.781	13884.37
465.986	14410.7
466.191	14287.82
466.397	14330.83
466.602	14435.28
466.807	14840.78
467.012	15340.48
467.218	15293.38
467.423	15340.48
467.628	15524.8
467.833	16630.7
468.038	16214.96
468.244	15846.33
468.449	16866.22
468.654	16419.76
468.859	16587.69
469.064	16694.19
469.269	16073.65
469.474	16440.24
469.679	16862.12
