Data from USB4F104151__44__10-25-09-436.txt Node

Date: Wed Feb 26 10:25:09 EST 2025
User: louis
Spectrometer: USB4F10415
Trigger mode: 4
Integration Time (sec): 1.000000E-1
Scans to average: 1
Electric dark correction enabled: true
Nonlinearity correction enabled: false
Boxcar width: 0
XAxis mode: Wavelengths
Number of Pixels in Spectrum: 3648
>>>>>Begin Spectral Data<<<<<
178.204	-474.62
178.424	-474.62
178.644	-474.62
178.864	-382.46
179.084	-396.79
179.304	-26.11
179.524	10.75
179.744	31.23
179.964	76.29
180.184	-22.02
180.404	90.62
180.624	0.51
180.844	6.66
181.064	-69.12
181.283	-7.68
181.503	-65.02
181.723	-26.11
181.943	-134.65
182.163	135.68
182.383	-54.78
182.602	10.75
182.822	78.33
183.042	55.81
183.262	-95.74
183.482	-22.02
183.701	-44.54
183.921	-17.92
184.141	74.24
184.361	59.9
184.58	39.42
184.8	0.51
185.02	-75.26
185.239	92.67
185.459	6.66
185.679	78.33
185.898	-48.64
186.118	-89.6
186.338	29.18
186.557	74.24
186.777	-58.88
186.997	-32.26
187.216	31.23
187.436	158.21
187.655	68.09
187.875	-7.68
188.095	49.66
188.314	80.38
188.534	96.77
188.753	-26.11
188.973	139.77
189.192	115.2
189.412	-46.59
189.631	-13.82
189.851	70.14
190.07	102.91
190.29	-22.02
190.509	-17.92
190.729	55.81
190.948	166.4
191.168	219.64
191.387	20.99
191.607	-1.54
191.826	-28.16
192.045	-5.63
192.265	-36.35
192.484	31.23
192.704	-19.97
192.923	-15.87
193.142	94.72
193.362	94.72
193.581	141.82
193.8	33.28
194.02	82.43
194.239	59.9
194.458	109.05
194.678	-83.45
194.897	18.94
195.116	74.24
195.335	82.43
195.555	12.8
195.774	8.7
195.993	107.01
196.212	74.24
196.432	-136.7
196.651	-73.21
196.87	-34.3
197.089	207.36
197.308	-22.02
197.528	6.66
197.747	-42.5
197.966	27.14
198.185	100.86
198.404	6.66
198.623	49.66
198.842	47.62
199.062	107.01
199.281	68.09
199.5	12.8
199.719	61.95
199.938	39.42
200.157	53.76
200.376	68.09
200.595	115.2
200.814	76.29
201.033	-112.13
201.252	150.01
201.471	41.47
201.69	33.28
201.909	6.66
202.128	68.09
202.347	29.18
202.566	-34.3
202.785	-110.08
203.004	-32.26
203.223	201.21
203.442	37.38
203.661	-73.21
203.879	74.24
204.098	41.47
204.317	49.66
204.536	66.05
204.755	68.09
204.974	31.23
205.193	-56.83
205.411	172.54
205.63	64
205.849	18.94
206.068	23.04
206.287	-60.93
206.505	27.14
206.724	31.23
206.943	-83.45
207.162	-46.59
207.381	72.19
207.599	45.57
207.818	-3.58
208.037	-103.93
208.255	53.76
208.474	20.99
208.693	-32.26
208.911	66.05
209.13	45.57
209.349	-1.54
209.567	78.33
209.786	166.4
210.005	0.51
210.223	18.94
210.442	-148.99
210.661	20.99
210.879	80.38
211.098	78.33
211.316	2.56
211.535	47.62
211.753	82.43
211.972	-11.78
212.191	-11.78
212.409	45.57
212.628	-22.02
212.846	-1.54
213.065	39.42
213.283	33.28
213.502	16.9
213.72	18.94
213.938	2.56
214.157	12.8
214.375	35.33
214.594	8.7
214.812	88.57
215.031	27.14
215.249	-1.54
215.467	-28.16
215.686	4.61
215.904	33.28
216.122	33.28
216.341	76.29
216.559	64
216.778	61.95
216.996	139.77
217.214	53.76
217.432	-1.54
217.651	-103.93
217.869	10.75
218.087	-15.87
218.306	4.61
218.524	-24.06
218.742	-17.92
218.96	10.75
219.179	29.18
219.397	-75.26
219.615	209.4
219.833	141.82
220.051	-44.54
220.27	29.18
220.488	49.66
220.706	-19.97
220.924	-36.35
221.142	-9.73
221.36	92.67
221.578	90.62
221.796	-36.35
222.015	123.39
222.233	8.7
222.451	90.62
222.669	-83.45
222.887	51.71
223.105	-19.97
223.323	-42.5
223.541	-9.73
223.759	-58.88
223.977	53.76
224.195	111.1
224.413	64
224.631	-26.11
224.849	59.9
225.067	145.92
225.285	51.71
225.503	-46.59
225.721	-105.98
225.939	82.43
226.157	-9.73
226.375	246.27
226.592	6.66
226.81	33.28
227.028	25.09
227.246	88.57
227.464	33.28
227.682	74.24
227.9	41.47
228.117	55.81
228.335	74.24
228.553	20.99
228.771	104.96
228.989	10.75
229.206	31.23
229.424	-9.73
229.642	-5.63
229.86	-5.63
230.077	98.81
230.295	37.38
230.513	72.19
230.731	18.94
230.948	178.69
231.166	82.43
231.384	-26.11
231.601	27.14
231.819	178.69
232.037	8.7
232.254	-17.92
232.472	-46.59
232.689	14.85
232.907	76.29
233.125	-36.35
233.342	-38.4
233.56	23.04
233.777	27.14
233.995	-58.88
234.213	64
234.43	92.67
234.648	-15.87
234.865	-26.11
235.083	-5.63
235.3	59.9
235.518	107.01
235.735	68.09
235.953	145.92
236.17	-30.21
236.388	-15.87
236.605	43.52
236.822	33.28
237.04	94.72
237.257	31.23
237.475	-73.21
237.692	-11.78
237.909	66.05
238.127	16.9
238.344	-24.06
238.562	41.47
238.779	-28.16
238.996	-62.98
239.214	35.33
239.431	55.81
239.648	14.85
239.865	39.42
240.083	92.67
240.3	-62.98
240.517	-17.92
240.735	-24.06
240.952	78.33
241.169	84.48
241.386	72.19
241.603	-30.21
241.821	-42.5
242.038	25.09
242.255	35.33
242.472	-69.12
242.689	16.9
242.907	86.53
243.124	0.51
243.341	88.57
243.558	-3.58
243.775	-91.65
243.992	-54.78
244.209	-1.54
244.426	160.25
244.643	66.05
244.86	10.75
245.078	64
245.295	33.28
245.512	-58.88
245.729	-11.78
245.946	72.19
246.163	94.72
246.38	-79.36
246.597	37.38
246.814	88.57
247.031	-42.5
247.248	0.51
247.464	107.01
247.681	33.28
247.898	66.05
248.115	20.99
248.332	-75.26
248.549	84.48
248.766	131.58
248.983	162.3
249.2	-11.78
249.417	-7.68
249.633	10.75
249.85	18.94
250.067	-1.54
250.284	18.94
250.501	-5.63
250.717	4.61
250.934	-95.74
251.151	12.8
251.368	45.57
251.585	135.68
251.801	23.04
252.018	-77.31
252.235	100.86
252.451	-71.17
252.668	-17.92
252.885	137.73
253.102	-44.54
253.318	4.61
253.535	-15.87
253.752	12.8
253.968	-34.3
254.185	-71.17
254.401	20.99
254.618	-62.98
254.835	-44.54
255.051	57.86
255.268	111.1
255.484	-1.54
255.701	-42.5
255.917	37.38
256.134	-56.83
256.351	-5.63
256.567	-58.88
256.784	12.8
257	-81.41
257.217	68.09
257.433	86.53
257.65	37.38
257.866	94.72
258.082	-87.55
258.299	-11.78
258.515	2.56
258.732	-67.07
258.948	-46.59
259.165	31.23
259.381	-65.02
259.597	35.33
259.814	31.23
260.03	-22.02
260.246	-48.64
260.463	96.77
260.679	-7.68
260.895	6.66
261.112	104.96
261.328	-5.63
261.544	-58.88
261.761	111.1
261.977	-26.11
262.193	-52.74
262.409	68.09
262.626	31.23
262.842	-30.21
263.058	-19.97
263.274	86.53
263.49	23.04
263.707	74.24
263.923	43.52
264.139	-79.36
264.355	84.48
264.571	61.95
264.787	74.24
265.004	174.59
265.22	18.94
265.436	10.75
265.652	14.85
265.868	53.76
266.084	-77.31
266.3	-22.02
266.516	-34.3
266.732	33.28
266.948	39.42
267.164	-60.93
267.38	102.91
267.596	98.81
267.812	125.44
268.028	-56.83
268.244	4.61
268.46	92.67
268.676	-17.92
268.892	6.66
269.108	-48.64
269.324	-44.54
269.54	-24.06
269.756	51.71
269.972	-108.03
270.188	-30.21
270.403	-26.11
270.619	-34.3
270.835	64
271.051	43.52
271.267	16.9
271.483	14.85
271.698	68.09
271.914	80.38
272.13	10.75
272.346	64
272.562	66.05
272.777	35.33
272.993	-52.74
273.209	-15.87
273.425	172.54
273.64	29.18
273.856	27.14
274.072	-73.21
274.287	31.23
274.503	10.75
274.719	51.71
274.934	-46.59
275.15	-54.78
275.366	74.24
275.581	-40.45
275.797	45.57
276.012	-13.82
276.228	-26.11
276.444	-13.82
276.659	109.05
276.875	-58.88
277.09	74.24
277.306	31.23
277.521	61.95
277.737	-24.06
277.952	41.47
278.168	-19.97
278.383	16.9
278.599	8.7
278.814	64
279.03	31.23
279.245	90.62
279.461	12.8
279.676	41.47
279.892	-28.16
280.107	-77.31
280.322	-7.68
280.538	16.9
280.753	-38.4
280.969	31.23
281.184	-62.98
281.399	139.77
281.615	20.99
281.83	-13.82
282.045	2.56
282.26	-26.11
282.476	-5.63
282.691	68.09
282.906	18.94
283.122	66.05
283.337	-50.69
283.552	55.81
283.767	2.56
283.983	96.77
284.198	2.56
284.413	74.24
284.628	-28.16
284.843	-9.73
285.058	70.14
285.274	-30.21
285.489	-40.45
285.704	64
285.919	25.09
286.134	-11.78
286.349	-28.16
286.564	-48.64
286.779	145.92
286.995	-40.45
287.21	-101.89
287.425	2.56
287.64	-1.54
287.855	78.33
288.07	-83.45
288.285	90.62
288.5	70.14
288.715	-9.73
288.93	51.71
289.145	16.9
289.36	133.63
289.575	-87.55
289.79	100.86
290.004	6.66
290.219	59.9
290.434	-81.41
290.649	-52.74
290.864	-46.59
291.079	2.56
291.294	57.86
291.509	31.23
291.724	-7.68
291.938	37.38
292.153	23.04
292.368	-73.21
292.583	70.14
292.798	72.19
293.012	27.14
293.227	76.29
293.442	16.9
293.657	31.23
293.871	51.71
294.086	90.62
294.301	176.64
294.516	127.49
294.73	41.47
294.945	-95.74
295.16	-60.93
295.374	104.96
295.589	139.77
295.804	-9.73
296.018	59.9
296.233	94.72
296.447	-22.02
296.662	-13.82
296.877	127.49
297.091	14.85
297.306	94.72
297.52	-9.73
297.735	0.51
297.949	121.34
298.164	66.05
298.378	8.7
298.593	-52.74
298.807	-101.89
299.022	92.67
299.236	178.69
299.451	4.61
299.665	-79.36
299.88	-67.07
300.094	98.81
300.309	-5.63
300.523	12.8
300.737	-19.97
300.952	76.29
301.166	-1.54
301.381	-50.69
301.595	-13.82
301.809	-9.73
302.024	12.8
302.238	-28.16
302.452	96.77
302.667	12.8
302.881	119.29
303.095	64
303.309	80.38
303.524	-17.92
303.738	-1.54
303.952	-91.65
304.166	150.01
304.381	-136.7
304.595	164.35
304.809	-163.33
305.023	-38.4
305.237	-38.4
305.452	39.42
305.666	27.14
305.88	-9.73
306.094	31.23
306.308	27.14
306.522	72.19
306.736	27.14
306.95	68.09
307.164	-5.63
307.379	8.7
307.593	94.72
307.807	96.77
308.021	55.81
308.235	51.71
308.449	-75.26
308.663	-15.87
308.877	158.21
309.091	-24.06
309.305	-5.63
309.519	-163.33
309.733	139.77
309.947	-46.59
310.161	35.33
310.374	57.86
310.588	145.92
310.802	-9.73
311.016	23.04
311.23	53.76
311.444	-38.4
311.658	-44.54
311.872	20.99
312.085	166.4
312.299	53.76
312.513	94.72
312.727	92.67
312.941	-120.32
313.154	100.86
313.368	27.14
313.582	53.76
313.796	-26.11
314.009	-54.78
314.223	139.77
314.437	-3.58
314.651	72.19
314.864	-54.78
315.078	29.18
315.292	-103.93
315.505	6.66
315.719	57.86
315.933	72.19
316.146	-1.54
316.36	-48.64
316.573	131.58
316.787	49.66
317.001	47.62
317.214	-58.88
317.428	61.95
317.641	16.9
317.855	35.33
318.068	-19.97
318.282	111.1
318.495	104.96
318.709	51.71
318.922	-30.21
319.136	111.1
319.349	70.14
319.563	12.8
319.776	102.91
319.99	-81.41
320.203	88.57
320.417	-3.58
320.63	102.91
320.843	152.06
321.057	-26.11
321.27	-15.87
321.483	31.23
321.697	64
321.91	104.96
322.124	12.8
322.337	12.8
322.55	-40.45
322.763	78.33
322.977	-26.11
323.19	-48.64
323.403	-5.63
323.617	25.09
323.83	78.33
324.043	-22.02
324.256	129.53
324.469	-11.78
324.683	121.34
324.896	-1.54
325.109	27.14
325.322	-67.07
325.535	107.01
325.748	35.33
325.962	-17.92
326.175	-24.06
326.388	61.95
326.601	80.38
326.814	-44.54
327.027	121.34
327.24	94.72
327.453	-105.98
327.666	8.7
327.879	96.77
328.092	35.33
328.305	33.28
328.518	-67.07
328.731	-73.21
328.944	51.71
329.157	16.9
329.37	-17.92
329.583	176.64
329.796	193.02
330.009	-85.5
330.222	90.62
330.435	-24.06
330.648	-26.11
330.861	59.9
331.073	45.57
331.286	33.28
331.499	90.62
331.712	-26.11
331.925	-34.3
332.138	33.28
332.35	64
332.563	10.75
332.776	39.42
332.989	-99.84
333.202	-56.83
333.414	6.66
333.627	53.76
333.84	43.52
334.053	88.57
334.265	39.42
334.478	-52.74
334.691	-40.45
334.903	-3.58
335.116	-69.12
335.329	6.66
335.541	8.7
335.754	100.86
335.966	47.62
336.179	14.85
336.392	12.8
336.604	0.51
336.817	94.72
337.029	39.42
337.242	-24.06
337.454	90.62
337.667	-19.97
337.88	174.59
338.092	43.52
338.305	51.71
338.517	12.8
338.729	16.9
338.942	125.44
339.154	-44.54
339.367	-134.65
339.579	86.53
339.792	-34.3
340.004	6.66
340.217	-17.92
340.429	14.85
340.641	-60.93
340.854	-103.93
341.066	39.42
341.278	109.05
341.491	88.57
341.703	-22.02
341.915	-95.74
342.128	111.1
342.34	43.52
342.552	-110.08
342.764	-38.4
342.977	10.75
343.189	86.53
343.401	49.66
343.613	-50.69
343.826	49.66
344.038	8.7
344.25	61.95
344.462	-34.3
344.674	35.33
344.886	16.9
345.099	86.53
345.311	59.9
345.523	-13.82
345.735	-108.03
345.947	-28.16
346.159	31.23
346.371	-11.78
346.583	-42.5
346.795	143.87
347.007	29.18
347.219	74.24
347.431	43.52
347.643	70.14
347.855	49.66
348.067	213.5
348.279	-60.93
348.491	-3.58
348.703	20.99
348.915	-17.92
349.127	-46.59
349.339	45.57
349.551	-13.82
349.763	84.48
349.975	41.47
350.187	96.77
350.399	125.44
350.61	-7.68
350.822	92.67
351.034	35.33
351.246	10.75
351.458	121.34
351.669	94.72
351.881	23.04
352.093	96.77
352.305	57.86
352.517	-15.87
352.728	59.9
352.94	51.71
353.152	88.57
353.363	-87.55
353.575	41.47
353.787	162.3
353.999	74.24
354.21	72.19
354.422	-157.18
354.633	41.47
354.845	14.85
355.057	113.15
355.268	-19.97
355.48	59.9
355.692	-81.41
355.903	14.85
356.115	-44.54
356.326	-34.3
356.538	31.23
356.749	74.24
356.961	170.49
357.172	61.95
357.384	14.85
357.595	115.2
357.807	-3.58
358.018	-48.64
358.23	-3.58
358.441	98.81
358.653	59.9
358.864	61.95
359.075	-42.5
359.287	59.9
359.498	33.28
359.709	109.05
359.921	14.85
360.132	66.05
360.344	-9.73
360.555	14.85
360.766	53.76
360.977	-19.97
361.189	139.77
361.4	57.86
361.611	66.05
361.823	49.66
362.034	53.76
362.245	-89.6
362.456	35.33
362.667	51.71
362.879	-42.5
363.09	74.24
363.301	39.42
363.512	64
363.723	-40.45
363.935	80.38
364.146	80.38
364.357	-3.58
364.568	16.9
364.779	-124.41
364.99	107.01
365.201	6.66
365.412	33.28
365.623	-108.03
365.834	0.51
366.045	-42.5
366.256	102.91
366.467	86.53
366.678	2.56
366.889	35.33
367.1	-65.02
367.311	45.57
367.522	-38.4
367.733	47.62
367.944	10.75
368.155	-75.26
368.366	123.39
368.577	80.38
368.788	107.01
368.999	-7.68
369.209	-46.59
369.42	176.64
369.631	178.69
369.842	143.87
370.053	-13.82
370.264	14.85
370.474	-28.16
370.685	0.51
370.896	53.76
371.107	57.86
371.317	31.23
371.528	51.71
371.739	82.43
371.95	-3.58
372.16	4.61
372.371	-46.59
372.582	59.9
372.792	27.14
373.003	49.66
373.214	2.56
373.424	119.29
373.635	-65.02
373.846	137.73
374.056	94.72
374.267	-11.78
374.477	37.38
374.688	29.18
374.898	-26.11
375.109	72.19
375.319	96.77
375.53	43.52
375.74	41.47
375.951	-28.16
376.161	8.7
376.372	68.09
376.582	-26.11
376.793	72.19
377.003	-5.63
377.214	-48.64
377.424	20.99
377.635	-13.82
377.845	2.56
378.055	109.05
378.266	-54.78
378.476	66.05
378.686	37.38
378.897	47.62
379.107	102.91
379.317	59.9
379.528	-1.54
379.738	10.75
379.948	-42.5
380.158	66.05
380.369	66.05
380.579	98.81
380.789	55.81
380.999	80.38
381.21	96.77
381.42	125.44
381.63	-50.69
381.84	33.28
382.05	59.9
382.261	135.68
382.471	84.48
382.681	27.14
382.891	131.58
383.101	51.71
383.311	-85.5
383.521	86.53
383.731	115.2
383.941	150.01
384.151	66.05
384.361	-40.45
384.571	47.62
384.781	-28.16
384.991	139.77
385.201	121.34
385.411	72.19
385.621	76.29
385.831	72.19
386.041	47.62
386.251	2.56
386.461	72.19
386.671	-24.06
386.881	16.9
387.091	-22.02
387.301	-7.68
387.511	-11.78
387.72	74.24
387.93	109.05
388.14	-93.69
388.35	92.67
388.56	100.86
388.769	74.24
388.979	78.33
389.189	-42.5
389.399	8.7
389.609	51.71
389.818	70.14
390.028	-15.87
390.238	125.44
390.447	-52.74
390.657	66.05
390.867	12.8
391.076	-89.6
391.286	-1.54
391.496	20.99
391.705	-15.87
391.915	107.01
392.125	49.66
392.334	16.9
392.544	125.44
392.753	27.14
392.963	-42.5
393.172	76.29
393.382	-54.78
393.591	170.49
393.801	-32.26
394.01	125.44
394.22	113.15
394.429	35.33
394.639	16.9
394.848	-1.54
395.058	18.94
395.267	-13.82
395.477	55.81
395.686	78.33
395.895	94.72
396.105	150.01
396.314	41.47
396.524	23.04
396.733	16.9
396.942	82.43
397.152	78.33
397.361	166.4
397.57	-26.11
397.78	68.09
397.989	35.33
398.198	307.71
398.407	0.51
398.617	45.57
398.826	12.8
399.035	27.14
399.244	84.48
399.453	-42.5
399.663	0.51
399.872	18.94
400.081	-3.58
400.29	35.33
400.499	-48.64
400.708	80.38
400.917	37.38
401.127	-36.35
401.336	-71.17
401.545	98.81
401.754	107.01
401.963	90.62
402.172	12.8
402.381	-9.73
402.59	6.66
402.799	-24.06
403.008	129.53
403.217	186.88
403.426	123.39
403.635	-42.5
403.844	23.04
404.053	4.61
404.262	49.66
404.471	141.82
404.68	41.47
404.888	-73.21
405.097	-56.83
405.306	76.29
405.515	107.01
405.724	-77.31
405.933	27.14
406.142	31.23
406.35	102.91
406.559	27.14
406.768	47.62
406.977	133.63
407.185	20.99
407.394	143.87
407.603	-36.35
407.812	35.33
408.02	96.77
408.229	-77.31
408.438	64
408.646	-19.97
408.855	4.61
409.064	49.66
409.272	94.72
409.481	-22.02
409.69	-81.41
409.898	-75.26
410.107	4.61
410.315	92.67
410.524	-11.78
410.733	2.56
410.941	-22.02
411.15	37.38
411.358	115.2
411.567	102.91
411.775	-1.54
411.984	25.09
412.192	82.43
412.401	-7.68
412.609	182.78
412.818	68.09
413.026	47.62
413.234	43.52
413.443	23.04
413.651	-56.83
413.86	2.56
414.068	78.33
414.276	182.78
414.485	-71.17
414.693	123.39
414.901	158.21
415.11	47.62
415.318	45.57
415.526	43.52
415.734	41.47
415.943	18.94
416.151	90.62
416.359	31.23
416.567	59.9
416.776	72.19
416.984	102.91
417.192	164.35
417.4	2.56
417.608	20.99
417.817	-93.69
418.025	102.91
418.233	162.3
418.441	-120.32
418.649	-19.97
418.857	92.67
419.065	35.33
419.273	-3.58
419.481	2.56
419.689	57.86
419.897	20.99
420.105	-99.84
420.313	74.24
420.521	72.19
420.729	94.72
420.937	-42.5
421.145	-22.02
421.353	70.14
421.561	102.91
421.769	90.62
421.977	-7.68
422.185	-15.87
422.393	-19.97
422.601	70.14
422.809	76.29
423.017	61.95
423.224	25.09
423.432	111.1
423.64	74.24
423.848	164.35
424.056	16.9
424.263	90.62
424.471	51.71
424.679	111.1
424.887	-24.06
425.094	156.16
425.302	147.97
425.51	0.51
425.718	180.73
425.925	104.96
426.133	88.57
426.341	229.88
426.548	111.1
426.756	117.25
426.964	100.86
427.171	18.94
427.379	57.86
427.586	78.33
427.794	109.05
428.001	117.25
428.209	129.53
428.417	150.01
428.624	207.36
428.832	84.48
429.039	53.76
429.247	31.23
429.454	98.81
429.662	160.25
429.869	94.72
430.076	137.73
430.284	174.59
430.491	170.49
430.699	141.82
430.906	246.27
431.114	74.24
431.321	129.53
431.528	137.73
431.736	74.24
431.943	109.05
432.15	143.87
432.358	233.98
432.565	283.13
432.772	57.86
432.979	158.21
433.187	86.53
433.394	252.41
433.601	127.49
433.808	264.7
434.016	352.76
434.223	266.75
434.43	170.49
434.637	233.98
434.844	238.08
435.052	299.52
435.259	299.52
435.466	334.33
435.673	375.29
435.88	287.23
436.087	344.57
436.294	309.76
436.501	410.11
436.708	344.57
436.915	340.47
437.122	365.05
437.329	344.57
437.537	350.71
437.743	328.19
437.95	479.74
438.157	502.26
438.364	504.31
438.571	420.35
438.778	440.83
438.985	520.7
439.192	524.79
439.399	475.64
439.606	541.18
439.813	621.05
440.02	682.49
440.227	799.22
440.433	569.85
440.64	672.25
440.847	584.18
441.054	659.96
441.261	815.6
441.467	762.36
441.674	774.64
441.881	913.91
442.088	956.91
442.294	866.8
442.501	983.54
442.708	1145.33
442.914	829.94
443.121	1018.35
443.328	991.73
443.534	1221.1
443.741	1147.37
443.948	987.63
444.154	1233.39
444.361	1395.18
444.568	1247.72
444.774	1313.26
444.981	1200.62
445.187	1583.59
445.394	1436.14
445.6	1352.17
445.807	1661.41
446.013	1583.59
446.22	1571.3
446.426	1769.96
446.633	1802.72
446.839	2085.34
447.046	1759.72
447.252	2099.68
447.459	2050.53
447.665	2150.88
447.871	2257.37
448.078	2435.55
448.284	2402.78
448.491	2464.22
448.697	2544.09
448.903	2740.69
449.11	2705.88
449.316	2769.37
449.522	3008.98
449.728	3017.17
449.935	3174.86
450.141	3133.9
450.347	3498.44
450.553	3428.81
450.76	3424.72
450.966	3609.03
451.172	3740.1
451.378	4012.48
451.584	4131.26
451.791	4432.32
451.997	4422.08
452.203	4581.82
452.409	4794.81
452.615	4762.04
452.821	4762.04
453.027	4764.09
453.233	5599.66
453.44	5341.61
453.646	5511.6
453.852	5900.71
454.058	6056.36
454.264	6334.88
454.47	6885.78
454.676	6642.07
454.882	7174.55
455.088	6812.06
455.294	7428.49
455.5	7942.53
455.705	8536.45
455.911	8206.72
456.117	8745.34
456.323	8812.92
456.529	8921.46
456.735	9597.29
456.941	9830.76
457.147	10226.02
457.352	10555.74
457.558	10981.72
457.764	11624.78
457.97	11764.04
458.176	12335.43
458.381	12818.75
458.587	13461.81
458.793	13762.86
458.999	13865.26
459.204	15597.84
459.41	16175.37
459.616	15876.37
459.821	16707.84
460.027	17817.84
460.233	18303.21
460.438	18331.88
460.644	19273.95
460.85	19691.73
461.055	19968.21
461.261	21401.79
461.466	20584.65
461.672	21409.98
461.878	23910.55
462.083	23591.06
462.289	24250.51
462.494	24938.63
462.7	25114.75
462.905	25342.08
463.111	27445.34
463.316	28837.96
463.522	29276.23
463.727	30494.77
463.932	31457.31
464.138	32608.27
464.343	33624.06
464.549	34050.04
464.754	36106.2
464.959	37224.39
465.165	38174.65
465.37	37709.76
465.575	38092.73
465.781	40222.62
465.986	41455.5
466.191	41021.33
466.397	41316.23
466.602	40404.89
466.807	42563.45
467.012	43288.43
467.218	44416.86
467.423	44220.25
467.628	45199.18
467.833	47605.55
468.038	46669.62
468.244	45883.2
468.449	48101.15
468.654	47286.06
468.859	47300.4
