Data from USB4F104151__31__11-24-55-104.txt Node

Date: Wed Feb 26 11:24:55 EST 2025
User: louis
Spectrometer: USB4F10415
Trigger mode: 4
Integration Time (sec): 1.000000E-1
Scans to average: 1
Electric dark correction enabled: true
Nonlinearity correction enabled: false
Boxcar width: 0
XAxis mode: Wavelengths
Number of Pixels in Spectrum: 3648
>>>>>Begin Spectral Data<<<<<
178.204	-409.08
178.424	-409.08
178.644	-409.08
178.864	-386.55
179.084	-343.55
179.304	-15.87
179.524	8.7
179.744	29.18
179.964	49.66
180.184	68.09
180.404	117.25
180.624	-130.56
180.844	0.51
181.064	-91.65
181.283	31.23
181.503	-75.26
181.723	8.7
181.943	-69.12
182.163	211.45
182.383	-36.35
182.602	84.48
182.822	109.05
183.042	49.66
183.262	57.86
183.482	-136.7
183.701	-38.4
183.921	119.29
184.141	-85.5
184.361	107.01
184.58	78.33
184.8	61.95
185.02	25.09
185.239	41.47
185.459	33.28
185.679	207.36
185.898	-89.6
186.118	39.42
186.338	20.99
186.557	109.05
186.777	-44.54
186.997	18.94
187.216	37.38
187.436	184.83
187.655	61.95
187.875	141.82
188.095	39.42
188.314	184.83
188.534	135.68
188.753	0.51
188.973	94.72
189.192	176.64
189.412	43.52
189.631	29.18
189.851	12.8
190.07	201.21
190.29	-79.36
190.509	35.33
190.729	31.23
190.948	100.86
191.168	205.31
191.387	107.01
191.607	-42.5
191.826	-26.11
192.045	31.23
192.265	-65.02
192.484	47.62
192.704	41.47
192.923	-91.65
193.142	123.39
193.362	100.86
193.581	127.49
193.8	64
194.02	102.91
194.239	-22.02
194.458	160.25
194.678	23.04
194.897	-34.3
195.116	82.43
195.335	14.85
195.555	29.18
195.774	41.47
195.993	125.44
196.212	-17.92
196.432	-40.45
196.651	2.56
196.87	78.33
197.089	217.6
197.308	37.38
197.528	37.38
197.747	-60.93
197.966	66.05
198.185	72.19
198.404	12.8
198.623	147.97
198.842	178.69
199.062	53.76
199.281	147.97
199.5	33.28
199.719	129.53
199.938	74.24
200.157	82.43
200.376	109.05
200.595	143.87
200.814	-3.58
201.033	-15.87
201.252	107.01
201.471	64
201.69	41.47
201.909	47.62
202.128	80.38
202.347	72.19
202.566	-7.68
202.785	-75.26
203.004	-69.12
203.223	254.46
203.442	-32.26
203.661	-52.74
203.879	29.18
204.098	170.49
204.317	-19.97
204.536	41.47
204.755	90.62
204.974	55.81
205.193	20.99
205.411	182.78
205.63	121.34
205.849	47.62
206.068	16.9
206.287	90.62
206.505	141.82
206.724	-34.3
206.943	6.66
207.162	0.51
207.381	47.62
207.599	-3.58
207.818	45.57
208.037	41.47
208.255	-9.73
208.474	2.56
208.693	25.09
208.911	-62.98
209.13	78.33
209.349	-15.87
209.567	107.01
209.786	23.04
210.005	72.19
210.223	10.75
210.442	-101.89
210.661	68.09
210.879	104.96
211.098	-9.73
211.316	8.7
211.535	107.01
211.753	59.9
211.972	27.14
212.191	-38.4
212.409	-34.3
212.628	107.01
212.846	-7.68
213.065	84.48
213.283	135.68
213.502	-9.73
213.72	98.81
213.938	-5.63
214.157	4.61
214.375	150.01
214.594	-48.64
214.812	33.28
215.031	14.85
215.249	14.85
215.467	31.23
215.686	111.1
215.904	45.57
216.122	43.52
216.341	152.06
216.559	-11.78
216.778	115.2
216.996	131.58
217.214	31.23
217.432	39.42
217.651	-22.02
217.869	-15.87
218.087	49.66
218.306	-19.97
218.524	-9.73
218.742	2.56
218.96	74.24
219.179	10.75
219.397	74.24
219.615	205.31
219.833	74.24
220.051	14.85
220.27	2.56
220.488	129.53
220.706	78.33
220.924	-58.88
221.142	-24.06
221.36	107.01
221.578	100.86
221.796	41.47
222.015	-11.78
222.233	84.48
222.451	186.88
222.669	-26.11
222.887	10.75
223.105	-26.11
223.323	-17.92
223.541	51.71
223.759	47.62
223.977	0.51
224.195	178.69
224.413	121.34
224.631	31.23
224.849	-36.35
225.067	166.4
225.285	33.28
225.503	-3.58
225.721	-77.31
225.939	8.7
226.157	25.09
226.375	207.36
226.592	-22.02
226.81	4.61
227.028	111.1
227.246	111.1
227.464	82.43
227.682	80.38
227.9	43.52
228.117	94.72
228.335	107.01
228.553	98.81
228.771	-69.12
228.989	4.61
229.206	96.77
229.424	45.57
229.642	2.56
229.86	-15.87
230.077	215.55
230.295	61.95
230.513	107.01
230.731	78.33
230.948	123.39
231.166	131.58
231.384	12.8
231.601	-67.07
231.819	178.69
232.037	-19.97
232.254	-17.92
232.472	61.95
232.689	4.61
232.907	160.25
233.125	-3.58
233.342	29.18
233.56	-34.3
233.777	33.28
233.995	0.51
234.213	64
234.43	82.43
234.648	35.33
234.865	4.61
235.083	20.99
235.3	55.81
235.518	45.57
235.735	92.67
235.953	117.25
236.17	59.9
236.388	76.29
236.605	45.57
236.822	117.25
237.04	74.24
237.257	80.38
237.475	-44.54
237.692	-22.02
237.909	76.29
238.127	61.95
238.344	123.39
238.562	61.95
238.779	-38.4
238.996	-101.89
239.214	68.09
239.431	150.01
239.648	37.38
239.865	176.64
240.083	66.05
240.3	68.09
240.517	31.23
240.735	-56.83
240.952	90.62
241.169	76.29
241.386	113.15
241.603	16.9
241.821	-73.21
242.038	139.77
242.255	147.97
242.472	35.33
242.689	100.86
242.907	39.42
243.124	-3.58
243.341	29.18
243.558	-36.35
243.775	-28.16
243.992	-99.84
244.209	135.68
244.426	176.64
244.643	86.53
244.86	14.85
245.078	131.58
245.295	51.71
245.512	-120.32
245.729	-24.06
245.946	10.75
246.163	14.85
246.38	-22.02
246.597	35.33
246.814	16.9
247.031	33.28
247.248	0.51
247.464	72.19
247.681	39.42
247.898	23.04
248.115	96.77
248.332	2.56
248.549	111.1
248.766	121.34
248.983	92.67
249.2	18.94
249.417	180.73
249.633	2.56
249.85	41.47
250.067	121.34
250.284	33.28
250.501	59.9
250.717	61.95
250.934	-89.6
251.151	53.76
251.368	-9.73
251.585	27.14
251.801	51.71
252.018	-75.26
252.235	107.01
252.451	-26.11
252.668	-56.83
252.885	76.29
253.102	-15.87
253.318	-24.06
253.535	-85.5
253.752	-34.3
253.968	-40.45
254.185	23.04
254.401	43.52
254.618	61.95
254.835	45.57
255.051	129.53
255.268	141.82
255.484	18.94
255.701	37.38
255.917	86.53
256.134	-5.63
256.351	53.76
256.567	-30.21
256.784	107.01
257	-118.27
257.217	27.14
257.433	45.57
257.65	-24.06
257.866	76.29
258.082	-50.69
258.299	-19.97
258.515	59.9
258.732	-28.16
258.948	25.09
259.165	39.42
259.381	-91.65
259.597	-5.63
259.814	-32.26
260.03	55.81
260.246	70.14
260.463	152.06
260.679	113.15
260.895	-19.97
261.112	111.1
261.328	12.8
261.544	-54.78
261.761	160.25
261.977	2.56
262.193	-28.16
262.409	88.57
262.626	33.28
262.842	14.85
263.058	33.28
263.274	80.38
263.49	70.14
263.707	61.95
263.923	8.7
264.139	-13.82
264.355	47.62
264.571	41.47
264.787	98.81
265.004	199.16
265.22	35.33
265.436	35.33
265.652	49.66
265.868	119.29
266.084	-101.89
266.3	-3.58
266.516	-3.58
266.732	8.7
266.948	55.81
267.164	37.38
267.38	51.71
267.596	64
267.812	129.53
268.028	66.05
268.244	-36.35
268.46	61.95
268.676	37.38
268.892	23.04
269.108	-1.54
269.324	59.9
269.54	-13.82
269.756	61.95
269.972	-40.45
270.188	25.09
270.403	8.7
270.619	29.18
270.835	27.14
271.051	109.05
271.267	31.23
271.483	25.09
271.698	84.48
271.914	111.1
272.13	37.38
272.346	35.33
272.562	53.76
272.777	68.09
272.993	-24.06
273.209	78.33
273.425	78.33
273.64	-54.78
273.856	78.33
274.072	6.66
274.287	-32.26
274.503	109.05
274.719	64
274.934	-40.45
275.15	-32.26
275.366	6.66
275.581	2.56
275.797	-9.73
276.012	27.14
276.228	53.76
276.444	68.09
276.659	35.33
276.875	0.51
277.09	47.62
277.306	6.66
277.521	82.43
277.737	27.14
277.952	8.7
278.168	45.57
278.383	94.72
278.599	72.19
278.814	160.25
279.03	43.52
279.245	47.62
279.461	82.43
279.676	123.39
279.892	-52.74
280.107	-5.63
280.322	-54.78
280.538	78.33
280.753	-34.3
280.969	41.47
281.184	41.47
281.399	100.86
281.615	10.75
281.83	47.62
282.045	-87.55
282.26	10.75
282.476	-1.54
282.691	113.15
282.906	74.24
283.122	18.94
283.337	-3.58
283.552	82.43
283.767	-5.63
283.983	119.29
284.198	23.04
284.413	129.53
284.628	-71.17
284.843	72.19
285.058	113.15
285.274	8.7
285.489	-69.12
285.704	127.49
285.919	-40.45
286.134	14.85
286.349	59.9
286.564	45.57
286.779	174.59
286.995	-13.82
287.21	-110.08
287.425	31.23
287.64	41.47
287.855	-1.54
288.07	-101.89
288.285	66.05
288.5	111.1
288.715	74.24
288.93	96.77
289.145	49.66
289.36	10.75
289.575	10.75
289.79	125.44
290.004	-28.16
290.219	107.01
290.434	-24.06
290.649	-7.68
290.864	6.66
291.079	-62.98
291.294	16.9
291.509	137.73
291.724	-24.06
291.938	55.81
292.153	115.2
292.368	14.85
292.583	16.9
292.798	70.14
293.012	109.05
293.227	55.81
293.442	-7.68
293.657	45.57
293.871	137.73
294.086	27.14
294.301	182.78
294.516	111.1
294.73	16.9
294.945	-11.78
295.16	6.66
295.374	68.09
295.589	51.71
295.804	-17.92
296.018	90.62
296.233	80.38
296.447	41.47
296.662	16.9
296.877	129.53
297.091	16.9
297.306	27.14
297.52	2.56
297.735	129.53
297.949	41.47
298.164	35.33
298.378	2.56
298.593	-22.02
298.807	-11.78
299.022	-1.54
299.236	100.86
299.451	-54.78
299.665	-1.54
299.88	68.09
300.094	31.23
300.309	25.09
300.523	33.28
300.737	23.04
300.952	135.68
301.166	102.91
301.381	-52.74
301.595	-1.54
301.809	86.53
302.024	2.56
302.238	-83.45
302.452	35.33
302.667	-13.82
302.881	152.06
303.095	100.86
303.309	37.38
303.524	2.56
303.738	-26.11
303.952	4.61
304.166	37.38
304.381	-138.75
304.595	117.25
304.809	-36.35
305.023	37.38
305.237	41.47
305.452	-48.64
305.666	55.81
305.88	14.85
306.094	96.77
306.308	51.71
306.522	100.86
306.736	76.29
306.95	90.62
307.164	14.85
307.379	45.57
307.593	100.86
307.807	147.97
308.021	31.23
308.235	61.95
308.449	-83.45
308.663	-7.68
308.877	180.73
309.091	-11.78
309.305	121.34
309.519	-146.94
309.733	0.51
309.947	-73.21
310.161	25.09
310.374	84.48
310.588	133.63
310.802	-9.73
311.016	-1.54
311.23	43.52
311.444	-11.78
311.658	18.94
311.872	117.25
312.085	125.44
312.299	55.81
312.513	39.42
312.727	-36.35
312.941	-7.68
313.154	-7.68
313.368	6.66
313.582	25.09
313.796	127.49
314.009	0.51
314.223	139.77
314.437	16.9
314.651	41.47
314.864	-13.82
315.078	20.99
315.292	-95.74
315.505	-13.82
315.719	74.24
315.933	33.28
316.146	-28.16
316.36	-81.41
316.573	100.86
316.787	135.68
317.001	82.43
317.214	-24.06
317.428	37.38
317.641	-34.3
317.855	-40.45
318.068	33.28
318.282	49.66
318.495	207.36
318.709	84.48
318.922	78.33
319.136	139.77
319.349	131.58
319.563	16.9
319.776	74.24
319.99	-17.92
320.203	117.25
320.417	29.18
320.63	74.24
320.843	119.29
321.057	-32.26
321.27	14.85
321.483	-65.02
321.697	98.81
321.91	47.62
322.124	-28.16
322.337	27.14
322.55	-75.26
322.763	41.47
322.977	8.7
323.19	41.47
323.403	74.24
323.617	8.7
323.83	68.09
324.043	25.09
324.256	35.33
324.469	-81.41
324.683	133.63
324.896	33.28
325.109	96.77
325.322	14.85
325.535	84.48
325.748	117.25
325.962	76.29
326.175	72.19
326.388	47.62
326.601	117.25
326.814	35.33
327.027	100.86
327.24	119.29
327.453	-99.84
327.666	6.66
327.879	33.28
328.092	43.52
328.305	100.86
328.518	41.47
328.731	-81.41
328.944	-1.54
329.157	102.91
329.37	-13.82
329.583	174.59
329.796	125.44
330.009	-67.07
330.222	27.14
330.435	102.91
330.648	-19.97
330.861	76.29
331.073	-54.78
331.286	94.72
331.499	64
331.712	8.7
331.925	66.05
332.138	37.38
332.35	90.62
332.563	-24.06
332.776	115.2
332.989	10.75
333.202	-69.12
333.414	51.71
333.627	4.61
333.84	-28.16
334.053	37.38
334.265	20.99
334.478	10.75
334.691	43.52
334.903	12.8
335.116	-75.26
335.329	70.14
335.541	70.14
335.754	96.77
335.966	10.75
336.179	29.18
336.392	14.85
336.604	74.24
336.817	96.77
337.029	37.38
337.242	-32.26
337.454	2.56
337.667	10.75
337.88	131.58
338.092	51.71
338.305	135.68
338.517	10.75
338.729	94.72
338.942	164.35
339.154	-7.68
339.367	-56.83
339.579	-36.35
339.792	-40.45
340.004	59.9
340.217	10.75
340.429	-42.5
340.641	-9.73
340.854	-40.45
341.066	-112.13
341.278	61.95
341.491	119.29
341.703	12.8
341.915	-5.63
342.128	35.33
342.34	-22.02
342.552	-15.87
342.764	64
342.977	-13.82
343.189	41.47
343.401	66.05
343.613	-38.4
343.826	33.28
344.038	25.09
344.25	-9.73
344.462	0.51
344.674	33.28
344.886	29.18
345.099	64
345.311	64
345.523	-1.54
345.735	-89.6
345.947	41.47
346.159	35.33
346.371	23.04
346.583	-46.59
346.795	123.39
347.007	70.14
347.219	8.7
347.431	-32.26
347.643	84.48
347.855	31.23
348.067	70.14
348.279	104.96
348.491	29.18
348.703	74.24
348.915	-40.45
349.127	-65.02
349.339	117.25
349.551	29.18
349.763	43.52
349.975	41.47
350.187	139.77
350.399	205.31
350.61	33.28
350.822	78.33
351.034	31.23
351.246	72.19
351.458	61.95
351.669	8.7
351.881	72.19
352.093	109.05
352.305	47.62
352.517	66.05
352.728	94.72
352.94	49.66
353.152	25.09
353.363	4.61
353.575	61.95
353.787	109.05
353.999	94.72
354.21	152.06
354.422	-30.21
354.633	64
354.845	20.99
355.057	86.53
355.268	61.95
355.48	150.01
355.692	-71.17
355.903	6.66
356.115	-67.07
356.326	-91.65
356.538	84.48
356.749	29.18
356.961	137.73
357.172	-28.16
357.384	-93.69
357.595	182.78
357.807	8.7
358.018	59.9
358.23	-3.58
358.441	141.82
358.653	100.86
358.864	80.38
359.075	-24.06
359.287	96.77
359.498	96.77
359.709	70.14
359.921	119.29
360.132	47.62
360.344	-71.17
360.555	-38.4
360.766	-7.68
360.977	-9.73
361.189	121.34
361.4	27.14
361.611	92.67
361.823	53.76
362.034	23.04
362.245	-65.02
362.456	-56.83
362.667	92.67
362.879	-40.45
363.09	57.86
363.301	39.42
363.512	37.38
363.723	0.51
363.935	37.38
364.146	137.73
364.357	37.38
364.568	104.96
364.779	-30.21
364.99	117.25
365.201	-24.06
365.412	20.99
365.623	-67.07
365.834	84.48
366.045	94.72
366.256	23.04
366.467	82.43
366.678	27.14
366.889	37.38
367.1	-11.78
367.311	94.72
367.522	25.09
367.733	29.18
367.944	117.25
368.155	-9.73
368.366	45.57
368.577	90.62
368.788	82.43
368.999	25.09
369.209	18.94
369.42	166.4
369.631	199.16
369.842	61.95
370.053	-32.26
370.264	51.71
370.474	-71.17
370.685	35.33
370.896	14.85
371.107	43.52
371.317	70.14
371.528	53.76
371.739	107.01
371.95	16.9
372.16	-3.58
372.371	-5.63
372.582	6.66
372.792	39.42
373.003	10.75
373.214	37.38
373.424	98.81
373.635	-48.64
373.846	102.91
374.056	61.95
374.267	74.24
374.477	150.01
374.688	-1.54
374.898	2.56
375.109	45.57
375.319	-28.16
375.53	119.29
375.74	152.06
375.951	0.51
376.161	109.05
376.372	102.91
376.582	-40.45
376.793	53.76
377.003	-50.69
377.214	-3.58
377.424	74.24
377.635	72.19
377.845	-48.64
378.055	107.01
378.266	-77.31
378.476	-17.92
378.686	14.85
378.897	2.56
379.107	41.47
379.317	94.72
379.528	23.04
379.738	51.71
379.948	-40.45
380.158	147.97
380.369	33.28
380.579	90.62
380.789	51.71
380.999	57.86
381.21	68.09
381.42	203.26
381.63	2.56
381.84	39.42
382.05	39.42
382.261	96.77
382.471	102.91
382.681	-93.69
382.891	186.88
383.101	8.7
383.311	0.51
383.521	-40.45
383.731	76.29
383.941	76.29
384.151	84.48
384.361	45.57
384.571	0.51
384.781	70.14
384.991	158.21
385.201	98.81
385.411	53.76
385.621	78.33
385.831	16.9
386.041	94.72
386.251	29.18
386.461	127.49
386.671	45.57
386.881	43.52
387.091	43.52
387.301	100.86
387.511	29.18
387.72	80.38
387.93	172.54
388.14	-110.08
388.35	78.33
388.56	137.73
388.769	80.38
388.979	27.14
389.189	-22.02
389.399	33.28
389.609	94.72
389.818	35.33
390.028	125.44
390.238	102.91
390.447	-75.26
390.657	107.01
390.867	-32.26
391.076	-148.99
391.286	107.01
391.496	51.71
391.705	-19.97
391.915	195.07
392.125	125.44
392.334	72.19
392.544	182.78
392.753	-7.68
392.963	-34.3
393.172	39.42
393.382	-19.97
393.591	166.4
393.801	-1.54
394.01	57.86
394.22	25.09
394.429	-1.54
394.639	33.28
394.848	145.92
395.058	55.81
395.267	43.52
395.477	68.09
395.686	53.76
395.895	184.83
396.105	178.69
396.314	10.75
396.524	33.28
396.733	-38.4
396.942	170.49
397.152	102.91
397.361	121.34
397.57	16.9
397.78	121.34
397.989	33.28
398.198	231.93
398.407	-54.78
398.617	-5.63
398.826	27.14
399.035	16.9
399.244	96.77
399.453	53.76
399.663	76.29
399.872	-5.63
400.081	-13.82
400.29	147.97
400.499	-69.12
400.708	104.96
400.917	43.52
401.127	16.9
401.336	12.8
401.545	180.73
401.754	41.47
401.963	107.01
402.172	27.14
402.381	-28.16
402.59	-15.87
402.799	-28.16
403.008	66.05
403.217	35.33
403.426	78.33
403.635	-87.55
403.844	14.85
404.053	-32.26
404.262	-13.82
404.471	147.97
404.68	-3.58
404.888	-46.59
405.097	12.8
405.306	80.38
405.515	111.1
405.724	49.66
405.933	127.49
406.142	57.86
406.35	135.68
406.559	-32.26
406.768	123.39
406.977	156.16
407.185	109.05
407.394	94.72
407.603	-40.45
407.812	51.71
408.02	201.21
408.229	35.33
408.438	47.62
408.646	-48.64
408.855	18.94
409.064	51.71
409.272	-28.16
409.481	107.01
409.69	49.66
409.898	-15.87
410.107	14.85
410.315	98.81
410.524	-34.3
410.733	-50.69
410.941	29.18
411.15	131.58
411.358	133.63
411.567	123.39
411.775	31.23
411.984	6.66
412.192	57.86
412.401	33.28
412.609	139.77
412.818	147.97
413.026	-38.4
413.234	76.29
413.443	92.67
413.651	-58.88
413.86	-7.68
414.068	176.64
414.276	107.01
414.485	-36.35
414.693	143.87
414.901	147.97
415.11	86.53
415.318	47.62
415.526	43.52
415.734	115.2
415.943	68.09
416.151	100.86
416.359	37.38
416.567	-28.16
416.776	100.86
416.984	39.42
417.192	195.07
417.4	31.23
417.608	-30.21
417.817	-7.68
418.025	82.43
418.233	117.25
418.441	-36.35
418.649	6.66
418.857	80.38
419.065	94.72
419.273	45.57
419.481	29.18
419.689	20.99
419.897	47.62
420.105	-167.42
420.313	76.29
420.521	125.44
420.729	127.49
420.937	-67.07
421.145	-103.93
421.353	107.01
421.561	96.77
421.769	51.71
421.977	-46.59
422.185	86.53
422.393	115.2
422.601	31.23
422.809	61.95
423.017	88.57
423.224	25.09
423.432	51.71
423.64	12.8
423.848	107.01
424.056	-40.45
424.263	100.86
424.471	39.42
424.679	76.29
424.887	-26.11
425.094	125.44
425.302	61.95
425.51	10.75
425.718	90.62
425.925	64
426.133	-36.35
426.341	170.49
426.548	2.56
426.756	53.76
426.964	84.48
427.171	-77.31
427.379	86.53
427.586	6.66
427.794	55.81
428.001	98.81
428.209	59.9
428.417	88.57
428.624	59.9
428.832	-11.78
429.039	37.38
429.247	147.97
429.454	145.92
429.662	197.12
429.869	55.81
430.076	33.28
430.284	104.96
430.491	135.68
430.699	82.43
430.906	123.39
431.114	111.1
431.321	172.54
431.528	31.23
431.736	45.57
431.943	61.95
432.15	176.64
432.358	84.48
432.565	205.31
432.772	29.18
432.979	152.06
433.187	113.15
433.394	121.34
433.601	70.14
433.808	131.58
434.016	174.59
434.223	180.73
434.43	33.28
434.637	231.93
434.844	162.3
435.052	143.87
435.259	135.68
435.466	150.01
435.673	92.67
435.88	154.11
436.087	180.73
436.294	215.55
436.501	240.12
436.708	197.12
436.915	139.77
437.122	236.03
437.329	203.26
437.537	123.39
437.743	217.6
437.95	311.8
438.157	184.83
438.364	176.64
438.571	209.4
438.778	242.17
438.985	190.97
439.192	260.6
439.399	238.08
439.606	264.7
439.813	262.65
440.02	479.74
440.227	481.78
440.433	350.71
440.64	340.47
440.847	328.19
441.054	346.62
441.261	479.74
441.467	338.43
441.674	272.89
441.881	399.87
442.088	365.05
442.294	438.78
442.501	395.77
442.708	627.19
442.914	334.33
443.121	500.22
443.328	524.79
443.534	578.04
443.741	520.7
443.948	346.62
444.154	565.75
444.361	678.39
444.568	584.18
444.774	592.37
444.981	565.75
445.187	782.84
445.394	637.43
445.6	608.76
445.807	799.22
446.013	627.19
446.22	651.77
446.426	807.41
446.633	866.8
446.839	930.29
447.046	801.27
447.252	940.53
447.459	907.76
447.665	954.87
447.871	1049.07
448.078	1145.33
448.284	1124.85
448.491	1133.04
448.697	1180.14
448.903	1219.05
449.11	1276.4
449.316	1200.62
449.522	1352.17
449.728	1470.95
449.935	1450.47
450.141	1415.66
450.347	1516.01
450.553	1522.15
450.76	1573.35
450.966	1663.46
451.172	1731.05
451.378	1843.68
451.584	1804.77
451.791	1982.95
451.997	2021.86
452.203	2001.38
452.409	2157.02
452.615	2218.46
452.821	2085.34
453.027	2013.67
453.233	2517.47
453.44	2466.27
453.646	2527.71
453.852	2683.35
454.058	2496.99
454.264	2810.33
454.47	2978.26
454.676	3015.12
454.882	3350.99
455.088	3142.1
455.294	3273.17
455.5	3527.11
455.705	3676.62
455.911	3760.58
456.117	3746.25
456.323	3946.95
456.529	3946.95
456.735	4360.64
456.941	4454.84
457.147	4579.77
457.352	4602.3
457.558	4698.55
457.764	5036.47
457.97	5210.54
458.176	5491.12
458.381	5671.34
458.587	5935.53
458.793	6134.18
458.999	6107.55
459.204	6830.49
459.41	6971.8
459.616	6875.54
459.821	7444.88
460.027	7807.37
460.233	8065.41
460.438	8176
460.644	8634.75
460.85	8540.54
461.055	8929.66
461.261	9408.88
461.466	9156.98
461.672	9216.37
461.878	10381.67
462.083	10342.75
462.289	10623.33
462.494	11178.33
462.7	11221.33
462.905	11305.3
463.111	12151.11
463.316	12671.29
463.522	13070.65
463.727	13531.44
463.932	13764.91
464.138	14397.73
464.343	14903.58
464.549	14919.96
464.754	15714.58
464.959	16576.77
465.165	16613.63
465.37	16802.05
465.575	16591.11
465.781	17742.07
465.986	18462.95
466.191	18428.13
466.397	18481.38
466.602	18008.3
466.807	19126.49
467.012	19142.88
467.218	19355.86
467.423	19658.96
467.628	20240.59
467.833	21166.27
468.038	21031.1
468.244	20635.85
468.449	21606.58
468.654	21149.89
468.859	21047.49
469.064	21416.12
469.269	20732.1
