Data from USB4F104151__38__09-27-26-009.txt Node

Date: Wed Feb 26 09:27:26 EST 2025
User: louis
Spectrometer: USB4F10415
Trigger mode: 4
Integration Time (sec): 1.000000E-1
Scans to average: 1
Electric dark correction enabled: true
Nonlinearity correction enabled: false
Boxcar width: 0
XAxis mode: Wavelengths
Number of Pixels in Spectrum: 3648
>>>>>Begin Spectral Data<<<<<
178.204	-395.26
178.424	-395.26
178.644	-395.26
178.864	-370.68
179.084	-397.31
179.304	12.29
179.524	-16.38
179.744	51.2
179.964	-12.29
180.184	28.67
180.404	8.19
180.624	-32.77
180.844	40.96
181.064	-79.87
181.283	57.34
181.503	-49.15
181.723	-8.19
181.943	-12.29
182.163	174.08
182.383	-24.58
182.602	73.73
182.822	96.25
183.042	53.25
183.262	92.16
183.482	40.96
183.701	43.01
183.921	108.54
184.141	30.72
184.361	51.2
184.58	36.86
184.8	65.54
185.02	8.19
185.239	81.92
185.459	34.82
185.679	102.4
185.898	-40.96
186.118	59.39
186.338	122.88
186.557	75.77
186.777	-24.58
186.997	-67.58
187.216	69.63
187.436	86.01
187.655	4.1
187.875	24.58
188.095	32.77
188.314	159.74
188.534	88.06
188.753	-22.53
188.973	69.63
189.192	200.7
189.412	38.91
189.631	53.25
189.851	122.88
190.07	147.45
190.29	-92.16
190.509	-40.96
190.729	73.73
190.948	98.3
191.168	249.85
191.387	45.06
191.607	22.53
191.826	18.43
192.045	71.68
192.265	61.44
192.484	30.72
192.704	86.01
192.923	-131.07
193.142	129.02
193.362	98.3
193.581	116.73
193.8	-12.29
194.02	57.34
194.239	63.49
194.458	98.3
194.678	26.62
194.897	88.06
195.116	90.11
195.335	69.63
195.555	96.25
195.774	-4.1
195.993	182.27
196.212	57.34
196.432	-16.38
196.651	26.62
196.87	28.67
197.089	202.75
197.308	81.92
197.528	63.49
197.747	-16.38
197.966	81.92
198.185	174.08
198.404	30.72
198.623	122.88
198.842	137.21
199.062	63.49
199.281	36.86
199.5	59.39
199.719	49.15
199.938	57.34
200.157	106.49
200.376	118.78
200.595	69.63
200.814	59.39
201.033	-10.24
201.252	73.73
201.471	73.73
201.69	100.35
201.909	88.06
202.128	172.03
202.347	98.3
202.566	14.34
202.785	-65.53
203.004	-24.58
203.223	180.22
203.442	20.48
203.661	-40.96
203.879	86.01
204.098	133.12
204.317	-12.29
204.536	59.39
204.755	79.87
204.974	165.89
205.193	-2.05
205.411	176.13
205.63	53.25
205.849	61.44
206.068	10.24
206.287	2.05
206.505	73.73
206.724	12.29
206.943	34.82
207.162	36.86
207.381	53.25
207.599	-4.1
207.818	2.05
208.037	-45.06
208.255	2.05
208.474	96.25
208.693	-12.29
208.911	61.44
209.13	118.78
209.349	65.54
209.567	22.53
209.786	53.25
210.005	63.49
210.223	-8.19
210.442	-118.78
210.661	-2.05
210.879	90.11
211.098	-28.67
211.316	88.06
211.535	61.44
211.753	75.77
211.972	-10.24
212.191	-32.77
212.409	8.19
212.628	-2.05
212.846	4.1
213.065	120.83
213.283	90.11
213.502	-18.43
213.72	69.63
213.938	28.67
214.157	20.48
214.375	114.69
214.594	-30.72
214.812	57.34
215.031	14.34
215.249	24.58
215.467	65.54
215.686	12.29
215.904	120.83
216.122	-12.29
216.341	75.77
216.559	57.34
216.778	53.25
216.996	73.73
217.214	40.96
217.432	-26.62
217.651	20.48
217.869	112.64
218.087	51.2
218.306	69.63
218.524	36.86
218.742	26.62
218.96	20.48
219.179	6.14
219.397	40.96
219.615	303.1
219.833	210.94
220.051	69.63
220.27	114.69
220.488	133.12
220.706	92.16
220.924	57.34
221.142	24.58
221.36	8.19
221.578	57.34
221.796	-4.1
222.015	71.68
222.233	30.72
222.451	141.31
222.669	-63.49
222.887	61.44
223.105	0
223.323	40.96
223.541	-47.1
223.759	53.25
223.977	49.15
224.195	149.5
224.413	0
224.631	14.34
224.849	36.86
225.067	169.98
225.285	-36.86
225.503	49.15
225.721	-133.12
225.939	57.34
226.157	-20.48
226.375	196.61
226.592	36.86
226.81	34.82
227.028	112.64
227.246	161.79
227.464	116.73
227.682	81.92
227.9	38.91
228.117	81.92
228.335	34.82
228.553	16.38
228.771	75.77
228.989	51.2
229.206	61.44
229.424	49.15
229.642	-4.1
229.86	-10.24
230.077	71.68
230.295	30.72
230.513	118.78
230.731	45.06
230.948	167.93
231.166	178.17
231.384	47.1
231.601	-24.58
231.819	159.74
232.037	-6.14
232.254	12.29
232.472	106.49
232.689	-8.19
232.907	69.63
233.125	8.19
233.342	20.48
233.56	-16.38
233.777	61.44
233.995	65.54
234.213	40.96
234.43	65.54
234.648	92.16
234.865	-38.91
235.083	45.06
235.3	14.34
235.518	131.07
235.735	57.34
235.953	32.77
236.17	69.63
236.388	24.58
236.605	49.15
236.822	40.96
237.04	67.58
237.257	51.2
237.475	-2.05
237.692	-12.29
237.909	16.38
238.127	24.58
238.344	178.17
238.562	65.54
238.779	-94.21
238.996	-51.2
239.214	141.31
239.431	116.73
239.648	98.3
239.865	49.15
240.083	75.77
240.3	0
240.517	0
240.735	-28.67
240.952	92.16
241.169	51.2
241.386	69.63
241.603	8.19
241.821	61.44
242.038	92.16
242.255	86.01
242.472	32.77
242.689	47.1
242.907	98.3
243.124	-6.14
243.341	83.97
243.558	24.58
243.775	34.82
243.992	-2.05
244.209	28.67
244.426	114.69
244.643	92.16
244.86	26.62
245.078	90.11
245.295	30.72
245.512	16.38
245.729	-43.01
245.946	143.36
246.163	94.21
246.38	-12.29
246.597	-4.1
246.814	61.44
247.031	0
247.248	51.2
247.464	106.49
247.681	20.48
247.898	36.86
248.115	53.25
248.332	-2.05
248.549	114.69
248.766	161.79
248.983	-20.48
249.2	98.3
249.417	118.78
249.633	69.63
249.85	86.01
250.067	49.15
250.284	43.01
250.501	67.58
250.717	81.92
250.934	-75.77
251.151	16.38
251.368	12.29
251.585	6.14
251.801	47.1
252.018	12.29
252.235	49.15
252.451	-36.86
252.668	65.54
252.885	153.6
253.102	71.68
253.318	-32.77
253.535	-51.2
253.752	-10.24
253.968	0
254.185	-83.97
254.401	65.54
254.618	153.6
254.835	16.38
255.051	102.4
255.268	79.87
255.484	28.67
255.701	-2.05
255.917	36.86
256.134	-49.15
256.351	-8.19
256.567	-8.19
256.784	10.24
257	-34.82
257.217	51.2
257.433	53.25
257.65	53.25
257.866	20.48
258.082	-8.19
258.299	-32.77
258.515	40.96
258.732	26.62
258.948	12.29
259.165	81.92
259.381	59.39
259.597	36.86
259.814	0
260.03	16.38
260.246	0
260.463	36.86
260.679	155.65
260.895	143.36
261.112	45.06
261.328	-8.19
261.544	2.05
261.761	137.21
261.977	24.58
262.193	0
262.409	92.16
262.626	22.53
262.842	53.25
263.058	26.62
263.274	81.92
263.49	106.49
263.707	104.45
263.923	-14.34
264.139	-51.2
264.355	92.16
264.571	92.16
264.787	86.01
265.004	104.45
265.22	22.53
265.436	-8.19
265.652	14.34
265.868	120.83
266.084	-34.82
266.3	122.88
266.516	-73.73
266.732	83.97
266.948	-12.29
267.164	14.34
267.38	73.73
267.596	67.58
267.812	253.95
268.028	65.54
268.244	47.1
268.46	55.3
268.676	57.34
268.892	118.78
269.108	96.25
269.324	-61.44
269.54	2.05
269.756	47.1
269.972	-104.45
270.188	49.15
270.403	-73.73
270.619	14.34
270.835	106.49
271.051	45.06
271.267	45.06
271.483	43.01
271.698	61.44
271.914	-4.1
272.13	100.35
272.346	38.91
272.562	59.39
272.777	155.65
272.993	69.63
273.209	26.62
273.425	63.49
273.64	-40.96
273.856	81.92
274.072	26.62
274.287	2.05
274.503	83.97
274.719	81.92
274.934	6.14
275.15	-30.72
275.366	-45.06
275.581	-40.96
275.797	26.62
276.012	40.96
276.228	8.19
276.444	-47.1
276.659	81.92
276.875	0
277.09	98.3
277.306	-8.19
277.521	61.44
277.737	49.15
277.952	79.87
278.168	67.58
278.383	98.3
278.599	-4.1
278.814	90.11
279.03	8.19
279.245	159.74
279.461	-4.1
279.676	55.3
279.892	-45.06
280.107	6.14
280.322	0
280.538	83.97
280.753	8.19
280.969	28.67
281.184	32.77
281.399	69.63
281.615	131.07
281.83	34.82
282.045	-77.82
282.26	-65.53
282.476	61.44
282.691	53.25
282.906	49.15
283.122	-4.1
283.337	-28.67
283.552	63.49
283.767	34.82
283.983	94.21
284.198	22.53
284.413	133.12
284.628	-45.06
284.843	57.34
285.058	88.06
285.274	0
285.489	30.72
285.704	92.16
285.919	36.86
286.134	-69.63
286.349	6.14
286.564	-30.72
286.779	110.59
286.995	114.69
287.21	4.1
287.425	86.01
287.64	34.82
287.855	86.01
288.07	-28.67
288.285	112.64
288.5	73.73
288.715	102.4
288.93	-4.1
289.145	-10.24
289.36	81.92
289.575	24.58
289.79	69.63
290.004	-30.72
290.219	67.58
290.434	-4.1
290.649	36.86
290.864	0
291.079	30.72
291.294	61.44
291.509	6.14
291.724	100.35
291.938	38.91
292.153	10.24
292.368	61.44
292.583	51.2
292.798	69.63
293.012	77.82
293.227	20.48
293.442	34.82
293.657	129.02
293.871	38.91
294.086	40.96
294.301	178.17
294.516	114.69
294.73	28.67
294.945	-73.73
295.16	12.29
295.374	65.54
295.589	67.58
295.804	45.06
296.018	53.25
296.233	106.49
296.447	47.1
296.662	-61.44
296.877	47.1
297.091	110.59
297.306	81.92
297.52	24.58
297.735	114.69
297.949	40.96
298.164	73.73
298.378	40.96
298.593	20.48
298.807	-34.82
299.022	32.77
299.236	159.74
299.451	16.38
299.665	55.3
299.88	65.54
300.094	57.34
300.309	-32.77
300.523	38.91
300.737	36.86
300.952	-30.72
301.166	4.1
301.381	-24.58
301.595	-14.34
301.809	67.58
302.024	63.49
302.238	-18.43
302.452	98.3
302.667	26.62
302.881	159.74
303.095	122.88
303.309	94.21
303.524	12.29
303.738	26.62
303.952	28.67
304.166	165.89
304.381	-57.34
304.595	120.83
304.809	26.62
305.023	86.01
305.237	-2.05
305.452	-16.38
305.666	20.48
305.88	100.35
306.094	143.36
306.308	65.54
306.522	151.55
306.736	51.2
306.95	12.29
307.164	-8.19
307.379	6.14
307.593	108.54
307.807	133.12
308.021	184.32
308.235	83.97
308.449	-104.45
308.663	24.58
308.877	194.56
309.091	57.34
309.305	126.97
309.519	-110.59
309.733	102.4
309.947	4.1
310.161	18.43
310.374	43.01
310.588	182.27
310.802	-32.77
311.016	-20.48
311.23	0
311.444	-4.1
311.658	88.06
311.872	135.17
312.085	155.65
312.299	90.11
312.513	106.49
312.727	10.24
312.941	-47.1
313.154	53.25
313.368	-10.24
313.582	59.39
313.796	120.83
314.009	55.3
314.223	106.49
314.437	57.34
314.651	98.3
314.864	36.86
315.078	16.38
315.292	-69.63
315.505	16.38
315.719	81.92
315.933	65.54
316.146	-16.38
316.36	-30.72
316.573	153.6
316.787	73.73
317.001	114.69
317.214	-32.77
317.428	20.48
317.641	-8.19
317.855	4.1
318.068	-102.4
318.282	77.82
318.495	143.36
318.709	131.07
318.922	69.63
319.136	141.31
319.349	133.12
319.563	-12.29
319.776	65.54
319.99	-57.34
320.203	90.11
320.417	6.14
320.63	-10.24
320.843	90.11
321.057	45.06
321.27	-24.58
321.483	77.82
321.697	139.26
321.91	69.63
322.124	55.3
322.337	53.25
322.55	-26.62
322.763	73.73
322.977	16.38
323.19	38.91
323.403	-20.48
323.617	8.19
323.83	26.62
324.043	59.39
324.256	75.77
324.469	12.29
324.683	65.54
324.896	-24.58
325.109	14.34
325.322	65.54
325.535	104.45
325.748	49.15
325.962	38.91
326.175	98.3
326.388	57.34
326.601	110.59
326.814	32.77
327.027	22.53
327.24	122.88
327.453	-34.82
327.666	53.25
327.879	81.92
328.092	124.93
328.305	81.92
328.518	-43.01
328.731	-40.96
328.944	61.44
329.157	73.73
329.37	0
329.583	131.07
329.796	104.45
330.009	-12.29
330.222	88.06
330.435	110.59
330.648	47.1
330.861	0
331.073	51.2
331.286	61.44
331.499	69.63
331.712	-75.77
331.925	65.54
332.138	32.77
332.35	94.21
332.563	-53.25
332.776	88.06
332.989	40.96
333.202	-43.01
333.414	40.96
333.627	53.25
333.84	12.29
334.053	24.58
334.265	16.38
334.478	-8.19
334.691	8.19
334.903	169.98
335.116	24.58
335.329	53.25
335.541	65.54
335.754	176.13
335.966	-4.1
336.179	-16.38
336.392	-12.29
336.604	69.63
336.817	24.58
337.029	18.43
337.242	45.06
337.454	8.19
337.667	47.1
337.88	83.97
338.092	30.72
338.305	61.44
338.517	-40.96
338.729	83.97
338.942	92.16
339.154	0
339.367	-49.15
339.579	98.3
339.792	-32.77
340.004	98.3
340.217	43.01
340.429	8.19
340.641	0
340.854	4.1
341.066	6.14
341.278	102.4
341.491	159.74
341.703	32.77
341.915	2.05
342.128	63.49
342.34	98.3
342.552	-55.3
342.764	65.54
342.977	-4.1
343.189	83.97
343.401	81.92
343.613	-28.67
343.826	63.49
344.038	-61.44
344.25	69.63
344.462	6.14
344.674	20.48
344.886	-32.77
345.099	81.92
345.311	34.82
345.523	-77.82
345.735	-18.43
345.947	40.96
346.159	53.25
346.371	-83.97
346.583	4.1
346.795	161.79
347.007	-6.14
347.219	147.45
347.431	28.67
347.643	110.59
347.855	-10.24
348.067	159.74
348.279	10.24
348.491	61.44
348.703	16.38
348.915	73.73
349.127	0
349.339	40.96
349.551	-36.86
349.763	47.1
349.975	53.25
350.187	43.01
350.399	79.87
350.61	45.06
350.822	55.3
351.034	73.73
351.246	92.16
351.458	30.72
351.669	36.86
351.881	176.13
352.093	90.11
352.305	75.77
352.517	63.49
352.728	96.25
352.94	81.92
353.152	96.25
353.363	-26.62
353.575	79.87
353.787	210.94
353.999	8.19
354.21	198.65
354.422	16.38
354.633	10.24
354.845	36.86
355.057	40.96
355.268	-10.24
355.48	73.73
355.692	-4.1
355.903	-20.48
356.115	47.1
356.326	-38.91
356.538	122.88
356.749	79.87
356.961	159.74
357.172	65.54
357.384	-40.96
357.595	208.89
357.807	24.58
358.018	81.92
358.23	61.44
358.441	116.73
358.653	53.25
358.864	57.34
359.075	-34.82
359.287	73.73
359.498	83.97
359.709	153.6
359.921	55.3
360.132	92.16
360.344	4.1
360.555	-8.19
360.766	90.11
360.977	-20.48
361.189	141.31
361.4	83.97
361.611	57.34
361.823	110.59
362.034	24.58
362.245	16.38
362.456	71.68
362.667	28.67
362.879	-20.48
363.09	49.15
363.301	104.45
363.512	94.21
363.723	-6.14
363.935	53.25
364.146	94.21
364.357	-55.3
364.568	-24.58
364.779	-55.3
364.99	131.07
365.201	-16.38
365.412	141.31
365.623	-22.53
365.834	40.96
366.045	-49.15
366.256	81.92
366.467	120.83
366.678	-20.48
366.889	71.68
367.1	2.05
367.311	30.72
367.522	4.1
367.733	38.91
367.944	28.67
368.155	43.01
368.366	133.12
368.577	67.58
368.788	172.03
368.999	32.77
369.209	40.96
369.42	243.71
369.631	159.74
369.842	49.15
370.053	71.68
370.264	83.97
370.474	12.29
370.685	63.49
370.896	61.44
371.107	71.68
371.317	14.34
371.528	-2.05
371.739	133.12
371.95	98.3
372.16	47.1
372.371	-18.43
372.582	24.58
372.792	120.83
373.003	40.96
373.214	47.1
373.424	49.15
373.635	-69.63
373.846	155.65
374.056	0
374.267	71.68
374.477	32.77
374.688	-14.34
374.898	86.01
375.109	10.24
375.319	92.16
375.53	145.41
375.74	153.6
375.951	26.62
376.161	73.73
376.372	186.37
376.582	-24.58
376.793	10.24
377.003	28.67
377.214	53.25
377.424	65.54
377.635	10.24
377.845	-6.14
378.055	90.11
378.266	22.53
378.476	43.01
378.686	49.15
378.897	118.78
379.107	96.25
379.317	67.58
379.528	36.86
379.738	73.73
379.948	51.2
380.158	112.64
380.369	8.19
380.579	96.25
380.789	147.45
380.999	151.55
381.21	124.93
381.42	81.92
381.63	-40.96
381.84	161.79
382.05	102.4
382.261	208.89
382.471	114.69
382.681	-28.67
382.891	151.55
383.101	18.43
383.311	-28.67
383.521	-38.91
383.731	98.3
383.941	83.97
384.151	28.67
384.361	-53.25
384.571	49.15
384.781	43.01
384.991	190.46
385.201	133.12
385.411	22.53
385.621	24.58
385.831	61.44
386.041	-6.14
386.251	79.87
386.461	81.92
386.671	81.92
386.881	16.38
387.091	18.43
387.301	129.02
387.511	114.69
387.72	83.97
387.93	126.97
388.14	-90.11
388.35	81.92
388.56	161.79
388.769	32.77
388.979	24.58
389.189	16.38
389.399	114.69
389.609	34.82
389.818	129.02
390.028	96.25
390.238	49.15
390.447	-4.1
390.657	55.3
390.867	-43.01
391.076	-92.16
391.286	16.38
391.496	26.62
391.705	38.91
391.915	98.3
392.125	59.39
392.334	-34.82
392.544	145.41
392.753	96.25
392.963	-34.82
393.172	-10.24
393.382	-8.19
393.591	98.3
393.801	0
394.01	172.03
394.22	131.07
394.429	53.25
394.639	-2.05
394.848	71.68
395.058	-10.24
395.267	57.34
395.477	83.97
395.686	-4.1
395.895	196.61
396.105	147.45
396.314	0
396.524	53.25
396.733	30.72
396.942	131.07
397.152	90.11
397.361	86.01
397.57	116.73
397.78	-8.19
397.989	118.78
398.198	137.21
398.407	51.2
398.617	40.96
398.826	53.25
399.035	10.24
399.244	159.74
399.453	106.49
399.663	81.92
399.872	45.06
400.081	40.96
400.29	114.69
400.499	16.38
400.708	83.97
400.917	88.06
401.127	53.25
401.336	4.1
401.545	200.7
401.754	135.17
401.963	36.86
402.172	53.25
402.381	40.96
402.59	-28.67
402.799	26.62
403.008	75.77
403.217	73.73
403.426	65.54
403.635	0
403.844	86.01
404.053	24.58
404.262	24.58
404.471	135.17
404.68	53.25
404.888	16.38
405.097	43.01
405.306	73.73
405.515	145.41
405.724	-28.67
405.933	104.45
406.142	157.69
406.35	81.92
406.559	96.25
406.768	16.38
406.977	139.26
407.185	53.25
407.394	47.1
407.603	-16.38
407.812	147.45
408.02	151.55
408.229	10.24
408.438	22.53
408.646	-63.49
408.855	24.58
409.064	47.1
409.272	22.53
409.481	24.58
409.69	-34.82
409.898	-55.3
410.107	4.1
410.315	67.58
410.524	77.82
410.733	12.29
410.941	94.21
411.15	53.25
411.358	71.68
411.567	196.61
411.775	49.15
411.984	110.59
412.192	75.77
412.401	40.96
412.609	174.08
412.818	57.34
413.026	131.07
413.234	51.2
413.443	88.06
413.651	12.29
413.86	75.77
414.068	106.49
414.276	151.55
414.485	47.1
414.693	155.65
414.901	176.13
415.11	49.15
415.318	22.53
415.526	94.21
415.734	159.74
415.943	81.92
416.151	118.78
416.359	81.92
416.567	98.3
416.776	18.43
416.984	86.01
417.192	145.41
417.4	0
417.608	40.96
417.817	-24.58
418.025	131.07
418.233	172.03
418.441	-8.19
418.649	8.19
418.857	40.96
419.065	200.7
419.273	-26.62
419.481	79.87
419.689	22.53
419.897	110.59
420.105	-40.96
420.313	51.2
420.521	172.03
420.729	61.44
420.937	49.15
421.145	38.91
421.353	79.87
421.561	112.64
421.769	40.96
421.977	28.67
422.185	176.13
422.393	-12.29
422.601	83.97
422.809	67.58
423.017	81.92
423.224	63.49
423.432	143.36
423.64	-16.38
423.848	135.17
424.056	-51.2
424.263	153.6
424.471	28.67
424.679	161.79
424.887	-4.1
425.094	231.42
425.302	114.69
425.51	53.25
425.718	102.4
425.925	100.35
426.133	28.67
426.341	167.93
426.548	40.96
426.756	14.34
426.964	92.16
427.171	34.82
427.379	63.49
427.586	77.82
427.794	90.11
428.001	141.31
428.209	104.45
428.417	120.83
428.624	137.21
428.832	108.54
429.039	69.63
429.247	96.25
429.454	102.4
429.662	204.8
429.869	49.15
430.076	114.69
430.284	163.84
430.491	206.84
430.699	200.7
430.906	176.13
431.114	186.37
431.321	141.31
431.528	108.54
431.736	143.36
431.943	167.93
432.15	100.35
432.358	172.03
432.565	221.18
432.772	32.77
432.979	151.55
433.187	63.49
433.394	155.65
433.601	135.17
433.808	190.46
434.016	239.61
434.223	147.45
434.43	147.45
434.637	188.41
434.844	264.19
435.052	274.43
435.259	167.93
435.466	225.28
435.673	219.13
435.88	198.65
436.087	235.52
436.294	256
436.501	241.66
436.708	292.86
436.915	237.56
437.122	282.62
437.329	165.89
437.537	303.1
437.743	305.15
437.95	342.01
438.157	276.48
438.364	235.52
438.571	350.2
438.778	280.57
438.985	344.06
439.192	434.17
439.399	284.67
439.606	370.68
439.813	425.98
440.02	528.38
440.227	538.62
440.433	366.59
440.64	479.22
440.847	333.82
441.054	507.9
441.261	507.9
441.467	534.52
441.674	495.61
441.881	577.53
442.088	542.71
442.294	540.66
442.501	612.34
442.708	651.25
442.914	581.62
443.121	638.97
443.328	628.73
443.534	819.19
443.741	649.21
443.948	636.92
444.154	724.98
444.361	827.38
444.568	804.85
444.774	767.99
444.981	827.38
445.187	989.17
445.394	903.15
445.6	933.87
445.807	960.5
446.013	1007.6
446.22	1060.85
446.426	1077.23
446.633	1265.64
446.839	1400.81
447.046	1124.33
447.252	1325.04
447.459	1249.26
447.665	1232.88
447.871	1419.24
448.078	1488.87
448.284	1474.54
448.491	1556.46
448.697	1546.22
448.903	1759.21
449.11	1775.59
449.316	1763.3
449.522	1810.4
449.728	1886.18
449.935	1939.43
450.141	2011.11
450.347	2109.41
450.553	2084.83
450.76	2045.92
450.966	2228.19
451.172	2207.71
451.378	2422.75
451.584	2443.23
451.791	2682.84
451.997	2605.02
452.203	2750.42
452.409	2942.93
452.615	3139.54
452.821	2981.84
453.027	2951.12
453.233	3497.93
453.44	3315.66
453.646	3338.19
453.852	3481.55
454.058	3758.02
454.264	3868.61
454.47	4175.81
454.676	4042.69
454.882	4401.08
455.088	4286.4
455.294	4505.53
455.5	4790.2
455.705	4980.66
455.911	5050.29
456.117	5207.98
456.323	5568.43
456.529	5316.53
456.735	5912.49
456.941	5910.44
457.147	6270.88
457.352	6422.43
457.558	6461.34
457.764	7030.68
457.97	7139.22
458.176	7389.07
458.381	7876.49
458.587	7970.69
458.793	8421.25
458.999	8355.71
459.204	9346.93
459.41	9858.92
459.616	9570.16
459.821	10053.48
460.027	10790.75
460.233	10927.96
460.438	11151.19
460.644	11616.08
460.85	11788.11
461.055	12324.68
461.261	13033.27
461.466	12646.21
461.672	12742.46
461.878	14249.77
462.083	14245.67
462.289	14509.86
462.494	15271.7
462.7	15216.41
462.905	15681.3
463.111	16826.11
463.316	17559.28
463.522	17852.14
463.727	18321.13
463.932	19400.41
464.138	19603.16
464.343	20375.24
464.549	20594.37
464.754	22163.12
464.959	22666.92
465.165	23047.84
465.37	23027.36
465.575	22859.43
465.781	24546.95
465.986	25245.31
466.191	24772.23
466.397	25052.8
466.602	24684.17
466.807	25853.56
467.012	26439.28
467.218	26861.16
467.423	27084.39
467.628	27553.37
467.833	29175.36
468.038	28636.75
468.244	27975.25
468.449	29279.81
468.654	28927.56
468.859	29019.72
469.064	28855.88
469.269	28268.11
469.474	28599.88
469.679	29482.56
469.885	28722.76
470.09	28669.51
470.295	29077.06
470.5	28231.25
470.705	28681.8
470.91	28102.23
