Data from USB4F104151__101__10-35-41-027.txt Node

Date: Wed Feb 26 10:35:41 EST 2025
User: louis
Spectrometer: USB4F10415
Trigger mode: 4
Integration Time (sec): 1.000000E-1
Scans to average: 1
Electric dark correction enabled: true
Nonlinearity correction enabled: false
Boxcar width: 0
XAxis mode: Wavelengths
Number of Pixels in Spectrum: 3648
>>>>>Begin Spectral Data<<<<<
178.204	-369.49
178.424	-369.49
178.644	-369.49
178.864	-410.45
179.084	-363.34
179.304	25.77
179.524	-78.68
179.744	23.72
179.964	58.54
180.184	1.19
180.404	40.11
180.624	38.06
180.844	-37.72
181.064	-119.64
181.283	27.82
181.503	-23.38
181.723	44.2
181.943	-105.3
182.163	154.79
182.383	-31.57
182.602	27.82
182.822	85.16
183.042	56.49
183.262	-4.95
183.482	31.91
183.701	21.67
183.921	36.01
184.141	-25.43
184.361	23.72
184.58	40.11
184.8	60.59
185.02	-29.52
185.239	48.3
185.459	60.59
185.679	33.96
185.898	-150.36
186.118	21.67
186.338	33.96
186.557	130.22
186.777	-21.33
186.997	-9.05
187.216	99.5
187.436	199.85
187.655	1.19
187.875	40.11
188.095	117.93
188.314	122.02
188.534	150.7
188.753	-52.05
188.973	-13.14
189.192	113.83
189.412	87.21
189.631	60.59
189.851	74.92
190.07	152.74
190.29	-17.24
190.509	-9.05
190.729	-37.72
190.948	160.94
191.168	285.86
191.387	89.26
191.607	-17.24
191.826	27.82
192.045	3.24
192.265	-58.2
192.484	97.45
192.704	15.53
192.923	-17.24
193.142	103.59
193.362	66.73
193.581	117.93
193.8	62.63
194.02	107.69
194.239	9.39
194.458	79.02
194.678	52.39
194.897	7.34
195.116	107.69
195.335	68.78
195.555	119.98
195.774	-68.44
195.993	99.5
196.212	109.74
196.432	-95.06
196.651	-0.85
196.87	5.29
197.089	302.25
197.308	89.26
197.528	50.35
197.747	-111.44
197.966	-25.43
198.185	117.93
198.404	-43.86
198.623	165.03
198.842	107.69
199.062	148.65
199.281	111.78
199.5	5.29
199.719	162.98
199.938	91.31
200.157	89.26
200.376	79.02
200.595	109.74
200.814	79.02
201.033	-21.33
201.252	195.75
201.471	81.07
201.69	62.63
201.909	72.87
202.128	-0.85
202.347	128.17
202.566	13.48
202.785	44.2
203.004	-72.53
203.223	261.29
203.442	58.54
203.661	-27.48
203.879	42.15
204.098	158.89
204.317	-68.44
204.536	44.2
204.755	83.11
204.974	72.87
205.193	-19.29
205.411	175.27
205.63	66.73
205.849	27.82
206.068	-33.62
206.287	-80.72
206.505	105.64
206.724	58.54
206.943	-37.72
207.162	105.64
207.381	146.6
207.599	29.87
207.818	105.64
208.037	-56.15
208.255	91.31
208.474	33.96
208.693	46.25
208.911	-4.95
209.13	66.73
209.349	115.88
209.567	54.44
209.786	38.06
210.005	128.17
210.223	1.19
210.442	-107.35
210.661	17.58
210.879	54.44
211.098	-25.43
211.316	15.53
211.535	46.25
211.753	60.59
211.972	-7
212.191	17.58
212.409	42.15
212.628	-15.19
212.846	31.91
213.065	79.02
213.283	115.88
213.502	79.02
213.72	9.39
213.938	72.87
214.157	31.91
214.375	162.98
214.594	-21.33
214.812	60.59
215.031	-2.9
215.249	60.59
215.467	85.16
215.686	87.21
215.904	74.92
216.122	-31.57
216.341	162.98
216.559	107.69
216.778	111.78
216.996	107.69
217.214	48.3
217.432	-2.9
217.651	-35.67
217.869	74.92
218.087	23.72
218.306	-74.58
218.524	72.87
218.742	-19.29
218.96	56.49
219.179	-72.53
219.397	-27.48
219.615	201.9
219.833	140.46
220.051	-23.38
220.27	56.49
220.488	156.84
220.706	128.17
220.924	-21.33
221.142	-35.67
221.36	64.68
221.578	29.87
221.796	-47.96
222.015	-0.85
222.233	42.15
222.451	171.18
222.669	81.07
222.887	58.54
223.105	-68.44
223.323	15.53
223.541	-21.33
223.759	-29.52
223.977	93.35
224.195	93.35
224.413	156.84
224.631	117.93
224.849	23.72
225.067	244.9
225.285	11.43
225.503	-60.24
225.721	-105.3
225.939	38.06
226.157	52.39
226.375	255.14
226.592	-31.57
226.81	15.53
227.028	97.45
227.246	220.33
227.464	29.87
227.682	91.31
227.9	103.59
228.117	50.35
228.335	60.59
228.553	50.35
228.771	-52.05
228.989	40.11
229.206	107.69
229.424	9.39
229.642	13.48
229.86	21.67
230.077	130.22
230.295	33.96
230.513	111.78
230.731	52.39
230.948	228.52
231.166	128.17
231.384	64.68
231.601	-33.62
231.819	107.69
232.037	-103.25
232.254	-88.92
232.472	15.53
232.689	-31.57
232.907	148.65
233.125	-39.76
233.342	17.58
233.56	-29.52
233.777	-58.2
233.995	33.96
234.213	130.22
234.43	122.02
234.648	62.63
234.865	-52.05
235.083	146.6
235.3	23.72
235.518	68.78
235.735	132.26
235.953	52.39
236.17	48.3
236.388	46.25
236.605	38.06
236.822	38.06
237.04	134.31
237.257	33.96
237.475	-50
237.692	33.96
237.909	52.39
238.127	-21.33
238.344	42.15
238.562	29.87
238.779	-2.9
238.996	-52.05
239.214	91.31
239.431	72.87
239.648	54.44
239.865	85.16
240.083	146.6
240.3	46.25
240.517	-50
240.735	-21.33
240.952	111.78
241.169	111.78
241.386	81.07
241.603	33.96
241.821	-43.86
242.038	132.26
242.255	25.77
242.472	-80.72
242.689	46.25
242.907	83.11
243.124	29.87
243.341	46.25
243.558	19.63
243.775	-13.14
243.992	-88.92
244.209	81.07
244.426	185.51
244.643	7.34
244.86	11.43
245.078	99.5
245.295	21.67
245.512	-27.48
245.729	-17.24
245.946	9.39
246.163	27.82
246.38	21.67
246.597	76.97
246.814	33.96
247.031	56.49
247.248	-13.14
247.464	40.11
247.681	42.15
247.898	109.74
248.115	58.54
248.332	27.82
248.549	107.69
248.766	158.89
248.983	111.78
249.2	109.74
249.417	148.65
249.633	-13.14
249.85	52.39
250.067	21.67
250.284	103.59
250.501	19.63
250.717	103.59
250.934	5.29
251.151	74.92
251.368	-60.24
251.585	5.29
251.801	60.59
252.018	-103.25
252.235	93.35
252.451	-64.34
252.668	79.02
252.885	113.83
253.102	5.29
253.318	23.72
253.535	-23.38
253.752	52.39
253.968	3.24
254.185	-86.87
254.401	-2.9
254.618	72.87
254.835	19.63
255.051	173.22
255.268	31.91
255.484	44.2
255.701	-35.67
255.917	66.73
256.134	48.3
256.351	60.59
256.567	17.58
256.784	72.87
257	-19.29
257.217	134.31
257.433	54.44
257.65	-29.52
257.866	97.45
258.082	-43.86
258.299	-33.62
258.515	29.87
258.732	27.82
258.948	-9.05
259.165	5.29
259.381	-13.14
259.597	33.96
259.814	1.19
260.03	25.77
260.246	93.35
260.463	74.92
260.679	162.98
260.895	-21.33
261.112	3.24
261.328	52.39
261.544	-64.34
261.761	128.17
261.977	27.82
262.193	11.43
262.409	111.78
262.626	3.24
262.842	64.68
263.058	-43.86
263.274	93.35
263.49	74.92
263.707	91.31
263.923	105.64
264.139	-23.38
264.355	64.68
264.571	156.84
264.787	93.35
265.004	56.49
265.22	25.77
265.436	48.3
265.652	29.87
265.868	-21.33
266.084	-56.15
266.3	21.67
266.516	-4.95
266.732	83.11
266.948	-4.95
267.164	42.15
267.38	54.44
267.596	76.97
267.812	156.84
268.028	103.59
268.244	15.53
268.46	74.92
268.676	11.43
268.892	29.87
269.108	-33.62
269.324	-25.43
269.54	-64.34
269.756	111.78
269.972	-64.34
270.188	17.58
270.403	-50
270.619	40.11
270.835	107.69
271.051	115.88
271.267	-37.72
271.483	-72.53
271.698	126.12
271.914	9.39
272.13	50.35
272.346	27.82
272.562	33.96
272.777	74.92
272.993	7.34
273.209	36.01
273.425	81.07
273.64	-60.24
273.856	62.63
274.072	-52.05
274.287	-88.92
274.503	66.73
274.719	199.85
274.934	25.77
275.15	-33.62
275.366	13.48
275.581	13.48
275.797	-0.85
276.012	11.43
276.228	-0.85
276.444	72.87
276.659	122.02
276.875	-11.09
277.09	-2.9
277.306	17.58
277.521	81.07
277.737	33.96
277.952	128.17
278.168	5.29
278.383	56.49
278.599	27.82
278.814	72.87
279.03	-19.29
279.245	130.22
279.461	31.91
279.676	99.5
279.892	-50
280.107	-76.63
280.322	38.06
280.538	52.39
280.753	27.82
280.969	87.21
281.184	-4.95
281.399	199.85
281.615	76.97
281.83	31.91
282.045	-64.34
282.26	23.72
282.476	48.3
282.691	93.35
282.906	66.73
283.122	15.53
283.337	-80.72
283.552	115.88
283.767	-31.57
283.983	79.02
284.198	48.3
284.413	66.73
284.628	-37.72
284.843	76.97
285.058	74.92
285.274	38.06
285.489	11.43
285.704	56.49
285.919	-43.86
286.134	66.73
286.349	50.35
286.564	7.34
286.779	171.18
286.995	70.83
287.21	-62.29
287.425	68.78
287.64	111.78
287.855	46.25
288.07	-111.44
288.285	117.93
288.5	130.22
288.715	56.49
288.93	60.59
289.145	-13.14
289.36	-4.95
289.575	27.82
289.79	124.07
290.004	-60.24
290.219	58.54
290.434	33.96
290.649	-45.91
290.864	-11.09
291.079	5.29
291.294	58.54
291.509	44.2
291.724	27.82
291.938	-4.95
292.153	54.44
292.368	48.3
292.583	162.98
292.798	31.91
293.012	21.67
293.227	36.01
293.442	-0.85
293.657	42.15
293.871	148.65
294.086	74.92
294.301	175.27
294.516	68.78
294.73	74.92
294.945	-86.87
295.16	54.44
295.374	93.35
295.589	111.78
295.804	-33.62
296.018	103.59
296.233	83.11
296.447	36.01
296.662	38.06
296.877	128.17
297.091	64.68
297.306	58.54
297.52	-54.1
297.735	36.01
297.949	42.15
298.164	62.63
298.378	50.35
298.593	-23.38
298.807	-45.91
299.022	48.3
299.236	144.55
299.451	11.43
299.665	25.77
299.88	58.54
300.094	79.02
300.309	58.54
300.523	54.44
300.737	-19.29
300.952	89.26
301.166	23.72
301.381	-45.91
301.595	7.34
301.809	68.78
302.024	42.15
302.238	3.24
302.452	122.02
302.667	36.01
302.881	156.84
303.095	142.5
303.309	-35.67
303.524	40.11
303.738	56.49
303.952	-31.57
304.166	58.54
304.381	-74.58
304.595	212.14
304.809	-19.29
305.023	-17.24
305.237	48.3
305.452	-50
305.666	56.49
305.88	111.78
306.094	31.91
306.308	119.98
306.522	134.31
306.736	42.15
306.95	99.5
307.164	-4.95
307.379	62.63
307.593	101.55
307.807	113.83
308.021	74.92
308.235	72.87
308.449	-109.4
308.663	19.63
308.877	212.14
309.091	25.77
309.305	5.29
309.519	-78.68
309.733	177.32
309.947	-25.43
310.161	44.2
310.374	81.07
310.588	130.22
310.802	-52.05
311.016	-43.86
311.23	76.97
311.444	3.24
311.658	-2.9
311.872	117.93
312.085	79.02
312.299	62.63
312.513	64.68
312.727	122.02
312.941	76.97
313.154	31.91
313.368	33.96
313.582	17.58
313.796	5.29
314.009	44.2
314.223	154.79
314.437	33.96
314.651	105.64
314.864	48.3
315.078	21.67
315.292	-66.39
315.505	-0.85
315.719	79.02
315.933	107.69
316.146	103.59
316.36	-62.29
316.573	138.41
316.787	87.21
317.001	79.02
317.214	-21.33
317.428	74.92
317.641	-88.92
317.855	31.91
318.068	21.67
318.282	-0.85
318.495	232.62
318.709	74.92
318.922	115.88
319.136	165.03
319.349	103.59
319.563	42.15
319.776	99.5
319.99	-76.63
320.203	99.5
320.417	68.78
320.63	-4.95
320.843	179.37
321.057	27.82
321.27	-41.81
321.483	66.73
321.697	154.79
321.91	72.87
322.124	11.43
322.337	76.97
322.55	-19.29
322.763	-31.57
322.977	-25.43
323.19	-0.85
323.403	21.67
323.617	48.3
323.83	140.46
324.043	-2.9
324.256	136.36
324.469	-0.85
324.683	107.69
324.896	44.2
325.109	23.72
325.322	-58.2
325.535	148.65
325.748	124.07
325.962	-9.05
326.175	76.97
326.388	64.68
326.601	165.03
326.814	-66.39
327.027	68.78
327.24	144.55
327.453	-152.4
327.666	89.26
327.879	142.5
328.092	93.35
328.305	27.82
328.518	5.29
328.731	17.58
328.944	54.44
329.157	52.39
329.37	15.53
329.583	187.56
329.796	136.36
330.009	50.35
330.222	29.87
330.435	72.87
330.648	23.72
330.861	29.87
331.073	95.4
331.286	1.19
331.499	7.34
331.712	-68.44
331.925	-13.14
332.138	48.3
332.35	107.69
332.563	13.48
332.776	105.64
332.989	-21.33
333.202	21.67
333.414	-2.9
333.627	25.77
333.84	33.96
334.053	48.3
334.265	60.59
334.478	-41.81
334.691	-37.72
334.903	58.54
335.116	-70.48
335.329	-78.68
335.541	130.22
335.754	191.66
335.966	48.3
336.179	74.92
336.392	-47.96
336.604	15.53
336.817	93.35
337.029	9.39
337.242	105.64
337.454	91.31
337.667	-2.9
337.88	21.67
338.092	62.63
338.305	74.92
338.517	-7
338.729	126.12
338.942	148.65
339.154	-45.91
339.367	-37.72
339.579	36.01
339.792	19.63
340.004	68.78
340.217	36.01
340.429	66.73
340.641	-29.52
340.854	-31.57
341.066	44.2
341.278	107.69
341.491	93.35
341.703	19.63
341.915	-7
342.128	158.89
342.34	81.07
342.552	7.34
342.764	25.77
342.977	-4.95
343.189	93.35
343.401	40.11
343.613	-117.59
343.826	-0.85
344.038	-119.64
344.25	56.49
344.462	-11.09
344.674	-21.33
344.886	-4.95
345.099	52.39
345.311	62.63
345.523	11.43
345.735	-84.82
345.947	126.12
346.159	33.96
346.371	36.01
346.583	-17.24
346.795	183.46
347.007	-76.63
347.219	-0.85
347.431	58.54
347.643	79.02
347.855	-37.72
348.067	140.46
348.279	-21.33
348.491	7.34
348.703	107.69
348.915	40.11
349.127	-23.38
349.339	21.67
349.551	-25.43
349.763	85.16
349.975	109.74
350.187	160.94
350.399	89.26
350.61	79.02
350.822	76.97
351.034	50.35
351.246	85.16
351.458	38.06
351.669	33.96
351.881	72.87
352.093	33.96
352.305	128.17
352.517	81.07
352.728	83.11
352.94	5.29
353.152	64.68
353.363	-58.2
353.575	42.15
353.787	156.84
353.999	107.69
354.21	142.5
354.422	-25.43
354.633	-21.33
354.845	17.58
355.057	93.35
355.268	74.92
355.48	117.93
355.692	11.43
355.903	60.59
356.115	-25.43
356.326	-4.95
356.538	177.32
356.749	107.69
356.961	115.88
357.172	1.19
357.384	-17.24
357.595	134.31
357.807	3.24
358.018	-58.2
358.23	50.35
358.441	101.55
358.653	48.3
358.864	-7
359.075	11.43
359.287	126.12
359.498	154.79
359.709	68.78
359.921	-0.85
360.132	89.26
360.344	-19.29
360.555	23.72
360.766	-4.95
360.977	38.06
361.189	99.5
361.4	19.63
361.611	42.15
361.823	122.02
362.034	58.54
362.245	-23.38
362.456	46.25
362.667	83.11
362.879	-7
363.09	66.73
363.301	38.06
363.512	29.87
363.723	-0.85
363.935	7.34
364.146	162.98
364.357	44.2
364.568	17.58
364.779	-66.39
364.99	136.36
365.201	-37.72
365.412	74.92
365.623	-78.68
365.834	54.44
366.045	15.53
366.256	107.69
366.467	122.02
366.678	68.78
366.889	9.39
367.1	-62.29
367.311	185.51
367.522	52.39
367.733	-23.38
367.944	40.11
368.155	31.91
368.366	31.91
368.577	122.02
368.788	101.55
368.999	-33.62
369.209	13.48
369.42	124.07
369.631	208.04
369.842	-21.33
370.053	11.43
370.264	128.17
370.474	-35.67
370.685	52.39
370.896	13.48
371.107	60.59
371.317	81.07
371.528	93.35
371.739	115.88
371.95	54.44
372.16	83.11
372.371	-47.96
372.582	-11.09
372.792	9.39
373.003	64.68
373.214	-25.43
373.424	62.63
373.635	-0.85
373.846	109.74
374.056	11.43
374.267	107.69
374.477	58.54
374.688	60.59
374.898	76.97
375.109	31.91
375.319	68.78
375.53	105.64
375.74	83.11
375.951	-109.4
376.161	11.43
376.372	99.5
376.582	11.43
376.793	117.93
377.003	-25.43
377.214	-39.76
377.424	-2.9
377.635	17.58
377.845	-52.05
378.055	122.02
378.266	-7
378.476	-19.29
378.686	17.58
378.897	11.43
379.107	119.98
379.317	44.2
379.528	-21.33
379.738	126.12
379.948	-113.49
380.158	5.29
380.369	50.35
380.579	105.64
380.789	21.67
380.999	103.59
381.21	68.78
381.42	148.65
381.63	7.34
381.84	21.67
382.05	15.53
382.261	66.73
382.471	52.39
382.681	-23.38
382.891	160.94
383.101	36.01
383.311	13.48
383.521	74.92
383.731	68.78
383.941	83.11
384.151	29.87
384.361	60.59
384.571	85.16
384.781	93.35
384.991	234.66
385.201	199.85
385.411	74.92
385.621	-2.9
385.831	56.49
386.041	44.2
386.251	-21.33
386.461	27.82
386.671	23.72
386.881	27.82
387.091	54.44
387.301	208.04
387.511	31.91
387.72	130.22
387.93	111.78
388.14	-2.9
388.35	38.06
388.56	138.41
388.769	101.55
388.979	70.83
389.189	-13.14
389.399	23.72
389.609	156.84
389.818	113.83
390.028	130.22
390.238	23.72
390.447	46.25
390.657	107.69
390.867	46.25
391.076	-43.86
391.286	19.63
391.496	23.72
391.705	-0.85
391.915	117.93
392.125	54.44
392.334	17.58
392.544	187.56
392.753	-4.95
392.963	33.96
393.172	-7
393.382	-74.58
393.591	165.03
393.801	48.3
394.01	220.33
394.22	76.97
394.429	23.72
394.639	42.15
394.848	56.49
395.058	36.01
395.267	-0.85
395.477	152.74
395.686	124.07
395.895	169.13
396.105	208.04
396.314	62.63
396.524	50.35
396.733	56.49
396.942	113.83
397.152	109.74
397.361	115.88
397.57	101.55
397.78	-27.48
397.989	72.87
398.198	130.22
398.407	23.72
398.617	33.96
398.826	17.58
399.035	-47.96
399.244	117.93
399.453	124.07
399.663	-39.76
399.872	-23.38
400.081	-25.43
400.29	179.37
400.499	17.58
400.708	103.59
400.917	31.91
401.127	-25.43
401.336	-4.95
401.545	199.85
401.754	179.37
401.963	85.16
402.172	-37.72
402.381	42.15
402.59	64.68
402.799	46.25
403.008	119.98
403.217	-13.14
403.426	136.36
403.635	-88.92
403.844	58.54
404.053	48.3
404.262	29.87
404.471	169.13
404.68	103.59
404.888	64.68
405.097	17.58
405.306	54.44
405.515	48.3
405.724	31.91
405.933	183.46
406.142	74.92
406.35	56.49
406.559	5.29
406.768	21.67
406.977	179.37
407.185	11.43
407.394	128.17
407.603	-39.76
407.812	72.87
408.02	105.64
408.229	64.68
408.438	42.15
408.646	-62.29
408.855	5.29
409.064	72.87
409.272	11.43
409.481	42.15
409.69	11.43
409.898	-78.68
410.107	66.73
410.315	27.82
410.524	-25.43
410.733	52.39
410.941	89.26
411.15	19.63
411.358	87.21
411.567	111.78
411.775	-27.48
411.984	38.06
412.192	136.36
412.401	56.49
412.609	113.83
412.818	97.45
413.026	15.53
413.234	87.21
413.443	60.59
413.651	15.53
413.86	17.58
414.068	148.65
414.276	187.56
414.485	21.67
414.693	150.7
414.901	173.22
415.11	76.97
415.318	11.43
415.526	11.43
415.734	81.07
415.943	62.63
416.151	68.78
416.359	46.25
416.567	40.11
416.776	132.26
416.984	109.74
417.192	140.46
417.4	9.39
417.608	11.43
417.817	-41.81
418.025	105.64
418.233	97.45
418.441	-109.4
418.649	-97.11
418.857	56.49
419.065	81.07
419.273	-37.72
419.481	-13.14
419.689	29.87
419.897	-33.62
420.105	-66.39
420.313	68.78
420.521	113.83
420.729	107.69
420.937	42.15
421.145	-50
421.353	54.44
421.561	148.65
421.769	31.91
421.977	29.87
422.185	81.07
422.393	44.2
422.601	89.26
422.809	36.01
423.017	109.74
423.224	81.07
423.432	140.46
423.64	27.82
423.848	146.6
424.056	33.96
424.263	95.4
424.471	31.91
424.679	203.94
424.887	-90.96
425.094	62.63
425.302	113.83
425.51	-27.48
425.718	44.2
425.925	70.83
426.133	-62.29
426.341	220.33
426.548	52.39
426.756	-19.29
426.964	17.58
427.171	-0.85
427.379	-23.38
427.586	40.11
427.794	115.88
428.001	111.78
428.209	54.44
428.417	162.98
428.624	140.46
428.832	72.87
429.039	64.68
429.247	13.48
429.454	111.78
429.662	171.18
429.869	64.68
430.076	105.64
430.284	91.31
430.491	138.41
430.699	33.96
430.906	179.37
431.114	156.84
431.321	160.94
431.528	19.63
431.736	91.31
431.943	111.78
432.15	44.2
432.358	169.13
432.565	271.53
432.772	-43.86
432.979	156.84
433.187	74.92
433.394	195.75
433.601	-17.24
433.808	60.59
434.016	214.18
434.223	148.65
434.43	138.41
434.637	165.03
434.844	189.61
435.052	50.35
435.259	140.46
435.466	191.66
435.673	134.31
435.88	222.38
436.087	230.57
436.294	234.66
436.501	122.02
436.708	74.92
436.915	267.43
437.122	281.77
437.329	115.88
437.537	205.99
437.743	232.62
437.95	275.62
438.157	210.09
438.364	162.98
438.571	144.55
438.778	304.29
438.985	275.62
439.192	287.91
439.399	302.25
439.606	275.62
439.813	277.67
440.02	386.21
440.227	408.74
440.433	433.32
440.64	279.72
440.847	271.53
441.054	308.39
441.261	418.98
441.467	371.88
441.674	193.7
441.881	427.17
442.088	351.4
442.294	355.49
442.501	425.12
442.708	470.18
442.914	386.21
443.121	496.8
443.328	416.93
443.534	535.71
443.741	492.71
443.948	347.3
444.154	543.91
444.361	658.59
444.568	539.81
444.774	552.1
444.981	482.47
445.187	726.18
445.394	627.87
445.6	580.77
445.807	746.66
446.013	670.88
446.22	634.02
446.426	683.17
446.633	765.09
446.839	892.06
447.046	697.5
447.252	914.59
447.459	812.19
447.665	849.05
447.871	1008.8
448.078	1072.28
448.284	1035.42
448.491	1162.39
448.697	1051.8
448.903	1074.33
449.11	1197.21
449.316	1121.43
449.522	1311.89
449.728	1440.92
449.935	1365.14
450.141	1334.42
450.347	1588.37
450.553	1412.25
450.76	1461.4
450.966	1574.03
451.172	1623.19
451.378	1653.91
451.584	1694.86
451.791	1873.04
451.997	1838.22
452.203	1840.27
452.409	2034.83
452.615	2206.86
452.821	2022.54
453.027	2077.83
453.233	2346.12
453.44	2262.15
453.646	2350.21
453.852	2413.7
454.058	2473.09
454.264	2598.02
454.47	2811.01
454.676	2673.79
454.882	3021.95
455.088	3048.57
455.294	2997.37
455.5	3263.61
455.705	3499.13
455.911	3433.59
456.117	3560.56
456.323	3570.8
456.529	3652.72
456.735	3978.35
456.941	4125.8
457.147	4316.26
457.352	4445.29
457.558	4453.48
457.764	4985.95
457.97	5016.67
458.176	5004.38
458.381	5284.95
458.587	5383.26
458.793	5780.56
458.999	5803.09
459.204	6437.96
459.41	6530.12
459.616	6536.26
459.821	7023.68
460.027	7058.49
460.233	7490.62
460.438	7582.77
460.644	8008.75
460.85	8145.97
461.055	8225.84
461.261	8664.1
461.466	8789.03
461.672	8703.01
461.878	9845.78
462.083	9741.33
462.289	9905.17
462.494	10462.22
462.7	10241.04
462.905	10552.33
463.111	11392
463.316	11930.61
463.522	12078.07
463.727	12532.72
463.932	13200.35
464.138	13468.64
464.343	14160.85
464.549	13960.15
464.754	15274.95
464.959	15498.17
465.165	15717.31
465.37	15735.74
465.575	15633.34
465.781	16698.28
465.986	17204.13
466.191	17056.68
466.397	17142.69
466.602	16696.24
466.807	17437.6
467.012	18049.94
467.218	18164.63
467.423	18510.74
467.628	18770.83
467.833	19692.41
468.038	19184.52
468.244	18977.67
468.449	19854.2
468.654	19467.14
468.859	19532.67
