Data from USB4F104151__66__11-30-57-064.txt Node

Date: Wed Feb 26 11:30:57 EST 2025
User: louis
Spectrometer: USB4F10415
Trigger mode: 4
Integration Time (sec): 1.000000E-1
Scans to average: 1
Electric dark correction enabled: true
Nonlinearity correction enabled: false
Boxcar width: 0
XAxis mode: Wavelengths
Number of Pixels in Spectrum: 3648
>>>>>Begin Spectral Data<<<<<
178.204	-422.22
178.424	-422.22
178.644	-422.22
178.864	-424.27
179.084	-379.22
179.304	77.48
179.524	-24.92
179.744	9.9
179.964	-0.34
180.184	11.95
180.404	104.11
180.624	-90.45
180.844	-8.53
181.064	-80.21
181.283	11.95
181.503	-47.44
181.723	36.52
181.943	-141.65
182.163	171.69
182.383	-104.79
182.602	67.24
182.822	89.77
183.042	130.73
183.262	-57.68
183.482	-43.35
183.701	93.87
183.921	114.34
184.141	-39.25
184.361	32.43
184.58	5.8
184.8	-26.96
185.02	20.14
185.239	61.1
185.459	79.53
185.679	52.91
185.898	-129.36
186.118	18.09
186.338	16.04
186.557	112.3
186.777	-39.25
186.997	36.52
187.216	40.62
187.436	179.88
187.655	-6.49
187.875	104.11
188.095	-16.73
188.314	93.87
188.534	220.84
188.753	-57.68
188.973	67.24
189.192	108.2
189.412	3.75
189.631	93.87
189.851	114.34
190.07	116.39
190.29	-20.82
190.509	13.99
190.729	69.29
190.948	171.69
191.168	112.3
191.387	11.95
191.607	-47.44
191.826	73.39
192.045	3.75
192.265	11.95
192.484	67.24
192.704	-0.34
192.923	-112.98
193.142	177.83
193.362	95.91
193.581	128.68
193.8	69.29
194.02	136.87
194.239	122.54
194.458	-10.58
194.678	30.38
194.897	44.71
195.116	22.19
195.335	32.43
195.555	77.48
195.774	-14.68
195.993	106.15
196.212	44.71
196.432	32.43
196.651	-8.53
196.87	-12.63
197.089	229.03
197.308	46.76
197.528	77.48
197.747	-61.78
197.966	61.1
198.185	79.53
198.404	-59.73
198.623	67.24
198.842	32.43
199.062	97.96
199.281	112.3
199.5	20.14
199.719	11.95
199.938	97.96
200.157	22.19
200.376	124.58
200.595	108.2
200.814	28.33
201.033	11.95
201.252	114.34
201.471	57
201.69	24.23
201.909	65.19
202.128	34.47
202.347	81.58
202.566	9.9
202.785	-57.68
203.004	59.05
203.223	282.28
203.442	102.06
203.661	-69.97
203.879	122.54
204.098	138.92
204.317	-6.49
204.536	89.77
204.755	104.11
204.974	28.33
205.193	46.76
205.411	20.14
205.63	167.59
205.849	5.8
206.068	13.99
206.287	-61.78
206.505	93.87
206.724	-24.92
206.943	-4.44
207.162	-106.84
207.381	110.25
207.599	57
207.818	42.67
208.037	26.28
208.255	22.19
208.474	30.38
208.693	22.19
208.911	-16.73
209.13	110.25
209.349	-20.82
209.567	130.73
209.786	59.05
210.005	75.43
210.223	24.23
210.442	-151.89
210.661	54.95
210.879	7.85
211.098	44.71
211.316	9.9
211.535	-2.39
211.753	85.67
211.972	165.54
212.191	63.15
212.409	40.62
212.628	93.87
212.846	-2.39
213.065	52.91
213.283	130.73
213.502	-31.06
213.72	9.9
213.938	50.86
214.157	83.63
214.375	104.11
214.594	-24.92
214.812	126.63
215.031	42.67
215.249	18.09
215.467	75.43
215.686	38.57
215.904	87.72
216.122	-22.87
216.341	169.64
216.559	22.19
216.778	71.34
216.996	114.34
217.214	36.52
217.432	1.71
217.651	-47.44
217.869	-22.87
218.087	48.81
218.306	-31.06
218.524	97.96
218.742	34.47
218.96	9.9
219.179	63.15
219.397	61.1
219.615	173.74
219.833	77.48
220.051	-31.06
220.27	93.87
220.488	-6.49
220.706	26.28
220.924	1.71
221.142	-67.92
221.36	93.87
221.578	26.28
221.796	-0.34
222.015	13.99
222.233	-26.96
222.451	93.87
222.669	-53.59
222.887	75.43
223.105	44.71
223.323	-59.73
223.541	-2.39
223.759	-51.54
223.977	36.52
224.195	216.74
224.413	87.72
224.631	46.76
224.849	5.8
225.067	122.54
225.285	7.85
225.503	13.99
225.721	-129.36
225.939	16.04
226.157	48.81
226.375	126.63
226.592	5.8
226.81	69.29
227.028	124.58
227.246	212.65
227.464	79.53
227.682	95.91
227.9	63.15
228.117	65.19
228.335	93.87
228.553	79.53
228.771	-12.63
228.989	118.44
229.206	97.96
229.424	-24.92
229.642	11.95
229.86	-22.87
230.077	155.3
230.295	36.52
230.513	110.25
230.731	87.72
230.948	208.55
231.166	34.47
231.384	-24.92
231.601	-16.73
231.819	190.12
232.037	26.28
232.254	-76.12
232.472	-108.88
232.689	-6.49
232.907	194.22
233.125	-20.82
233.342	-43.35
233.56	34.47
233.777	-26.96
233.995	-63.83
234.213	138.92
234.43	32.43
234.648	42.67
234.865	50.86
235.083	48.81
235.3	48.81
235.518	136.87
235.735	120.49
235.953	65.19
236.17	-16.73
236.388	44.71
236.605	-8.53
236.822	100.01
237.04	104.11
237.257	81.58
237.475	24.23
237.692	11.95
237.909	67.24
238.127	13.99
238.344	46.76
238.562	79.53
238.779	-18.77
238.996	-41.3
239.214	61.1
239.431	9.9
239.648	-6.49
239.865	42.67
240.083	-20.82
240.3	75.43
240.517	11.95
240.735	54.95
240.952	116.39
241.169	79.53
241.386	61.1
241.603	61.1
241.821	-47.44
242.038	36.52
242.255	16.04
242.472	13.99
242.689	89.77
242.907	52.91
243.124	26.28
243.341	18.09
243.558	-49.49
243.775	-16.73
243.992	-49.49
244.209	57
244.426	202.41
244.643	71.34
244.86	77.48
245.078	95.91
245.295	83.63
245.512	54.95
245.729	-16.73
245.946	32.43
246.163	114.34
246.38	-69.97
246.597	83.63
246.814	46.76
247.031	93.87
247.248	18.09
247.464	75.43
247.681	-2.39
247.898	63.15
248.115	79.53
248.332	-76.12
248.549	161.45
248.766	161.45
248.983	100.01
249.2	122.54
249.417	87.72
249.633	-55.64
249.85	87.72
250.067	5.8
250.284	-26.96
250.501	59.05
250.717	40.62
250.934	-29.01
251.151	-6.49
251.368	48.81
251.585	36.52
251.801	30.38
252.018	48.81
252.235	22.19
252.451	-69.97
252.668	75.43
252.885	112.3
253.102	91.82
253.318	5.8
253.535	69.29
253.752	-14.68
253.968	-18.77
254.185	-84.31
254.401	16.04
254.618	63.15
254.835	42.67
255.051	122.54
255.268	50.86
255.484	-8.53
255.701	-2.39
255.917	46.76
256.134	-14.68
256.351	46.76
256.567	-37.2
256.784	38.57
257	-133.46
257.217	136.87
257.433	42.67
257.65	65.19
257.866	75.43
258.082	-74.07
258.299	7.85
258.515	54.95
258.732	-43.35
258.948	-104.79
259.165	40.62
259.381	-88.4
259.597	20.14
259.814	44.71
260.03	46.76
260.246	-41.3
260.463	130.73
260.679	186.02
260.895	20.14
261.112	18.09
261.328	50.86
261.544	1.71
261.761	122.54
261.977	-80.21
262.193	-88.4
262.409	75.43
262.626	59.05
262.842	13.99
263.058	-76.12
263.274	61.1
263.49	63.15
263.707	89.77
263.923	102.06
264.139	-55.64
264.355	18.09
264.571	116.39
264.787	-2.39
265.004	97.96
265.22	-8.53
265.436	-57.68
265.652	52.91
265.868	20.14
266.084	-14.68
266.3	26.28
266.516	-72.02
266.732	67.24
266.948	9.9
267.164	50.86
267.38	81.58
267.596	159.4
267.812	171.69
268.028	-12.63
268.244	13.99
268.46	18.09
268.676	-16.73
268.892	5.8
269.108	1.71
269.324	-47.44
269.54	-26.96
269.756	13.99
269.972	-51.54
270.188	-51.54
270.403	-51.54
270.619	110.25
270.835	75.43
271.051	83.63
271.267	-4.44
271.483	50.86
271.698	38.57
271.914	89.77
272.13	40.62
272.346	20.14
272.562	50.86
272.777	114.34
272.993	26.28
273.209	-76.12
273.425	100.01
273.64	-35.16
273.856	147.11
274.072	-18.77
274.287	-24.92
274.503	122.54
274.719	138.92
274.934	3.75
275.15	-80.21
275.366	46.76
275.581	-39.25
275.797	1.71
276.012	106.15
276.228	-43.35
276.444	7.85
276.659	44.71
276.875	-117.08
277.09	36.52
277.306	28.33
277.521	30.38
277.737	20.14
277.952	118.44
278.168	38.57
278.383	-8.53
278.599	48.81
278.814	97.96
279.03	-61.78
279.245	77.48
279.461	-14.68
279.676	22.19
279.892	-92.5
280.107	-51.54
280.322	-12.63
280.538	75.43
280.753	-59.73
280.969	122.54
281.184	26.28
281.399	145.06
281.615	34.47
281.83	-14.68
282.045	-33.11
282.26	-18.77
282.476	-12.63
282.691	52.91
282.906	61.1
283.122	-43.35
283.337	50.86
283.552	-0.34
283.767	9.9
283.983	110.25
284.198	7.85
284.413	40.62
284.628	-6.49
284.843	91.82
285.058	95.91
285.274	-8.53
285.489	-78.16
285.704	126.63
285.919	16.04
286.134	38.57
286.349	-47.44
286.564	-14.68
286.779	165.54
286.995	61.1
287.21	-74.07
287.425	83.63
287.64	52.91
287.855	22.19
288.07	-86.36
288.285	110.25
288.5	89.77
288.715	83.63
288.93	-37.2
289.145	1.71
289.36	124.58
289.575	28.33
289.79	149.16
290.004	36.52
290.219	67.24
290.434	-6.49
290.649	-16.73
290.864	-6.49
291.079	-37.2
291.294	-35.16
291.509	-14.68
291.724	-14.68
291.938	-31.06
292.153	97.96
292.368	30.38
292.583	20.14
292.798	61.1
293.012	3.75
293.227	110.25
293.442	32.43
293.657	79.53
293.871	153.26
294.086	128.68
294.301	140.97
294.516	97.96
294.73	87.72
294.945	-0.34
295.16	7.85
295.374	67.24
295.589	132.78
295.804	-2.39
296.018	57
296.233	77.48
296.447	63.15
296.662	-20.82
296.877	140.97
297.091	89.77
297.306	9.9
297.52	16.04
297.735	46.76
297.949	71.34
298.164	32.43
298.378	7.85
298.593	-51.54
298.807	9.9
299.022	-14.68
299.236	192.17
299.451	-53.59
299.665	42.67
299.88	93.87
300.094	83.63
300.309	13.99
300.523	28.33
300.737	28.33
300.952	81.58
301.166	73.39
301.381	-0.34
301.595	24.23
301.809	-16.73
302.024	13.99
302.238	-24.92
302.452	149.16
302.667	57
302.881	102.06
303.095	46.76
303.309	-14.68
303.524	24.23
303.738	32.43
303.952	-80.21
304.166	126.63
304.381	-78.16
304.595	151.21
304.809	-8.53
305.023	26.28
305.237	-78.16
305.452	104.11
305.666	50.86
305.88	71.34
306.094	54.95
306.308	16.04
306.522	59.05
306.736	46.76
306.95	153.26
307.164	54.95
307.379	-43.35
307.593	108.2
307.807	114.34
308.021	134.82
308.235	69.29
308.449	-41.3
308.663	102.06
308.877	218.79
309.091	9.9
309.305	134.82
309.519	-86.36
309.733	110.25
309.947	-29.01
310.161	52.91
310.374	112.3
310.588	145.06
310.802	79.53
311.016	-14.68
311.23	126.63
311.444	-14.68
311.658	22.19
311.872	128.68
312.085	67.24
312.299	81.58
312.513	149.16
312.727	95.91
312.941	-31.06
313.154	106.15
313.368	36.52
313.582	42.67
313.796	57
314.009	40.62
314.223	116.39
314.437	67.24
314.651	69.29
314.864	54.95
315.078	5.8
315.292	-37.2
315.505	5.8
315.719	3.75
315.933	145.06
316.146	-29.01
316.36	-14.68
316.573	81.58
316.787	149.16
317.001	100.01
317.214	-18.77
317.428	-6.49
317.641	-6.49
317.855	36.52
318.068	26.28
318.282	71.34
318.495	171.69
318.709	11.95
318.922	-45.4
319.136	106.15
319.349	118.44
319.563	-43.35
319.776	-2.39
319.99	-53.59
320.203	161.45
320.417	18.09
320.63	9.9
320.843	155.3
321.057	3.75
321.27	-47.44
321.483	95.91
321.697	132.78
321.91	57
322.124	18.09
322.337	104.11
322.55	-2.39
322.763	63.15
322.977	-4.44
323.19	-145.75
323.403	11.95
323.617	75.43
323.83	46.76
324.043	26.28
324.256	59.05
324.469	-65.88
324.683	52.91
324.896	-45.4
325.109	28.33
325.322	-67.92
325.535	136.87
325.748	52.91
325.962	-59.73
326.175	-33.11
326.388	57
326.601	122.54
326.814	5.8
327.027	28.33
327.24	145.06
327.453	-74.07
327.666	54.95
327.879	145.06
328.092	130.73
328.305	81.58
328.518	-14.68
328.731	-6.49
328.944	-55.64
329.157	134.82
329.37	3.75
329.583	237.22
329.796	179.88
330.009	-35.16
330.222	69.29
330.435	124.58
330.648	13.99
330.861	-2.39
331.073	50.86
331.286	81.58
331.499	-12.63
331.712	-18.77
331.925	-14.68
332.138	63.15
332.35	75.43
332.563	18.09
332.776	124.58
332.989	-41.3
333.202	-57.68
333.414	36.52
333.627	63.15
333.84	-24.92
334.053	20.14
334.265	-4.44
334.478	-6.49
334.691	-18.77
334.903	20.14
335.116	28.33
335.329	44.71
335.541	83.63
335.754	159.4
335.966	11.95
336.179	5.8
336.392	-8.53
336.604	-26.96
336.817	50.86
337.029	36.52
337.242	-4.44
337.454	54.95
337.667	79.53
337.88	173.74
338.092	46.76
338.305	38.57
338.517	-45.4
338.729	108.2
338.942	169.64
339.154	-12.63
339.367	-31.06
339.579	-41.3
339.792	-41.3
340.004	102.06
340.217	44.71
340.429	71.34
340.641	-0.34
340.854	-12.63
341.066	24.23
341.278	112.3
341.491	157.35
341.703	46.76
341.915	20.14
342.128	116.39
342.34	34.47
342.552	-14.68
342.764	48.81
342.977	-35.16
343.189	54.95
343.401	69.29
343.613	38.57
343.826	30.38
344.038	-119.12
344.25	69.29
344.462	-4.44
344.674	54.95
344.886	26.28
345.099	128.68
345.311	104.11
345.523	38.57
345.735	-57.68
345.947	69.29
346.159	36.52
346.371	16.04
346.583	-16.73
346.795	151.21
347.007	-2.39
347.219	77.48
347.431	1.71
347.643	145.06
347.855	-51.54
348.067	116.39
348.279	-12.63
348.491	89.77
348.703	3.75
348.915	-55.64
349.127	-10.58
349.339	36.52
349.551	22.19
349.763	114.34
349.975	34.47
350.187	26.28
350.399	171.69
350.61	54.95
350.822	54.95
351.034	87.72
351.246	42.67
351.458	24.23
351.669	75.43
351.881	77.48
352.093	16.04
352.305	118.44
352.517	75.43
352.728	16.04
352.94	63.15
353.152	36.52
353.363	-12.63
353.575	-22.87
353.787	147.11
353.999	75.43
354.21	100.01
354.422	-2.39
354.633	32.43
354.845	-14.68
355.057	73.39
355.268	-14.68
355.48	138.92
355.692	-106.84
355.903	-2.39
356.115	5.8
356.326	-112.98
356.538	147.11
356.749	9.9
356.961	83.63
357.172	71.34
357.384	-65.88
357.595	235.18
357.807	57
358.018	-51.54
358.23	24.23
358.441	124.58
358.653	57
358.864	-12.63
359.075	-43.35
359.287	69.29
359.498	75.43
359.709	59.05
359.921	3.75
360.132	69.29
360.344	44.71
360.555	59.05
360.766	24.23
360.977	57
361.189	87.72
361.4	11.95
361.611	67.24
361.823	161.45
362.034	59.05
362.245	-39.25
362.456	-10.58
362.667	36.52
362.879	36.52
363.09	83.63
363.301	-6.49
363.512	11.95
363.723	-26.96
363.935	-76.12
364.146	116.39
364.357	132.78
364.568	42.67
364.779	-72.02
364.99	138.92
365.201	-37.2
365.412	73.39
365.623	-14.68
365.834	93.87
366.045	-37.2
366.256	75.43
366.467	71.34
366.678	61.1
366.889	89.77
367.1	40.62
367.311	200.36
367.522	-12.63
367.733	28.33
367.944	100.01
368.155	-2.39
368.366	40.62
368.577	44.71
368.788	87.72
368.999	7.85
369.209	-41.3
369.42	175.78
369.631	249.51
369.842	54.95
370.053	26.28
370.264	77.48
370.474	-37.2
370.685	65.19
370.896	-43.35
371.107	132.78
371.317	79.53
371.528	120.49
371.739	48.81
371.95	81.58
372.16	28.33
372.371	-41.3
372.582	-45.4
372.792	48.81
373.003	40.62
373.214	52.91
373.424	69.29
373.635	50.86
373.846	163.5
374.056	81.58
374.267	61.1
374.477	46.76
374.688	34.47
374.898	77.48
375.109	61.1
375.319	132.78
375.53	83.63
375.74	91.82
375.951	54.95
376.161	126.63
376.372	138.92
376.582	-8.53
376.793	54.95
377.003	-4.44
377.214	-12.63
377.424	44.71
377.635	46.76
377.845	13.99
378.055	22.19
378.266	-53.59
378.476	-8.53
378.686	75.43
378.897	7.85
379.107	89.77
379.317	83.63
379.528	26.28
379.738	106.15
379.948	-12.63
380.158	63.15
380.369	28.33
380.579	116.39
380.789	50.86
380.999	73.39
381.21	40.62
381.42	183.98
381.63	-29.01
381.84	59.05
382.05	104.11
382.261	63.15
382.471	231.08
382.681	-4.44
382.891	177.83
383.101	79.53
383.311	-69.97
383.521	-67.92
383.731	118.44
383.941	36.52
384.151	52.91
384.361	7.85
384.571	102.06
384.781	130.73
384.991	212.65
385.201	136.87
385.411	57
385.621	63.15
385.831	50.86
386.041	77.48
386.251	30.38
386.461	61.1
386.671	81.58
386.881	93.87
387.091	75.43
387.301	81.58
387.511	16.04
387.72	61.1
387.93	44.71
388.14	-57.68
388.35	116.39
388.56	112.3
388.769	112.3
388.979	13.99
389.189	-33.11
389.399	50.86
389.609	95.91
389.818	134.82
390.028	52.91
390.238	30.38
390.447	16.04
390.657	93.87
390.867	-37.2
391.076	-41.3
391.286	104.11
391.496	38.57
391.705	54.95
391.915	153.26
392.125	110.25
392.334	-33.11
392.544	153.26
392.753	16.04
392.963	-22.87
393.172	75.43
393.382	-29.01
393.591	188.07
393.801	38.57
394.01	165.54
394.22	79.53
394.429	32.43
394.639	67.24
394.848	28.33
395.058	50.86
395.267	-72.02
395.477	57
395.686	-8.53
395.895	173.74
396.105	194.22
396.314	-22.87
396.524	-20.82
396.733	-14.68
396.942	42.67
397.152	149.16
397.361	110.25
397.57	73.39
397.78	69.29
397.989	-2.39
398.198	161.45
398.407	3.75
398.617	40.62
398.826	48.81
399.035	44.71
399.244	46.76
399.453	77.48
399.663	75.43
399.872	36.52
400.081	-92.5
400.29	120.49
400.499	-22.87
400.708	143.02
400.917	81.58
401.127	-41.3
401.336	-43.35
401.545	229.03
401.754	155.3
401.963	130.73
402.172	61.1
402.381	28.33
402.59	32.43
402.799	-2.39
403.008	108.2
403.217	116.39
403.426	-12.63
403.635	7.85
403.844	50.86
404.053	16.04
404.262	-67.92
404.471	206.5
404.68	79.53
404.888	3.75
405.097	-22.87
405.306	-6.49
405.515	116.39
405.724	54.95
405.933	145.06
406.142	63.15
406.35	177.83
406.559	73.39
406.768	18.09
406.977	173.74
407.185	18.09
407.394	138.92
407.603	-78.16
407.812	73.39
408.02	149.16
408.229	7.85
408.438	42.67
408.646	-55.64
408.855	57
409.064	63.15
409.272	-14.68
409.481	95.91
409.69	65.19
409.898	-12.63
410.107	116.39
410.315	112.3
410.524	1.71
410.733	-2.39
410.941	28.33
411.15	110.25
411.358	40.62
411.567	102.06
411.775	75.43
411.984	22.19
412.192	157.35
412.401	-29.01
412.609	165.54
412.818	65.19
413.026	65.19
413.234	77.48
413.443	40.62
413.651	-12.63
413.86	36.52
414.068	175.78
414.276	177.83
414.485	7.85
414.693	106.15
414.901	153.26
415.11	46.76
415.318	36.52
415.526	44.71
415.734	48.81
415.943	-26.96
416.151	126.63
416.359	120.49
416.567	116.39
416.776	151.21
416.984	100.01
417.192	159.4
417.4	34.47
417.608	7.85
417.817	-35.16
418.025	59.05
418.233	177.83
418.441	-33.11
418.649	-20.82
418.857	69.29
419.065	173.74
419.273	-8.53
419.481	102.06
419.689	32.43
419.897	-6.49
420.105	-45.4
420.313	61.1
420.521	173.74
420.729	102.06
420.937	75.43
421.145	-39.25
421.353	118.44
421.561	128.68
421.769	50.86
421.977	32.43
422.185	108.2
422.393	46.76
422.601	132.78
422.809	140.97
423.017	52.91
423.224	18.09
423.432	95.91
423.64	22.19
423.848	110.25
424.056	18.09
424.263	132.78
424.471	9.9
424.679	138.92
424.887	28.33
425.094	138.92
425.302	106.15
425.51	-29.01
425.718	116.39
425.925	102.06
426.133	-20.82
426.341	239.27
426.548	5.8
426.756	22.19
426.964	102.06
427.171	20.14
427.379	102.06
427.586	67.24
427.794	65.19
428.001	173.74
428.209	-47.44
428.417	161.45
428.624	91.82
428.832	132.78
429.039	122.54
429.247	149.16
429.454	91.82
429.662	194.22
429.869	65.19
430.076	59.05
430.284	138.92
430.491	108.2
430.699	130.73
430.906	259.75
431.114	77.48
431.321	159.4
431.528	89.77
431.736	46.76
431.943	161.45
432.15	149.16
432.358	143.02
432.565	183.98
432.772	54.95
432.979	239.27
433.187	179.88
433.394	292.52
433.601	118.44
433.808	194.22
434.016	216.74
434.223	224.94
434.43	214.7
434.637	239.27
434.844	267.94
435.052	239.27
435.259	261.8
435.466	233.13
435.673	247.46
435.88	294.57
436.087	347.81
436.294	382.63
436.501	265.89
436.708	310.95
436.915	253.61
437.122	386.72
437.329	255.65
437.537	370.34
437.743	370.34
437.95	452.26
438.157	403.11
438.364	403.11
438.571	429.73
438.778	444.07
438.985	437.92
439.192	532.13
439.399	528.03
439.606	485.03
439.813	552.61
440.02	667.3
440.227	659.1
440.433	614.05
440.64	630.43
440.847	556.71
441.054	642.72
441.261	745.12
441.467	681.63
441.674	669.34
441.881	831.13
442.088	538.27
442.294	827.04
442.501	804.51
442.708	902.81
442.914	704.16
443.121	958.11
443.328	898.72
443.534	986.78
443.741	954.01
443.948	827.04
444.154	1021.6
444.361	1148.57
444.568	1074.84
444.774	1246.87
444.981	1095.32
445.187	1244.82
445.394	1310.36
445.6	1218.2
445.807	1445.52
446.013	1379.99
446.22	1367.7
446.426	1506.96
446.633	1627.79
446.839	1666.71
447.046	1560.21
447.252	1879.69
447.459	1689.23
447.665	1824.4
447.871	1928.85
448.078	2076.3
448.284	2021
448.491	2207.37
448.697	2317.96
448.903	2342.53
449.11	2541.19
449.316	2358.92
449.522	2553.48
449.728	2639.49
449.935	2657.92
450.141	2774.66
450.347	2958.97
450.553	2975.36
450.76	3118.72
450.966	3065.47
451.172	3233.4
451.378	3329.66
451.584	3522.16
451.791	3624.56
451.997	3731.06
452.203	3851.89
452.409	4087.4
452.615	4269.67
452.821	4177.51
453.027	4202.09
453.233	4730.47
453.44	4679.27
453.646	4849.25
453.852	5074.53
454.058	5287.51
454.264	5260.89
454.47	5875.28
454.676	5926.48
454.882	6276.68
455.088	5918.29
455.294	6432.33
455.5	6719.04
455.705	7161.41
455.911	7138.88
456.117	7337.53
456.323	7753.27
456.529	7878.19
456.735	8326.7
456.941	8465.96
457.147	8807.97
457.352	9078.3
457.558	9385.5
457.764	10038.8
457.97	10280.46
458.176	10755.59
458.381	11341.31
458.587	11165.18
458.793	12056.05
458.999	11988.47
459.204	13354.46
459.41	13944.28
459.616	13796.82
459.821	14591.44
460.027	15197.63
460.233	15846.84
460.438	16022.97
460.644	17005.99
460.85	16848.3
461.055	17702.3
461.261	18517.39
461.466	18097.56
461.672	18640.27
461.878	20739.44
462.083	20428.15
462.289	20950.38
462.494	21427.56
462.7	21972.32
462.905	21878.11
463.111	24147.26
463.316	25036.08
463.522	25918.75
463.727	26316.06
463.932	27571.46
464.138	28325.11
464.343	29633.77
464.549	29900
464.754	31933.64
464.959	32412.86
465.165	33289.39
465.37	32732.34
465.575	33113.27
465.781	35071.12
465.986	36170.88
466.191	35609.74
466.397	35894.41
466.602	34825.37
466.807	36891.77
467.012	38001.77
467.218	38284.39
467.423	38265.95
467.628	39498.83
467.833	41579.57
468.038	40752.19
468.244	40238.15
468.449	41882.67
468.654	41149.49
