Data from USB4F104151__77__09-30-13-490.txt Node

Date: Wed Feb 26 09:30:13 EST 2025
User: louis
Spectrometer: USB4F10415
Trigger mode: 4
Integration Time (sec): 1.000000E-1
Scans to average: 1
Electric dark correction enabled: true
Nonlinearity correction enabled: false
Boxcar width: 0
XAxis mode: Wavelengths
Number of Pixels in Spectrum: 3648
>>>>>Begin Spectral Data<<<<<
178.204	-430.59
178.424	-430.59
178.644	-430.59
178.864	-334.33
179.084	-377.34
179.304	-57.86
179.524	-14.85
179.744	-72.19
179.964	103.93
180.184	38.4
180.404	52.74
180.624	3.58
180.844	11.78
181.064	-43.52
181.283	62.98
181.503	-107.01
181.723	22.02
181.943	-123.39
182.163	79.36
182.383	56.83
182.602	40.45
182.822	97.79
183.042	-10.75
183.262	22.02
183.482	15.87
183.701	62.98
183.921	163.33
184.141	-12.8
184.361	128.51
184.58	9.73
184.8	36.35
185.02	26.11
185.239	128.51
185.459	24.06
185.679	120.32
185.898	-31.23
186.118	36.35
186.338	-10.75
186.557	87.55
186.777	28.16
186.997	-37.38
187.216	56.83
187.436	187.9
187.655	24.06
187.875	108.03
188.095	79.36
188.314	103.93
188.534	97.79
188.753	3.58
188.973	148.99
189.192	126.46
189.412	17.92
189.631	69.12
189.851	95.74
190.07	161.28
190.29	-66.05
190.509	7.68
190.729	13.82
190.948	89.6
191.168	284.16
191.387	73.21
191.607	7.68
191.826	36.35
192.045	40.45
192.265	9.73
192.484	81.41
192.704	-4.61
192.923	-66.05
193.142	251.39
193.362	105.98
193.581	89.6
193.8	110.08
194.02	194.05
194.239	34.3
194.458	69.12
194.678	7.68
194.897	30.21
195.116	17.92
195.335	65.02
195.555	110.08
195.774	50.69
195.993	120.32
196.212	-18.94
196.432	40.45
196.651	-2.56
196.87	32.26
197.089	189.95
197.308	105.98
197.528	40.45
197.747	-61.95
197.966	46.59
198.185	122.37
198.404	-27.14
198.623	136.7
198.842	87.55
199.062	144.89
199.281	-10.75
199.5	75.26
199.719	19.97
199.938	58.88
200.157	50.69
200.376	103.93
200.595	179.71
200.814	114.17
201.033	32.26
201.252	122.37
201.471	32.26
201.69	79.36
201.909	83.45
202.128	99.84
202.347	118.27
202.566	-20.99
202.785	-41.47
203.004	-72.19
203.223	245.24
203.442	26.11
203.661	-66.05
203.879	32.26
204.098	128.51
204.317	-31.23
204.536	114.17
204.755	114.17
204.974	83.45
205.193	-35.33
205.411	134.65
205.63	67.07
205.849	13.82
206.068	56.83
206.287	15.87
206.505	124.41
206.724	-4.61
206.943	-16.9
207.162	-33.28
207.381	28.16
207.599	38.4
207.818	48.64
208.037	36.35
208.255	-10.75
208.474	38.4
208.693	26.11
208.911	85.5
209.13	36.35
209.349	-0.51
209.567	69.12
209.786	114.17
210.005	103.93
210.223	3.58
210.442	-102.91
210.661	48.64
210.879	99.84
211.098	97.79
211.316	5.63
211.535	134.65
211.753	11.78
211.972	38.4
212.191	7.68
212.409	40.45
212.628	73.21
212.846	-20.99
213.065	101.89
213.283	114.17
213.502	48.64
213.72	34.3
213.938	-25.09
214.157	44.54
214.375	120.32
214.594	32.26
214.812	81.41
215.031	-41.47
215.249	56.83
215.467	97.79
215.686	48.64
215.904	69.12
216.122	112.13
216.341	187.9
216.559	89.6
216.778	122.37
216.996	114.17
217.214	48.64
217.432	-0.51
217.651	-6.66
217.869	40.45
218.087	7.68
218.306	-27.14
218.524	77.31
218.742	46.59
218.96	89.6
219.179	30.21
219.397	50.69
219.615	165.37
219.833	65.02
220.051	46.59
220.27	34.3
220.488	144.89
220.706	48.64
220.924	-20.99
221.142	-27.14
221.36	32.26
221.578	120.32
221.796	17.92
222.015	48.64
222.233	44.54
222.451	124.41
222.669	5.63
222.887	3.58
223.105	-45.57
223.323	-55.81
223.541	40.45
223.759	22.02
223.977	34.3
224.195	85.5
224.413	56.83
224.631	46.59
224.849	5.63
225.067	159.23
225.285	13.82
225.503	32.26
225.721	-10.75
225.939	24.06
226.157	54.78
226.375	105.98
226.592	-57.86
226.81	-45.57
227.028	65.02
227.246	118.27
227.464	46.59
227.682	105.98
227.9	151.04
228.117	28.16
228.335	32.26
228.553	120.32
228.771	-37.38
228.989	19.97
229.206	67.07
229.424	-4.61
229.642	26.11
229.86	-18.94
230.077	48.64
230.295	26.11
230.513	60.93
230.731	54.78
230.948	148.99
231.166	112.13
231.384	28.16
231.601	44.54
231.819	44.54
232.037	15.87
232.254	-35.33
232.472	60.93
232.689	-57.86
232.907	73.21
233.125	22.02
233.342	1.54
233.56	-25.09
233.777	46.59
233.995	38.4
234.213	130.56
234.43	89.6
234.648	-20.99
234.865	11.78
235.083	124.41
235.3	48.64
235.518	165.37
235.735	81.41
235.953	11.78
236.17	67.07
236.388	-47.62
236.605	48.64
236.822	87.55
237.04	103.93
237.257	62.98
237.475	17.92
237.692	81.41
237.909	-6.66
238.127	-43.52
238.344	46.59
238.562	19.97
238.779	-74.24
238.996	-18.94
239.214	54.78
239.431	108.03
239.648	58.88
239.865	108.03
240.083	87.55
240.3	-55.81
240.517	5.63
240.735	9.73
240.952	101.89
241.169	81.41
241.386	132.61
241.603	-41.47
241.821	24.06
242.038	26.11
242.255	56.83
242.472	-16.9
242.689	105.98
242.907	87.55
243.124	36.35
243.341	56.83
243.558	-16.9
243.775	-68.09
243.992	24.06
244.209	110.08
244.426	155.13
244.643	95.74
244.86	-4.61
245.078	130.56
245.295	48.64
245.512	19.97
245.729	19.97
245.946	28.16
246.163	83.45
246.38	32.26
246.597	46.59
246.814	5.63
247.031	81.41
247.248	36.35
247.464	56.83
247.681	-10.75
247.898	97.79
248.115	71.17
248.332	32.26
248.549	81.41
248.766	228.86
248.983	75.26
249.2	32.26
249.417	3.58
249.633	36.35
249.85	-20.99
250.067	44.54
250.284	15.87
250.501	93.69
250.717	13.82
250.934	-0.51
251.151	87.55
251.368	34.3
251.585	99.84
251.801	22.02
252.018	42.5
252.235	89.6
252.451	-88.57
252.668	48.64
252.885	38.4
253.102	65.02
253.318	28.16
253.535	-43.52
253.752	5.63
253.968	128.51
254.185	-47.62
254.401	58.88
254.618	26.11
254.835	-8.7
255.051	112.13
255.268	65.02
255.484	32.26
255.701	48.64
255.917	73.21
256.134	-6.66
256.351	-29.18
256.567	-49.66
256.784	13.82
257	-2.56
257.217	52.74
257.433	65.02
257.65	56.83
257.866	114.17
258.082	-37.38
258.299	-27.14
258.515	13.82
258.732	56.83
258.948	48.64
259.165	48.64
259.381	-57.86
259.597	124.41
259.814	24.06
260.03	19.97
260.246	97.79
260.463	85.5
260.679	97.79
260.895	17.92
261.112	-20.99
261.328	17.92
261.544	62.98
261.761	146.94
261.977	5.63
262.193	13.82
262.409	71.17
262.626	114.17
262.842	-4.61
263.058	19.97
263.274	103.93
263.49	-18.94
263.707	153.09
263.923	124.41
264.139	-53.76
264.355	-33.28
264.571	153.09
264.787	40.45
265.004	151.04
265.22	9.73
265.436	54.78
265.652	-57.86
265.868	65.02
266.084	-33.28
266.3	79.36
266.516	-10.75
266.732	-35.33
266.948	7.68
267.164	15.87
267.38	122.37
267.596	52.74
267.812	93.69
268.028	52.74
268.244	44.54
268.46	44.54
268.676	19.97
268.892	7.68
269.108	-35.33
269.324	15.87
269.54	-12.8
269.756	44.54
269.972	24.06
270.188	19.97
270.403	-25.09
270.619	42.5
270.835	105.98
271.051	7.68
271.267	-16.9
271.483	-82.43
271.698	85.5
271.914	69.12
272.13	56.83
272.346	87.55
272.562	87.55
272.777	50.69
272.993	15.87
273.209	87.55
273.425	110.08
273.64	-70.14
273.856	65.02
274.072	22.02
274.287	17.92
274.503	103.93
274.719	69.12
274.934	-49.66
275.15	-74.24
275.366	24.06
275.581	-0.51
275.797	34.3
276.012	85.5
276.228	-25.09
276.444	-6.66
276.659	58.88
276.875	-43.52
277.09	3.58
277.306	5.63
277.521	89.6
277.737	-37.38
277.952	11.78
278.168	89.6
278.383	36.35
278.599	32.26
278.814	38.4
279.03	87.55
279.245	153.09
279.461	69.12
279.676	60.93
279.892	-20.99
280.107	36.35
280.322	-27.14
280.538	99.84
280.753	-27.14
280.969	89.6
281.184	65.02
281.399	136.7
281.615	30.21
281.83	44.54
282.045	-14.85
282.26	-61.95
282.476	-39.42
282.691	171.52
282.906	89.6
283.122	17.92
283.337	-25.09
283.552	24.06
283.767	19.97
283.983	50.69
284.198	-0.51
284.413	122.37
284.628	-88.57
284.843	81.41
285.058	73.21
285.274	19.97
285.489	-45.57
285.704	122.37
285.919	3.58
286.134	40.45
286.349	40.45
286.564	81.41
286.779	97.79
286.995	-35.33
287.21	-51.71
287.425	48.64
287.64	50.69
287.855	81.41
288.07	-14.85
288.285	138.75
288.5	114.17
288.715	24.06
288.93	36.35
289.145	3.58
289.36	140.8
289.575	-2.56
289.79	101.89
290.004	30.21
290.219	132.61
290.434	-37.38
290.649	7.68
290.864	138.75
291.079	40.45
291.294	50.69
291.509	34.3
291.724	26.11
291.938	-25.09
292.153	69.12
292.368	-25.09
292.583	101.89
292.798	65.02
293.012	9.73
293.227	81.41
293.442	-0.51
293.657	126.46
293.871	-23.04
294.086	105.98
294.301	165.37
294.516	142.85
294.73	42.5
294.945	-59.9
295.16	22.02
295.374	101.89
295.589	79.36
295.804	120.32
296.018	38.4
296.233	67.07
296.447	44.54
296.662	1.54
296.877	91.65
297.091	44.54
297.306	48.64
297.52	56.83
297.735	58.88
297.949	69.12
298.164	13.82
298.378	26.11
298.593	-51.71
298.807	24.06
299.022	34.3
299.236	101.89
299.451	73.21
299.665	56.83
299.88	-25.09
300.094	44.54
300.309	19.97
300.523	15.87
300.737	48.64
300.952	28.16
301.166	-4.61
301.381	69.12
301.595	3.58
301.809	-2.56
302.024	-49.66
302.238	75.26
302.452	130.56
302.667	46.59
302.881	28.16
303.095	105.98
303.309	17.92
303.524	-16.9
303.738	24.06
303.952	38.4
304.166	-14.85
304.381	-61.95
304.595	97.79
304.809	-14.85
305.023	19.97
305.237	-4.61
305.452	13.82
305.666	79.36
305.88	38.4
306.094	116.22
306.308	44.54
306.522	62.98
306.736	65.02
306.95	34.3
307.164	40.45
307.379	87.55
307.593	155.13
307.807	60.93
308.021	91.65
308.235	1.54
308.449	1.54
308.663	3.58
308.877	157.18
309.091	48.64
309.305	95.74
309.519	-14.85
309.733	65.02
309.947	-43.52
310.161	95.74
310.374	73.21
310.588	34.3
310.802	-45.57
311.016	5.63
311.23	101.89
311.444	22.02
311.658	103.93
311.872	95.74
312.085	75.26
312.299	157.18
312.513	85.5
312.727	46.59
312.941	19.97
313.154	44.54
313.368	87.55
313.582	85.5
313.796	97.79
314.009	50.69
314.223	73.21
314.437	44.54
314.651	103.93
314.864	19.97
315.078	44.54
315.292	-12.8
315.505	-35.33
315.719	81.41
315.933	32.26
316.146	32.26
316.36	-25.09
316.573	97.79
316.787	5.63
317.001	101.89
317.214	-64
317.428	15.87
317.641	19.97
317.855	-86.53
318.068	36.35
318.282	73.21
318.495	138.75
318.709	36.35
318.922	13.82
319.136	118.27
319.349	24.06
319.563	58.88
319.776	1.54
319.99	-10.75
320.203	105.98
320.417	-43.52
320.63	114.17
320.843	179.71
321.057	110.08
321.27	87.55
321.483	65.02
321.697	73.21
321.91	-35.33
322.124	50.69
322.337	46.59
322.55	56.83
322.763	-12.8
322.977	-16.9
323.19	71.17
323.403	1.54
323.617	15.87
323.83	159.23
324.043	19.97
324.256	67.07
324.469	-74.24
324.683	138.75
324.896	-43.52
325.109	-39.42
325.322	17.92
325.535	97.79
325.748	38.4
325.962	71.17
326.175	32.26
326.388	44.54
326.601	101.89
326.814	9.73
327.027	83.45
327.24	103.93
327.453	-43.52
327.666	34.3
327.879	161.28
328.092	69.12
328.305	65.02
328.518	9.73
328.731	-20.99
328.944	75.26
329.157	22.02
329.37	56.83
329.583	105.98
329.796	159.23
330.009	-10.75
330.222	65.02
330.435	75.26
330.648	36.35
330.861	69.12
331.073	114.17
331.286	83.45
331.499	48.64
331.712	-2.56
331.925	36.35
332.138	71.17
332.35	48.64
332.563	-2.56
332.776	83.45
332.989	32.26
333.202	32.26
333.414	-14.85
333.627	46.59
333.84	-43.52
334.053	26.11
334.265	-33.28
334.478	-64
334.691	15.87
334.903	42.5
335.116	9.73
335.329	65.02
335.541	19.97
335.754	136.7
335.966	-37.38
336.179	-16.9
336.392	30.21
336.604	-72.19
336.817	118.27
337.029	17.92
337.242	144.89
337.454	52.74
337.667	65.02
337.88	95.74
338.092	103.93
338.305	89.6
338.517	32.26
338.729	52.74
338.942	202.24
339.154	36.35
339.367	-66.05
339.579	114.17
339.792	-31.23
340.004	130.56
340.217	-6.66
340.429	-4.61
340.641	-2.56
340.854	-23.04
341.066	-53.76
341.278	79.36
341.491	97.79
341.703	9.73
341.915	36.35
342.128	136.7
342.34	36.35
342.552	15.87
342.764	48.64
342.977	48.64
343.189	-0.51
343.401	13.82
343.613	-23.04
343.826	36.35
344.038	-18.94
344.25	-6.66
344.462	13.82
344.674	24.06
344.886	-16.9
345.099	93.69
345.311	122.37
345.523	-45.57
345.735	-86.53
345.947	40.45
346.159	7.68
346.371	91.65
346.583	-68.09
346.795	126.46
347.007	-4.61
347.219	32.26
347.431	65.02
347.643	103.93
347.855	-8.7
348.067	134.65
348.279	-16.9
348.491	85.5
348.703	87.55
348.915	46.59
349.127	-57.86
349.339	24.06
349.551	-4.61
349.763	36.35
349.975	93.69
350.187	116.22
350.399	97.79
350.61	65.02
350.822	7.68
351.034	15.87
351.246	46.59
351.458	99.84
351.669	99.84
351.881	75.26
352.093	85.5
352.305	11.78
352.517	-45.57
352.728	122.37
352.94	-8.7
353.152	67.07
353.363	-23.04
353.575	83.45
353.787	157.18
353.999	124.41
354.21	192
354.422	-10.75
354.633	-0.51
354.845	15.87
355.057	40.45
355.268	73.21
355.48	89.6
355.692	40.45
355.903	91.65
356.115	-23.04
356.326	-29.18
356.538	124.41
356.749	7.68
356.961	151.04
357.172	-78.33
357.384	26.11
357.595	245.24
357.807	17.92
358.018	-102.91
358.23	15.87
358.441	138.75
358.653	54.78
358.864	-10.75
359.075	-47.62
359.287	17.92
359.498	71.17
359.709	112.13
359.921	44.54
360.132	22.02
360.344	-4.61
360.555	48.64
360.766	-4.61
360.977	-51.71
361.189	122.37
361.4	24.06
361.611	116.22
361.823	118.27
362.034	97.79
362.245	-152.06
362.456	46.59
362.667	89.6
362.879	-20.99
363.09	15.87
363.301	13.82
363.512	-49.66
363.723	-6.66
363.935	73.21
364.146	-16.9
364.357	69.12
364.568	73.21
364.779	-16.9
364.99	118.27
365.201	15.87
365.412	114.17
365.623	-74.24
365.834	81.41
366.045	-16.9
366.256	1.54
366.467	110.08
366.678	32.26
366.889	67.07
367.1	-29.18
367.311	99.84
367.522	44.54
367.733	91.65
367.944	30.21
368.155	40.45
368.366	-10.75
368.577	30.21
368.788	87.55
368.999	40.45
369.209	36.35
369.42	196.09
369.631	263.68
369.842	75.26
370.053	-6.66
370.264	136.7
370.474	-37.38
370.685	15.87
370.896	3.58
371.107	101.89
371.317	28.16
371.528	112.13
371.739	60.93
371.95	112.13
372.16	24.06
372.371	19.97
372.582	15.87
372.792	56.83
373.003	122.37
373.214	9.73
373.424	89.6
373.635	-55.81
373.846	87.55
374.056	50.69
374.267	3.58
374.477	22.02
374.688	-94.72
374.898	52.74
375.109	50.69
375.319	54.78
375.53	177.66
375.74	118.27
375.951	-20.99
376.161	81.41
376.372	105.98
376.582	-2.56
376.793	48.64
377.003	22.02
377.214	-6.66
377.424	52.74
377.635	1.54
377.845	32.26
378.055	114.17
378.266	-84.48
378.476	69.12
378.686	-0.51
378.897	169.47
379.107	46.59
379.317	87.55
379.528	56.83
379.738	124.41
379.948	58.88
380.158	101.89
380.369	30.21
380.579	110.08
380.789	24.06
380.999	142.85
381.21	30.21
381.42	163.33
381.63	62.98
381.84	177.66
382.05	32.26
382.261	-0.51
382.471	173.57
382.681	-2.56
382.891	122.37
383.101	52.74
383.311	-16.9
383.521	36.35
383.731	65.02
383.941	24.06
384.151	79.36
384.361	-6.66
384.571	81.41
384.781	32.26
384.991	122.37
385.201	165.37
385.411	36.35
385.621	38.4
385.831	91.65
386.041	24.06
386.251	48.64
386.461	118.27
386.671	22.02
386.881	40.45
387.091	3.58
387.301	130.56
387.511	65.02
387.72	22.02
387.93	75.26
388.14	-41.47
388.35	69.12
388.56	69.12
388.769	126.46
388.979	28.16
389.189	-78.33
389.399	15.87
389.609	120.32
389.818	89.6
390.028	24.06
390.238	22.02
390.447	13.82
390.657	138.75
390.867	-80.38
391.076	-18.94
391.286	-2.56
391.496	-49.66
391.705	26.11
391.915	179.71
392.125	124.41
392.334	-27.14
392.544	132.61
392.753	101.89
392.963	13.82
393.172	-10.75
393.382	-8.7
393.591	126.46
393.801	62.98
394.01	130.56
394.22	67.07
394.429	-6.66
394.639	69.12
394.848	19.97
395.058	108.03
395.267	-57.86
395.477	32.26
395.686	-4.61
395.895	89.6
396.105	124.41
396.314	54.78
396.524	28.16
396.733	-27.14
396.942	48.64
397.152	5.63
397.361	112.13
397.57	101.89
397.78	54.78
397.989	-8.7
398.198	177.66
398.407	46.59
398.617	32.26
398.826	-14.85
399.035	58.88
399.244	138.75
399.453	56.83
399.663	-6.66
399.872	38.4
400.081	-51.71
400.29	85.5
400.499	-10.75
400.708	126.46
400.917	19.97
401.127	-29.18
401.336	79.36
401.545	165.37
401.754	130.56
401.963	126.46
402.172	79.36
402.381	-64
402.59	44.54
402.799	69.12
403.008	126.46
403.217	97.79
403.426	91.65
403.635	-55.81
403.844	7.68
404.053	1.54
404.262	-4.61
404.471	204.28
404.68	24.06
404.888	13.82
405.097	-8.7
405.306	71.17
405.515	77.31
405.724	71.17
405.933	101.89
406.142	1.54
406.35	132.61
406.559	48.64
406.768	112.13
406.977	210.43
407.185	28.16
407.394	62.98
407.603	-33.28
407.812	99.84
408.02	167.42
408.229	-6.66
408.438	-0.51
408.646	3.58
408.855	38.4
409.064	73.21
409.272	32.26
409.481	103.93
409.69	-51.71
409.898	19.97
410.107	34.3
410.315	151.04
410.524	-41.47
410.733	13.82
410.941	-23.04
411.15	52.74
411.358	50.69
411.567	138.75
411.775	73.21
411.984	54.78
412.192	60.93
412.401	5.63
412.609	144.89
412.818	105.98
413.026	46.59
413.234	-8.7
413.443	40.45
413.651	-25.09
413.86	-2.56
414.068	179.71
414.276	65.02
414.485	-43.52
414.693	124.41
414.901	187.9
415.11	24.06
415.318	134.65
415.526	24.06
415.734	138.75
415.943	11.78
416.151	73.21
416.359	30.21
416.567	73.21
416.776	122.37
416.984	118.27
417.192	167.42
417.4	5.63
417.608	56.83
417.817	-86.53
418.025	56.83
418.233	130.56
418.441	40.45
418.649	19.97
418.857	54.78
419.065	103.93
419.273	40.45
419.481	101.89
419.689	24.06
419.897	44.54
420.105	-43.52
420.313	132.61
420.521	22.02
420.729	91.65
420.937	5.63
421.145	-96.77
421.353	163.33
421.561	196.09
421.769	56.83
421.977	-25.09
422.185	99.84
422.393	32.26
422.601	192
422.809	48.64
423.017	36.35
423.224	83.45
423.432	81.41
423.64	36.35
423.848	120.32
424.056	110.08
424.263	44.54
424.471	60.93
424.679	114.17
424.887	19.97
425.094	151.04
425.302	85.5
425.51	95.74
425.718	48.64
425.925	1.54
426.133	1.54
426.341	189.95
426.548	-41.47
426.756	9.73
426.964	54.78
427.171	7.68
427.379	85.5
427.586	65.02
427.794	81.41
428.001	69.12
428.209	144.89
428.417	194.05
428.624	155.13
428.832	198.14
429.039	-10.75
429.247	48.64
429.454	46.59
429.662	144.89
429.869	40.45
430.076	24.06
430.284	89.6
430.491	169.47
430.699	73.21
430.906	142.85
431.114	69.12
431.321	146.94
431.528	89.6
431.736	136.7
431.943	56.83
432.15	173.57
432.358	157.18
432.565	159.23
432.772	-66.05
432.979	181.76
433.187	-16.9
433.394	192
433.601	48.64
433.808	122.37
434.016	153.09
434.223	146.94
434.43	95.74
434.637	171.52
434.844	185.85
435.052	171.52
435.259	165.37
435.466	243.2
435.673	120.32
435.88	232.96
436.087	232.96
436.294	232.96
436.501	241.15
436.708	126.46
436.915	269.82
437.122	206.33
437.329	245.24
437.537	253.44
437.743	237.05
437.95	220.67
438.157	212.48
438.364	255.48
438.571	212.48
438.778	228.86
438.985	335.35
439.192	230.91
439.399	337.4
439.606	269.82
439.813	335.35
440.02	370.17
440.227	527.86
440.433	396.79
440.64	409.08
440.847	349.69
441.054	429.56
441.261	544.25
441.467	433.66
441.674	382.46
441.881	450.04
442.088	413.18
442.294	536.06
442.501	556.54
442.708	564.73
442.914	550.39
443.121	597.49
443.328	634.36
443.534	568.82
443.741	572.92
443.948	517.62
444.154	720.37
444.361	771.57
444.568	687.61
444.774	734.71
444.981	605.69
445.187	835.06
445.394	763.38
445.6	851.44
445.807	943.6
446.013	921.07
446.22	693.75
446.426	816.63
446.633	1019.38
446.839	998.9
447.046	947.7
447.252	1115.63
447.459	1048.05
447.665	1029.62
447.871	1187.31
448.078	1338.86
448.284	1244.65
448.491	1304.04
448.697	1355.24
448.903	1439.21
449.11	1392.11
449.316	1426.92
449.522	1539.56
449.728	1471.98
449.935	1742.31
450.141	1623.53
450.347	1832.42
450.553	1785.32
450.76	1805.8
450.966	1965.54
451.172	2012.64
451.378	2080.22
451.584	2072.03
451.791	2221.53
451.997	2260.45
452.203	2223.58
452.409	2379.23
452.615	2608.6
452.821	2551.26
453.027	2594.26
453.233	2917.84
453.44	2657.75
453.646	2964.95
453.852	3030.48
454.058	3136.98
454.264	3190.22
454.47	3591.63
454.676	3474.89
454.882	3775.94
455.088	3546.57
455.294	3784.13
455.5	4076.99
455.705	4308.41
455.911	4335.04
456.117	4425.15
456.323	4660.66
456.529	4709.82
456.735	4988.34
456.941	5191.09
457.147	5543.34
457.352	5500.33
457.558	5658.03
457.764	5914.02
457.97	6114.72
458.176	6315.42
458.381	6700.44
458.587	6886.81
458.793	7165.33
458.999	7089.56
459.204	8123.78
459.41	8250.75
459.616	8334.72
459.821	8549.76
460.027	9141.62
460.233	9411.95
460.438	9303.41
460.644	10100.07
460.85	10311.01
461.055	10323.3
461.261	10970.46
461.466	10870.11
461.672	11003.22
461.878	12232.01
462.083	12186.95
462.289	12528.96
462.494	12877.12
462.7	13163.83
462.905	13270.33
463.111	14222.63
463.316	14615.84
463.522	15291.67
463.727	15688.98
463.932	16360.71
464.138	16852.22
464.343	17499.38
464.549	17825.01
464.754	19076.32
464.959	19074.27
465.165	19825.87
465.37	19641.56
465.575	19811.54
465.781	20942.02
465.986	21566.65
466.191	21206.2
466.397	21462.2
466.602	20804.8
466.807	22330.54
467.012	22561.96
467.218	22787.24
467.423	23198.88
467.628	23938.19
467.833	24925.32
468.038	24165.52
468.244	24265.87
468.449	25465.98
468.654	24632.46
468.859	24904.84
469.064	24921.22
469.269	24241.29
469.474	24544.39
