Data from USB4F104151__2__09-24-15-729.txt Node

Date: Wed Feb 26 09:24:15 EST 2025
User: louis
Spectrometer: USB4F10415
Trigger mode: 4
Integration Time (sec): 1.000000E-1
Scans to average: 1
Electric dark correction enabled: true
Nonlinearity correction enabled: false
Boxcar width: 0
XAxis mode: Wavelengths
Number of Pixels in Spectrum: 3648
>>>>>Begin Spectral Data<<<<<
178.204	-291.32
178.424	-291.32
178.644	-291.32
178.864	-248.32
179.084	-305.66
179.304	-8.7
179.524	-102.91
179.744	34.3
179.964	52.74
180.184	34.3
180.404	30.21
180.624	17.92
180.844	17.92
181.064	-61.95
181.283	17.92
181.503	-25.09
181.723	-6.66
181.943	-135.68
182.163	161.28
182.383	-2.56
182.602	93.69
182.822	138.75
183.042	73.21
183.262	13.82
183.482	46.59
183.701	101.89
183.921	69.12
184.141	58.88
184.361	110.08
184.58	26.11
184.8	36.35
185.02	26.11
185.239	71.17
185.459	93.69
185.679	167.42
185.898	-90.62
186.118	97.79
186.338	75.26
186.557	146.94
186.777	11.78
186.997	-8.7
187.216	32.26
187.436	163.33
187.655	93.69
187.875	69.12
188.095	44.54
188.314	73.21
188.534	110.08
188.753	1.54
188.973	32.26
189.192	165.37
189.412	36.35
189.631	50.69
189.851	50.69
190.07	140.8
190.29	-12.8
190.509	19.97
190.729	-0.51
190.948	157.18
191.168	290.3
191.387	132.61
191.607	75.26
191.826	56.83
192.045	22.02
192.265	19.97
192.484	81.41
192.704	67.07
192.923	-20.99
193.142	177.66
193.362	95.74
193.581	142.85
193.8	-14.85
194.02	97.79
194.239	5.63
194.458	97.79
194.678	60.93
194.897	19.97
195.116	67.07
195.335	114.17
195.555	22.02
195.774	3.58
195.993	52.74
196.212	40.45
196.432	34.3
196.651	3.58
196.87	73.21
197.089	247.29
197.308	122.37
197.528	69.12
197.747	-72.19
197.966	9.73
198.185	97.79
198.404	44.54
198.623	65.02
198.842	126.46
199.062	142.85
199.281	60.93
199.5	67.07
199.719	26.11
199.938	24.06
200.157	103.93
200.376	99.84
200.595	130.56
200.814	42.5
201.033	1.54
201.252	110.08
201.471	-6.66
201.69	91.65
201.909	40.45
202.128	77.31
202.347	52.74
202.566	97.79
202.785	26.11
203.004	-29.18
203.223	173.57
203.442	52.74
203.661	9.73
203.879	73.21
204.098	185.85
204.317	-6.66
204.536	167.42
204.755	77.31
204.974	91.65
205.193	-0.51
205.411	175.61
205.63	108.03
205.849	99.84
206.068	83.45
206.287	36.35
206.505	148.99
206.724	58.88
206.943	-10.75
207.162	36.35
207.381	89.6
207.599	-4.61
207.818	44.54
208.037	36.35
208.255	17.92
208.474	87.55
208.693	60.93
208.911	30.21
209.13	148.99
209.349	28.16
209.567	56.83
209.786	101.89
210.005	108.03
210.223	-0.51
210.442	-20.99
210.661	26.11
210.879	52.74
211.098	34.3
211.316	93.69
211.535	87.55
211.753	5.63
211.972	46.59
212.191	-4.61
212.409	42.5
212.628	93.69
212.846	85.5
213.065	69.12
213.283	122.37
213.502	87.55
213.72	13.82
213.938	52.74
214.157	69.12
214.375	54.78
214.594	36.35
214.812	93.69
215.031	62.98
215.249	36.35
215.467	116.22
215.686	97.79
215.904	58.88
216.122	87.55
216.341	83.45
216.559	83.45
216.778	110.08
216.996	93.69
217.214	17.92
217.432	110.08
217.651	-29.18
217.869	110.08
218.087	65.02
218.306	46.59
218.524	44.54
218.742	46.59
218.96	140.8
219.179	13.82
219.397	153.09
219.615	146.94
219.833	81.41
220.051	-72.19
220.27	110.08
220.488	93.69
220.706	97.79
220.924	-10.75
221.142	1.54
221.36	15.87
221.578	89.6
221.796	15.87
222.015	77.31
222.233	11.78
222.451	128.51
222.669	52.74
222.887	130.56
223.105	-2.56
223.323	-12.8
223.541	-20.99
223.759	56.83
223.977	40.45
224.195	259.58
224.413	62.98
224.631	122.37
224.849	69.12
225.067	187.9
225.285	-8.7
225.503	22.02
225.721	-53.76
225.939	17.92
226.157	122.37
226.375	189.95
226.592	11.78
226.81	-20.99
227.028	69.12
227.246	142.85
227.464	99.84
227.682	91.65
227.9	101.89
228.117	93.69
228.335	13.82
228.553	32.26
228.771	19.97
228.989	118.27
229.206	134.65
229.424	-20.99
229.642	54.78
229.86	-53.76
230.077	204.28
230.295	3.58
230.513	169.47
230.731	140.8
230.948	77.31
231.166	99.84
231.384	114.17
231.601	40.45
231.819	108.03
232.037	13.82
232.254	103.93
232.472	7.68
232.689	7.68
232.907	171.52
233.125	56.83
233.342	11.78
233.56	-45.57
233.777	58.88
233.995	48.64
234.213	67.07
234.43	134.65
234.648	77.31
234.865	9.73
235.083	93.69
235.3	60.93
235.518	101.89
235.735	85.5
235.953	118.27
236.17	67.07
236.388	50.69
236.605	81.41
236.822	142.85
237.04	91.65
237.257	81.41
237.475	-78.33
237.692	13.82
237.909	38.4
238.127	7.68
238.344	108.03
238.562	93.69
238.779	-16.9
238.996	1.54
239.214	-6.66
239.431	93.69
239.648	-27.14
239.865	103.93
240.083	173.57
240.3	-2.56
240.517	85.5
240.735	-59.9
240.952	181.76
241.169	130.56
241.386	134.65
241.603	-16.9
241.821	9.73
242.038	48.64
242.255	153.09
242.472	11.78
242.689	136.7
242.907	81.41
243.124	67.07
243.341	40.45
243.558	32.26
243.775	-29.18
243.992	-39.42
244.209	169.47
244.426	196.09
244.643	101.89
244.86	91.65
245.078	58.88
245.295	71.17
245.512	-0.51
245.729	-29.18
245.946	75.26
246.163	50.69
246.38	42.5
246.597	40.45
246.814	103.93
247.031	46.59
247.248	142.85
247.464	118.27
247.681	75.26
247.898	93.69
248.115	44.54
248.332	-8.7
248.549	101.89
248.766	167.42
248.983	103.93
249.2	62.98
249.417	99.84
249.633	44.54
249.85	126.46
250.067	-23.04
250.284	83.45
250.501	126.46
250.717	110.08
250.934	19.97
251.151	-14.85
251.368	40.45
251.585	85.5
251.801	24.06
252.018	5.63
252.235	65.02
252.451	-29.18
252.668	11.78
252.885	138.75
253.102	13.82
253.318	19.97
253.535	77.31
253.752	101.89
253.968	36.35
254.185	-51.71
254.401	48.64
254.618	79.36
254.835	62.98
255.051	126.46
255.268	48.64
255.484	112.13
255.701	89.6
255.917	65.02
256.134	-61.95
256.351	67.07
256.567	-6.66
256.784	69.12
257	-6.66
257.217	50.69
257.433	132.61
257.65	32.26
257.866	138.75
258.082	-4.61
258.299	24.06
258.515	28.16
258.732	58.88
258.948	50.69
259.165	130.56
259.381	-16.9
259.597	28.16
259.814	60.93
260.03	36.35
260.246	48.64
260.463	83.45
260.679	105.98
260.895	108.03
261.112	91.65
261.328	11.78
261.544	60.93
261.761	218.62
261.977	9.73
262.193	-86.53
262.409	28.16
262.626	112.13
262.842	42.5
263.058	-8.7
263.274	101.89
263.49	148.99
263.707	48.64
263.923	171.52
264.139	-64
264.355	38.4
264.571	183.81
264.787	69.12
265.004	159.23
265.22	130.56
265.436	-20.99
265.652	11.78
265.868	226.81
266.084	-33.28
266.3	85.5
266.516	-6.66
266.732	-31.23
266.948	85.5
267.164	19.97
267.38	99.84
267.596	71.17
267.812	99.84
268.028	77.31
268.244	-33.28
268.46	105.98
268.676	-6.66
268.892	177.66
269.108	11.78
269.324	56.83
269.54	-61.95
269.756	93.69
269.972	-4.61
270.188	56.83
270.403	-29.18
270.619	-27.14
270.835	134.65
271.051	69.12
271.267	13.82
271.483	28.16
271.698	71.17
271.914	-0.51
272.13	52.74
272.346	9.73
272.562	44.54
272.777	116.22
272.993	3.58
273.209	3.58
273.425	67.07
273.64	7.68
273.856	142.85
274.072	-37.38
274.287	77.31
274.503	1.54
274.719	194.05
274.934	65.02
275.15	-86.53
275.366	83.45
275.581	11.78
275.797	32.26
276.012	52.74
276.228	3.58
276.444	122.37
276.659	89.6
276.875	42.5
277.09	30.21
277.306	-23.04
277.521	89.6
277.737	91.65
277.952	134.65
278.168	22.02
278.383	28.16
278.599	34.3
278.814	118.27
279.03	13.82
279.245	126.46
279.461	34.3
279.676	89.6
279.892	3.58
280.107	-86.53
280.322	-12.8
280.538	151.04
280.753	75.26
280.969	93.69
281.184	19.97
281.399	175.61
281.615	83.45
281.83	-0.51
282.045	-53.76
282.26	7.68
282.476	118.27
282.691	169.47
282.906	-0.51
283.122	101.89
283.337	52.74
283.552	60.93
283.767	60.93
283.983	83.45
284.198	56.83
284.413	101.89
284.628	-0.51
284.843	95.74
285.058	167.42
285.274	69.12
285.489	5.63
285.704	142.85
285.919	-10.75
286.134	19.97
286.349	101.89
286.564	-0.51
286.779	138.75
286.995	-10.75
287.21	-35.33
287.425	58.88
287.64	19.97
287.855	103.93
288.07	-29.18
288.285	155.13
288.5	101.89
288.715	60.93
288.93	-29.18
289.145	22.02
289.36	81.41
289.575	1.54
289.79	118.27
290.004	69.12
290.219	161.28
290.434	22.02
290.649	69.12
290.864	32.26
291.079	15.87
291.294	19.97
291.509	15.87
291.724	28.16
291.938	83.45
292.153	58.88
292.368	62.98
292.583	44.54
292.798	44.54
293.012	93.69
293.227	122.37
293.442	7.68
293.657	38.4
293.871	73.21
294.086	103.93
294.301	179.71
294.516	77.31
294.73	30.21
294.945	-61.95
295.16	85.5
295.374	138.75
295.589	56.83
295.804	-70.14
296.018	69.12
296.233	118.27
296.447	73.21
296.662	-12.8
296.877	132.61
297.091	95.74
297.306	110.08
297.52	65.02
297.735	101.89
297.949	126.46
298.164	-20.99
298.378	79.36
298.593	1.54
298.807	-0.51
299.022	52.74
299.236	105.98
299.451	42.5
299.665	69.12
299.88	30.21
300.094	48.64
300.309	-53.76
300.523	46.59
300.737	9.73
300.952	15.87
301.166	77.31
301.381	-80.38
301.595	3.58
301.809	56.83
302.024	81.41
302.238	3.58
302.452	-0.51
302.667	58.88
302.881	91.65
303.095	28.16
303.309	89.6
303.524	-14.85
303.738	24.06
303.952	-8.7
304.166	44.54
304.381	-49.66
304.595	185.85
304.809	56.83
305.023	99.84
305.237	48.64
305.452	42.5
305.666	97.79
305.88	75.26
306.094	157.18
306.308	105.98
306.522	142.85
306.736	34.3
306.95	183.81
307.164	-4.61
307.379	99.84
307.593	173.57
307.807	192
308.021	146.94
308.235	58.88
308.449	-82.43
308.663	50.69
308.877	159.23
309.091	108.03
309.305	163.33
309.519	-66.05
309.733	151.04
309.947	-76.29
310.161	132.61
310.374	73.21
310.588	239.1
310.802	-86.53
311.016	50.69
311.23	91.65
311.444	-53.76
311.658	99.84
311.872	116.22
312.085	196.09
312.299	165.37
312.513	175.61
312.727	105.98
312.941	-29.18
313.154	108.03
313.368	36.35
313.582	79.36
313.796	65.02
314.009	91.65
314.223	79.36
314.437	81.41
314.651	81.41
314.864	32.26
315.078	3.58
315.292	-68.09
315.505	22.02
315.719	83.45
315.933	93.69
316.146	44.54
316.36	50.69
316.573	185.85
316.787	60.93
317.001	73.21
317.214	19.97
317.428	146.94
317.641	32.26
317.855	40.45
318.068	19.97
318.282	26.11
318.495	222.72
318.709	112.13
318.922	-0.51
319.136	175.61
319.349	163.33
319.563	36.35
319.776	171.52
319.99	-31.23
320.203	36.35
320.417	58.88
320.63	105.98
320.843	192
321.057	44.54
321.27	28.16
321.483	58.88
321.697	108.03
321.91	69.12
322.124	60.93
322.337	69.12
322.55	40.45
322.763	134.65
322.977	77.31
323.19	42.5
323.403	58.88
323.617	118.27
323.83	81.41
324.043	52.74
324.256	93.69
324.469	17.92
324.683	151.04
324.896	85.5
325.109	7.68
325.322	-14.85
325.535	81.41
325.748	159.23
325.962	52.74
326.175	17.92
326.388	52.74
326.601	159.23
326.814	75.26
327.027	91.65
327.24	206.33
327.453	60.93
327.666	75.26
327.879	140.8
328.092	44.54
328.305	-4.61
328.518	58.88
328.731	-18.94
328.944	-0.51
329.157	91.65
329.37	9.73
329.583	179.71
329.796	138.75
330.009	-39.42
330.222	132.61
330.435	114.17
330.648	69.12
330.861	19.97
331.073	54.78
331.286	105.98
331.499	44.54
331.712	34.3
331.925	85.5
332.138	122.37
332.35	128.51
332.563	-12.8
332.776	192
332.989	-25.09
333.202	-10.75
333.414	-0.51
333.627	11.78
333.84	67.07
334.053	65.02
334.265	-53.76
334.478	28.16
334.691	60.93
334.903	60.93
335.116	34.3
335.329	24.06
335.541	95.74
335.754	85.5
335.966	32.26
336.179	42.5
336.392	28.16
336.604	26.11
336.817	91.65
337.029	36.35
337.242	36.35
337.454	62.98
337.667	42.5
337.88	65.02
338.092	28.16
338.305	163.33
338.517	67.07
338.729	85.5
338.942	153.09
339.154	28.16
339.367	11.78
339.579	44.54
339.792	9.73
340.004	52.74
340.217	75.26
340.429	116.22
340.641	77.31
340.854	40.45
341.066	-25.09
341.278	101.89
341.491	181.76
341.703	97.79
341.915	-6.66
342.128	77.31
342.34	56.83
342.552	-2.56
342.764	77.31
342.977	77.31
343.189	155.13
343.401	69.12
343.613	22.02
343.826	71.17
344.038	-55.81
344.25	71.17
344.462	3.58
344.674	140.8
344.886	60.93
345.099	108.03
345.311	85.5
345.523	116.22
345.735	-29.18
345.947	73.21
346.159	5.63
346.371	128.51
346.583	30.21
346.795	232.96
347.007	95.74
347.219	103.93
347.431	52.74
347.643	110.08
347.855	60.93
348.067	120.32
348.279	-6.66
348.491	67.07
348.703	108.03
348.915	40.45
349.127	1.54
349.339	22.02
349.551	-23.04
349.763	34.3
349.975	69.12
350.187	32.26
350.399	157.18
350.61	34.3
350.822	26.11
351.034	65.02
351.246	99.84
351.458	36.35
351.669	56.83
351.881	71.17
352.093	159.23
352.305	140.8
352.517	50.69
352.728	85.5
352.94	77.31
353.152	44.54
353.363	-45.57
353.575	144.89
353.787	108.03
353.999	67.07
354.21	142.85
354.422	-16.9
354.633	-25.09
354.845	126.46
355.057	79.36
355.268	60.93
355.48	32.26
355.692	-37.38
355.903	101.89
356.115	42.5
356.326	-14.85
356.538	116.22
356.749	126.46
356.961	175.61
357.172	44.54
357.384	28.16
357.595	155.13
357.807	77.31
358.018	44.54
358.23	85.5
358.441	95.74
358.653	-2.56
358.864	26.11
359.075	-6.66
359.287	52.74
359.498	103.93
359.709	44.54
359.921	108.03
360.132	126.46
360.344	60.93
360.555	15.87
360.766	134.65
360.977	48.64
361.189	103.93
361.4	87.55
361.611	122.37
361.823	118.27
362.034	65.02
362.245	-0.51
362.456	97.79
362.667	67.07
362.879	3.58
363.09	73.21
363.301	73.21
363.512	85.5
363.723	65.02
363.935	17.92
364.146	101.89
364.357	108.03
364.568	97.79
364.779	-70.14
364.99	142.85
365.201	110.08
365.412	108.03
365.623	15.87
365.834	44.54
366.045	3.58
366.256	108.03
366.467	75.26
366.678	44.54
366.889	165.37
367.1	97.79
367.311	11.78
367.522	108.03
367.733	77.31
367.944	56.83
368.155	126.46
368.366	73.21
368.577	146.94
368.788	99.84
368.999	17.92
369.209	58.88
369.42	173.57
369.631	224.76
369.842	101.89
370.053	48.64
370.264	89.6
370.474	-14.85
370.685	122.37
370.896	-29.18
371.107	153.09
371.317	7.68
371.528	75.26
371.739	93.69
371.95	114.17
372.16	126.46
372.371	-39.42
372.582	97.79
372.792	83.45
373.003	87.55
373.214	3.58
373.424	79.36
373.635	-25.09
373.846	183.81
374.056	60.93
374.267	69.12
374.477	101.89
374.688	-23.04
374.898	11.78
375.109	144.89
375.319	142.85
375.53	97.79
375.74	148.99
375.951	17.92
376.161	32.26
376.372	175.61
376.582	91.65
376.793	77.31
377.003	-31.23
377.214	9.73
377.424	91.65
377.635	36.35
377.845	3.58
378.055	175.61
378.266	11.78
378.476	65.02
378.686	167.42
378.897	93.69
379.107	69.12
379.317	110.08
379.528	65.02
379.738	28.16
379.948	-14.85
380.158	108.03
380.369	44.54
380.579	97.79
380.789	-23.04
380.999	77.31
381.21	73.21
381.42	189.95
381.63	87.55
381.84	142.85
382.05	75.26
382.261	136.7
382.471	128.51
382.681	15.87
382.891	122.37
383.101	73.21
383.311	-20.99
383.521	11.78
383.731	91.65
383.941	116.22
384.151	126.46
384.361	34.3
384.571	-4.61
384.781	108.03
384.991	140.8
385.201	138.75
385.411	165.37
385.621	155.13
385.831	67.07
386.041	132.61
386.251	99.84
386.461	142.85
386.671	5.63
386.881	26.11
387.091	52.74
387.301	85.5
387.511	-0.51
387.72	122.37
387.93	77.31
388.14	40.45
388.35	85.5
388.56	157.18
388.769	81.41
388.979	42.5
389.189	19.97
389.399	62.98
389.609	32.26
389.818	163.33
390.028	17.92
390.238	52.74
390.447	11.78
390.657	95.74
390.867	5.63
391.076	-18.94
391.286	85.5
391.496	93.69
391.705	36.35
391.915	134.65
392.125	97.79
392.334	-12.8
392.544	130.56
392.753	97.79
392.963	50.69
393.172	75.26
393.382	7.68
393.591	155.13
393.801	19.97
394.01	169.47
394.22	112.13
394.429	-37.38
394.639	44.54
394.848	77.31
395.058	36.35
395.267	24.06
395.477	116.22
395.686	142.85
395.895	153.09
396.105	161.28
396.314	71.17
396.524	79.36
396.733	46.59
396.942	97.79
397.152	130.56
397.361	105.98
397.57	85.5
397.78	56.83
397.989	126.46
398.198	282.11
398.407	42.5
398.617	85.5
398.826	71.17
399.035	58.88
399.244	179.71
399.453	79.36
399.663	97.79
399.872	120.32
400.081	15.87
400.29	155.13
400.499	3.58
400.708	159.23
400.917	44.54
401.127	99.84
401.336	44.54
401.545	204.28
401.754	167.42
401.963	81.41
402.172	-59.9
402.381	-8.7
402.59	60.93
402.799	73.21
403.008	130.56
403.217	116.22
403.426	75.26
403.635	32.26
403.844	105.98
404.053	108.03
404.262	77.31
404.471	183.81
404.68	148.99
404.888	95.74
405.097	81.41
405.306	89.6
405.515	97.79
405.724	85.5
405.933	140.8
406.142	52.74
406.35	134.65
406.559	46.59
406.768	110.08
406.977	81.41
407.185	110.08
407.394	103.93
407.603	-35.33
407.812	101.89
408.02	105.98
408.229	48.64
408.438	75.26
408.646	-88.57
408.855	11.78
409.064	116.22
409.272	54.78
409.481	81.41
409.69	26.11
409.898	11.78
410.107	108.03
410.315	136.7
410.524	62.98
410.733	148.99
410.941	44.54
411.15	105.98
411.358	65.02
411.567	208.38
411.775	77.31
411.984	93.69
412.192	60.93
412.401	17.92
412.609	183.81
412.818	187.9
413.026	179.71
413.234	108.03
413.443	81.41
413.651	22.02
413.86	112.13
414.068	44.54
414.276	200.19
414.485	69.12
414.693	278.01
414.901	202.24
415.11	69.12
415.318	99.84
415.526	89.6
415.734	62.98
415.943	126.46
416.151	228.86
416.359	13.82
416.567	103.93
416.776	163.33
416.984	103.93
417.192	142.85
417.4	99.84
417.608	24.06
417.817	5.63
418.025	85.5
418.233	249.34
418.441	75.26
418.649	48.64
418.857	91.65
419.065	120.32
419.273	-53.76
419.481	146.94
419.689	73.21
419.897	-2.56
420.105	15.87
420.313	185.85
420.521	169.47
420.729	118.27
420.937	50.69
421.145	-6.66
421.353	171.52
421.561	157.18
421.769	118.27
421.977	52.74
422.185	108.03
422.393	118.27
422.601	167.42
422.809	144.89
423.017	101.89
423.224	105.98
423.432	153.09
423.64	128.51
423.848	91.65
424.056	13.82
424.263	71.17
424.471	60.93
424.679	146.94
424.887	44.54
425.094	148.99
425.302	148.99
425.51	192
425.718	257.53
425.925	138.75
426.133	65.02
426.341	206.33
426.548	77.31
426.756	-2.56
426.964	183.81
427.171	122.37
427.379	148.99
427.586	71.17
427.794	112.13
428.001	108.03
428.209	120.32
428.417	192
428.624	216.57
428.832	163.33
429.039	116.22
429.247	171.52
429.454	220.67
429.662	294.4
429.869	134.65
430.076	179.71
430.284	136.7
430.491	167.42
430.699	114.17
430.906	228.86
431.114	179.71
431.321	132.61
431.528	134.65
431.736	187.9
431.943	232.96
432.15	148.99
432.358	189.95
432.565	265.72
432.772	142.85
432.979	286.2
433.187	232.96
433.394	288.25
433.601	192
433.808	298.49
434.016	224.76
434.223	259.58
434.43	239.1
434.637	329.21
434.844	318.97
435.052	294.4
435.259	335.35
435.466	431.61
435.673	372.22
435.88	241.15
436.087	400.89
436.294	417.27
436.501	398.84
436.708	429.56
436.915	368.12
437.122	384.51
437.329	331.26
437.537	368.12
437.743	400.89
437.95	531.96
438.157	335.35
438.364	447.99
438.571	445.95
438.778	511.48
438.985	503.29
439.192	570.87
439.399	447.99
439.606	484.86
439.813	663.03
440.02	712.18
440.227	718.33
440.433	681.46
440.64	675.32
440.847	591.35
441.054	665.08
441.261	740.85
441.467	691.7
441.674	765.43
441.881	792.05
442.088	806.39
442.294	925.17
442.501	992.75
442.708	968.18
442.914	1027.57
443.121	962.03
443.328	996.85
443.534	1187.31
443.741	1154.54
443.948	1031.66
444.154	1246.7
444.361	1359.34
444.568	1361.39
444.774	1330.67
444.981	1256.94
445.187	1435.11
445.394	1461.74
445.6	1375.72
445.807	1629.67
446.013	1523.18
446.22	1547.75
446.426	1805.8
446.633	1906.15
446.839	2026.98
447.046	1842.66
447.252	1983.97
447.459	2018.79
447.665	2002.4
447.871	2080.22
448.078	2387.42
448.284	2346.46
448.491	2473.43
448.697	2518.49
448.903	2573.78
449.11	2737.62
449.316	2696.66
449.522	2993.62
449.728	2936.28
449.935	3145.17
450.141	3085.78
450.347	3276.24
450.553	3280.33
450.76	3319.25
450.966	3669.45
451.172	3741.13
451.378	3816.9
451.584	3904.96
451.791	4191.68
451.997	4378.05
452.203	4386.24
452.409	4777.4
452.615	4791.73
452.821	4707.77
453.027	4795.83
453.233	5299.63
453.44	5238.19
453.646	5604.78
453.852	5713.32
454.058	5932.45
454.264	6202.79
454.47	6636.95
454.676	6485.41
454.882	7089.56
455.088	6753.69
455.294	7198.1
455.5	7642.51
455.705	8220.03
455.911	8164.74
456.117	8387.97
456.323	8531.33
456.529	8506.75
456.735	9483.63
456.941	9459.06
457.147	10024.3
457.352	10247.52
457.558	10401.12
457.764	11240.79
457.97	11730.25
458.176	11902.28
458.381	12547.39
458.587	12973.37
458.793	13471.03
458.999	13428.02
459.204	15037.72
459.41	15582.48
459.616	15379.73
459.821	16192.78
460.027	17016.06
460.233	17745.14
460.438	17722.61
460.644	18638.05
460.85	19004.64
461.055	19737.81
461.261	20812.99
461.466	20356.3
461.672	20640.97
461.878	23192.73
462.083	23002.27
462.289	23483.55
462.494	24597.64
462.7	24853.64
462.905	25060.48
463.111	27182.18
463.316	28228.69
463.522	28525.64
463.727	29774.91
463.932	30807.08
464.138	32078.87
464.343	33475.59
464.549	33102.85
464.754	35599.33
464.959	36496.34
465.165	36916.17
465.37	36756.43
465.575	36707.28
465.781	39541.67
465.986	40549.27
466.191	39760.8
466.397	40203.16
466.602	39476.13
466.807	41298.83
467.012	42224.51
467.218	42515.32
467.423	43021.17
467.628	44053.34
467.833	46437.18
468.038	45384.52
468.244	44929.87
468.449	47047.47
468.654	46281.53
