Data from USB4F104151__76__11-31-06-663.txt Node

Date: Wed Feb 26 11:31:06 EST 2025
User: louis
Spectrometer: USB4F10415
Trigger mode: 4
Integration Time (sec): 1.000000E-1
Scans to average: 1
Electric dark correction enabled: true
Nonlinearity correction enabled: false
Boxcar width: 0
XAxis mode: Wavelengths
Number of Pixels in Spectrum: 3648
>>>>>Begin Spectral Data<<<<<
178.204	-379.39
178.424	-379.39
178.644	-379.39
178.864	-451.07
179.084	-420.35
179.304	28.16
179.524	30.21
179.744	-14.85
179.964	17.92
180.184	67.07
180.404	108.03
180.624	-49.66
180.844	17.92
181.064	-104.96
181.283	19.97
181.503	-135.68
181.723	15.87
181.943	-47.62
182.163	124.41
182.383	-16.9
182.602	97.79
182.822	126.46
183.042	32.26
183.262	-53.76
183.482	-20.99
183.701	19.97
183.921	108.03
184.141	42.5
184.361	128.51
184.58	26.11
184.8	65.02
185.02	17.92
185.239	155.13
185.459	165.37
185.679	136.7
185.898	-33.28
186.118	36.35
186.338	99.84
186.557	60.93
186.777	-94.72
186.997	19.97
187.216	54.78
187.436	237.05
187.655	77.31
187.875	159.23
188.095	79.36
188.314	155.13
188.534	73.21
188.753	-74.24
188.973	144.89
189.192	196.09
189.412	36.35
189.631	22.02
189.851	44.54
190.07	173.57
190.29	-20.99
190.509	28.16
190.729	17.92
190.948	136.7
191.168	253.44
191.387	75.26
191.607	9.73
191.826	97.79
192.045	46.59
192.265	-45.57
192.484	103.93
192.704	48.64
192.923	7.68
193.142	183.81
193.362	19.97
193.581	122.37
193.8	169.47
194.02	65.02
194.239	54.78
194.458	73.21
194.678	69.12
194.897	-12.8
195.116	79.36
195.335	69.12
195.555	67.07
195.774	15.87
195.993	138.75
196.212	44.54
196.432	-27.14
196.651	-68.09
196.87	-6.66
197.089	282.11
197.308	97.79
197.528	93.69
197.747	19.97
197.966	40.45
198.185	185.85
198.404	-82.43
198.623	122.37
198.842	101.89
199.062	138.75
199.281	81.41
199.5	3.58
199.719	128.51
199.938	54.78
200.157	85.5
200.376	202.24
200.595	134.65
200.814	83.45
201.033	13.82
201.252	142.85
201.471	140.8
201.69	132.61
201.909	58.88
202.128	85.5
202.347	62.98
202.566	101.89
202.785	-86.53
203.004	-39.42
203.223	282.11
203.442	9.73
203.661	1.54
203.879	73.21
204.098	81.41
204.317	48.64
204.536	136.7
204.755	-10.75
204.974	126.46
205.193	-29.18
205.411	214.52
205.63	83.45
205.849	36.35
206.068	3.58
206.287	-12.8
206.505	105.98
206.724	32.26
206.943	11.78
207.162	26.11
207.381	50.69
207.599	-39.42
207.818	71.17
208.037	-53.76
208.255	73.21
208.474	105.98
208.693	69.12
208.911	11.78
209.13	50.69
209.349	54.78
209.567	85.5
209.786	122.37
210.005	134.65
210.223	116.22
210.442	-82.43
210.661	-8.7
210.879	95.74
211.098	17.92
211.316	77.31
211.535	40.45
211.753	22.02
211.972	-51.71
212.191	52.74
212.409	28.16
212.628	58.88
212.846	-0.51
213.065	75.26
213.283	181.76
213.502	-0.51
213.72	60.93
213.938	3.58
214.157	58.88
214.375	95.74
214.594	95.74
214.812	161.28
215.031	62.98
215.249	48.64
215.467	99.84
215.686	103.93
215.904	99.84
216.122	105.98
216.341	144.89
216.559	56.83
216.778	116.22
216.996	173.57
217.214	54.78
217.432	17.92
217.651	-82.43
217.869	-18.94
218.087	54.78
218.306	83.45
218.524	3.58
218.742	69.12
218.96	136.7
219.179	-10.75
219.397	34.3
219.615	292.35
219.833	126.46
220.051	-33.28
220.27	93.69
220.488	65.02
220.706	97.79
220.924	3.58
221.142	5.63
221.36	-0.51
221.578	99.84
221.796	-6.66
222.015	40.45
222.233	36.35
222.451	110.08
222.669	-27.14
222.887	132.61
223.105	-59.9
223.323	46.59
223.541	-86.53
223.759	81.41
223.977	79.36
224.195	251.39
224.413	122.37
224.631	44.54
224.849	73.21
225.067	226.81
225.285	73.21
225.503	17.92
225.721	-61.95
225.939	34.3
226.157	65.02
226.375	175.61
226.592	69.12
226.81	85.5
227.028	124.41
227.246	128.51
227.464	38.4
227.682	114.17
227.9	130.56
228.117	83.45
228.335	52.74
228.553	122.37
228.771	58.88
228.989	116.22
229.206	112.13
229.424	26.11
229.642	73.21
229.86	-53.76
230.077	132.61
230.295	60.93
230.513	77.31
230.731	89.6
230.948	181.76
231.166	175.61
231.384	-10.75
231.601	-29.18
231.819	214.52
232.037	22.02
232.254	81.41
232.472	73.21
232.689	42.5
232.907	60.93
233.125	54.78
233.342	-18.94
233.56	15.87
233.777	75.26
233.995	69.12
234.213	110.08
234.43	118.27
234.648	38.4
234.865	-45.57
235.083	56.83
235.3	62.98
235.518	171.52
235.735	108.03
235.953	93.69
236.17	54.78
236.388	-39.42
236.605	85.5
236.822	105.98
237.04	65.02
237.257	130.56
237.475	-41.47
237.692	85.5
237.909	15.87
238.127	42.5
238.344	46.59
238.562	24.06
238.779	-57.86
238.996	-49.66
239.214	48.64
239.431	85.5
239.648	17.92
239.865	120.32
240.083	87.55
240.3	-27.14
240.517	54.78
240.735	91.65
240.952	167.42
241.169	3.58
241.386	75.26
241.603	81.41
241.821	-104.96
242.038	73.21
242.255	3.58
242.472	9.73
242.689	26.11
242.907	167.42
243.124	91.65
243.341	40.45
243.558	-78.33
243.775	19.97
243.992	-20.99
244.209	112.13
244.426	222.72
244.643	11.78
244.86	24.06
245.078	108.03
245.295	67.07
245.512	-10.75
245.729	60.93
245.946	-4.61
246.163	105.98
246.38	11.78
246.597	120.32
246.814	26.11
247.031	71.17
247.248	30.21
247.464	105.98
247.681	50.69
247.898	97.79
248.115	-2.56
248.332	3.58
248.549	196.09
248.766	153.09
248.983	118.27
249.2	97.79
249.417	194.05
249.633	42.5
249.85	79.36
250.067	30.21
250.284	3.58
250.501	13.82
250.717	85.5
250.934	73.21
251.151	93.69
251.368	46.59
251.585	1.54
251.801	11.78
252.018	13.82
252.235	151.04
252.451	3.58
252.668	3.58
252.885	99.84
253.102	91.65
253.318	11.78
253.535	34.3
253.752	38.4
253.968	-25.09
254.185	-49.66
254.401	83.45
254.618	69.12
254.835	-43.52
255.051	116.22
255.268	71.17
255.484	93.69
255.701	28.16
255.917	73.21
256.134	-31.23
256.351	91.65
256.567	-92.67
256.784	75.26
257	-20.99
257.217	118.27
257.433	36.35
257.65	126.46
257.866	108.03
258.082	-82.43
258.299	-43.52
258.515	13.82
258.732	73.21
258.948	-8.7
259.165	67.07
259.381	-27.14
259.597	105.98
259.814	136.7
260.03	52.74
260.246	9.73
260.463	155.13
260.679	60.93
260.895	54.78
261.112	52.74
261.328	7.68
261.544	-39.42
261.761	124.41
261.977	-31.23
262.193	38.4
262.409	75.26
262.626	42.5
262.842	-53.76
263.058	22.02
263.274	105.98
263.49	85.5
263.707	132.61
263.923	58.88
264.139	30.21
264.355	9.73
264.571	75.26
264.787	13.82
265.004	208.38
265.22	3.58
265.436	-27.14
265.652	-18.94
265.868	-14.85
266.084	-31.23
266.3	26.11
266.516	-98.81
266.732	114.17
266.948	13.82
267.164	-31.23
267.38	151.04
267.596	85.5
267.812	212.48
268.028	85.5
268.244	19.97
268.46	101.89
268.676	17.92
268.892	32.26
269.108	13.82
269.324	-64
269.54	-47.62
269.756	67.07
269.972	-51.71
270.188	67.07
270.403	-12.8
270.619	-0.51
270.835	95.74
271.051	71.17
271.267	44.54
271.483	-59.9
271.698	101.89
271.914	44.54
272.13	1.54
272.346	32.26
272.562	67.07
272.777	167.42
272.993	77.31
273.209	-4.61
273.425	187.9
273.64	-14.85
273.856	69.12
274.072	-35.33
274.287	36.35
274.503	132.61
274.719	93.69
274.934	-12.8
275.15	-55.81
275.366	-2.56
275.581	54.78
275.797	116.22
276.012	95.74
276.228	54.78
276.444	97.79
276.659	17.92
276.875	-61.95
277.09	-16.9
277.306	50.69
277.521	13.82
277.737	62.98
277.952	116.22
278.168	65.02
278.383	67.07
278.599	13.82
278.814	71.17
279.03	-29.18
279.245	101.89
279.461	58.88
279.676	42.5
279.892	-68.09
280.107	9.73
280.322	-29.18
280.538	91.65
280.753	44.54
280.969	42.5
281.184	73.21
281.399	155.13
281.615	28.16
281.83	108.03
282.045	-14.85
282.26	79.36
282.476	130.56
282.691	112.13
282.906	85.5
283.122	54.78
283.337	75.26
283.552	105.98
283.767	52.74
283.983	42.5
284.198	7.68
284.413	101.89
284.628	-98.81
284.843	60.93
285.058	69.12
285.274	11.78
285.489	7.68
285.704	122.37
285.919	42.5
286.134	-51.71
286.349	148.99
286.564	46.59
286.779	60.93
286.995	38.4
287.21	-25.09
287.425	52.74
287.64	-35.33
287.855	19.97
288.07	-64
288.285	73.21
288.5	138.75
288.715	97.79
288.93	-12.8
289.145	-14.85
289.36	93.69
289.575	-14.85
289.79	163.33
290.004	-6.66
290.219	85.5
290.434	-64
290.649	-0.51
290.864	-31.23
291.079	15.87
291.294	52.74
291.509	112.13
291.724	26.11
291.938	-45.57
292.153	48.64
292.368	24.06
292.583	-10.75
292.798	65.02
293.012	3.58
293.227	91.65
293.442	-20.99
293.657	56.83
293.871	116.22
294.086	32.26
294.301	173.57
294.516	118.27
294.73	40.45
294.945	24.06
295.16	69.12
295.374	112.13
295.589	97.79
295.804	-6.66
296.018	28.16
296.233	173.57
296.447	40.45
296.662	-88.57
296.877	126.46
297.091	56.83
297.306	89.6
297.52	58.88
297.735	67.07
297.949	40.45
298.164	54.78
298.378	71.17
298.593	42.5
298.807	-8.7
299.022	-12.8
299.236	200.19
299.451	-12.8
299.665	13.82
299.88	42.5
300.094	134.65
300.309	40.45
300.523	15.87
300.737	-55.81
300.952	81.41
301.166	52.74
301.381	-53.76
301.595	73.21
301.809	3.58
302.024	153.09
302.238	-33.28
302.452	93.69
302.667	28.16
302.881	159.23
303.095	155.13
303.309	118.27
303.524	-16.9
303.738	36.35
303.952	7.68
304.166	13.82
304.381	-176.64
304.595	157.18
304.809	-2.56
305.023	75.26
305.237	26.11
305.452	52.74
305.666	-23.04
305.88	128.51
306.094	101.89
306.308	-12.8
306.522	85.5
306.736	26.11
306.95	155.13
307.164	40.45
307.379	58.88
307.593	208.38
307.807	105.98
308.021	122.37
308.235	69.12
308.449	-37.38
308.663	-14.85
308.877	257.53
309.091	24.06
309.305	112.13
309.519	-104.96
309.733	128.51
309.947	-68.09
310.161	52.74
310.374	58.88
310.588	128.51
310.802	-10.75
311.016	-33.28
311.23	44.54
311.444	17.92
311.658	126.46
311.872	58.88
312.085	126.46
312.299	153.09
312.513	140.8
312.727	83.45
312.941	28.16
313.154	58.88
313.368	85.5
313.582	-8.7
313.796	71.17
314.009	28.16
314.223	56.83
314.437	58.88
314.651	89.6
314.864	-57.86
315.078	17.92
315.292	22.02
315.505	1.54
315.719	56.83
315.933	56.83
316.146	-6.66
316.36	-14.85
316.573	103.93
316.787	81.41
317.001	126.46
317.214	11.78
317.428	32.26
317.641	-0.51
317.855	34.3
318.068	58.88
318.282	58.88
318.495	183.81
318.709	77.31
318.922	-23.04
319.136	159.23
319.349	95.74
319.563	-12.8
319.776	97.79
319.99	-61.95
320.203	73.21
320.417	50.69
320.63	118.27
320.843	163.33
321.057	73.21
321.27	36.35
321.483	93.69
321.697	122.37
321.91	7.68
322.124	58.88
322.337	77.31
322.55	34.3
322.763	69.12
322.977	-29.18
323.19	89.6
323.403	77.31
323.617	101.89
323.83	159.23
324.043	42.5
324.256	69.12
324.469	-49.66
324.683	91.65
324.896	87.55
325.109	1.54
325.322	-29.18
325.535	40.45
325.748	116.22
325.962	67.07
326.175	79.36
326.388	34.3
326.601	148.99
326.814	73.21
327.027	34.3
327.24	81.41
327.453	1.54
327.666	77.31
327.879	171.52
328.092	89.6
328.305	81.41
328.518	15.87
328.731	9.73
328.944	-25.09
329.157	155.13
329.37	1.54
329.583	179.71
329.796	130.56
330.009	-80.38
330.222	142.85
330.435	105.98
330.648	-53.76
330.861	56.83
331.073	-0.51
331.286	138.75
331.499	-12.8
331.712	-16.9
331.925	34.3
332.138	52.74
332.35	140.8
332.563	19.97
332.776	140.8
332.989	-12.8
333.202	69.12
333.414	42.5
333.627	24.06
333.84	46.59
334.053	44.54
334.265	13.82
334.478	-27.14
334.691	65.02
334.903	101.89
335.116	83.45
335.329	95.74
335.541	48.64
335.754	105.98
335.966	50.69
336.179	13.82
336.392	52.74
336.604	42.5
336.817	161.28
337.029	28.16
337.242	-23.04
337.454	105.98
337.667	126.46
337.88	73.21
338.092	81.41
338.305	103.93
338.517	38.4
338.729	105.98
338.942	171.52
339.154	-49.66
339.367	-12.8
339.579	44.54
339.792	-39.42
340.004	157.18
340.217	-14.85
340.429	42.5
340.641	44.54
340.854	24.06
341.066	50.69
341.278	153.09
341.491	237.05
341.703	34.3
341.915	75.26
342.128	87.55
342.34	83.45
342.552	-2.56
342.764	-14.85
342.977	15.87
343.189	62.98
343.401	38.4
343.613	26.11
343.826	71.17
344.038	-59.9
344.25	153.09
344.462	7.68
344.674	79.36
344.886	83.45
345.099	28.16
345.311	71.17
345.523	7.68
345.735	-31.23
345.947	118.27
346.159	-6.66
346.371	116.22
346.583	5.63
346.795	183.81
347.007	7.68
347.219	105.98
347.431	-37.38
347.643	192
347.855	30.21
348.067	81.41
348.279	-57.86
348.491	69.12
348.703	146.94
348.915	28.16
349.127	73.21
349.339	22.02
349.551	44.54
349.763	110.08
349.975	15.87
350.187	130.56
350.399	112.13
350.61	19.97
350.822	15.87
351.034	44.54
351.246	112.13
351.458	77.31
351.669	28.16
351.881	163.33
352.093	130.56
352.305	73.21
352.517	69.12
352.728	130.56
352.94	73.21
353.152	110.08
353.363	-72.19
353.575	112.13
353.787	120.32
353.999	124.41
354.21	185.85
354.422	-37.38
354.633	32.26
354.845	58.88
355.057	5.63
355.268	-29.18
355.48	44.54
355.692	-47.62
355.903	89.6
356.115	-27.14
356.326	-41.47
356.538	112.13
356.749	67.07
356.961	97.79
357.172	52.74
357.384	1.54
357.595	269.82
357.807	1.54
358.018	-31.23
358.23	-20.99
358.441	173.57
358.653	101.89
358.864	77.31
359.075	58.88
359.287	48.64
359.498	91.65
359.709	183.81
359.921	65.02
360.132	34.3
360.344	52.74
360.555	89.6
360.766	36.35
360.977	-4.61
361.189	122.37
361.4	-23.04
361.611	118.27
361.823	136.7
362.034	3.58
362.245	-66.05
362.456	46.59
362.667	112.13
362.879	-12.8
363.09	60.93
363.301	114.17
363.512	-12.8
363.723	1.54
363.935	32.26
364.146	138.75
364.357	7.68
364.568	36.35
364.779	9.73
364.99	140.8
365.201	85.5
365.412	189.95
365.623	-23.04
365.834	30.21
366.045	75.26
366.256	118.27
366.467	112.13
366.678	-90.62
366.889	52.74
367.1	-59.9
367.311	134.65
367.522	-29.18
367.733	62.98
367.944	60.93
368.155	87.55
368.366	58.88
368.577	144.89
368.788	222.72
368.999	-6.66
369.209	3.58
369.42	163.33
369.631	284.16
369.842	54.78
370.053	-39.42
370.264	114.17
370.474	-2.56
370.685	65.02
370.896	69.12
371.107	155.13
371.317	69.12
371.528	73.21
371.739	161.28
371.95	60.93
372.16	97.79
372.371	13.82
372.582	77.31
372.792	97.79
373.003	24.06
373.214	32.26
373.424	105.98
373.635	3.58
373.846	200.19
374.056	52.74
374.267	146.94
374.477	101.89
374.688	36.35
374.898	19.97
375.109	101.89
375.319	89.6
375.53	124.41
375.74	155.13
375.951	136.7
376.161	112.13
376.372	159.23
376.582	13.82
376.793	144.89
377.003	-45.57
377.214	-68.09
377.424	105.98
377.635	85.5
377.845	3.58
378.055	155.13
378.266	-0.51
378.476	153.09
378.686	46.59
378.897	9.73
379.107	58.88
379.317	112.13
379.528	32.26
379.738	83.45
379.948	-88.57
380.158	130.56
380.369	52.74
380.579	101.89
380.789	48.64
380.999	99.84
381.21	202.24
381.42	161.28
381.63	83.45
381.84	167.42
382.05	128.51
382.261	167.42
382.471	108.03
382.681	52.74
382.891	183.81
383.101	99.84
383.311	-25.09
383.521	99.84
383.731	134.65
383.941	69.12
384.151	-10.75
384.361	44.54
384.571	17.92
384.781	136.7
384.991	128.51
385.201	267.77
385.411	85.5
385.621	91.65
385.831	124.41
386.041	5.63
386.251	44.54
386.461	136.7
386.671	118.27
386.881	118.27
387.091	79.36
387.301	69.12
387.511	30.21
387.72	73.21
387.93	216.57
388.14	-23.04
388.35	75.26
388.56	73.21
388.769	116.22
388.979	52.74
389.189	-37.38
389.399	28.16
389.609	206.33
389.818	77.31
390.028	126.46
390.238	44.54
390.447	97.79
390.657	28.16
390.867	-25.09
391.076	-109.05
391.286	81.41
391.496	24.06
391.705	81.41
391.915	163.33
392.125	108.03
392.334	40.45
392.544	187.9
392.753	79.36
392.963	-45.57
393.172	81.41
393.382	-25.09
393.591	194.05
393.801	5.63
394.01	167.42
394.22	85.5
394.429	77.31
394.639	36.35
394.848	65.02
395.058	-2.56
395.267	58.88
395.477	103.93
395.686	108.03
395.895	210.43
396.105	151.04
396.314	126.46
396.524	67.07
396.733	44.54
396.942	142.85
397.152	103.93
397.361	118.27
397.57	54.78
397.78	9.73
397.989	138.75
398.198	255.48
398.407	52.74
398.617	116.22
398.826	50.69
399.035	36.35
399.244	142.85
399.453	101.89
399.663	79.36
399.872	34.3
400.081	-31.23
400.29	167.42
400.499	-33.28
400.708	155.13
400.917	11.78
401.127	99.84
401.336	-2.56
401.545	212.48
401.754	140.8
401.963	75.26
402.172	15.87
402.381	-20.99
402.59	69.12
402.799	71.17
403.008	165.37
403.217	11.78
403.426	36.35
403.635	-33.28
403.844	24.06
404.053	42.5
404.262	40.45
404.471	187.9
404.68	103.93
404.888	46.59
405.097	79.36
405.306	132.61
405.515	198.14
405.724	-2.56
405.933	54.78
406.142	120.32
406.35	132.61
406.559	48.64
406.768	71.17
406.977	196.09
407.185	130.56
407.394	89.6
407.603	-41.47
407.812	79.36
408.02	196.09
408.229	-20.99
408.438	52.74
408.646	-64
408.855	48.64
409.064	128.51
409.272	46.59
409.481	77.31
409.69	13.82
409.898	-8.7
410.107	91.65
410.315	161.28
410.524	13.82
410.733	50.69
410.941	5.63
411.15	30.21
411.358	108.03
411.567	93.69
411.775	46.59
411.984	52.74
412.192	95.74
412.401	-20.99
412.609	157.18
412.818	206.33
413.026	40.45
413.234	44.54
413.443	77.31
413.651	7.68
413.86	13.82
414.068	128.51
414.276	194.05
414.485	46.59
414.693	173.57
414.901	146.94
415.11	42.5
415.318	34.3
415.526	81.41
415.734	81.41
415.943	24.06
416.151	44.54
416.359	11.78
416.567	95.74
416.776	48.64
416.984	95.74
417.192	165.37
417.4	103.93
417.608	-61.95
417.817	1.54
418.025	124.41
418.233	216.57
418.441	71.17
418.649	-55.81
418.857	140.8
419.065	155.13
419.273	26.11
419.481	36.35
419.689	65.02
419.897	22.02
420.105	-74.24
420.313	108.03
420.521	89.6
420.729	151.04
420.937	9.73
421.145	24.06
421.353	142.85
421.561	136.7
421.769	-6.66
421.977	46.59
422.185	128.51
422.393	118.27
422.601	73.21
422.809	130.56
423.017	101.89
423.224	108.03
423.432	124.41
423.64	13.82
423.848	251.39
424.056	38.4
424.263	87.55
424.471	15.87
424.679	71.17
424.887	1.54
425.094	232.96
425.302	132.61
425.51	65.02
425.718	130.56
425.925	101.89
426.133	44.54
426.341	237.05
426.548	36.35
426.756	26.11
426.964	124.41
427.171	28.16
427.379	103.93
427.586	105.98
427.794	134.65
428.001	118.27
428.209	89.6
428.417	218.62
428.624	103.93
428.832	114.17
429.039	105.98
429.247	73.21
429.454	95.74
429.662	142.85
429.869	146.94
430.076	165.37
430.284	122.37
430.491	128.51
430.699	185.85
430.906	220.67
431.114	28.16
431.321	167.42
431.528	144.89
431.736	155.13
431.943	108.03
432.15	194.05
432.358	157.18
432.565	214.52
432.772	22.02
432.979	282.11
433.187	105.98
433.394	200.19
433.601	79.36
433.808	194.05
434.016	216.57
434.223	269.82
434.43	138.75
434.637	239.1
434.844	253.44
435.052	206.33
435.259	247.29
435.466	267.77
435.673	194.05
435.88	255.48
436.087	396.79
436.294	335.35
436.501	251.39
436.708	249.34
436.915	271.87
437.122	275.96
437.329	237.05
437.537	222.72
437.743	351.74
437.95	300.54
438.157	380.41
438.364	321.02
438.571	294.4
438.778	347.64
438.985	370.17
439.192	388.6
439.399	435.71
439.606	476.66
439.813	464.38
440.02	509.43
440.227	536.06
440.433	478.71
440.64	404.99
440.847	415.23
441.054	468.47
441.261	534.01
441.467	534.01
441.674	536.06
441.881	574.97
442.088	511.48
442.294	574.97
442.501	622.07
442.708	738.8
442.914	597.49
443.121	747
443.328	650.74
443.534	820.72
443.741	624.12
443.948	691.7
444.154	861.68
444.361	884.21
444.568	816.63
444.774	878.07
444.981	755.19
445.187	1002.99
445.394	890.35
445.6	964.08
445.807	1084.91
446.013	1140.21
446.22	1039.86
446.426	1121.77
446.633	1353.2
446.839	1345
447.046	1121.77
447.252	1424.87
447.459	1379.82
447.665	1146.35
447.871	1512.94
448.078	1584.62
448.284	1635.82
448.491	1635.82
448.697	1603.05
448.903	1766.89
449.11	1697.25
449.316	1830.37
449.522	2018.79
449.728	2043.36
449.935	2057.7
450.141	2096.61
450.347	2274.78
450.553	2182.62
450.76	2219.49
450.966	2364.89
451.172	2475.48
451.378	2510.3
451.584	2696.66
451.791	2862.55
451.997	2846.16
452.203	2915.8
452.409	3134.93
452.615	3143.12
452.821	2854.36
453.027	3179.98
453.233	3562.95
453.44	3417.55
453.646	3550.67
453.852	3777.99
454.058	3917.25
454.264	4066.75
454.47	4212.16
454.676	4335.04
454.882	4562.36
455.088	4519.36
455.294	4822.45
455.5	5135.79
455.705	5250.48
455.911	5172.66
456.117	5508.52
456.323	5547.44
456.529	5678.51
456.735	6172.07
456.941	6096.29
457.147	6540.7
457.352	6782.36
457.558	6835.61
457.764	7382.42
457.97	7609.74
458.176	7773.58
458.381	8242.56
458.587	8250.75
458.793	8848.76
458.999	8611.2
459.204	9602.41
459.41	10208.61
459.616	10128.74
459.821	10546.53
460.027	11183.45
460.233	11728.21
460.438	11717.97
460.644	12383.56
460.85	12490.05
461.055	12913.98
461.261	13645.1
461.466	13520.18
461.672	13649.2
461.878	15070.49
462.083	15031.58
462.289	15406.36
462.494	16065.8
462.7	16284.94
462.905	16114.95
463.111	17560.82
463.316	18613.48
463.522	18740.45
463.727	19598.55
463.932	20303.05
464.138	20575.43
464.343	21568.69
464.549	21933.23
464.754	23278.75
464.959	24120.46
465.165	24544.39
465.37	23964.82
465.575	24124.56
465.781	25738.36
465.986	26750.06
466.191	26426.48
466.397	26698.86
466.602	25980.02
466.807	27384.93
467.012	27997.27
467.218	28169.3
467.423	28118.1
467.628	29660.22
467.833	30993.45
468.038	30028.85
468.244	29293.63
468.449	30972.97
468.654	30567.47
