Data from USB4F104151__46__10-25-16-935.txt Node

Date: Wed Feb 26 10:25:16 EST 2025
User: louis
Spectrometer: USB4F10415
Trigger mode: 4
Integration Time (sec): 1.000000E-1
Scans to average: 1
Electric dark correction enabled: true
Nonlinearity correction enabled: false
Boxcar width: 0
XAxis mode: Wavelengths
Number of Pixels in Spectrum: 3648
>>>>>Begin Spectral Data<<<<<
178.204	-373.92
178.424	-373.92
178.644	-373.92
178.864	-433.32
179.084	-404.64
179.304	43.86
179.524	-17.58
179.744	9.05
179.964	19.29
180.184	-1.19
180.404	17.24
180.624	54.1
180.844	-7.34
181.064	-50.35
181.283	15.19
181.503	-101.55
181.723	19.29
181.943	-91.31
182.163	183.12
182.383	-9.39
182.602	62.29
182.822	84.82
183.042	129.88
183.262	-5.29
183.482	-25.77
183.701	76.63
183.921	33.62
184.141	-56.49
184.361	133.97
184.58	19.29
184.8	37.72
185.02	72.53
185.239	131.92
185.459	117.59
185.679	109.4
185.898	15.19
186.118	62.29
186.338	39.76
186.557	54.1
186.777	-50.35
186.997	17.24
187.216	72.53
187.436	164.69
187.655	68.44
187.875	56.15
188.095	56.15
188.314	84.82
188.534	189.27
188.753	-36.01
188.973	117.59
189.192	179.03
189.412	43.86
189.631	31.57
189.851	119.64
190.07	119.64
190.29	7
190.509	-25.77
190.729	2.9
190.948	254.8
191.168	285.52
191.387	76.63
191.607	78.68
191.826	121.68
192.045	0.85
192.265	35.67
192.484	136.02
192.704	27.48
192.923	-54.44
193.142	213.84
193.362	127.83
193.581	107.35
193.8	148.31
194.02	197.46
194.239	58.2
194.458	56.15
194.678	88.92
194.897	13.14
195.116	76.63
195.335	99.16
195.555	39.76
195.774	25.43
195.993	158.55
196.212	90.96
196.432	9.05
196.651	19.29
196.87	35.67
197.089	254.8
197.308	58.2
197.528	13.14
197.747	0.85
197.966	11.09
198.185	103.25
198.404	-95.4
198.623	52.05
198.842	86.87
199.062	117.59
199.281	78.68
199.5	-21.67
199.719	109.4
199.938	111.44
200.157	41.81
200.376	101.2
200.595	82.77
200.814	52.05
201.033	27.48
201.252	238.42
201.471	82.77
201.69	142.16
201.909	56.15
202.128	109.4
202.347	25.43
202.566	66.39
202.785	13.14
203.004	-7.34
203.223	174.93
203.442	74.58
203.661	-48.3
203.879	70.48
204.098	205.65
204.317	-33.96
204.536	86.87
204.755	125.78
204.974	113.49
205.193	-56.49
205.411	123.73
205.63	111.44
205.849	95.06
206.068	140.12
206.287	-81.07
206.505	275.28
206.724	111.44
206.943	-5.29
207.162	0.85
207.381	41.81
207.599	-38.06
207.818	111.44
208.037	-15.53
208.255	111.44
208.474	-17.58
208.693	93.01
208.911	19.29
209.13	109.4
209.349	70.48
209.567	125.78
209.786	86.87
210.005	123.73
210.223	54.1
210.442	-62.63
210.661	25.43
210.879	45.91
211.098	60.24
211.316	-7.34
211.535	17.24
211.753	70.48
211.972	93.01
212.191	-31.91
212.409	52.05
212.628	90.96
212.846	4.95
213.065	68.44
213.283	160.59
213.502	70.48
213.72	76.63
213.938	56.15
214.157	-11.43
214.375	127.83
214.594	0.85
214.812	60.24
215.031	17.24
215.249	90.96
215.467	45.91
215.686	39.76
215.904	150.36
216.122	76.63
216.341	84.82
216.559	58.2
216.778	88.92
216.996	125.78
217.214	-19.63
217.432	78.68
217.651	58.2
217.869	43.86
218.087	95.06
218.306	37.72
218.524	37.72
218.742	27.48
218.96	154.45
219.179	-5.29
219.397	152.4
219.615	219.99
219.833	99.16
220.051	43.86
220.27	97.11
220.488	72.53
220.706	97.11
220.924	70.48
221.142	0.85
221.36	111.44
221.578	60.24
221.796	45.91
222.015	45.91
222.233	27.48
222.451	146.26
222.669	-42.15
222.887	136.02
223.105	25.43
223.323	97.11
223.541	15.19
223.759	37.72
223.977	29.52
224.195	172.88
224.413	185.17
224.631	76.63
224.849	88.92
225.067	246.61
225.285	74.58
225.503	-56.49
225.721	-87.21
225.939	64.34
226.157	31.57
226.375	201.55
226.592	21.33
226.81	80.72
227.028	52.05
227.246	86.87
227.464	70.48
227.682	117.59
227.9	90.96
228.117	88.92
228.335	86.87
228.553	39.76
228.771	56.15
228.989	41.81
229.206	74.58
229.424	-36.01
229.642	23.38
229.86	-44.2
230.077	140.12
230.295	140.12
230.513	156.5
230.731	121.68
230.948	183.12
231.166	162.64
231.384	-52.39
231.601	17.24
231.819	113.49
232.037	25.43
232.254	-54.44
232.472	-27.82
232.689	-5.29
232.907	136.02
233.125	41.81
233.342	-15.53
233.56	39.76
233.777	-27.82
233.995	4.95
234.213	82.77
234.43	0.85
234.648	66.39
234.865	82.77
235.083	88.92
235.3	76.63
235.518	129.88
235.735	154.45
235.953	68.44
236.17	39.76
236.388	50
236.605	4.95
236.822	215.89
237.04	97.11
237.257	119.64
237.475	-33.96
237.692	13.14
237.909	52.05
238.127	72.53
238.344	58.2
238.562	80.72
238.779	-38.06
238.996	-40.11
239.214	78.68
239.431	95.06
239.648	7
239.865	50
240.083	111.44
240.3	23.38
240.517	47.96
240.735	54.1
240.952	125.78
241.169	103.25
241.386	113.49
241.603	-9.39
241.821	-52.39
242.038	138.07
242.255	160.59
242.472	-17.58
242.689	117.59
242.907	101.2
243.124	31.57
243.341	82.77
243.558	-1.19
243.775	-19.63
243.992	-62.63
244.209	99.16
244.426	203.6
244.643	37.72
244.86	41.81
245.078	107.35
245.295	99.16
245.512	41.81
245.729	13.14
245.946	33.62
246.163	103.25
246.38	4.95
246.597	47.96
246.814	-5.29
247.031	41.81
247.248	93.01
247.464	107.35
247.681	-3.24
247.898	119.64
248.115	133.97
248.332	-31.91
248.549	115.54
248.766	136.02
248.983	117.59
249.2	111.44
249.417	140.12
249.633	-13.48
249.85	43.86
250.067	35.67
250.284	39.76
250.501	72.53
250.717	66.39
250.934	-111.78
251.151	-5.29
251.368	84.82
251.585	117.59
251.801	56.15
252.018	-58.54
252.235	121.68
252.451	-66.73
252.668	13.14
252.885	156.5
253.102	45.91
253.318	-17.58
253.535	15.19
253.752	56.15
253.968	11.09
254.185	-13.48
254.401	29.52
254.618	35.67
254.835	-42.15
255.051	47.96
255.268	25.43
255.484	93.01
255.701	84.82
255.917	54.1
256.134	-36.01
256.351	58.2
256.567	-27.82
256.784	76.63
257	-46.25
257.217	84.82
257.433	60.24
257.65	37.72
257.866	125.78
258.082	-23.72
258.299	45.91
258.515	43.86
258.732	123.73
258.948	-5.29
259.165	86.87
259.381	-13.48
259.597	160.59
259.814	45.91
260.03	23.38
260.246	54.1
260.463	197.46
260.679	117.59
260.895	45.91
261.112	56.15
261.328	0.85
261.544	2.9
261.761	201.55
261.977	43.86
262.193	-7.34
262.409	133.97
262.626	88.92
262.842	13.14
263.058	-27.82
263.274	121.68
263.49	93.01
263.707	101.2
263.923	74.58
264.139	-3.24
264.355	90.96
264.571	74.58
264.787	54.1
265.004	146.26
265.22	29.52
265.436	-56.49
265.652	50
265.868	93.01
266.084	-29.87
266.3	0.85
266.516	43.86
266.732	23.38
266.948	84.82
267.164	15.19
267.38	115.54
267.596	74.58
267.812	144.21
268.028	74.58
268.244	43.86
268.46	45.91
268.676	-7.34
268.892	-1.19
269.108	31.57
269.324	47.96
269.54	17.24
269.756	54.1
269.972	-40.11
270.188	-15.53
270.403	25.43
270.619	74.58
270.835	99.16
271.051	47.96
271.267	-5.29
271.483	-31.91
271.698	43.86
271.914	95.06
272.13	31.57
272.346	64.34
272.562	136.02
272.777	125.78
272.993	13.14
273.209	17.24
273.425	50
273.64	41.81
273.856	43.86
274.072	19.29
274.287	17.24
274.503	86.87
274.719	107.35
274.934	70.48
275.15	-87.21
275.366	47.96
275.581	-62.63
275.797	33.62
276.012	84.82
276.228	-48.3
276.444	2.9
276.659	7
276.875	0.85
277.09	41.81
277.306	-48.3
277.521	37.72
277.737	146.26
277.952	58.2
278.168	111.44
278.383	2.9
278.599	93.01
278.814	125.78
279.03	-3.24
279.245	154.45
279.461	50
279.676	129.88
279.892	-91.31
280.107	-42.15
280.322	82.77
280.538	21.33
280.753	-11.43
280.969	90.96
281.184	107.35
281.399	142.16
281.615	70.48
281.83	54.1
282.045	-68.78
282.26	88.92
282.476	54.1
282.691	136.02
282.906	50
283.122	33.62
283.337	-58.54
283.552	93.01
283.767	35.67
283.983	88.92
284.198	17.24
284.413	25.43
284.628	-101.55
284.843	101.2
285.058	68.44
285.274	82.77
285.489	19.29
285.704	148.31
285.919	-9.39
286.134	-17.58
286.349	41.81
286.564	45.91
286.779	209.75
286.995	-33.96
287.21	-68.78
287.425	41.81
287.64	-9.39
287.855	52.05
288.07	0.85
288.285	117.59
288.5	105.3
288.715	158.55
288.93	50
289.145	15.19
289.36	142.16
289.575	15.19
289.79	119.64
290.004	142.16
290.219	117.59
290.434	-99.5
290.649	-25.77
290.864	13.14
291.079	19.29
291.294	47.96
291.509	52.05
291.724	27.48
291.938	-3.24
292.153	86.87
292.368	103.25
292.583	54.1
292.798	168.79
293.012	88.92
293.227	111.44
293.442	0.85
293.657	86.87
293.871	138.07
294.086	109.4
294.301	252.75
294.516	131.92
294.73	97.11
294.945	-76.97
295.16	60.24
295.374	127.83
295.589	109.4
295.804	-52.39
296.018	58.2
296.233	119.64
296.447	15.19
296.662	-25.77
296.877	80.72
297.091	156.5
297.306	37.72
297.52	17.24
297.735	19.29
297.949	47.96
298.164	64.34
298.378	64.34
298.593	31.57
298.807	-58.54
299.022	103.25
299.236	119.64
299.451	-36.01
299.665	47.96
299.88	84.82
300.094	136.02
300.309	60.24
300.523	17.24
300.737	115.54
300.952	39.76
301.166	50
301.381	-31.91
301.595	-3.24
301.809	45.91
302.024	-7.34
302.238	0.85
302.452	179.03
302.667	60.24
302.881	183.12
303.095	144.21
303.309	109.4
303.524	-60.59
303.738	70.48
303.952	54.1
304.166	-9.39
304.381	-79.02
304.595	146.26
304.809	37.72
305.023	95.06
305.237	25.43
305.452	111.44
305.666	138.07
305.88	117.59
306.094	144.21
306.308	187.22
306.522	99.16
306.736	105.3
306.95	54.1
307.164	72.53
307.379	41.81
307.593	144.21
307.807	156.5
308.021	95.06
308.235	152.4
308.449	0.85
308.663	58.2
308.877	248.66
309.091	50
309.305	39.76
309.519	-60.59
309.733	121.68
309.947	-46.25
310.161	131.92
310.374	117.59
310.588	101.2
310.802	-62.63
311.016	-27.82
311.23	4.95
311.444	-76.97
311.658	7
311.872	121.68
312.085	86.87
312.299	189.27
312.513	125.78
312.727	86.87
312.941	-156.84
313.154	0.85
313.368	41.81
313.582	33.62
313.796	45.91
314.009	41.81
314.223	123.73
314.437	68.44
314.651	164.69
314.864	-44.2
315.078	-13.48
315.292	-17.58
315.505	25.43
315.719	45.91
315.933	31.57
316.146	-60.59
316.36	-72.87
316.573	93.01
316.787	133.97
317.001	66.39
317.214	0.85
317.428	95.06
317.641	64.34
317.855	21.33
318.068	72.53
318.282	62.29
318.495	119.64
318.709	23.38
318.922	70.48
319.136	166.74
319.349	129.88
319.563	-15.53
319.776	29.52
319.99	-105.64
320.203	101.2
320.417	-7.34
320.63	66.39
320.843	174.93
321.057	78.68
321.27	62.29
321.483	136.02
321.697	123.73
321.91	172.88
322.124	86.87
322.337	76.63
322.55	-68.78
322.763	21.33
322.977	58.2
323.19	-9.39
323.403	72.53
323.617	37.72
323.83	111.44
324.043	21.33
324.256	107.35
324.469	-23.72
324.683	236.37
324.896	21.33
325.109	41.81
325.322	-9.39
325.535	58.2
325.748	111.44
325.962	56.15
326.175	70.48
326.388	105.3
326.601	111.44
326.814	13.14
327.027	60.24
327.24	164.69
327.453	-109.74
327.666	60.24
327.879	168.79
328.092	90.96
328.305	138.07
328.518	11.09
328.731	45.91
328.944	2.9
329.157	88.92
329.37	41.81
329.583	203.6
329.796	76.63
330.009	-27.82
330.222	154.45
330.435	68.44
330.648	52.05
330.861	37.72
331.073	56.15
331.286	152.4
331.499	82.77
331.712	45.91
331.925	21.33
332.138	-42.15
332.35	156.5
332.563	2.9
332.776	174.93
332.989	45.91
333.202	33.62
333.414	95.06
333.627	45.91
333.84	56.15
334.053	37.72
334.265	80.72
334.478	17.24
334.691	7
334.903	66.39
335.116	-17.58
335.329	-60.59
335.541	107.35
335.754	162.64
335.966	-64.68
336.179	31.57
336.392	58.2
336.604	76.63
336.817	160.59
337.029	105.3
337.242	136.02
337.454	84.82
337.667	-54.44
337.88	129.88
338.092	41.81
338.305	152.4
338.517	4.95
338.729	131.92
338.942	117.59
339.154	-44.2
339.367	23.38
339.579	62.29
339.792	9.05
340.004	72.53
340.217	7
340.429	144.21
340.641	-48.3
340.854	11.09
341.066	43.86
341.278	90.96
341.491	193.36
341.703	64.34
341.915	47.96
342.128	113.49
342.34	60.24
342.552	-7.34
342.764	66.39
342.977	-9.39
343.189	-40.11
343.401	54.1
343.613	-13.48
343.826	84.82
344.038	43.86
344.25	78.68
344.462	27.48
344.674	31.57
344.886	86.87
345.099	13.14
345.311	148.31
345.523	56.15
345.735	-21.67
345.947	115.54
346.159	119.64
346.371	70.48
346.583	50
346.795	226.13
347.007	52.05
347.219	33.62
347.431	45.91
347.643	121.68
347.855	41.81
348.067	142.16
348.279	-56.49
348.491	72.53
348.703	125.78
348.915	35.67
349.127	41.81
349.339	76.63
349.551	-64.68
349.763	101.2
349.975	37.72
350.187	84.82
350.399	224.08
350.61	-27.82
350.822	-19.63
351.034	39.76
351.246	125.78
351.458	27.48
351.669	105.3
351.881	74.58
352.093	45.91
352.305	183.12
352.517	70.48
352.728	205.65
352.94	33.62
353.152	45.91
353.363	-40.11
353.575	103.25
353.787	172.88
353.999	23.38
354.21	179.03
354.422	17.24
354.633	47.96
354.845	33.62
355.057	7
355.268	43.86
355.48	80.72
355.692	-5.29
355.903	66.39
356.115	-1.19
356.326	-3.24
356.538	82.77
356.749	68.44
356.961	234.32
357.172	-1.19
357.384	-21.67
357.595	181.07
357.807	56.15
358.018	17.24
358.23	45.91
358.441	95.06
358.653	82.77
358.864	13.14
359.075	-50.35
359.287	58.2
359.498	101.2
359.709	115.54
359.921	52.05
360.132	115.54
360.344	64.34
360.555	-23.72
360.766	58.2
360.977	17.24
361.189	140.12
361.4	-11.43
361.611	162.64
361.823	105.3
362.034	54.1
362.245	-70.83
362.456	-48.3
362.667	111.44
362.879	62.29
363.09	74.58
363.301	58.2
363.512	41.81
363.723	23.38
363.935	97.11
364.146	133.97
364.357	25.43
364.568	121.68
364.779	17.24
364.99	168.79
365.201	17.24
365.412	93.01
365.623	-91.31
365.834	99.16
366.045	50
366.256	72.53
366.467	125.78
366.678	72.53
366.889	74.58
367.1	19.29
367.311	138.07
367.522	-38.06
367.733	119.64
367.944	80.72
368.155	31.57
368.366	90.96
368.577	86.87
368.788	90.96
368.999	-15.53
369.209	105.3
369.42	250.71
369.631	230.23
369.842	129.88
370.053	66.39
370.264	125.78
370.474	17.24
370.685	76.63
370.896	0.85
371.107	107.35
371.317	86.87
371.528	-48.3
371.739	127.83
371.95	97.11
372.16	101.2
372.371	-17.58
372.582	-48.3
372.792	172.88
373.003	140.12
373.214	115.54
373.424	82.77
373.635	7
373.846	101.2
374.056	97.11
374.267	39.76
374.477	62.29
374.688	70.48
374.898	43.86
375.109	56.15
375.319	68.44
375.53	158.55
375.74	150.36
375.951	60.24
376.161	62.29
376.372	150.36
376.582	13.14
376.793	35.67
377.003	27.48
377.214	68.44
377.424	129.88
377.635	50
377.845	13.14
378.055	68.44
378.266	-62.63
378.476	0.85
378.686	37.72
378.897	107.35
379.107	113.49
379.317	156.5
379.528	-5.29
379.738	131.92
379.948	-31.91
380.158	107.35
380.369	4.95
380.579	66.39
380.789	33.62
380.999	107.35
381.21	117.59
381.42	230.23
381.63	29.52
381.84	156.5
382.05	82.77
382.261	80.72
382.471	133.97
382.681	115.54
382.891	199.51
383.101	23.38
383.311	2.9
383.521	-15.53
383.731	129.88
383.941	111.44
384.151	113.49
384.361	13.14
384.571	23.38
384.781	4.95
384.991	199.51
385.201	154.45
385.411	25.43
385.621	127.83
385.831	47.96
386.041	9.05
386.251	39.76
386.461	174.93
386.671	142.16
386.881	45.91
387.091	21.33
387.301	183.12
387.511	43.86
387.72	-5.29
387.93	76.63
388.14	-3.24
388.35	82.77
388.56	78.68
388.769	54.1
388.979	21.33
389.189	50
389.399	115.54
389.609	152.4
389.818	164.69
390.028	138.07
390.238	90.96
390.447	97.11
390.657	97.11
390.867	82.77
391.076	0.85
391.286	25.43
391.496	64.34
391.705	62.29
391.915	129.88
392.125	162.64
392.334	50
392.544	138.07
392.753	31.57
392.963	-113.83
393.172	86.87
393.382	54.1
393.591	273.23
393.801	78.68
394.01	164.69
394.22	103.25
394.429	29.52
394.639	66.39
394.848	47.96
395.058	111.44
395.267	9.05
395.477	138.07
395.686	170.83
395.895	228.18
396.105	232.27
396.314	144.21
396.524	107.35
396.733	37.72
396.942	176.98
397.152	101.2
397.361	70.48
397.57	86.87
397.78	115.54
397.989	88.92
398.198	181.07
398.407	31.57
398.617	29.52
398.826	70.48
399.035	-3.24
399.244	121.68
399.453	107.35
399.663	54.1
399.872	70.48
400.081	-93.35
400.29	133.97
400.499	0.85
400.708	113.49
400.917	43.86
401.127	64.34
401.336	17.24
401.545	125.78
401.754	148.31
401.963	47.96
402.172	39.76
402.381	-25.77
402.59	35.67
402.799	70.48
403.008	172.88
403.217	31.57
403.426	82.77
403.635	-19.63
403.844	-5.29
404.053	86.87
404.262	-23.72
404.471	187.22
404.68	62.29
404.888	45.91
405.097	45.91
405.306	56.15
405.515	62.29
405.724	125.78
405.933	142.16
406.142	80.72
406.35	136.02
406.559	45.91
406.768	50
406.977	148.31
407.185	99.16
407.394	80.72
407.603	-54.44
407.812	125.78
408.02	103.25
408.229	62.29
408.438	103.25
408.646	-19.63
408.855	43.86
409.064	101.2
409.272	21.33
409.481	66.39
409.69	-9.39
409.898	9.05
410.107	-1.19
410.315	107.35
410.524	11.09
410.733	68.44
410.941	58.2
411.15	76.63
411.358	84.82
411.567	80.72
411.775	-9.39
411.984	66.39
412.192	150.36
412.401	-31.91
412.609	156.5
412.818	109.4
413.026	103.25
413.234	76.63
413.443	56.15
413.651	27.48
413.86	39.76
414.068	105.3
414.276	158.55
414.485	15.19
414.693	174.93
414.901	203.6
415.11	88.92
415.318	19.29
415.526	93.01
415.734	217.94
415.943	107.35
416.151	95.06
416.359	43.86
416.567	121.68
416.776	119.64
416.984	115.54
417.192	215.89
417.4	-1.19
417.608	27.48
417.817	-1.19
418.025	127.83
418.233	144.21
418.441	4.95
418.649	13.14
418.857	99.16
419.065	185.17
419.273	19.29
419.481	93.01
419.689	-29.87
419.897	25.43
420.105	9.05
420.313	164.69
420.521	179.03
420.729	183.12
420.937	62.29
421.145	29.52
421.353	129.88
421.561	131.92
421.769	80.72
421.977	76.63
422.185	158.55
422.393	56.15
422.601	230.23
422.809	160.59
423.017	86.87
423.224	13.14
423.432	144.21
423.64	76.63
423.848	68.44
424.056	19.29
424.263	187.22
424.471	74.58
424.679	215.89
424.887	-21.67
425.094	105.3
425.302	215.89
425.51	35.67
425.718	205.65
425.925	54.1
426.133	64.34
426.341	136.02
426.548	82.77
426.756	45.91
426.964	213.84
427.171	-19.63
427.379	105.3
427.586	84.82
427.794	84.82
428.001	113.49
428.209	90.96
428.417	252.75
428.624	164.69
428.832	140.12
429.039	105.3
429.247	133.97
429.454	181.07
429.662	246.61
429.869	158.55
430.076	168.79
430.284	193.36
430.491	193.36
430.699	138.07
430.906	185.17
431.114	168.79
431.321	162.64
431.528	107.35
431.736	201.55
431.943	156.5
432.15	86.87
432.358	183.12
432.565	271.19
432.772	41.81
432.979	189.27
433.187	127.83
433.394	326.48
433.601	136.02
433.808	193.36
434.016	191.31
434.223	244.56
434.43	234.32
434.637	219.99
434.844	246.61
435.052	234.32
435.259	287.57
435.466	342.86
435.673	287.57
435.88	273.23
436.087	377.68
436.294	299.86
436.501	346.96
436.708	330.58
436.915	314.19
437.122	328.53
437.329	236.37
437.537	287.57
437.743	328.53
437.95	377.68
438.157	277.33
438.364	369.49
438.571	328.53
438.778	473.93
438.985	447.31
439.192	496.46
439.399	441.17
439.606	410.45
439.813	576.33
440.02	551.76
440.227	572.24
440.433	570.19
440.64	545.61
440.847	518.99
441.054	590.67
441.261	779.08
441.467	648.01
441.674	682.83
441.881	754.51
442.088	629.58
442.294	650.06
442.501	842.57
442.708	787.27
442.914	783.18
443.121	871.24
443.328	930.63
443.534	918.34
443.741	783.18
443.948	777.03
444.154	990.02
444.361	1119.04
444.568	1000.26
444.774	996.17
444.981	996.17
445.187	1166.15
445.394	1176.39
445.6	1102.66
445.807	1291.07
446.013	1258.31
446.22	1203.01
446.426	1479.49
446.633	1547.07
446.839	1743.67
447.046	1411.9
447.252	1645.37
447.459	1620.8
447.665	1612.6
447.871	1862.46
448.078	1876.79
448.284	1878.84
448.491	2020.15
448.697	2067.25
448.903	2235.19
449.11	2257.71
449.316	2095.93
449.522	2478.9
449.728	2415.41
449.935	2558.77
450.141	2534.19
450.347	2702.12
450.553	2618.16
450.76	2808.62
450.966	2855.72
451.172	2921.26
451.378	3179.3
451.584	3099.43
451.791	3474.21
451.997	3472.16
452.203	3468.06
452.409	3713.82
452.615	4076.31
452.821	3801.88
453.027	3777.31
453.233	4219.67
453.44	4174.61
453.646	4352.79
453.852	4477.71
454.058	4813.58
454.264	4844.3
454.47	5165.83
454.676	5282.56
454.882	5780.22
455.088	5399.3
455.294	5692.16
455.5	6165.24
455.705	6574.83
455.911	6404.85
456.117	6626.03
456.323	6908.65
456.529	6935.28
456.735	7578.34
456.941	7539.43
457.147	8000.22
457.352	8288.98
457.558	8516.31
457.764	8985.29
457.97	9286.34
458.176	9571.01
458.381	10269.37
458.587	10273.46
458.793	10906.29
458.999	10793.65
459.204	12135.07
459.41	12413.59
459.616	12239.51
459.821	13087.37
460.027	13724.29
460.233	14113.41
460.438	14262.91
460.644	14987.89
460.85	15493.74
461.055	15747.69
461.261	16609.88
461.466	15995.49
461.672	16544.34
461.878	18227.78
462.083	18416.19
462.289	18680.38
462.494	19616.3
462.7	19499.56
462.905	19747.37
463.111	21365.26
463.316	22589.95
463.522	22764.03
463.727	23890.41
463.932	24848.86
464.138	25741.77
464.343	26276.29
464.549	26587.58
464.754	28217.77
464.959	29288.85
465.165	29565.33
465.37	29473.17
465.575	29497.75
465.781	31009.15
465.986	32233.83
466.191	31654.26
466.397	32072.04
466.602	31431.03
466.807	33163.61
467.012	33810.77
467.218	34197.84
467.423	34373.96
467.628	35647.8
467.833	37394.71
468.038	36442.41
468.244	36141.36
468.449	38033.68
468.654	37036.32
468.859	36757.8
469.064	36534.57
