Data from USB4F104151__76__09-30-09-291.txt Node

Date: Wed Feb 26 09:30:09 EST 2025
User: louis
Spectrometer: USB4F10415
Trigger mode: 4
Integration Time (sec): 1.000000E-1
Scans to average: 1
Electric dark correction enabled: true
Nonlinearity correction enabled: false
Boxcar width: 0
XAxis mode: Wavelengths
Number of Pixels in Spectrum: 3648
>>>>>Begin Spectral Data<<<<<
178.204	-287.06
178.424	-287.06
178.644	-287.06
178.864	-276.82
179.084	-358.74
179.304	-84.31
179.524	-35.16
179.744	-2.39
179.964	93.87
180.184	28.33
180.404	-4.44
180.624	18.09
180.844	-59.73
181.064	-31.06
181.283	5.8
181.503	34.47
181.723	36.52
181.943	-37.2
182.163	192.17
182.383	73.39
182.602	151.21
182.822	95.91
183.042	87.72
183.262	18.09
183.482	38.57
183.701	38.57
183.921	85.67
184.141	-35.16
184.361	87.72
184.58	95.91
184.8	32.43
185.02	-18.77
185.239	108.2
185.459	153.26
185.679	63.15
185.898	-88.4
186.118	63.15
186.338	79.53
186.557	196.26
186.777	42.67
186.997	30.38
187.216	1.71
187.436	218.79
187.655	130.73
187.875	91.82
188.095	34.47
188.314	153.26
188.534	112.3
188.753	-43.35
188.973	200.36
189.192	134.82
189.412	-6.49
189.631	81.58
189.851	198.31
190.07	175.78
190.29	-43.35
190.509	38.57
190.729	-35.16
190.948	112.3
191.168	224.94
191.387	104.11
191.607	-26.96
191.826	48.81
192.045	22.19
192.265	-2.39
192.484	71.34
192.704	18.09
192.923	5.8
193.142	145.06
193.362	93.87
193.581	208.55
193.8	61.1
194.02	65.19
194.239	30.38
194.458	151.21
194.678	34.47
194.897	97.96
195.116	73.39
195.335	124.58
195.555	44.71
195.774	52.91
195.993	177.83
196.212	130.73
196.432	13.99
196.651	-8.53
196.87	140.97
197.089	177.83
197.308	63.15
197.528	67.24
197.747	-14.68
197.966	57
198.185	153.26
198.404	30.38
198.623	85.67
198.842	69.29
199.062	136.87
199.281	157.35
199.5	69.29
199.719	75.43
199.938	130.73
200.157	177.83
200.376	100.01
200.595	116.39
200.814	130.73
201.033	-22.87
201.252	202.41
201.471	130.73
201.69	93.87
201.909	34.47
202.128	75.43
202.347	118.44
202.566	3.75
202.785	-108.88
203.004	30.38
203.223	276.13
203.442	71.34
203.661	18.09
203.879	138.92
204.098	163.5
204.317	13.99
204.536	145.06
204.755	116.39
204.974	157.35
205.193	22.19
205.411	124.58
205.63	110.25
205.849	65.19
206.068	46.76
206.287	65.19
206.505	149.16
206.724	52.91
206.943	13.99
207.162	59.05
207.381	69.29
207.599	-35.16
207.818	63.15
208.037	-18.77
208.255	24.23
208.474	120.49
208.693	93.87
208.911	1.71
209.13	57
209.349	130.73
209.567	145.06
209.786	128.68
210.005	140.97
210.223	59.05
210.442	-106.84
210.661	87.72
210.879	147.11
211.098	44.71
211.316	22.19
211.535	126.63
211.753	24.23
211.972	48.81
212.191	116.39
212.409	-12.63
212.628	77.48
212.846	-45.4
213.065	83.63
213.283	202.41
213.502	145.06
213.72	34.47
213.938	67.24
214.157	44.71
214.375	165.54
214.594	18.09
214.812	89.77
215.031	46.76
215.249	-16.73
215.467	24.23
215.686	198.31
215.904	108.2
216.122	59.05
216.341	175.78
216.559	97.96
216.778	83.63
216.996	183.98
217.214	73.39
217.432	106.15
217.651	71.34
217.869	40.62
218.087	54.95
218.306	59.05
218.524	69.29
218.742	104.11
218.96	83.63
219.179	18.09
219.397	16.04
219.615	210.6
219.833	138.92
220.051	59.05
220.27	206.5
220.488	112.3
220.706	112.3
220.924	34.47
221.142	-6.49
221.36	104.11
221.578	18.09
221.796	100.01
222.015	38.57
222.233	59.05
222.451	188.07
222.669	22.19
222.887	112.3
223.105	52.91
223.323	28.33
223.541	-20.82
223.759	118.44
223.977	79.53
224.195	190.12
224.413	112.3
224.631	116.39
224.849	46.76
225.067	194.22
225.285	95.91
225.503	83.63
225.721	-59.73
225.939	44.71
226.157	52.91
226.375	224.94
226.592	-26.96
226.81	28.33
227.028	75.43
227.246	169.64
227.464	112.3
227.682	165.54
227.9	116.39
228.117	95.91
228.335	216.74
228.553	-6.49
228.771	20.14
228.989	143.02
229.206	116.39
229.424	26.28
229.642	46.76
229.86	26.28
230.077	128.68
230.295	79.53
230.513	155.3
230.731	73.39
230.948	169.64
231.166	116.39
231.384	11.95
231.601	-37.2
231.819	145.06
232.037	54.95
232.254	-4.44
232.472	89.77
232.689	11.95
232.907	138.92
233.125	50.86
233.342	-12.63
233.56	26.28
233.777	-14.68
233.995	85.67
234.213	91.82
234.43	165.54
234.648	57
234.865	18.09
235.083	26.28
235.3	-0.34
235.518	126.63
235.735	132.78
235.953	194.22
236.17	18.09
236.388	-10.58
236.605	91.82
236.822	71.34
237.04	145.06
237.257	34.47
237.475	3.75
237.692	104.11
237.909	87.72
238.127	-65.88
238.344	34.47
238.562	5.8
238.779	-8.53
238.996	40.62
239.214	136.87
239.431	46.76
239.648	30.38
239.865	108.2
240.083	95.91
240.3	40.62
240.517	26.28
240.735	61.1
240.952	116.39
241.169	118.44
241.386	163.5
241.603	89.77
241.821	13.99
242.038	87.72
242.255	102.06
242.472	-0.34
242.689	136.87
242.907	130.73
243.124	44.71
243.341	52.91
243.558	-12.63
243.775	3.75
243.992	-31.06
244.209	120.49
244.426	243.37
244.643	93.87
244.86	24.23
245.078	163.5
245.295	36.52
245.512	32.43
245.729	34.47
245.946	134.82
246.163	95.91
246.38	22.19
246.597	79.53
246.814	46.76
247.031	26.28
247.248	32.43
247.464	130.73
247.681	73.39
247.898	157.35
248.115	54.95
248.332	-14.68
248.549	175.78
248.766	87.72
248.983	79.53
249.2	71.34
249.417	149.16
249.633	-2.39
249.85	124.58
250.067	24.23
250.284	116.39
250.501	100.01
250.717	132.78
250.934	20.14
251.151	61.1
251.368	26.28
251.585	44.71
251.801	46.76
252.018	9.9
252.235	179.88
252.451	57
252.668	5.8
252.885	124.58
253.102	138.92
253.318	54.95
253.535	18.09
253.752	5.8
253.968	36.52
254.185	-45.4
254.401	79.53
254.618	50.86
254.835	36.52
255.051	134.82
255.268	30.38
255.484	87.72
255.701	9.9
255.917	54.95
256.134	-22.87
256.351	83.63
256.567	24.23
256.784	30.38
257	-63.83
257.217	87.72
257.433	-0.34
257.65	79.53
257.866	114.34
258.082	3.75
258.299	18.09
258.515	95.91
258.732	-35.16
258.948	-4.44
259.165	100.01
259.381	38.57
259.597	120.49
259.814	11.95
260.03	42.67
260.246	61.1
260.463	149.16
260.679	136.87
260.895	57
261.112	95.91
261.328	52.91
261.544	75.43
261.761	149.16
261.977	-18.77
262.193	11.95
262.409	130.73
262.626	163.5
262.842	28.33
263.058	20.14
263.274	65.19
263.49	102.06
263.707	81.58
263.923	65.19
264.139	-12.63
264.355	67.24
264.571	128.68
264.787	100.01
265.004	114.34
265.22	54.95
265.436	59.05
265.652	-39.25
265.868	118.44
266.084	44.71
266.3	67.24
266.516	24.23
266.732	120.49
266.948	71.34
267.164	34.47
267.38	126.63
267.596	28.33
267.812	161.45
268.028	63.15
268.244	1.71
268.46	104.11
268.676	57
268.892	145.06
269.108	59.05
269.324	-76.12
269.54	-4.44
269.756	104.11
269.972	-51.54
270.188	34.47
270.403	67.24
270.619	28.33
270.835	38.57
271.051	87.72
271.267	30.38
271.483	-2.39
271.698	93.87
271.914	134.82
272.13	32.43
272.346	38.57
272.562	95.91
272.777	175.78
272.993	1.71
273.209	24.23
273.425	122.54
273.64	-14.68
273.856	110.25
274.072	5.8
274.287	24.23
274.503	32.43
274.719	116.39
274.934	-8.53
275.15	-47.44
275.366	-2.39
275.581	9.9
275.797	36.52
276.012	22.19
276.228	87.72
276.444	65.19
276.659	216.74
276.875	-43.35
277.09	-2.39
277.306	30.38
277.521	102.06
277.737	93.87
277.952	100.01
278.168	50.86
278.383	1.71
278.599	63.15
278.814	95.91
279.03	-0.34
279.245	71.34
279.461	34.47
279.676	95.91
279.892	54.95
280.107	-78.16
280.322	69.29
280.538	91.82
280.753	3.75
280.969	44.71
281.184	48.81
281.399	153.26
281.615	44.71
281.83	118.44
282.045	13.99
282.26	22.19
282.476	108.2
282.691	145.06
282.906	36.52
283.122	57
283.337	-6.49
283.552	79.53
283.767	102.06
283.983	149.16
284.198	112.3
284.413	118.44
284.628	-35.16
284.843	118.44
285.058	52.91
285.274	-2.39
285.489	7.85
285.704	165.54
285.919	38.57
286.134	95.91
286.349	36.52
286.564	67.24
286.779	171.69
286.995	28.33
287.21	-10.58
287.425	87.72
287.64	48.81
287.855	157.35
288.07	-37.2
288.285	120.49
288.5	165.54
288.715	102.06
288.93	85.67
289.145	32.43
289.36	95.91
289.575	42.67
289.79	124.58
290.004	28.33
290.219	140.97
290.434	-49.49
290.649	20.14
290.864	36.52
291.079	22.19
291.294	65.19
291.509	190.12
291.724	52.91
291.938	18.09
292.153	71.34
292.368	67.24
292.583	22.19
292.798	81.58
293.012	124.58
293.227	108.2
293.442	63.15
293.657	87.72
293.871	102.06
294.086	28.33
294.301	251.56
294.516	59.05
294.73	83.63
294.945	18.09
295.16	-39.25
295.374	200.36
295.589	52.91
295.804	-26.96
296.018	50.86
296.233	40.62
296.447	81.58
296.662	13.99
296.877	77.48
297.091	102.06
297.306	50.86
297.52	-18.77
297.735	122.54
297.949	91.82
298.164	59.05
298.378	108.2
298.593	42.67
298.807	-22.87
299.022	5.8
299.236	128.68
299.451	1.71
299.665	138.92
299.88	-18.77
300.094	83.63
300.309	91.82
300.523	63.15
300.737	75.43
300.952	79.53
301.166	20.14
301.381	36.52
301.595	-16.73
301.809	73.39
302.024	32.43
302.238	89.77
302.452	149.16
302.667	106.15
302.881	95.91
303.095	18.09
303.309	71.34
303.524	-8.53
303.738	93.87
303.952	13.99
304.166	52.91
304.381	-18.77
304.595	151.21
304.809	61.1
305.023	69.29
305.237	75.43
305.452	52.91
305.666	100.01
305.88	59.05
306.094	89.77
306.308	22.19
306.522	65.19
306.736	97.96
306.95	124.58
307.164	83.63
307.379	46.76
307.593	67.24
307.807	143.02
308.021	114.34
308.235	163.5
308.449	-24.92
308.663	20.14
308.877	169.64
309.091	44.71
309.305	128.68
309.519	-74.07
309.733	202.41
309.947	7.85
310.161	75.43
310.374	87.72
310.588	130.73
310.802	46.76
311.016	34.47
311.23	65.19
311.444	30.38
311.658	54.95
311.872	159.4
312.085	102.06
312.299	95.91
312.513	128.68
312.727	50.86
312.941	-0.34
313.154	91.82
313.368	132.78
313.582	143.02
313.796	143.02
314.009	140.97
314.223	77.48
314.437	-24.92
314.651	126.63
314.864	22.19
315.078	38.57
315.292	-72.02
315.505	61.1
315.719	48.81
315.933	65.19
316.146	26.28
316.36	1.71
316.573	153.26
316.787	97.96
317.001	128.68
317.214	-20.82
317.428	71.34
317.641	-14.68
317.855	95.91
318.068	93.87
318.282	71.34
318.495	263.85
318.709	89.77
318.922	13.99
319.136	153.26
319.349	128.68
319.563	-12.63
319.776	120.49
319.99	-43.35
320.203	93.87
320.417	112.3
320.63	116.39
320.843	202.41
321.057	59.05
321.27	83.63
321.483	153.26
321.697	69.29
321.91	-14.68
322.124	100.01
322.337	75.43
322.55	9.9
322.763	30.38
322.977	1.71
323.19	-12.63
323.403	71.34
323.617	75.43
323.83	83.63
324.043	71.34
324.256	50.86
324.469	-22.87
324.683	140.97
324.896	34.47
325.109	36.52
325.322	9.9
325.535	128.68
325.748	67.24
325.962	87.72
326.175	-4.44
326.388	63.15
326.601	165.54
326.814	11.95
327.027	83.63
327.24	130.73
327.453	-41.3
327.666	95.91
327.879	9.9
328.092	108.2
328.305	32.43
328.518	67.24
328.731	40.62
328.944	57
329.157	134.82
329.37	-31.06
329.583	218.79
329.796	104.11
330.009	-12.63
330.222	32.43
330.435	145.06
330.648	18.09
330.861	77.48
331.073	91.82
331.286	93.87
331.499	52.91
331.712	-51.54
331.925	61.1
332.138	24.23
332.35	175.78
332.563	-4.44
332.776	50.86
332.989	-12.63
333.202	46.76
333.414	-22.87
333.627	140.97
333.84	54.95
334.053	5.8
334.265	22.19
334.478	11.95
334.691	50.86
334.903	87.72
335.116	42.67
335.329	22.19
335.541	83.63
335.754	120.49
335.966	-2.39
336.179	116.39
336.392	-37.2
336.604	9.9
336.817	120.49
337.029	161.45
337.242	34.47
337.454	116.39
337.667	13.99
337.88	122.54
338.092	87.72
338.305	93.87
338.517	30.38
338.729	36.52
338.942	54.95
339.154	-2.39
339.367	1.71
339.579	100.01
339.792	44.71
340.004	116.39
340.217	73.39
340.429	20.14
340.641	61.1
340.854	-63.83
341.066	-31.06
341.278	91.82
341.491	282.28
341.703	54.95
341.915	3.75
342.128	85.67
342.34	108.2
342.552	11.95
342.764	77.48
342.977	52.91
343.189	87.72
343.401	159.4
343.613	48.81
343.826	75.43
344.038	63.15
344.25	93.87
344.462	-0.34
344.674	81.58
344.886	-0.34
345.099	91.82
345.311	65.19
345.523	9.9
345.735	-59.73
345.947	30.38
346.159	114.34
346.371	151.21
346.583	28.33
346.795	208.55
347.007	44.71
347.219	87.72
347.431	18.09
347.643	171.69
347.855	36.52
348.067	192.17
348.279	9.9
348.491	114.34
348.703	91.82
348.915	149.16
349.127	61.1
349.339	91.82
349.551	-18.77
349.763	165.54
349.975	16.04
350.187	95.91
350.399	54.95
350.61	153.26
350.822	93.87
351.034	147.11
351.246	30.38
351.458	134.82
351.669	77.48
351.881	128.68
352.093	108.2
352.305	159.4
352.517	50.86
352.728	151.21
352.94	95.91
353.152	38.57
353.363	-29.01
353.575	173.74
353.787	149.16
353.999	79.53
354.21	169.64
354.422	30.38
354.633	-29.01
354.845	132.78
355.057	126.63
355.268	44.71
355.48	143.02
355.692	-69.97
355.903	65.19
356.115	-4.44
356.326	-20.82
356.538	214.7
356.749	120.49
356.961	120.49
357.172	28.33
357.384	46.76
357.595	241.32
357.807	44.71
358.018	26.28
358.23	87.72
358.441	177.83
358.653	108.2
358.864	32.43
359.075	28.33
359.287	100.01
359.498	138.92
359.709	57
359.921	38.57
360.132	71.34
360.344	50.86
360.555	20.14
360.766	97.96
360.977	87.72
361.189	130.73
361.4	69.29
361.611	104.11
361.823	63.15
362.034	46.76
362.245	-35.16
362.456	11.95
362.667	116.39
362.879	-14.68
363.09	95.91
363.301	65.19
363.512	34.47
363.723	22.19
363.935	61.1
364.146	218.79
364.357	18.09
364.568	114.34
364.779	9.9
364.99	186.02
365.201	73.39
365.412	145.06
365.623	3.75
365.834	87.72
366.045	104.11
366.256	93.87
366.467	54.95
366.678	52.91
366.889	46.76
367.1	79.53
367.311	145.06
367.522	-10.58
367.733	126.63
367.944	128.68
368.155	38.57
368.366	106.15
368.577	112.3
368.788	52.91
368.999	-61.78
369.209	28.33
369.42	220.84
369.631	212.65
369.842	128.68
370.053	28.33
370.264	147.11
370.474	63.15
370.685	11.95
370.896	95.91
371.107	186.02
371.317	57
371.528	69.29
371.739	151.21
371.95	38.57
372.16	118.44
372.371	-47.44
372.582	30.38
372.792	71.34
373.003	77.48
373.214	157.35
373.424	143.02
373.635	-24.92
373.846	124.58
374.056	83.63
374.267	34.47
374.477	81.58
374.688	46.76
374.898	59.05
375.109	40.62
375.319	59.05
375.53	153.26
375.74	91.82
375.951	40.62
376.161	134.82
376.372	69.29
376.582	-55.64
376.793	34.47
377.003	-47.44
377.214	126.63
377.424	38.57
377.635	22.19
377.845	-18.77
378.055	161.45
378.266	-18.77
378.476	-2.39
378.686	79.53
378.897	79.53
379.107	128.68
379.317	108.2
379.528	3.75
379.738	79.53
379.948	16.04
380.158	147.11
380.369	32.43
380.579	116.39
380.789	77.48
380.999	112.3
381.21	22.19
381.42	280.23
381.63	52.91
381.84	91.82
382.05	48.81
382.261	126.63
382.471	206.5
382.681	67.24
382.891	145.06
383.101	59.05
383.311	26.28
383.521	40.62
383.731	106.15
383.941	71.34
384.151	54.95
384.361	40.62
384.571	67.24
384.781	102.06
384.991	216.74
385.201	194.22
385.411	87.72
385.621	114.34
385.831	22.19
386.041	93.87
386.251	112.3
386.461	93.87
386.671	9.9
386.881	46.76
387.091	42.67
387.301	122.54
387.511	143.02
387.72	9.9
387.93	151.21
388.14	-45.4
388.35	93.87
388.56	143.02
388.769	132.78
388.979	112.3
389.189	-6.49
389.399	75.43
389.609	38.57
389.818	104.11
390.028	95.91
390.238	75.43
390.447	46.76
390.657	69.29
390.867	50.86
391.076	63.15
391.286	100.01
391.496	71.34
391.705	104.11
391.915	108.2
392.125	71.34
392.334	63.15
392.544	206.5
392.753	46.76
392.963	34.47
393.172	54.95
393.382	-26.96
393.591	124.58
393.801	-4.44
394.01	161.45
394.22	85.67
394.429	28.33
394.639	59.05
394.848	13.99
395.058	126.63
395.267	112.3
395.477	83.63
395.686	157.35
395.895	214.7
396.105	237.22
396.314	132.78
396.524	50.86
396.733	77.48
396.942	104.11
397.152	120.49
397.361	177.83
397.57	79.53
397.78	108.2
397.989	114.34
398.198	208.55
398.407	63.15
398.617	-2.39
398.826	73.39
399.035	22.19
399.244	169.64
399.453	112.3
399.663	11.95
399.872	69.29
400.081	-14.68
400.29	149.16
400.499	59.05
400.708	153.26
400.917	65.19
401.127	46.76
401.336	46.76
401.545	202.41
401.754	224.94
401.963	112.3
402.172	24.23
402.381	-16.73
402.59	50.86
402.799	52.91
403.008	102.06
403.217	63.15
403.426	89.77
403.635	-92.5
403.844	116.39
404.053	-35.16
404.262	11.95
404.471	243.37
404.68	85.67
404.888	-63.83
405.097	30.38
405.306	-0.34
405.515	130.73
405.724	26.28
405.933	87.72
406.142	77.48
406.35	128.68
406.559	77.48
406.768	81.58
406.977	145.06
407.185	112.3
407.394	157.35
407.603	-26.96
407.812	83.63
408.02	128.68
408.229	18.09
408.438	38.57
408.646	11.95
408.855	18.09
409.064	83.63
409.272	20.14
409.481	108.2
409.69	50.86
409.898	59.05
410.107	26.28
410.315	83.63
410.524	-47.44
410.733	52.91
410.941	36.52
411.15	77.48
411.358	40.62
411.567	132.78
411.775	54.95
411.984	130.73
412.192	161.45
412.401	-49.49
412.609	161.45
412.818	40.62
413.026	112.3
413.234	87.72
413.443	26.28
413.651	42.67
413.86	67.24
414.068	136.87
414.276	169.64
414.485	112.3
414.693	153.26
414.901	181.93
415.11	83.63
415.318	13.99
415.526	95.91
415.734	104.11
415.943	44.71
416.151	206.5
416.359	112.3
416.567	79.53
416.776	136.87
416.984	120.49
417.192	220.84
417.4	59.05
417.608	42.67
417.817	-41.3
418.025	77.48
418.233	224.94
418.441	-2.39
418.649	42.67
418.857	112.3
419.065	149.16
419.273	11.95
419.481	71.34
419.689	67.24
419.897	38.57
420.105	22.19
420.313	179.88
420.521	175.78
420.729	126.63
420.937	-14.68
421.145	38.57
421.353	128.68
421.561	210.6
421.769	143.02
421.977	100.01
422.185	140.97
422.393	13.99
422.601	136.87
422.809	128.68
423.017	65.19
423.224	128.68
423.432	161.45
423.64	114.34
423.848	177.83
424.056	48.81
424.263	116.39
424.471	24.23
424.679	165.54
424.887	32.43
425.094	52.91
425.302	118.44
425.51	63.15
425.718	128.68
425.925	97.96
426.133	16.04
426.341	239.27
426.548	65.19
426.756	-4.44
426.964	116.39
427.171	116.39
427.379	20.14
427.586	-4.44
427.794	161.45
428.001	153.26
428.209	122.54
428.417	110.25
428.624	169.64
428.832	112.3
429.039	87.72
429.247	87.72
429.454	85.67
429.662	177.83
429.869	136.87
430.076	130.73
430.284	130.73
430.491	212.65
430.699	102.06
430.906	186.02
431.114	159.4
431.321	169.64
431.528	104.11
431.736	143.02
431.943	136.87
432.15	224.94
432.358	224.94
432.565	249.51
432.772	16.04
432.979	214.7
433.187	128.68
433.394	196.26
433.601	95.91
433.808	243.37
434.016	202.41
434.223	272.04
434.43	212.65
434.637	169.64
434.844	333.48
435.052	179.88
435.259	310.95
435.466	294.57
435.673	292.52
435.88	362.15
436.087	339.62
436.294	353.96
436.501	216.74
436.708	331.43
436.915	247.46
437.122	267.94
437.329	358.05
437.537	284.33
437.743	417.44
437.95	382.63
438.157	286.37
438.364	341.67
438.571	433.83
438.778	435.88
438.985	407.2
439.192	419.49
439.399	349.86
439.606	478.88
439.813	538.27
440.02	622.24
440.227	571.04
440.433	421.54
440.64	579.23
440.847	394.92
441.054	507.55
441.261	663.2
441.467	521.89
441.674	421.54
441.881	646.82
442.088	683.68
442.294	710.3
442.501	710.3
442.708	888.48
442.914	761.5
443.121	814.75
443.328	771.74
443.534	868
443.741	784.03
443.948	677.54
444.154	908.96
444.361	1085.08
444.568	874.14
444.774	984.73
444.981	925.34
445.187	1035.93
445.394	968.35
445.6	1037.98
445.807	1267.35
446.013	1226.39
446.22	1113.75
446.426	1242.78
446.633	1289.88
446.839	1519.25
447.046	1300.12
447.252	1511.06
447.459	1336.98
447.665	1463.96
447.871	1619.6
448.078	1810.06
448.284	1771.15
448.491	1730.19
448.697	1928.85
448.903	1881.74
449.11	2010.76
449.316	1953.42
449.522	2141.83
449.728	2135.69
449.935	2338.44
450.141	2444.93
450.347	2473.6
450.553	2346.63
450.76	2512.52
450.966	2672.26
451.172	2762.37
451.378	2772.61
451.584	2938.49
451.791	3030.65
451.997	3079.8
452.203	3184.25
452.409	3497.59
452.615	3417.72
452.821	3462.77
453.027	3487.35
453.233	3933.81
453.44	3782.26
453.646	4175.47
453.852	4197.99
454.058	4249.19
454.264	4535.91
454.47	4822.63
454.676	4843.1
454.882	5172.83
455.088	4961.89
455.294	5238.36
455.5	5717.59
455.705	5963.34
455.911	5877.33
456.117	6168.14
456.323	6198.86
456.529	6090.32
456.735	7011.9
456.941	7009.86
457.147	7382.59
457.352	7628.34
457.558	7751.22
457.764	8209.97
457.97	8455.72
458.176	8558.12
458.381	8994.34
458.587	9311.77
458.793	9786.9
458.999	9592.34
459.204	11017.73
459.41	11351.55
459.616	11068.93
459.821	11654.65
460.027	12336.62
460.233	12809.7
460.438	12979.68
460.644	13747.67
460.85	13821.4
461.055	14218.71
461.261	15146.44
461.466	14919.11
461.672	15211.97
461.878	16766.38
462.083	16704.94
462.289	17051.05
462.494	17933.72
462.7	17946.01
462.905	18034.07
463.111	19244.42
463.316	20370.8
463.522	20852.08
463.727	21298.53
463.932	22076.76
464.138	23051.59
464.343	24128.83
464.549	24159.55
464.754	25931.04
464.959	26578.2
465.165	26967.31
465.37	26762.51
465.575	26639.64
465.781	28691.7
465.986	29402.35
466.191	28355.83
466.397	29463.79
466.602	28548.34
466.807	30065.89
467.012	30764.25
467.218	30915.79
467.423	31409.36
467.628	32128.19
467.833	33703.08
468.038	33301.68
468.244	32394.43
468.449	34086.05
