Data from USB4F104151__35__11-26-23-594.txt Node

Date: Wed Feb 26 11:26:23 EST 2025
User: louis
Spectrometer: USB4F10415
Trigger mode: 4
Integration Time (sec): 1.000000E-1
Scans to average: 1
Electric dark correction enabled: true
Nonlinearity correction enabled: false
Boxcar width: 0
XAxis mode: Wavelengths
Number of Pixels in Spectrum: 3648
>>>>>Begin Spectral Data<<<<<
178.204	-359.93
178.424	-359.93
178.644	-359.93
178.864	-452.09
179.084	-419.32
179.304	-26.11
179.524	-3.58
179.744	35.33
179.964	92.67
180.184	102.91
180.404	29.18
180.624	-22.02
180.844	-13.82
181.064	-73.21
181.283	-50.69
181.503	-79.36
181.723	8.7
181.943	-110.08
182.163	229.88
182.383	-83.45
182.602	33.28
182.822	107.01
183.042	35.33
183.262	-30.21
183.482	39.42
183.701	6.66
183.921	31.23
184.141	-32.26
184.361	102.91
184.58	90.62
184.8	104.96
185.02	-122.37
185.239	104.96
185.459	139.77
185.679	49.66
185.898	-48.64
186.118	2.56
186.338	74.24
186.557	121.34
186.777	-28.16
186.997	64
187.216	74.24
187.436	274.94
187.655	51.71
187.875	51.71
188.095	33.28
188.314	70.14
188.534	68.09
188.753	-28.16
188.973	143.87
189.192	176.64
189.412	16.9
189.631	0.51
189.851	74.24
190.07	162.3
190.29	-46.59
190.509	-13.82
190.729	-65.02
190.948	98.81
191.168	180.73
191.387	143.87
191.607	39.42
191.826	76.29
192.045	55.81
192.265	-15.87
192.484	70.14
192.704	86.53
192.923	-71.17
193.142	199.16
193.362	70.14
193.581	102.91
193.8	37.38
194.02	53.76
194.239	29.18
194.458	115.2
194.678	74.24
194.897	-11.78
195.116	78.33
195.335	100.86
195.555	4.61
195.774	-69.12
195.993	100.86
196.212	12.8
196.432	-30.21
196.651	-58.88
196.87	-28.16
197.089	307.71
197.308	53.76
197.528	115.2
197.747	-24.06
197.966	39.42
198.185	127.49
198.404	-40.45
198.623	127.49
198.842	78.33
199.062	98.81
199.281	133.63
199.5	37.38
199.719	127.49
199.938	94.72
200.157	70.14
200.376	59.9
200.595	102.91
200.814	37.38
201.033	-56.83
201.252	113.15
201.471	96.77
201.69	115.2
201.909	86.53
202.128	150.01
202.347	131.58
202.566	66.05
202.785	-28.16
203.004	-9.73
203.223	227.84
203.442	27.14
203.661	-5.63
203.879	18.94
204.098	170.49
204.317	8.7
204.536	53.76
204.755	119.29
204.974	147.97
205.193	12.8
205.411	127.49
205.63	113.15
205.849	129.53
206.068	-17.92
206.287	-42.5
206.505	170.49
206.724	-24.06
206.943	39.42
207.162	-17.92
207.381	96.77
207.599	16.9
207.818	-30.21
208.037	16.9
208.255	29.18
208.474	53.76
208.693	29.18
208.911	-11.78
209.13	66.05
209.349	51.71
209.567	94.72
209.786	84.48
210.005	143.87
210.223	98.81
210.442	-132.61
210.661	-32.26
210.879	27.14
211.098	94.72
211.316	59.9
211.535	64
211.753	25.09
211.972	127.49
212.191	-5.63
212.409	-1.54
212.628	119.29
212.846	49.66
213.065	49.66
213.283	66.05
213.502	96.77
213.72	41.47
213.938	4.61
214.157	-50.69
214.375	145.92
214.594	-5.63
214.812	127.49
215.031	-60.93
215.249	61.95
215.467	104.96
215.686	6.66
215.904	135.68
216.122	109.05
216.341	98.81
216.559	2.56
216.778	88.57
216.996	41.47
217.214	31.23
217.432	-26.11
217.651	-44.54
217.869	8.7
218.087	37.38
218.306	8.7
218.524	49.66
218.742	-38.4
218.96	94.72
219.179	-77.31
219.397	-24.06
219.615	160.25
219.833	121.34
220.051	12.8
220.27	92.67
220.488	160.25
220.706	47.62
220.924	-11.78
221.142	61.95
221.36	57.86
221.578	66.05
221.796	68.09
222.015	37.38
222.233	35.33
222.451	92.67
222.669	20.99
222.887	147.97
223.105	27.14
223.323	-3.58
223.541	6.66
223.759	29.18
223.977	100.86
224.195	68.09
224.413	107.01
224.631	2.56
224.849	88.57
225.067	193.02
225.285	-19.97
225.503	-9.73
225.721	-105.98
225.939	55.81
226.157	33.28
226.375	223.74
226.592	-9.73
226.81	-13.82
227.028	154.11
227.246	156.16
227.464	23.04
227.682	117.25
227.9	64
228.117	57.86
228.335	55.81
228.553	-3.58
228.771	37.38
228.989	102.91
229.206	64
229.424	4.61
229.642	-69.12
229.86	-34.3
230.077	131.58
230.295	74.24
230.513	102.91
230.731	82.43
230.948	174.59
231.166	160.25
231.384	45.57
231.601	-75.26
231.819	156.16
232.037	-34.3
232.254	-42.5
232.472	18.94
232.689	-56.83
232.907	184.83
233.125	-69.12
233.342	-46.59
233.56	33.28
233.777	-11.78
233.995	23.04
234.213	64
234.43	88.57
234.648	88.57
234.865	37.38
235.083	10.75
235.3	37.38
235.518	90.62
235.735	35.33
235.953	37.38
236.17	23.04
236.388	-24.06
236.605	-13.82
236.822	66.05
237.04	180.73
237.257	27.14
237.475	-50.69
237.692	92.67
237.909	72.19
238.127	51.71
238.344	43.52
238.562	45.57
238.779	-30.21
238.996	-118.27
239.214	61.95
239.431	51.71
239.648	10.75
239.865	27.14
240.083	125.44
240.3	-62.98
240.517	-9.73
240.735	0.51
240.952	170.49
241.169	72.19
241.386	139.77
241.603	20.99
241.821	-36.35
242.038	135.68
242.255	117.25
242.472	-5.63
242.689	76.29
242.907	53.76
243.124	31.23
243.341	-34.3
243.558	-22.02
243.775	-30.21
243.992	-87.55
244.209	115.2
244.426	199.16
244.643	29.18
244.86	-19.97
245.078	57.86
245.295	115.2
245.512	-36.35
245.729	-77.31
245.946	53.76
246.163	6.66
246.38	12.8
246.597	4.61
246.814	-11.78
247.031	2.56
247.248	82.43
247.464	35.33
247.681	64
247.898	64
248.115	35.33
248.332	-13.82
248.549	121.34
248.766	117.25
248.983	-17.92
249.2	84.48
249.417	115.2
249.633	-48.64
249.85	27.14
250.067	53.76
250.284	33.28
250.501	59.9
250.717	107.01
250.934	-65.02
251.151	57.86
251.368	-9.73
251.585	27.14
251.801	104.96
252.018	-71.17
252.235	102.91
252.451	-114.17
252.668	2.56
252.885	51.71
253.102	94.72
253.318	12.8
253.535	12.8
253.752	-26.11
253.968	23.04
254.185	-112.13
254.401	115.2
254.618	96.77
254.835	23.04
255.051	125.44
255.268	86.53
255.484	-1.54
255.701	-9.73
255.917	68.09
256.134	-36.35
256.351	-40.45
256.567	2.56
256.784	18.94
257	-85.5
257.217	127.49
257.433	20.99
257.65	31.23
257.866	80.38
258.082	-44.54
258.299	-34.3
258.515	20.99
258.732	-44.54
258.948	-36.35
259.165	31.23
259.381	-15.87
259.597	117.25
259.814	94.72
260.03	20.99
260.246	-58.88
260.463	125.44
260.679	139.77
260.895	25.09
261.112	78.33
261.328	-22.02
261.544	20.99
261.761	170.49
261.977	-15.87
262.193	-54.78
262.409	117.25
262.626	18.94
262.842	0.51
263.058	-11.78
263.274	35.33
263.49	96.77
263.707	147.97
263.923	25.09
264.139	-75.26
264.355	49.66
264.571	61.95
264.787	117.25
265.004	131.58
265.22	49.66
265.436	-42.5
265.652	-54.78
265.868	111.1
266.084	-19.97
266.3	45.57
266.516	-42.5
266.732	39.42
266.948	33.28
267.164	35.33
267.38	6.66
267.596	94.72
267.812	158.21
268.028	-17.92
268.244	-22.02
268.46	-13.82
268.676	47.62
268.892	92.67
269.108	-73.21
269.324	-67.07
269.54	-28.16
269.756	20.99
269.972	-91.65
270.188	90.62
270.403	-46.59
270.619	33.28
270.835	121.34
271.051	-28.16
271.267	-81.41
271.483	8.7
271.698	47.62
271.914	29.18
272.13	109.05
272.346	-11.78
272.562	59.9
272.777	152.06
272.993	-19.97
273.209	43.52
273.425	78.33
273.64	-126.46
273.856	76.29
274.072	-46.59
274.287	68.09
274.503	66.05
274.719	102.91
274.934	14.85
275.15	-85.5
275.366	78.33
275.581	43.52
275.797	-30.21
276.012	10.75
276.228	61.95
276.444	59.9
276.659	102.91
276.875	2.56
277.09	-19.97
277.306	-3.58
277.521	53.76
277.737	45.57
277.952	76.29
278.168	2.56
278.383	117.25
278.599	70.14
278.814	115.2
279.03	49.66
279.245	152.06
279.461	29.18
279.676	123.39
279.892	-124.41
280.107	-44.54
280.322	8.7
280.538	98.81
280.753	-58.88
280.969	45.57
281.184	29.18
281.399	104.96
281.615	70.14
281.83	68.09
282.045	-77.31
282.26	-9.73
282.476	47.62
282.691	168.45
282.906	92.67
283.122	2.56
283.337	23.04
283.552	53.76
283.767	-34.3
283.983	27.14
284.198	18.94
284.413	10.75
284.628	-15.87
284.843	133.63
285.058	113.15
285.274	12.8
285.489	-1.54
285.704	33.28
285.919	-34.3
286.134	35.33
286.349	102.91
286.564	37.38
286.779	152.06
286.995	33.28
287.21	-56.83
287.425	117.25
287.64	41.47
287.855	86.53
288.07	-67.07
288.285	113.15
288.5	109.05
288.715	43.52
288.93	66.05
289.145	-5.63
289.36	47.62
289.575	-73.21
289.79	86.53
290.004	0.51
290.219	172.54
290.434	-54.78
290.649	18.94
290.864	-101.89
291.079	-40.45
291.294	82.43
291.509	53.76
291.724	45.57
291.938	-40.45
292.153	90.62
292.368	-50.69
292.583	33.28
292.798	145.92
293.012	86.53
293.227	29.18
293.442	-7.68
293.657	100.86
293.871	104.96
294.086	98.81
294.301	246.27
294.516	66.05
294.73	80.38
294.945	-3.58
295.16	-26.11
295.374	98.81
295.589	166.4
295.804	70.14
296.018	-3.58
296.233	82.43
296.447	113.15
296.662	27.14
296.877	78.33
297.091	53.76
297.306	72.19
297.52	37.38
297.735	68.09
297.949	55.81
298.164	72.19
298.378	94.72
298.593	-30.21
298.807	-24.06
299.022	53.76
299.236	174.59
299.451	-52.74
299.665	-30.21
299.88	-19.97
300.094	47.62
300.309	39.42
300.523	64
300.737	-5.63
300.952	143.87
301.166	59.9
301.381	70.14
301.595	16.9
301.809	-1.54
302.024	39.42
302.238	-48.64
302.452	68.09
302.667	-26.11
302.881	86.53
303.095	59.9
303.309	47.62
303.524	-15.87
303.738	2.56
303.952	18.94
304.166	141.82
304.381	-105.98
304.595	109.05
304.809	39.42
305.023	41.47
305.237	57.86
305.452	37.38
305.666	94.72
305.88	109.05
306.094	111.1
306.308	8.7
306.522	109.05
306.736	4.61
306.95	123.39
307.164	-73.21
307.379	102.91
307.593	94.72
307.807	123.39
308.021	143.87
308.235	12.8
308.449	-36.35
308.663	20.99
308.877	188.93
309.091	29.18
309.305	76.29
309.519	-97.79
309.733	154.11
309.947	-48.64
310.161	53.76
310.374	119.29
310.588	104.96
310.802	-52.74
311.016	-5.63
311.23	154.11
311.444	-5.63
311.658	4.61
311.872	143.87
312.085	80.38
312.299	107.01
312.513	109.05
312.727	43.52
312.941	-3.58
313.154	76.29
313.368	98.81
313.582	12.8
313.796	49.66
314.009	45.57
314.223	156.16
314.437	2.56
314.651	47.62
314.864	-44.54
315.078	49.66
315.292	23.04
315.505	16.9
315.719	102.91
315.933	68.09
316.146	-11.78
316.36	-15.87
316.573	193.02
316.787	80.38
317.001	49.66
317.214	-38.4
317.428	70.14
317.641	-38.4
317.855	-28.16
318.068	68.09
318.282	45.57
318.495	182.78
318.709	109.05
318.922	94.72
319.136	160.25
319.349	139.77
319.563	78.33
319.776	94.72
319.99	23.04
320.203	88.57
320.417	14.85
320.63	96.77
320.843	137.73
321.057	31.23
321.27	64
321.483	88.57
321.697	102.91
321.91	-19.97
322.124	49.66
322.337	80.38
322.55	-9.73
322.763	4.61
322.977	57.86
323.19	-34.3
323.403	47.62
323.617	23.04
323.83	66.05
324.043	-62.98
324.256	-22.02
324.469	-56.83
324.683	115.2
324.896	68.09
325.109	111.1
325.322	8.7
325.535	37.38
325.748	80.38
325.962	18.94
326.175	31.23
326.388	33.28
326.601	107.01
326.814	25.09
327.027	12.8
327.24	135.68
327.453	-40.45
327.666	123.39
327.879	78.33
328.092	23.04
328.305	143.87
328.518	-93.69
328.731	20.99
328.944	10.75
329.157	84.48
329.37	12.8
329.583	162.3
329.796	66.05
330.009	-89.6
330.222	154.11
330.435	72.19
330.648	23.04
330.861	33.28
331.073	4.61
331.286	137.73
331.499	53.76
331.712	-7.68
331.925	49.66
332.138	92.67
332.35	135.68
332.563	-42.5
332.776	100.86
332.989	-60.93
333.202	57.86
333.414	51.71
333.627	-5.63
333.84	51.71
334.053	96.77
334.265	-19.97
334.478	0.51
334.691	14.85
334.903	-30.21
335.116	-1.54
335.329	12.8
335.541	111.1
335.754	137.73
335.966	29.18
336.179	86.53
336.392	115.2
336.604	31.23
336.817	156.16
337.029	92.67
337.242	55.81
337.454	141.82
337.667	-5.63
337.88	96.77
338.092	127.49
338.305	129.53
338.517	47.62
338.729	119.29
338.942	156.16
339.154	-52.74
339.367	-89.6
339.579	125.44
339.792	-13.82
340.004	84.48
340.217	104.96
340.429	10.75
340.641	-40.45
340.854	31.23
341.066	-118.27
341.278	119.29
341.491	119.29
341.703	29.18
341.915	-22.02
342.128	92.67
342.34	64
342.552	2.56
342.764	35.33
342.977	6.66
343.189	4.61
343.401	78.33
343.613	-46.59
343.826	39.42
344.038	-32.26
344.25	80.38
344.462	-81.41
344.674	129.53
344.886	49.66
345.099	141.82
345.311	66.05
345.523	8.7
345.735	18.94
345.947	86.53
346.159	61.95
346.371	23.04
346.583	12.8
346.795	223.74
347.007	74.24
347.219	86.53
347.431	4.61
347.643	107.01
347.855	86.53
348.067	170.49
348.279	29.18
348.491	72.19
348.703	92.67
348.915	41.47
349.127	4.61
349.339	8.7
349.551	-13.82
349.763	135.68
349.975	137.73
350.187	107.01
350.399	115.2
350.61	41.47
350.822	31.23
351.034	88.57
351.246	12.8
351.458	41.47
351.669	64
351.881	2.56
352.093	33.28
352.305	119.29
352.517	41.47
352.728	74.24
352.94	16.9
353.152	127.49
353.363	25.09
353.575	66.05
353.787	207.36
353.999	109.05
354.21	137.73
354.422	-24.06
354.633	18.94
354.845	82.43
355.057	14.85
355.268	117.25
355.48	20.99
355.692	-30.21
355.903	45.57
356.115	-50.69
356.326	-91.65
356.538	94.72
356.749	51.71
356.961	119.29
357.172	10.75
357.384	-9.73
357.595	176.64
357.807	37.38
358.018	-48.64
358.23	74.24
358.441	104.96
358.653	6.66
358.864	0.51
359.075	-11.78
359.287	43.52
359.498	76.29
359.709	143.87
359.921	39.42
360.132	82.43
360.344	82.43
360.555	25.09
360.766	100.86
360.977	-1.54
361.189	180.73
361.4	-13.82
361.611	100.86
361.823	123.39
362.034	27.14
362.245	-46.59
362.456	41.47
362.667	39.42
362.879	-36.35
363.09	-7.68
363.301	64
363.512	66.05
363.723	-26.11
363.935	8.7
364.146	127.49
364.357	-1.54
364.568	35.33
364.779	-71.17
364.99	166.4
365.201	-3.58
365.412	111.1
365.623	-87.55
365.834	47.62
366.045	145.92
366.256	84.48
366.467	2.56
366.678	-48.64
366.889	49.66
367.1	-30.21
367.311	113.15
367.522	43.52
367.733	86.53
367.944	33.28
368.155	-28.16
368.366	64
368.577	166.4
368.788	119.29
368.999	20.99
369.209	86.53
369.42	158.21
369.631	225.79
369.842	135.68
370.053	33.28
370.264	135.68
370.474	-15.87
370.685	27.14
370.896	18.94
371.107	160.25
371.317	59.9
371.528	72.19
371.739	125.44
371.95	25.09
372.16	70.14
372.371	-110.08
372.582	-22.02
372.792	41.47
373.003	82.43
373.214	80.38
373.424	78.33
373.635	-1.54
373.846	90.62
374.056	-38.4
374.267	68.09
374.477	104.96
374.688	-42.5
374.898	98.81
375.109	-3.58
375.319	47.62
375.53	119.29
375.74	61.95
375.951	-26.11
376.161	125.44
376.372	178.69
376.582	64
376.793	123.39
377.003	70.14
377.214	18.94
377.424	43.52
377.635	45.57
377.845	-26.11
378.055	102.91
378.266	-17.92
378.476	18.94
378.686	86.53
378.897	92.67
379.107	102.91
379.317	78.33
379.528	-3.58
379.738	92.67
379.948	-7.68
380.158	143.87
380.369	86.53
380.579	43.52
380.789	68.09
380.999	111.1
381.21	102.91
381.42	252.41
381.63	-7.68
381.84	61.95
382.05	111.1
382.261	184.83
382.471	104.96
382.681	-15.87
382.891	168.45
383.101	70.14
383.311	-22.02
383.521	57.86
383.731	80.38
383.941	86.53
384.151	37.38
384.361	-7.68
384.571	61.95
384.781	86.53
384.991	162.3
385.201	186.88
385.411	82.43
385.621	51.71
385.831	139.77
386.041	16.9
386.251	2.56
386.461	100.86
386.671	68.09
386.881	57.86
387.091	0.51
387.301	59.9
387.511	-34.3
387.72	35.33
387.93	102.91
388.14	-126.46
388.35	33.28
388.56	115.2
388.769	94.72
388.979	43.52
389.189	-28.16
389.399	51.71
389.609	90.62
389.818	131.58
390.028	84.48
390.238	49.66
390.447	0.51
390.657	94.72
390.867	-58.88
391.076	-91.65
391.286	86.53
391.496	33.28
391.705	70.14
391.915	90.62
392.125	102.91
392.334	76.29
392.544	145.92
392.753	-44.54
392.963	-40.45
393.172	33.28
393.382	64
393.591	184.83
393.801	35.33
394.01	147.97
394.22	47.62
394.429	121.34
394.639	78.33
394.848	107.01
395.058	117.25
395.267	-3.58
395.477	41.47
395.686	0.51
395.895	205.31
396.105	209.4
396.314	88.57
396.524	31.23
396.733	84.48
396.942	137.73
397.152	47.62
397.361	123.39
397.57	10.75
397.78	39.42
397.989	55.81
398.198	223.74
398.407	98.81
398.617	92.67
398.826	59.9
399.035	27.14
399.244	168.45
399.453	12.8
399.663	14.85
399.872	59.9
400.081	2.56
400.29	193.02
400.499	-7.68
400.708	129.53
400.917	131.58
401.127	43.52
401.336	64
401.545	94.72
401.754	68.09
401.963	78.33
402.172	-46.59
402.381	-52.74
402.59	39.42
402.799	-1.54
403.008	141.82
403.217	59.9
403.426	70.14
403.635	-62.98
403.844	-3.58
404.053	6.66
404.262	96.77
404.471	123.39
404.68	35.33
404.888	23.04
405.097	-22.02
405.306	115.2
405.515	96.77
405.724	0.51
405.933	172.54
406.142	59.9
406.35	127.49
406.559	39.42
406.768	88.57
406.977	160.25
407.185	49.66
407.394	119.29
407.603	-36.35
407.812	154.11
408.02	145.92
408.229	111.1
408.438	131.58
408.646	-75.26
408.855	-13.82
409.064	117.25
409.272	66.05
409.481	109.05
409.69	27.14
409.898	-26.11
410.107	92.67
410.315	141.82
410.524	-52.74
410.733	61.95
410.941	10.75
411.15	47.62
411.358	160.25
411.567	211.45
411.775	64
411.984	35.33
412.192	162.3
412.401	-1.54
412.609	117.25
412.818	186.88
413.026	133.63
413.234	29.18
413.443	84.48
413.651	-7.68
413.86	25.09
414.068	170.49
414.276	137.73
414.485	-15.87
414.693	164.35
414.901	199.16
415.11	-9.73
415.318	113.15
415.526	96.77
415.734	90.62
415.943	66.05
416.151	104.96
416.359	20.99
416.567	113.15
416.776	147.97
416.984	82.43
417.192	203.26
417.4	-1.54
417.608	39.42
417.817	14.85
418.025	74.24
418.233	150.01
418.441	-75.26
418.649	-19.97
418.857	107.01
419.065	195.07
419.273	-50.69
419.481	74.24
419.689	37.38
419.897	119.29
420.105	-38.4
420.313	86.53
420.521	117.25
420.729	111.1
420.937	20.99
421.145	-9.73
421.353	137.73
421.561	201.21
421.769	88.57
421.977	16.9
422.185	147.97
422.393	-7.68
422.601	111.1
422.809	135.68
423.017	82.43
423.224	72.19
423.432	135.68
423.64	59.9
423.848	141.82
424.056	51.71
424.263	107.01
424.471	29.18
424.679	197.12
424.887	4.61
425.094	45.57
425.302	84.48
425.51	12.8
425.718	88.57
425.925	137.73
426.133	10.75
426.341	162.3
426.548	16.9
426.756	102.91
426.964	117.25
427.171	27.14
427.379	92.67
427.586	61.95
427.794	92.67
428.001	107.01
428.209	59.9
428.417	205.31
428.624	141.82
428.832	186.88
429.039	74.24
429.247	59.9
429.454	115.2
429.662	227.84
429.869	76.29
430.076	45.57
430.284	211.45
430.491	176.64
430.699	129.53
430.906	266.75
431.114	131.58
431.321	98.81
431.528	84.48
431.736	168.45
431.943	207.36
432.15	107.01
432.358	168.45
432.565	258.56
432.772	8.7
432.979	174.59
433.187	160.25
433.394	252.41
433.601	129.53
433.808	221.69
434.016	274.94
434.223	137.73
434.43	217.6
434.637	252.41
434.844	279.04
435.052	160.25
435.259	248.32
435.466	356.86
435.673	229.88
435.88	332.28
436.087	283.13
436.294	315.9
436.501	260.6
436.708	330.23
436.915	291.32
437.122	352.76
437.329	254.46
437.537	371.19
437.743	315.9
437.95	412.15
438.157	311.8
438.364	373.24
438.571	340.47
438.778	401.91
438.985	395.77
439.192	502.26
439.399	389.63
439.606	416.25
439.813	498.17
440.02	590.33
440.227	670.2
440.433	549.37
440.64	561.66
440.847	514.55
441.054	524.79
441.261	635.38
441.467	664.05
441.674	588.28
441.881	668.15
442.088	561.66
442.294	694.77
442.501	860.66
442.708	659.96
442.914	709.11
443.121	815.6
443.328	852.47
443.534	965.11
443.741	879.09
443.948	868.85
444.154	909.81
444.361	1114.61
444.568	1036.78
444.774	1098.22
444.981	985.58
445.187	1092.08
445.394	1143.28
445.6	1094.13
445.807	1333.74
446.013	1200.62
446.22	1208.81
446.426	1341.93
446.633	1341.93
446.839	1577.45
447.046	1442.28
447.252	1724.9
447.459	1567.21
447.665	1516.01
447.871	1726.95
448.078	1884.64
448.284	1911.27
448.491	1946.08
448.697	1972.71
448.903	2085.34
449.11	2083.3
449.316	2034.14
449.522	2402.78
449.728	2404.83
449.935	2445.79
450.141	2435.55
450.347	2679.26
450.553	2675.16
450.76	2724.31
450.966	2888.15
451.172	2914.77
451.378	3033.55
451.584	3029.46
451.791	3353.04
451.997	3555.79
452.203	3559.88
452.409	3760.58
452.615	3766.73
452.821	3672.52
453.027	3717.58
453.233	4368.83
453.44	4030.91
453.646	4334.01
453.852	4262.33
454.058	4606.39
454.264	4686.26
454.47	5263.79
454.676	5267.89
454.882	5562.8
455.088	5382.57
455.294	5595.56
455.5	6224.29
455.705	6295.97
455.911	6316.45
456.117	6523.29
456.323	6683.03
456.529	6648.22
456.735	7328.14
456.941	7553.42
457.147	7960.97
457.352	8092.04
457.558	8407.42
457.764	8960.38
457.97	8878.46
458.176	9339.25
458.381	9804.14
458.587	9959.78
458.793	10430.82
458.999	10641.76
459.204	11907.4
459.41	12079.43
459.616	12063.05
459.821	12790.08
460.027	13148.47
460.233	13936.94
460.438	13787.44
460.644	14704.93
460.85	14723.36
461.055	15331.61
461.261	16247.05
461.466	15829.26
461.672	16056.59
461.878	18219.24
462.083	17946.86
462.289	18137.32
462.494	18827.49
462.7	19323.1
462.905	19411.16
463.111	20793.54
463.316	22188.21
463.522	22464.68
463.727	23054.5
463.932	24035.47
464.138	24883.33
464.343	25755.77
464.549	25942.13
464.754	27627.61
464.959	28432.46
465.165	28788.81
465.37	28588.11
465.575	28733.51
465.781	30930.98
465.986	31930.39
466.191	31295.52
466.397	31389.73
466.602	31060.01
466.807	32430.1
467.012	33474.56
467.218	33492.99
467.423	33851.39
467.628	34803.69
467.833	36716.5
468.038	36155.35
468.244	34895.85
468.449	37185.48
468.654	36325.33
