Data from USB4F104151__24__09-26-08-517.txt Node

Date: Wed Feb 26 09:26:08 EST 2025
User: louis
Spectrometer: USB4F10415
Trigger mode: 4
Integration Time (sec): 1.000000E-1
Scans to average: 1
Electric dark correction enabled: true
Nonlinearity correction enabled: false
Boxcar width: 0
XAxis mode: Wavelengths
Number of Pixels in Spectrum: 3648
>>>>>Begin Spectral Data<<<<<
178.204	-286.2
178.424	-286.2
178.644	-286.2
178.864	-386.55
179.084	-306.68
179.304	-7.68
179.524	-62.98
179.744	8.7
179.964	107.01
180.184	-11.78
180.404	-17.92
180.624	-3.58
180.844	-28.16
181.064	-36.35
181.283	23.04
181.503	-15.87
181.723	45.57
181.943	-99.84
182.163	193.02
182.383	-50.69
182.602	45.57
182.822	147.97
183.042	64
183.262	-103.93
183.482	12.8
183.701	45.57
183.921	92.67
184.141	14.85
184.361	47.62
184.58	18.94
184.8	37.38
185.02	35.33
185.239	131.58
185.459	100.86
185.679	96.77
185.898	-60.93
186.118	92.67
186.338	92.67
186.557	49.66
186.777	-36.35
186.997	29.18
187.216	-7.68
187.436	107.01
187.655	66.05
187.875	78.33
188.095	68.09
188.314	143.87
188.534	123.39
188.753	-77.31
188.973	174.59
189.192	121.34
189.412	12.8
189.631	51.71
189.851	78.33
190.07	184.83
190.29	-52.74
190.509	86.53
190.729	-7.68
190.948	86.53
191.168	274.94
191.387	107.01
191.607	-5.63
191.826	86.53
192.045	-11.78
192.265	39.42
192.484	20.99
192.704	-32.26
192.923	-34.3
193.142	158.21
193.362	61.95
193.581	127.49
193.8	90.62
194.02	115.2
194.239	78.33
194.458	139.77
194.678	51.71
194.897	-87.55
195.116	16.9
195.335	37.38
195.555	76.29
195.774	8.7
195.993	111.1
196.212	12.8
196.432	-15.87
196.651	0.51
196.87	74.24
197.089	213.5
197.308	66.05
197.528	92.67
197.747	-42.5
197.966	94.72
198.185	80.38
198.404	20.99
198.623	135.68
198.842	109.05
199.062	166.4
199.281	123.39
199.5	-3.58
199.719	88.57
199.938	100.86
200.157	53.76
200.376	74.24
200.595	43.52
200.814	39.42
201.033	4.61
201.252	96.77
201.471	-3.58
201.69	33.28
201.909	-26.11
202.128	66.05
202.347	70.14
202.566	45.57
202.785	-3.58
203.004	4.61
203.223	193.02
203.442	41.47
203.661	37.38
203.879	70.14
204.098	123.39
204.317	-22.02
204.536	25.09
204.755	141.82
204.974	53.76
205.193	53.76
205.411	49.66
205.63	39.42
205.849	-19.97
206.068	37.38
206.287	4.61
206.505	104.96
206.724	-85.5
206.943	-38.4
207.162	-22.02
207.381	129.53
207.599	68.09
207.818	35.33
208.037	4.61
208.255	49.66
208.474	107.01
208.693	6.66
208.911	-60.93
209.13	72.19
209.349	61.95
209.567	57.86
209.786	68.09
210.005	141.82
210.223	68.09
210.442	-112.13
210.661	59.9
210.879	109.05
211.098	80.38
211.316	-13.82
211.535	49.66
211.753	43.52
211.972	49.66
212.191	-11.78
212.409	8.7
212.628	127.49
212.846	-5.63
213.065	14.85
213.283	47.62
213.502	2.56
213.72	61.95
213.938	12.8
214.157	41.47
214.375	125.44
214.594	-5.63
214.812	53.76
215.031	-28.16
215.249	-15.87
215.467	45.57
215.686	18.94
215.904	162.3
216.122	4.61
216.341	102.91
216.559	66.05
216.778	86.53
216.996	49.66
217.214	37.38
217.432	-36.35
217.651	-30.21
217.869	-3.58
218.087	4.61
218.306	35.33
218.524	39.42
218.742	92.67
218.96	176.64
219.179	0.51
219.397	4.61
219.615	92.67
219.833	125.44
220.051	-3.58
220.27	107.01
220.488	23.04
220.706	104.96
220.924	29.18
221.142	49.66
221.36	35.33
221.578	-13.82
221.796	-54.78
222.015	39.42
222.233	68.09
222.451	88.57
222.669	35.33
222.887	72.19
223.105	29.18
223.323	-15.87
223.541	-60.93
223.759	45.57
223.977	66.05
224.195	162.3
224.413	90.62
224.631	0.51
224.849	33.28
225.067	176.64
225.285	-13.82
225.503	49.66
225.721	-163.33
225.939	23.04
226.157	41.47
226.375	233.98
226.592	-46.59
226.81	82.43
227.028	66.05
227.246	137.73
227.464	74.24
227.682	80.38
227.9	61.95
228.117	55.81
228.335	12.8
228.553	70.14
228.771	59.9
228.989	57.86
229.206	158.21
229.424	4.61
229.642	70.14
229.86	-54.78
230.077	111.1
230.295	2.56
230.513	141.82
230.731	-40.45
230.948	199.16
231.166	127.49
231.384	-17.92
231.601	88.57
231.819	162.3
232.037	-24.06
232.254	-114.17
232.472	57.86
232.689	70.14
232.907	139.77
233.125	-17.92
233.342	53.76
233.56	25.09
233.777	70.14
233.995	-42.5
234.213	127.49
234.43	109.05
234.648	12.8
234.865	-60.93
235.083	27.14
235.3	61.95
235.518	68.09
235.735	182.78
235.953	84.48
236.17	12.8
236.388	-1.54
236.605	129.53
236.822	96.77
237.04	152.06
237.257	31.23
237.475	16.9
237.692	35.33
237.909	86.53
238.127	4.61
238.344	68.09
238.562	2.56
238.779	-81.41
238.996	-69.12
239.214	20.99
239.431	70.14
239.648	16.9
239.865	94.72
240.083	94.72
240.3	53.76
240.517	25.09
240.735	-1.54
240.952	82.43
241.169	90.62
241.386	78.33
241.603	59.9
241.821	-11.78
242.038	109.05
242.255	102.91
242.472	41.47
242.689	35.33
242.907	180.73
243.124	43.52
243.341	-24.06
243.558	10.75
243.775	-5.63
243.992	-56.83
244.209	86.53
244.426	203.26
244.643	39.42
244.86	-3.58
245.078	33.28
245.295	117.25
245.512	-15.87
245.729	35.33
245.946	125.44
246.163	0.51
246.38	61.95
246.597	88.57
246.814	59.9
247.031	53.76
247.248	59.9
247.464	16.9
247.681	-7.68
247.898	27.14
248.115	102.91
248.332	-13.82
248.549	133.63
248.766	115.2
248.983	74.24
249.2	119.29
249.417	61.95
249.633	37.38
249.85	84.48
250.067	0.51
250.284	45.57
250.501	-40.45
250.717	127.49
250.934	-67.07
251.151	8.7
251.368	25.09
251.585	64
251.801	66.05
252.018	-11.78
252.235	84.48
252.451	-3.58
252.668	41.47
252.885	68.09
253.102	29.18
253.318	29.18
253.535	-28.16
253.752	4.61
253.968	-19.97
254.185	4.61
254.401	70.14
254.618	68.09
254.835	37.38
255.051	195.07
255.268	41.47
255.484	117.25
255.701	31.23
255.917	135.68
256.134	-52.74
256.351	-1.54
256.567	23.04
256.784	41.47
257	-38.4
257.217	123.39
257.433	141.82
257.65	76.29
257.866	100.86
258.082	-11.78
258.299	31.23
258.515	53.76
258.732	31.23
258.948	-120.32
259.165	18.94
259.381	-32.26
259.597	47.62
259.814	43.52
260.03	57.86
260.246	47.62
260.463	119.29
260.679	123.39
260.895	-11.78
261.112	80.38
261.328	41.47
261.544	6.66
261.761	154.11
261.977	-44.54
262.193	66.05
262.409	96.77
262.626	49.66
262.842	117.25
263.058	4.61
263.274	70.14
263.49	70.14
263.707	96.77
263.923	66.05
264.139	-89.6
264.355	66.05
264.571	49.66
264.787	94.72
265.004	156.16
265.22	-24.06
265.436	-26.11
265.652	27.14
265.868	41.47
266.084	-50.69
266.3	92.67
266.516	10.75
266.732	57.86
266.948	70.14
267.164	18.94
267.38	78.33
267.596	41.47
267.812	158.21
268.028	-11.78
268.244	23.04
268.46	102.91
268.676	4.61
268.892	68.09
269.108	0.51
269.324	-75.26
269.54	-28.16
269.756	94.72
269.972	-103.93
270.188	39.42
270.403	-50.69
270.619	70.14
270.835	74.24
271.051	98.81
271.267	20.99
271.483	-48.64
271.698	86.53
271.914	115.2
272.13	45.57
272.346	14.85
272.562	6.66
272.777	57.86
272.993	-52.74
273.209	-46.59
273.425	33.28
273.64	-73.21
273.856	86.53
274.072	78.33
274.287	49.66
274.503	84.48
274.719	41.47
274.934	14.85
275.15	-30.21
275.366	35.33
275.581	-36.35
275.797	0.51
276.012	102.91
276.228	37.38
276.444	92.67
276.659	43.52
276.875	-65.02
277.09	2.56
277.306	-32.26
277.521	82.43
277.737	-5.63
277.952	139.77
278.168	78.33
278.383	94.72
278.599	33.28
278.814	55.81
279.03	90.62
279.245	72.19
279.461	92.67
279.676	53.76
279.892	16.9
280.107	-93.69
280.322	-19.97
280.538	39.42
280.753	-73.21
280.969	125.44
281.184	76.29
281.399	82.43
281.615	25.09
281.83	12.8
282.045	-34.3
282.26	-1.54
282.476	88.57
282.691	111.1
282.906	84.48
283.122	39.42
283.337	-56.83
283.552	14.85
283.767	45.57
283.983	57.86
284.198	-5.63
284.413	12.8
284.628	-22.02
284.843	-24.06
285.058	23.04
285.274	-34.3
285.489	37.38
285.704	78.33
285.919	-58.88
286.134	-30.21
286.349	43.52
286.564	-30.21
286.779	221.69
286.995	59.9
287.21	-15.87
287.425	70.14
287.64	0.51
287.855	49.66
288.07	-54.78
288.285	139.77
288.5	147.97
288.715	66.05
288.93	-3.58
289.145	55.81
289.36	33.28
289.575	8.7
289.79	37.38
290.004	8.7
290.219	80.38
290.434	37.38
290.649	-24.06
290.864	10.75
291.079	-26.11
291.294	78.33
291.509	117.25
291.724	55.81
291.938	43.52
292.153	72.19
292.368	33.28
292.583	29.18
292.798	4.61
293.012	90.62
293.227	84.48
293.442	-9.73
293.657	111.1
293.871	61.95
294.086	98.81
294.301	147.97
294.516	166.4
294.73	51.71
294.945	-38.4
295.16	-85.5
295.374	160.25
295.589	59.9
295.804	8.7
296.018	8.7
296.233	113.15
296.447	33.28
296.662	2.56
296.877	123.39
297.091	78.33
297.306	12.8
297.52	59.9
297.735	-15.87
297.949	8.7
298.164	53.76
298.378	-5.63
298.593	-17.92
298.807	-3.58
299.022	143.87
299.236	45.57
299.451	18.94
299.665	-1.54
299.88	12.8
300.094	23.04
300.309	76.29
300.523	70.14
300.737	-40.45
300.952	86.53
301.166	158.21
301.381	6.66
301.595	57.86
301.809	86.53
302.024	-46.59
302.238	-71.17
302.452	115.2
302.667	29.18
302.881	45.57
303.095	68.09
303.309	27.14
303.524	-17.92
303.738	12.8
303.952	-11.78
304.166	61.95
304.381	-101.89
304.595	129.53
304.809	2.56
305.023	-5.63
305.237	25.09
305.452	-28.16
305.666	82.43
305.88	109.05
306.094	156.16
306.308	41.47
306.522	61.95
306.736	53.76
306.95	86.53
307.164	12.8
307.379	72.19
307.593	121.34
307.807	80.38
308.021	78.33
308.235	68.09
308.449	-75.26
308.663	-60.93
308.877	123.39
309.091	45.57
309.305	27.14
309.519	-11.78
309.733	74.24
309.947	37.38
310.161	100.86
310.374	57.86
310.588	70.14
310.802	18.94
311.016	25.09
311.23	37.38
311.444	-15.87
311.658	10.75
311.872	123.39
312.085	117.25
312.299	143.87
312.513	170.49
312.727	27.14
312.941	25.09
313.154	92.67
313.368	31.23
313.582	33.28
313.796	25.09
314.009	53.76
314.223	61.95
314.437	-11.78
314.651	180.73
314.864	-48.64
315.078	-15.87
315.292	-83.45
315.505	16.9
315.719	51.71
315.933	78.33
316.146	74.24
316.36	-13.82
316.573	94.72
316.787	104.96
317.001	39.42
317.214	-28.16
317.428	25.09
317.641	-60.93
317.855	-87.55
318.068	25.09
318.282	2.56
318.495	158.21
318.709	25.09
318.922	-32.26
319.136	111.1
319.349	133.63
319.563	-3.58
319.776	-3.58
319.99	-34.3
320.203	115.2
320.417	-22.02
320.63	135.68
320.843	107.01
321.057	59.9
321.27	10.75
321.483	27.14
321.697	121.34
321.91	43.52
322.124	39.42
322.337	68.09
322.55	-22.02
322.763	25.09
322.977	27.14
323.19	51.71
323.403	-30.21
323.617	78.33
323.83	123.39
324.043	10.75
324.256	-30.21
324.469	-60.93
324.683	45.57
324.896	35.33
325.109	86.53
325.322	-52.74
325.535	84.48
325.748	156.16
325.962	-32.26
326.175	78.33
326.388	70.14
326.601	145.92
326.814	-52.74
327.027	10.75
327.24	147.97
327.453	-62.98
327.666	176.64
327.879	86.53
328.092	78.33
328.305	35.33
328.518	59.9
328.731	-50.69
328.944	16.9
329.157	16.9
329.37	10.75
329.583	123.39
329.796	172.54
330.009	-36.35
330.222	104.96
330.435	90.62
330.648	29.18
330.861	84.48
331.073	0.51
331.286	123.39
331.499	31.23
331.712	53.76
331.925	31.23
332.138	84.48
332.35	119.29
332.563	8.7
332.776	147.97
332.989	18.94
333.202	102.91
333.414	33.28
333.627	53.76
333.84	0.51
334.053	49.66
334.265	4.61
334.478	41.47
334.691	14.85
334.903	27.14
335.116	12.8
335.329	2.56
335.541	100.86
335.754	78.33
335.966	-19.97
336.179	-69.12
336.392	-7.68
336.604	-30.21
336.817	49.66
337.029	84.48
337.242	70.14
337.454	109.05
337.667	55.81
337.88	45.57
338.092	119.29
338.305	57.86
338.517	78.33
338.729	57.86
338.942	47.62
339.154	-112.13
339.367	-83.45
339.579	107.01
339.792	-28.16
340.004	141.82
340.217	29.18
340.429	-17.92
340.641	-46.59
340.854	-52.74
341.066	45.57
341.278	127.49
341.491	86.53
341.703	39.42
341.915	-3.58
342.128	102.91
342.34	-3.58
342.552	4.61
342.764	80.38
342.977	-3.58
343.189	98.81
343.401	96.77
343.613	8.7
343.826	70.14
344.038	0.51
344.25	100.86
344.462	-71.17
344.674	43.52
344.886	84.48
345.099	98.81
345.311	100.86
345.523	74.24
345.735	2.56
345.947	82.43
346.159	41.47
346.371	12.8
346.583	53.76
346.795	113.15
347.007	27.14
347.219	0.51
347.431	35.33
347.643	111.1
347.855	31.23
348.067	131.58
348.279	-116.22
348.491	37.38
348.703	98.81
348.915	31.23
349.127	-30.21
349.339	72.19
349.551	-24.06
349.763	53.76
349.975	20.99
350.187	31.23
350.399	70.14
350.61	70.14
350.822	-11.78
351.034	78.33
351.246	45.57
351.458	25.09
351.669	70.14
351.881	133.63
352.093	76.29
352.305	111.1
352.517	18.94
352.728	90.62
352.94	127.49
353.152	111.1
353.363	12.8
353.575	53.76
353.787	57.86
353.999	25.09
354.21	184.83
354.422	20.99
354.633	16.9
354.845	86.53
355.057	59.9
355.268	45.57
355.48	47.62
355.692	-40.45
355.903	51.71
356.115	-9.73
356.326	-122.37
356.538	119.29
356.749	-7.68
356.961	184.83
357.172	45.57
357.384	-7.68
357.595	168.45
357.807	113.15
358.018	-48.64
358.23	8.7
358.441	137.73
358.653	29.18
358.864	18.94
359.075	18.94
359.287	68.09
359.498	123.39
359.709	47.62
359.921	10.75
360.132	45.57
360.344	-7.68
360.555	-5.63
360.766	-3.58
360.977	-15.87
361.189	86.53
361.4	-13.82
361.611	84.48
361.823	135.68
362.034	37.38
362.245	-87.55
362.456	27.14
362.667	125.44
362.879	8.7
363.09	125.44
363.301	84.48
363.512	61.95
363.723	-46.59
363.935	61.95
364.146	162.3
364.357	39.42
364.568	35.33
364.779	-17.92
364.99	172.54
365.201	41.47
365.412	80.38
365.623	-28.16
365.834	129.53
366.045	-3.58
366.256	23.04
366.467	74.24
366.678	51.71
366.889	57.86
367.1	14.85
367.311	43.52
367.522	53.76
367.733	102.91
367.944	47.62
368.155	37.38
368.366	94.72
368.577	35.33
368.788	170.49
368.999	-28.16
369.209	94.72
369.42	133.63
369.631	225.79
369.842	74.24
370.053	31.23
370.264	78.33
370.474	-36.35
370.685	27.14
370.896	18.94
371.107	133.63
371.317	135.68
371.528	20.99
371.739	76.29
371.95	82.43
372.16	64
372.371	-42.5
372.582	41.47
372.792	111.1
373.003	55.81
373.214	78.33
373.424	121.34
373.635	-28.16
373.846	78.33
374.056	29.18
374.267	111.1
374.477	164.35
374.688	23.04
374.898	53.76
375.109	125.44
375.319	35.33
375.53	160.25
375.74	143.87
375.951	-13.82
376.161	70.14
376.372	190.97
376.582	-15.87
376.793	41.47
377.003	12.8
377.214	-28.16
377.424	66.05
377.635	37.38
377.845	-19.97
378.055	127.49
378.266	-34.3
378.476	119.29
378.686	94.72
378.897	43.52
379.107	92.67
379.317	64
379.528	35.33
379.738	29.18
379.948	-73.21
380.158	80.38
380.369	109.05
380.579	133.63
380.789	82.43
380.999	76.29
381.21	2.56
381.42	133.63
381.63	18.94
381.84	57.86
382.05	68.09
382.261	53.76
382.471	115.2
382.681	10.75
382.891	152.06
383.101	68.09
383.311	-22.02
383.521	-77.31
383.731	39.42
383.941	70.14
384.151	51.71
384.361	29.18
384.571	20.99
384.781	10.75
384.991	127.49
385.201	143.87
385.411	164.35
385.621	133.63
385.831	8.7
386.041	41.47
386.251	53.76
386.461	137.73
386.671	-3.58
386.881	70.14
387.091	25.09
387.301	123.39
387.511	-5.63
387.72	20.99
387.93	100.86
388.14	-54.78
388.35	-17.92
388.56	113.15
388.769	47.62
388.979	6.66
389.189	49.66
389.399	16.9
389.609	168.45
389.818	170.49
390.028	70.14
390.238	102.91
390.447	100.86
390.657	78.33
390.867	20.99
391.076	-69.12
391.286	61.95
391.496	102.91
391.705	-24.06
391.915	82.43
392.125	82.43
392.334	-3.58
392.544	125.44
392.753	72.19
392.963	-30.21
393.172	82.43
393.382	51.71
393.591	190.97
393.801	80.38
394.01	84.48
394.22	102.91
394.429	-32.26
394.639	53.76
394.848	82.43
395.058	37.38
395.267	25.09
395.477	57.86
395.686	59.9
395.895	129.53
396.105	193.02
396.314	53.76
396.524	33.28
396.733	16.9
396.942	166.4
397.152	53.76
397.361	74.24
397.57	98.81
397.78	100.86
397.989	76.29
398.198	162.3
398.407	-17.92
398.617	53.76
398.826	74.24
399.035	74.24
399.244	82.43
399.453	92.67
399.663	51.71
399.872	68.09
400.081	-81.41
400.29	88.57
400.499	-19.97
400.708	170.49
400.917	86.53
401.127	29.18
401.336	23.04
401.545	172.54
401.754	64
401.963	100.86
402.172	-36.35
402.381	-13.82
402.59	53.76
402.799	41.47
403.008	111.1
403.217	94.72
403.426	90.62
403.635	-28.16
403.844	80.38
404.053	76.29
404.262	33.28
404.471	172.54
404.68	53.76
404.888	31.23
405.097	47.62
405.306	66.05
405.515	88.57
405.724	119.29
405.933	150.01
406.142	135.68
406.35	102.91
406.559	43.52
406.768	66.05
406.977	90.62
407.185	59.9
407.394	29.18
407.603	-5.63
407.812	59.9
408.02	35.33
408.229	86.53
408.438	23.04
408.646	10.75
408.855	61.95
409.064	45.57
409.272	-22.02
409.481	16.9
409.69	2.56
409.898	-32.26
410.107	102.91
410.315	164.35
410.524	41.47
410.733	150.01
410.941	156.16
411.15	127.49
411.358	-7.68
411.567	158.21
411.775	41.47
411.984	61.95
412.192	86.53
412.401	12.8
412.609	188.93
412.818	90.62
413.026	107.01
413.234	64
413.443	82.43
413.651	25.09
413.86	43.52
414.068	115.2
414.276	61.95
414.485	-32.26
414.693	152.06
414.901	176.64
415.11	82.43
415.318	-11.78
415.526	59.9
415.734	107.01
415.943	64
416.151	123.39
416.359	135.68
416.567	121.34
416.776	147.97
416.984	115.2
417.192	213.5
417.4	-13.82
417.608	33.28
417.817	-56.83
418.025	184.83
418.233	143.87
418.441	0.51
418.649	-11.78
418.857	76.29
419.065	107.01
419.273	-9.73
419.481	152.06
419.689	107.01
419.897	25.09
420.105	-40.45
420.313	139.77
420.521	152.06
420.729	150.01
420.937	35.33
421.145	64
421.353	127.49
421.561	221.69
421.769	100.86
421.977	-5.63
422.185	139.77
422.393	-28.16
422.601	41.47
422.809	113.15
423.017	18.94
423.224	94.72
423.432	109.05
423.64	121.34
423.848	164.35
424.056	35.33
424.263	74.24
424.471	92.67
424.679	178.69
424.887	0.51
425.094	86.53
425.302	88.57
425.51	37.38
425.718	162.3
425.925	115.2
426.133	51.71
426.341	227.84
426.548	61.95
426.756	143.87
426.964	74.24
427.171	53.76
427.379	61.95
427.586	102.91
427.794	104.96
428.001	209.4
428.209	154.11
428.417	147.97
428.624	115.2
428.832	119.29
429.039	145.92
429.247	102.91
429.454	254.46
429.662	240.12
429.869	94.72
430.076	199.16
430.284	262.65
430.491	242.17
430.699	150.01
430.906	238.08
431.114	98.81
431.321	178.69
431.528	186.88
431.736	225.79
431.943	205.31
432.15	193.02
432.358	289.28
432.565	299.52
432.772	107.01
432.979	231.93
433.187	172.54
433.394	315.9
433.601	184.83
433.808	233.98
434.016	262.65
434.223	258.56
434.43	268.8
434.637	285.18
434.844	375.29
435.052	217.6
435.259	332.28
435.466	324.09
435.673	387.58
435.88	371.19
436.087	360.95
436.294	340.47
436.501	266.75
436.708	328.19
436.915	455.16
437.122	373.24
437.329	387.58
437.537	340.47
437.743	406.01
437.95	483.83
438.157	465.4
438.364	463.35
438.571	475.64
438.778	496.12
438.985	535.03
439.192	627.19
439.399	555.51
439.606	580.09
439.813	584.18
440.02	698.87
440.227	764.4
440.433	696.82
440.64	733.68
440.847	674.29
441.054	672.25
441.261	829.94
441.467	877.04
441.674	842.23
441.881	872.95
442.088	813.56
442.294	885.23
442.501	987.63
442.708	915.95
442.914	1077.74
443.121	1163.76
443.328	1100.27
443.534	1079.79
443.741	1141.23
443.948	1047.02
444.154	1198.57
444.361	1446.38
444.568	1243.63
444.774	1348.08
444.981	1217.01
445.187	1495.53
445.394	1534.44
445.6	1487.34
445.807	1599.98
446.013	1745.38
446.22	1645.03
446.426	1876.45
446.633	1831.4
446.839	2099.68
447.046	1909.22
447.252	2052.58
447.459	2103.78
447.665	2040.29
447.871	2265.57
448.078	2503.13
448.284	2423.26
448.491	2587.1
448.697	2521.56
448.903	2851.28
449.11	2798.04
449.316	2830.8
449.522	3058.13
449.728	3164.62
449.935	3162.58
450.141	3215.82
450.347	3609.03
450.553	3398.09
450.76	3613.13
450.966	3842.5
451.172	3969.48
451.378	3928.52
451.584	4104.64
451.791	4383.17
451.997	4489.66
452.203	4557.24
452.409	4870.58
452.615	5087.67
452.821	4911.54
453.027	4923.83
453.233	5790.12
453.44	5562.8
453.646	5689.77
453.852	5992.87
454.058	6287.78
454.264	6250.91
454.47	6863.26
454.676	6836.63
454.882	7635.34
455.088	7188.88
455.294	7592.33
455.5	8040.84
455.705	8507.77
455.911	8388.99
456.117	8593.79
456.323	9130.36
456.529	9191.8
456.735	9707.88
456.941	10219.88
457.147	10471.78
457.352	10738.01
457.558	10955.1
457.764	11745.61
457.97	12116.3
458.176	12505.41
458.381	13070.65
458.587	13211.96
458.793	14213.42
458.999	13947.18
459.204	15868.17
459.41	16347.4
459.616	16177.42
459.821	16994.56
460.027	17963.25
460.233	18663.65
460.438	18577.64
460.644	19474.65
460.85	19769.55
461.055	20574.41
461.261	21899.44
461.466	21262.52
461.672	21803.19
461.878	24125.58
462.083	23967.89
462.289	24578.18
462.494	25442.43
462.7	25282.69
462.905	25897.08
463.111	27818.07
463.316	29548.61
463.522	29505.6
463.727	31014.95
463.932	32002.07
464.138	32888.84
464.343	33941.5
464.549	34465.78
464.754	36691.92
464.959	37904.32
465.165	38299.58
465.37	38262.71
465.575	38494.13
465.781	40574.87
465.986	41916.29
466.191	40990.61
466.397	41557.89
466.602	40640.4
466.807	42956.66
467.012	43419.5
467.218	44314.46
467.423	44240.73
467.628	45664.07
467.833	47763.24
468.038	46958.39
468.244	46292.8
468.449	48363.29
468.654	47406.89
468.859	47410.99
469.064	47791.91
