Data from USB4F104151__30__11-24-54-304.txt Node

Date: Wed Feb 26 11:24:54 EST 2025
User: louis
Spectrometer: USB4F10415
Trigger mode: 4
Integration Time (sec): 1.000000E-1
Scans to average: 1
Electric dark correction enabled: true
Nonlinearity correction enabled: false
Boxcar width: 0
XAxis mode: Wavelengths
Number of Pixels in Spectrum: 3648
>>>>>Begin Spectral Data<<<<<
178.204	-359.59
178.424	-359.59
178.644	-359.59
178.864	-398.5
179.084	-384.16
179.304	-3.24
179.524	-33.96
179.744	-9.39
179.964	111.44
180.184	9.05
180.404	-11.43
180.624	-33.96
180.844	35.67
181.064	-27.82
181.283	41.81
181.503	-60.59
181.723	-17.58
181.943	-130.22
182.163	125.78
182.383	21.33
182.602	131.92
182.822	168.79
183.042	103.25
183.262	-19.63
183.482	-79.02
183.701	-25.77
183.921	129.88
184.141	-1.19
184.361	101.2
184.58	52.05
184.8	19.29
185.02	13.14
185.239	133.97
185.459	93.01
185.679	158.55
185.898	-29.87
186.118	21.33
186.338	152.4
186.557	76.63
186.777	-64.68
186.997	-15.53
187.216	60.24
187.436	181.07
187.655	58.2
187.875	201.55
188.095	47.96
188.314	105.3
188.534	111.44
188.753	-50.35
188.973	179.03
189.192	162.64
189.412	31.57
189.631	43.86
189.851	45.91
190.07	242.51
190.29	-62.63
190.509	-5.29
190.729	4.95
190.948	119.64
191.168	281.43
191.387	64.34
191.607	45.91
191.826	23.38
192.045	56.15
192.265	-5.29
192.484	129.88
192.704	95.06
192.923	-62.63
193.142	205.65
193.362	99.16
193.581	234.32
193.8	111.44
194.02	47.96
194.239	66.39
194.458	142.16
194.678	-36.01
194.897	56.15
195.116	136.02
195.335	13.14
195.555	37.72
195.774	4.95
195.993	93.01
196.212	15.19
196.432	11.09
196.651	9.05
196.87	-1.19
197.089	211.79
197.308	35.67
197.528	56.15
197.747	25.43
197.966	125.78
198.185	136.02
198.404	-48.3
198.623	117.59
198.842	131.92
199.062	52.05
199.281	99.16
199.5	78.68
199.719	41.81
199.938	107.35
200.157	113.49
200.376	160.59
200.595	66.39
200.814	70.48
201.033	4.95
201.252	97.11
201.471	66.39
201.69	-15.53
201.909	93.01
202.128	193.36
202.347	129.88
202.566	50
202.785	-91.31
203.004	-1.19
203.223	211.79
203.442	74.58
203.661	-42.15
203.879	86.87
204.098	133.97
204.317	15.19
204.536	142.16
204.755	205.65
204.974	154.45
205.193	17.24
205.411	119.64
205.63	148.31
205.849	72.53
206.068	15.19
206.287	-79.02
206.505	127.83
206.724	74.58
206.943	-42.15
207.162	-11.43
207.381	117.59
207.599	52.05
207.818	-23.72
208.037	-21.67
208.255	15.19
208.474	107.35
208.693	9.05
208.911	-46.25
209.13	131.92
209.349	119.64
209.567	54.1
209.786	109.4
210.005	82.77
210.223	80.72
210.442	-58.54
210.661	25.43
210.879	13.14
211.098	62.29
211.316	115.54
211.535	43.86
211.753	125.78
211.972	84.82
212.191	82.77
212.409	35.67
212.628	201.55
212.846	23.38
213.065	62.29
213.283	101.2
213.502	74.58
213.72	90.96
213.938	99.16
214.157	9.05
214.375	29.52
214.594	37.72
214.812	181.07
215.031	19.29
215.249	101.2
215.467	86.87
215.686	39.76
215.904	162.64
216.122	68.44
216.341	125.78
216.559	90.96
216.778	127.83
216.996	154.45
217.214	-38.06
217.432	15.19
217.651	13.14
217.869	78.68
218.087	103.25
218.306	-23.72
218.524	33.62
218.742	37.72
218.96	64.34
219.179	13.14
219.397	21.33
219.615	240.47
219.833	138.07
220.051	-9.39
220.27	13.14
220.488	103.25
220.706	25.43
220.924	-33.96
221.142	-13.48
221.36	90.96
221.578	58.2
221.796	41.81
222.015	15.19
222.233	-5.29
222.451	187.22
222.669	13.14
222.887	95.06
223.105	-15.53
223.323	131.92
223.541	0.85
223.759	62.29
223.977	99.16
224.195	230.23
224.413	117.59
224.631	119.64
224.849	95.06
225.067	236.37
225.285	58.2
225.503	27.48
225.721	-93.35
225.939	90.96
226.157	105.3
226.375	244.56
226.592	-38.06
226.81	109.4
227.028	115.54
227.246	107.35
227.464	13.14
227.682	41.81
227.9	39.76
228.117	70.48
228.335	31.57
228.553	-31.91
228.771	43.86
228.989	23.38
229.206	76.63
229.424	7
229.642	56.15
229.86	-44.2
230.077	119.64
230.295	41.81
230.513	113.49
230.731	95.06
230.948	207.7
231.166	279.38
231.384	50
231.601	19.29
231.819	256.85
232.037	43.86
232.254	-46.25
232.472	29.52
232.689	-33.96
232.907	45.91
233.125	9.05
233.342	13.14
233.56	35.67
233.777	43.86
233.995	80.72
234.213	74.58
234.43	84.82
234.648	27.48
234.865	21.33
235.083	95.06
235.3	66.39
235.518	148.31
235.735	121.68
235.953	125.78
236.17	23.38
236.388	-25.77
236.605	97.11
236.822	131.92
237.04	86.87
237.257	125.78
237.475	-15.53
237.692	21.33
237.909	95.06
238.127	-81.07
238.344	64.34
238.562	45.91
238.779	-40.11
238.996	-79.02
239.214	47.96
239.431	97.11
239.648	39.76
239.865	95.06
240.083	82.77
240.3	56.15
240.517	45.91
240.735	62.29
240.952	90.96
241.169	45.91
241.386	41.81
241.603	41.81
241.821	-25.77
242.038	160.59
242.255	107.35
242.472	-11.43
242.689	86.87
242.907	70.48
243.124	70.48
243.341	52.05
243.558	-64.68
243.775	-5.29
243.992	-105.64
244.209	97.11
244.426	109.4
244.643	64.34
244.86	-5.29
245.078	90.96
245.295	76.63
245.512	50
245.729	-25.77
245.946	127.83
246.163	45.91
246.38	4.95
246.597	84.82
246.814	119.64
247.031	68.44
247.248	-23.72
247.464	105.3
247.681	54.1
247.898	88.92
248.115	119.64
248.332	2.9
248.549	191.31
248.766	101.2
248.983	72.53
249.2	50
249.417	111.44
249.633	41.81
249.85	86.87
250.067	97.11
250.284	7
250.501	86.87
250.717	64.34
250.934	-40.11
251.151	13.14
251.368	50
251.585	99.16
251.801	93.01
252.018	-91.31
252.235	117.59
252.451	-66.73
252.668	43.86
252.885	80.72
253.102	95.06
253.318	-23.72
253.535	17.24
253.752	7
253.968	76.63
254.185	-25.77
254.401	25.43
254.618	50
254.835	-1.19
255.051	191.31
255.268	70.48
255.484	72.53
255.701	35.67
255.917	90.96
256.134	-15.53
256.351	84.82
256.567	-19.63
256.784	119.64
257	-70.83
257.217	90.96
257.433	70.48
257.65	103.25
257.866	125.78
258.082	-31.91
258.299	-13.48
258.515	107.35
258.732	2.9
258.948	-9.39
259.165	54.1
259.381	29.52
259.597	154.45
259.814	64.34
260.03	74.58
260.246	35.67
260.463	168.79
260.679	148.31
260.895	41.81
261.112	17.24
261.328	68.44
261.544	-97.45
261.761	176.98
261.977	-11.43
262.193	54.1
262.409	140.12
262.626	35.67
262.842	25.43
263.058	25.43
263.274	127.83
263.49	52.05
263.707	146.26
263.923	101.2
264.139	-19.63
264.355	58.2
264.571	121.68
264.787	35.67
265.004	164.69
265.22	37.72
265.436	-3.24
265.652	54.1
265.868	-64.68
266.084	0.85
266.3	25.43
266.516	-74.92
266.732	17.24
266.948	66.39
267.164	-17.58
267.38	148.31
267.596	115.54
267.812	58.2
268.028	11.09
268.244	31.57
268.46	109.4
268.676	4.95
268.892	66.39
269.108	-7.34
269.324	33.62
269.54	-97.45
269.756	62.29
269.972	-36.01
270.188	33.62
270.403	-19.63
270.619	39.76
270.835	127.83
271.051	60.24
271.267	-11.43
271.483	27.48
271.698	95.06
271.914	82.77
272.13	50
272.346	-13.48
272.562	-48.3
272.777	117.59
272.993	52.05
273.209	-15.53
273.425	168.79
273.64	7
273.856	115.54
274.072	-33.96
274.287	-56.49
274.503	117.59
274.719	29.52
274.934	7
275.15	-48.3
275.366	52.05
275.581	-36.01
275.797	109.4
276.012	41.81
276.228	-11.43
276.444	27.48
276.659	119.64
276.875	15.19
277.09	35.67
277.306	9.05
277.521	84.82
277.737	47.96
277.952	97.11
278.168	76.63
278.383	25.43
278.599	68.44
278.814	-33.96
279.03	21.33
279.245	103.25
279.461	64.34
279.676	154.45
279.892	-31.91
280.107	0.85
280.322	-15.53
280.538	111.44
280.753	4.95
280.969	78.68
281.184	15.19
281.399	146.26
281.615	25.43
281.83	72.53
282.045	-54.44
282.26	-9.39
282.476	2.9
282.691	142.16
282.906	45.91
283.122	23.38
283.337	-36.01
283.552	76.63
283.767	-11.43
283.983	43.86
284.198	41.81
284.413	68.44
284.628	19.29
284.843	72.53
285.058	136.02
285.274	7
285.489	-11.43
285.704	95.06
285.919	21.33
286.134	0.85
286.349	76.63
286.564	54.1
286.779	150.36
286.995	-7.34
287.21	-29.87
287.425	103.25
287.64	45.91
287.855	52.05
288.07	13.14
288.285	148.31
288.5	105.3
288.715	86.87
288.93	50
289.145	-29.87
289.36	109.4
289.575	-36.01
289.79	95.06
290.004	52.05
290.219	97.11
290.434	43.86
290.649	62.29
290.864	58.2
291.079	74.58
291.294	70.48
291.509	29.52
291.724	15.19
291.938	23.38
292.153	58.2
292.368	45.91
292.583	78.68
292.798	50
293.012	45.91
293.227	33.62
293.442	-17.58
293.657	113.49
293.871	148.31
294.086	144.21
294.301	172.88
294.516	166.74
294.73	47.96
294.945	-111.78
295.16	29.52
295.374	64.34
295.589	123.73
295.804	-9.39
296.018	29.52
296.233	195.41
296.447	54.1
296.662	-50.35
296.877	121.68
297.091	111.44
297.306	21.33
297.52	-31.91
297.735	99.16
297.949	39.76
298.164	-5.29
298.378	115.54
298.593	-23.72
298.807	-27.82
299.022	17.24
299.236	127.83
299.451	-9.39
299.665	72.53
299.88	-21.67
300.094	68.44
300.309	76.63
300.523	72.53
300.737	-31.91
300.952	105.3
301.166	136.02
301.381	33.62
301.595	7
301.809	0.85
302.024	35.67
302.238	-50.35
302.452	144.21
302.667	37.72
302.881	129.88
303.095	101.2
303.309	95.06
303.524	17.24
303.738	45.91
303.952	-15.53
304.166	50
304.381	-56.49
304.595	138.07
304.809	62.29
305.023	52.05
305.237	4.95
305.452	23.38
305.666	17.24
305.88	140.12
306.094	88.92
306.308	140.12
306.522	103.25
306.736	23.38
306.95	148.31
307.164	13.14
307.379	52.05
307.593	158.55
307.807	90.96
308.021	29.52
308.235	54.1
308.449	-27.82
308.663	-3.24
308.877	226.13
309.091	4.95
309.305	125.78
309.519	-21.67
309.733	170.83
309.947	-74.92
310.161	60.24
310.374	123.73
310.588	138.07
310.802	-25.77
311.016	-62.63
311.23	127.83
311.444	58.2
311.658	72.53
311.872	82.77
312.085	78.68
312.299	156.5
312.513	162.64
312.727	54.1
312.941	-23.72
313.154	60.24
313.368	17.24
313.582	88.92
313.796	-1.19
314.009	37.72
314.223	58.2
314.437	58.2
314.651	101.2
314.864	2.9
315.078	-113.83
315.292	-87.21
315.505	-36.01
315.719	107.35
315.933	86.87
316.146	45.91
316.36	-83.11
316.573	52.05
316.787	84.82
317.001	64.34
317.214	-52.39
317.428	66.39
317.641	9.05
317.855	-54.44
318.068	47.96
318.282	50
318.495	256.85
318.709	101.2
318.922	-15.53
319.136	56.15
319.349	111.44
319.563	4.95
319.776	-1.19
319.99	-83.11
320.203	138.07
320.417	31.57
320.63	162.64
320.843	164.69
321.057	99.16
321.27	25.43
321.483	41.81
321.697	152.4
321.91	70.48
322.124	68.44
322.337	117.59
322.55	-15.53
322.763	-3.24
322.977	47.96
323.19	-11.43
323.403	-13.48
323.617	115.54
323.83	138.07
324.043	-50.35
324.256	39.76
324.469	-68.78
324.683	203.6
324.896	21.33
325.109	80.72
325.322	-95.4
325.535	70.48
325.748	127.83
325.962	2.9
326.175	41.81
326.388	78.68
326.601	37.72
326.814	52.05
327.027	60.24
327.24	140.12
327.453	-79.02
327.666	95.06
327.879	133.97
328.092	111.44
328.305	47.96
328.518	-60.59
328.731	31.57
328.944	82.77
329.157	66.39
329.37	29.52
329.583	269.14
329.796	88.92
330.009	-23.72
330.222	93.01
330.435	117.59
330.648	33.62
330.861	68.44
331.073	-7.34
331.286	76.63
331.499	60.24
331.712	-42.15
331.925	35.67
332.138	-21.67
332.35	129.88
332.563	21.33
332.776	127.83
332.989	31.57
333.202	66.39
333.414	41.81
333.627	90.96
333.84	-44.2
334.053	125.78
334.265	43.86
334.478	41.81
334.691	148.31
334.903	19.29
335.116	7
335.329	15.19
335.541	121.68
335.754	97.11
335.966	74.58
336.179	56.15
336.392	9.05
336.604	-83.11
336.817	105.3
337.029	11.09
337.242	107.35
337.454	107.35
337.667	103.25
337.88	148.31
338.092	64.34
338.305	19.29
338.517	-58.54
338.729	117.59
338.942	107.35
339.154	-7.34
339.367	-21.67
339.579	56.15
339.792	15.19
340.004	45.91
340.217	90.96
340.429	70.48
340.641	-27.82
340.854	72.53
341.066	66.39
341.278	123.73
341.491	109.4
341.703	-3.24
341.915	-72.87
342.128	131.92
342.34	52.05
342.552	13.14
342.764	93.01
342.977	-27.82
343.189	109.4
343.401	107.35
343.613	-111.78
343.826	9.05
344.038	64.34
344.25	70.48
344.462	-81.07
344.674	80.72
344.886	-21.67
345.099	78.68
345.311	158.55
345.523	11.09
345.735	-76.97
345.947	56.15
346.159	54.1
346.371	43.86
346.583	-29.87
346.795	215.89
347.007	88.92
347.219	54.1
347.431	103.25
347.643	115.54
347.855	-64.68
348.067	76.63
348.279	-79.02
348.491	72.53
348.703	136.02
348.915	9.05
349.127	-21.67
349.339	105.3
349.551	27.48
349.763	115.54
349.975	41.81
350.187	160.59
350.399	80.72
350.61	70.48
350.822	43.86
351.034	29.52
351.246	62.29
351.458	95.06
351.669	88.92
351.881	70.48
352.093	82.77
352.305	88.92
352.517	29.52
352.728	174.93
352.94	54.1
353.152	78.68
353.363	25.43
353.575	62.29
353.787	103.25
353.999	76.63
354.21	170.83
354.422	-68.78
354.633	41.81
354.845	50
355.057	43.86
355.268	74.58
355.48	88.92
355.692	-93.35
355.903	33.62
356.115	-72.87
356.326	2.9
356.538	109.4
356.749	74.58
356.961	158.55
357.172	47.96
357.384	4.95
357.595	166.74
357.807	-44.2
358.018	58.2
358.23	52.05
358.441	140.12
358.653	93.01
358.864	52.05
359.075	-7.34
359.287	127.83
359.498	99.16
359.709	60.24
359.921	25.43
360.132	66.39
360.344	29.52
360.555	0.85
360.766	4.95
360.977	31.57
361.189	121.68
361.4	15.19
361.611	140.12
361.823	183.12
362.034	-33.96
362.245	-36.01
362.456	2.9
362.667	68.44
362.879	-62.63
363.09	90.96
363.301	168.79
363.512	-19.63
363.723	50
363.935	90.96
364.146	72.53
364.357	31.57
364.568	99.16
364.779	11.09
364.99	211.79
365.201	25.43
365.412	111.44
365.623	-36.01
365.834	33.62
366.045	90.96
366.256	4.95
366.467	129.88
366.678	56.15
366.889	41.81
367.1	27.48
367.311	144.21
367.522	-31.91
367.733	45.91
367.944	74.58
368.155	54.1
368.366	21.33
368.577	152.4
368.788	93.01
368.999	-54.44
369.209	113.49
369.42	250.71
369.631	289.62
369.842	25.43
370.053	68.44
370.264	97.11
370.474	-52.39
370.685	41.81
370.896	11.09
371.107	74.58
371.317	21.33
371.528	13.14
371.739	52.05
371.95	115.54
372.16	82.77
372.371	-36.01
372.582	13.14
372.792	76.63
373.003	15.19
373.214	41.81
373.424	127.83
373.635	31.57
373.846	109.4
374.056	52.05
374.267	117.59
374.477	35.67
374.688	-38.06
374.898	-23.72
375.109	29.52
375.319	152.4
375.53	146.26
375.74	74.58
375.951	15.19
376.161	9.05
376.372	140.12
376.582	-76.97
376.793	82.77
377.003	66.39
377.214	23.38
377.424	50
377.635	99.16
377.845	11.09
378.055	109.4
378.266	13.14
378.476	70.48
378.686	54.1
378.897	90.96
379.107	187.22
379.317	179.03
379.528	2.9
379.738	90.96
379.948	-42.15
380.158	76.63
380.369	101.2
380.579	11.09
380.789	74.58
380.999	27.48
381.21	103.25
381.42	152.4
381.63	-19.63
381.84	45.91
382.05	56.15
382.261	170.83
382.471	86.87
382.681	-3.24
382.891	125.78
383.101	68.44
383.311	-97.45
383.521	35.67
383.731	54.1
383.941	78.68
384.151	74.58
384.361	31.57
384.571	86.87
384.781	58.2
384.991	199.51
385.201	265.04
385.411	215.89
385.621	111.44
385.831	84.82
386.041	41.81
386.251	4.95
386.461	150.36
386.671	50
386.881	41.81
387.091	27.48
387.301	80.72
387.511	-11.43
387.72	154.45
387.93	138.07
388.14	-64.68
388.35	58.2
388.56	95.06
388.769	140.12
388.979	15.19
389.189	37.72
389.399	-3.24
389.609	39.76
389.818	64.34
390.028	72.53
390.238	72.53
390.447	17.24
390.657	35.67
390.867	7
391.076	31.57
391.286	72.53
391.496	56.15
391.705	93.01
391.915	127.83
392.125	117.59
392.334	47.96
392.544	160.59
392.753	27.48
392.963	-3.24
393.172	25.43
393.382	-13.48
393.591	224.08
393.801	-17.58
394.01	158.55
394.22	131.92
394.429	39.76
394.639	4.95
394.848	103.25
395.058	86.87
395.267	39.76
395.477	107.35
395.686	27.48
395.895	205.65
396.105	181.07
396.314	117.59
396.524	56.15
396.733	-3.24
396.942	119.64
397.152	127.83
397.361	58.2
397.57	144.21
397.78	74.58
397.989	111.44
398.198	185.17
398.407	107.35
398.617	82.77
398.826	103.25
399.035	-31.91
399.244	64.34
399.453	39.76
399.663	41.81
399.872	133.97
400.081	33.62
400.29	160.59
400.499	27.48
400.708	74.58
400.917	107.35
401.127	43.86
401.336	-38.06
401.545	201.55
401.754	211.79
401.963	0.85
402.172	-21.67
402.381	-7.34
402.59	-15.53
402.799	41.81
403.008	93.01
403.217	31.57
403.426	121.68
403.635	-5.29
403.844	35.67
404.053	43.86
404.262	27.48
404.471	176.98
404.68	82.77
404.888	0.85
405.097	13.14
405.306	23.38
405.515	138.07
405.724	9.05
405.933	119.64
406.142	105.3
406.35	78.68
406.559	105.3
406.768	41.81
406.977	179.03
407.185	-19.63
407.394	111.44
407.603	-113.83
407.812	74.58
408.02	138.07
408.229	25.43
408.438	2.9
408.646	-27.82
408.855	-11.43
409.064	84.82
409.272	29.52
409.481	121.68
409.69	2.9
409.898	-31.91
410.107	152.4
410.315	27.48
410.524	35.67
410.733	35.67
410.941	15.19
411.15	-13.48
411.358	115.54
411.567	119.64
411.775	27.48
411.984	58.2
412.192	54.1
412.401	23.38
412.609	160.59
412.818	109.4
413.026	84.82
413.234	58.2
413.443	45.91
413.651	-33.96
413.86	2.9
414.068	121.68
414.276	213.84
414.485	-29.87
414.693	158.55
414.901	207.7
415.11	31.57
415.318	11.09
415.526	39.76
415.734	160.59
415.943	131.92
416.151	217.94
416.359	27.48
416.567	-46.25
416.776	93.01
416.984	47.96
417.192	246.61
417.4	-5.29
417.608	39.76
417.817	-23.72
418.025	70.48
418.233	158.55
418.441	-36.01
418.649	-91.31
418.857	111.44
419.065	156.5
419.273	7
419.481	60.24
419.689	62.29
419.897	29.52
420.105	-31.91
420.313	72.53
420.521	172.88
420.729	119.64
420.937	35.67
421.145	-3.24
421.353	109.4
421.561	93.01
421.769	111.44
421.977	15.19
422.185	160.59
422.393	62.29
422.601	99.16
422.809	76.63
423.017	72.53
423.224	74.58
423.432	172.88
423.64	70.48
423.848	148.31
424.056	11.09
424.263	101.2
424.471	-64.68
424.679	166.74
424.887	-76.97
425.094	125.78
425.302	172.88
425.51	52.05
425.718	76.63
425.925	80.72
426.133	-5.29
426.341	191.31
426.548	101.2
426.756	88.92
426.964	60.24
427.171	78.68
427.379	41.81
427.586	62.29
427.794	144.21
428.001	80.72
428.209	172.88
428.417	164.69
428.624	131.92
428.832	84.82
429.039	99.16
429.247	39.76
429.454	146.26
429.662	158.55
429.869	121.68
430.076	78.68
430.284	228.18
430.491	172.88
430.699	121.68
430.906	121.68
431.114	99.16
431.321	162.64
431.528	138.07
431.736	138.07
431.943	74.58
432.15	189.27
432.358	160.59
432.565	215.89
432.772	-48.3
432.979	164.69
433.187	54.1
433.394	148.31
433.601	90.96
433.808	158.55
434.016	174.93
434.223	179.03
434.43	213.84
434.637	172.88
434.844	158.55
435.052	88.92
435.259	213.84
435.466	158.55
435.673	99.16
435.88	217.94
436.087	215.89
436.294	279.38
436.501	219.99
436.708	172.88
436.915	164.69
437.122	275.28
437.329	136.02
437.537	103.25
437.743	170.83
437.95	265.04
438.157	254.8
438.364	283.47
438.571	242.51
438.778	240.47
438.985	318.29
439.192	322.38
439.399	217.94
439.606	295.76
439.813	406.35
440.02	422.73
440.227	445.26
440.433	428.88
440.64	267.09
440.847	246.61
441.054	351.06
441.261	467.79
441.467	457.55
441.674	344.91
441.881	500.56
442.088	312.14
442.294	430.93
442.501	488.27
442.708	510.8
442.914	469.84
443.121	527.18
443.328	521.04
443.534	453.45
443.741	535.37
443.948	363.34
444.154	564.04
444.361	809.8
444.568	598.86
444.774	715.59
444.981	535.37
445.187	770.89
445.394	551.76
445.6	656.2
445.807	731.98
446.013	713.55
446.22	611.15
446.426	770.89
446.633	854.86
446.839	1053.51
447.046	734.03
447.252	910.15
447.459	897.86
447.665	1014.6
447.871	992.07
448.078	1229.63
448.284	1055.56
448.491	1135.43
448.697	1207.11
448.903	1315.65
449.11	1282.88
449.316	1194.82
449.522	1336.13
449.728	1389.38
449.935	1471.29
450.141	1463.1
450.347	1549.12
450.553	1499.97
450.76	1669.95
450.966	1643.32
451.172	1751.87
451.378	1919.8
451.584	1856.31
451.791	2032.44
451.997	2120.5
452.203	2104.12
452.409	2194.23
452.615	2339.63
452.821	2155.32
453.027	2106.17
453.233	2503.47
453.44	2339.63
453.646	2503.47
453.852	2624.3
454.058	2683.69
454.264	2757.42
454.47	2992.94
454.676	2843.43
454.882	3410.72
455.088	3136.29
455.294	3377.95
455.5	3529.5
455.705	3738.4
455.911	3742.49
456.117	3889.95
456.323	4082.46
456.529	4203.29
456.735	4348.69
456.941	4340.5
457.147	4565.78
457.352	4713.23
457.558	4821.77
457.764	5153.54
457.97	5378.82
458.176	5364.48
458.381	5786.37
458.587	5931.77
458.793	6167.29
458.999	6218.49
459.204	7015.15
459.41	7142.12
459.616	7060.2
459.821	7338.73
460.027	7768.8
460.233	8135.39
460.438	8127.19
460.644	8501.97
460.85	8745.68
461.055	8917.71
461.261	9462.47
461.466	9104.07
461.672	9550.53
461.878	10633.91
462.083	10246.84
462.289	10595
462.494	10912.43
462.7	11238.06
462.905	11238.06
463.111	12042.91
463.316	12628.63
463.522	13085.33
463.727	13447.82
463.932	14002.82
464.138	14348.92
464.343	15018.61
464.549	15080.05
464.754	16499.29
464.959	16407.13
465.165	17148.5
465.37	16714.33
465.575	16794.2
465.781	17975.88
465.986	18709.05
466.191	18139.71
466.397	18285.12
466.602	18055.75
466.807	18950.71
467.012	19477.04
467.218	19481.13
467.423	19800.62
467.628	20093.47
467.833	21289.49
468.038	21004.82
468.244	20705.82
468.449	21692.94
468.654	21260.82
468.859	21322.26
469.064	21318.16
469.269	20759.06
469.474	20857.37
