Data from USB4F104151__33__10-24-31-638.txt Node

Date: Wed Feb 26 10:24:31 EST 2025
User: louis
Spectrometer: USB4F10415
Trigger mode: 4
Integration Time (sec): 1.000000E-1
Scans to average: 1
Electric dark correction enabled: true
Nonlinearity correction enabled: false
Boxcar width: 0
XAxis mode: Wavelengths
Number of Pixels in Spectrum: 3648
>>>>>Begin Spectral Data<<<<<
178.204	-366.93
178.424	-366.93
178.644	-366.93
178.864	-434.51
179.084	-385.36
179.304	1.71
179.524	-0.34
179.744	-2.39
179.964	38.57
180.184	-37.2
180.404	89.77
180.624	1.71
180.844	-49.49
181.064	-92.5
181.283	-20.82
181.503	-20.82
181.723	91.82
181.943	-102.74
182.163	169.64
182.383	48.81
182.602	65.19
182.822	138.92
183.042	102.06
183.262	-49.49
183.482	63.15
183.701	20.14
183.921	13.99
184.141	-33.11
184.361	93.87
184.58	104.11
184.8	100.01
185.02	11.95
185.239	161.45
185.459	95.91
185.679	151.21
185.898	-121.17
186.118	-29.01
186.338	110.25
186.557	143.02
186.777	-84.31
186.997	-0.34
187.216	83.63
187.436	161.45
187.655	134.82
187.875	83.63
188.095	50.86
188.314	48.81
188.534	75.43
188.753	-29.01
188.973	204.46
189.192	151.21
189.412	108.2
189.631	36.52
189.851	52.91
190.07	61.1
190.29	-31.06
190.509	42.67
190.729	77.48
190.948	177.83
191.168	290.47
191.387	157.35
191.607	28.33
191.826	95.91
192.045	-16.73
192.265	7.85
192.484	71.34
192.704	54.95
192.923	-74.07
193.142	110.25
193.362	40.62
193.581	196.26
193.8	22.19
194.02	30.38
194.239	20.14
194.458	65.19
194.678	54.95
194.897	77.48
195.116	18.09
195.335	46.76
195.555	40.62
195.774	28.33
195.993	124.58
196.212	93.87
196.432	42.67
196.651	67.24
196.87	48.81
197.089	257.7
197.308	16.04
197.528	79.53
197.747	-78.16
197.966	93.87
198.185	161.45
198.404	-12.63
198.623	216.74
198.842	73.39
199.062	147.11
199.281	42.67
199.5	20.14
199.719	126.63
199.938	130.73
200.157	122.54
200.376	159.4
200.595	151.21
200.814	122.54
201.033	-2.39
201.252	128.68
201.471	97.96
201.69	87.72
201.909	77.48
202.128	126.63
202.347	75.43
202.566	46.76
202.785	-106.84
203.004	89.77
203.223	282.28
203.442	81.58
203.661	-49.49
203.879	69.29
204.098	179.88
204.317	-41.3
204.536	67.24
204.755	145.06
204.974	44.71
205.193	-45.4
205.411	245.41
205.63	67.24
205.849	24.23
206.068	-2.39
206.287	13.99
206.505	104.11
206.724	50.86
206.943	1.71
207.162	1.71
207.381	89.77
207.599	28.33
207.818	126.63
208.037	3.75
208.255	69.29
208.474	69.29
208.693	48.81
208.911	67.24
209.13	52.91
209.349	104.11
209.567	106.15
209.786	108.2
210.005	75.43
210.223	157.35
210.442	-96.6
210.661	-41.3
210.879	32.43
211.098	63.15
211.316	34.47
211.535	89.77
211.753	13.99
211.972	36.52
212.191	11.95
212.409	7.85
212.628	57
212.846	11.95
213.065	52.91
213.283	116.39
213.502	69.29
213.72	54.95
213.938	36.52
214.157	-14.68
214.375	59.05
214.594	61.1
214.812	75.43
215.031	91.82
215.249	65.19
215.467	85.67
215.686	42.67
215.904	71.34
216.122	20.14
216.341	130.73
216.559	-12.63
216.778	151.21
216.996	163.5
217.214	91.82
217.432	28.33
217.651	-16.73
217.869	110.25
218.087	106.15
218.306	75.43
218.524	85.67
218.742	24.23
218.96	126.63
219.179	16.04
219.397	48.81
219.615	261.8
219.833	108.2
220.051	-26.96
220.27	157.35
220.488	67.24
220.706	143.02
220.924	-26.96
221.142	69.29
221.36	44.71
221.578	93.87
221.796	63.15
222.015	89.77
222.233	77.48
222.451	177.83
222.669	-57.68
222.887	50.86
223.105	-94.55
223.323	32.43
223.541	11.95
223.759	-4.44
223.977	-37.2
224.195	134.82
224.413	165.54
224.631	112.3
224.849	61.1
225.067	237.22
225.285	77.48
225.503	93.87
225.721	-92.5
225.939	38.57
226.157	-26.96
226.375	231.08
226.592	-29.01
226.81	65.19
227.028	104.11
227.246	134.82
227.464	100.01
227.682	149.16
227.9	54.95
228.117	50.86
228.335	151.21
228.553	36.52
228.771	9.9
228.989	63.15
229.206	44.71
229.424	87.72
229.642	30.38
229.86	50.86
230.077	73.39
230.295	50.86
230.513	102.06
230.731	110.25
230.948	149.16
231.166	233.13
231.384	57
231.601	42.67
231.819	212.65
232.037	-80.21
232.254	-47.44
232.472	16.04
232.689	-12.63
232.907	110.25
233.125	36.52
233.342	5.8
233.56	16.04
233.777	36.52
233.995	-12.63
234.213	89.77
234.43	83.63
234.648	-12.63
234.865	34.47
235.083	87.72
235.3	91.82
235.518	85.67
235.735	145.06
235.953	65.19
236.17	46.76
236.388	32.43
236.605	42.67
236.822	100.01
237.04	171.69
237.257	26.28
237.475	-26.96
237.692	118.44
237.909	65.19
238.127	9.9
238.344	48.81
238.562	48.81
238.779	-10.58
238.996	-106.84
239.214	18.09
239.431	114.34
239.648	-51.54
239.865	79.53
240.083	97.96
240.3	-43.35
240.517	48.81
240.735	102.06
240.952	108.2
241.169	128.68
241.386	22.19
241.603	75.43
241.821	-31.06
242.038	126.63
242.255	149.16
242.472	-100.69
242.689	77.48
242.907	97.96
243.124	81.58
243.341	5.8
243.558	-47.44
243.775	-115.03
243.992	-35.16
244.209	120.49
244.426	204.46
244.643	132.78
244.86	-4.44
245.078	136.87
245.295	26.28
245.512	108.2
245.729	5.8
245.946	77.48
246.163	52.91
246.38	36.52
246.597	61.1
246.814	34.47
247.031	52.91
247.248	54.95
247.464	95.91
247.681	44.71
247.898	93.87
248.115	-16.73
248.332	-112.98
248.549	153.26
248.766	130.73
248.983	126.63
249.2	87.72
249.417	140.97
249.633	85.67
249.85	81.58
250.067	97.96
250.284	54.95
250.501	130.73
250.717	30.38
250.934	-18.77
251.151	147.11
251.368	65.19
251.585	20.14
251.801	79.53
252.018	36.52
252.235	140.97
252.451	-78.16
252.668	-2.39
252.885	114.34
253.102	57
253.318	13.99
253.535	-8.53
253.752	30.38
253.968	-0.34
254.185	-41.3
254.401	13.99
254.618	75.43
254.835	36.52
255.051	169.64
255.268	108.2
255.484	71.34
255.701	-26.96
255.917	89.77
256.134	-24.92
256.351	79.53
256.567	-39.25
256.784	5.8
257	-33.11
257.217	122.54
257.433	136.87
257.65	71.34
257.866	102.06
258.082	-61.78
258.299	24.23
258.515	30.38
258.732	11.95
258.948	34.47
259.165	83.63
259.381	97.96
259.597	9.9
259.814	93.87
260.03	26.28
260.246	-18.77
260.463	171.69
260.679	89.77
260.895	9.9
261.112	65.19
261.328	36.52
261.544	-14.68
261.761	222.89
261.977	-22.87
262.193	-47.44
262.409	155.3
262.626	81.58
262.842	42.67
263.058	-49.49
263.274	77.48
263.49	69.29
263.707	128.68
263.923	93.87
264.139	-49.49
264.355	-26.96
264.571	161.45
264.787	87.72
265.004	40.62
265.22	46.76
265.436	13.99
265.652	-2.39
265.868	83.63
266.084	-55.64
266.3	69.29
266.516	-10.58
266.732	89.77
266.948	75.43
267.164	-72.02
267.38	73.39
267.596	16.04
267.812	171.69
268.028	81.58
268.244	-22.87
268.46	112.3
268.676	-8.53
268.892	-6.49
269.108	1.71
269.324	5.8
269.54	18.09
269.756	206.5
269.972	-45.4
270.188	22.19
270.403	1.71
270.619	13.99
270.835	93.87
271.051	44.71
271.267	28.33
271.483	24.23
271.698	132.78
271.914	48.81
272.13	114.34
272.346	100.01
272.562	32.43
272.777	177.83
272.993	28.33
273.209	57
273.425	100.01
273.64	-67.92
273.856	118.44
274.072	-2.39
274.287	-14.68
274.503	104.11
274.719	140.97
274.934	-69.97
275.15	-41.3
275.366	50.86
275.581	-26.96
275.797	46.76
276.012	30.38
276.228	48.81
276.444	93.87
276.659	112.3
276.875	16.04
277.09	11.95
277.306	61.1
277.521	118.44
277.737	16.04
277.952	102.06
278.168	30.38
278.383	100.01
278.599	108.2
278.814	61.1
279.03	32.43
279.245	237.22
279.461	28.33
279.676	126.63
279.892	-106.84
280.107	30.38
280.322	38.57
280.538	155.3
280.753	13.99
280.969	44.71
281.184	159.4
281.399	97.96
281.615	122.54
281.83	95.91
282.045	-65.88
282.26	30.38
282.476	46.76
282.691	120.49
282.906	67.24
283.122	106.15
283.337	3.75
283.552	102.06
283.767	-39.25
283.983	136.87
284.198	30.38
284.413	48.81
284.628	-88.4
284.843	32.43
285.058	102.06
285.274	65.19
285.489	20.14
285.704	106.15
285.919	20.14
286.134	24.23
286.349	69.29
286.564	65.19
286.779	167.59
286.995	124.58
287.21	-12.63
287.425	120.49
287.64	71.34
287.855	7.85
288.07	-57.68
288.285	155.3
288.5	151.21
288.715	87.72
288.93	42.67
289.145	-67.92
289.36	110.25
289.575	-65.88
289.79	102.06
290.004	11.95
290.219	118.44
290.434	57
290.649	3.75
290.864	-29.01
291.079	89.77
291.294	42.67
291.509	63.15
291.724	1.71
291.938	28.33
292.153	-20.82
292.368	24.23
292.583	26.28
292.798	192.17
293.012	85.67
293.227	85.67
293.442	48.81
293.657	85.67
293.871	83.63
294.086	138.92
294.301	208.55
294.516	124.58
294.73	3.75
294.945	-22.87
295.16	61.1
295.374	165.54
295.589	48.81
295.804	-41.3
296.018	38.57
296.233	155.3
296.447	34.47
296.662	54.95
296.877	173.74
297.091	140.97
297.306	128.68
297.52	36.52
297.735	106.15
297.949	69.29
298.164	114.34
298.378	46.76
298.593	-8.53
298.807	26.28
299.022	110.25
299.236	188.07
299.451	42.67
299.665	54.95
299.88	102.06
300.094	28.33
300.309	-14.68
300.523	102.06
300.737	48.81
300.952	136.87
301.166	71.34
301.381	-90.45
301.595	83.63
301.809	79.53
302.024	13.99
302.238	20.14
302.452	147.11
302.667	7.85
302.881	192.17
303.095	114.34
303.309	69.29
303.524	-10.58
303.738	57
303.952	9.9
304.166	97.96
304.381	-78.16
304.595	163.5
304.809	-24.92
305.023	-2.39
305.237	59.05
305.452	13.99
305.666	79.53
305.88	130.73
306.094	89.77
306.308	50.86
306.522	42.67
306.736	97.96
306.95	110.25
307.164	95.91
307.379	-16.73
307.593	104.11
307.807	155.3
308.021	108.2
308.235	81.58
308.449	-16.73
308.663	16.04
308.877	233.13
309.091	110.25
309.305	140.97
309.519	-67.92
309.733	167.59
309.947	-74.07
310.161	57
310.374	143.02
310.588	140.97
310.802	3.75
311.016	-24.92
311.23	73.39
311.444	-47.44
311.658	97.96
311.872	120.49
312.085	145.06
312.299	128.68
312.513	161.45
312.727	24.23
312.941	-53.59
313.154	110.25
313.368	69.29
313.582	13.99
313.796	110.25
314.009	120.49
314.223	116.39
314.437	11.95
314.651	100.01
314.864	-6.49
315.078	24.23
315.292	-18.77
315.505	-51.54
315.719	169.64
315.933	59.05
316.146	-8.53
316.36	-53.59
316.573	147.11
316.787	77.48
317.001	48.81
317.214	34.47
317.428	28.33
317.641	40.62
317.855	50.86
318.068	104.11
318.282	52.91
318.495	214.7
318.709	79.53
318.922	54.95
319.136	196.26
319.349	112.3
319.563	-43.35
319.776	87.72
319.99	-20.82
320.203	108.2
320.417	42.67
320.63	165.54
320.843	188.07
321.057	16.04
321.27	89.77
321.483	75.43
321.697	116.39
321.91	-14.68
322.124	87.72
322.337	81.58
322.55	48.81
322.763	16.04
322.977	87.72
323.19	20.14
323.403	-24.92
323.617	147.11
323.83	71.34
324.043	26.28
324.256	-16.73
324.469	-8.53
324.683	95.91
324.896	81.58
325.109	28.33
325.322	-35.16
325.535	202.41
325.748	50.86
325.962	-2.39
326.175	75.43
326.388	143.02
326.601	169.64
326.814	-4.44
327.027	69.29
327.24	157.35
327.453	-59.73
327.666	108.2
327.879	151.21
328.092	147.11
328.305	89.77
328.518	65.19
328.731	1.71
328.944	36.52
329.157	61.1
329.37	-33.11
329.583	202.41
329.796	143.02
330.009	-82.26
330.222	63.15
330.435	128.68
330.648	48.81
330.861	26.28
331.073	54.95
331.286	63.15
331.499	5.8
331.712	-4.44
331.925	48.81
332.138	38.57
332.35	122.54
332.563	-39.25
332.776	128.68
332.989	9.9
333.202	73.39
333.414	71.34
333.627	61.1
333.84	50.86
334.053	-6.49
334.265	-98.64
334.478	42.67
334.691	26.28
334.903	18.09
335.116	-119.12
335.329	57
335.541	67.24
335.754	95.91
335.966	-47.44
336.179	54.95
336.392	65.19
336.604	93.87
336.817	97.96
337.029	65.19
337.242	26.28
337.454	126.63
337.667	20.14
337.88	151.21
338.092	69.29
338.305	114.34
338.517	30.38
338.729	128.68
338.942	130.73
339.154	-26.96
339.367	32.43
339.579	95.91
339.792	-0.34
340.004	57
340.217	91.82
340.429	38.57
340.641	7.85
340.854	-39.25
341.066	28.33
341.278	124.58
341.491	159.4
341.703	95.91
341.915	46.76
342.128	97.96
342.34	67.24
342.552	-29.01
342.764	44.71
342.977	40.62
343.189	120.49
343.401	54.95
343.613	-20.82
343.826	122.54
344.038	-10.58
344.25	28.33
344.462	59.05
344.674	100.01
344.886	91.82
345.099	1.71
345.311	95.91
345.523	13.99
345.735	48.81
345.947	50.86
346.159	59.05
346.371	89.77
346.583	30.38
346.795	243.37
347.007	7.85
347.219	147.11
347.431	-12.63
347.643	138.92
347.855	59.05
348.067	208.55
348.279	26.28
348.491	46.76
348.703	145.06
348.915	42.67
349.127	20.14
349.339	57
349.551	-45.4
349.763	134.82
349.975	28.33
350.187	83.63
350.399	110.25
350.61	136.87
350.822	-2.39
351.034	63.15
351.246	61.1
351.458	93.87
351.669	128.68
351.881	130.73
352.093	77.48
352.305	100.01
352.517	81.58
352.728	106.15
352.94	128.68
353.152	59.05
353.363	20.14
353.575	75.43
353.787	118.44
353.999	83.63
354.21	276.13
354.422	-4.44
354.633	79.53
354.845	40.62
355.057	87.72
355.268	97.96
355.48	75.43
355.692	7.85
355.903	-4.44
356.115	5.8
356.326	-147.8
356.538	126.63
356.749	118.44
356.961	159.4
357.172	11.95
357.384	-63.83
357.595	206.5
357.807	-8.53
358.018	7.85
358.23	69.29
358.441	112.3
358.653	89.77
358.864	57
359.075	1.71
359.287	138.92
359.498	120.49
359.709	97.96
359.921	59.05
360.132	57
360.344	-12.63
360.555	-4.44
360.766	63.15
360.977	83.63
361.189	120.49
361.4	13.99
361.611	222.89
361.823	59.05
362.034	38.57
362.245	18.09
362.456	147.11
362.667	147.11
362.879	-121.17
363.09	97.96
363.301	30.38
363.512	73.39
363.723	59.05
363.935	-16.73
364.146	186.02
364.357	32.43
364.568	122.54
364.779	-121.17
364.99	102.06
365.201	-16.73
365.412	153.26
365.623	-39.25
365.834	77.48
366.045	-0.34
366.256	134.82
366.467	128.68
366.678	89.77
366.889	165.54
367.1	20.14
367.311	108.2
367.522	100.01
367.733	110.25
367.944	136.87
368.155	36.52
368.366	134.82
368.577	134.82
368.788	91.82
368.999	-26.96
369.209	24.23
369.42	210.6
369.631	229.03
369.842	95.91
370.053	-33.11
370.264	36.52
370.474	-39.25
370.685	87.72
370.896	-4.44
371.107	134.82
371.317	44.71
371.528	-33.11
371.739	204.46
371.95	89.77
372.16	69.29
372.371	22.19
372.582	26.28
372.792	116.39
373.003	9.9
373.214	83.63
373.424	52.91
373.635	-16.73
373.846	149.16
374.056	89.77
374.267	32.43
374.477	71.34
374.688	3.75
374.898	97.96
375.109	73.39
375.319	85.67
375.53	71.34
375.74	89.77
375.951	34.47
376.161	61.1
376.372	73.39
376.582	32.43
376.793	110.25
377.003	48.81
377.214	-53.59
377.424	151.21
377.635	36.52
377.845	93.87
378.055	239.27
378.266	-14.68
378.476	7.85
378.686	83.63
378.897	114.34
379.107	102.06
379.317	79.53
379.528	83.63
379.738	104.11
379.948	42.67
380.158	73.39
380.369	48.81
380.579	61.1
380.789	36.52
380.999	153.26
381.21	124.58
381.42	204.46
381.63	48.81
381.84	54.95
382.05	57
382.261	108.2
382.471	153.26
382.681	1.71
382.891	124.58
383.101	175.78
383.311	-72.02
383.521	11.95
383.731	75.43
383.941	132.78
384.151	-2.39
384.361	69.29
384.571	124.58
384.781	100.01
384.991	198.31
385.201	183.98
385.411	97.96
385.621	102.06
385.831	54.95
386.041	69.29
386.251	46.76
386.461	145.06
386.671	30.38
386.881	93.87
387.091	-4.44
387.301	165.54
387.511	116.39
387.72	130.73
387.93	48.81
388.14	-57.68
388.35	118.44
388.56	79.53
388.769	69.29
388.979	9.9
389.189	-35.16
389.399	63.15
389.609	79.53
389.818	118.44
390.028	28.33
390.238	104.11
390.447	-14.68
390.657	106.15
390.867	95.91
391.076	-10.58
391.286	32.43
391.496	-35.16
391.705	38.57
391.915	126.63
392.125	122.54
392.334	1.71
392.544	212.65
392.753	40.62
392.963	-20.82
393.172	44.71
393.382	-6.49
393.591	237.22
393.801	132.78
394.01	71.34
394.22	85.67
394.429	77.48
394.639	18.09
394.848	85.67
395.058	16.04
395.267	97.96
395.477	100.01
395.686	40.62
395.895	124.58
396.105	183.98
396.314	22.19
396.524	67.24
396.733	-0.34
396.942	106.15
397.152	102.06
397.361	116.39
397.57	44.71
397.78	28.33
397.989	143.02
398.198	188.07
398.407	79.53
398.617	46.76
398.826	85.67
399.035	38.57
399.244	159.4
399.453	22.19
399.663	108.2
399.872	46.76
400.081	-14.68
400.29	136.87
400.499	-74.07
400.708	140.97
400.917	93.87
401.127	46.76
401.336	7.85
401.545	222.89
401.754	112.3
401.963	140.97
402.172	38.57
402.381	-16.73
402.59	22.19
402.799	71.34
403.008	57
403.217	81.58
403.426	24.23
403.635	-33.11
403.844	42.67
404.053	87.72
404.262	61.1
404.471	173.74
404.68	97.96
404.888	-10.58
405.097	28.33
405.306	65.19
405.515	93.87
405.724	112.3
405.933	157.35
406.142	36.52
406.35	157.35
406.559	-2.39
406.768	118.44
406.977	206.5
407.185	46.76
407.394	50.86
407.603	30.38
407.812	73.39
408.02	147.11
408.229	-47.44
408.438	104.11
408.646	-49.49
408.855	26.28
409.064	79.53
409.272	-57.68
409.481	16.04
409.69	11.95
409.898	-22.87
410.107	140.97
410.315	145.06
410.524	-37.2
410.733	93.87
410.941	18.09
411.15	108.2
411.358	112.3
411.567	163.5
411.775	-0.34
411.984	167.59
412.192	147.11
412.401	22.19
412.609	143.02
412.818	140.97
413.026	112.3
413.234	26.28
413.443	81.58
413.651	5.8
413.86	93.87
414.068	83.63
414.276	167.59
414.485	-2.39
414.693	151.21
414.901	143.02
415.11	77.48
415.318	79.53
415.526	75.43
415.734	140.97
415.943	44.71
416.151	200.36
416.359	42.67
416.567	95.91
416.776	149.16
416.984	118.44
417.192	145.06
417.4	-29.01
417.608	-16.73
417.817	52.91
418.025	143.02
418.233	169.64
418.441	-39.25
418.649	44.71
418.857	89.77
419.065	140.97
419.273	3.75
419.481	54.95
419.689	73.39
419.897	61.1
420.105	-53.59
420.313	188.07
420.521	159.4
420.729	157.35
420.937	48.81
421.145	-41.3
421.353	167.59
421.561	237.22
421.769	153.26
421.977	28.33
422.185	67.24
422.393	46.76
422.601	140.97
422.809	157.35
423.017	118.44
423.224	83.63
423.432	196.26
423.64	97.96
423.848	69.29
424.056	42.67
424.263	134.82
424.471	114.34
424.679	222.89
424.887	-26.96
425.094	165.54
425.302	69.29
425.51	48.81
425.718	69.29
425.925	77.48
426.133	22.19
426.341	317.09
426.548	28.33
426.756	63.15
426.964	136.87
427.171	20.14
427.379	165.54
427.586	104.11
427.794	87.72
428.001	194.22
428.209	120.49
428.417	157.35
428.624	128.68
428.832	214.7
429.039	81.58
429.247	110.25
429.454	83.63
429.662	245.41
429.869	71.34
430.076	245.41
430.284	167.59
430.491	259.75
430.699	233.13
430.906	190.12
431.114	140.97
431.321	183.98
431.528	81.58
431.736	159.4
431.943	161.45
432.15	188.07
432.358	249.51
432.565	272.04
432.772	83.63
432.979	175.78
433.187	110.25
433.394	192.17
433.601	140.97
433.808	269.99
434.016	292.52
434.223	392.87
434.43	251.56
434.637	372.39
434.844	306.85
435.052	261.8
435.259	341.67
435.466	315.05
435.673	280.23
435.88	353.96
436.087	390.82
436.294	372.39
436.501	380.58
436.708	329.38
436.915	329.38
437.122	433.83
437.329	331.43
437.537	392.87
437.743	372.39
437.95	439.97
438.157	380.58
438.364	437.92
438.571	370.34
438.778	491.17
438.985	489.12
439.192	507.55
439.399	497.32
439.606	505.51
439.813	564.9
440.02	720.54
440.227	630.43
440.433	659.1
440.64	552.61
440.847	519.84
441.054	669.34
441.261	810.65
441.467	609.95
441.674	593.57
441.881	827.04
442.088	724.64
442.294	790.17
442.501	859.81
442.708	911
442.914	818.85
443.121	954.01
443.328	878.24
443.534	1033.88
443.741	954.01
443.948	947.87
444.154	1017.5
444.361	1222.3
444.568	1183.38
444.774	1164.95
444.981	1095.32
445.187	1195.67
445.394	1365.65
445.6	1347.22
445.807	1420.95
446.013	1400.47
446.22	1408.66
446.426	1615.51
446.633	1633.94
446.839	1715.86
447.046	1617.55
447.252	1816.21
447.459	1912.46
447.665	1842.83
447.871	2061.96
448.078	2115.21
448.284	2100.87
448.491	2137.74
448.697	2383.49
448.903	2270.86
449.11	2457.22
449.316	2403.97
449.522	2526.85
449.728	2651.78
449.935	2795.14
450.141	2727.55
450.347	2913.92
450.553	2948.73
450.76	2909.82
450.966	3303.03
451.172	3475.06
451.378	3491.45
451.584	3565.17
451.791	3774.07
451.997	3829.36
452.203	4005.49
452.409	4365.93
452.615	4318.82
452.821	4154.99
453.027	4185.71
453.233	4898.4
453.44	4736.61
453.646	4947.55
453.852	5150.3
454.058	5295.71
454.264	5322.33
454.47	5729.88
454.676	5791.31
454.882	6417.99
455.088	6145.61
455.294	6270.54
455.5	6870.59
455.705	7036.48
455.911	7235.13
456.117	7403.07
456.323	7671.35
456.529	7704.12
456.735	8427.05
456.941	8551.98
457.147	8855.08
457.352	9178.65
457.558	9227.81
457.764	10110.48
457.97	10282.51
458.176	10692.1
458.381	11177.47
458.587	11419.13
458.793	11800.05
458.999	11886.07
459.204	13417.95
459.41	13796.82
459.616	13561.31
459.821	14214.61
460.027	15091.14
460.233	15787.45
460.438	15713.72
460.644	16887.21
460.85	16930.22
461.055	17378.72
461.261	18470.29
461.466	17837.47
461.672	18492.82
461.878	20800.88
462.083	20180.34
462.289	20929.9
462.494	21544.29
462.7	21785.95
462.905	22037.85
463.111	23397.7
463.316	24984.88
463.522	25384.23
463.727	26156.32
463.932	27151.63
464.138	27690.24
464.343	29379.82
464.549	29410.54
464.754	31456.46
464.959	31911.11
465.165	32787.64
465.37	32427.2
465.575	32619.7
465.781	34802.84
465.986	35601.55
466.191	35552.4
466.397	35746.95
466.602	34858.13
466.807	36736.12
467.012	37272.69
467.218	37854.31
467.423	37520.49
467.628	38915.16
467.833	41178.17
468.038	40385.6
