Data from USB4F104151__113__10-36-26-622.txt Node

Date: Wed Feb 26 10:36:26 EST 2025
User: louis
Spectrometer: USB4F10415
Trigger mode: 4
Integration Time (sec): 1.000000E-1
Scans to average: 1
Electric dark correction enabled: true
Nonlinearity correction enabled: false
Boxcar width: 0
XAxis mode: Wavelengths
Number of Pixels in Spectrum: 3648
>>>>>Begin Spectral Data<<<<<
178.204	-347.13
178.424	-347.13
178.644	-347.13
178.864	-375.8
179.084	-410.62
179.304	-19.46
179.524	-13.31
179.744	101.37
179.964	60.42
180.184	-13.31
180.404	54.27
180.624	-33.79
180.844	17.41
181.064	-123.9
181.283	1.02
181.503	-33.79
181.723	3.07
181.943	-91.13
182.163	179.2
182.383	-7.17
182.602	68.61
182.822	60.42
183.042	54.27
183.262	-91.13
183.482	29.7
183.701	35.84
183.921	56.32
184.141	-78.85
184.361	3.07
184.58	111.61
184.8	21.5
185.02	-48.13
185.239	125.95
185.459	23.55
185.679	62.46
185.898	-66.56
186.118	103.42
186.338	68.61
186.557	87.04
186.777	-97.28
186.997	-31.74
187.216	52.22
187.436	148.48
187.655	78.85
187.875	128
188.095	54.27
188.314	160.77
188.534	93.18
188.753	-29.7
188.973	105.47
189.192	80.89
189.412	-23.55
189.631	68.61
189.851	111.61
190.07	177.15
190.29	-54.27
190.509	-31.74
190.729	17.41
190.948	164.86
191.168	263.16
191.387	103.42
191.607	39.94
191.826	70.65
192.045	82.94
192.265	-9.22
192.484	9.22
192.704	35.84
192.923	-101.37
193.142	140.29
193.362	82.94
193.581	91.13
193.8	37.89
194.02	21.5
194.239	46.08
194.458	101.37
194.678	-41.98
194.897	15.36
195.116	37.89
195.335	84.99
195.555	128
195.774	39.94
195.993	109.57
196.212	64.51
196.432	44.03
196.651	-29.7
196.87	-23.55
197.089	240.64
197.308	39.94
197.528	84.99
197.747	-25.6
197.966	62.46
198.185	173.05
198.404	-23.55
198.623	119.81
198.842	117.76
199.062	130.05
199.281	78.85
199.5	56.32
199.719	78.85
199.938	23.55
200.157	109.57
200.376	109.57
200.595	136.19
200.814	60.42
201.033	44.03
201.252	128
201.471	125.95
201.69	95.23
201.909	37.89
202.128	134.14
202.347	25.6
202.566	11.26
202.785	1.02
203.004	46.08
203.223	297.98
203.442	11.26
203.661	-54.27
203.879	60.42
204.098	150.53
204.317	19.46
204.536	140.29
204.755	62.46
204.974	156.67
205.193	25.6
205.411	109.57
205.63	74.75
205.849	64.51
206.068	9.22
206.287	50.18
206.505	136.19
206.724	-1.02
206.943	-1.02
207.162	13.31
207.381	101.37
207.599	41.98
207.818	109.57
208.037	58.37
208.255	-9.22
208.474	80.89
208.693	125.95
208.911	-41.98
209.13	41.98
209.349	89.09
209.567	113.66
209.786	37.89
210.005	111.61
210.223	23.55
210.442	-56.32
210.661	-27.65
210.879	82.94
211.098	68.61
211.316	21.5
211.535	33.79
211.753	56.32
211.972	58.37
212.191	-66.56
212.409	-1.02
212.628	142.33
212.846	3.07
213.065	5.12
213.283	130.05
213.502	31.74
213.72	115.71
213.938	87.04
214.157	68.61
214.375	103.42
214.594	-19.46
214.812	105.47
215.031	78.85
215.249	-7.17
215.467	5.12
215.686	31.74
215.904	82.94
216.122	13.31
216.341	254.97
216.559	89.09
216.778	62.46
216.996	107.52
217.214	5.12
217.432	-5.12
217.651	-103.42
217.869	76.8
218.087	80.89
218.306	35.84
218.524	37.89
218.742	1.02
218.96	39.94
219.179	3.07
219.397	33.79
219.615	209.92
219.833	115.71
220.051	-25.6
220.27	74.75
220.488	76.8
220.706	11.26
220.924	-17.41
221.142	41.98
221.36	84.99
221.578	27.65
221.796	25.6
222.015	25.6
222.233	64.51
222.451	171.01
222.669	52.22
222.887	54.27
223.105	5.12
223.323	15.36
223.541	-72.7
223.759	87.04
223.977	54.27
224.195	138.24
224.413	82.94
224.631	66.56
224.849	-3.07
225.067	246.78
225.285	25.6
225.503	-11.26
225.721	15.36
225.939	50.18
226.157	-31.74
226.375	152.57
226.592	-27.65
226.81	72.7
227.028	91.13
227.246	125.95
227.464	72.7
227.682	68.61
227.9	84.99
228.117	107.52
228.335	46.08
228.553	84.99
228.771	39.94
228.989	50.18
229.206	31.74
229.424	35.84
229.642	58.37
229.86	-46.08
230.077	197.63
230.295	66.56
230.513	103.42
230.731	50.18
230.948	99.33
231.166	125.95
231.384	23.55
231.601	-9.22
231.819	164.86
232.037	-5.12
232.254	-9.22
232.472	87.04
232.689	-23.55
232.907	109.57
233.125	23.55
233.342	5.12
233.56	-23.55
233.777	-60.42
233.995	46.08
234.213	105.47
234.43	56.32
234.648	54.27
234.865	48.13
235.083	-11.26
235.3	5.12
235.518	162.81
235.735	144.38
235.953	87.04
236.17	-33.79
236.388	-3.07
236.605	15.36
236.822	89.09
237.04	115.71
237.257	99.33
237.475	-19.46
237.692	-1.02
237.909	164.86
238.127	21.5
238.344	87.04
238.562	87.04
238.779	46.08
238.996	-17.41
239.214	70.65
239.431	185.34
239.648	44.03
239.865	50.18
240.083	64.51
240.3	39.94
240.517	13.31
240.735	21.5
240.952	140.29
241.169	78.85
241.386	148.48
241.603	-9.22
241.821	-48.13
242.038	105.47
242.255	177.15
242.472	-60.42
242.689	56.32
242.907	39.94
243.124	87.04
243.341	62.46
243.558	-23.55
243.775	25.6
243.992	-33.79
244.209	148.48
244.426	142.33
244.643	41.98
244.86	25.6
245.078	119.81
245.295	11.26
245.512	48.13
245.729	39.94
245.946	33.79
246.163	15.36
246.38	7.17
246.597	48.13
246.814	48.13
247.031	-3.07
247.248	91.13
247.464	84.99
247.681	50.18
247.898	97.28
248.115	72.7
248.332	-15.36
248.549	54.27
248.766	234.49
248.983	87.04
249.2	58.37
249.417	62.46
249.633	-11.26
249.85	87.04
250.067	21.5
250.284	19.46
250.501	46.08
250.717	132.09
250.934	-54.27
251.151	1.02
251.368	37.89
251.585	52.22
251.801	-1.02
252.018	-17.41
252.235	115.71
252.451	-89.09
252.668	70.65
252.885	113.66
253.102	48.13
253.318	48.13
253.535	-7.17
253.752	-11.26
253.968	-17.41
254.185	-48.13
254.401	21.5
254.618	46.08
254.835	1.02
255.051	175.1
255.268	87.04
255.484	35.84
255.701	97.28
255.917	33.79
256.134	-132.09
256.351	37.89
256.567	-29.7
256.784	17.41
257	-7.17
257.217	56.32
257.433	80.89
257.65	58.37
257.866	187.39
258.082	11.26
258.299	23.55
258.515	25.6
258.732	54.27
258.948	11.26
259.165	13.31
259.381	-68.61
259.597	162.81
259.814	113.66
260.03	5.12
260.246	91.13
260.463	158.72
260.679	197.63
260.895	64.51
261.112	117.76
261.328	39.94
261.544	11.26
261.761	183.29
261.977	29.7
262.193	-70.65
262.409	134.14
262.626	58.37
262.842	97.28
263.058	-7.17
263.274	134.14
263.49	39.94
263.707	136.19
263.923	107.52
264.139	-89.09
264.355	62.46
264.571	109.57
264.787	97.28
265.004	44.03
265.22	78.85
265.436	-15.36
265.652	31.74
265.868	1.02
266.084	-11.26
266.3	91.13
266.516	54.27
266.732	41.98
266.948	62.46
267.164	50.18
267.38	60.42
267.596	93.18
267.812	136.19
268.028	62.46
268.244	-41.98
268.46	123.9
268.676	44.03
268.892	52.22
269.108	-3.07
269.324	-1.02
269.54	3.07
269.756	17.41
269.972	-58.37
270.188	-35.84
270.403	-52.22
270.619	9.22
270.835	115.71
271.051	-9.22
271.267	27.65
271.483	41.98
271.698	113.66
271.914	19.46
272.13	-27.65
272.346	72.7
272.562	-52.22
272.777	134.14
272.993	21.5
273.209	97.28
273.425	117.76
273.64	-70.65
273.856	136.19
274.072	-25.6
274.287	-9.22
274.503	134.14
274.719	64.51
274.934	-15.36
275.15	-21.5
275.366	-68.61
275.581	-74.75
275.797	87.04
276.012	74.75
276.228	1.02
276.444	1.02
276.659	185.34
276.875	23.55
277.09	13.31
277.306	-9.22
277.521	41.98
277.737	3.07
277.952	58.37
278.168	7.17
278.383	58.37
278.599	23.55
278.814	130.05
279.03	1.02
279.245	140.29
279.461	115.71
279.676	142.33
279.892	-11.26
280.107	-21.5
280.322	50.18
280.538	41.98
280.753	-13.31
280.969	113.66
281.184	66.56
281.399	207.87
281.615	97.28
281.83	144.38
282.045	-1.02
282.26	-21.5
282.476	128
282.691	80.89
282.906	56.32
283.122	70.65
283.337	21.5
283.552	66.56
283.767	15.36
283.983	95.23
284.198	-46.08
284.413	70.65
284.628	-99.33
284.843	-5.12
285.058	82.94
285.274	11.26
285.489	-56.32
285.704	148.48
285.919	7.17
286.134	-5.12
286.349	-1.02
286.564	52.22
286.779	117.76
286.995	-54.27
287.21	-72.7
287.425	109.57
287.64	52.22
287.855	72.7
288.07	-101.37
288.285	103.42
288.5	160.77
288.715	66.56
288.93	29.7
289.145	-56.32
289.36	95.23
289.575	-35.84
289.79	80.89
290.004	11.26
290.219	70.65
290.434	-25.6
290.649	87.04
290.864	46.08
291.079	64.51
291.294	25.6
291.509	113.66
291.724	29.7
291.938	-19.46
292.153	91.13
292.368	39.94
292.583	68.61
292.798	52.22
293.012	150.53
293.227	72.7
293.442	-15.36
293.657	44.03
293.871	76.8
294.086	50.18
294.301	214.01
294.516	130.05
294.73	64.51
294.945	-56.32
295.16	-31.74
295.374	136.19
295.589	105.47
295.804	50.18
296.018	97.28
296.233	152.57
296.447	105.47
296.662	-15.36
296.877	148.48
297.091	113.66
297.306	-11.26
297.52	-3.07
297.735	33.79
297.949	58.37
298.164	99.33
298.378	70.65
298.593	-33.79
298.807	-21.5
299.022	44.03
299.236	154.62
299.451	-54.27
299.665	-41.98
299.88	39.94
300.094	103.42
300.309	-48.13
300.523	60.42
300.737	54.27
300.952	105.47
301.166	119.81
301.381	19.46
301.595	80.89
301.809	109.57
302.024	31.74
302.238	-7.17
302.452	152.57
302.667	23.55
302.881	150.53
303.095	103.42
303.309	80.89
303.524	15.36
303.738	-60.42
303.952	31.74
304.166	95.23
304.381	-58.37
304.595	130.05
304.809	-11.26
305.023	54.27
305.237	31.74
305.452	1.02
305.666	5.12
305.88	119.81
306.094	123.9
306.308	76.8
306.522	66.56
306.736	54.27
306.95	113.66
307.164	50.18
307.379	62.46
307.593	101.37
307.807	121.85
308.021	19.46
308.235	103.42
308.449	-160.77
308.663	35.84
308.877	234.49
309.091	27.65
309.305	37.89
309.519	-27.65
309.733	111.61
309.947	-54.27
310.161	48.13
310.374	158.72
310.588	97.28
310.802	-29.7
311.016	95.23
311.23	80.89
311.444	5.12
311.658	70.65
311.872	166.91
312.085	154.62
312.299	56.32
312.513	109.57
312.727	70.65
312.941	33.79
313.154	109.57
313.368	37.89
313.582	117.76
313.796	39.94
314.009	21.5
314.223	121.85
314.437	21.5
314.651	37.89
314.864	48.13
315.078	37.89
315.292	-35.84
315.505	33.79
315.719	168.96
315.933	97.28
316.146	72.7
316.36	-11.26
316.573	52.22
316.787	64.51
317.001	132.09
317.214	39.94
317.428	74.75
317.641	-60.42
317.855	19.46
318.068	68.61
318.282	115.71
318.495	199.68
318.709	97.28
318.922	113.66
319.136	181.25
319.349	89.09
319.563	50.18
319.776	39.94
319.99	-3.07
320.203	150.53
320.417	-3.07
320.63	39.94
320.843	218.11
321.057	54.27
321.27	11.26
321.483	19.46
321.697	152.57
321.91	113.66
322.124	76.8
322.337	123.9
322.55	37.89
322.763	56.32
322.977	-68.61
323.19	-15.36
323.403	27.65
323.617	89.09
323.83	207.87
324.043	39.94
324.256	101.37
324.469	-99.33
324.683	91.13
324.896	91.13
325.109	48.13
325.322	-15.36
325.535	54.27
325.748	105.47
325.962	25.6
326.175	41.98
326.388	37.89
326.601	128
326.814	41.98
327.027	48.13
327.24	148.48
327.453	-27.65
327.666	87.04
327.879	115.71
328.092	82.94
328.305	80.89
328.518	13.31
328.731	39.94
328.944	-35.84
329.157	76.8
329.37	37.89
329.583	197.63
329.796	128
330.009	-111.61
330.222	125.95
330.435	130.05
330.648	64.51
330.861	15.36
331.073	29.7
331.286	111.61
331.499	-19.46
331.712	-62.46
331.925	27.65
332.138	17.41
332.35	119.81
332.563	44.03
332.776	128
332.989	-19.46
333.202	-17.41
333.414	13.31
333.627	62.46
333.84	-11.26
334.053	125.95
334.265	56.32
334.478	91.13
334.691	70.65
334.903	103.42
335.116	-23.55
335.329	-5.12
335.541	72.7
335.754	226.3
335.966	19.46
336.179	105.47
336.392	-5.12
336.604	-11.26
336.817	109.57
337.029	54.27
337.242	68.61
337.454	37.89
337.667	93.18
337.88	171.01
338.092	60.42
338.305	66.56
338.517	-15.36
338.729	105.47
338.942	173.05
339.154	-11.26
339.367	-46.08
339.579	52.22
339.792	-56.32
340.004	185.34
340.217	-25.6
340.429	58.37
340.641	-31.74
340.854	-66.56
341.066	-9.22
341.278	95.23
341.491	97.28
341.703	66.56
341.915	-54.27
342.128	144.38
342.34	3.07
342.552	-46.08
342.764	119.81
342.977	-29.7
343.189	60.42
343.401	50.18
343.613	-25.6
343.826	76.8
344.038	11.26
344.25	74.75
344.462	-27.65
344.674	-9.22
344.886	13.31
345.099	39.94
345.311	33.79
345.523	74.75
345.735	-60.42
345.947	50.18
346.159	89.09
346.371	52.22
346.583	7.17
346.795	191.49
347.007	44.03
347.219	64.51
347.431	-13.31
347.643	103.42
347.855	41.98
348.067	209.92
348.279	31.74
348.491	5.12
348.703	52.22
348.915	-9.22
349.127	21.5
349.339	109.57
349.551	56.32
349.763	115.71
349.975	37.89
350.187	56.32
350.399	185.34
350.61	60.42
350.822	-7.17
351.034	109.57
351.246	35.84
351.458	82.94
351.669	82.94
351.881	89.09
352.093	168.96
352.305	64.51
352.517	62.46
352.728	130.05
352.94	84.99
353.152	70.65
353.363	58.37
353.575	44.03
353.787	156.67
353.999	44.03
354.21	173.05
354.422	-13.31
354.633	74.75
354.845	60.42
355.057	19.46
355.268	-31.74
355.48	15.36
355.692	-52.22
355.903	93.18
356.115	5.12
356.326	-35.84
356.538	117.76
356.749	109.57
356.961	175.1
357.172	-91.13
357.384	-62.46
357.595	228.35
357.807	-35.84
358.018	-19.46
358.23	15.36
358.441	160.77
358.653	72.7
358.864	48.13
359.075	-25.6
359.287	27.65
359.498	39.94
359.709	191.49
359.921	25.6
360.132	1.02
360.344	5.12
360.555	-60.42
360.766	54.27
360.977	23.55
361.189	35.84
361.4	99.33
361.611	111.61
361.823	177.15
362.034	66.56
362.245	-107.52
362.456	21.5
362.667	35.84
362.879	-15.36
363.09	56.32
363.301	62.46
363.512	68.61
363.723	-25.6
363.935	46.08
364.146	136.19
364.357	5.12
364.568	56.32
364.779	-21.5
364.99	62.46
365.201	-66.56
365.412	205.82
365.623	-74.75
365.834	-3.07
366.045	37.89
366.256	87.04
366.467	136.19
366.678	-11.26
366.889	97.28
367.1	3.07
367.311	70.65
367.522	33.79
367.733	97.28
367.944	93.18
368.155	66.56
368.366	80.89
368.577	82.94
368.788	162.81
368.999	-19.46
369.209	70.65
369.42	191.49
369.631	259.07
369.842	123.9
370.053	44.03
370.264	130.05
370.474	91.13
370.685	31.74
370.896	39.94
371.107	144.38
371.317	84.99
371.528	3.07
371.739	121.85
371.95	68.61
372.16	74.75
372.371	35.84
372.582	33.79
372.792	68.61
373.003	60.42
373.214	115.71
373.424	76.8
373.635	-19.46
373.846	132.09
374.056	15.36
374.267	68.61
374.477	-25.6
374.688	-41.98
374.898	9.22
375.109	11.26
375.319	78.85
375.53	48.13
375.74	60.42
375.951	-1.02
376.161	31.74
376.372	144.38
376.582	-31.74
376.793	68.61
377.003	-27.65
377.214	1.02
377.424	74.75
377.635	89.09
377.845	-13.31
378.055	185.34
378.266	3.07
378.476	87.04
378.686	97.28
378.897	-33.79
379.107	138.24
379.317	3.07
379.528	29.7
379.738	95.23
379.948	-56.32
380.158	103.42
380.369	117.76
380.579	80.89
380.789	68.61
380.999	99.33
381.21	140.29
381.42	207.87
381.63	-5.12
381.84	56.32
382.05	95.23
382.261	119.81
382.471	66.56
382.681	44.03
382.891	132.09
383.101	66.56
383.311	-29.7
383.521	-29.7
383.731	60.42
383.941	58.37
384.151	46.08
384.361	29.7
384.571	93.18
384.781	46.08
384.991	177.15
385.201	244.73
385.411	-3.07
385.621	87.04
385.831	78.85
386.041	-5.12
386.251	56.32
386.461	142.33
386.671	25.6
386.881	99.33
387.091	-37.89
387.301	132.09
387.511	74.75
387.72	64.51
387.93	125.95
388.14	-33.79
388.35	150.53
388.56	150.53
388.769	132.09
388.979	-3.07
389.189	-39.94
389.399	62.46
389.609	101.37
389.818	58.37
390.028	64.51
390.238	89.09
390.447	5.12
390.657	50.18
390.867	9.22
391.076	-33.79
391.286	70.65
391.496	66.56
391.705	23.55
391.915	117.76
392.125	89.09
392.334	21.5
392.544	162.81
392.753	19.46
392.963	-46.08
393.172	64.51
393.382	29.7
393.591	220.16
393.801	25.6
394.01	109.57
394.22	62.46
394.429	33.79
394.639	56.32
394.848	82.94
395.058	70.65
395.267	97.28
395.477	132.09
395.686	60.42
395.895	191.49
396.105	205.82
396.314	58.37
396.524	-19.46
396.733	52.22
396.942	132.09
397.152	121.85
397.361	74.75
397.57	31.74
397.78	19.46
397.989	117.76
398.198	168.96
398.407	29.7
398.617	72.7
398.826	125.95
399.035	35.84
399.244	84.99
399.453	39.94
399.663	74.75
399.872	87.04
400.081	-125.95
400.29	160.77
400.499	-33.79
400.708	111.61
400.917	35.84
401.127	-31.74
401.336	72.7
401.545	189.44
401.754	109.57
401.963	134.14
402.172	-5.12
402.381	-44.03
402.59	93.18
402.799	62.46
403.008	21.5
403.217	7.17
403.426	-21.5
403.635	-33.79
403.844	37.89
404.053	-1.02
404.262	1.02
404.471	185.34
404.68	41.98
404.888	56.32
405.097	37.89
405.306	87.04
405.515	128
405.724	-29.7
405.933	64.51
406.142	113.66
406.35	132.09
406.559	-109.57
406.768	9.22
406.977	193.53
407.185	52.22
407.394	72.7
407.603	-33.79
407.812	-11.26
408.02	76.8
408.229	56.32
408.438	78.85
408.646	-54.27
408.855	119.81
409.064	76.8
409.272	7.17
409.481	125.95
409.69	-23.55
409.898	52.22
410.107	68.61
410.315	78.85
410.524	-39.94
410.733	29.7
410.941	91.13
411.15	179.2
411.358	50.18
411.567	105.47
411.775	64.51
411.984	1.02
412.192	107.52
412.401	62.46
412.609	125.95
412.818	138.24
413.026	39.94
413.234	60.42
413.443	25.6
413.651	72.7
413.86	-1.02
414.068	119.81
414.276	226.3
414.485	29.7
414.693	144.38
414.901	183.29
415.11	21.5
415.318	44.03
415.526	-31.74
415.734	134.14
415.943	82.94
416.151	183.29
416.359	33.79
416.567	109.57
416.776	128
416.984	72.7
417.192	171.01
417.4	-27.65
417.608	33.79
417.817	-54.27
418.025	99.33
418.233	222.2
418.441	-21.5
418.649	-27.65
418.857	62.46
419.065	152.57
419.273	60.42
419.481	103.42
419.689	44.03
419.897	-37.89
420.105	-39.94
420.313	123.9
420.521	168.96
420.729	142.33
420.937	17.41
421.145	31.74
421.353	84.99
421.561	168.96
421.769	23.55
421.977	48.13
422.185	156.67
422.393	19.46
422.601	111.61
422.809	44.03
423.017	15.36
423.224	64.51
423.432	87.04
423.64	-41.98
423.848	201.72
424.056	52.22
424.263	70.65
424.471	140.29
424.679	128
424.887	21.5
425.094	138.24
425.302	74.75
425.51	89.09
425.718	87.04
425.925	68.61
426.133	33.79
426.341	240.64
426.548	-15.36
426.756	119.81
426.964	105.47
427.171	31.74
427.379	50.18
427.586	103.42
427.794	132.09
428.001	144.38
428.209	179.2
428.417	209.92
428.624	211.96
428.832	177.15
429.039	113.66
429.247	156.67
429.454	99.33
429.662	310.27
429.869	248.83
430.076	123.9
430.284	195.58
430.491	232.44
430.699	103.42
430.906	279.55
431.114	117.76
431.321	203.77
431.528	136.19
431.736	105.47
431.943	97.28
432.15	236.54
432.358	234.49
432.565	365.56
432.772	58.37
432.979	283.64
433.187	150.53
433.394	259.07
433.601	142.33
433.808	281.6
434.016	263.16
434.223	244.73
434.43	236.54
434.637	300.03
434.844	283.64
435.052	259.07
435.259	420.86
435.466	308.22
435.673	332.79
435.88	265.21
436.087	437.24
436.294	371.71
436.501	379.9
436.708	371.71
436.915	357.37
437.122	357.37
437.329	310.27
437.537	470.01
437.743	484.34
437.95	433.15
438.157	455.67
438.364	302.08
438.571	443.39
438.778	584.7
438.985	510.97
439.192	580.6
439.399	576.5
439.606	568.31
439.813	666.61
440.02	787.44
440.227	668.66
440.433	654.33
440.64	666.61
440.847	621.56
441.054	687.09
441.261	814.07
441.467	705.53
441.674	683
441.881	805.88
442.088	746.48
442.294	947.19
442.501	918.51
442.708	922.61
442.914	855.03
443.121	898.03
443.328	898.03
443.534	1057.78
443.741	1090.54
443.948	982
444.154	1149.93
444.361	1270.76
444.568	1178.61
444.774	1270.76
444.981	1188.85
445.187	1410.03
445.394	1381.35
445.6	1377.26
445.807	1518.57
446.013	1487.85
446.22	1520.62
446.426	1657.83
446.633	1805.28
446.839	1993.7
447.046	1674.21
447.252	1926.11
447.459	1954.79
447.665	1999.84
447.871	2110.43
448.078	2311.13
448.284	2124.77
448.491	2368.48
448.697	2429.91
448.903	2536.41
449.11	2651.1
449.316	2591.7
449.522	2917.33
449.728	2946
449.935	2954.19
450.141	3025.87
450.347	3242.96
450.553	3253.2
450.76	3265.49
450.966	3480.52
451.172	3482.57
451.378	3752.9
451.584	3783.62
451.791	3984.32
451.997	4164.54
452.203	4019.14
452.409	4502.46
452.615	4617.15
452.821	4567.99
453.027	4551.61
453.233	5061.55
453.44	4924.34
453.646	5278.64
453.852	5481.39
454.058	5612.46
454.264	5864.36
454.47	6165.41
454.676	6249.38
454.882	6937.49
455.088	6648.73
455.294	6931.35
455.5	7140.24
455.705	7752.59
455.911	7793.55
456.117	7945.09
456.323	8276.87
456.529	8205.19
456.735	9100.15
456.941	9227.12
457.147	9524.08
457.352	9847.66
457.558	10015.59
457.764	10738.52
457.97	11041.62
458.176	11406.16
458.381	11897.67
458.587	12155.72
458.793	12682.05
458.999	12733.25
459.204	14406.44
459.41	14785.31
459.616	14689.06
459.821	15842.06
460.027	16347.91
460.233	17011.45
460.438	16780.03
460.644	17969.9
460.85	18010.86
461.055	19045.09
461.261	20103.89
461.466	19536.6
461.672	19976.91
461.878	22201.01
462.083	21711.54
462.289	22477.48
462.494	22993.57
462.7	23229.09
462.905	23605.91
463.111	25531
463.316	26995.3
463.522	27302.5
463.727	28164.69
463.932	29461.05
464.138	30134.84
464.343	31005.22
464.549	31513.12
464.754	34023.93
464.959	34589.17
465.165	35043.82
465.37	34877.93
465.575	34974.19
465.781	37312.97
465.986	38621.62
466.191	37888.45
466.397	38107.58
466.602	37214.66
466.807	39827.87
467.012	40137.12
467.218	41101.71
467.423	41283.98
467.628	42049.92
467.833	43845.99
468.038	43886.95
468.244	42799.47
468.449	44820.82
468.654	43698.53
