Data from USB4F104151__26__10-24-05-543.txt Node

Date: Wed Feb 26 10:24:05 EST 2025
User: louis
Spectrometer: USB4F10415
Trigger mode: 4
Integration Time (sec): 1.000000E-1
Scans to average: 1
Electric dark correction enabled: true
Nonlinearity correction enabled: false
Boxcar width: 0
XAxis mode: Wavelengths
Number of Pixels in Spectrum: 3648
>>>>>Begin Spectral Data<<<<<
178.204	-401.23
178.424	-401.23
178.644	-401.23
178.864	-431.95
179.084	-382.8
179.304	-63.32
179.524	-77.65
179.744	-22.36
179.964	98.47
180.184	39.08
180.404	59.56
180.624	-24.4
180.844	-42.84
181.064	16.55
181.283	14.51
181.503	-57.17
181.723	59.56
181.943	-85.84
182.163	194.73
182.383	22.7
182.602	71.85
182.822	114.86
183.042	12.46
183.262	-57.17
183.482	-10.07
183.701	4.27
183.921	75.95
184.141	-32.6
184.361	-28.5
184.58	110.76
184.8	6.31
185.02	-1.88
185.239	86.19
185.459	127.14
185.679	172.2
185.898	-100.18
186.118	45.23
186.338	75.95
186.557	157.86
186.777	16.55
186.997	53.42
187.216	-16.21
187.436	194.73
187.655	69.8
187.875	45.23
188.095	49.32
188.314	55.47
188.534	114.86
188.753	-65.36
188.973	94.38
189.192	129.19
189.412	43.18
189.631	-38.74
189.851	51.37
190.07	104.62
190.29	-32.6
190.509	39.08
190.729	98.47
190.948	110.76
191.168	176.3
191.387	69.8
191.607	37.03
191.826	-26.45
192.045	-26.45
192.265	6.31
192.484	45.23
192.704	69.8
192.923	-5.97
193.142	192.68
193.362	69.8
193.581	153.77
193.8	86.19
194.02	77.99
194.239	86.19
194.458	6.31
194.678	-40.79
194.897	26.79
195.116	20.65
195.335	106.67
195.555	61.61
195.774	-12.12
195.993	141.48
196.212	63.66
196.432	30.89
196.651	-40.79
196.87	-20.31
197.089	170.15
197.308	80.04
197.528	118.95
197.747	73.9
197.966	22.7
198.185	51.37
198.404	-20.31
198.623	143.53
198.842	39.08
199.062	98.47
199.281	96.43
199.5	-14.17
199.719	51.37
199.938	63.66
200.157	82.09
200.376	92.33
200.595	-5.97
200.814	34.99
201.033	-40.79
201.252	186.54
201.471	92.33
201.69	90.28
201.909	20.65
202.128	151.72
202.347	88.23
202.566	34.99
202.785	-48.98
203.004	-44.88
203.223	262.31
203.442	28.84
203.661	-32.6
203.879	98.47
204.098	12.46
204.317	-59.22
204.536	135.34
204.755	34.99
204.974	118.95
205.193	8.36
205.411	110.76
205.63	53.42
205.849	55.47
206.068	86.19
206.287	96.43
206.505	104.62
206.724	10.41
206.943	2.22
207.162	14.51
207.381	67.75
207.599	39.08
207.818	34.99
208.037	-32.6
208.255	-32.6
208.474	43.18
208.693	20.65
208.911	28.84
209.13	137.38
209.349	118.95
209.567	43.18
209.786	80.04
210.005	123.05
210.223	55.47
210.442	-75.6
210.661	24.75
210.879	47.27
211.098	55.47
211.316	2.22
211.535	47.27
211.753	84.14
211.972	77.99
212.191	24.75
212.409	-8.02
212.628	106.67
212.846	-1.88
213.065	92.33
213.283	110.76
213.502	16.55
213.72	57.51
213.938	71.85
214.157	18.6
214.375	125.1
214.594	20.65
214.812	65.71
215.031	-10.07
215.249	32.94
215.467	75.95
215.686	26.79
215.904	53.42
216.122	73.9
216.341	106.67
216.559	67.75
216.778	90.28
216.996	141.48
217.214	-24.4
217.432	-22.36
217.651	12.46
217.869	37.03
218.087	43.18
218.306	71.85
218.524	-12.12
218.742	20.65
218.96	41.13
219.179	8.36
219.397	65.71
219.615	188.58
219.833	149.67
220.051	47.27
220.27	53.42
220.488	121
220.706	53.42
220.924	-44.88
221.142	-16.21
221.36	4.27
221.578	28.84
221.796	71.85
222.015	2.22
222.233	45.23
222.451	100.52
222.669	-28.5
222.887	84.14
223.105	39.08
223.323	-1.88
223.541	-63.32
223.759	61.61
223.977	30.89
224.195	184.49
224.413	157.86
224.631	63.66
224.849	94.38
225.067	194.73
225.285	-1.88
225.503	4.27
225.721	-73.56
225.939	37.03
226.157	39.08
226.375	286.89
226.592	-51.03
226.81	-1.88
227.028	94.38
227.246	133.29
227.464	75.95
227.682	88.23
227.9	110.76
228.117	106.67
228.335	73.9
228.553	34.99
228.771	28.84
228.989	80.04
229.206	-30.55
229.424	-3.93
229.642	55.47
229.86	-61.27
230.077	92.33
230.295	6.31
230.513	82.09
230.731	41.13
230.948	135.34
231.166	155.82
231.384	-3.93
231.601	28.84
231.819	108.71
232.037	18.6
232.254	-59.22
232.472	-20.31
232.689	-8.02
232.907	69.8
233.125	75.95
233.342	-5.97
233.56	67.75
233.777	-30.55
233.995	37.03
234.213	75.95
234.43	24.75
234.648	-24.4
234.865	26.79
235.083	98.47
235.3	55.47
235.518	67.75
235.735	63.66
235.953	26.79
236.17	110.76
236.388	108.71
236.605	49.32
236.822	86.19
237.04	233.64
237.257	77.99
237.475	-5.97
237.692	34.99
237.909	45.23
238.127	2.22
238.344	118.95
238.562	102.57
238.779	-28.5
238.996	-16.21
239.214	10.41
239.431	55.47
239.648	10.41
239.865	147.62
240.083	69.8
240.3	-30.55
240.517	125.1
240.735	55.47
240.952	108.71
241.169	61.61
241.386	73.9
241.603	77.99
241.821	-65.36
242.038	63.66
242.255	67.75
242.472	-18.26
242.689	16.55
242.907	125.1
243.124	90.28
243.341	69.8
243.558	-55.12
243.775	-30.55
243.992	-36.69
244.209	141.48
244.426	176.3
244.643	-18.26
244.86	45.23
245.078	71.85
245.295	94.38
245.512	20.65
245.729	-8.02
245.946	59.56
246.163	63.66
246.38	45.23
246.597	55.47
246.814	-32.6
247.031	57.51
247.248	26.79
247.464	125.1
247.681	26.79
247.898	57.51
248.115	94.38
248.332	34.99
248.549	139.43
248.766	180.39
248.983	67.75
249.2	18.6
249.417	180.39
249.633	49.32
249.85	77.99
250.067	39.08
250.284	18.6
250.501	82.09
250.717	94.38
250.934	12.46
251.151	0.17
251.368	39.08
251.585	0.17
251.801	129.19
252.018	37.03
252.235	92.33
252.451	-73.56
252.668	80.04
252.885	96.43
253.102	8.36
253.318	75.95
253.535	-14.17
253.752	82.09
253.968	-20.31
254.185	-65.36
254.401	86.19
254.618	30.89
254.835	-12.12
255.051	104.62
255.268	59.56
255.484	41.13
255.701	90.28
255.917	45.23
256.134	4.27
256.351	-10.07
256.567	-91.99
256.784	80.04
257	-81.75
257.217	184.49
257.433	55.47
257.65	26.79
257.866	133.29
258.082	-20.31
258.299	-32.6
258.515	20.65
258.732	-22.36
258.948	-40.79
259.165	125.1
259.381	-38.74
259.597	67.75
259.814	-18.26
260.03	67.75
260.246	30.89
260.463	129.19
260.679	137.38
260.895	-3.93
261.112	84.14
261.328	116.9
261.544	-42.84
261.761	137.38
261.977	4.27
262.193	-32.6
262.409	118.95
262.626	88.23
262.842	63.66
263.058	20.65
263.274	88.23
263.49	30.89
263.707	39.08
263.923	121
264.139	-32.6
264.355	90.28
264.571	194.73
264.787	82.09
265.004	129.19
265.22	67.75
265.436	0.17
265.652	-3.93
265.868	96.43
266.084	-102.23
266.3	67.75
266.516	-30.55
266.732	94.38
266.948	53.42
267.164	-5.97
267.38	106.67
267.596	84.14
267.812	137.38
268.028	75.95
268.244	30.89
268.46	82.09
268.676	-10.07
268.892	53.42
269.108	-57.17
269.324	-20.31
269.54	-85.84
269.756	59.56
269.972	43.18
270.188	55.47
270.403	-42.84
270.619	12.46
270.835	98.47
271.051	10.41
271.267	-10.07
271.483	39.08
271.698	108.71
271.914	100.52
272.13	106.67
272.346	-3.93
272.562	82.09
272.777	59.56
272.993	43.18
273.209	10.41
273.425	77.99
273.64	-8.02
273.856	106.67
274.072	-44.88
274.287	55.47
274.503	94.38
274.719	63.66
274.934	-1.88
275.15	-26.45
275.366	45.23
275.581	-79.7
275.797	-12.12
276.012	6.31
276.228	6.31
276.444	69.8
276.659	166.06
276.875	-69.46
277.09	55.47
277.306	-20.31
277.521	92.33
277.737	8.36
277.952	65.71
278.168	49.32
278.383	8.36
278.599	73.9
278.814	108.71
279.03	24.75
279.245	125.1
279.461	55.47
279.676	90.28
279.892	-91.99
280.107	-40.79
280.322	-46.93
280.538	67.75
280.753	8.36
280.969	77.99
281.184	92.33
281.399	184.49
281.615	-34.64
281.83	57.51
282.045	-130.9
282.26	18.6
282.476	8.36
282.691	114.86
282.906	30.89
283.122	34.99
283.337	-57.17
283.552	80.04
283.767	10.41
283.983	63.66
284.198	77.99
284.413	53.42
284.628	-108.37
284.843	30.89
285.058	65.71
285.274	41.13
285.489	-48.98
285.704	49.32
285.919	-8.02
286.134	-32.6
286.349	-24.4
286.564	2.22
286.779	94.38
286.995	32.94
287.21	-79.7
287.425	30.89
287.64	-1.88
287.855	32.94
288.07	-85.84
288.285	108.71
288.5	98.47
288.715	24.75
288.93	63.66
289.145	39.08
289.36	84.14
289.575	43.18
289.79	159.91
290.004	-32.6
290.219	129.19
290.434	20.65
290.649	-79.7
290.864	61.61
291.079	-28.5
291.294	41.13
291.509	77.99
291.724	20.65
291.938	-30.55
292.153	28.84
292.368	39.08
292.583	30.89
292.798	10.41
293.012	135.34
293.227	45.23
293.442	18.6
293.657	69.8
293.871	110.76
294.086	80.04
294.301	137.38
294.516	116.9
294.73	88.23
294.945	-28.5
295.16	-3.93
295.374	170.15
295.589	92.33
295.804	-24.4
296.018	55.47
296.233	209.06
296.447	6.31
296.662	43.18
296.877	30.89
297.091	102.57
297.306	37.03
297.52	22.7
297.735	37.03
297.949	55.47
298.164	16.55
298.378	73.9
298.593	-91.99
298.807	41.13
299.022	12.46
299.236	145.58
299.451	-1.88
299.665	75.95
299.88	-75.6
300.094	20.65
300.309	26.79
300.523	55.47
300.737	18.6
300.952	118.95
301.166	75.95
301.381	30.89
301.595	28.84
301.809	108.71
302.024	-53.08
302.238	-36.69
302.452	149.67
302.667	-48.98
302.881	61.61
303.095	155.82
303.309	47.27
303.524	0.17
303.738	-3.93
303.952	-26.45
304.166	16.55
304.381	-128.85
304.595	106.67
304.809	47.27
305.023	53.42
305.237	-10.07
305.452	2.22
305.666	-12.12
305.88	104.62
306.094	118.95
306.308	88.23
306.522	12.46
306.736	110.76
306.95	84.14
307.164	-1.88
307.379	22.7
307.593	137.38
307.807	94.38
308.021	22.7
308.235	45.23
308.449	-73.56
308.663	39.08
308.877	184.49
309.091	12.46
309.305	77.99
309.519	-53.08
309.733	104.62
309.947	-22.36
310.161	39.08
310.374	102.57
310.588	104.62
310.802	-20.31
311.016	12.46
311.23	84.14
311.444	-1.88
311.658	0.17
311.872	84.14
312.085	168.1
312.299	82.09
312.513	108.71
312.727	80.04
312.941	-59.22
313.154	43.18
313.368	34.99
313.582	61.61
313.796	41.13
314.009	43.18
314.223	92.33
314.437	61.61
314.651	61.61
314.864	-14.17
315.078	80.04
315.292	-48.98
315.505	114.86
315.719	51.37
315.933	32.94
316.146	18.6
316.36	12.46
316.573	209.06
316.787	100.52
317.001	45.23
317.214	-57.17
317.428	75.95
317.641	-96.08
317.855	-22.36
318.068	104.62
318.282	55.47
318.495	190.63
318.709	61.61
318.922	69.8
319.136	196.78
319.349	151.72
319.563	-3.93
319.776	69.8
319.99	-26.45
320.203	73.9
320.417	30.89
320.63	65.71
320.843	157.86
321.057	63.66
321.27	55.47
321.483	108.71
321.697	127.14
321.91	75.95
322.124	73.9
322.337	118.95
322.55	-5.97
322.763	-8.02
322.977	45.23
323.19	10.41
323.403	28.84
323.617	94.38
323.83	121
324.043	114.86
324.256	22.7
324.469	-38.74
324.683	57.51
324.896	112.81
325.109	22.7
325.322	-10.07
325.535	129.19
325.748	84.14
325.962	-18.26
326.175	127.14
326.388	123.05
326.601	123.05
326.814	51.37
327.027	34.99
327.24	170.15
327.453	-83.8
327.666	114.86
327.879	133.29
328.092	131.24
328.305	34.99
328.518	-20.31
328.731	-22.36
328.944	-22.36
329.157	51.37
329.37	69.8
329.583	202.92
329.796	108.71
330.009	-38.74
330.222	135.34
330.435	151.72
330.648	71.85
330.861	49.32
331.073	-10.07
331.286	123.05
331.499	100.52
331.712	2.22
331.925	104.62
332.138	45.23
332.35	53.42
332.563	-26.45
332.776	182.44
332.989	-14.17
333.202	53.42
333.414	0.17
333.627	82.09
333.84	0.17
334.053	45.23
334.265	-12.12
334.478	-12.12
334.691	61.61
334.903	121
335.116	39.08
335.329	-1.88
335.541	135.34
335.754	155.82
335.966	6.31
336.179	-22.36
336.392	4.27
336.604	6.31
336.817	67.75
337.029	106.67
337.242	39.08
337.454	80.04
337.667	16.55
337.88	151.72
338.092	65.71
338.305	-12.12
338.517	-24.4
338.729	49.32
338.942	147.62
339.154	-5.97
339.367	-71.51
339.579	106.67
339.792	-3.93
340.004	82.09
340.217	-8.02
340.429	149.67
340.641	34.99
340.854	-48.98
341.066	-12.12
341.278	125.1
341.491	241.83
341.703	65.71
341.915	-89.94
342.128	98.47
342.34	26.79
342.552	-30.55
342.764	6.31
342.977	-36.69
343.189	65.71
343.401	139.43
343.613	-85.84
343.826	28.84
344.038	-10.07
344.25	106.67
344.462	6.31
344.674	71.85
344.886	14.51
345.099	57.51
345.311	69.8
345.523	67.75
345.735	-139.09
345.947	22.7
346.159	22.7
346.371	69.8
346.583	-14.17
346.795	155.82
347.007	-3.93
347.219	94.38
347.431	20.65
347.643	116.9
347.855	-5.97
348.067	123.05
348.279	-53.08
348.491	71.85
348.703	86.19
348.915	43.18
349.127	-3.93
349.339	45.23
349.551	41.13
349.763	112.81
349.975	-12.12
350.187	57.51
350.399	133.29
350.61	92.33
350.822	8.36
351.034	114.86
351.246	-20.31
351.458	30.89
351.669	112.81
351.881	155.82
352.093	123.05
352.305	24.75
352.517	32.94
352.728	80.04
352.94	77.99
353.152	75.95
353.363	34.99
353.575	84.14
353.787	182.44
353.999	77.99
354.21	135.34
354.422	-57.17
354.633	-5.97
354.845	71.85
355.057	10.41
355.268	43.18
355.48	112.81
355.692	-98.13
355.903	49.32
356.115	43.18
356.326	-18.26
356.538	209.06
356.749	-3.93
356.961	112.81
357.172	-12.12
357.384	2.22
357.595	221.35
357.807	53.42
358.018	-63.32
358.23	88.23
358.441	147.62
358.653	121
358.864	28.84
359.075	-34.64
359.287	63.66
359.498	96.43
359.709	65.71
359.921	77.99
360.132	135.34
360.344	-24.4
360.555	14.51
360.766	10.41
360.977	-5.97
361.189	88.23
361.4	32.94
361.611	131.24
361.823	73.9
362.034	77.99
362.245	-94.04
362.456	88.23
362.667	92.33
362.879	10.41
363.09	133.29
363.301	77.99
363.512	-18.26
363.723	-12.12
363.935	63.66
364.146	96.43
364.357	-67.41
364.568	51.37
364.779	-116.56
364.99	192.68
365.201	-8.02
365.412	69.8
365.623	-40.79
365.834	80.04
366.045	14.51
366.256	80.04
366.467	125.1
366.678	14.51
366.889	53.42
367.1	-18.26
367.311	98.47
367.522	12.46
367.733	-16.21
367.944	43.18
368.155	127.14
368.366	125.1
368.577	123.05
368.788	137.38
368.999	-75.6
369.209	18.6
369.42	200.87
369.631	209.06
369.842	108.71
370.053	-1.88
370.264	127.14
370.474	-85.84
370.685	73.9
370.896	75.95
371.107	104.62
371.317	94.38
371.528	49.32
371.739	170.15
371.95	77.99
372.16	73.9
372.371	-36.69
372.582	-48.98
372.792	-32.6
373.003	10.41
373.214	86.19
373.424	86.19
373.635	-46.93
373.846	108.71
374.056	-30.55
374.267	92.33
374.477	98.47
374.688	-63.32
374.898	90.28
375.109	-10.07
375.319	65.71
375.53	73.9
375.74	118.95
375.951	-30.55
376.161	49.32
376.372	55.47
376.582	-5.97
376.793	96.43
377.003	8.36
377.214	84.14
377.424	102.57
377.635	63.66
377.845	12.46
378.055	114.86
378.266	-63.32
378.476	45.23
378.686	30.89
378.897	30.89
379.107	43.18
379.317	73.9
379.528	-1.88
379.738	61.61
379.948	-102.23
380.158	73.9
380.369	43.18
380.579	102.57
380.789	14.51
380.999	77.99
381.21	114.86
381.42	227.5
381.63	57.51
381.84	30.89
382.05	75.95
382.261	100.52
382.471	198.82
382.681	-40.79
382.891	121
383.101	22.7
383.311	-40.79
383.521	-14.17
383.731	86.19
383.941	18.6
384.151	20.65
384.361	73.9
384.571	96.43
384.781	96.43
384.991	161.96
385.201	137.38
385.411	30.89
385.621	39.08
385.831	45.23
386.041	45.23
386.251	75.95
386.461	92.33
386.671	-1.88
386.881	-5.97
387.091	24.75
387.301	98.47
387.511	51.37
387.72	108.71
387.93	94.38
388.14	-44.88
388.35	92.33
388.56	110.76
388.769	121
388.979	18.6
389.189	8.36
389.399	61.61
389.609	61.61
389.818	121
390.028	53.42
390.238	37.03
390.447	-20.31
390.657	82.09
390.867	34.99
391.076	-98.13
391.286	86.19
391.496	4.27
391.705	14.51
391.915	114.86
392.125	67.75
392.334	45.23
392.544	143.53
392.753	41.13
392.963	-57.17
393.172	86.19
393.382	114.86
393.591	137.38
393.801	49.32
394.01	121
394.22	112.81
394.429	-26.45
394.639	43.18
394.848	43.18
395.058	61.61
395.267	-51.03
395.477	104.62
395.686	53.42
395.895	129.19
396.105	204.97
396.314	47.27
396.524	84.14
396.733	41.13
396.942	67.75
397.152	49.32
397.361	159.91
397.57	84.14
397.78	-3.93
397.989	-40.79
398.198	102.57
398.407	43.18
398.617	34.99
398.826	37.03
399.035	6.31
399.244	125.1
399.453	53.42
399.663	104.62
399.872	86.19
400.081	-53.08
400.29	123.05
400.499	20.65
400.708	153.77
400.917	10.41
401.127	-34.64
401.336	-44.88
401.545	137.38
401.754	108.71
401.963	125.1
402.172	30.89
402.381	-14.17
402.59	8.36
402.799	45.23
403.008	110.76
403.217	51.37
403.426	153.77
403.635	-24.4
403.844	28.84
404.053	-12.12
404.262	-46.93
404.471	178.34
404.68	12.46
404.888	82.09
405.097	37.03
405.306	63.66
405.515	53.42
405.724	92.33
405.933	139.43
406.142	135.34
406.35	123.05
406.559	-1.88
406.768	96.43
406.977	129.19
407.185	137.38
407.394	102.57
407.603	-18.26
407.812	47.27
408.02	164.01
408.229	8.36
408.438	82.09
408.646	-100.18
408.855	-8.02
409.064	100.52
409.272	-1.88
409.481	133.29
409.69	10.41
409.898	28.84
410.107	63.66
410.315	147.62
410.524	41.13
410.733	30.89
410.941	67.75
411.15	118.95
411.358	34.99
411.567	104.62
411.775	10.41
411.984	77.99
412.192	84.14
412.401	55.47
412.609	166.06
412.818	178.34
413.026	-18.26
413.234	55.47
413.443	45.23
413.651	-16.21
413.86	-96.08
414.068	92.33
414.276	241.83
414.485	-10.07
414.693	153.77
414.901	112.81
415.11	61.61
415.318	67.75
415.526	20.65
415.734	84.14
415.943	96.43
416.151	73.9
416.359	10.41
416.567	133.29
416.776	59.56
416.984	92.33
417.192	207.02
417.4	51.37
417.608	-26.45
417.817	14.51
418.025	45.23
418.233	215.21
418.441	-3.93
418.649	20.65
418.857	92.33
419.065	164.01
419.273	-91.99
419.481	139.43
419.689	-20.31
419.897	-48.98
420.105	-3.93
420.313	51.37
420.521	112.81
420.729	98.47
420.937	39.08
421.145	-8.02
421.353	139.43
421.561	184.49
421.769	67.75
421.977	-46.93
422.185	155.82
422.393	32.94
422.601	121
422.809	86.19
423.017	-12.12
423.224	84.14
423.432	151.72
423.64	-36.69
423.848	114.86
424.056	-20.31
424.263	157.86
424.471	10.41
424.679	51.37
424.887	104.62
425.094	137.38
425.302	102.57
425.51	2.22
425.718	63.66
425.925	73.9
426.133	-3.93
426.341	192.68
426.548	30.89
426.756	65.71
426.964	8.36
427.171	-5.97
427.379	39.08
427.586	59.56
427.794	125.1
428.001	188.58
428.209	98.47
428.417	133.29
428.624	145.58
428.832	49.32
429.039	112.81
429.247	45.23
429.454	147.62
429.662	215.21
429.869	55.47
430.076	82.09
430.284	176.3
430.491	172.2
430.699	164.01
430.906	217.26
431.114	69.8
431.321	157.86
431.528	129.19
431.736	172.2
431.943	147.62
432.15	92.33
432.358	213.16
432.565	247.97
432.772	24.75
432.979	250.02
433.187	155.82
433.394	198.82
433.601	155.82
433.808	215.21
434.016	182.44
434.223	247.97
434.43	196.78
434.637	247.97
434.844	290.98
435.052	321.7
435.259	315.56
435.466	207.02
435.673	221.35
435.88	333.99
436.087	360.61
436.294	258.21
436.501	307.37
436.708	247.97
436.915	245.93
437.122	344.23
437.329	313.51
437.537	338.09
437.743	325.8
437.95	426.15
438.157	387.24
438.364	350.37
438.571	344.23
438.778	397.48
438.985	379.04
439.192	424.1
439.399	411.81
439.606	426.15
439.813	557.22
440.02	534.69
440.227	618.66
440.433	569.51
440.64	518.31
440.847	487.59
441.054	614.56
441.261	710.82
441.467	559.27
441.674	581.79
441.881	719.01
442.088	616.61
442.294	635.04
442.501	768.16
442.708	878.75
442.914	796.83
443.121	802.97
443.328	817.31
443.534	977.05
443.741	886.94
443.948	729.25
444.154	993.44
444.361	1071.26
444.568	979.1
444.774	1038.49
444.981	946.33
445.187	1077.4
445.394	1187.99
445.6	1161.37
445.807	1366.17
446.013	1292.44
446.22	1165.46
446.426	1388.69
446.633	1484.95
446.839	1601.68
447.046	1415.32
447.252	1589.39
447.459	1564.82
447.665	1579.15
447.871	1745.04
448.078	1777.81
448.284	1855.63
448.491	1960.08
448.697	2138.25
448.903	2128.01
449.11	2103.43
449.316	2072.72
449.522	2193.55
449.728	2439.3
449.935	2394.25
450.141	2406.53
450.347	2623.62
450.553	2556.04
450.76	2857.09
450.966	2801.79
451.172	3049.6
451.378	3156.09
451.584	3256.44
451.791	3387.51
451.997	3393.65
452.203	3563.64
452.409	3694.71
452.615	3831.92
452.821	3633.27
453.027	3784.82
453.233	4331.62
453.44	4132.97
453.646	4438.12
453.852	4481.13
454.058	4880.48
454.264	4931.68
454.47	5159
454.676	5077.09
454.882	5890.13
455.088	5527.64
455.294	5650.52
455.5	5996.62
455.705	6342.73
455.911	6561.86
456.117	6488.14
456.323	6875.2
456.529	6834.24
456.735	7516.22
456.941	7520.31
457.147	8099.89
457.352	8251.44
457.558	8388.65
457.764	8966.18
457.97	9191.45
458.176	9558.04
458.381	9984.02
458.587	10225.68
458.793	10594.31
458.999	10782.73
459.204	12017.65
459.41	12318.7
459.616	12206.06
459.821	12836.84
460.027	13473.76
460.233	14004.18
460.438	14131.16
460.644	14671.82
460.85	15196.1
461.055	15581.12
461.261	16560.05
461.466	16150.45
461.672	16551.85
461.878	18343.83
462.083	18110.36
462.289	18323.35
462.494	19326.85
462.7	19388.29
462.905	19451.78
463.111	21079.91
463.316	22259.54
463.522	22402.9
463.727	23385.93
463.932	24479.54
464.138	25192.23
464.343	26205.98
464.549	26527.51
464.754	28030.72
464.959	28821.23
465.165	29617.89
465.37	29224.68
465.575	29130.48
465.781	31192.78
465.986	32132.8
466.191	31801.03
466.397	32114.37
466.602	30963.41
466.807	32757.43
467.012	33619.63
467.218	34143.91
467.423	33971.88
467.628	34832.02
467.833	37133.94
468.038	36073.09
468.244	35657.35
468.449	37236.34
468.654	36605.56
468.859	36824.7
