Data from USB4F104151__84__11-31-31-161.txt Node

Date: Wed Feb 26 11:31:31 EST 2025
User: louis
Spectrometer: USB4F10415
Trigger mode: 4
Integration Time (sec): 1.000000E-1
Scans to average: 1
Electric dark correction enabled: true
Nonlinearity correction enabled: false
Boxcar width: 0
XAxis mode: Wavelengths
Number of Pixels in Spectrum: 3648
>>>>>Begin Spectral Data<<<<<
178.204	-418.98
178.424	-418.98
178.644	-418.98
178.864	-398.5
179.084	-369.83
179.304	9.05
179.524	19.29
179.744	11.09
179.964	52.05
180.184	-13.48
180.404	52.05
180.624	19.29
180.844	-1.19
181.064	-76.97
181.283	27.48
181.503	-126.12
181.723	27.48
181.943	-103.59
182.163	181.07
182.383	4.95
182.602	17.24
182.822	148.31
183.042	15.19
183.262	23.38
183.482	33.62
183.701	-50.35
183.921	90.96
184.141	-11.43
184.361	97.11
184.58	29.52
184.8	-29.87
185.02	21.33
185.239	64.34
185.459	60.24
185.679	23.38
185.898	-97.45
186.118	78.68
186.338	43.86
186.557	133.97
186.777	11.09
186.997	-52.39
187.216	19.29
187.436	224.08
187.655	64.34
187.875	76.63
188.095	-21.67
188.314	191.31
188.534	107.35
188.753	-83.11
188.973	86.87
189.192	115.54
189.412	41.81
189.631	-48.3
189.851	62.29
190.07	123.73
190.29	-83.11
190.509	-42.15
190.729	27.48
190.948	219.99
191.168	224.08
191.387	50
191.607	37.72
191.826	68.44
192.045	2.9
192.265	-1.19
192.484	74.58
192.704	39.76
192.923	-81.07
193.142	144.21
193.362	103.25
193.581	154.45
193.8	76.63
194.02	80.72
194.239	9.05
194.458	47.96
194.678	-27.82
194.897	7
195.116	-21.67
195.335	146.26
195.555	72.53
195.774	13.14
195.993	52.05
196.212	13.14
196.432	-19.63
196.651	-3.24
196.87	9.05
197.089	236.37
197.308	29.52
197.528	113.49
197.747	-40.11
197.966	39.76
198.185	140.12
198.404	15.19
198.623	136.02
198.842	90.96
199.062	101.2
199.281	144.21
199.5	-3.24
199.719	74.58
199.938	37.72
200.157	27.48
200.376	74.58
200.595	101.2
200.814	74.58
201.033	54.1
201.252	101.2
201.471	88.92
201.69	47.96
201.909	-13.48
202.128	72.53
202.347	39.76
202.566	25.43
202.785	-115.88
203.004	-54.44
203.223	244.56
203.442	-5.29
203.661	-85.16
203.879	50
204.098	144.21
204.317	-13.48
204.536	209.75
204.755	84.82
204.974	93.01
205.193	58.2
205.411	138.07
205.63	27.48
205.849	13.14
206.068	-9.39
206.287	-17.58
206.505	142.16
206.724	27.48
206.943	-50.35
207.162	-95.4
207.381	138.07
207.599	-70.83
207.818	-1.19
208.037	-17.58
208.255	-17.58
208.474	56.15
208.693	-11.43
208.911	-19.63
209.13	33.62
209.349	115.54
209.567	97.11
209.786	121.68
210.005	109.4
210.223	9.05
210.442	-91.31
210.661	58.2
210.879	33.62
211.098	-29.87
211.316	25.43
211.535	13.14
211.753	76.63
211.972	68.44
212.191	13.14
212.409	-23.72
212.628	11.09
212.846	-31.91
213.065	-1.19
213.283	113.49
213.502	37.72
213.72	66.39
213.938	17.24
214.157	13.14
214.375	133.97
214.594	25.43
214.812	90.96
215.031	72.53
215.249	56.15
215.467	47.96
215.686	70.48
215.904	136.02
216.122	62.29
216.341	230.23
216.559	99.16
216.778	56.15
216.996	101.2
217.214	68.44
217.432	0.85
217.651	-25.77
217.869	11.09
218.087	54.1
218.306	13.14
218.524	41.81
218.742	17.24
218.96	129.88
219.179	-19.63
219.397	56.15
219.615	172.88
219.833	43.86
220.051	-93.35
220.27	74.58
220.488	107.35
220.706	170.83
220.924	17.24
221.142	-3.24
221.36	43.86
221.578	115.54
221.796	58.2
222.015	9.05
222.233	39.76
222.451	158.55
222.669	39.76
222.887	64.34
223.105	35.67
223.323	23.38
223.541	-7.34
223.759	19.29
223.977	29.52
224.195	127.83
224.413	56.15
224.631	-9.39
224.849	62.29
225.067	197.46
225.285	9.05
225.503	17.24
225.721	-64.68
225.939	62.29
226.157	31.57
226.375	211.79
226.592	-3.24
226.81	60.24
227.028	195.41
227.246	121.68
227.464	45.91
227.682	56.15
227.9	115.54
228.117	117.59
228.335	111.44
228.553	21.33
228.771	11.09
228.989	29.52
229.206	70.48
229.424	-1.19
229.642	-5.29
229.86	4.95
230.077	191.31
230.295	-15.53
230.513	105.3
230.731	121.68
230.948	131.92
231.166	119.64
231.384	-13.48
231.601	-38.06
231.819	111.44
232.037	25.43
232.254	-31.91
232.472	50
232.689	21.33
232.907	99.16
233.125	29.52
233.342	-27.82
233.56	-9.39
233.777	21.33
233.995	72.53
234.213	131.92
234.43	115.54
234.648	23.38
234.865	39.76
235.083	107.35
235.3	33.62
235.518	56.15
235.735	121.68
235.953	-13.48
236.17	47.96
236.388	93.01
236.605	68.44
236.822	111.44
237.04	125.78
237.257	-31.91
237.475	-33.96
237.692	78.68
237.909	107.35
238.127	54.1
238.344	64.34
238.562	9.05
238.779	-27.82
238.996	17.24
239.214	25.43
239.431	39.76
239.648	11.09
239.865	82.77
240.083	15.19
240.3	-17.58
240.517	17.24
240.735	-7.34
240.952	105.3
241.169	140.12
241.386	72.53
241.603	31.57
241.821	-36.01
242.038	70.48
242.255	66.39
242.472	-52.39
242.689	52.05
242.907	41.81
243.124	131.92
243.341	82.77
243.558	54.1
243.775	-89.26
243.992	-40.11
244.209	58.2
244.426	140.12
244.643	76.63
244.86	15.19
245.078	50
245.295	127.83
245.512	9.05
245.729	-44.2
245.946	33.62
246.163	13.14
246.38	23.38
246.597	43.86
246.814	78.68
247.031	66.39
247.248	101.2
247.464	80.72
247.681	45.91
247.898	62.29
248.115	7
248.332	-52.39
248.549	174.93
248.766	215.89
248.983	13.14
249.2	21.33
249.417	90.96
249.633	45.91
249.85	107.35
250.067	99.16
250.284	54.1
250.501	58.2
250.717	88.92
250.934	-83.11
251.151	-33.96
251.368	43.86
251.585	47.96
251.801	142.16
252.018	-54.44
252.235	181.07
252.451	-99.5
252.668	-27.82
252.885	119.64
253.102	11.09
253.318	43.86
253.535	-17.58
253.752	-46.25
253.968	39.76
254.185	-19.63
254.401	-1.19
254.618	76.63
254.835	-52.39
255.051	133.97
255.268	152.4
255.484	9.05
255.701	60.24
255.917	78.68
256.134	-54.44
256.351	7
256.567	-1.19
256.784	-9.39
257	-70.83
257.217	88.92
257.433	86.87
257.65	84.82
257.866	154.45
258.082	33.62
258.299	-9.39
258.515	95.06
258.732	-36.01
258.948	-17.58
259.165	86.87
259.381	-33.96
259.597	37.72
259.814	-11.43
260.03	95.06
260.246	39.76
260.463	185.17
260.679	82.77
260.895	105.3
261.112	23.38
261.328	60.24
261.544	-27.82
261.761	113.49
261.977	29.52
262.193	-42.15
262.409	54.1
262.626	-5.29
262.842	54.1
263.058	-3.24
263.274	41.81
263.49	60.24
263.707	72.53
263.923	148.31
264.139	15.19
264.355	25.43
264.571	129.88
264.787	-7.34
265.004	127.83
265.22	64.34
265.436	-87.21
265.652	-31.91
265.868	54.1
266.084	45.91
266.3	11.09
266.516	-36.01
266.732	45.91
266.948	31.57
267.164	-5.29
267.38	123.73
267.596	45.91
267.812	133.97
268.028	23.38
268.244	-17.58
268.46	90.96
268.676	-50.35
268.892	97.11
269.108	97.11
269.324	-162.98
269.54	-7.34
269.756	70.48
269.972	-89.26
270.188	33.62
270.403	-50.35
270.619	52.05
270.835	60.24
271.051	29.52
271.267	50
271.483	-19.63
271.698	109.4
271.914	-23.72
272.13	11.09
272.346	0.85
272.562	39.76
272.777	174.93
272.993	64.34
273.209	-81.07
273.425	70.48
273.64	-64.68
273.856	84.82
274.072	-60.59
274.287	21.33
274.503	52.05
274.719	78.68
274.934	-40.11
275.15	-138.41
275.366	78.68
275.581	-46.25
275.797	45.91
276.012	25.43
276.228	31.57
276.444	58.2
276.659	88.92
276.875	-25.77
277.09	-23.72
277.306	-44.2
277.521	43.86
277.737	50
277.952	88.92
278.168	11.09
278.383	54.1
278.599	56.15
278.814	50
279.03	84.82
279.245	181.07
279.461	60.24
279.676	121.68
279.892	-19.63
280.107	2.9
280.322	-52.39
280.538	0.85
280.753	4.95
280.969	29.52
281.184	-11.43
281.399	111.44
281.615	58.2
281.83	58.2
282.045	-33.96
282.26	-42.15
282.476	9.05
282.691	78.68
282.906	37.72
283.122	47.96
283.337	-19.63
283.552	27.48
283.767	27.48
283.983	119.64
284.198	-48.3
284.413	37.72
284.628	-19.63
284.843	47.96
285.058	90.96
285.274	-15.53
285.489	-25.77
285.704	58.2
285.919	-60.59
286.134	64.34
286.349	58.2
286.564	-13.48
286.779	133.97
286.995	70.48
287.21	-44.2
287.425	-58.54
287.64	-44.2
287.855	117.59
288.07	-13.48
288.285	39.76
288.5	123.73
288.715	60.24
288.93	64.34
289.145	13.14
289.36	95.06
289.575	17.24
289.79	140.12
290.004	-33.96
290.219	95.06
290.434	9.05
290.649	-1.19
290.864	17.24
291.079	78.68
291.294	31.57
291.509	52.05
291.724	107.35
291.938	-15.53
292.153	25.43
292.368	97.11
292.583	127.83
292.798	95.06
293.012	27.48
293.227	99.16
293.442	-3.24
293.657	76.63
293.871	111.44
294.086	50
294.301	340.82
294.516	105.3
294.73	76.63
294.945	-36.01
295.16	17.24
295.374	90.96
295.589	125.78
295.804	31.57
296.018	21.33
296.233	27.48
296.447	37.72
296.662	-1.19
296.877	99.16
297.091	60.24
297.306	19.29
297.52	39.76
297.735	66.39
297.949	52.05
298.164	78.68
298.378	0.85
298.593	-74.92
298.807	19.29
299.022	66.39
299.236	119.64
299.451	52.05
299.665	29.52
299.88	52.05
300.094	33.62
300.309	11.09
300.523	66.39
300.737	-66.73
300.952	64.34
301.166	103.25
301.381	-62.63
301.595	-19.63
301.809	31.57
302.024	76.63
302.238	-15.53
302.452	191.31
302.667	-27.82
302.881	117.59
303.095	84.82
303.309	31.57
303.524	15.19
303.738	-9.39
303.952	-29.87
304.166	-5.29
304.381	-74.92
304.595	148.31
304.809	-17.58
305.023	121.68
305.237	54.1
305.452	95.06
305.666	25.43
305.88	45.91
306.094	62.29
306.308	70.48
306.522	109.4
306.736	72.53
306.95	82.77
307.164	88.92
307.379	-29.87
307.593	156.5
307.807	56.15
308.021	101.2
308.235	70.48
308.449	-15.53
308.663	64.34
308.877	111.44
309.091	70.48
309.305	64.34
309.519	-33.96
309.733	103.25
309.947	-54.44
310.161	21.33
310.374	158.55
310.588	154.45
310.802	25.43
311.016	4.95
311.23	41.81
311.444	-72.87
311.658	33.62
311.872	125.78
312.085	115.54
312.299	195.41
312.513	158.55
312.727	60.24
312.941	-5.29
313.154	109.4
313.368	86.87
313.582	62.29
313.796	-9.39
314.009	31.57
314.223	113.49
314.437	54.1
314.651	115.54
314.864	19.29
315.078	45.91
315.292	-93.35
315.505	0.85
315.719	76.63
315.933	45.91
316.146	-46.25
316.36	-15.53
316.573	43.86
316.787	29.52
317.001	129.88
317.214	-31.91
317.428	-17.58
317.641	7
317.855	-9.39
318.068	27.48
318.282	43.86
318.495	117.59
318.709	23.38
318.922	-27.82
319.136	127.83
319.349	103.25
319.563	11.09
319.776	148.31
319.99	-89.26
320.203	140.12
320.417	39.76
320.63	107.35
320.843	125.78
321.057	66.39
321.27	29.52
321.483	58.2
321.697	211.79
321.91	107.35
322.124	9.05
322.337	84.82
322.55	0.85
322.763	144.21
322.977	25.43
323.19	-44.2
323.403	13.14
323.617	31.57
323.83	166.74
324.043	15.19
324.256	23.38
324.469	-117.93
324.683	107.35
324.896	72.53
325.109	97.11
325.322	29.52
325.535	127.83
325.748	107.35
325.962	39.76
326.175	60.24
326.388	52.05
326.601	23.38
326.814	9.05
327.027	37.72
327.24	176.98
327.453	-101.55
327.666	74.58
327.879	140.12
328.092	68.44
328.305	111.44
328.518	0.85
328.731	-11.43
328.944	35.67
329.157	-9.39
329.37	-54.44
329.583	252.75
329.796	95.06
330.009	-56.49
330.222	74.58
330.435	107.35
330.648	88.92
330.861	25.43
331.073	33.62
331.286	33.62
331.499	-27.82
331.712	-13.48
331.925	78.68
332.138	90.96
332.35	105.3
332.563	31.57
332.776	80.72
332.989	-5.29
333.202	-109.74
333.414	0.85
333.627	27.48
333.84	74.58
334.053	21.33
334.265	-7.34
334.478	-42.15
334.691	41.81
334.903	56.15
335.116	-5.29
335.329	23.38
335.541	95.06
335.754	199.51
335.966	78.68
336.179	-11.43
336.392	-33.96
336.604	64.34
336.817	117.59
337.029	0.85
337.242	72.53
337.454	97.11
337.667	99.16
337.88	191.31
338.092	144.21
338.305	43.86
338.517	-62.63
338.729	99.16
338.942	152.4
339.154	-111.78
339.367	-27.82
339.579	142.16
339.792	-7.34
340.004	103.25
340.217	84.82
340.429	19.29
340.641	-97.45
340.854	-66.73
341.066	4.95
341.278	97.11
341.491	232.27
341.703	86.87
341.915	-50.35
342.128	54.1
342.34	64.34
342.552	-62.63
342.764	31.57
342.977	37.72
343.189	90.96
343.401	37.72
343.613	31.57
343.826	13.14
344.038	-7.34
344.25	45.91
344.462	13.14
344.674	52.05
344.886	-42.15
345.099	80.72
345.311	39.76
345.523	-1.19
345.735	-87.21
345.947	23.38
346.159	45.91
346.371	15.19
346.583	58.2
346.795	160.59
347.007	-27.82
347.219	111.44
347.431	119.64
347.643	74.58
347.855	23.38
348.067	129.88
348.279	-27.82
348.491	7
348.703	52.05
348.915	-15.53
349.127	-36.01
349.339	80.72
349.551	-36.01
349.763	107.35
349.975	0.85
350.187	131.92
350.399	176.98
350.61	68.44
350.822	29.52
351.034	33.62
351.246	62.29
351.458	41.81
351.669	47.96
351.881	117.59
352.093	160.59
352.305	131.92
352.517	86.87
352.728	121.68
352.94	41.81
353.152	101.2
353.363	-1.19
353.575	39.76
353.787	164.69
353.999	-36.01
354.21	123.73
354.422	-72.87
354.633	23.38
354.845	78.68
355.057	-7.34
355.268	-3.24
355.48	156.5
355.692	-83.11
355.903	29.52
356.115	-3.24
356.326	-140.46
356.538	191.31
356.749	66.39
356.961	103.25
357.172	-33.96
357.384	-15.53
357.595	174.93
357.807	17.24
358.018	-21.67
358.23	88.92
358.441	170.83
358.653	68.44
358.864	62.29
359.075	-36.01
359.287	43.86
359.498	113.49
359.709	123.73
359.921	76.63
360.132	19.29
360.344	4.95
360.555	2.9
360.766	47.96
360.977	31.57
361.189	156.5
361.4	-11.43
361.611	41.81
361.823	136.02
362.034	25.43
362.245	-31.91
362.456	21.33
362.667	76.63
362.879	45.91
363.09	43.86
363.301	78.68
363.512	43.86
363.723	17.24
363.935	-9.39
364.146	72.53
364.357	-11.43
364.568	17.24
364.779	-17.58
364.99	117.59
365.201	43.86
365.412	105.3
365.623	27.48
365.834	80.72
366.045	-7.34
366.256	64.34
366.467	119.64
366.678	-29.87
366.889	78.68
367.1	88.92
367.311	99.16
367.522	21.33
367.733	29.52
367.944	54.1
368.155	99.16
368.366	115.54
368.577	80.72
368.788	80.72
368.999	0.85
369.209	50
369.42	238.42
369.631	193.36
369.842	19.29
370.053	-9.39
370.264	99.16
370.474	13.14
370.685	17.24
370.896	80.72
371.107	37.72
371.317	50
371.528	39.76
371.739	101.2
371.95	160.59
372.16	97.11
372.371	-56.49
372.582	-19.63
372.792	127.83
373.003	76.63
373.214	56.15
373.424	50
373.635	-91.31
373.846	140.12
374.056	-13.48
374.267	13.14
374.477	78.68
374.688	-46.25
374.898	47.96
375.109	86.87
375.319	97.11
375.53	35.67
375.74	138.07
375.951	45.91
376.161	66.39
376.372	131.92
376.582	31.57
376.793	58.2
377.003	0.85
377.214	86.87
377.424	47.96
377.635	23.38
377.845	-29.87
378.055	93.01
378.266	-107.69
378.476	19.29
378.686	99.16
378.897	19.29
379.107	45.91
379.317	52.05
379.528	37.72
379.738	35.67
379.948	-7.34
380.158	144.21
380.369	62.29
380.579	101.2
380.789	45.91
380.999	58.2
381.21	119.64
381.42	185.17
381.63	86.87
381.84	-5.29
382.05	29.52
382.261	140.12
382.471	121.68
382.681	-64.68
382.891	140.12
383.101	109.4
383.311	13.14
383.521	-9.39
383.731	0.85
383.941	47.96
384.151	84.82
384.361	54.1
384.571	41.81
384.781	80.72
384.991	154.45
385.201	197.46
385.411	70.48
385.621	9.05
385.831	15.19
386.041	84.82
386.251	-21.67
386.461	72.53
386.671	11.09
386.881	107.35
387.091	-44.2
387.301	68.44
387.511	15.19
387.72	25.43
387.93	181.07
388.14	-66.73
388.35	80.72
388.56	90.96
388.769	82.77
388.979	2.9
389.189	-122.02
389.399	7
389.609	95.06
389.818	113.49
390.028	9.05
390.238	64.34
390.447	74.58
390.657	31.57
390.867	-25.77
391.076	-21.67
391.286	17.24
391.496	-19.63
391.705	50
391.915	121.68
392.125	109.4
392.334	-9.39
392.544	125.78
392.753	52.05
392.963	0.85
393.172	-19.63
393.382	15.19
393.591	109.4
393.801	62.29
394.01	72.53
394.22	136.02
394.429	-19.63
394.639	-36.01
394.848	93.01
395.058	58.2
395.267	-27.82
395.477	99.16
395.686	64.34
395.895	187.22
396.105	105.3
396.314	84.82
396.524	25.43
396.733	-79.02
396.942	174.93
397.152	105.3
397.361	84.82
397.57	97.11
397.78	84.82
397.989	113.49
398.198	244.56
398.407	-9.39
398.617	-56.49
398.826	54.1
399.035	52.05
399.244	140.12
399.453	58.2
399.663	105.3
399.872	60.24
400.081	-21.67
400.29	121.68
400.499	-21.67
400.708	47.96
400.917	78.68
401.127	-1.19
401.336	-13.48
401.545	152.4
401.754	58.2
401.963	64.34
402.172	-58.54
402.381	13.14
402.59	13.14
402.799	9.05
403.008	41.81
403.217	125.78
403.426	133.97
403.635	-60.59
403.844	76.63
404.053	-3.24
404.262	-46.25
404.471	158.55
404.68	105.3
404.888	35.67
405.097	76.63
405.306	123.73
405.515	113.49
405.724	68.44
405.933	68.44
406.142	80.72
406.35	113.49
406.559	19.29
406.768	43.86
406.977	123.73
407.185	-31.91
407.394	33.62
407.603	-9.39
407.812	101.2
408.02	152.4
408.229	23.38
408.438	154.45
408.646	-48.3
408.855	-19.63
409.064	68.44
409.272	58.2
409.481	82.77
409.69	-9.39
409.898	-62.63
410.107	-27.82
410.315	158.55
410.524	-40.11
410.733	90.96
410.941	64.34
411.15	52.05
411.358	168.79
411.567	107.35
411.775	72.53
411.984	58.2
412.192	45.91
412.401	33.62
412.609	164.69
412.818	127.83
413.026	68.44
413.234	15.19
413.443	189.27
413.651	17.24
413.86	-83.11
414.068	127.83
414.276	74.58
414.485	-25.77
414.693	136.02
414.901	140.12
415.11	50
415.318	58.2
415.526	76.63
415.734	113.49
415.943	23.38
416.151	43.86
416.359	66.39
416.567	99.16
416.776	127.83
416.984	68.44
417.192	213.84
417.4	-38.06
417.608	-5.29
417.817	-31.91
418.025	136.02
418.233	172.88
418.441	25.43
418.649	-62.63
418.857	66.39
419.065	103.25
419.273	11.09
419.481	78.68
419.689	-85.16
419.897	17.24
420.105	4.95
420.313	43.86
420.521	205.65
420.729	170.83
420.937	62.29
421.145	-33.96
421.353	142.16
421.561	105.3
421.769	52.05
421.977	17.24
422.185	50
422.393	-21.67
422.601	129.88
422.809	109.4
423.017	54.1
423.224	107.35
423.432	150.36
423.64	88.92
423.848	129.88
424.056	-7.34
424.263	156.5
424.471	60.24
424.679	142.16
424.887	70.48
425.094	170.83
425.302	144.21
425.51	62.29
425.718	72.53
425.925	99.16
426.133	64.34
426.341	185.17
426.548	66.39
426.756	-1.19
426.964	101.2
427.171	2.9
427.379	86.87
427.586	93.01
427.794	119.64
428.001	201.55
428.209	47.96
428.417	260.95
428.624	97.11
428.832	68.44
429.039	74.58
429.247	181.07
429.454	140.12
429.662	123.73
429.869	47.96
430.076	123.73
430.284	105.3
430.491	252.75
430.699	193.36
430.906	199.51
431.114	121.68
431.321	138.07
431.528	170.83
431.736	129.88
431.943	156.5
432.15	99.16
432.358	144.21
432.565	275.28
432.772	-85.16
432.979	199.51
433.187	138.07
433.394	236.37
433.601	115.54
433.808	258.9
434.016	258.9
434.223	222.03
434.43	203.6
434.637	262.99
434.844	262.99
435.052	281.43
435.259	308.05
435.466	301.9
435.673	213.84
435.88	267.09
436.087	392.02
436.294	357.2
436.501	275.28
436.708	250.71
436.915	330.58
437.122	369.49
437.329	240.47
437.537	387.92
437.743	310.1
437.95	463.69
438.157	367.44
438.364	359.25
438.571	455.5
438.778	437.07
438.985	537.42
439.192	451.41
439.399	457.55
439.606	475.98
439.813	543.57
440.02	611.15
440.227	605
440.433	496.46
440.64	512.85
440.847	535.37
441.054	723.79
441.261	709.45
441.467	766.79
441.674	668.49
441.881	664.4
442.088	709.45
442.294	793.42
442.501	766.79
442.708	738.12
442.914	713.55
443.121	858.95
443.328	895.82
443.534	996.17
443.741	926.54
443.948	852.81
444.154	1022.79
444.361	1243.97
444.568	1096.52
444.774	1076.04
444.981	1063.75
445.187	1215.3
445.394	1336.13
445.6	1133.38
445.807	1391.42
446.013	1391.42
446.22	1295.17
446.426	1446.72
446.633	1694.52
446.839	1678.14
447.046	1487.68
447.252	1725.24
447.459	1798.97
447.665	1741.63
447.871	1979.19
448.078	2132.79
448.284	2009.91
448.491	2003.77
448.697	2229.04
448.903	2317.11
449.11	2325.3
449.316	2220.85
449.522	2683.69
449.728	2624.3
449.935	2779.95
450.141	2851.63
450.347	2915.11
450.553	2784.04
450.76	3093.29
450.966	3058.47
451.172	3185.44
451.378	3365.67
451.584	3423.01
451.791	3656.48
451.997	3719.96
452.203	3695.39
452.409	4174.61
452.615	4365.07
452.821	4096.79
453.027	4113.17
453.233	4840.2
453.44	4573.97
453.646	4758.28
453.852	4975.37
454.058	5057.29
454.264	5104.39
454.47	5708.54
454.676	5739.26
454.882	6085.37
455.088	5860.09
455.294	6286.07
455.5	6566.64
455.705	7199.46
455.911	7131.88
456.117	7291.62
456.323	7545.57
456.529	7566.05
456.735	8291.03
456.941	8356.57
457.147	8729.3
457.352	9040.59
457.558	9255.62
457.764	10025.66
457.97	10099.39
458.176	10402.49
458.381	11203.24
458.587	11049.64
458.793	11702.95
458.999	11801.25
459.204	13257.36
459.41	13644.42
459.616	13531.78
459.821	14402.17
460.027	15149.68
460.233	15690.34
460.438	15596.14
460.644	16796.25
460.85	16640.6
461.055	17386.06
461.261	18084.42
461.466	17914.44
461.672	18367.04
461.878	20384.29
462.083	19827.24
462.289	20345.37
462.494	21346.83
462.7	21383.7
462.905	22057.48
463.111	23501.29
463.316	24865.24
463.522	25158.1
463.727	26167.75
463.932	26948.03
464.138	27677.1
464.343	28826.01
464.549	28588.45
464.754	31177.08
464.959	32178.54
465.165	32758.11
465.37	32303.46
465.575	32319.85
465.781	34728.26
465.986	35658.04
466.191	34984.26
466.397	35443
466.602	34636.1
466.807	36557.1
467.012	37191.97
467.218	37501.21
467.423	38002.96
467.628	38787.33
467.833	40851.69
468.038	40356.08
468.244	39313.66
468.449	41337.05
468.654	40812.77
468.859	40427.76
