Data from USB4F104151__4__10-22-16-555.txt Node

Date: Wed Feb 26 10:22:16 EST 2025
User: louis
Spectrometer: USB4F10415
Trigger mode: 4
Integration Time (sec): 1.000000E-1
Scans to average: 1
Electric dark correction enabled: true
Nonlinearity correction enabled: false
Boxcar width: 0
XAxis mode: Wavelengths
Number of Pixels in Spectrum: 3648
>>>>>Begin Spectral Data<<<<<
178.204	-447.31
178.424	-447.31
178.644	-447.31
178.864	-414.54
179.084	-414.54
179.304	48.3
179.524	3.24
179.744	-41.81
179.964	91.31
180.184	-27.48
180.404	-21.33
180.624	17.58
180.844	7.34
181.064	-29.52
181.283	13.48
181.503	-105.3
181.723	44.2
181.943	-115.54
182.163	152.74
182.383	-29.52
182.602	46.25
182.822	89.26
183.042	3.24
183.262	66.73
183.482	-4.95
183.701	66.73
183.921	107.69
184.141	31.91
184.361	3.24
184.58	-23.38
184.8	27.82
185.02	-62.29
185.239	158.89
185.459	60.59
185.679	122.02
185.898	-54.1
186.118	68.78
186.338	72.87
186.557	101.55
186.777	3.24
186.997	56.49
187.216	44.2
187.436	203.94
187.655	27.82
187.875	162.98
188.095	13.48
188.314	181.42
188.534	138.41
188.753	-97.11
188.973	185.51
189.192	117.93
189.412	46.25
189.631	44.2
189.851	105.64
190.07	150.7
190.29	36.01
190.509	-2.9
190.729	15.53
190.948	91.31
191.168	240.81
191.387	115.88
191.607	9.39
191.826	105.64
192.045	-47.96
192.265	15.53
192.484	124.07
192.704	25.77
192.923	-41.81
193.142	111.78
193.362	140.46
193.581	179.37
193.8	152.74
194.02	140.46
194.239	1.19
194.458	138.41
194.678	27.82
194.897	3.24
195.116	64.68
195.335	76.97
195.555	87.21
195.774	33.96
195.993	93.35
196.212	-4.95
196.432	23.72
196.651	19.63
196.87	3.24
197.089	263.33
197.308	113.83
197.528	-2.9
197.747	-9.05
197.966	89.26
198.185	68.78
198.404	60.59
198.623	79.02
198.842	64.68
199.062	152.74
199.281	140.46
199.5	33.96
199.719	111.78
199.938	142.5
200.157	105.64
200.376	93.35
200.595	58.54
200.814	19.63
201.033	27.82
201.252	162.98
201.471	-2.9
201.69	109.74
201.909	31.91
202.128	74.92
202.347	91.31
202.566	109.74
202.785	-47.96
203.004	3.24
203.223	281.77
203.442	101.55
203.661	-33.62
203.879	150.7
204.098	228.52
204.317	-35.67
204.536	36.01
204.755	126.12
204.974	117.93
205.193	44.2
205.411	140.46
205.63	76.97
205.849	79.02
206.068	31.91
206.287	25.77
206.505	124.07
206.724	36.01
206.943	-82.77
207.162	-21.33
207.381	23.72
207.599	-43.86
207.818	74.92
208.037	-64.34
208.255	44.2
208.474	89.26
208.693	95.4
208.911	38.06
209.13	126.12
209.349	95.4
209.567	70.83
209.786	56.49
210.005	113.83
210.223	-4.95
210.442	-103.25
210.661	115.88
210.879	70.83
211.098	36.01
211.316	-62.29
211.535	124.07
211.753	105.64
211.972	99.5
212.191	27.82
212.409	21.67
212.628	113.83
212.846	-62.29
213.065	142.5
213.283	50.35
213.502	64.68
213.72	48.3
213.938	40.11
214.157	56.49
214.375	50.35
214.594	87.21
214.812	105.64
215.031	70.83
215.249	-54.1
215.467	66.73
215.686	83.11
215.904	62.63
216.122	91.31
216.341	95.4
216.559	15.53
216.778	113.83
216.996	179.37
217.214	11.43
217.432	-29.52
217.651	-78.68
217.869	101.55
218.087	21.67
218.306	-50
218.524	70.83
218.742	29.87
218.96	76.97
219.179	-17.24
219.397	48.3
219.615	228.52
219.833	179.37
220.051	-72.53
220.27	85.16
220.488	130.22
220.706	44.2
220.924	-54.1
221.142	36.01
221.36	42.15
221.578	81.07
221.796	-19.29
222.015	31.91
222.233	46.25
222.451	119.98
222.669	-29.52
222.887	50.35
223.105	11.43
223.323	81.07
223.541	-74.58
223.759	7.34
223.977	52.39
224.195	134.31
224.413	93.35
224.631	81.07
224.849	42.15
225.067	162.98
225.285	21.67
225.503	1.19
225.721	-76.63
225.939	11.43
226.157	48.3
226.375	183.46
226.592	50.35
226.81	50.35
227.028	109.74
227.246	169.13
227.464	122.02
227.682	122.02
227.9	66.73
228.117	126.12
228.335	56.49
228.553	3.24
228.771	105.64
228.989	103.59
229.206	76.97
229.424	15.53
229.642	-0.85
229.86	-4.95
230.077	173.22
230.295	85.16
230.513	175.27
230.731	83.11
230.948	212.14
231.166	83.11
231.384	-17.24
231.601	-2.9
231.819	199.85
232.037	79.02
232.254	-17.24
232.472	25.77
232.689	-23.38
232.907	175.27
233.125	7.34
233.342	-27.48
233.56	62.63
233.777	58.54
233.995	21.67
234.213	165.03
234.43	138.41
234.648	76.97
234.865	-4.95
235.083	33.96
235.3	119.98
235.518	36.01
235.735	95.4
235.953	76.97
236.17	105.64
236.388	72.87
236.605	113.83
236.822	128.17
237.04	117.93
237.257	64.68
237.475	-45.91
237.692	38.06
237.909	70.83
238.127	40.11
238.344	36.01
238.562	31.91
238.779	-25.43
238.996	-11.09
239.214	25.77
239.431	126.12
239.648	13.48
239.865	48.3
240.083	109.74
240.3	50.35
240.517	3.24
240.735	-35.67
240.952	142.5
241.169	38.06
241.386	117.93
241.603	117.93
241.821	23.72
242.038	103.59
242.255	54.44
242.472	-4.95
242.689	103.59
242.907	89.26
243.124	83.11
243.341	-7
243.558	-29.52
243.775	-84.82
243.992	-23.38
244.209	42.15
244.426	189.61
244.643	50.35
244.86	70.83
245.078	169.13
245.295	48.3
245.512	15.53
245.729	-13.14
245.946	58.54
246.163	48.3
246.38	-11.09
246.597	50.35
246.814	38.06
247.031	48.3
247.248	42.15
247.464	79.02
247.681	50.35
247.898	81.07
248.115	15.53
248.332	44.2
248.549	154.79
248.766	162.98
248.983	50.35
249.2	101.55
249.417	48.3
249.633	-25.43
249.85	199.85
250.067	-29.52
250.284	-17.24
250.501	79.02
250.717	64.68
250.934	-84.82
251.151	58.54
251.368	-41.81
251.585	17.58
251.801	85.16
252.018	-0.85
252.235	111.78
252.451	-50
252.668	70.83
252.885	113.83
253.102	60.59
253.318	70.83
253.535	-50
253.752	5.29
253.968	-25.43
254.185	-47.96
254.401	72.87
254.618	124.07
254.835	-17.24
255.051	136.36
255.268	83.11
255.484	56.49
255.701	62.63
255.917	76.97
256.134	50.35
256.351	38.06
256.567	-15.19
256.784	50.35
257	7.34
257.217	66.73
257.433	136.36
257.65	91.31
257.866	119.98
258.082	-29.52
258.299	68.78
258.515	105.64
258.732	38.06
258.948	-58.2
259.165	46.25
259.381	-11.09
259.597	58.54
259.814	13.48
260.03	-52.05
260.246	13.48
260.463	146.6
260.679	124.07
260.895	93.35
261.112	48.3
261.328	25.77
261.544	-31.57
261.761	146.6
261.977	-31.57
262.193	-84.82
262.409	72.87
262.626	46.25
262.842	46.25
263.058	7.34
263.274	97.45
263.49	95.4
263.707	107.69
263.923	74.92
264.139	-43.86
264.355	33.96
264.571	148.65
264.787	124.07
265.004	119.98
265.22	76.97
265.436	-103.25
265.652	38.06
265.868	134.31
266.084	-41.81
266.3	64.68
266.516	-52.05
266.732	79.02
266.948	11.43
267.164	27.82
267.38	113.83
267.596	58.54
267.812	109.74
268.028	7.34
268.244	122.02
268.46	113.83
268.676	31.91
268.892	66.73
269.108	-13.14
269.324	11.43
269.54	-45.91
269.756	134.31
269.972	-19.29
270.188	46.25
270.403	-107.35
270.619	-47.96
270.835	64.68
271.051	42.15
271.267	3.24
271.483	13.48
271.698	48.3
271.914	81.07
272.13	52.39
272.346	-7
272.562	38.06
272.777	177.32
272.993	-13.14
273.209	-39.76
273.425	113.83
273.64	-37.72
273.856	62.63
274.072	7.34
274.287	-50
274.503	70.83
274.719	85.16
274.934	-13.14
275.15	9.39
275.366	115.88
275.581	19.63
275.797	64.68
276.012	72.87
276.228	-37.72
276.444	117.93
276.659	105.64
276.875	-33.62
277.09	7.34
277.306	-31.57
277.521	119.98
277.737	44.2
277.952	126.12
278.168	76.97
278.383	13.48
278.599	95.4
278.814	130.22
279.03	44.2
279.245	113.83
279.461	44.2
279.676	81.07
279.892	-2.9
280.107	29.87
280.322	42.15
280.538	122.02
280.753	-82.77
280.969	113.83
281.184	-23.38
281.399	124.07
281.615	50.35
281.83	91.31
282.045	29.87
282.26	-21.33
282.476	85.16
282.691	93.35
282.906	-7
283.122	52.39
283.337	27.82
283.552	113.83
283.767	-7
283.983	62.63
284.198	44.2
284.413	95.4
284.628	-7
284.843	19.63
285.058	109.74
285.274	-4.95
285.489	-39.76
285.704	40.11
285.919	11.43
286.134	25.77
286.349	70.83
286.564	44.2
286.779	89.26
286.995	58.54
287.21	7.34
287.425	76.97
287.64	3.24
287.855	52.39
288.07	-80.72
288.285	101.55
288.5	169.13
288.715	42.15
288.93	62.63
289.145	-82.77
289.36	101.55
289.575	21.67
289.79	115.88
290.004	15.53
290.219	113.83
290.434	-23.38
290.649	7.34
290.864	62.63
291.079	85.16
291.294	74.92
291.509	50.35
291.724	13.48
291.938	-9.05
292.153	5.29
292.368	19.63
292.583	122.02
292.798	126.12
293.012	38.06
293.227	101.55
293.442	-29.52
293.657	107.69
293.871	79.02
294.086	-0.85
294.301	199.85
294.516	117.93
294.73	27.82
294.945	46.25
295.16	58.54
295.374	152.74
295.589	107.69
295.804	25.77
296.018	29.87
296.233	132.26
296.447	-0.85
296.662	52.39
296.877	130.22
297.091	3.24
297.306	74.92
297.52	33.96
297.735	50.35
297.949	31.91
298.164	1.19
298.378	15.53
298.593	60.59
298.807	64.68
299.022	21.67
299.236	169.13
299.451	-21.33
299.665	13.48
299.88	-29.52
300.094	95.4
300.309	97.45
300.523	79.02
300.737	-2.9
300.952	111.78
301.166	122.02
301.381	3.24
301.595	50.35
301.809	66.73
302.024	99.5
302.238	11.43
302.452	105.64
302.667	124.07
302.881	136.36
303.095	87.21
303.309	87.21
303.524	-7
303.738	3.24
303.952	9.39
304.166	74.92
304.381	-27.48
304.595	177.32
304.809	13.48
305.023	5.29
305.237	79.02
305.452	13.48
305.666	99.5
305.88	107.69
306.094	85.16
306.308	70.83
306.522	109.74
306.736	117.93
306.95	81.07
307.164	50.35
307.379	7.34
307.593	179.37
307.807	183.46
308.021	117.93
308.235	93.35
308.449	-70.48
308.663	58.54
308.877	140.46
309.091	70.83
309.305	115.88
309.519	-101.2
309.733	167.08
309.947	-31.57
310.161	70.83
310.374	111.78
310.588	234.66
310.802	-33.62
311.016	-41.81
311.23	38.06
311.444	21.67
311.658	72.87
311.872	138.41
312.085	173.22
312.299	210.09
312.513	70.83
312.727	122.02
312.941	-21.33
313.154	3.24
313.368	79.02
313.582	48.3
313.796	33.96
314.009	72.87
314.223	111.78
314.437	21.67
314.651	138.41
314.864	42.15
315.078	5.29
315.292	-84.82
315.505	70.83
315.719	48.3
315.933	21.67
316.146	9.39
316.36	-37.72
316.573	31.91
316.787	99.5
317.001	99.5
317.214	-62.29
317.428	134.31
317.641	-15.19
317.855	48.3
318.068	93.35
318.282	27.82
318.495	165.03
318.709	-27.48
318.922	42.15
319.136	99.5
319.349	130.22
319.563	-37.72
319.776	38.06
319.99	-66.39
320.203	93.35
320.417	25.77
320.63	97.45
320.843	113.83
321.057	60.59
321.27	68.78
321.483	111.78
321.697	189.61
321.91	144.55
322.124	68.78
322.337	91.31
322.55	25.77
322.763	29.87
322.977	-0.85
323.19	-103.25
323.403	33.96
323.617	15.53
323.83	119.98
324.043	33.96
324.256	48.3
324.469	-4.95
324.683	115.88
324.896	31.91
325.109	128.17
325.322	-35.67
325.535	97.45
325.748	74.92
325.962	-35.67
326.175	79.02
326.388	54.44
326.601	111.78
326.814	68.78
327.027	91.31
327.24	175.27
327.453	-88.92
327.666	93.35
327.879	54.44
328.092	126.12
328.305	70.83
328.518	72.87
328.731	3.24
328.944	11.43
329.157	70.83
329.37	11.43
329.583	175.27
329.796	122.02
330.009	-27.48
330.222	97.45
330.435	124.07
330.648	36.01
330.861	27.82
331.073	17.58
331.286	66.73
331.499	48.3
331.712	-35.67
331.925	70.83
332.138	81.07
332.35	124.07
332.563	31.91
332.776	68.78
332.989	36.01
333.202	-33.62
333.414	-2.9
333.627	44.2
333.84	58.54
334.053	27.82
334.265	27.82
334.478	15.53
334.691	31.91
334.903	1.19
335.116	79.02
335.329	-39.76
335.541	115.88
335.754	232.62
335.966	-7
336.179	9.39
336.392	9.39
336.604	46.25
336.817	152.74
337.029	150.7
337.242	19.63
337.454	111.78
337.667	-17.24
337.88	99.5
338.092	91.31
338.305	50.35
338.517	33.96
338.729	79.02
338.942	95.4
339.154	-33.62
339.367	-76.63
339.579	81.07
339.792	-111.44
340.004	93.35
340.217	5.29
340.429	81.07
340.641	5.29
340.854	-15.19
341.066	36.01
341.278	97.45
341.491	195.75
341.703	31.91
341.915	38.06
342.128	115.88
342.34	142.5
342.552	-68.44
342.764	97.45
342.977	13.48
343.189	44.2
343.401	79.02
343.613	-56.15
343.826	124.07
344.038	-60.24
344.25	154.79
344.462	60.59
344.674	72.87
344.886	105.64
345.099	83.11
345.311	103.59
345.523	-7
345.735	-35.67
345.947	146.6
346.159	15.53
346.371	5.29
346.583	42.15
346.795	287.91
347.007	81.07
347.219	60.59
347.431	-7
347.643	105.64
347.855	-25.43
348.067	87.21
348.279	3.24
348.491	46.25
348.703	154.79
348.915	1.19
349.127	11.43
349.339	3.24
349.551	76.97
349.763	62.63
349.975	-13.14
350.187	33.96
350.399	117.93
350.61	105.64
350.822	17.58
351.034	91.31
351.246	36.01
351.458	56.49
351.669	140.46
351.881	122.02
352.093	107.69
352.305	93.35
352.517	107.69
352.728	109.74
352.94	44.2
353.152	95.4
353.363	7.34
353.575	50.35
353.787	183.46
353.999	72.87
354.21	89.26
354.422	-7
354.633	74.92
354.845	91.31
355.057	169.13
355.268	40.11
355.48	173.22
355.692	-56.15
355.903	107.69
356.115	-13.14
356.326	-58.2
356.538	212.14
356.749	144.55
356.961	236.71
357.172	64.68
357.384	5.29
357.595	214.18
357.807	-82.77
358.018	-41.81
358.23	85.16
358.441	136.36
358.653	107.69
358.864	93.35
359.075	-25.43
359.287	62.63
359.498	105.64
359.709	165.03
359.921	3.24
360.132	60.59
360.344	-7
360.555	-11.09
360.766	85.16
360.977	70.83
361.189	119.98
361.4	-66.39
361.611	156.84
361.823	130.22
362.034	40.11
362.245	15.53
362.456	113.83
362.667	165.03
362.879	-21.33
363.09	5.29
363.301	117.93
363.512	105.64
363.723	-13.14
363.935	36.01
364.146	87.21
364.357	76.97
364.568	50.35
364.779	-62.29
364.99	128.17
365.201	-70.48
365.412	128.17
365.623	-66.39
365.834	99.5
366.045	124.07
366.256	81.07
366.467	105.64
366.678	27.82
366.889	64.68
367.1	-76.63
367.311	27.82
367.522	52.39
367.733	64.68
367.944	-4.95
368.155	44.2
368.366	81.07
368.577	169.13
368.788	81.07
368.999	-21.33
369.209	60.59
369.42	285.86
369.631	228.52
369.842	95.4
370.053	46.25
370.264	124.07
370.474	-47.96
370.685	21.67
370.896	40.11
371.107	156.84
371.317	-29.52
371.528	13.48
371.739	173.22
371.95	97.45
372.16	126.12
372.371	-11.09
372.582	-58.2
372.792	111.78
373.003	62.63
373.214	36.01
373.424	-29.52
373.635	5.29
373.846	81.07
374.056	9.39
374.267	-2.9
374.477	81.07
374.688	27.82
374.898	89.26
375.109	91.31
375.319	64.68
375.53	15.53
375.74	130.22
375.951	13.48
376.161	113.83
376.372	150.7
376.582	27.82
376.793	-19.29
377.003	-33.62
377.214	19.63
377.424	105.64
377.635	36.01
377.845	13.48
378.055	167.08
378.266	-39.76
378.476	27.82
378.686	117.93
378.897	-23.38
379.107	70.83
379.317	58.54
379.528	19.63
379.738	91.31
379.948	-56.15
380.158	62.63
380.369	60.59
380.579	150.7
380.789	33.96
380.999	93.35
381.21	142.5
381.42	234.66
381.63	89.26
381.84	117.93
382.05	81.07
382.261	134.31
382.471	132.26
382.681	-7
382.891	144.55
383.101	124.07
383.311	-27.48
383.521	-4.95
383.731	97.45
383.941	122.02
384.151	70.83
384.361	50.35
384.571	58.54
384.781	5.29
384.991	169.13
385.201	95.4
385.411	152.74
385.621	89.26
385.831	15.53
386.041	148.65
386.251	21.67
386.461	109.74
386.671	27.82
386.881	60.59
387.091	62.63
387.301	91.31
387.511	87.21
387.72	62.63
387.93	103.59
388.14	-56.15
388.35	83.11
388.56	101.55
388.769	109.74
388.979	48.3
389.189	-7
389.399	56.49
389.609	130.22
389.818	177.32
390.028	138.41
390.238	107.69
390.447	13.48
390.657	74.92
390.867	60.59
391.076	-29.52
391.286	3.24
391.496	5.29
391.705	101.55
391.915	95.4
392.125	81.07
392.334	-47.96
392.544	124.07
392.753	48.3
392.963	13.48
393.172	15.53
393.382	-31.57
393.591	226.47
393.801	58.54
394.01	74.92
394.22	130.22
394.429	64.68
394.639	-4.95
394.848	160.94
395.058	46.25
395.267	74.92
395.477	85.16
395.686	101.55
395.895	285.86
396.105	242.85
396.314	72.87
396.524	87.21
396.733	-4.95
396.942	87.21
397.152	146.6
397.361	130.22
397.57	81.07
397.78	11.43
397.989	83.11
398.198	115.88
398.407	68.78
398.617	64.68
398.826	19.63
399.035	50.35
399.244	109.74
399.453	44.2
399.663	19.63
399.872	54.44
400.081	-47.96
400.29	132.26
400.499	-50
400.708	160.94
400.917	74.92
401.127	-2.9
401.336	81.07
401.545	201.9
401.754	160.94
401.963	181.42
402.172	85.16
402.381	-9.05
402.59	31.91
402.799	29.87
403.008	109.74
403.217	62.63
403.426	64.68
403.635	83.11
403.844	103.59
404.053	1.19
404.262	91.31
404.471	214.18
404.68	83.11
404.888	7.34
405.097	97.45
405.306	76.97
405.515	140.46
405.724	23.72
405.933	40.11
406.142	81.07
406.35	171.18
406.559	66.73
406.768	-17.24
406.977	177.32
407.185	17.58
407.394	64.68
407.603	-58.2
407.812	111.78
408.02	122.02
408.229	50.35
408.438	85.16
408.646	-15.19
408.855	38.06
409.064	99.5
409.272	44.2
409.481	103.59
409.69	-2.9
409.898	31.91
410.107	58.54
410.315	105.64
410.524	-7
410.733	-4.95
410.941	27.82
411.15	146.6
411.358	146.6
411.567	117.93
411.775	74.92
411.984	107.69
412.192	128.17
412.401	83.11
412.609	154.79
412.818	144.55
413.026	79.02
413.234	85.16
413.443	46.25
413.651	-47.96
413.86	74.92
414.068	171.18
414.276	142.5
414.485	46.25
414.693	152.74
414.901	246.95
415.11	21.67
415.318	76.97
415.526	132.26
415.734	109.74
415.943	56.49
416.151	91.31
416.359	-31.57
416.567	81.07
416.776	126.12
416.984	165.03
417.192	203.94
417.4	-25.43
417.608	21.67
417.817	33.96
418.025	179.37
418.233	117.93
418.441	5.29
418.649	-47.96
418.857	189.61
419.065	79.02
419.273	-50
419.481	105.64
419.689	27.82
419.897	23.72
420.105	52.39
420.313	60.59
420.521	205.99
420.729	212.14
420.937	-9.05
421.145	9.39
421.353	95.4
421.561	187.56
421.769	107.69
421.977	68.78
422.185	171.18
422.393	38.06
422.601	177.32
422.809	66.73
423.017	5.29
423.224	93.35
423.432	130.22
423.64	126.12
423.848	130.22
424.056	74.92
424.263	158.89
424.471	23.72
424.679	130.22
424.887	-0.85
425.094	109.74
425.302	93.35
425.51	95.4
425.718	165.03
425.925	76.97
426.133	62.63
426.341	253.09
426.548	58.54
426.756	81.07
426.964	122.02
427.171	87.21
427.379	25.77
427.586	25.77
427.794	97.45
428.001	95.4
428.209	33.96
428.417	124.07
428.624	187.56
428.832	126.12
429.039	72.87
429.247	66.73
429.454	162.98
429.662	183.46
429.869	103.59
430.076	191.66
430.284	263.33
430.491	136.36
430.699	113.83
430.906	240.81
431.114	152.74
431.321	199.85
431.528	101.55
431.736	134.31
431.943	103.59
432.15	148.65
432.358	160.94
432.565	283.81
432.772	38.06
432.979	169.13
433.187	154.79
433.394	216.23
433.601	113.83
433.808	183.46
434.016	287.91
434.223	154.79
434.43	212.14
434.637	232.62
434.844	271.53
435.052	191.66
435.259	212.14
435.466	318.63
435.673	292.01
435.88	357.54
436.087	371.88
436.294	337.06
436.501	349.35
436.708	294.05
436.915	261.29
437.122	400.55
437.329	220.33
437.537	384.16
437.743	279.72
437.95	339.11
438.157	238.76
438.364	314.53
438.571	359.59
438.778	412.84
438.985	455.84
439.192	461.99
439.399	359.59
439.606	318.63
439.813	482.47
440.02	625.83
440.227	574.63
440.433	502.95
440.64	421.03
440.847	511.14
441.054	507.04
441.261	668.83
441.467	593.06
441.674	548
441.881	664.74
442.088	535.71
442.294	740.51
442.501	715.94
442.708	806.05
442.914	691.36
443.121	908.44
443.328	853.15
443.534	785.57
443.741	824.48
443.948	771.23
444.154	1033.37
444.361	986.27
444.568	902.3
444.774	869.53
444.981	902.3
445.187	1088.67
445.394	1004.7
445.6	1035.42
445.807	1131.67
446.013	1186.97
446.22	1109.15
446.426	1275.03
446.633	1395.86
446.839	1387.67
447.046	1234.07
447.252	1424.53
447.459	1494.16
447.665	1475.73
447.871	1721.49
448.078	1723.54
448.284	1711.25
448.491	1793.17
448.697	1864.85
448.903	2004.11
449.11	2073.74
449.316	1977.48
449.522	2227.34
449.728	2249.86
449.935	2284.68
450.141	2264.2
450.347	2464.9
450.553	2489.48
450.76	2518.15
450.966	2591.88
451.172	2786.43
451.378	2696.32
451.584	2829.44
451.791	3148.92
451.997	3073.15
452.203	3210.36
452.409	3392.63
452.615	3552.37
452.821	3425.4
453.027	3378.3
453.233	3998.83
453.44	3820.66
453.646	3935.34
453.852	4277.35
454.058	4410.47
454.264	4437.09
454.47	4811.87
454.676	4768.87
454.882	5190.75
455.088	5043.29
455.294	5368.92
455.5	5530.71
455.705	5919.82
455.911	5971.02
456.117	6143.05
456.323	6405.19
456.529	6292.55
456.735	6902.85
456.941	7021.63
457.147	7404.6
457.352	7459.9
457.558	7763
457.764	8209.45
457.97	8539.18
458.176	8653.86
458.381	9272.35
458.587	9309.21
458.793	9890.84
458.999	9894.93
459.204	11000.83
459.41	11207.68
459.616	11039.75
459.821	11838.45
460.027	12561.39
460.233	13126.63
460.438	13083.62
460.644	13560.8
460.85	13784.02
461.055	14576.59
461.261	15082.44
461.466	14867.4
461.672	15289.28
461.878	16792.49
462.083	16698.28
462.289	16982.95
462.494	17638.3
462.7	17869.72
462.905	18113.43
463.111	19516.29
463.316	20519.79
463.522	20687.73
463.727	21588.83
463.932	22342.49
464.138	22922.06
464.343	23964.48
464.549	23927.61
464.754	25951.01
464.959	26444.57
465.165	26850.06
465.37	26671.89
465.575	26444.57
465.781	28281.6
465.986	29332.2
466.191	29192.94
466.397	29139.69
466.602	28705.52
466.807	30206.69
467.012	30677.72
467.218	30900.95
467.423	31236.81
467.628	32342.72
467.833	33845.93
468.038	32848.57
468.244	32611
468.449	34122.4
468.654	33383.09
468.859	33391.28
469.064	33145.52
