Data from USB4F104151__1__09-24-11-830.txt Node

Date: Wed Feb 26 09:24:11 EST 2025
User: louis
Spectrometer: USB4F10415
Trigger mode: 4
Integration Time (sec): 1.000000E-1
Scans to average: 1
Electric dark correction enabled: true
Nonlinearity correction enabled: false
Boxcar width: 0
XAxis mode: Wavelengths
Number of Pixels in Spectrum: 3648
>>>>>Begin Spectral Data<<<<<
178.204	-306.17
178.424	-306.17
178.644	-306.17
178.864	-371.71
179.084	-394.23
179.304	27.65
179.524	-5.12
179.744	52.22
179.964	37.89
180.184	-44.03
180.404	33.79
180.624	9.22
180.844	-19.46
181.064	-11.26
181.283	5.12
181.503	-56.32
181.723	-29.7
181.943	-64.51
182.163	146.43
182.383	-56.32
182.602	93.18
182.822	29.7
183.042	46.08
183.262	-13.31
183.482	7.17
183.701	-27.65
183.921	54.27
184.141	5.12
184.361	95.23
184.58	37.89
184.8	-5.12
185.02	58.37
185.239	72.7
185.459	119.81
185.679	93.18
185.898	-105.47
186.118	29.7
186.338	52.22
186.557	70.65
186.777	-52.22
186.997	5.12
187.216	29.7
187.436	152.57
187.655	21.5
187.875	41.98
188.095	13.31
188.314	125.95
188.534	80.89
188.753	41.98
188.973	99.33
189.192	62.46
189.412	60.42
189.631	39.94
189.851	17.41
190.07	119.81
190.29	-25.6
190.509	-25.6
190.729	68.61
190.948	107.52
191.168	273.4
191.387	-7.17
191.607	54.27
191.826	39.94
192.045	72.7
192.265	-29.7
192.484	41.98
192.704	13.31
192.923	-68.61
193.142	209.92
193.362	-19.46
193.581	107.52
193.8	103.42
194.02	62.46
194.239	-35.84
194.458	101.37
194.678	21.5
194.897	-19.46
195.116	35.84
195.335	46.08
195.555	29.7
195.774	-7.17
195.993	91.13
196.212	54.27
196.432	13.31
196.651	-15.36
196.87	-19.46
197.089	209.92
197.308	82.94
197.528	44.03
197.747	21.5
197.966	37.89
198.185	179.2
198.404	-44.03
198.623	29.7
198.842	21.5
199.062	48.13
199.281	48.13
199.5	33.79
199.719	97.28
199.938	191.49
200.157	33.79
200.376	74.75
200.595	58.37
200.814	25.6
201.033	-27.65
201.252	201.72
201.471	58.37
201.69	111.61
201.909	76.8
202.128	121.85
202.347	58.37
202.566	-41.98
202.785	-27.65
203.004	44.03
203.223	171.01
203.442	113.66
203.661	-31.74
203.879	125.95
204.098	103.42
204.317	-56.32
204.536	41.98
204.755	111.61
204.974	66.56
205.193	-29.7
205.411	111.61
205.63	27.65
205.849	5.12
206.068	21.5
206.287	-72.7
206.505	87.04
206.724	31.74
206.943	-41.98
207.162	-31.74
207.381	132.09
207.599	82.94
207.818	117.76
208.037	-13.31
208.255	68.61
208.474	33.79
208.693	37.89
208.911	82.94
209.13	52.22
209.349	80.89
209.567	117.76
209.786	29.7
210.005	48.13
210.223	33.79
210.442	-3.07
210.661	1.02
210.879	134.14
211.098	11.26
211.316	9.22
211.535	52.22
211.753	128
211.972	95.23
212.191	13.31
212.409	-25.6
212.628	19.46
212.846	-29.7
213.065	152.57
213.283	-3.07
213.502	17.41
213.72	109.57
213.938	-21.5
214.157	48.13
214.375	70.65
214.594	1.02
214.812	54.27
215.031	21.5
215.249	39.94
215.467	5.12
215.686	5.12
215.904	76.8
216.122	62.46
216.341	78.85
216.559	84.99
216.778	46.08
216.996	60.42
217.214	-27.65
217.432	-29.7
217.651	25.6
217.869	13.31
218.087	-19.46
218.306	50.18
218.524	7.17
218.742	-5.12
218.96	107.52
219.179	41.98
219.397	27.65
219.615	189.44
219.833	58.37
220.051	52.22
220.27	134.14
220.488	27.65
220.706	19.46
220.924	15.36
221.142	25.6
221.36	21.5
221.578	62.46
221.796	-21.5
222.015	33.79
222.233	95.23
222.451	111.61
222.669	-52.22
222.887	70.65
223.105	-5.12
223.323	37.89
223.541	17.41
223.759	54.27
223.977	97.28
224.195	95.23
224.413	99.33
224.631	62.46
224.849	-60.42
225.067	125.95
225.285	-19.46
225.503	82.94
225.721	-19.46
225.939	25.6
226.157	25.6
226.375	220.16
226.592	-15.36
226.81	-7.17
227.028	78.85
227.246	87.04
227.464	1.02
227.682	72.7
227.9	76.8
228.117	39.94
228.335	-9.22
228.553	107.52
228.771	5.12
228.989	5.12
229.206	66.56
229.424	-37.89
229.642	5.12
229.86	19.46
230.077	33.79
230.295	50.18
230.513	111.61
230.731	95.23
230.948	78.85
231.166	50.18
231.384	62.46
231.601	-78.85
231.819	93.18
232.037	35.84
232.254	-56.32
232.472	-3.07
232.689	5.12
232.907	46.08
233.125	-66.56
233.342	54.27
233.56	-56.32
233.777	27.65
233.995	37.89
234.213	93.18
234.43	68.61
234.648	-27.65
234.865	9.22
235.083	-9.22
235.3	76.8
235.518	93.18
235.735	199.68
235.953	74.75
236.17	11.26
236.388	93.18
236.605	1.02
236.822	93.18
237.04	29.7
237.257	21.5
237.475	-27.65
237.692	74.75
237.909	80.89
238.127	23.55
238.344	93.18
238.562	70.65
238.779	-7.17
238.996	-101.37
239.214	97.28
239.431	76.8
239.648	1.02
239.865	89.09
240.083	17.41
240.3	76.8
240.517	3.07
240.735	-19.46
240.952	132.09
241.169	52.22
241.386	50.18
241.603	-35.84
241.821	-48.13
242.038	93.18
242.255	82.94
242.472	5.12
242.689	111.61
242.907	64.51
243.124	-15.36
243.341	-5.12
243.558	-5.12
243.775	-58.37
243.992	-29.7
244.209	46.08
244.426	148.48
244.643	68.61
244.86	-58.37
245.078	125.95
245.295	95.23
245.512	9.22
245.729	3.07
245.946	97.28
246.163	1.02
246.38	11.26
246.597	19.46
246.814	-48.13
247.031	9.22
247.248	60.42
247.464	103.42
247.681	54.27
247.898	93.18
248.115	74.75
248.332	-7.17
248.549	119.81
248.766	138.24
248.983	-7.17
249.2	41.98
249.417	136.19
249.633	103.42
249.85	113.66
250.067	3.07
250.284	50.18
250.501	95.23
250.717	21.5
250.934	-27.65
251.151	60.42
251.368	82.94
251.585	54.27
251.801	37.89
252.018	-21.5
252.235	123.9
252.451	-13.31
252.668	-17.41
252.885	97.28
253.102	21.5
253.318	29.7
253.535	11.26
253.752	46.08
253.968	-68.61
254.185	-56.32
254.401	64.51
254.618	33.79
254.835	1.02
255.051	107.52
255.268	134.14
255.484	76.8
255.701	23.55
255.917	62.46
256.134	-19.46
256.351	-87.04
256.567	-31.74
256.784	-9.22
257	-72.7
257.217	136.19
257.433	87.04
257.65	87.04
257.866	103.42
258.082	-70.65
258.299	105.47
258.515	37.89
258.732	62.46
258.948	-21.5
259.165	111.61
259.381	-39.94
259.597	76.8
259.814	46.08
260.03	58.37
260.246	-52.22
260.463	46.08
260.679	97.28
260.895	-48.13
261.112	82.94
261.328	97.28
261.544	-54.27
261.761	144.38
261.977	84.99
262.193	-54.27
262.409	87.04
262.626	138.24
262.842	68.61
263.058	-95.23
263.274	150.53
263.49	-37.89
263.707	87.04
263.923	70.65
264.139	-105.47
264.355	9.22
264.571	134.14
264.787	68.61
265.004	107.52
265.22	31.74
265.436	-25.6
265.652	15.36
265.868	25.6
266.084	44.03
266.3	35.84
266.516	-11.26
266.732	39.94
266.948	-9.22
267.164	27.65
267.38	70.65
267.596	19.46
267.812	101.37
268.028	41.98
268.244	3.07
268.46	-35.84
268.676	7.17
268.892	39.94
269.108	-62.46
269.324	-60.42
269.54	-31.74
269.756	99.33
269.972	-109.57
270.188	44.03
270.403	13.31
270.619	56.32
270.835	91.13
271.051	5.12
271.267	66.56
271.483	-68.61
271.698	119.81
271.914	-3.07
272.13	123.9
272.346	9.22
272.562	70.65
272.777	89.09
272.993	-33.79
273.209	17.41
273.425	62.46
273.64	-48.13
273.856	58.37
274.072	-54.27
274.287	19.46
274.503	39.94
274.719	44.03
274.934	29.7
275.15	-80.89
275.366	25.6
275.581	-25.6
275.797	-11.26
276.012	52.22
276.228	52.22
276.444	31.74
276.659	25.6
276.875	-35.84
277.09	-7.17
277.306	5.12
277.521	3.07
277.737	44.03
277.952	80.89
278.168	-46.08
278.383	37.89
278.599	44.03
278.814	52.22
279.03	-1.02
279.245	119.81
279.461	66.56
279.676	117.76
279.892	-29.7
280.107	-27.65
280.322	58.37
280.538	74.75
280.753	23.55
280.969	27.65
281.184	46.08
281.399	144.38
281.615	-62.46
281.83	50.18
282.045	-27.65
282.26	-72.7
282.476	23.55
282.691	50.18
282.906	48.13
283.122	15.36
283.337	-7.17
283.552	93.18
283.767	-7.17
283.983	-3.07
284.198	70.65
284.413	-48.13
284.628	-11.26
284.843	13.31
285.058	-5.12
285.274	82.94
285.489	-9.22
285.704	-21.5
285.919	-84.99
286.134	37.89
286.349	11.26
286.564	-5.12
286.779	87.04
286.995	-17.41
287.21	19.46
287.425	48.13
287.64	95.23
287.855	9.22
288.07	-15.36
288.285	76.8
288.5	158.72
288.715	76.8
288.93	1.02
289.145	-19.46
289.36	80.89
289.575	29.7
289.79	162.81
290.004	-5.12
290.219	107.52
290.434	60.42
290.649	52.22
290.864	-52.22
291.079	-21.5
291.294	33.79
291.509	13.31
291.724	66.56
291.938	52.22
292.153	93.18
292.368	35.84
292.583	13.31
292.798	123.9
293.012	-15.36
293.227	97.28
293.442	-93.18
293.657	80.89
293.871	105.47
294.086	41.98
294.301	150.53
294.516	78.85
294.73	-84.99
294.945	-21.5
295.16	-1.02
295.374	80.89
295.589	134.14
295.804	17.41
296.018	54.27
296.233	78.85
296.447	-9.22
296.662	19.46
296.877	54.27
297.091	117.76
297.306	-72.7
297.52	-39.94
297.735	7.17
297.949	-19.46
298.164	72.7
298.378	21.5
298.593	-84.99
298.807	25.6
299.022	-19.46
299.236	115.71
299.451	-60.42
299.665	-9.22
299.88	21.5
300.094	64.51
300.309	-13.31
300.523	66.56
300.737	-54.27
300.952	29.7
301.166	29.7
301.381	-44.03
301.595	35.84
301.809	35.84
302.024	-23.55
302.238	-5.12
302.452	128
302.667	37.89
302.881	80.89
303.095	17.41
303.309	87.04
303.524	-48.13
303.738	50.18
303.952	-109.57
304.166	37.89
304.381	-48.13
304.595	119.81
304.809	-31.74
305.023	54.27
305.237	-3.07
305.452	19.46
305.666	66.56
305.88	91.13
306.094	152.57
306.308	1.02
306.522	39.94
306.736	89.09
306.95	109.57
307.164	-11.26
307.379	25.6
307.593	148.48
307.807	70.65
308.021	211.96
308.235	19.46
308.449	-25.6
308.663	27.65
308.877	203.77
309.091	58.37
309.305	70.65
309.519	-46.08
309.733	58.37
309.947	-25.6
310.161	74.75
310.374	17.41
310.588	91.13
310.802	-5.12
311.016	-19.46
311.23	48.13
311.444	-52.22
311.658	-11.26
311.872	41.98
312.085	160.77
312.299	138.24
312.513	144.38
312.727	41.98
312.941	-62.46
313.154	117.76
313.368	-39.94
313.582	52.22
313.796	54.27
314.009	5.12
314.223	70.65
314.437	-11.26
314.651	148.48
314.864	15.36
315.078	58.37
315.292	-52.22
315.505	41.98
315.719	-1.02
315.933	33.79
316.146	-80.89
316.36	39.94
316.573	82.94
316.787	-13.31
317.001	27.65
317.214	5.12
317.428	1.02
317.641	-39.94
317.855	39.94
318.068	1.02
318.282	82.94
318.495	191.49
318.709	27.65
318.922	-37.89
319.136	68.61
319.349	107.52
319.563	54.27
319.776	62.46
319.99	-70.65
320.203	82.94
320.417	37.89
320.63	62.46
320.843	119.81
321.057	60.42
321.27	-7.17
321.483	84.99
321.697	144.38
321.91	7.17
322.124	62.46
322.337	56.32
322.55	-84.99
322.763	33.79
322.977	-19.46
323.19	84.99
323.403	-60.42
323.617	50.18
323.83	66.56
324.043	-35.84
324.256	21.5
324.469	5.12
324.683	78.85
324.896	-11.26
325.109	60.42
325.322	-119.81
325.535	56.32
325.748	29.7
325.962	15.36
326.175	9.22
326.388	50.18
326.601	111.61
326.814	19.46
327.027	54.27
327.24	99.33
327.453	-84.99
327.666	17.41
327.879	152.57
328.092	11.26
328.305	78.85
328.518	-50.18
328.731	15.36
328.944	-39.94
329.157	97.28
329.37	-58.37
329.583	144.38
329.796	76.8
330.009	-103.42
330.222	39.94
330.435	29.7
330.648	72.7
330.861	41.98
331.073	-5.12
331.286	35.84
331.499	-35.84
331.712	-52.22
331.925	39.94
332.138	-27.65
332.35	54.27
332.563	58.37
332.776	89.09
332.989	-15.36
333.202	33.79
333.414	68.61
333.627	50.18
333.84	29.7
334.053	54.27
334.265	5.12
334.478	37.89
334.691	84.99
334.903	7.17
335.116	48.13
335.329	39.94
335.541	78.85
335.754	50.18
335.966	-31.74
336.179	125.95
336.392	80.89
336.604	-44.03
336.817	44.03
337.029	66.56
337.242	-11.26
337.454	117.76
337.667	44.03
337.88	76.8
338.092	78.85
338.305	95.23
338.517	-25.6
338.729	128
338.942	152.57
339.154	-39.94
339.367	13.31
339.579	60.42
339.792	-84.99
340.004	136.19
340.217	-11.26
340.429	21.5
340.641	-78.85
340.854	-41.98
341.066	5.12
341.278	125.95
341.491	132.09
341.703	31.74
341.915	-5.12
342.128	171.01
342.34	15.36
342.552	-44.03
342.764	62.46
342.977	-11.26
343.189	78.85
343.401	27.65
343.613	-19.46
343.826	31.74
344.038	-46.08
344.25	87.04
344.462	-5.12
344.674	70.65
344.886	-46.08
345.099	7.17
345.311	91.13
345.523	-11.26
345.735	-62.46
345.947	-21.5
346.159	62.46
346.371	48.13
346.583	15.36
346.795	119.81
347.007	76.8
347.219	-25.6
347.431	11.26
347.643	136.19
347.855	-21.5
348.067	56.32
348.279	9.22
348.491	-25.6
348.703	-39.94
348.915	29.7
349.127	-64.51
349.339	66.56
349.551	-84.99
349.763	128
349.975	-58.37
350.187	46.08
350.399	123.9
350.61	7.17
350.822	1.02
351.034	35.84
351.246	29.7
351.458	9.22
351.669	62.46
351.881	87.04
352.093	66.56
352.305	23.55
352.517	74.75
352.728	70.65
352.94	41.98
353.152	82.94
353.363	9.22
353.575	82.94
353.787	68.61
353.999	60.42
354.21	128
354.422	-29.7
354.633	-35.84
354.845	-1.02
355.057	46.08
355.268	7.17
355.48	109.57
355.692	-50.18
355.903	50.18
356.115	48.13
356.326	-101.37
356.538	84.99
356.749	62.46
356.961	132.09
357.172	82.94
357.384	11.26
357.595	168.96
357.807	62.46
358.018	33.79
358.23	48.13
358.441	64.51
358.653	58.37
358.864	52.22
359.075	-50.18
359.287	97.28
359.498	148.48
359.709	41.98
359.921	-62.46
360.132	70.65
360.344	25.6
360.555	-27.65
360.766	-58.37
360.977	29.7
361.189	115.71
361.4	19.46
361.611	84.99
361.823	60.42
362.034	39.94
362.245	-50.18
362.456	93.18
362.667	31.74
362.879	-37.89
363.09	72.7
363.301	101.37
363.512	76.8
363.723	-25.6
363.935	7.17
364.146	70.65
364.357	52.22
364.568	-3.07
364.779	-89.09
364.99	152.57
365.201	-23.55
365.412	113.66
365.623	17.41
365.834	54.27
366.045	117.76
366.256	21.5
366.467	54.27
366.678	13.31
366.889	52.22
367.1	78.85
367.311	62.46
367.522	35.84
367.733	35.84
367.944	101.37
368.155	68.61
368.366	140.29
368.577	76.8
368.788	123.9
368.999	-60.42
369.209	-39.94
369.42	240.64
369.631	171.01
369.842	136.19
370.053	-39.94
370.264	125.95
370.474	-52.22
370.685	84.99
370.896	60.42
371.107	91.13
371.317	60.42
371.528	19.46
371.739	105.47
371.95	115.71
372.16	7.17
372.371	-37.89
372.582	13.31
372.792	78.85
373.003	3.07
373.214	56.32
373.424	19.46
373.635	-80.89
373.846	113.66
374.056	1.02
374.267	68.61
374.477	72.7
374.688	-48.13
374.898	-44.03
375.109	39.94
375.319	21.5
375.53	68.61
375.74	72.7
375.951	27.65
376.161	82.94
376.372	111.61
376.582	35.84
376.793	48.13
377.003	29.7
377.214	31.74
377.424	1.02
377.635	13.31
377.845	17.41
378.055	201.72
378.266	-35.84
378.476	-13.31
378.686	68.61
378.897	54.27
379.107	5.12
379.317	97.28
379.528	5.12
379.738	3.07
379.948	-27.65
380.158	128
380.369	66.56
380.579	91.13
380.789	21.5
380.999	111.61
381.21	97.28
381.42	95.23
381.63	-29.7
381.84	115.71
382.05	66.56
382.261	109.57
382.471	54.27
382.681	5.12
382.891	164.86
383.101	52.22
383.311	19.46
383.521	46.08
383.731	111.61
383.941	138.24
384.151	-39.94
384.361	5.12
384.571	50.18
384.781	13.31
384.991	144.38
385.201	199.68
385.411	128
385.621	72.7
385.831	-44.03
386.041	50.18
386.251	21.5
386.461	84.99
386.671	44.03
386.881	29.7
387.091	19.46
387.301	136.19
387.511	29.7
387.72	113.66
387.93	160.77
388.14	5.12
388.35	56.32
388.56	119.81
388.769	27.65
388.979	35.84
389.189	-58.37
389.399	5.12
389.609	25.6
389.818	54.27
390.028	37.89
390.238	13.31
390.447	29.7
390.657	44.03
390.867	-19.46
391.076	-21.5
391.286	66.56
391.496	13.31
391.705	101.37
391.915	52.22
392.125	119.81
392.334	15.36
392.544	80.89
392.753	-19.46
392.963	-7.17
393.172	62.46
393.382	-78.85
393.591	107.52
393.801	19.46
394.01	89.09
394.22	41.98
394.429	-19.46
394.639	37.89
394.848	41.98
395.058	-25.6
395.267	9.22
395.477	144.38
395.686	66.56
395.895	142.33
396.105	160.77
396.314	68.61
396.524	19.46
396.733	-27.65
396.942	166.91
397.152	95.23
397.361	60.42
397.57	52.22
397.78	70.65
397.989	107.52
398.198	187.39
398.407	74.75
398.617	-5.12
398.826	95.23
399.035	117.76
399.244	89.09
399.453	64.51
399.663	76.8
399.872	89.09
400.081	-29.7
400.29	117.76
400.499	46.08
400.708	37.89
400.917	1.02
401.127	25.6
401.336	52.22
401.545	64.51
401.754	33.79
401.963	95.23
402.172	5.12
402.381	-27.65
402.59	13.31
402.799	35.84
403.008	29.7
403.217	82.94
403.426	21.5
403.635	-27.65
403.844	27.65
404.053	-19.46
404.262	-35.84
404.471	95.23
404.68	13.31
404.888	41.98
405.097	48.13
405.306	58.37
405.515	107.52
405.724	23.55
405.933	80.89
406.142	103.42
406.35	84.99
406.559	21.5
406.768	-9.22
406.977	33.79
407.185	17.41
407.394	128
407.603	-3.07
407.812	87.04
408.02	123.9
408.229	54.27
408.438	37.89
408.646	-7.17
408.855	41.98
409.064	-17.41
409.272	52.22
409.481	70.65
409.69	5.12
409.898	-19.46
410.107	68.61
410.315	117.76
410.524	62.46
410.733	-5.12
410.941	-11.26
411.15	66.56
411.358	173.05
411.567	60.42
411.775	21.5
411.984	33.79
412.192	109.57
412.401	-78.85
412.609	160.77
412.818	142.33
413.026	70.65
413.234	62.46
413.443	21.5
413.651	-19.46
413.86	58.37
414.068	111.61
414.276	201.72
414.485	-11.26
414.693	74.75
414.901	171.01
415.11	-17.41
415.318	-23.55
415.526	62.46
415.734	70.65
415.943	37.89
416.151	91.13
416.359	21.5
416.567	15.36
416.776	95.23
416.984	87.04
417.192	93.18
417.4	31.74
417.608	-27.65
417.817	-27.65
418.025	134.14
418.233	173.05
418.441	9.22
418.649	-9.22
418.857	80.89
419.065	201.72
419.273	-60.42
419.481	52.22
419.689	103.42
419.897	-52.22
420.105	7.17
420.313	-1.02
420.521	132.09
420.729	123.9
420.937	-46.08
421.145	37.89
421.353	52.22
421.561	70.65
421.769	39.94
421.977	5.12
422.185	123.9
422.393	-27.65
422.601	117.76
422.809	62.46
423.017	-3.07
423.224	-23.55
423.432	91.13
423.64	21.5
423.848	91.13
424.056	-13.31
424.263	99.33
424.471	-56.32
424.679	158.72
424.887	-48.13
425.094	132.09
425.302	136.19
425.51	103.42
425.718	31.74
425.925	68.61
426.133	-52.22
426.341	128
426.548	5.12
426.756	95.23
426.964	87.04
427.171	21.5
427.379	60.42
427.586	119.81
427.794	78.85
428.001	128
428.209	44.03
428.417	156.67
428.624	111.61
428.832	99.33
429.039	62.46
429.247	87.04
429.454	84.99
429.662	183.29
429.869	177.15
430.076	76.8
430.284	80.89
430.491	218.11
430.699	91.13
430.906	201.72
431.114	107.52
431.321	101.37
431.528	39.94
431.736	121.85
431.943	179.2
432.15	121.85
432.358	121.85
432.565	248.83
432.772	-15.36
432.979	189.44
433.187	52.22
433.394	142.33
433.601	132.09
433.808	218.11
434.016	158.72
434.223	203.77
434.43	224.25
434.637	119.81
434.844	257.02
435.052	144.38
435.259	226.3
435.466	357.37
435.673	183.29
435.88	181.25
436.087	291.84
436.294	250.88
436.501	244.73
436.708	187.39
436.915	300.03
437.122	275.45
437.329	267.26
437.537	265.21
437.743	353.27
437.95	422.91
438.157	289.79
438.364	316.41
438.571	375.8
438.778	396.28
438.985	437.24
439.192	400.38
439.399	365.56
439.606	422.91
439.813	482.3
440.02	494.58
440.227	488.44
440.433	484.34
440.64	519.16
440.847	515.06
441.054	601.08
441.261	644.09
441.467	525.3
441.674	427
441.881	703.48
442.088	562.17
442.294	699.38
442.501	685.05
442.708	740.34
442.914	648.18
443.121	781.3
443.328	791.54
443.534	814.07
443.741	795.64
443.948	744.44
444.154	893.94
444.361	938.99
444.568	953.33
444.774	1002.48
444.981	844.79
445.187	1145.84
445.394	1059.82
445.6	1076.21
445.807	1149.93
446.013	1147.89
446.22	1158.13
446.426	1338.35
446.633	1289.2
446.839	1477.61
447.046	1231.85
447.252	1522.66
447.459	1522.66
447.665	1518.57
447.871	1717.22
448.078	1838.05
448.284	1715.17
448.491	1913.83
448.697	1860.58
448.903	1924.07
449.11	1993.7
449.316	2012.13
449.522	2163.68
449.728	2251.74
449.935	2374.62
450.141	2366.43
450.347	2536.41
450.553	2466.78
450.76	2534.36
450.966	2722.77
451.172	2788.31
451.378	2898.9
451.584	2925.52
451.791	3175.38
451.997	3101.65
452.203	3236.81
452.409	3648.46
452.615	3652.55
452.821	3494.86
453.027	3511.24
453.233	4099.01
453.44	4019.14
453.646	4015.04
453.852	4256.7
454.058	4461.5
454.264	4565.95
454.47	5006.26
454.676	5002.16
454.882	5428.14
455.088	5163.95
455.294	5444.52
455.5	5948.33
455.705	6165.41
455.911	6071.2
456.117	6310.82
456.323	6515.61
456.529	6460.32
456.735	7009.17
456.941	7271.31
457.147	7666.57
457.352	7621.52
457.558	7795.59
457.764	8475.52
457.97	8657.79
458.176	9085.81
458.381	9716.59
458.587	9536.37
458.793	10034.02
458.999	9974.63
459.204	11307.86
459.41	11848.52
459.616	11395.92
459.821	12333.89
460.027	12989.24
460.233	13103.93
460.438	13620.02
460.644	14199.59
460.85	14361.38
461.055	14850.85
461.261	15659.79
461.466	15575.83
461.672	15835.92
461.878	17707.76
462.083	17408.76
462.289	17625.84
462.494	18580.2
462.7	18316.01
462.905	18934.5
463.111	20280.01
463.316	21265.08
463.522	21781.17
463.727	22360.75
463.932	23046.82
464.138	23710.36
464.343	24537.74
464.549	25041.54
464.754	26432.11
464.959	27284.06
465.165	27732.57
465.37	27847.26
465.575	27355.74
465.781	29547.07
465.986	30360.11
466.191	29835.83
466.397	30126.64
466.602	29475.39
466.807	31046.18
467.012	31492.64
467.218	32301.59
467.423	32162.33
467.628	33165.83
467.833	34710
468.038	34101.75
468.244	33737.21
468.449	35295.72
468.654	34793.97
468.859	34114.04
469.064	34413.04
469.269	33546.75
469.474	33780.22
469.679	35101.16
469.885	33661.44
470.09	34497.01
