Data from USB4F104151__81__09-30-46-287.txt Node

Date: Wed Feb 26 09:30:46 EST 2025
User: louis
Spectrometer: USB4F10415
Trigger mode: 4
Integration Time (sec): 1.000000E-1
Scans to average: 1
Electric dark correction enabled: true
Nonlinearity correction enabled: false
Boxcar width: 0
XAxis mode: Wavelengths
Number of Pixels in Spectrum: 3648
>>>>>Begin Spectral Data<<<<<
178.204	-354.47
178.424	-354.47
178.644	-354.47
178.864	-374.95
179.084	-364.71
179.304	8.02
179.524	-75.95
179.744	-10.41
179.964	-26.79
180.184	73.56
180.404	46.93
180.624	-10.41
180.844	-4.27
181.064	-63.66
181.283	30.55
181.503	-18.6
181.723	51.03
181.943	-108.71
182.163	145.24
182.383	-55.47
182.602	30.55
182.822	34.64
183.042	12.12
183.262	-108.71
183.482	71.51
183.701	10.07
183.921	44.88
184.141	-129.19
184.361	18.26
184.58	112.47
184.8	112.47
185.02	-16.55
185.239	130.9
185.459	12.12
185.679	102.23
185.898	-110.76
186.118	46.93
186.338	67.41
186.557	108.37
186.777	-37.03
186.997	-34.99
187.216	12.12
187.436	202.58
187.655	67.41
187.875	59.22
188.095	-75.95
188.314	96.08
188.534	106.32
188.753	-59.56
188.973	73.56
189.192	137.04
189.412	46.93
189.631	120.66
189.851	38.74
190.07	44.88
190.29	-133.29
190.509	8.02
190.729	-41.13
190.948	126.8
191.168	218.96
191.387	44.88
191.607	-22.7
191.826	24.4
192.045	-32.94
192.265	20.31
192.484	44.88
192.704	48.98
192.923	-84.14
193.142	184.15
193.362	100.18
193.581	51.03
193.8	69.46
194.02	24.4
194.239	77.65
194.458	-4.27
194.678	10.07
194.897	20.31
195.116	30.55
195.335	-0.17
195.555	96.08
195.774	-6.31
195.993	116.56
196.212	14.17
196.432	14.17
196.651	-18.6
196.87	51.03
197.089	155.47
197.308	30.55
197.528	96.08
197.747	-12.46
197.966	55.12
198.185	108.37
198.404	-86.19
198.623	85.84
198.842	83.8
199.062	77.65
199.281	73.56
199.5	55.12
199.719	46.93
199.938	91.99
200.157	51.03
200.376	122.71
200.595	63.32
200.814	130.9
201.033	-51.37
201.252	130.9
201.471	91.99
201.69	135
201.909	24.4
202.128	77.65
202.347	34.64
202.566	-34.99
202.785	-98.47
203.004	-41.13
203.223	186.19
203.442	46.93
203.661	-26.79
203.879	30.55
204.098	108.37
204.317	-34.99
204.536	38.74
204.755	51.03
204.974	114.52
205.193	28.5
205.411	104.28
205.63	122.71
205.849	53.08
206.068	53.08
206.287	-8.36
206.505	190.29
206.724	3.93
206.943	22.36
207.162	-6.31
207.381	79.7
207.599	20.31
207.818	44.88
208.037	-49.32
208.255	16.21
208.474	1.88
208.693	59.22
208.911	-77.99
209.13	77.65
209.349	61.27
209.567	79.7
209.786	42.84
210.005	16.21
210.223	18.26
210.442	-28.84
210.661	-43.18
210.879	46.93
211.098	22.36
211.316	-18.6
211.535	61.27
211.753	-28.84
211.972	83.8
212.191	-100.52
212.409	20.31
212.628	118.61
212.846	3.93
213.065	-0.17
213.283	73.56
213.502	-6.31
213.72	28.5
213.938	46.93
214.157	48.98
214.375	-10.41
214.594	22.36
214.812	46.93
215.031	5.97
215.249	34.64
215.467	71.51
215.686	16.21
215.904	36.69
216.122	-10.41
216.341	151.38
216.559	36.69
216.778	81.75
216.996	130.9
217.214	-92.33
217.432	-6.31
217.651	-18.6
217.869	38.74
218.087	65.36
218.306	10.07
218.524	67.41
218.742	53.08
218.96	44.88
219.179	-34.99
219.397	-10.41
219.615	218.96
219.833	12.12
220.051	-43.18
220.27	8.02
220.488	-18.6
220.706	38.74
220.924	-22.7
221.142	-41.13
221.36	87.89
221.578	53.08
221.796	26.45
222.015	-39.08
222.233	-10.41
222.451	102.23
222.669	-77.99
222.887	83.8
223.105	26.45
223.323	-51.37
223.541	-63.66
223.759	18.26
223.977	55.12
224.195	118.61
224.413	147.28
224.631	40.79
224.849	1.88
225.067	153.43
225.285	-28.84
225.503	-10.41
225.721	-98.47
225.939	-37.03
226.157	108.37
226.375	243.54
226.592	51.03
226.81	-47.27
227.028	157.52
227.246	104.28
227.464	75.6
227.682	108.37
227.9	102.23
228.117	48.98
228.335	-0.17
228.553	18.26
228.771	42.84
228.989	61.27
229.206	55.12
229.424	42.84
229.642	-30.89
229.86	-10.41
230.077	75.6
230.295	34.64
230.513	77.65
230.731	-10.41
230.948	159.57
231.166	75.6
231.384	-4.27
231.601	-104.62
231.819	89.94
232.037	18.26
232.254	-53.42
232.472	-12.46
232.689	-16.55
232.907	120.66
233.125	-55.47
233.342	-30.89
233.56	1.88
233.777	1.88
233.995	61.27
234.213	38.74
234.43	67.41
234.648	12.12
234.865	22.36
235.083	104.28
235.3	79.7
235.518	69.46
235.735	225.11
235.953	71.51
236.17	16.21
236.388	-26.79
236.605	10.07
236.822	91.99
237.04	130.9
237.257	83.8
237.475	-12.46
237.692	44.88
237.909	110.42
238.127	30.55
238.344	87.89
238.562	20.31
238.779	-90.28
238.996	-51.37
239.214	14.17
239.431	139.09
239.648	55.12
239.865	-0.17
240.083	42.84
240.3	-32.94
240.517	-49.32
240.735	67.41
240.952	61.27
241.169	24.4
241.386	-6.31
241.603	-45.23
241.821	-141.48
242.038	124.76
242.255	-28.84
242.472	-2.22
242.689	10.07
242.907	159.57
243.124	63.32
243.341	-34.99
243.558	-12.46
243.775	-71.85
243.992	-18.6
244.209	67.41
244.426	100.18
244.643	32.6
244.86	5.97
245.078	14.17
245.295	28.5
245.512	-2.22
245.729	26.45
245.946	26.45
246.163	55.12
246.38	-80.04
246.597	30.55
246.814	28.5
247.031	-30.89
247.248	32.6
247.464	51.03
247.681	87.89
247.898	32.6
248.115	16.21
248.332	-22.7
248.549	-43.18
248.766	120.66
248.983	71.51
249.2	38.74
249.417	46.93
249.633	32.6
249.85	22.36
250.067	-28.84
250.284	36.69
250.501	51.03
250.717	34.64
250.934	-22.7
251.151	-6.31
251.368	-53.42
251.585	71.51
251.801	-86.19
252.018	1.88
252.235	57.17
252.451	-30.89
252.668	69.46
252.885	44.88
253.102	55.12
253.318	-4.27
253.535	8.02
253.752	-34.99
253.968	18.26
254.185	-55.47
254.401	69.46
254.618	46.93
254.835	-61.61
255.051	104.28
255.268	102.23
255.484	3.93
255.701	61.27
255.917	102.23
256.134	46.93
256.351	-22.7
256.567	-45.23
256.784	22.36
257	-67.75
257.217	24.4
257.433	53.08
257.65	-2.22
257.866	114.52
258.082	-86.19
258.299	55.12
258.515	8.02
258.732	-18.6
258.948	-6.31
259.165	36.69
259.381	16.21
259.597	51.03
259.814	-18.6
260.03	-20.65
260.246	32.6
260.463	118.61
260.679	132.95
260.895	18.26
261.112	22.36
261.328	61.27
261.544	38.74
261.761	55.12
261.977	-53.42
262.193	-34.99
262.409	59.22
262.626	30.55
262.842	67.41
263.058	-61.61
263.274	57.17
263.49	10.07
263.707	61.27
263.923	40.79
264.139	-16.55
264.355	71.51
264.571	63.32
264.787	69.46
265.004	51.03
265.22	26.45
265.436	-8.36
265.652	-20.65
265.868	91.99
266.084	-12.46
266.3	32.6
266.516	28.5
266.732	51.03
266.948	69.46
267.164	-10.41
267.38	20.31
267.596	38.74
267.812	75.6
268.028	-10.41
268.244	-41.13
268.46	-10.41
268.676	3.93
268.892	42.84
269.108	-51.37
269.324	-65.71
269.54	-10.41
269.756	94.04
269.972	-30.89
270.188	22.36
270.403	-18.6
270.619	20.31
270.835	75.6
271.051	57.17
271.267	22.36
271.483	-47.27
271.698	46.93
271.914	110.42
272.13	87.89
272.346	-84.14
272.562	34.64
272.777	67.41
272.993	-45.23
273.209	-71.85
273.425	71.51
273.64	-57.51
273.856	3.93
274.072	18.26
274.287	57.17
274.503	14.17
274.719	75.6
274.934	51.03
275.15	-39.08
275.366	28.5
275.581	79.7
275.797	55.12
276.012	18.26
276.228	-20.65
276.444	-32.94
276.659	94.04
276.875	-47.27
277.09	10.07
277.306	75.6
277.521	24.4
277.737	-0.17
277.952	-61.61
278.168	22.36
278.383	10.07
278.599	3.93
278.814	77.65
279.03	-18.6
279.245	153.43
279.461	-37.03
279.676	44.88
279.892	-34.99
280.107	-51.37
280.322	-98.47
280.538	53.08
280.753	-22.7
280.969	-6.31
281.184	-2.22
281.399	116.56
281.615	65.36
281.83	-8.36
282.045	-88.23
282.26	16.21
282.476	81.75
282.691	89.94
282.906	42.84
283.122	20.31
283.337	-51.37
283.552	-10.41
283.767	-88.23
283.983	87.89
284.198	57.17
284.413	10.07
284.628	-55.47
284.843	44.88
285.058	96.08
285.274	-6.31
285.489	-34.99
285.704	-2.22
285.919	46.93
286.134	-10.41
286.349	-57.51
286.564	5.97
286.779	69.46
286.995	-4.27
287.21	-67.75
287.425	100.18
287.64	-98.47
287.855	94.04
288.07	-51.37
288.285	102.23
288.5	104.28
288.715	79.7
288.93	-4.27
289.145	-6.31
289.36	71.51
289.575	-0.17
289.79	89.94
290.004	44.88
290.219	42.84
290.434	-71.85
290.649	-0.17
290.864	83.8
291.079	-8.36
291.294	-61.61
291.509	28.5
291.724	-28.84
291.938	-84.14
292.153	-16.55
292.368	5.97
292.583	53.08
292.798	77.65
293.012	-22.7
293.227	30.55
293.442	-8.36
293.657	59.22
293.871	98.13
294.086	40.79
294.301	200.53
294.516	20.31
294.73	12.12
294.945	-63.66
295.16	-24.75
295.374	165.71
295.589	94.04
295.804	28.5
296.018	-28.84
296.233	38.74
296.447	5.97
296.662	8.02
296.877	44.88
297.091	55.12
297.306	69.46
297.52	-24.75
297.735	79.7
297.949	-53.42
298.164	112.47
298.378	-6.31
298.593	-65.71
298.807	-28.84
299.022	28.5
299.236	165.71
299.451	-30.89
299.665	18.26
299.88	75.6
300.094	46.93
300.309	10.07
300.523	-10.41
300.737	46.93
300.952	14.17
301.166	-16.55
301.381	14.17
301.595	46.93
301.809	30.55
302.024	-86.19
302.238	1.88
302.452	102.23
302.667	-18.6
302.881	46.93
303.095	122.71
303.309	-39.08
303.524	61.27
303.738	69.46
303.952	46.93
304.166	59.22
304.381	-84.14
304.595	118.61
304.809	-2.22
305.023	14.17
305.237	65.36
305.452	-37.03
305.666	89.94
305.88	55.12
306.094	169.81
306.308	91.99
306.522	3.93
306.736	28.5
306.95	116.56
307.164	36.69
307.379	10.07
307.593	79.7
307.807	128.85
308.021	65.36
308.235	12.12
308.449	-102.57
308.663	5.97
308.877	198.48
309.091	38.74
309.305	63.32
309.519	-69.8
309.733	46.93
309.947	-43.18
310.161	-4.27
310.374	16.21
310.588	69.46
310.802	-61.61
311.016	-14.51
311.23	18.26
311.444	-39.08
311.658	20.31
311.872	122.71
312.085	128.85
312.299	182.1
312.513	87.89
312.727	67.41
312.941	-63.66
313.154	34.64
313.368	20.31
313.582	20.31
313.796	-6.31
314.009	-2.22
314.223	79.7
314.437	22.36
314.651	59.22
314.864	-30.89
315.078	-51.37
315.292	-73.9
315.505	-6.31
315.719	40.79
315.933	106.32
316.146	24.4
316.36	-6.31
316.573	71.51
316.787	112.47
317.001	24.4
317.214	-53.42
317.428	32.6
317.641	-49.32
317.855	-37.03
318.068	30.55
318.282	3.93
318.495	106.32
318.709	81.75
318.922	12.12
319.136	143.19
319.349	22.36
319.563	10.07
319.776	46.93
319.99	3.93
320.203	141.14
320.417	24.4
320.63	-28.84
320.843	157.52
321.057	34.64
321.27	102.23
321.483	-0.17
321.697	100.18
321.91	-10.41
322.124	26.45
322.337	55.12
322.55	-84.14
322.763	55.12
322.977	73.56
323.19	-47.27
323.403	-39.08
323.617	5.97
323.83	130.9
324.043	-39.08
324.256	38.74
324.469	-104.62
324.683	114.52
324.896	12.12
325.109	24.4
325.322	-67.75
325.535	42.84
325.748	77.65
325.962	26.45
326.175	22.36
326.388	96.08
326.601	57.17
326.814	-4.27
327.027	77.65
327.24	91.99
327.453	-92.33
327.666	34.64
327.879	100.18
328.092	137.04
328.305	1.88
328.518	26.45
328.731	-20.65
328.944	-10.41
329.157	122.71
329.37	-57.51
329.583	91.99
329.796	108.37
330.009	-41.13
330.222	73.56
330.435	108.37
330.648	8.02
330.861	8.02
331.073	55.12
331.286	18.26
331.499	40.79
331.712	-45.23
331.925	-18.6
332.138	46.93
332.35	36.69
332.563	-43.18
332.776	159.57
332.989	-28.84
333.202	-4.27
333.414	20.31
333.627	-6.31
333.84	73.56
334.053	42.84
334.265	-6.31
334.478	26.45
334.691	10.07
334.903	22.36
335.116	-63.66
335.329	30.55
335.541	-0.17
335.754	79.7
335.966	-8.36
336.179	-14.51
336.392	-71.85
336.604	59.22
336.817	132.95
337.029	30.55
337.242	77.65
337.454	-8.36
337.667	36.69
337.88	91.99
338.092	22.36
338.305	46.93
338.517	-90.28
338.729	46.93
338.942	163.67
339.154	-47.27
339.367	-110.76
339.579	73.56
339.792	-32.94
340.004	34.64
340.217	-59.56
340.429	12.12
340.641	-51.37
340.854	-45.23
341.066	28.5
341.278	67.41
341.491	141.14
341.703	-16.55
341.915	-61.61
342.128	83.8
342.34	71.51
342.552	-26.79
342.764	46.93
342.977	16.21
343.189	22.36
343.401	26.45
343.613	-80.04
343.826	5.97
344.038	-75.95
344.25	40.79
344.462	-4.27
344.674	59.22
344.886	-6.31
345.099	-20.65
345.311	75.6
345.523	32.6
345.735	-34.99
345.947	53.08
346.159	106.32
346.371	-8.36
346.583	42.84
346.795	218.96
347.007	42.84
347.219	24.4
347.431	28.5
347.643	87.89
347.855	-39.08
348.067	186.19
348.279	-110.76
348.491	69.46
348.703	1.88
348.915	-14.51
349.127	-41.13
349.339	46.93
349.551	61.27
349.763	46.93
349.975	22.36
350.187	102.23
350.399	157.52
350.61	71.51
350.822	-37.03
351.034	40.79
351.246	12.12
351.458	112.47
351.669	5.97
351.881	77.65
352.093	112.47
352.305	112.47
352.517	55.12
352.728	-4.27
352.94	44.88
353.152	12.12
353.363	-30.89
353.575	71.51
353.787	110.42
353.999	46.93
354.21	194.39
354.422	-41.13
354.633	16.21
354.845	3.93
355.057	-49.32
355.268	38.74
355.48	44.88
355.692	-26.79
355.903	79.7
356.115	-47.27
356.326	-129.19
356.538	149.33
356.749	87.89
356.961	81.75
357.172	-10.41
357.384	-73.9
357.595	161.62
357.807	28.5
358.018	75.6
358.23	-34.99
358.441	67.41
358.653	32.6
358.864	-34.99
359.075	-18.6
359.287	24.4
359.498	32.6
359.709	20.31
359.921	69.46
360.132	73.56
360.344	-30.89
360.555	14.17
360.766	28.5
360.977	-51.37
361.189	149.33
361.4	-22.7
361.611	57.17
361.823	53.08
362.034	22.36
362.245	-41.13
362.456	10.07
362.667	51.03
362.879	-10.41
363.09	100.18
363.301	51.03
363.512	-2.22
363.723	61.27
363.935	-30.89
364.146	48.98
364.357	8.02
364.568	-43.18
364.779	-16.55
364.99	116.56
365.201	-43.18
365.412	124.76
365.623	-90.28
365.834	57.17
366.045	30.55
366.256	83.8
366.467	114.52
366.678	32.6
366.889	-10.41
367.1	-28.84
367.311	53.08
367.522	-6.31
367.733	10.07
367.944	36.69
368.155	-0.17
368.366	63.32
368.577	116.56
368.788	132.95
368.999	12.12
369.209	-10.41
369.42	153.43
369.631	239.44
369.842	124.76
370.053	10.07
370.264	102.23
370.474	-14.51
370.685	83.8
370.896	46.93
371.107	118.61
371.317	61.27
371.528	51.03
371.739	108.37
371.95	63.32
372.16	38.74
372.371	-92.33
372.582	12.12
372.792	135
373.003	-12.46
373.214	22.36
373.424	108.37
373.635	-96.43
373.846	96.08
374.056	61.27
374.267	12.12
374.477	30.55
374.688	34.64
374.898	-43.18
375.109	44.88
375.319	30.55
375.53	94.04
375.74	-10.41
375.951	12.12
376.161	-30.89
376.372	57.17
376.582	-104.62
376.793	71.51
377.003	34.64
377.214	-59.56
377.424	102.23
377.635	5.97
377.845	8.02
378.055	132.95
378.266	-118.95
378.476	-0.17
378.686	57.17
378.897	55.12
379.107	145.24
379.317	100.18
379.528	-67.75
379.738	34.64
379.948	-77.99
380.158	65.36
380.369	79.7
380.579	10.07
380.789	-2.22
380.999	51.03
381.21	63.32
381.42	100.18
381.63	32.6
381.84	63.32
382.05	96.08
382.261	22.36
382.471	79.7
382.681	12.12
382.891	167.76
383.101	85.84
383.311	-55.47
383.521	12.12
383.731	44.88
383.941	75.6
384.151	71.51
384.361	-30.89
384.571	57.17
384.781	-0.17
384.991	190.29
385.201	120.66
385.411	71.51
385.621	-8.36
385.831	120.66
386.041	18.26
386.251	-59.56
386.461	75.6
386.671	46.93
386.881	-18.6
387.091	-39.08
387.301	118.61
387.511	69.46
387.72	69.46
387.93	85.84
388.14	-80.04
388.35	40.79
388.56	46.93
388.769	69.46
388.979	12.12
389.189	-47.27
389.399	44.88
389.609	87.89
389.818	14.17
390.028	71.51
390.238	18.26
390.447	38.74
390.657	36.69
390.867	-20.65
391.076	3.93
391.286	3.93
391.496	24.4
391.705	81.75
391.915	159.57
392.125	-10.41
392.334	-59.56
392.544	126.8
392.753	-0.17
392.963	10.07
393.172	51.03
393.382	-26.79
393.591	61.27
393.801	-12.46
394.01	96.08
394.22	63.32
394.429	10.07
394.639	-53.42
394.848	79.7
395.058	-10.41
395.267	44.88
395.477	1.88
395.686	48.98
395.895	235.35
396.105	169.81
396.314	63.32
396.524	46.93
396.733	18.26
396.942	75.6
397.152	85.84
397.361	137.04
397.57	-20.65
397.78	22.36
397.989	85.84
398.198	208.72
398.407	14.17
398.617	61.27
398.826	79.7
399.035	-30.89
399.244	135
399.453	71.51
399.663	130.9
399.872	116.56
400.081	-77.99
400.29	114.52
400.499	-30.89
400.708	57.17
400.917	63.32
401.127	14.17
401.336	-34.99
401.545	141.14
401.754	51.03
401.963	63.32
402.172	-10.41
402.381	18.26
402.59	24.4
402.799	59.22
403.008	126.8
403.217	22.36
403.426	147.28
403.635	-49.32
403.844	28.5
404.053	63.32
404.262	46.93
404.471	71.51
404.68	53.08
404.888	36.69
405.097	34.64
405.306	-26.79
405.515	69.46
405.724	36.69
405.933	87.89
406.142	75.6
406.35	126.8
406.559	-45.23
406.768	-8.36
406.977	112.47
407.185	-75.95
407.394	106.32
407.603	-43.18
407.812	-6.31
408.02	169.81
408.229	-20.65
408.438	12.12
408.646	-100.52
408.855	75.6
409.064	-39.08
409.272	63.32
409.481	77.65
409.69	-18.6
409.898	22.36
410.107	71.51
410.315	85.84
410.524	-51.37
410.733	51.03
410.941	-75.95
411.15	116.56
411.358	61.27
411.567	75.6
411.775	18.26
411.984	3.93
412.192	-51.37
412.401	-108.71
412.609	130.9
412.818	71.51
413.026	28.5
413.234	22.36
413.443	77.65
413.651	-14.51
413.86	18.26
414.068	91.99
414.276	104.28
414.485	-2.22
414.693	108.37
414.901	167.76
415.11	12.12
415.318	53.08
415.526	108.37
415.734	77.65
415.943	77.65
416.151	71.51
416.359	26.45
416.567	1.88
416.776	69.46
416.984	18.26
417.192	173.91
417.4	38.74
417.608	18.26
417.817	36.69
418.025	55.12
418.233	165.71
418.441	-24.75
418.649	-4.27
418.857	-45.23
419.065	198.48
419.273	3.93
419.481	85.84
419.689	34.64
419.897	1.88
420.105	-10.41
420.313	48.98
420.521	169.81
420.729	155.47
420.937	-41.13
421.145	-51.37
421.353	81.75
421.561	159.57
421.769	124.76
421.977	5.97
422.185	132.95
422.393	22.36
422.601	104.28
422.809	3.93
423.017	65.36
423.224	-49.32
423.432	153.43
423.64	12.12
423.848	51.03
424.056	20.31
424.263	-0.17
424.471	14.17
424.679	159.57
424.887	-6.31
425.094	83.8
425.302	22.36
425.51	-34.99
425.718	126.8
425.925	81.75
426.133	-6.31
426.341	149.33
426.548	89.94
426.756	-57.51
426.964	91.99
427.171	-39.08
427.379	91.99
427.586	38.74
427.794	85.84
428.001	118.61
428.209	5.97
428.417	137.04
428.624	55.12
428.832	100.18
429.039	55.12
429.247	67.41
429.454	57.17
429.662	145.24
429.869	87.89
430.076	36.69
430.284	165.71
430.491	169.81
430.699	65.36
430.906	198.48
431.114	149.33
431.321	184.15
431.528	100.18
431.736	71.51
431.943	38.74
432.15	87.89
432.358	143.19
432.565	161.62
432.772	-24.75
432.979	184.15
433.187	171.86
433.394	218.96
433.601	165.71
433.808	186.19
434.016	255.83
434.223	239.44
434.43	184.15
434.637	225.11
434.844	147.28
435.052	214.87
435.259	182.1
435.466	259.92
435.673	194.39
435.88	284.5
436.087	237.39
436.294	388.94
436.501	280.4
436.708	264.02
436.915	245.59
437.122	372.56
437.329	210.77
437.537	304.98
437.743	300.88
437.95	327.5
438.157	261.97
438.364	280.4
438.571	319.31
438.778	464.72
438.985	290.64
439.192	354.13
439.399	448.33
439.606	372.56
439.813	479.05
440.02	497.49
440.227	526.16
440.433	405.33
440.64	534.35
440.847	474.96
441.054	532.3
441.261	583.5
441.467	577.36
441.674	468.81
441.881	583.5
442.088	522.06
442.294	646.99
442.501	616.27
442.708	741.19
442.914	733
443.121	763.72
443.328	716.62
443.534	900.94
443.741	804.68
443.948	745.29
444.154	948.04
444.361	974.66
444.568	833.35
444.774	911.18
444.981	827.21
445.187	1029.96
445.394	1083.2
445.6	1101.64
445.807	1068.87
446.013	1146.69
446.22	1111.88
446.426	1210.18
446.633	1374.02
446.839	1447.74
447.046	1290.05
447.252	1439.55
447.459	1453.89
447.665	1455.94
447.871	1523.52
448.078	1685.31
448.284	1623.87
448.491	1836.86
448.697	1789.75
448.903	1877.82
449.11	2029.37
449.316	1904.44
449.522	2037.56
449.728	2205.49
449.935	2297.65
450.141	2131.76
450.347	2527.02
450.553	2457.39
450.76	2498.35
450.966	2664.24
451.172	2619.18
451.378	2809.64
451.584	2735.92
451.791	2946.86
451.997	3077.93
452.203	3180.32
452.409	3315.49
452.615	3454.75
452.821	3360.55
453.027	3594.01
453.233	3909.4
453.44	3768.09
453.646	3745.56
453.852	4024.09
454.058	4245.27
454.264	4329.24
454.47	4736.78
454.676	4761.36
454.882	5048.07
455.088	4599.57
455.294	5246.73
455.5	5412.61
455.705	5920.51
455.911	5965.56
456.117	5879.55
456.323	6125.3
456.529	6000.38
456.735	6838
456.941	6868.72
457.147	7263.97
457.352	7319.27
457.558	7614.18
457.764	8101.59
457.97	8173.27
458.176	8568.53
458.381	9049.8
458.587	9150.15
458.793	9582.28
458.999	9526.98
459.204	10655.41
459.41	11189.93
459.616	10997.42
459.821	11802.27
460.027	12256.92
460.233	12801.68
460.438	12756.63
460.644	13530.76
460.85	13645.45
461.055	14063.23
461.261	14665.33
461.466	14651
461.672	14956.15
461.878	16727.64
462.083	16461.4
462.289	16682.58
462.494	17469
462.7	17585.74
462.905	17802.82
463.111	19244.59
463.316	20336.16
463.522	20399.65
463.727	21300.75
463.932	21872.14
464.138	22564.35
464.343	23641.58
464.549	23944.68
464.754	25601.49
464.959	26068.42
465.165	26660.29
465.37	26375.62
465.575	26619.33
465.781	28241.32
465.986	29140.38
466.191	28360.1
466.397	28968.35
466.602	28476.83
466.807	29621.65
467.012	30363.01
467.218	30756.22
467.423	31120.76
467.628	31812.98
467.833	33297.75
468.038	32996.7
468.244	32435.56
468.449	33676.63
468.654	33281.37
468.859	33279.32
