Data from USB4F104151__23__10-23-54-544.txt Node

Date: Wed Feb 26 10:23:54 EST 2025
User: louis
Spectrometer: USB4F10415
Trigger mode: 4
Integration Time (sec): 1.000000E-1
Scans to average: 1
Electric dark correction enabled: true
Nonlinearity correction enabled: false
Boxcar width: 0
XAxis mode: Wavelengths
Number of Pixels in Spectrum: 3648
>>>>>Begin Spectral Data<<<<<
178.204	-373.24
178.424	-373.24
178.644	-373.24
178.864	-352.76
179.084	-408.06
179.304	-14.85
179.524	42.5
179.744	-47.62
179.964	71.17
180.184	36.35
180.404	3.58
180.624	-35.33
180.844	-31.23
181.064	-47.62
181.283	44.54
181.503	-72.19
181.723	50.69
181.943	-92.67
182.163	132.61
182.383	-51.71
182.602	56.83
182.822	218.62
183.042	101.89
183.262	-86.53
183.482	-37.38
183.701	36.35
183.921	77.31
184.141	-127.49
184.361	40.45
184.58	69.12
184.8	91.65
185.02	1.54
185.239	93.69
185.459	67.07
185.679	65.02
185.898	-145.92
186.118	105.98
186.338	48.64
186.557	99.84
186.777	-70.14
186.997	22.02
187.216	46.59
187.436	212.48
187.655	108.03
187.875	91.65
188.095	40.45
188.314	93.69
188.534	151.04
188.753	-47.62
188.973	132.61
189.192	83.45
189.412	26.11
189.631	46.59
189.851	114.17
190.07	169.47
190.29	-23.04
190.509	24.06
190.729	15.87
190.948	89.6
191.168	251.39
191.387	124.41
191.607	36.35
191.826	81.41
192.045	54.78
192.265	52.74
192.484	73.21
192.704	73.21
192.923	-6.66
193.142	101.89
193.362	110.08
193.581	144.89
193.8	130.56
194.02	93.69
194.239	48.64
194.458	101.89
194.678	87.55
194.897	22.02
195.116	67.07
195.335	50.69
195.555	13.82
195.774	54.78
195.993	105.98
196.212	26.11
196.432	48.64
196.651	-18.94
196.87	46.59
197.089	261.63
197.308	38.4
197.528	103.93
197.747	-33.28
197.966	83.45
198.185	140.8
198.404	-6.66
198.623	77.31
198.842	142.85
199.062	103.93
199.281	169.47
199.5	44.54
199.719	42.5
199.938	103.93
200.157	75.26
200.376	118.27
200.595	198.14
200.814	62.98
201.033	-16.9
201.252	204.28
201.471	40.45
201.69	50.69
201.909	36.35
202.128	132.61
202.347	138.75
202.566	46.59
202.785	-14.85
203.004	-23.04
203.223	214.52
203.442	-8.7
203.661	-16.9
203.879	54.78
204.098	183.81
204.317	-18.94
204.536	83.45
204.755	42.5
204.974	114.17
205.193	9.73
205.411	105.98
205.63	120.32
205.849	28.16
206.068	5.63
206.287	-18.94
206.505	108.03
206.724	75.26
206.943	-0.51
207.162	-84.48
207.381	48.64
207.599	-8.7
207.818	99.84
208.037	-51.71
208.255	24.06
208.474	-2.56
208.693	42.5
208.911	71.17
209.13	124.41
209.349	58.88
209.567	101.89
209.786	48.64
210.005	71.17
210.223	75.26
210.442	-102.91
210.661	48.64
210.879	65.02
211.098	30.21
211.316	-2.56
211.535	73.21
211.753	91.65
211.972	103.93
212.191	-14.85
212.409	9.73
212.628	112.13
212.846	-18.94
213.065	67.07
213.283	97.79
213.502	7.68
213.72	30.21
213.938	9.73
214.157	-49.66
214.375	71.17
214.594	-8.7
214.812	32.26
215.031	54.78
215.249	58.88
215.467	-2.56
215.686	83.45
215.904	79.36
216.122	69.12
216.341	142.85
216.559	-18.94
216.778	97.79
216.996	81.41
217.214	32.26
217.432	22.02
217.651	-31.23
217.869	124.41
218.087	71.17
218.306	-10.75
218.524	79.36
218.742	3.58
218.96	95.74
219.179	9.73
219.397	67.07
219.615	179.71
219.833	50.69
220.051	-37.38
220.27	24.06
220.488	142.85
220.706	103.93
220.924	-57.86
221.142	22.02
221.36	71.17
221.578	79.36
221.796	15.87
222.015	38.4
222.233	116.22
222.451	134.65
222.669	22.02
222.887	108.03
223.105	-31.23
223.323	46.59
223.541	24.06
223.759	157.18
223.977	54.78
224.195	173.57
224.413	120.32
224.631	83.45
224.849	65.02
225.067	124.41
225.285	38.4
225.503	-10.75
225.721	-27.14
225.939	103.93
226.157	42.5
226.375	226.81
226.592	-16.9
226.81	46.59
227.028	159.23
227.246	95.74
227.464	85.5
227.682	54.78
227.9	77.31
228.117	62.98
228.335	136.7
228.553	9.73
228.771	-33.28
228.989	15.87
229.206	120.32
229.424	75.26
229.642	15.87
229.86	-111.1
230.077	81.41
230.295	81.41
230.513	32.26
230.731	60.93
230.948	153.09
231.166	134.65
231.384	15.87
231.601	-23.04
231.819	124.41
232.037	-18.94
232.254	-14.85
232.472	58.88
232.689	-68.09
232.907	132.61
233.125	-12.8
233.342	-25.09
233.56	54.78
233.777	22.02
233.995	19.97
234.213	58.88
234.43	65.02
234.648	1.54
234.865	40.45
235.083	40.45
235.3	54.78
235.518	134.65
235.735	118.27
235.953	87.55
236.17	73.21
236.388	60.93
236.605	71.17
236.822	103.93
237.04	71.17
237.257	79.36
237.475	-76.29
237.692	40.45
237.909	140.8
238.127	24.06
238.344	77.31
238.562	26.11
238.779	17.92
238.996	-6.66
239.214	1.54
239.431	60.93
239.648	22.02
239.865	77.31
240.083	128.51
240.3	-10.75
240.517	71.17
240.735	-4.61
240.952	89.6
241.169	75.26
241.386	130.56
241.603	19.97
241.821	-2.56
242.038	118.27
242.255	83.45
242.472	-23.04
242.689	124.41
242.907	1.54
243.124	34.3
243.341	95.74
243.558	19.97
243.775	34.3
243.992	-76.29
244.209	91.65
244.426	142.85
244.643	62.98
244.86	46.59
245.078	87.55
245.295	81.41
245.512	38.4
245.729	13.82
245.946	46.59
246.163	42.5
246.38	65.02
246.597	22.02
246.814	3.58
247.031	122.37
247.248	26.11
247.464	46.59
247.681	24.06
247.898	79.36
248.115	65.02
248.332	26.11
248.549	146.94
248.766	175.61
248.983	85.5
249.2	91.65
249.417	50.69
249.633	-33.28
249.85	155.13
250.067	11.78
250.284	185.85
250.501	34.3
250.717	62.98
250.934	-82.43
251.151	13.82
251.368	69.12
251.585	91.65
251.801	24.06
252.018	-45.57
252.235	146.94
252.451	-45.57
252.668	75.26
252.885	138.75
253.102	60.93
253.318	-6.66
253.535	38.4
253.752	3.58
253.968	-12.8
254.185	-88.57
254.401	58.88
254.618	87.55
254.835	-41.47
255.051	67.07
255.268	118.27
255.484	56.83
255.701	-8.7
255.917	-20.99
256.134	-18.94
256.351	40.45
256.567	-82.43
256.784	32.26
257	-84.48
257.217	146.94
257.433	169.47
257.65	62.98
257.866	110.08
258.082	-20.99
258.299	17.92
258.515	97.79
258.732	28.16
258.948	26.11
259.165	103.93
259.381	-70.14
259.597	19.97
259.814	75.26
260.03	-10.75
260.246	-4.61
260.463	112.13
260.679	161.28
260.895	44.54
261.112	81.41
261.328	87.55
261.544	26.11
261.761	153.09
261.977	-47.62
262.193	-84.48
262.409	140.8
262.626	26.11
262.842	-45.57
263.058	-10.75
263.274	142.85
263.49	17.92
263.707	157.18
263.923	52.74
264.139	-92.67
264.355	54.78
264.571	73.21
264.787	93.69
265.004	126.46
265.22	46.59
265.436	-10.75
265.652	3.58
265.868	24.06
266.084	-39.42
266.3	36.35
266.516	-27.14
266.732	22.02
266.948	-6.66
267.164	-39.42
267.38	101.89
267.596	73.21
267.812	151.04
268.028	24.06
268.244	-4.61
268.46	91.65
268.676	62.98
268.892	79.36
269.108	-25.09
269.324	-16.9
269.54	-35.33
269.756	124.41
269.972	-10.75
270.188	22.02
270.403	-82.43
270.619	11.78
270.835	99.84
271.051	-10.75
271.267	-72.19
271.483	9.73
271.698	99.84
271.914	58.88
272.13	144.89
272.346	17.92
272.562	32.26
272.777	198.14
272.993	-6.66
273.209	36.35
273.425	83.45
273.64	48.64
273.856	157.18
274.072	-12.8
274.287	-33.28
274.503	65.02
274.719	93.69
274.934	13.82
275.15	-68.09
275.366	83.45
275.581	-82.43
275.797	79.36
276.012	71.17
276.228	-8.7
276.444	69.12
276.659	153.09
276.875	-57.86
277.09	56.83
277.306	-4.61
277.521	42.5
277.737	87.55
277.952	30.21
278.168	40.45
278.383	97.79
278.599	24.06
278.814	38.4
279.03	83.45
279.245	99.84
279.461	44.54
279.676	54.78
279.892	36.35
280.107	-8.7
280.322	-74.24
280.538	81.41
280.753	3.58
280.969	40.45
281.184	-23.04
281.399	126.46
281.615	1.54
281.83	118.27
282.045	-68.09
282.26	-2.56
282.476	58.88
282.691	44.54
282.906	48.64
283.122	134.65
283.337	34.3
283.552	128.51
283.767	36.35
283.983	99.84
284.198	24.06
284.413	87.55
284.628	-76.29
284.843	140.8
285.058	52.74
285.274	26.11
285.489	77.31
285.704	44.54
285.919	5.63
286.134	58.88
286.349	46.59
286.564	11.78
286.779	212.48
286.995	11.78
287.21	-43.52
287.425	103.93
287.64	-0.51
287.855	81.41
288.07	-39.42
288.285	114.17
288.5	99.84
288.715	17.92
288.93	81.41
289.145	-6.66
289.36	112.13
289.575	30.21
289.79	75.26
290.004	-10.75
290.219	69.12
290.434	28.16
290.649	71.17
290.864	-16.9
291.079	-0.51
291.294	75.26
291.509	19.97
291.724	-12.8
291.938	-4.61
292.153	42.5
292.368	7.68
292.583	77.31
292.798	95.74
293.012	77.31
293.227	134.65
293.442	42.5
293.657	132.61
293.871	159.23
294.086	85.5
294.301	169.47
294.516	112.13
294.73	50.69
294.945	26.11
295.16	58.88
295.374	151.04
295.589	114.17
295.804	-16.9
296.018	-14.85
296.233	116.22
296.447	26.11
296.662	-16.9
296.877	220.67
297.091	124.41
297.306	-2.56
297.52	44.54
297.735	130.56
297.949	-35.33
298.164	-20.99
298.378	58.88
298.593	38.4
298.807	-35.33
299.022	73.21
299.236	183.81
299.451	24.06
299.665	-88.57
299.88	-31.23
300.094	99.84
300.309	71.17
300.523	120.32
300.737	-4.61
300.952	54.78
301.166	81.41
301.381	-4.61
301.595	42.5
301.809	52.74
302.024	-10.75
302.238	-59.9
302.452	132.61
302.667	30.21
302.881	181.76
303.095	134.65
303.309	99.84
303.524	-53.76
303.738	42.5
303.952	62.98
304.166	77.31
304.381	-76.29
304.595	110.08
304.809	-41.47
305.023	19.97
305.237	91.65
305.452	34.3
305.666	15.87
305.88	97.79
306.094	105.98
306.308	116.22
306.522	103.93
306.736	112.13
306.95	142.85
307.164	50.69
307.379	3.58
307.593	32.26
307.807	132.61
308.021	58.88
308.235	83.45
308.449	-61.95
308.663	5.63
308.877	189.95
309.091	32.26
309.305	173.57
309.519	-47.62
309.733	110.08
309.947	-0.51
310.161	81.41
310.374	69.12
310.588	112.13
310.802	-27.14
311.016	-64
311.23	81.41
311.444	-117.25
311.658	26.11
311.872	58.88
312.085	67.07
312.299	153.09
312.513	130.56
312.727	124.41
312.941	-119.29
313.154	15.87
313.368	11.78
313.582	50.69
313.796	36.35
314.009	9.73
314.223	71.17
314.437	54.78
314.651	79.36
314.864	52.74
315.078	22.02
315.292	-43.52
315.505	22.02
315.719	126.46
315.933	38.4
316.146	-20.99
316.36	-94.72
316.573	77.31
316.787	101.89
317.001	65.02
317.214	3.58
317.428	-33.28
317.641	19.97
317.855	-45.57
318.068	50.69
318.282	93.69
318.495	169.47
318.709	36.35
318.922	67.07
319.136	183.81
319.349	120.32
319.563	-66.05
319.776	65.02
319.99	-92.67
320.203	54.78
320.417	-51.71
320.63	126.46
320.843	138.75
321.057	38.4
321.27	101.89
321.483	112.13
321.697	155.13
321.91	40.45
322.124	15.87
322.337	138.75
322.55	-66.05
322.763	19.97
322.977	11.78
323.19	-53.76
323.403	34.3
323.617	24.06
323.83	108.03
324.043	40.45
324.256	75.26
324.469	-72.19
324.683	97.79
324.896	7.68
325.109	-8.7
325.322	-74.24
325.535	108.03
325.748	73.21
325.962	-6.66
326.175	67.07
326.388	17.92
326.601	175.61
326.814	-45.57
327.027	89.6
327.24	157.18
327.453	-55.81
327.666	93.69
327.879	99.84
328.092	65.02
328.305	-45.57
328.518	28.16
328.731	-16.9
328.944	-25.09
329.157	85.5
329.37	-33.28
329.583	241.15
329.796	155.13
330.009	-16.9
330.222	54.78
330.435	103.93
330.648	38.4
330.861	-8.7
331.073	71.17
331.286	81.41
331.499	52.74
331.712	-45.57
331.925	54.78
332.138	5.63
332.35	110.08
332.563	24.06
332.776	140.8
332.989	-55.81
333.202	42.5
333.414	75.26
333.627	15.87
333.84	73.21
334.053	42.5
334.265	62.98
334.478	-49.66
334.691	5.63
334.903	-29.18
335.116	15.87
335.329	-37.38
335.541	62.98
335.754	132.61
335.966	15.87
336.179	67.07
336.392	79.36
336.604	-4.61
336.817	46.59
337.029	87.55
337.242	79.36
337.454	146.94
337.667	38.4
337.88	200.19
338.092	116.22
338.305	167.42
338.517	-43.52
338.729	85.5
338.942	134.65
339.154	-117.25
339.367	-59.9
339.579	28.16
339.792	-39.42
340.004	128.51
340.217	42.5
340.429	73.21
340.641	-61.95
340.854	24.06
341.066	34.3
341.278	138.75
341.491	181.76
341.703	46.59
341.915	-35.33
342.128	185.85
342.34	169.47
342.552	26.11
342.764	32.26
342.977	7.68
343.189	73.21
343.401	54.78
343.613	-61.95
343.826	-23.04
344.038	-49.66
344.25	103.93
344.462	-33.28
344.674	52.74
344.886	-18.94
345.099	93.69
345.311	75.26
345.523	73.21
345.735	-72.19
345.947	48.64
346.159	81.41
346.371	-8.7
346.583	-49.66
346.795	224.76
347.007	65.02
347.219	71.17
347.431	75.26
347.643	69.12
347.855	-14.85
348.067	206.33
348.279	-35.33
348.491	67.07
348.703	95.74
348.915	46.59
349.127	19.97
349.339	65.02
349.551	1.54
349.763	114.17
349.975	26.11
350.187	48.64
350.399	200.19
350.61	89.6
350.822	-59.9
351.034	85.5
351.246	54.78
351.458	65.02
351.669	34.3
351.881	67.07
352.093	103.93
352.305	148.99
352.517	34.3
352.728	124.41
352.94	17.92
353.152	108.03
353.363	-35.33
353.575	46.59
353.787	110.08
353.999	97.79
354.21	183.81
354.422	-6.66
354.633	3.58
354.845	79.36
355.057	17.92
355.268	101.89
355.48	124.41
355.692	-68.09
355.903	24.06
356.115	-35.33
356.326	-39.42
356.538	120.32
356.749	112.13
356.961	112.13
357.172	-12.8
357.384	3.58
357.595	235
357.807	30.21
358.018	-14.85
358.23	17.92
358.441	206.33
358.653	48.64
358.864	15.87
359.075	-27.14
359.287	110.08
359.498	151.04
359.709	120.32
359.921	30.21
360.132	30.21
360.344	13.82
360.555	81.41
360.766	112.13
360.977	99.84
361.189	112.13
361.4	85.5
361.611	148.99
361.823	97.79
362.034	28.16
362.245	-57.86
362.456	-20.99
362.667	58.88
362.879	-147.97
363.09	73.21
363.301	46.59
363.512	79.36
363.723	-98.81
363.935	46.59
364.146	112.13
364.357	42.5
364.568	44.54
364.779	-76.29
364.99	120.32
365.201	-51.71
365.412	79.36
365.623	-2.56
365.834	58.88
366.045	-16.9
366.256	50.69
366.467	134.65
366.678	22.02
366.889	122.37
367.1	-55.81
367.311	134.65
367.522	-43.52
367.733	52.74
367.944	44.54
368.155	15.87
368.366	75.26
368.577	128.51
368.788	171.52
368.999	1.54
369.209	75.26
369.42	216.57
369.631	181.76
369.842	69.12
370.053	-16.9
370.264	130.56
370.474	26.11
370.685	118.27
370.896	-18.94
371.107	99.84
371.317	81.41
371.528	-2.56
371.739	52.74
371.95	26.11
372.16	62.98
372.371	-64
372.582	-76.29
372.792	120.32
373.003	81.41
373.214	-23.04
373.424	36.35
373.635	9.73
373.846	194.05
374.056	-84.48
374.267	30.21
374.477	75.26
374.688	-43.52
374.898	46.59
375.109	91.65
375.319	30.21
375.53	132.61
375.74	89.6
375.951	40.45
376.161	87.55
376.372	48.64
376.582	-53.76
376.793	32.26
377.003	40.45
377.214	-59.9
377.424	91.65
377.635	-4.61
377.845	-12.8
378.055	175.61
378.266	-49.66
378.476	22.02
378.686	83.45
378.897	17.92
379.107	65.02
379.317	34.3
379.528	-55.81
379.738	114.17
379.948	-37.38
380.158	132.61
380.369	-0.51
380.579	75.26
380.789	11.78
380.999	108.03
381.21	120.32
381.42	101.89
381.63	36.35
381.84	175.61
382.05	120.32
382.261	99.84
382.471	144.89
382.681	-16.9
382.891	124.41
383.101	52.74
383.311	15.87
383.521	38.4
383.731	30.21
383.941	171.52
384.151	130.56
384.361	-23.04
384.571	40.45
384.781	30.21
384.991	194.05
385.201	134.65
385.411	130.56
385.621	58.88
385.831	54.78
386.041	36.35
386.251	22.02
386.461	138.75
386.671	15.87
386.881	132.61
387.091	44.54
387.301	22.02
387.511	13.82
387.72	24.06
387.93	69.12
388.14	-61.95
388.35	9.73
388.56	183.81
388.769	112.13
388.979	9.73
389.189	-18.94
389.399	-66.05
389.609	128.51
389.818	114.17
390.028	34.3
390.238	75.26
390.447	-16.9
390.657	42.5
390.867	62.98
391.076	-35.33
391.286	77.31
391.496	65.02
391.705	15.87
391.915	114.17
392.125	183.81
392.334	32.26
392.544	67.07
392.753	97.79
392.963	42.5
393.172	62.98
393.382	3.58
393.591	247.29
393.801	42.5
394.01	56.83
394.22	108.03
394.429	54.78
394.639	79.36
394.848	87.55
395.058	116.22
395.267	75.26
395.477	54.78
395.686	97.79
395.895	165.37
396.105	306.68
396.314	5.63
396.524	-39.42
396.733	7.68
396.942	126.46
397.152	69.12
397.361	148.99
397.57	62.98
397.78	58.88
397.989	40.45
398.198	222.72
398.407	71.17
398.617	91.65
398.826	126.46
399.035	28.16
399.244	122.37
399.453	26.11
399.663	138.75
399.872	167.42
400.081	-102.91
400.29	134.65
400.499	1.54
400.708	148.99
400.917	46.59
401.127	19.97
401.336	-2.56
401.545	171.52
401.754	81.41
401.963	138.75
402.172	-25.09
402.381	73.21
402.59	32.26
402.799	19.97
403.008	153.09
403.217	81.41
403.426	65.02
403.635	-68.09
403.844	24.06
404.053	99.84
404.262	11.78
404.471	167.42
404.68	157.18
404.888	-8.7
405.097	-10.75
405.306	40.45
405.515	140.8
405.724	97.79
405.933	56.83
406.142	83.45
406.35	105.98
406.559	19.97
406.768	40.45
406.977	130.56
407.185	24.06
407.394	157.18
407.603	-100.86
407.812	48.64
408.02	165.37
408.229	87.55
408.438	118.27
408.646	-74.24
408.855	69.12
409.064	114.17
409.272	42.5
409.481	73.21
409.69	-51.71
409.898	-86.53
410.107	17.92
410.315	122.37
410.524	-57.86
410.733	24.06
410.941	9.73
411.15	48.64
411.358	69.12
411.567	114.17
411.775	54.78
411.984	-27.14
412.192	87.55
412.401	46.59
412.609	237.05
412.818	163.33
413.026	46.59
413.234	38.4
413.443	-25.09
413.651	-39.42
413.86	42.5
414.068	202.24
414.276	126.46
414.485	-57.86
414.693	198.14
414.901	157.18
415.11	44.54
415.318	13.82
415.526	9.73
415.734	200.19
415.943	-8.7
416.151	194.05
416.359	87.55
416.567	46.59
416.776	83.45
416.984	79.36
417.192	177.66
417.4	28.16
417.608	-23.04
417.817	-8.7
418.025	116.22
418.233	253.44
418.441	-64
418.649	-6.66
418.857	46.59
419.065	120.32
419.273	-10.75
419.481	110.08
419.689	-27.14
419.897	-70.14
420.105	-20.99
420.313	128.51
420.521	93.69
420.729	163.33
420.937	3.58
421.145	-98.81
421.353	83.45
421.561	140.8
421.769	38.4
421.977	-72.19
422.185	75.26
422.393	-23.04
422.601	48.64
422.809	87.55
423.017	22.02
423.224	112.13
423.432	128.51
423.64	34.3
423.848	99.84
424.056	-29.18
424.263	71.17
424.471	-20.99
424.679	93.69
424.887	1.54
425.094	140.8
425.302	126.46
425.51	67.07
425.718	99.84
425.925	101.89
426.133	17.92
426.341	171.52
426.548	67.07
426.756	-0.51
426.964	48.64
427.171	36.35
427.379	13.82
427.586	52.74
427.794	85.5
428.001	167.42
428.209	151.04
428.417	226.81
428.624	159.23
428.832	95.74
429.039	89.6
429.247	46.59
429.454	79.36
429.662	210.43
429.869	114.17
430.076	95.74
430.284	108.03
430.491	153.09
430.699	79.36
430.906	259.58
431.114	120.32
431.321	85.5
431.528	105.98
431.736	134.65
431.943	212.48
432.15	146.94
432.358	132.61
432.565	265.72
432.772	26.11
432.979	173.57
433.187	77.31
433.394	194.05
433.601	89.6
433.808	181.76
434.016	232.96
434.223	224.76
434.43	126.46
434.637	329.21
434.844	286.2
435.052	247.29
435.259	257.53
435.466	278.01
435.673	165.37
435.88	208.38
436.087	222.72
436.294	327.16
436.501	282.11
436.708	206.33
436.915	288.25
437.122	349.69
437.329	275.96
437.537	243.2
437.743	243.2
437.95	460.28
438.157	284.16
438.364	308.73
438.571	355.83
438.778	339.45
438.985	376.31
439.192	452.09
439.399	339.45
439.606	388.6
439.813	417.27
440.02	509.43
440.227	615.93
440.433	525.82
440.64	413.18
440.847	417.27
441.054	474.62
441.261	656.89
441.467	509.43
441.674	454.14
441.881	658.93
442.088	480.76
442.294	681.46
442.501	615.93
442.708	667.13
442.914	603.64
443.121	648.69
443.328	771.57
443.534	687.61
443.741	763.38
443.948	654.84
444.154	835.06
444.361	957.94
444.568	824.82
444.774	919.03
444.981	771.57
445.187	1015.28
445.394	865.78
445.6	916.98
445.807	1123.82
446.013	1019.38
446.22	988.66
446.426	1121.77
446.633	1097.2
446.839	1328.62
447.046	1103.34
447.252	1218.03
447.459	1254.89
447.665	1281.52
447.871	1496.55
448.078	1730.02
448.284	1605.1
448.491	1596.9
448.697	1644.01
448.903	1682.92
449.11	1756.65
449.316	1730.02
449.522	1967.59
449.728	1953.25
449.935	2117.09
450.141	2108.9
450.347	2072.03
450.553	2166.24
450.76	2235.87
450.966	2405.85
451.172	2383.32
451.378	2627.03
451.584	2569.69
451.791	2733.53
451.997	2817.49
452.203	2917.84
452.409	2997.71
452.615	3091.92
452.821	2905.56
453.027	3106.26
453.233	3610.06
453.44	3485.13
453.646	3605.96
453.852	3632.58
454.058	3753.41
454.264	3935.68
454.47	4085.19
454.676	4392.38
454.882	4689.34
455.088	4494.78
455.294	4670.9
455.5	5066.16
455.705	5180.85
455.911	5164.47
456.117	5354.93
456.323	5529
456.529	5717.42
456.735	6022.56
456.941	6141.35
457.147	6587.8
457.352	6606.24
457.558	6815.13
457.764	7447.95
457.97	7609.74
458.176	7808.39
458.381	8066.44
458.587	8244.61
458.793	8813.95
458.999	8650.11
459.204	9569.65
459.41	10106.21
459.616	10098.02
459.821	10493.28
460.027	10870.11
460.233	11576.66
460.438	11572.56
460.644	12242.25
460.85	12315.97
461.055	12766.53
461.261	13495.6
461.466	13104.44
461.672	13237.56
461.878	15068.44
462.083	14705.95
462.289	15011.1
462.494	15633.68
462.7	15994.12
462.905	16162.06
463.111	17267.96
463.316	18310.38
463.522	18511.08
463.727	19010.78
463.932	20073.68
464.138	20593.86
464.343	21355.71
464.549	21634.23
464.754	23258.27
464.959	23764.12
465.165	24243.34
465.37	23895.19
465.575	23702.68
465.781	25252.99
465.986	25799.8
466.191	25746.55
466.397	26293.36
466.602	25427.07
466.807	27294.82
467.012	27538.52
467.218	27837.53
467.423	28142.67
467.628	28861.51
467.833	30082.1
468.038	29443.13
468.244	29246.53
468.449	30477.36
