Data from USB4F104151__73__09-29-51-293.txt Node

Date: Wed Feb 26 09:29:51 EST 2025
User: louis
Spectrometer: USB4F10415
Trigger mode: 4
Integration Time (sec): 1.000000E-1
Scans to average: 1
Electric dark correction enabled: true
Nonlinearity correction enabled: false
Boxcar width: 0
XAxis mode: Wavelengths
Number of Pixels in Spectrum: 3648
>>>>>Begin Spectral Data<<<<<
178.204	-339.45
178.424	-339.45
178.644	-339.45
178.864	-394.75
179.084	-384.51
179.304	-38.4
179.524	-89.6
179.744	16.9
179.964	8.7
180.184	66.05
180.404	31.23
180.624	-5.63
180.844	39.42
181.064	-108.03
181.283	12.8
181.503	0.51
181.723	66.05
181.943	-89.6
182.163	190.97
182.383	-56.83
182.602	39.42
182.822	96.77
183.042	127.49
183.262	27.14
183.482	-46.59
183.701	41.47
183.921	25.09
184.141	-24.06
184.361	111.1
184.58	31.23
184.8	43.52
185.02	-7.68
185.239	76.29
185.459	-1.54
185.679	102.91
185.898	-30.21
186.118	33.28
186.338	41.47
186.557	94.72
186.777	-11.78
186.997	43.52
187.216	43.52
187.436	147.97
187.655	100.86
187.875	113.15
188.095	51.71
188.314	92.67
188.534	158.21
188.753	31.23
188.973	98.81
189.192	162.3
189.412	55.81
189.631	33.28
189.851	109.05
190.07	117.25
190.29	-34.3
190.509	41.47
190.729	-15.87
190.948	104.96
191.168	195.07
191.387	92.67
191.607	84.48
191.826	59.9
192.045	53.76
192.265	31.23
192.484	45.57
192.704	-22.02
192.923	-83.45
193.142	178.69
193.362	113.15
193.581	86.53
193.8	78.33
194.02	98.81
194.239	72.19
194.458	107.01
194.678	64
194.897	14.85
195.116	86.53
195.335	0.51
195.555	88.57
195.774	-1.54
195.993	76.29
196.212	-1.54
196.432	16.9
196.651	-7.68
196.87	25.09
197.089	121.34
197.308	84.48
197.528	190.97
197.747	25.09
197.966	143.87
198.185	125.44
198.404	49.66
198.623	125.44
198.842	76.29
199.062	125.44
199.281	88.57
199.5	18.94
199.719	123.39
199.938	166.4
200.157	25.09
200.376	100.86
200.595	176.64
200.814	123.39
201.033	10.75
201.252	115.2
201.471	20.99
201.69	84.48
201.909	78.33
202.128	150.01
202.347	-38.4
202.566	25.09
202.785	-50.69
203.004	-22.02
203.223	219.64
203.442	84.48
203.661	-79.36
203.879	70.14
204.098	94.72
204.317	29.18
204.536	49.66
204.755	14.85
204.974	84.48
205.193	-26.11
205.411	119.29
205.63	68.09
205.849	-30.21
206.068	-24.06
206.287	-77.31
206.505	55.81
206.724	2.56
206.943	-5.63
207.162	-3.58
207.381	68.09
207.599	51.71
207.818	-3.58
208.037	-19.97
208.255	10.75
208.474	90.62
208.693	16.9
208.911	51.71
209.13	-22.02
209.349	45.57
209.567	68.09
209.786	74.24
210.005	147.97
210.223	25.09
210.442	-75.26
210.661	43.52
210.879	41.47
211.098	76.29
211.316	33.28
211.535	90.62
211.753	43.52
211.972	47.62
212.191	23.04
212.409	96.77
212.628	53.76
212.846	-26.11
213.065	29.18
213.283	45.57
213.502	68.09
213.72	25.09
213.938	117.25
214.157	59.9
214.375	70.14
214.594	4.61
214.812	92.67
215.031	0.51
215.249	18.94
215.467	61.95
215.686	59.9
215.904	55.81
216.122	70.14
216.341	156.16
216.559	115.2
216.778	43.52
216.996	55.81
217.214	-5.63
217.432	41.47
217.651	-91.65
217.869	-15.87
218.087	41.47
218.306	25.09
218.524	57.86
218.742	23.04
218.96	121.34
219.179	66.05
219.397	43.52
219.615	125.44
219.833	92.67
220.051	-26.11
220.27	10.75
220.488	66.05
220.706	78.33
220.924	23.04
221.142	2.56
221.36	139.77
221.578	37.38
221.796	64
222.015	-52.74
222.233	55.81
222.451	150.01
222.669	41.47
222.887	51.71
223.105	0.51
223.323	109.05
223.541	-26.11
223.759	47.62
223.977	31.23
224.195	96.77
224.413	109.05
224.631	66.05
224.849	102.91
225.067	229.88
225.285	43.52
225.503	-24.06
225.721	-120.32
225.939	35.33
226.157	37.38
226.375	135.68
226.592	47.62
226.81	47.62
227.028	166.4
227.246	119.29
227.464	0.51
227.682	152.06
227.9	115.2
228.117	18.94
228.335	29.18
228.553	25.09
228.771	-22.02
228.989	68.09
229.206	90.62
229.424	-22.02
229.642	4.61
229.86	-1.54
230.077	127.49
230.295	-26.11
230.513	68.09
230.731	117.25
230.948	125.44
231.166	158.21
231.384	76.29
231.601	23.04
231.819	256.51
232.037	0.51
232.254	-75.26
232.472	-9.73
232.689	-42.5
232.907	209.4
233.125	-3.58
233.342	-26.11
233.56	-22.02
233.777	18.94
233.995	64
234.213	47.62
234.43	33.28
234.648	59.9
234.865	-19.97
235.083	-5.63
235.3	16.9
235.518	78.33
235.735	82.43
235.953	107.01
236.17	25.09
236.388	27.14
236.605	57.86
236.822	188.93
237.04	139.77
237.257	109.05
237.475	-38.4
237.692	-19.97
237.909	78.33
238.127	25.09
238.344	-17.92
238.562	55.81
238.779	-120.32
238.996	-5.63
239.214	53.76
239.431	115.2
239.648	-3.58
239.865	37.38
240.083	45.57
240.3	-34.3
240.517	39.42
240.735	92.67
240.952	125.44
241.169	68.09
241.386	8.7
241.603	10.75
241.821	-30.21
242.038	88.57
242.255	133.63
242.472	-48.64
242.689	2.56
242.907	72.19
243.124	-28.16
243.341	-38.4
243.558	-32.26
243.775	-24.06
243.992	27.14
244.209	-22.02
244.426	156.16
244.643	123.39
244.86	39.42
245.078	88.57
245.295	57.86
245.512	23.04
245.729	-44.54
245.946	98.81
246.163	96.77
246.38	27.14
246.597	2.56
246.814	-34.3
247.031	68.09
247.248	-22.02
247.464	109.05
247.681	-1.54
247.898	66.05
248.115	156.16
248.332	-24.06
248.549	158.21
248.766	205.31
248.983	78.33
249.2	-9.73
249.417	107.01
249.633	-42.5
249.85	129.53
250.067	8.7
250.284	47.62
250.501	133.63
250.717	39.42
250.934	-19.97
251.151	0.51
251.368	66.05
251.585	-15.87
251.801	82.43
252.018	-5.63
252.235	78.33
252.451	-124.41
252.668	-22.02
252.885	115.2
253.102	57.86
253.318	6.66
253.535	61.95
253.752	45.57
253.968	72.19
254.185	-38.4
254.401	53.76
254.618	55.81
254.835	8.7
255.051	90.62
255.268	35.33
255.484	61.95
255.701	76.29
255.917	-9.73
256.134	-24.06
256.351	2.56
256.567	27.14
256.784	59.9
257	-19.97
257.217	86.53
257.433	100.86
257.65	-9.73
257.866	115.2
258.082	-81.41
258.299	-77.31
258.515	27.14
258.732	8.7
258.948	-54.78
259.165	57.86
259.381	-50.69
259.597	23.04
259.814	82.43
260.03	-32.26
260.246	49.66
260.463	88.57
260.679	111.1
260.895	2.56
261.112	35.33
261.328	74.24
261.544	-60.93
261.761	133.63
261.977	29.18
262.193	-34.3
262.409	147.97
262.626	31.23
262.842	41.47
263.058	16.9
263.274	104.96
263.49	35.33
263.707	96.77
263.923	14.85
264.139	-9.73
264.355	35.33
264.571	100.86
264.787	2.56
265.004	84.48
265.22	-15.87
265.436	-48.64
265.652	127.49
265.868	141.82
266.084	-28.16
266.3	76.29
266.516	10.75
266.732	23.04
266.948	100.86
267.164	68.09
267.38	-19.97
267.596	78.33
267.812	190.97
268.028	98.81
268.244	-62.98
268.46	-30.21
268.676	-38.4
268.892	39.42
269.108	-87.55
269.324	-69.12
269.54	-32.26
269.756	123.39
269.972	-30.21
270.188	-30.21
270.403	-91.65
270.619	35.33
270.835	170.49
271.051	66.05
271.267	27.14
271.483	47.62
271.698	45.57
271.914	131.58
272.13	59.9
272.346	-52.74
272.562	90.62
272.777	133.63
272.993	82.43
273.209	12.8
273.425	88.57
273.64	-34.3
273.856	59.9
274.072	37.38
274.287	35.33
274.503	121.34
274.719	98.81
274.934	10.75
275.15	-93.69
275.366	-5.63
275.581	-26.11
275.797	-22.02
276.012	47.62
276.228	-62.98
276.444	-5.63
276.659	88.57
276.875	-30.21
277.09	14.85
277.306	66.05
277.521	-62.98
277.737	66.05
277.952	2.56
278.168	18.94
278.383	47.62
278.599	82.43
278.814	0.51
279.03	35.33
279.245	68.09
279.461	14.85
279.676	57.86
279.892	-5.63
280.107	-97.79
280.322	31.23
280.538	33.28
280.753	23.04
280.969	10.75
281.184	-50.69
281.399	139.77
281.615	12.8
281.83	66.05
282.045	-26.11
282.26	-62.98
282.476	53.76
282.691	43.52
282.906	2.56
283.122	-11.78
283.337	-5.63
283.552	107.01
283.767	-87.55
283.983	109.05
284.198	-1.54
284.413	117.25
284.628	-46.59
284.843	45.57
285.058	92.67
285.274	12.8
285.489	18.94
285.704	113.15
285.919	-38.4
286.134	12.8
286.349	90.62
286.564	78.33
286.779	154.11
286.995	-34.3
287.21	-40.45
287.425	6.66
287.64	76.29
287.855	43.52
288.07	-56.83
288.285	102.91
288.5	49.66
288.715	72.19
288.93	2.56
289.145	-9.73
289.36	74.24
289.575	10.75
289.79	41.47
290.004	-24.06
290.219	119.29
290.434	49.66
290.649	-46.59
290.864	10.75
291.079	55.81
291.294	66.05
291.509	90.62
291.724	131.58
291.938	51.71
292.153	84.48
292.368	14.85
292.583	10.75
292.798	18.94
293.012	45.57
293.227	76.29
293.442	10.75
293.657	10.75
293.871	78.33
294.086	88.57
294.301	133.63
294.516	57.86
294.73	31.23
294.945	-52.74
295.16	86.53
295.374	94.72
295.589	76.29
295.804	-15.87
296.018	51.71
296.233	111.1
296.447	18.94
296.662	-62.98
296.877	23.04
297.091	109.05
297.306	57.86
297.52	2.56
297.735	78.33
297.949	-15.87
298.164	98.81
298.378	-34.3
298.593	-13.82
298.807	10.75
299.022	23.04
299.236	147.97
299.451	-9.73
299.665	-60.93
299.88	35.33
300.094	0.51
300.309	-30.21
300.523	55.81
300.737	-26.11
300.952	25.09
301.166	70.14
301.381	-5.63
301.595	6.66
301.809	125.44
302.024	61.95
302.238	-24.06
302.452	35.33
302.667	-1.54
302.881	90.62
303.095	82.43
303.309	10.75
303.524	-22.02
303.738	27.14
303.952	57.86
304.166	43.52
304.381	-91.65
304.595	76.29
304.809	-26.11
305.023	-19.97
305.237	70.14
305.452	16.9
305.666	57.86
305.88	104.96
306.094	86.53
306.308	119.29
306.522	80.38
306.736	33.28
306.95	100.86
307.164	-1.54
307.379	0.51
307.593	57.86
307.807	135.68
308.021	143.87
308.235	137.73
308.449	-11.78
308.663	16.9
308.877	162.3
309.091	125.44
309.305	74.24
309.519	-56.83
309.733	129.53
309.947	-44.54
310.161	133.63
310.374	43.52
310.588	76.29
310.802	-46.59
311.016	2.56
311.23	35.33
311.444	33.28
311.658	-26.11
311.872	166.4
312.085	59.9
312.299	68.09
312.513	121.34
312.727	141.82
312.941	-1.54
313.154	20.99
313.368	113.15
313.582	51.71
313.796	12.8
314.009	31.23
314.223	86.53
314.437	14.85
314.651	10.75
314.864	14.85
315.078	-54.78
315.292	-5.63
315.505	23.04
315.719	90.62
315.933	47.62
316.146	57.86
316.36	-38.4
316.573	184.83
316.787	31.23
317.001	8.7
317.214	-19.97
317.428	41.47
317.641	-15.87
317.855	-32.26
318.068	102.91
318.282	41.47
318.495	260.6
318.709	18.94
318.922	10.75
319.136	74.24
319.349	51.71
319.563	-50.69
319.776	80.38
319.99	-52.74
320.203	166.4
320.417	14.85
320.63	47.62
320.843	152.06
321.057	59.9
321.27	10.75
321.483	47.62
321.697	145.92
321.91	102.91
322.124	25.09
322.337	100.86
322.55	45.57
322.763	16.9
322.977	-9.73
323.19	-1.54
323.403	80.38
323.617	14.85
323.83	100.86
324.043	10.75
324.256	39.42
324.469	-87.55
324.683	16.9
324.896	27.14
325.109	47.62
325.322	-13.82
325.535	25.09
325.748	131.58
325.962	10.75
326.175	47.62
326.388	47.62
326.601	68.09
326.814	90.62
327.027	35.33
327.24	90.62
327.453	-40.45
327.666	80.38
327.879	158.21
328.092	61.95
328.305	4.61
328.518	2.56
328.731	-5.63
328.944	47.62
329.157	39.42
329.37	-1.54
329.583	223.74
329.796	70.14
330.009	-48.64
330.222	72.19
330.435	59.9
330.648	133.63
330.861	-30.21
331.073	82.43
331.286	131.58
331.499	92.67
331.712	-71.17
331.925	61.95
332.138	29.18
332.35	107.01
332.563	31.23
332.776	25.09
332.989	-77.31
333.202	23.04
333.414	45.57
333.627	-11.78
333.84	-54.78
334.053	76.29
334.265	8.7
334.478	-15.87
334.691	-38.4
334.903	-1.54
335.116	-34.3
335.329	35.33
335.541	123.39
335.754	158.21
335.966	10.75
336.179	25.09
336.392	109.05
336.604	-77.31
336.817	49.66
337.029	68.09
337.242	37.38
337.454	55.81
337.667	-48.64
337.88	131.58
338.092	20.99
338.305	74.24
338.517	10.75
338.729	90.62
338.942	64
339.154	84.48
339.367	-87.55
339.579	31.23
339.792	-19.97
340.004	29.18
340.217	49.66
340.429	51.71
340.641	-46.59
340.854	-26.11
341.066	76.29
341.278	119.29
341.491	188.93
341.703	-5.63
341.915	4.61
342.128	35.33
342.34	25.09
342.552	-9.73
342.764	18.94
342.977	10.75
343.189	2.56
343.401	98.81
343.613	41.47
343.826	143.87
344.038	-54.78
344.25	76.29
344.462	-28.16
344.674	25.09
344.886	8.7
345.099	47.62
345.311	72.19
345.523	33.28
345.735	-81.41
345.947	43.52
346.159	25.09
346.371	31.23
346.583	41.47
346.795	166.4
347.007	27.14
347.219	158.21
347.431	76.29
347.643	80.38
347.855	37.38
348.067	147.97
348.279	-13.82
348.491	43.52
348.703	123.39
348.915	6.66
349.127	-46.59
349.339	47.62
349.551	66.05
349.763	20.99
349.975	-3.58
350.187	129.53
350.399	113.15
350.61	72.19
350.822	2.56
351.034	94.72
351.246	61.95
351.458	84.48
351.669	80.38
351.881	143.87
352.093	154.11
352.305	104.96
352.517	51.71
352.728	84.48
352.94	45.57
353.152	-11.78
353.363	-95.74
353.575	-1.54
353.787	211.45
353.999	41.47
354.21	113.15
354.422	53.76
354.633	45.57
354.845	35.33
355.057	25.09
355.268	55.81
355.48	74.24
355.692	-40.45
355.903	-13.82
356.115	-11.78
356.326	-30.21
356.538	141.82
356.749	53.76
356.961	92.67
357.172	-28.16
357.384	33.28
357.595	156.16
357.807	-50.69
358.018	-11.78
358.23	70.14
358.441	113.15
358.653	92.67
358.864	-11.78
359.075	20.99
359.287	27.14
359.498	39.42
359.709	47.62
359.921	92.67
360.132	68.09
360.344	35.33
360.555	-26.11
360.766	84.48
360.977	27.14
361.189	117.25
361.4	-24.06
361.611	129.53
361.823	33.28
362.034	8.7
362.245	-40.45
362.456	55.81
362.667	76.29
362.879	-77.31
363.09	12.8
363.301	37.38
363.512	74.24
363.723	43.52
363.935	55.81
364.146	41.47
364.357	74.24
364.568	49.66
364.779	-93.69
364.99	147.97
365.201	47.62
365.412	133.63
365.623	-122.37
365.834	51.71
366.045	6.66
366.256	100.86
366.467	49.66
366.678	37.38
366.889	2.56
367.1	-19.97
367.311	133.63
367.522	10.75
367.733	92.67
367.944	74.24
368.155	35.33
368.366	59.9
368.577	121.34
368.788	123.39
368.999	-83.45
369.209	39.42
369.42	213.5
369.631	162.3
369.842	68.09
370.053	18.94
370.264	139.77
370.474	6.66
370.685	98.81
370.896	18.94
371.107	158.21
371.317	80.38
371.528	-19.97
371.739	37.38
371.95	43.52
372.16	2.56
372.371	-1.54
372.582	-26.11
372.792	104.96
373.003	10.75
373.214	43.52
373.424	100.86
373.635	-30.21
373.846	55.81
374.056	-5.63
374.267	-1.54
374.477	72.19
374.688	0.51
374.898	23.04
375.109	57.86
375.319	23.04
375.53	59.9
375.74	117.25
375.951	51.71
376.161	125.44
376.372	111.1
376.582	-19.97
376.793	64
377.003	-77.31
377.214	-50.69
377.424	59.9
377.635	45.57
377.845	-26.11
378.055	160.25
378.266	-19.97
378.476	-19.97
378.686	29.18
378.897	43.52
379.107	27.14
379.317	145.92
379.528	2.56
379.738	35.33
379.948	-73.21
380.158	104.96
380.369	49.66
380.579	39.42
380.789	55.81
380.999	127.49
381.21	37.38
381.42	166.4
381.63	-7.68
381.84	37.38
382.05	51.71
382.261	80.38
382.471	86.53
382.681	-65.02
382.891	186.88
383.101	59.9
383.311	45.57
383.521	-17.92
383.731	115.2
383.941	72.19
384.151	49.66
384.361	55.81
384.571	8.7
384.781	55.81
384.991	188.93
385.201	139.77
385.411	66.05
385.621	57.86
385.831	25.09
386.041	137.73
386.251	18.94
386.461	147.97
386.671	-34.3
386.881	104.96
387.091	-56.83
387.301	117.25
387.511	41.47
387.72	43.52
387.93	23.04
388.14	-17.92
388.35	23.04
388.56	107.01
388.769	111.1
388.979	88.57
389.189	18.94
389.399	43.52
389.609	166.4
389.818	61.95
390.028	-34.3
390.238	88.57
390.447	6.66
390.657	-17.92
390.867	20.99
391.076	-22.02
391.286	18.94
391.496	43.52
391.705	68.09
391.915	76.29
392.125	109.05
392.334	35.33
392.544	74.24
392.753	-17.92
392.963	43.52
393.172	57.86
393.382	27.14
393.591	68.09
393.801	8.7
394.01	84.48
394.22	14.85
394.429	35.33
394.639	-1.54
394.848	96.77
395.058	107.01
395.267	64
395.477	135.68
395.686	72.19
395.895	125.44
396.105	190.97
396.314	76.29
396.524	-30.21
396.733	64
396.942	100.86
397.152	41.47
397.361	47.62
397.57	51.71
397.78	86.53
397.989	49.66
398.198	217.6
398.407	80.38
398.617	-30.21
398.826	94.72
399.035	74.24
399.244	45.57
399.453	10.75
399.663	14.85
399.872	31.23
400.081	-5.63
400.29	86.53
400.499	-62.98
400.708	129.53
400.917	14.85
401.127	51.71
401.336	16.9
401.545	219.64
401.754	55.81
401.963	45.57
402.172	-3.58
402.381	-73.21
402.59	100.86
402.799	-1.54
403.008	143.87
403.217	14.85
403.426	90.62
403.635	27.14
403.844	55.81
404.053	82.43
404.262	53.76
404.471	47.62
404.68	35.33
404.888	-17.92
405.097	82.43
405.306	25.09
405.515	119.29
405.724	25.09
405.933	143.87
406.142	27.14
406.35	76.29
406.559	-1.54
406.768	-26.11
406.977	131.58
407.185	51.71
407.394	55.81
407.603	-30.21
407.812	25.09
408.02	186.88
408.229	43.52
408.438	10.75
408.646	-28.16
408.855	-36.35
409.064	-11.78
409.272	-15.87
409.481	125.44
409.69	27.14
409.898	20.99
410.107	27.14
410.315	10.75
410.524	-34.3
410.733	23.04
410.941	76.29
411.15	37.38
411.358	145.92
411.567	68.09
411.775	66.05
411.984	64
412.192	78.33
412.401	43.52
412.609	94.72
412.818	135.68
413.026	113.15
413.234	6.66
413.443	2.56
413.651	-9.73
413.86	2.56
414.068	76.29
414.276	137.73
414.485	23.04
414.693	78.33
414.901	143.87
415.11	10.75
415.318	80.38
415.526	6.66
415.734	84.48
415.943	59.9
416.151	133.63
416.359	47.62
416.567	-7.68
416.776	76.29
416.984	137.73
417.192	178.69
417.4	-13.82
417.608	43.52
417.817	-13.82
418.025	117.25
418.233	164.35
418.441	-3.58
418.649	66.05
418.857	55.81
419.065	170.49
419.273	-13.82
419.481	121.34
419.689	23.04
419.897	29.18
420.105	-24.06
420.313	29.18
420.521	92.67
420.729	107.01
420.937	31.23
421.145	-112.13
421.353	64
421.561	156.16
421.769	14.85
421.977	-15.87
422.185	31.23
422.393	39.42
422.601	94.72
422.809	119.29
423.017	37.38
423.224	121.34
423.432	76.29
423.64	51.71
423.848	197.12
424.056	-7.68
424.263	92.67
424.471	43.52
424.679	113.15
424.887	-22.02
425.094	88.57
425.302	76.29
425.51	43.52
425.718	49.66
425.925	20.99
426.133	14.85
426.341	248.32
426.548	4.61
426.756	74.24
426.964	84.48
427.171	-48.64
427.379	35.33
427.586	51.71
427.794	143.87
428.001	180.73
428.209	68.09
428.417	147.97
428.624	35.33
428.832	51.71
429.039	-34.3
429.247	16.9
429.454	176.64
429.662	190.97
429.869	133.63
430.076	102.91
430.284	143.87
430.491	317.95
430.699	131.58
430.906	139.77
431.114	182.78
431.321	123.39
431.528	109.05
431.736	98.81
431.943	49.66
432.15	88.57
432.358	113.15
432.565	215.55
432.772	76.29
432.979	199.16
433.187	96.77
433.394	279.04
433.601	98.81
433.808	162.3
434.016	98.81
434.223	270.84
434.43	231.93
434.637	283.13
434.844	174.59
435.052	174.59
435.259	260.6
435.466	332.28
435.673	199.16
435.88	264.7
436.087	295.42
436.294	334.33
436.501	240.12
436.708	213.5
436.915	215.55
437.122	287.23
437.329	178.69
437.537	317.95
437.743	313.85
437.95	389.63
438.157	297.47
438.364	309.76
438.571	264.7
438.778	320
438.985	371.19
439.192	444.92
439.399	422.39
439.606	453.11
439.813	444.92
440.02	440.83
440.227	649.72
440.433	494.07
440.64	496.12
440.847	438.78
441.054	504.31
441.261	633.33
441.467	492.02
441.674	424.44
441.881	680.44
442.088	516.6
442.294	729.59
442.501	705.01
442.708	760.31
442.914	670.2
443.121	729.59
443.328	729.59
443.534	795.12
443.741	795.12
443.948	739.83
444.154	862.71
444.361	1004.02
444.568	913.91
444.774	938.48
444.981	797.17
445.187	1010.16
445.394	999.92
445.6	1020.4
445.807	1139.18
446.013	1118.7
446.22	1085.94
446.426	1239.53
446.633	1239.53
446.839	1415.66
447.046	1206.77
447.252	1364.46
447.459	1378.79
447.665	1386.99
447.871	1565.16
448.078	1706.47
448.284	1604.07
448.491	1626.6
448.697	1731.05
448.903	1804.77
449.11	1845.73
449.316	1747.43
449.522	1925.6
449.728	2157.02
449.935	2103.78
450.141	2204.13
450.347	2249.18
450.553	2277.85
450.76	2316.76
450.966	2376.16
451.172	2533.85
451.378	2673.11
451.584	2738.65
451.791	2890.2
451.997	2935.25
452.203	2976.21
452.409	3164.62
452.615	3353.04
452.821	3285.45
453.027	3283.41
453.233	3793.35
453.44	3512.78
453.646	3695.05
453.852	3748.29
454.058	4026.82
454.264	4139.46
454.47	4483.52
454.676	4387.26
454.882	4835.77
455.088	4481.47
455.294	4987.32
455.5	5106.1
455.705	5532.08
455.911	5353.9
456.117	5691.82
456.323	5812.65
456.529	5822.89
456.735	6326.69
456.941	6494.62
457.147	6781.34
457.352	7082.39
457.558	7137.68
457.764	7735.69
457.97	7694.73
458.176	8085.89
458.381	8618.36
458.587	8731
458.793	9316.72
458.999	8909.18
459.204	10340.71
459.41	10600.8
459.616	10240.36
459.821	10953.05
460.027	11393.36
460.233	11950.41
460.438	12097.86
460.644	12759.36
460.85	13072.7
461.055	13285.69
461.261	14063.91
461.466	13703.47
461.672	13986.09
461.878	15507.73
462.083	15243.54
462.289	15816.97
462.494	16505.09
462.7	16580.87
462.905	16699.65
463.111	18141.42
463.316	19095.77
463.522	19208.41
463.727	19718.36
463.932	20672.71
464.138	21377.21
464.343	22354.09
464.549	22243.5
464.754	24168.59
464.959	24637.58
465.165	25012.35
465.37	24869
465.575	25061.51
465.781	26796.14
465.986	27258.98
466.191	26878.05
466.397	27086.95
466.602	26478.7
466.807	27863.13
467.012	28616.78
467.218	28876.87
467.423	28973.13
467.628	30163
467.833	31330.34
468.038	31115.3
468.244	30337.07
468.449	32241.68
468.654	31410.21
468.859	31250.47
469.064	31385.63
469.269	30548.01
469.474	30775.34
