Data from USB4F104151__69__10-31-50-552.txt Node

Date: Wed Feb 26 10:31:50 EST 2025
User: louis
Spectrometer: USB4F10415
Trigger mode: 4
Integration Time (sec): 1.000000E-1
Scans to average: 1
Electric dark correction enabled: true
Nonlinearity correction enabled: false
Boxcar width: 0
XAxis mode: Wavelengths
Number of Pixels in Spectrum: 3648
>>>>>Begin Spectral Data<<<<<
178.204	-398.5
178.424	-398.5
178.644	-398.5
178.864	-373.92
179.084	-402.6
179.304	0.85
179.524	-25.77
179.744	-3.24
179.964	66.39
180.184	52.05
180.404	113.49
180.624	0.85
180.844	-19.63
181.064	-81.07
181.283	-36.01
181.503	-68.78
181.723	0.85
181.943	-79.02
182.163	213.84
182.383	2.9
182.602	-17.58
182.822	156.5
183.042	70.48
183.262	80.72
183.482	39.76
183.701	31.57
183.921	62.29
184.141	7
184.361	90.96
184.58	93.01
184.8	19.29
185.02	9.05
185.239	117.59
185.459	88.92
185.679	109.4
185.898	-29.87
186.118	68.44
186.338	93.01
186.557	142.16
186.777	-23.72
186.997	64.34
187.216	35.67
187.436	160.59
187.655	103.25
187.875	117.59
188.095	43.86
188.314	150.36
188.534	52.05
188.753	9.05
188.973	127.83
189.192	119.64
189.412	31.57
189.631	58.2
189.851	58.2
190.07	113.49
190.29	-74.92
190.509	2.9
190.729	-3.24
190.948	99.16
191.168	201.55
191.387	-36.01
191.607	66.39
191.826	154.45
192.045	4.95
192.265	-36.01
192.484	54.1
192.704	-21.67
192.923	-87.21
193.142	160.59
193.362	123.73
193.581	174.93
193.8	33.62
194.02	80.72
194.239	47.96
194.458	129.88
194.678	0.85
194.897	-99.5
195.116	68.44
195.335	78.68
195.555	101.2
195.774	31.57
195.993	160.59
196.212	-11.43
196.432	76.63
196.651	-44.2
196.87	70.48
197.089	275.28
197.308	35.67
197.528	33.62
197.747	-56.49
197.966	27.48
198.185	150.36
198.404	-54.44
198.623	193.36
198.842	183.12
199.062	90.96
199.281	93.01
199.5	64.34
199.719	17.24
199.938	60.24
200.157	37.72
200.376	78.68
200.595	86.87
200.814	45.91
201.033	52.05
201.252	172.88
201.471	72.53
201.69	105.3
201.909	37.72
202.128	154.45
202.347	195.41
202.566	-11.43
202.785	-95.4
203.004	33.62
203.223	199.51
203.442	35.67
203.661	-7.34
203.879	97.11
204.098	56.15
204.317	21.33
204.536	142.16
204.755	80.72
204.974	140.12
205.193	23.38
205.411	164.69
205.63	33.62
205.849	74.58
206.068	-25.77
206.287	-44.2
206.505	133.97
206.724	39.76
206.943	25.43
207.162	-44.2
207.381	101.2
207.599	56.15
207.818	70.48
208.037	-3.24
208.255	47.96
208.474	-23.72
208.693	88.92
208.911	-36.01
209.13	68.44
209.349	127.83
209.567	74.58
209.786	115.54
210.005	13.14
210.223	93.01
210.442	-132.26
210.661	-23.72
210.879	62.29
211.098	97.11
211.316	97.11
211.535	117.59
211.753	72.53
211.972	84.82
212.191	-50.35
212.409	47.96
212.628	58.2
212.846	-62.63
213.065	127.83
213.283	107.35
213.502	50
213.72	4.95
213.938	4.95
214.157	76.63
214.375	56.15
214.594	11.09
214.812	76.63
215.031	58.2
215.249	-1.19
215.467	80.72
215.686	84.82
215.904	11.09
216.122	35.67
216.341	105.3
216.559	90.96
216.778	43.86
216.996	148.31
217.214	11.09
217.432	0.85
217.651	-15.53
217.869	90.96
218.087	54.1
218.306	-7.34
218.524	2.9
218.742	105.3
218.96	111.44
219.179	39.76
219.397	-91.31
219.615	230.23
219.833	60.24
220.051	-13.48
220.27	123.73
220.488	168.79
220.706	41.81
220.924	19.29
221.142	-38.06
221.36	115.54
221.578	129.88
221.796	45.91
222.015	0.85
222.233	58.2
222.451	123.73
222.669	-91.31
222.887	58.2
223.105	-36.01
223.323	19.29
223.541	-81.07
223.759	90.96
223.977	78.68
224.195	144.21
224.413	45.91
224.631	-9.39
224.849	95.06
225.067	260.95
225.285	90.96
225.503	66.39
225.721	-79.02
225.939	52.05
226.157	11.09
226.375	250.71
226.592	-13.48
226.81	45.91
227.028	142.16
227.246	93.01
227.464	41.81
227.682	129.88
227.9	78.68
228.117	93.01
228.335	78.68
228.553	41.81
228.771	4.95
228.989	62.29
229.206	113.49
229.424	-31.91
229.642	52.05
229.86	41.81
230.077	127.83
230.295	39.76
230.513	129.88
230.731	74.58
230.948	228.18
231.166	144.21
231.384	90.96
231.601	2.9
231.819	99.16
232.037	27.48
232.254	33.62
232.472	99.16
232.689	64.34
232.907	140.12
233.125	23.38
233.342	-46.25
233.56	-50.35
233.777	-1.19
233.995	27.48
234.213	15.19
234.43	54.1
234.648	86.87
234.865	45.91
235.083	62.29
235.3	23.38
235.518	156.5
235.735	133.97
235.953	115.54
236.17	76.63
236.388	58.2
236.605	11.09
236.822	90.96
237.04	88.92
237.257	99.16
237.475	-79.02
237.692	129.88
237.909	90.96
238.127	-46.25
238.344	160.59
238.562	125.78
238.779	-97.45
238.996	-29.87
239.214	39.76
239.431	86.87
239.648	29.52
239.865	76.63
240.083	123.73
240.3	-19.63
240.517	-83.11
240.735	35.67
240.952	185.17
241.169	47.96
241.386	60.24
241.603	62.29
241.821	-1.19
242.038	99.16
242.255	170.83
242.472	-140.46
242.689	66.39
242.907	76.63
243.124	25.43
243.341	52.05
243.558	0.85
243.775	-48.3
243.992	60.24
244.209	117.59
244.426	93.01
244.643	168.79
244.86	68.44
245.078	76.63
245.295	121.68
245.512	66.39
245.729	33.62
245.946	-1.19
246.163	99.16
246.38	25.43
246.597	93.01
246.814	-19.63
247.031	52.05
247.248	-23.72
247.464	88.92
247.681	15.19
247.898	74.58
248.115	111.44
248.332	25.43
248.549	162.64
248.766	103.25
248.983	97.11
249.2	115.54
249.417	176.98
249.633	66.39
249.85	197.46
250.067	41.81
250.284	76.63
250.501	97.11
250.717	39.76
250.934	-29.87
251.151	45.91
251.368	105.3
251.585	45.91
251.801	74.58
252.018	-79.02
252.235	90.96
252.451	-15.53
252.668	-38.06
252.885	164.69
253.102	82.77
253.318	68.44
253.535	41.81
253.752	103.25
253.968	-31.91
254.185	0.85
254.401	52.05
254.618	70.48
254.835	-1.19
255.051	101.2
255.268	121.68
255.484	56.15
255.701	82.77
255.917	76.63
256.134	-81.07
256.351	43.86
256.567	-48.3
256.784	64.34
257	-91.31
257.217	111.44
257.433	21.33
257.65	33.62
257.866	168.79
258.082	19.29
258.299	-48.3
258.515	9.05
258.732	-29.87
258.948	50
259.165	80.72
259.381	-9.39
259.597	15.19
259.814	74.58
260.03	47.96
260.246	41.81
260.463	95.06
260.679	185.17
260.895	19.29
261.112	86.87
261.328	52.05
261.544	11.09
261.761	160.59
261.977	4.95
262.193	-17.58
262.409	35.67
262.626	66.39
262.842	-27.82
263.058	11.09
263.274	56.15
263.49	82.77
263.707	41.81
263.923	68.44
264.139	-70.83
264.355	60.24
264.571	88.92
264.787	76.63
265.004	115.54
265.22	-7.34
265.436	-85.16
265.652	66.39
265.868	72.53
266.084	15.19
266.3	7
266.516	-21.67
266.732	39.76
266.948	86.87
267.164	-1.19
267.38	170.83
267.596	62.29
267.812	148.31
268.028	54.1
268.244	-64.68
268.46	103.25
268.676	0.85
268.892	113.49
269.108	0.85
269.324	21.33
269.54	-11.43
269.756	125.78
269.972	-76.97
270.188	2.9
270.403	4.95
270.619	-13.48
270.835	107.35
271.051	27.48
271.267	-23.72
271.483	-25.77
271.698	101.2
271.914	43.86
272.13	0.85
272.346	-17.58
272.562	41.81
272.777	97.11
272.993	47.96
273.209	-40.11
273.425	41.81
273.64	-36.01
273.856	144.21
274.072	-68.78
274.287	-9.39
274.503	93.01
274.719	45.91
274.934	64.34
275.15	-89.26
275.366	68.44
275.581	-33.96
275.797	-17.58
276.012	64.34
276.228	-23.72
276.444	60.24
276.659	121.68
276.875	-44.2
277.09	52.05
277.306	27.48
277.521	70.48
277.737	-5.29
277.952	80.72
278.168	37.72
278.383	-5.29
278.599	60.24
278.814	76.63
279.03	9.05
279.245	176.98
279.461	21.33
279.676	115.54
279.892	13.14
280.107	56.15
280.322	-38.06
280.538	58.2
280.753	19.29
280.969	64.34
281.184	-3.24
281.399	222.03
281.615	-5.29
281.83	58.2
282.045	-25.77
282.26	4.95
282.476	115.54
282.691	117.59
282.906	37.72
283.122	99.16
283.337	-72.87
283.552	74.58
283.767	-25.77
283.983	84.82
284.198	0.85
284.413	97.11
284.628	29.52
284.843	-42.15
285.058	43.86
285.274	119.64
285.489	25.43
285.704	68.44
285.919	23.38
286.134	-5.29
286.349	33.62
286.564	45.91
286.779	60.24
286.995	-5.29
287.21	43.86
287.425	119.64
287.64	31.57
287.855	62.29
288.07	-9.39
288.285	74.58
288.5	37.72
288.715	82.77
288.93	27.48
289.145	-46.25
289.36	146.26
289.575	-60.59
289.79	152.4
290.004	13.14
290.219	95.06
290.434	-29.87
290.649	11.09
290.864	-21.67
291.079	-91.31
291.294	103.25
291.509	97.11
291.724	-66.73
291.938	15.19
292.153	47.96
292.368	29.52
292.583	103.25
292.798	72.53
293.012	109.4
293.227	103.25
293.442	37.72
293.657	119.64
293.871	27.48
294.086	52.05
294.301	172.88
294.516	129.88
294.73	-13.48
294.945	7
295.16	43.86
295.374	123.73
295.589	70.48
295.804	-33.96
296.018	-19.63
296.233	195.41
296.447	62.29
296.662	17.24
296.877	148.31
297.091	93.01
297.306	7
297.52	50
297.735	23.38
297.949	45.91
298.164	58.2
298.378	50
298.593	-1.19
298.807	58.2
299.022	95.06
299.236	52.05
299.451	21.33
299.665	2.9
299.88	43.86
300.094	107.35
300.309	19.29
300.523	-3.24
300.737	-9.39
300.952	74.58
301.166	84.82
301.381	-58.54
301.595	-1.19
301.809	43.86
302.024	-42.15
302.238	-15.53
302.452	109.4
302.667	60.24
302.881	97.11
303.095	58.2
303.309	9.05
303.524	56.15
303.738	-46.25
303.952	9.05
304.166	78.68
304.381	-83.11
304.595	201.55
304.809	11.09
305.023	25.43
305.237	64.34
305.452	35.67
305.666	142.16
305.88	99.16
306.094	160.59
306.308	68.44
306.522	117.59
306.736	72.53
306.95	54.1
307.164	58.2
307.379	17.24
307.593	152.4
307.807	109.4
308.021	152.4
308.235	45.91
308.449	-25.77
308.663	23.38
308.877	185.17
309.091	90.96
309.305	86.87
309.519	-44.2
309.733	119.64
309.947	-38.06
310.161	72.53
310.374	80.72
310.588	191.31
310.802	-21.67
311.016	35.67
311.23	93.01
311.444	13.14
311.658	4.95
311.872	111.44
312.085	197.46
312.299	144.21
312.513	105.3
312.727	0.85
312.941	-66.73
313.154	4.95
313.368	35.67
313.582	68.44
313.796	105.3
314.009	0.85
314.223	88.92
314.437	31.57
314.651	70.48
314.864	-5.29
315.078	25.43
315.292	-74.92
315.505	-17.58
315.719	17.24
315.933	148.31
316.146	21.33
316.36	-31.91
316.573	107.35
316.787	-25.77
317.001	95.06
317.214	-56.49
317.428	95.06
317.641	-79.02
317.855	54.1
318.068	-15.53
318.282	7
318.495	185.17
318.709	88.92
318.922	47.96
319.136	154.45
319.349	166.74
319.563	-11.43
319.776	119.64
319.99	-48.3
320.203	123.73
320.417	29.52
320.63	117.59
320.843	246.61
321.057	35.67
321.27	60.24
321.483	29.52
321.697	179.03
321.91	90.96
322.124	37.72
322.337	50
322.55	17.24
322.763	19.29
322.977	-7.34
323.19	78.68
323.403	-3.24
323.617	39.76
323.83	9.05
324.043	0.85
324.256	74.58
324.469	-29.87
324.683	58.2
324.896	88.92
325.109	52.05
325.322	2.9
325.535	148.31
325.748	52.05
325.962	0.85
326.175	113.49
326.388	115.54
326.601	101.2
326.814	72.53
327.027	74.58
327.24	105.3
327.453	-31.91
327.666	179.03
327.879	123.73
328.092	68.44
328.305	64.34
328.518	-19.63
328.731	17.24
328.944	109.4
329.157	99.16
329.37	-9.39
329.583	72.53
329.796	64.34
330.009	-54.44
330.222	66.39
330.435	74.58
330.648	-15.53
330.861	86.87
331.073	111.44
331.286	107.35
331.499	-56.49
331.712	-52.39
331.925	80.72
332.138	52.05
332.35	109.4
332.563	35.67
332.776	158.55
332.989	25.43
333.202	11.09
333.414	56.15
333.627	-60.59
333.84	11.09
334.053	29.52
334.265	0.85
334.478	15.19
334.691	27.48
334.903	72.53
335.116	-38.06
335.329	-19.63
335.541	21.33
335.754	168.79
335.966	-36.01
336.179	15.19
336.392	2.9
336.604	37.72
336.817	76.63
337.029	-38.06
337.242	35.67
337.454	33.62
337.667	25.43
337.88	148.31
338.092	66.39
338.305	74.58
338.517	35.67
338.729	60.24
338.942	162.64
339.154	41.81
339.367	-109.74
339.579	35.67
339.792	-9.39
340.004	52.05
340.217	-19.63
340.429	2.9
340.641	-11.43
340.854	-107.69
341.066	-9.39
341.278	158.55
341.491	154.45
341.703	146.26
341.915	-42.15
342.128	31.57
342.34	70.48
342.552	35.67
342.764	47.96
342.977	19.29
343.189	37.72
343.401	72.53
343.613	-56.49
343.826	11.09
344.038	-54.44
344.25	66.39
344.462	19.29
344.674	113.49
344.886	43.86
345.099	133.97
345.311	43.86
345.523	31.57
345.735	-46.25
345.947	2.9
346.159	127.83
346.371	7
346.583	17.24
346.795	168.79
347.007	27.48
347.219	170.83
347.431	99.16
347.643	201.55
347.855	-1.19
348.067	97.11
348.279	-36.01
348.491	43.86
348.703	86.87
348.915	2.9
349.127	-5.29
349.339	37.72
349.551	99.16
349.763	66.39
349.975	21.33
350.187	125.78
350.399	72.53
350.61	45.91
350.822	35.67
351.034	105.3
351.246	82.77
351.458	97.11
351.669	95.06
351.881	138.07
352.093	113.49
352.305	62.29
352.517	93.01
352.728	109.4
352.94	60.24
353.152	97.11
353.363	4.95
353.575	95.06
353.787	187.22
353.999	-62.63
354.21	168.79
354.422	-56.49
354.633	13.14
354.845	35.67
355.057	-5.29
355.268	31.57
355.48	174.93
355.692	-64.68
355.903	17.24
356.115	-46.25
356.326	-83.11
356.538	74.58
356.749	39.76
356.961	156.5
357.172	41.81
357.384	19.29
357.595	242.51
357.807	-27.82
358.018	-7.34
358.23	86.87
358.441	142.16
358.653	41.81
358.864	60.24
359.075	39.76
359.287	107.35
359.498	138.07
359.709	64.34
359.921	0.85
360.132	-3.24
360.344	27.48
360.555	-54.44
360.766	64.34
360.977	68.44
361.189	154.45
361.4	11.09
361.611	154.45
361.823	70.48
362.034	27.48
362.245	-36.01
362.456	56.15
362.667	93.01
362.879	25.43
363.09	64.34
363.301	56.15
363.512	2.9
363.723	-81.07
363.935	117.59
364.146	95.06
364.357	-9.39
364.568	47.96
364.779	-95.4
364.99	123.73
365.201	-1.19
365.412	125.78
365.623	-58.54
365.834	50
366.045	105.3
366.256	76.63
366.467	56.15
366.678	-27.82
366.889	76.63
367.1	-19.63
367.311	131.92
367.522	82.77
367.733	64.34
367.944	107.35
368.155	-66.73
368.366	103.25
368.577	158.55
368.788	113.49
368.999	-27.82
369.209	11.09
369.42	207.7
369.631	254.8
369.842	60.24
370.053	45.91
370.264	62.29
370.474	-40.11
370.685	99.16
370.896	-31.91
371.107	138.07
371.317	13.14
371.528	-1.19
371.739	150.36
371.95	133.97
372.16	88.92
372.371	-3.24
372.582	25.43
372.792	129.88
373.003	68.44
373.214	127.83
373.424	88.92
373.635	15.19
373.846	131.92
374.056	27.48
374.267	84.82
374.477	41.81
374.688	-38.06
374.898	25.43
375.109	84.82
375.319	93.01
375.53	-29.87
375.74	105.3
375.951	-42.15
376.161	35.67
376.372	148.31
376.582	45.91
376.793	125.78
377.003	17.24
377.214	-64.68
377.424	111.44
377.635	52.05
377.845	41.81
378.055	115.54
378.266	-64.68
378.476	-44.2
378.686	50
378.897	9.05
379.107	136.02
379.317	39.76
379.528	60.24
379.738	45.91
379.948	-13.48
380.158	107.35
380.369	76.63
380.579	45.91
380.789	39.76
380.999	152.4
381.21	43.86
381.42	152.4
381.63	-31.91
381.84	109.4
382.05	62.29
382.261	162.64
382.471	144.21
382.681	64.34
382.891	93.01
383.101	21.33
383.311	7
383.521	9.05
383.731	117.59
383.941	52.05
384.151	74.58
384.361	29.52
384.571	23.38
384.781	-29.87
384.991	201.55
385.201	209.75
385.411	99.16
385.621	62.29
385.831	88.92
386.041	82.77
386.251	27.48
386.461	140.12
386.671	56.15
386.881	-1.19
387.091	4.95
387.301	64.34
387.511	62.29
387.72	-21.67
387.93	125.78
388.14	35.67
388.35	-5.29
388.56	50
388.769	131.92
388.979	-9.39
389.189	-40.11
389.399	107.35
389.609	52.05
389.818	74.58
390.028	62.29
390.238	123.73
390.447	-74.92
390.657	15.19
390.867	4.95
391.076	-64.68
391.286	39.76
391.496	-21.67
391.705	25.43
391.915	224.08
392.125	181.07
392.334	50
392.544	201.55
392.753	60.24
392.963	-29.87
393.172	58.2
393.382	-25.77
393.591	133.97
393.801	-48.3
394.01	154.45
394.22	172.88
394.429	88.92
394.639	-46.25
394.848	60.24
395.058	70.48
395.267	-25.77
395.477	58.2
395.686	45.91
395.895	158.55
396.105	234.32
396.314	64.34
396.524	95.06
396.733	2.9
396.942	50
397.152	125.78
397.361	111.44
397.57	74.58
397.78	78.68
397.989	78.68
398.198	279.38
398.407	105.3
398.617	72.53
398.826	76.63
399.035	41.81
399.244	142.16
399.453	11.09
399.663	37.72
399.872	58.2
400.081	-56.49
400.29	131.92
400.499	2.9
400.708	127.83
400.917	37.72
401.127	-13.48
401.336	-3.24
401.545	209.75
401.754	133.97
401.963	56.15
402.172	11.09
402.381	-33.96
402.59	76.63
402.799	39.76
403.008	97.11
403.217	-64.68
403.426	31.57
403.635	-11.43
403.844	74.58
404.053	-68.78
404.262	68.44
404.471	183.12
404.68	45.91
404.888	27.48
405.097	58.2
405.306	62.29
405.515	109.4
405.724	156.5
405.933	41.81
406.142	31.57
406.35	74.58
406.559	-62.63
406.768	88.92
406.977	156.5
407.185	54.1
407.394	138.07
407.603	-50.35
407.812	121.68
408.02	56.15
408.229	29.52
408.438	45.91
408.646	23.38
408.855	62.29
409.064	31.57
409.272	-13.48
409.481	144.21
409.69	-93.35
409.898	29.52
410.107	158.55
410.315	93.01
410.524	-19.63
410.733	0.85
410.941	52.05
411.15	115.54
411.358	107.35
411.567	103.25
411.775	23.38
411.984	29.52
412.192	56.15
412.401	-15.53
412.609	172.88
412.818	174.93
413.026	56.15
413.234	37.72
413.443	25.43
413.651	15.19
413.86	84.82
414.068	195.41
414.276	230.23
414.485	-38.06
414.693	174.93
414.901	176.98
415.11	27.48
415.318	62.29
415.526	84.82
415.734	88.92
415.943	-23.72
416.151	142.16
416.359	17.24
416.567	7
416.776	99.16
416.984	172.88
417.192	209.75
417.4	70.48
417.608	25.43
417.817	-27.82
418.025	19.29
418.233	187.22
418.441	-31.91
418.649	-17.58
418.857	99.16
419.065	105.3
419.273	-19.63
419.481	74.58
419.689	27.48
419.897	47.96
420.105	-64.68
420.313	123.73
420.521	156.5
420.729	99.16
420.937	11.09
421.145	-17.58
421.353	195.41
421.561	113.49
421.769	105.3
421.977	33.62
422.185	131.92
422.393	33.62
422.601	78.68
422.809	62.29
423.017	88.92
423.224	19.29
423.432	82.77
423.64	60.24
423.848	125.78
424.056	-11.43
424.263	144.21
424.471	17.24
424.679	88.92
424.887	-42.15
425.094	154.45
425.302	47.96
425.51	-17.58
425.718	185.17
425.925	150.36
426.133	-15.53
426.341	187.22
426.548	29.52
426.756	-3.24
426.964	56.15
427.171	7
427.379	64.34
427.586	50
427.794	129.88
428.001	189.27
428.209	131.92
428.417	242.51
428.624	121.68
428.832	90.96
429.039	138.07
429.247	105.3
429.454	103.25
429.662	127.83
429.869	-5.29
430.076	133.97
430.284	127.83
430.491	238.42
430.699	199.51
430.906	193.36
431.114	115.54
431.321	148.31
431.528	70.48
431.736	138.07
431.943	113.49
432.15	207.7
432.358	207.7
432.565	265.04
432.772	15.19
432.979	107.35
433.187	105.3
433.394	312.14
433.601	123.73
433.808	127.83
434.016	217.94
434.223	277.33
434.43	246.61
434.637	136.02
434.844	217.94
435.052	197.46
435.259	256.85
435.466	248.66
435.673	215.89
435.88	281.43
436.087	267.09
436.294	328.53
436.501	277.33
436.708	299.86
436.915	299.86
437.122	291.66
437.329	213.84
437.537	279.38
437.743	371.54
437.95	414.54
438.157	396.11
438.364	351.06
438.571	387.92
438.778	385.87
438.985	389.97
439.192	473.93
439.399	389.97
439.606	420.69
439.813	580.43
440.02	582.48
440.227	648.01
440.433	496.46
440.64	500.56
440.847	492.37
441.054	568.14
441.261	584.52
441.467	527.18
441.674	412.5
441.881	648.01
442.088	602.96
442.294	627.53
442.501	678.73
442.708	697.16
442.914	754.51
443.121	750.41
443.328	779.08
443.534	893.77
443.741	844.62
443.948	742.22
444.154	881.48
444.361	1078.08
444.568	949.06
444.774	910.15
444.981	926.54
445.187	1178.44
445.394	1022.79
445.6	1092.42
445.807	1219.39
446.013	1117
446.22	1104.71
446.426	1315.65
446.633	1303.36
446.839	1497.92
447.046	1370.94
447.252	1413.95
447.459	1459.01
447.665	1452.86
447.871	1657.66
448.078	1764.15
448.284	1645.37
448.491	1807.16
448.697	1862.46
448.903	2011.96
449.11	1952.57
449.316	1987.38
449.522	2159.41
449.728	2216.76
449.935	2317.11
450.141	2329.39
450.347	2534.19
450.553	2364.21
450.76	2509.62
450.966	2724.65
451.172	2673.45
451.378	2798.38
451.584	2781.99
451.791	3173.16
451.997	3314.47
452.203	3287.84
452.409	3570.46
452.615	3441.44
452.821	3394.34
453.027	3468.06
453.233	3973.91
453.44	3926.81
453.646	4029.21
453.852	4070.17
454.058	4285.2
454.264	4424.47
454.47	4702.99
454.676	4698.89
454.882	5139.21
455.088	5042.95
455.294	5214.98
455.5	5587.71
455.705	5872.38
455.911	5679.87
456.117	6058.74
456.323	6370.04
456.529	6333.17
456.735	6775.53
456.941	7168.74
457.147	7215.85
457.352	7568.1
457.558	7568.1
457.764	8211.16
457.97	8479.44
458.176	8686.29
458.381	9116.36
458.587	9231.05
458.793	10050.24
458.999	9822.91
459.204	10986.16
459.41	11580.07
459.616	11303.59
459.821	11950.75
460.027	12370.58
460.233	12743.31
460.438	13075.09
460.644	13714.05
460.85	13970.05
461.055	14359.16
461.261	14965.36
461.466	14750.32
461.672	14789.24
461.878	16816.72
462.083	16687.7
462.289	17013.33
462.494	17408.59
462.7	17953.35
462.905	18057.79
463.111	19552.81
463.316	20486.68
463.522	20652.57
463.727	21393.93
463.932	22759.93
464.138	23294.45
464.343	23933.42
464.549	24044.01
464.754	26259.91
464.959	26321.35
465.165	26806.72
465.37	26804.67
465.575	27025.85
465.781	28572.07
465.986	29673.87
466.191	28733.85
466.397	29358.49
466.602	28643.74
466.807	30067.08
467.012	31150.46
467.218	31283.58
467.423	31650.16
467.628	32117.1
467.833	34085.2
468.038	33323.35
468.244	32825.7
468.449	34541.89
468.654	33689.94
468.859	33663.32
469.064	33917.26
469.269	33325.4
