Data from USB4F104151__28__09-26-40-113.txt Node

Date: Wed Feb 26 09:26:40 EST 2025
User: louis
Spectrometer: USB4F10415
Trigger mode: 4
Integration Time (sec): 1.000000E-1
Scans to average: 1
Electric dark correction enabled: true
Nonlinearity correction enabled: false
Boxcar width: 0
XAxis mode: Wavelengths
Number of Pixels in Spectrum: 3648
>>>>>Begin Spectral Data<<<<<
178.204	-330.75
178.424	-330.75
178.644	-330.75
178.864	-328.7
179.084	-386.04
179.304	17.41
179.524	3.07
179.744	-41.98
179.964	35.84
180.184	39.94
180.404	31.74
180.624	-66.56
180.844	-35.84
181.064	-11.26
181.283	17.41
181.503	-35.84
181.723	46.08
181.943	-91.13
182.163	209.92
182.383	60.42
182.602	-25.6
182.822	113.66
183.042	54.27
183.262	-37.89
183.482	11.26
183.701	-5.12
183.921	35.84
184.141	-58.37
184.361	109.57
184.58	-27.65
184.8	13.31
185.02	23.55
185.239	66.56
185.459	39.94
185.679	142.33
185.898	-78.85
186.118	-11.26
186.338	-17.41
186.557	150.53
186.777	-54.27
186.997	-7.17
187.216	-3.07
187.436	181.25
187.655	97.28
187.875	37.89
188.095	44.03
188.314	119.81
188.534	64.51
188.753	-41.98
188.973	80.89
189.192	144.38
189.412	7.17
189.631	68.61
189.851	9.22
190.07	130.05
190.29	-56.32
190.509	-84.99
190.729	-66.56
190.948	80.89
191.168	293.88
191.387	95.23
191.607	111.61
191.826	125.95
192.045	-1.02
192.265	27.65
192.484	91.13
192.704	19.46
192.923	-29.7
193.142	115.71
193.362	87.04
193.581	146.43
193.8	29.7
194.02	130.05
194.239	19.46
194.458	66.56
194.678	29.7
194.897	-5.12
195.116	21.5
195.335	31.74
195.555	52.22
195.774	-44.03
195.993	35.84
196.212	-5.12
196.432	-19.46
196.651	-1.02
196.87	5.12
197.089	138.24
197.308	46.08
197.528	27.65
197.747	19.46
197.966	68.61
198.185	39.94
198.404	-17.41
198.623	62.46
198.842	146.43
199.062	70.65
199.281	-15.36
199.5	-27.65
199.719	136.19
199.938	80.89
200.157	17.41
200.376	82.94
200.595	80.89
200.814	93.18
201.033	39.94
201.252	138.24
201.471	44.03
201.69	168.96
201.909	-13.31
202.128	89.09
202.347	39.94
202.566	54.27
202.785	-25.6
203.004	-52.22
203.223	232.44
203.442	15.36
203.661	-33.79
203.879	31.74
204.098	76.8
204.317	-41.98
204.536	74.75
204.755	109.57
204.974	23.55
205.193	35.84
205.411	111.61
205.63	25.6
205.849	64.51
206.068	-60.42
206.287	48.13
206.505	162.81
206.724	-50.18
206.943	-35.84
207.162	-11.26
207.381	44.03
207.599	5.12
207.818	-15.36
208.037	27.65
208.255	64.51
208.474	37.89
208.693	-9.22
208.911	21.5
209.13	46.08
209.349	93.18
209.567	13.31
209.786	76.8
210.005	54.27
210.223	-7.17
210.442	-99.33
210.661	-17.41
210.879	17.41
211.098	-39.94
211.316	39.94
211.535	33.79
211.753	101.37
211.972	-11.26
212.191	-5.12
212.409	89.09
212.628	80.89
212.846	-48.13
213.065	89.09
213.283	93.18
213.502	-39.94
213.72	-19.46
213.938	-15.36
214.157	37.89
214.375	80.89
214.594	-46.08
214.812	60.42
215.031	48.13
215.249	-27.65
215.467	19.46
215.686	-15.36
215.904	72.7
216.122	35.84
216.341	89.09
216.559	111.61
216.778	125.95
216.996	146.43
217.214	-13.31
217.432	-13.31
217.651	-80.89
217.869	7.17
218.087	82.94
218.306	-37.89
218.524	46.08
218.742	-3.07
218.96	78.85
219.179	-66.56
219.397	-11.26
219.615	187.39
219.833	56.32
220.051	-13.31
220.27	72.7
220.488	-17.41
220.706	50.18
220.924	-25.6
221.142	3.07
221.36	-11.26
221.578	31.74
221.796	60.42
222.015	21.5
222.233	97.28
222.451	125.95
222.669	-84.99
222.887	15.36
223.105	-54.27
223.323	37.89
223.541	-35.84
223.759	31.74
223.977	56.32
224.195	48.13
224.413	222.2
224.631	21.5
224.849	-11.26
225.067	123.9
225.285	23.55
225.503	-1.02
225.721	-97.28
225.939	48.13
226.157	-52.22
226.375	214.01
226.592	-15.36
226.81	-1.02
227.028	60.42
227.246	105.47
227.464	9.22
227.682	56.32
227.9	58.37
228.117	91.13
228.335	101.37
228.553	15.36
228.771	5.12
228.989	56.32
229.206	52.22
229.424	9.22
229.642	-5.12
229.86	-41.98
230.077	23.55
230.295	-11.26
230.513	113.66
230.731	89.09
230.948	78.85
231.166	173.05
231.384	-41.98
231.601	39.94
231.819	179.2
232.037	-13.31
232.254	-37.89
232.472	23.55
232.689	-17.41
232.907	80.89
233.125	23.55
233.342	-3.07
233.56	-37.89
233.777	-15.36
233.995	13.31
234.213	103.42
234.43	39.94
234.648	21.5
234.865	-21.5
235.083	101.37
235.3	60.42
235.518	121.85
235.735	76.8
235.953	23.55
236.17	19.46
236.388	48.13
236.605	-1.02
236.822	105.47
237.04	103.42
237.257	11.26
237.475	-58.37
237.692	13.31
237.909	48.13
238.127	-44.03
238.344	93.18
238.562	58.37
238.779	-46.08
238.996	-44.03
239.214	76.8
239.431	54.27
239.648	7.17
239.865	113.66
240.083	35.84
240.3	70.65
240.517	-17.41
240.735	23.55
240.952	82.94
241.169	103.42
241.386	27.65
241.603	9.22
241.821	-15.36
242.038	84.99
242.255	101.37
242.472	-78.85
242.689	29.7
242.907	64.51
243.124	19.46
243.341	-5.12
243.558	-17.41
243.775	-1.02
243.992	5.12
244.209	23.55
244.426	125.95
244.643	72.7
244.86	-11.26
245.078	136.19
245.295	-64.51
245.512	-44.03
245.729	3.07
245.946	132.09
246.163	60.42
246.38	-15.36
246.597	37.89
246.814	-17.41
247.031	15.36
247.248	97.28
247.464	54.27
247.681	41.98
247.898	15.36
248.115	-13.31
248.332	-17.41
248.549	64.51
248.766	166.91
248.983	140.29
249.2	-37.89
249.417	119.81
249.633	35.84
249.85	7.17
250.067	-25.6
250.284	74.75
250.501	58.37
250.717	84.99
250.934	-25.6
251.151	-11.26
251.368	19.46
251.585	113.66
251.801	72.7
252.018	-17.41
252.235	48.13
252.451	-103.42
252.668	-60.42
252.885	50.18
253.102	-5.12
253.318	-50.18
253.535	-3.07
253.752	-27.65
253.968	31.74
254.185	-78.85
254.401	27.65
254.618	60.42
254.835	-46.08
255.051	52.22
255.268	105.47
255.484	39.94
255.701	70.65
255.917	17.41
256.134	-41.98
256.351	-7.17
256.567	-91.13
256.784	-3.07
257	-58.37
257.217	105.47
257.433	78.85
257.65	66.56
257.866	105.47
258.082	-56.32
258.299	-27.65
258.515	33.79
258.732	101.37
258.948	33.79
259.165	-19.46
259.381	-48.13
259.597	95.23
259.814	-5.12
260.03	52.22
260.246	5.12
260.463	119.81
260.679	128
260.895	-9.22
261.112	21.5
261.328	-25.6
261.544	-48.13
261.761	97.28
261.977	-23.55
262.193	-13.31
262.409	103.42
262.626	97.28
262.842	68.61
263.058	-27.65
263.274	56.32
263.49	-11.26
263.707	54.27
263.923	111.61
264.139	-58.37
264.355	44.03
264.571	105.47
264.787	95.23
265.004	21.5
265.22	-9.22
265.436	-46.08
265.652	3.07
265.868	-7.17
266.084	9.22
266.3	25.6
266.516	-41.98
266.732	72.7
266.948	33.79
267.164	44.03
267.38	60.42
267.596	15.36
267.812	113.66
268.028	37.89
268.244	-33.79
268.46	-29.7
268.676	-35.84
268.892	66.56
269.108	-21.5
269.324	31.74
269.54	-3.07
269.756	125.95
269.972	35.84
270.188	-13.31
270.403	-17.41
270.619	-37.89
270.835	91.13
271.051	52.22
271.267	-58.37
271.483	-54.27
271.698	95.23
271.914	54.27
272.13	-41.98
272.346	27.65
272.562	3.07
272.777	105.47
272.993	-13.31
273.209	56.32
273.425	-15.36
273.64	-52.22
273.856	5.12
274.072	-17.41
274.287	-17.41
274.503	138.24
274.719	84.99
274.934	39.94
275.15	-62.46
275.366	21.5
275.581	-46.08
275.797	-21.5
276.012	-9.22
276.228	17.41
276.444	31.74
276.659	84.99
276.875	-44.03
277.09	-70.65
277.306	-82.94
277.521	21.5
277.737	9.22
277.952	97.28
278.168	13.31
278.383	-39.94
278.599	-89.09
278.814	123.9
279.03	72.7
279.245	154.62
279.461	44.03
279.676	117.76
279.892	-17.41
280.107	-17.41
280.322	35.84
280.538	1.02
280.753	-68.61
280.969	11.26
281.184	113.66
281.399	11.26
281.615	74.75
281.83	56.32
282.045	-80.89
282.26	-1.02
282.476	11.26
282.691	70.65
282.906	-19.46
283.122	21.5
283.337	-13.31
283.552	82.94
283.767	44.03
283.983	105.47
284.198	-50.18
284.413	76.8
284.628	-11.26
284.843	17.41
285.058	21.5
285.274	7.17
285.489	-37.89
285.704	80.89
285.919	-84.99
286.134	-21.5
286.349	27.65
286.564	-41.98
286.779	134.14
286.995	-15.36
287.21	-15.36
287.425	52.22
287.64	17.41
287.855	33.79
288.07	-58.37
288.285	76.8
288.5	72.7
288.715	52.22
288.93	-21.5
289.145	-19.46
289.36	117.76
289.575	41.98
289.79	60.42
290.004	-21.5
290.219	46.08
290.434	-5.12
290.649	-93.18
290.864	15.36
291.079	-9.22
291.294	7.17
291.509	52.22
291.724	-39.94
291.938	-17.41
292.153	39.94
292.368	-29.7
292.583	37.89
292.798	5.12
293.012	109.57
293.227	15.36
293.442	23.55
293.657	168.96
293.871	99.33
294.086	46.08
294.301	136.19
294.516	56.32
294.73	60.42
294.945	-35.84
295.16	9.22
295.374	62.46
295.589	29.7
295.804	-11.26
296.018	80.89
296.233	91.13
296.447	72.7
296.662	13.31
296.877	130.05
297.091	76.8
297.306	21.5
297.52	19.46
297.735	41.98
297.949	-21.5
298.164	46.08
298.378	52.22
298.593	-17.41
298.807	-33.79
299.022	3.07
299.236	150.53
299.451	23.55
299.665	-21.5
299.88	-9.22
300.094	41.98
300.309	-25.6
300.523	-5.12
300.737	23.55
300.952	7.17
301.166	72.7
301.381	-50.18
301.595	-62.46
301.809	54.27
302.024	-5.12
302.238	-3.07
302.452	130.05
302.667	7.17
302.881	121.85
303.095	64.51
303.309	39.94
303.524	-1.02
303.738	64.51
303.952	1.02
304.166	46.08
304.381	-84.99
304.595	183.29
304.809	-31.74
305.023	-19.46
305.237	-9.22
305.452	-1.02
305.666	29.7
305.88	80.89
306.094	87.04
306.308	-5.12
306.522	101.37
306.736	-35.84
306.95	-3.07
307.164	-50.18
307.379	39.94
307.593	115.71
307.807	113.66
308.021	95.23
308.235	11.26
308.449	-58.37
308.663	37.89
308.877	154.62
309.091	-27.65
309.305	66.56
309.519	-7.17
309.733	95.23
309.947	-60.42
310.161	80.89
310.374	-5.12
310.588	132.09
310.802	-35.84
311.016	17.41
311.23	23.55
311.444	-3.07
311.658	-13.31
311.872	132.09
312.085	134.14
312.299	56.32
312.513	162.81
312.727	25.6
312.941	1.02
313.154	91.13
313.368	17.41
313.582	21.5
313.796	72.7
314.009	31.74
314.223	74.75
314.437	68.61
314.651	80.89
314.864	-70.65
315.078	3.07
315.292	1.02
315.505	39.94
315.719	62.46
315.933	-17.41
316.146	37.89
316.36	-46.08
316.573	78.85
316.787	-11.26
317.001	72.7
317.214	-68.61
317.428	-11.26
317.641	-99.33
317.855	5.12
318.068	11.26
318.282	-23.55
318.495	105.47
318.709	48.13
318.922	-5.12
319.136	130.05
319.349	78.85
319.563	3.07
319.776	5.12
319.99	-91.13
320.203	54.27
320.417	-17.41
320.63	23.55
320.843	199.68
321.057	41.98
321.27	-5.12
321.483	39.94
321.697	103.42
321.91	21.5
322.124	15.36
322.337	105.47
322.55	-105.47
322.763	99.33
322.977	31.74
323.19	-52.22
323.403	-52.22
323.617	-1.02
323.83	168.96
324.043	60.42
324.256	33.79
324.469	-123.9
324.683	78.85
324.896	7.17
325.109	35.84
325.322	-21.5
325.535	54.27
325.748	39.94
325.962	-44.03
326.175	31.74
326.388	128
326.601	48.13
326.814	-11.26
327.027	23.55
327.24	72.7
327.453	15.36
327.666	44.03
327.879	84.99
328.092	89.09
328.305	60.42
328.518	27.65
328.731	-25.6
328.944	11.26
329.157	7.17
329.37	25.6
329.583	95.23
329.796	115.71
330.009	-13.31
330.222	54.27
330.435	48.13
330.648	111.61
330.861	72.7
331.073	93.18
331.286	89.09
331.499	-19.46
331.712	-9.22
331.925	103.42
332.138	35.84
332.35	-13.31
332.563	-50.18
332.776	117.76
332.989	-82.94
333.202	-9.22
333.414	-23.55
333.627	68.61
333.84	23.55
334.053	58.37
334.265	23.55
334.478	-5.12
334.691	62.46
334.903	-41.98
335.116	-48.13
335.329	5.12
335.541	95.23
335.754	25.6
335.966	-3.07
336.179	37.89
336.392	-58.37
336.604	-17.41
336.817	23.55
337.029	70.65
337.242	15.36
337.454	17.41
337.667	33.79
337.88	134.14
338.092	48.13
338.305	-29.7
338.517	13.31
338.729	95.23
338.942	111.61
339.154	-68.61
339.367	-5.12
339.579	7.17
339.792	-21.5
340.004	121.85
340.217	-52.22
340.429	39.94
340.641	-31.74
340.854	-76.8
341.066	-25.6
341.278	35.84
341.491	142.33
341.703	74.75
341.915	-33.79
342.128	72.7
342.34	-19.46
342.552	-68.61
342.764	56.32
342.977	17.41
343.189	-52.22
343.401	-33.79
343.613	-74.75
343.826	37.89
344.038	-3.07
344.25	39.94
344.462	-50.18
344.674	64.51
344.886	5.12
345.099	46.08
345.311	50.18
345.523	-70.65
345.735	-60.42
345.947	11.26
346.159	3.07
346.371	-41.98
346.583	-9.22
346.795	146.43
347.007	-5.12
347.219	7.17
347.431	41.98
347.643	87.04
347.855	23.55
348.067	146.43
348.279	-68.61
348.491	31.74
348.703	87.04
348.915	50.18
349.127	-19.46
349.339	-41.98
349.551	-1.02
349.763	64.51
349.975	-17.41
350.187	68.61
350.399	64.51
350.61	84.99
350.822	-21.5
351.034	37.89
351.246	64.51
351.458	35.84
351.669	115.71
351.881	48.13
352.093	33.79
352.305	154.62
352.517	29.7
352.728	97.28
352.94	-31.74
353.152	15.36
353.363	-41.98
353.575	119.81
353.787	109.57
353.999	68.61
354.21	64.51
354.422	-1.02
354.633	-9.22
354.845	41.98
355.057	1.02
355.268	19.46
355.48	103.42
355.692	-62.46
355.903	15.36
356.115	-78.85
356.326	-56.32
356.538	68.61
356.749	15.36
356.961	154.62
357.172	-27.65
357.384	-64.51
357.595	156.67
357.807	76.8
358.018	11.26
358.23	29.7
358.441	224.25
358.653	121.85
358.864	-1.02
359.075	-35.84
359.287	46.08
359.498	95.23
359.709	23.55
359.921	78.85
360.132	89.09
360.344	72.7
360.555	84.99
360.766	-5.12
360.977	87.04
361.189	25.6
361.4	41.98
361.611	-9.22
361.823	48.13
362.034	56.32
362.245	-60.42
362.456	84.99
362.667	56.32
362.879	-17.41
363.09	105.47
363.301	121.85
363.512	68.61
363.723	5.12
363.935	-5.12
364.146	76.8
364.357	41.98
364.568	11.26
364.779	-128
364.99	103.42
365.201	-1.02
365.412	74.75
365.623	-72.7
365.834	37.89
366.045	-9.22
366.256	62.46
366.467	97.28
366.678	37.89
366.889	93.18
367.1	-68.61
367.311	140.29
367.522	-17.41
367.733	93.18
367.944	74.75
368.155	17.41
368.366	62.46
368.577	23.55
368.788	199.68
368.999	-29.7
369.209	-19.46
369.42	209.92
369.631	166.91
369.842	82.94
370.053	-27.65
370.264	113.66
370.474	-3.07
370.685	37.89
370.896	5.12
371.107	144.38
371.317	44.03
371.528	23.55
371.739	105.47
371.95	107.52
372.16	80.89
372.371	-113.66
372.582	27.65
372.792	39.94
373.003	50.18
373.214	15.36
373.424	87.04
373.635	-68.61
373.846	146.43
374.056	93.18
374.267	117.76
374.477	39.94
374.688	-21.5
374.898	-13.31
375.109	62.46
375.319	62.46
375.53	156.67
375.74	46.08
375.951	-17.41
376.161	-9.22
376.372	113.66
376.582	-11.26
376.793	48.13
377.003	-91.13
377.214	48.13
377.424	31.74
377.635	76.8
377.845	35.84
378.055	93.18
378.266	-13.31
378.476	72.7
378.686	13.31
378.897	46.08
379.107	27.65
379.317	-1.02
379.528	-54.27
379.738	-3.07
379.948	-39.94
380.158	97.28
380.369	72.7
380.579	25.6
380.789	-84.99
380.999	9.22
381.21	64.51
381.42	125.95
381.63	15.36
381.84	25.6
382.05	76.8
382.261	97.28
382.471	101.37
382.681	-41.98
382.891	97.28
383.101	87.04
383.311	-70.65
383.521	-54.27
383.731	39.94
383.941	64.51
384.151	-17.41
384.361	-35.84
384.571	72.7
384.781	60.42
384.991	130.05
385.201	119.81
385.411	29.7
385.621	64.51
385.831	39.94
386.041	23.55
386.251	13.31
386.461	48.13
386.671	33.79
386.881	64.51
387.091	-54.27
387.301	52.22
387.511	-3.07
387.72	39.94
387.93	31.74
388.14	-128
388.35	-66.56
388.56	97.28
388.769	146.43
388.979	-37.89
389.189	11.26
389.399	39.94
389.609	41.98
389.818	21.5
390.028	-15.36
390.238	76.8
390.447	-19.46
390.657	35.84
390.867	58.37
391.076	-113.66
391.286	-35.84
391.496	7.17
391.705	3.07
391.915	91.13
392.125	64.51
392.334	15.36
392.544	111.61
392.753	-9.22
392.963	19.46
393.172	87.04
393.382	37.89
393.591	148.48
393.801	-60.42
394.01	119.81
394.22	35.84
394.429	5.12
394.639	35.84
394.848	60.42
395.058	52.22
395.267	29.7
395.477	37.89
395.686	84.99
395.895	125.95
396.105	211.96
396.314	-19.46
396.524	-17.41
396.733	9.22
396.942	80.89
397.152	-21.5
397.361	160.77
397.57	46.08
397.78	54.27
397.989	144.38
398.198	142.33
398.407	-9.22
398.617	52.22
398.826	-9.22
399.035	-33.79
399.244	21.5
399.453	13.31
399.663	60.42
399.872	15.36
400.081	21.5
400.29	164.86
400.499	-23.55
400.708	80.89
400.917	1.02
401.127	-15.36
401.336	-19.46
401.545	107.52
401.754	105.47
401.963	52.22
402.172	46.08
402.381	-64.51
402.59	52.22
402.799	111.61
403.008	160.77
403.217	62.46
403.426	105.47
403.635	-58.37
403.844	74.75
404.053	-25.6
404.262	-21.5
404.471	103.42
404.68	64.51
404.888	-23.55
405.097	23.55
405.306	52.22
405.515	39.94
405.724	31.74
405.933	84.99
406.142	74.75
406.35	138.24
406.559	68.61
406.768	27.65
406.977	97.28
407.185	103.42
407.394	76.8
407.603	-11.26
407.812	60.42
408.02	72.7
408.229	60.42
408.438	50.18
408.646	-3.07
408.855	-1.02
409.064	56.32
409.272	-21.5
409.481	3.07
409.69	-101.37
409.898	-21.5
410.107	33.79
410.315	44.03
410.524	11.26
410.733	13.31
410.941	17.41
411.15	44.03
411.358	136.19
411.567	138.24
411.775	37.89
411.984	93.18
412.192	123.9
412.401	29.7
412.609	84.99
412.818	105.47
413.026	146.43
413.234	46.08
413.443	89.09
413.651	-50.18
413.86	21.5
414.068	74.75
414.276	111.61
414.485	-31.74
414.693	187.39
414.901	89.09
415.11	99.33
415.318	17.41
415.526	39.94
415.734	123.9
415.943	115.71
416.151	74.75
416.359	-21.5
416.567	84.99
416.776	25.6
416.984	54.27
417.192	130.05
417.4	3.07
417.608	-52.22
417.817	-41.98
418.025	27.65
418.233	150.53
418.441	-44.03
418.649	35.84
418.857	54.27
419.065	72.7
419.273	-27.65
419.481	27.65
419.689	56.32
419.897	31.74
420.105	1.02
420.313	80.89
420.521	146.43
420.729	138.24
420.937	27.65
421.145	-117.76
421.353	64.51
421.561	162.81
421.769	56.32
421.977	35.84
422.185	89.09
422.393	-23.55
422.601	111.61
422.809	46.08
423.017	39.94
423.224	52.22
423.432	95.23
423.64	70.65
423.848	21.5
424.056	-46.08
424.263	125.95
424.471	-19.46
424.679	115.71
424.887	-15.36
425.094	136.19
425.302	25.6
425.51	-27.65
425.718	148.48
425.925	109.57
426.133	-15.36
426.341	109.57
426.548	-13.31
426.756	89.09
426.964	62.46
427.171	31.74
427.379	72.7
427.586	54.27
427.794	97.28
428.001	113.66
428.209	25.6
428.417	99.33
428.624	152.57
428.832	87.04
429.039	56.32
429.247	84.99
429.454	87.04
429.662	130.05
429.869	25.6
430.076	70.65
430.284	117.76
430.491	171.01
430.699	80.89
430.906	187.39
431.114	60.42
431.321	123.9
431.528	66.56
431.736	56.32
431.943	48.13
432.15	146.43
432.358	123.9
432.565	181.25
432.772	1.02
432.979	201.72
433.187	15.36
433.394	218.11
433.601	74.75
433.808	209.92
434.016	136.19
434.223	173.05
434.43	103.42
434.637	199.68
434.844	148.48
435.052	105.47
435.259	191.49
435.466	209.92
435.673	138.24
435.88	171.01
436.087	234.49
436.294	209.92
436.501	183.29
436.708	187.39
436.915	179.2
437.122	220.16
437.329	171.01
437.537	277.5
437.743	203.77
437.95	310.27
438.157	191.49
438.364	179.2
438.571	211.96
438.778	273.4
438.985	287.74
439.192	359.42
439.399	334.84
439.606	302.08
439.813	320.51
440.02	445.43
440.227	365.56
440.433	414.71
440.64	316.41
440.847	277.5
441.054	306.17
441.261	457.72
441.467	406.52
441.674	351.23
441.881	519.16
442.088	414.71
442.294	547.83
442.501	519.16
442.708	523.26
442.914	457.72
443.121	562.17
443.328	592.89
443.534	580.6
443.741	648.18
443.948	570.36
444.154	662.52
444.361	848.88
444.568	674.81
444.774	683
444.981	642.04
445.187	883.7
445.394	812.02
445.6	742.39
445.807	969.71
446.013	891.89
446.22	766.96
446.426	967.67
446.633	1031.15
446.839	1172.46
447.046	900.08
447.252	1190.89
447.459	1086.45
447.665	1068.02
447.871	1188.85
448.078	1373.16
448.284	1192.94
448.491	1336.3
448.697	1426.41
448.903	1526.76
449.11	1530.86
449.316	1364.97
449.522	1670.12
449.728	1653.73
449.935	1747.94
450.141	1655.78
450.347	1858.53
450.553	1801.19
450.76	1862.63
450.966	1967.07
451.172	2001.89
451.378	2227.17
451.584	2118.62
451.791	2358.24
451.997	2431.96
452.203	2325.47
452.409	2616.28
452.615	2675.67
452.821	2579.42
453.027	2659.29
453.233	2907.09
453.44	2788.31
453.646	3046.35
453.852	3294.16
454.058	3300.3
454.264	3265.49
454.47	3619.78
454.676	3525.58
454.882	3920.84
455.088	3836.87
455.294	3976.13
455.5	4283.33
455.705	4430.78
455.911	4504.51
456.117	4592.57
456.323	4737.98
456.529	4697.02
456.735	5125.04
456.941	5266.35
457.147	5483.44
457.352	5573.55
457.558	5825.45
457.764	6114.21
457.97	6386.59
458.176	6550.43
458.381	6939.54
458.587	7189.39
458.793	7205.78
458.999	7375.76
459.204	8303.49
459.41	8524.67
459.616	8522.62
459.821	9001.85
460.027	9323.38
460.233	9784.17
460.438	9911.14
460.644	10476.38
460.85	10275.68
461.055	10808.16
461.261	11318.1
461.466	11144.02
461.672	11213.65
461.878	12645.18
462.083	12729.15
462.289	12815.16
462.494	13114.17
462.7	13456.18
462.905	13531.95
463.111	14713.63
463.316	15272.73
463.522	15825.68
463.727	16184.07
463.932	16820.99
464.138	17265.4
464.343	18215.66
464.549	18264.81
464.754	19538.65
464.959	19862.22
465.165	20462.28
465.37	20138.7
465.575	20206.28
465.781	21338.81
465.986	22354.6
466.191	22024.88
466.397	22231.72
466.602	21545.66
466.807	22661.8
467.012	23380.64
467.218	23771.8
467.423	23761.56
467.628	24369.8
467.833	25477.76
468.038	24691.34
468.244	24289.93
468.449	26038.9
468.654	25571.96
468.859	25391.74
469.064	25451.13
