Data from USB4F104151__15__10-23-16-448.txt Node

Date: Wed Feb 26 10:23:16 EST 2025
User: louis
Spectrometer: USB4F10415
Trigger mode: 4
Integration Time (sec): 1.000000E-1
Scans to average: 1
Electric dark correction enabled: true
Nonlinearity correction enabled: false
Boxcar width: 0
XAxis mode: Wavelengths
Number of Pixels in Spectrum: 3648
>>>>>Begin Spectral Data<<<<<
178.204	-353.45
178.424	-353.45
178.644	-353.45
178.864	-416.93
179.084	-337.06
179.304	-15.53
179.524	15.19
179.744	19.29
179.964	37.72
180.184	23.38
180.404	99.16
180.624	-21.67
180.844	25.43
181.064	-175.27
181.283	-33.96
181.503	-23.72
181.723	50
181.943	-64.68
182.163	160.59
182.383	45.91
182.602	127.83
182.822	117.59
183.042	140.12
183.262	-19.63
183.482	-36.01
183.701	23.38
183.921	52.05
184.141	23.38
184.361	125.78
184.58	152.4
184.8	82.77
185.02	52.05
185.239	80.72
185.459	90.96
185.679	164.69
185.898	-97.45
186.118	80.72
186.338	86.87
186.557	60.24
186.777	-38.06
186.997	50
187.216	70.48
187.436	111.44
187.655	97.11
187.875	162.64
188.095	62.29
188.314	86.87
188.534	140.12
188.753	31.57
188.973	129.88
189.192	142.16
189.412	86.87
189.631	68.44
189.851	107.35
190.07	269.14
190.29	-15.53
190.509	-13.48
190.729	74.58
190.948	146.26
191.168	244.56
191.387	107.35
191.607	76.63
191.826	103.25
192.045	80.72
192.265	39.76
192.484	117.59
192.704	0.85
192.923	-5.29
193.142	162.64
193.362	115.54
193.581	105.3
193.8	68.44
194.02	103.25
194.239	39.76
194.458	62.29
194.678	-25.77
194.897	29.52
195.116	121.68
195.335	50
195.555	142.16
195.774	9.05
195.993	142.16
196.212	35.67
196.432	74.58
196.651	2.9
196.87	35.67
197.089	238.42
197.308	86.87
197.528	97.11
197.747	-52.39
197.966	35.67
198.185	158.55
198.404	0.85
198.623	136.02
198.842	189.27
199.062	78.68
199.281	99.16
199.5	37.72
199.719	39.76
199.938	82.77
200.157	142.16
200.376	109.4
200.595	95.06
200.814	76.63
201.033	-5.29
201.252	82.77
201.471	56.15
201.69	156.5
201.909	60.24
202.128	68.44
202.347	-7.34
202.566	72.53
202.785	-13.48
203.004	-27.82
203.223	287.57
203.442	119.64
203.661	-19.63
203.879	52.05
204.098	166.74
204.317	-17.58
204.536	168.79
204.755	115.54
204.974	119.64
205.193	-31.91
205.411	101.2
205.63	119.64
205.849	93.01
206.068	107.35
206.287	23.38
206.505	181.07
206.724	13.14
206.943	35.67
207.162	52.05
207.381	17.24
207.599	68.44
207.818	-27.82
208.037	2.9
208.255	21.33
208.474	121.68
208.693	-3.24
208.911	31.57
209.13	113.49
209.349	35.67
209.567	60.24
209.786	105.3
210.005	185.17
210.223	0.85
210.442	-44.2
210.661	66.39
210.879	37.72
211.098	56.15
211.316	109.4
211.535	158.55
211.753	76.63
211.972	66.39
212.191	74.58
212.409	107.35
212.628	68.44
212.846	80.72
213.065	60.24
213.283	60.24
213.502	58.2
213.72	11.09
213.938	144.21
214.157	56.15
214.375	93.01
214.594	35.67
214.812	93.01
215.031	-19.63
215.249	146.26
215.467	103.25
215.686	35.67
215.904	68.44
216.122	37.72
216.341	136.02
216.559	58.2
216.778	131.92
216.996	162.64
217.214	-33.96
217.432	35.67
217.651	-23.72
217.869	21.33
218.087	50
218.306	90.96
218.524	125.78
218.742	66.39
218.96	150.36
219.179	25.43
219.397	86.87
219.615	199.51
219.833	84.82
220.051	37.72
220.27	115.54
220.488	150.36
220.706	95.06
220.924	56.15
221.142	-38.06
221.36	164.69
221.578	78.68
221.796	66.39
222.015	84.82
222.233	56.15
222.451	201.55
222.669	-3.24
222.887	80.72
223.105	25.43
223.323	7
223.541	-9.39
223.759	19.29
223.977	105.3
224.195	234.32
224.413	103.25
224.631	101.2
224.849	107.35
225.067	195.41
225.285	37.72
225.503	-7.34
225.721	-25.77
225.939	97.11
226.157	64.34
226.375	199.51
226.592	-81.07
226.81	129.88
227.028	64.34
227.246	174.93
227.464	76.63
227.682	187.22
227.9	43.86
228.117	68.44
228.335	84.82
228.553	113.49
228.771	-7.34
228.989	47.96
229.206	146.26
229.424	58.2
229.642	58.2
229.86	-33.96
230.077	138.07
230.295	31.57
230.513	138.07
230.731	82.77
230.948	234.32
231.166	174.93
231.384	33.62
231.601	35.67
231.819	181.07
232.037	45.91
232.254	11.09
232.472	45.91
232.689	58.2
232.907	176.98
233.125	74.58
233.342	7
233.56	54.1
233.777	35.67
233.995	37.72
234.213	95.06
234.43	140.12
234.648	74.58
234.865	45.91
235.083	90.96
235.3	97.11
235.518	111.44
235.735	107.35
235.953	86.87
236.17	35.67
236.388	60.24
236.605	66.39
236.822	66.39
237.04	146.26
237.257	88.92
237.475	33.62
237.692	15.19
237.909	107.35
238.127	-21.67
238.344	125.78
238.562	119.64
238.779	-48.3
238.996	-70.83
239.214	39.76
239.431	127.83
239.648	86.87
239.865	47.96
240.083	103.25
240.3	-46.25
240.517	4.95
240.735	52.05
240.952	154.45
241.169	78.68
241.386	86.87
241.603	31.57
241.821	60.24
242.038	76.63
242.255	158.55
242.472	-44.2
242.689	90.96
242.907	93.01
243.124	90.96
243.341	105.3
243.558	50
243.775	-11.43
243.992	-21.67
244.209	140.12
244.426	232.27
244.643	121.68
244.86	45.91
245.078	129.88
245.295	103.25
245.512	35.67
245.729	2.9
245.946	105.3
246.163	31.57
246.38	13.14
246.597	115.54
246.814	101.2
247.031	84.82
247.248	113.49
247.464	187.22
247.681	33.62
247.898	35.67
248.115	86.87
248.332	31.57
248.549	129.88
248.766	133.97
248.983	62.29
249.2	72.53
249.417	172.88
249.633	64.34
249.85	66.39
250.067	82.77
250.284	58.2
250.501	99.16
250.717	146.26
250.934	21.33
251.151	109.4
251.368	84.82
251.585	101.2
251.801	52.05
252.018	23.38
252.235	181.07
252.451	-91.31
252.668	4.95
252.885	156.5
253.102	86.87
253.318	21.33
253.535	41.81
253.752	4.95
253.968	37.72
254.185	7
254.401	95.06
254.618	86.87
254.835	35.67
255.051	166.74
255.268	99.16
255.484	74.58
255.701	17.24
255.917	127.83
256.134	-7.34
256.351	-38.06
256.567	21.33
256.784	80.72
257	-101.55
257.217	154.45
257.433	125.78
257.65	41.81
257.866	176.98
258.082	-58.54
258.299	62.29
258.515	88.92
258.732	60.24
258.948	-5.29
259.165	0.85
259.381	13.14
259.597	84.82
259.814	9.05
260.03	0.85
260.246	78.68
260.463	164.69
260.679	242.51
260.895	115.54
261.112	33.62
261.328	111.44
261.544	31.57
261.761	131.92
261.977	80.72
262.193	-11.43
262.409	144.21
262.626	72.53
262.842	90.96
263.058	2.9
263.274	248.66
263.49	-19.63
263.707	129.88
263.923	136.02
264.139	-85.16
264.355	41.81
264.571	86.87
264.787	181.07
265.004	131.92
265.22	35.67
265.436	17.24
265.652	-15.53
265.868	129.88
266.084	-62.63
266.3	50
266.516	-36.01
266.732	125.78
266.948	-3.24
267.164	21.33
267.38	60.24
267.596	70.48
267.812	154.45
268.028	31.57
268.244	15.19
268.46	50
268.676	39.76
268.892	93.01
269.108	97.11
269.324	-36.01
269.54	-58.54
269.756	125.78
269.972	-15.53
270.188	29.52
270.403	43.86
270.619	74.58
270.835	154.45
271.051	58.2
271.267	23.38
271.483	-7.34
271.698	150.36
271.914	52.05
272.13	78.68
272.346	72.53
272.562	7
272.777	136.02
272.993	25.43
273.209	-23.72
273.425	150.36
273.64	-31.91
273.856	107.35
274.072	60.24
274.287	58.2
274.503	107.35
274.719	158.55
274.934	-19.63
275.15	-89.26
275.366	39.76
275.581	-46.25
275.797	66.39
276.012	74.58
276.228	-31.91
276.444	-15.53
276.659	123.73
276.875	-5.29
277.09	80.72
277.306	101.2
277.521	125.78
277.737	74.58
277.952	152.4
278.168	88.92
278.383	76.63
278.599	56.15
278.814	70.48
279.03	43.86
279.245	136.02
279.461	117.59
279.676	78.68
279.892	-15.53
280.107	-15.53
280.322	70.48
280.538	86.87
280.753	19.29
280.969	68.44
281.184	2.9
281.399	160.59
281.615	41.81
281.83	45.91
282.045	-29.87
282.26	2.9
282.476	29.52
282.691	179.03
282.906	97.11
283.122	66.39
283.337	19.29
283.552	68.44
283.767	43.86
283.983	115.54
284.198	31.57
284.413	90.96
284.628	-66.73
284.843	45.91
285.058	133.97
285.274	64.34
285.489	-1.19
285.704	131.92
285.919	58.2
286.134	-7.34
286.349	50
286.564	54.1
286.779	226.13
286.995	-7.34
287.21	-60.59
287.425	115.54
287.64	17.24
287.855	148.31
288.07	-83.11
288.285	103.25
288.5	179.03
288.715	74.58
288.93	84.82
289.145	13.14
289.36	131.92
289.575	33.62
289.79	84.82
290.004	-9.39
290.219	148.31
290.434	68.44
290.649	-17.58
290.864	9.05
291.079	13.14
291.294	82.77
291.509	127.83
291.724	43.86
291.938	64.34
292.153	64.34
292.368	33.62
292.583	45.91
292.798	84.82
293.012	76.63
293.227	105.3
293.442	11.09
293.657	50
293.871	131.92
294.086	13.14
294.301	197.46
294.516	127.83
294.73	43.86
294.945	11.09
295.16	4.95
295.374	162.64
295.589	90.96
295.804	-1.19
296.018	133.97
296.233	90.96
296.447	144.21
296.662	-52.39
296.877	140.12
297.091	93.01
297.306	66.39
297.52	15.19
297.735	29.52
297.949	58.2
298.164	78.68
298.378	56.15
298.593	-42.15
298.807	19.29
299.022	-13.48
299.236	78.68
299.451	33.62
299.665	17.24
299.88	0.85
300.094	11.09
300.309	15.19
300.523	88.92
300.737	-9.39
300.952	88.92
301.166	84.82
301.381	-13.48
301.595	-11.43
301.809	76.63
302.024	15.19
302.238	-3.24
302.452	117.59
302.667	54.1
302.881	154.45
303.095	164.69
303.309	58.2
303.524	19.29
303.738	-56.49
303.952	58.2
304.166	80.72
304.381	-91.31
304.595	226.13
304.809	25.43
305.023	80.72
305.237	31.57
305.452	17.24
305.666	119.64
305.88	105.3
306.094	144.21
306.308	111.44
306.522	111.44
306.736	136.02
306.95	142.16
307.164	119.64
307.379	56.15
307.593	162.64
307.807	201.55
308.021	119.64
308.235	129.88
308.449	-3.24
308.663	29.52
308.877	271.19
309.091	47.96
309.305	158.55
309.519	15.19
309.733	125.78
309.947	-56.49
310.161	119.64
310.374	111.44
310.588	138.07
310.802	62.29
311.016	64.34
311.23	131.92
311.444	47.96
311.658	39.76
311.872	148.31
312.085	185.17
312.299	97.11
312.513	144.21
312.727	78.68
312.941	-31.91
313.154	15.19
313.368	97.11
313.582	84.82
313.796	29.52
314.009	80.72
314.223	84.82
314.437	70.48
314.651	56.15
314.864	35.67
315.078	-25.77
315.292	35.67
315.505	41.81
315.719	109.4
315.933	97.11
316.146	58.2
316.36	9.05
316.573	189.27
316.787	109.4
317.001	82.77
317.214	-9.39
317.428	115.54
317.641	45.91
317.855	45.91
318.068	144.21
318.282	11.09
318.495	154.45
318.709	93.01
318.922	70.48
319.136	142.16
319.349	140.12
319.563	43.86
319.776	99.16
319.99	-36.01
320.203	111.44
320.417	29.52
320.63	62.29
320.843	127.83
321.057	58.2
321.27	72.53
321.483	58.2
321.697	142.16
321.91	62.29
322.124	37.72
322.337	-29.87
322.55	0.85
322.763	43.86
322.977	58.2
323.19	27.48
323.403	90.96
323.617	97.11
323.83	80.72
324.043	62.29
324.256	52.05
324.469	-7.34
324.683	68.44
324.896	9.05
325.109	90.96
325.322	-56.49
325.535	78.68
325.748	129.88
325.962	19.29
326.175	25.43
326.388	35.67
326.601	95.06
326.814	105.3
327.027	90.96
327.24	185.17
327.453	-54.44
327.666	95.06
327.879	113.49
328.092	84.82
328.305	25.43
328.518	-7.34
328.731	-3.24
328.944	-11.43
329.157	164.69
329.37	21.33
329.583	176.98
329.796	107.35
330.009	-58.54
330.222	170.83
330.435	99.16
330.648	41.81
330.861	60.24
331.073	95.06
331.286	107.35
331.499	68.44
331.712	62.29
331.925	56.15
332.138	25.43
332.35	142.16
332.563	-29.87
332.776	52.05
332.989	60.24
333.202	41.81
333.414	39.76
333.627	29.52
333.84	-42.15
334.053	95.06
334.265	-9.39
334.478	88.92
334.691	88.92
334.903	66.39
335.116	-3.24
335.329	68.44
335.541	86.87
335.754	162.64
335.966	74.58
336.179	84.82
336.392	13.14
336.604	68.44
336.817	119.64
337.029	29.52
337.242	68.44
337.454	127.83
337.667	62.29
337.88	80.72
338.092	64.34
338.305	119.64
338.517	-46.25
338.729	93.01
338.942	131.92
339.154	-70.83
339.367	-33.96
339.579	82.77
339.792	-52.39
340.004	115.54
340.217	47.96
340.429	115.54
340.641	-19.63
340.854	9.05
341.066	45.91
341.278	215.89
341.491	228.18
341.703	103.25
341.915	9.05
342.128	2.9
342.34	64.34
342.552	25.43
342.764	11.09
342.977	74.58
343.189	37.72
343.401	43.86
343.613	-5.29
343.826	58.2
344.038	-42.15
344.25	60.24
344.462	33.62
344.674	41.81
344.886	-9.39
345.099	56.15
345.311	62.29
345.523	52.05
345.735	-64.68
345.947	19.29
346.159	148.31
346.371	97.11
346.583	80.72
346.795	209.75
347.007	4.95
347.219	107.35
347.431	70.48
347.643	146.26
347.855	7
348.067	166.74
348.279	50
348.491	54.1
348.703	54.1
348.915	9.05
349.127	-13.48
349.339	60.24
349.551	29.52
349.763	140.12
349.975	33.62
350.187	193.36
350.399	201.55
350.61	99.16
350.822	15.19
351.034	119.64
351.246	-7.34
351.458	123.73
351.669	33.62
351.881	88.92
352.093	84.82
352.305	189.27
352.517	72.53
352.728	76.63
352.94	-3.24
353.152	117.59
353.363	-79.02
353.575	45.91
353.787	105.3
353.999	127.83
354.21	197.46
354.422	29.52
354.633	4.95
354.845	119.64
355.057	41.81
355.268	41.81
355.48	113.49
355.692	-11.43
355.903	123.73
356.115	-13.48
356.326	-76.97
356.538	197.46
356.749	129.88
356.961	123.73
357.172	35.67
357.384	41.81
357.595	197.46
357.807	41.81
358.018	19.29
358.23	80.72
358.441	138.07
358.653	138.07
358.864	43.86
359.075	-17.58
359.287	99.16
359.498	103.25
359.709	146.26
359.921	68.44
360.132	95.06
360.344	136.02
360.555	29.52
360.766	68.44
360.977	41.81
361.189	162.64
361.4	58.2
361.611	105.3
361.823	172.88
362.034	64.34
362.245	-38.06
362.456	56.15
362.667	117.59
362.879	123.73
363.09	129.88
363.301	103.25
363.512	-62.63
363.723	62.29
363.935	37.72
364.146	60.24
364.357	58.2
364.568	45.91
364.779	70.48
364.99	176.98
365.201	-89.26
365.412	176.98
365.623	-17.58
365.834	41.81
366.045	144.21
366.256	166.74
366.467	95.06
366.678	84.82
366.889	-19.63
367.1	64.34
367.311	160.59
367.522	70.48
367.733	103.25
367.944	72.53
368.155	45.91
368.366	111.44
368.577	133.97
368.788	101.2
368.999	17.24
369.209	117.59
369.42	342.86
369.631	228.18
369.842	54.1
370.053	41.81
370.264	109.4
370.474	-9.39
370.685	103.25
370.896	27.48
371.107	144.21
371.317	146.26
371.528	54.1
371.739	138.07
371.95	125.78
372.16	31.57
372.371	-36.01
372.582	127.83
372.792	109.4
373.003	88.92
373.214	62.29
373.424	125.78
373.635	-56.49
373.846	174.93
374.056	113.49
374.267	64.34
374.477	115.54
374.688	70.48
374.898	82.77
375.109	84.82
375.319	125.78
375.53	127.83
375.74	131.92
375.951	35.67
376.161	136.02
376.372	138.07
376.582	27.48
376.793	90.96
377.003	60.24
377.214	-21.67
377.424	131.92
377.635	33.62
377.845	-19.63
378.055	125.78
378.266	19.29
378.476	-36.01
378.686	90.96
378.897	21.33
379.107	58.2
379.317	156.5
379.528	-27.82
379.738	123.73
379.948	-62.63
380.158	160.59
380.369	95.06
380.579	97.11
380.789	90.96
380.999	172.88
381.21	19.29
381.42	78.68
381.63	54.1
381.84	125.78
382.05	164.69
382.261	115.54
382.471	111.44
382.681	97.11
382.891	107.35
383.101	121.68
383.311	11.09
383.521	99.16
383.731	119.64
383.941	156.5
384.151	127.83
384.361	15.19
384.571	154.45
384.781	95.06
384.991	160.59
385.201	215.89
385.411	168.79
385.621	150.36
385.831	105.3
386.041	68.44
386.251	90.96
386.461	82.77
386.671	68.44
386.881	47.96
387.091	-5.29
387.301	150.36
387.511	11.09
387.72	138.07
387.93	129.88
388.14	-58.54
388.35	23.38
388.56	168.79
388.769	117.59
388.979	105.3
389.189	-7.34
389.399	78.68
389.609	150.36
389.818	90.96
390.028	43.86
390.238	21.33
390.447	-48.3
390.657	142.16
390.867	7
391.076	-68.78
391.286	129.88
391.496	82.77
391.705	136.02
391.915	181.07
392.125	113.49
392.334	-21.67
392.544	125.78
392.753	66.39
392.963	-25.77
393.172	82.77
393.382	21.33
393.591	265.04
393.801	66.39
394.01	90.96
394.22	224.08
394.429	172.88
394.639	4.95
394.848	50
395.058	119.64
395.267	105.3
395.477	64.34
395.686	78.68
395.895	295.76
396.105	191.31
396.314	62.29
396.524	41.81
396.733	99.16
396.942	105.3
397.152	62.29
397.361	170.83
397.57	70.48
397.78	52.05
397.989	105.3
398.198	189.27
398.407	13.14
398.617	72.53
398.826	52.05
399.035	31.57
399.244	86.87
399.453	129.88
399.663	183.12
399.872	115.54
400.081	-31.91
400.29	129.88
400.499	17.24
400.708	133.97
400.917	95.06
401.127	64.34
401.336	25.43
401.545	162.64
401.754	140.12
401.963	93.01
402.172	64.34
402.381	7
402.59	-9.39
402.799	47.96
403.008	199.51
403.217	64.34
403.426	95.06
403.635	21.33
403.844	62.29
404.053	99.16
404.262	45.91
404.471	127.83
404.68	115.54
404.888	60.24
405.097	127.83
405.306	50
405.515	131.92
405.724	45.91
405.933	172.88
406.142	82.77
406.35	152.4
406.559	4.95
406.768	66.39
406.977	166.74
407.185	97.11
407.394	68.44
407.603	-36.01
407.812	39.76
408.02	209.75
408.229	107.35
408.438	47.96
408.646	56.15
408.855	56.15
409.064	19.29
409.272	39.76
409.481	68.44
409.69	-38.06
409.898	-13.48
410.107	72.53
410.315	113.49
410.524	41.81
410.733	78.68
410.941	45.91
411.15	107.35
411.358	54.1
411.567	236.37
411.775	47.96
411.984	80.72
412.192	25.43
412.401	84.82
412.609	179.03
412.818	172.88
413.026	101.2
413.234	0.85
413.443	84.82
413.651	-17.58
413.86	211.79
414.068	88.92
414.276	199.51
414.485	-23.72
414.693	160.59
414.901	166.74
415.11	113.49
415.318	72.53
415.526	78.68
415.734	119.64
415.943	17.24
416.151	142.16
416.359	58.2
416.567	80.72
416.776	82.77
416.984	113.49
417.192	240.47
417.4	35.67
417.608	29.52
417.817	54.1
418.025	172.88
418.233	170.83
418.441	17.24
418.649	-40.11
418.857	72.53
419.065	209.75
419.273	0.85
419.481	107.35
419.689	105.3
419.897	-17.58
420.105	-1.19
420.313	187.22
420.521	191.31
420.729	133.97
420.937	29.52
421.145	25.43
421.353	127.83
421.561	203.6
421.769	52.05
421.977	23.38
422.185	152.4
422.393	62.29
422.601	152.4
422.809	115.54
423.017	64.34
423.224	123.73
423.432	129.88
423.64	101.2
423.848	168.79
424.056	7
424.263	93.01
424.471	64.34
424.679	205.65
424.887	72.53
425.094	201.55
425.302	148.31
425.51	156.5
425.718	86.87
425.925	90.96
426.133	56.15
426.341	129.88
426.548	62.29
426.756	66.39
426.964	123.73
427.171	37.72
427.379	64.34
427.586	78.68
427.794	136.02
428.001	199.51
428.209	111.44
428.417	162.64
428.624	156.5
428.832	-40.11
429.039	56.15
429.247	107.35
429.454	133.97
429.662	224.08
429.869	133.97
430.076	133.97
430.284	197.46
430.491	228.18
430.699	154.45
430.906	267.09
431.114	131.92
431.321	93.01
431.528	136.02
431.736	189.27
431.943	201.55
432.15	197.46
432.358	183.12
432.565	279.38
432.772	60.24
432.979	187.22
433.187	144.21
433.394	195.41
433.601	166.74
433.808	258.9
434.016	238.42
434.223	277.33
434.43	224.08
434.637	260.95
434.844	187.22
435.052	138.07
435.259	281.43
435.466	224.08
435.673	236.37
435.88	232.27
436.087	252.75
436.294	363.34
436.501	314.19
436.708	322.38
436.915	283.47
437.122	398.16
437.329	279.38
437.537	308.05
437.743	361.3
437.95	408.4
438.157	328.53
438.364	320.34
438.571	361.3
438.778	385.87
438.985	404.3
439.192	455.5
439.399	330.58
439.606	416.59
439.813	463.69
440.02	596.81
440.227	605
440.433	533.33
440.64	461.65
440.847	439.12
441.054	551.76
441.261	717.64
441.467	584.52
441.674	555.85
441.881	594.76
442.088	537.42
442.294	637.77
442.501	697.16
442.708	736.07
442.914	670.54
443.121	768.84
443.328	777.03
443.534	805.71
443.741	772.94
443.948	697.16
444.154	807.75
444.361	1059.65
444.568	899.91
444.774	904.01
444.981	795.47
445.187	1059.65
445.394	1082.18
445.6	1006.41
445.807	1200.96
446.013	1170.24
446.22	1139.52
446.426	1174.34
446.633	1291.07
446.839	1393.47
447.046	1276.74
447.252	1516.35
447.459	1432.38
447.665	1473.34
447.871	1467.2
448.078	1739.58
448.284	1684.28
448.491	1790.78
448.697	1770.3
448.903	1923.9
449.11	1975.1
449.316	2003.77
449.522	2120.5
449.728	2190.13
449.935	2321.2
450.141	2241.33
450.347	2482.99
450.553	2470.7
450.76	2356.02
450.966	2646.83
451.172	2609.97
451.378	2816.81
451.584	2865.96
451.791	2945.83
451.997	2986.79
452.203	3146.53
452.409	3500.83
452.615	3545.89
452.821	3502.88
453.027	3390.24
453.233	3873.56
453.44	3787.55
453.646	3748.64
453.852	4141.85
454.058	4195.09
454.264	4442.9
454.47	4676.37
454.676	4545.3
454.882	5038.86
455.088	4813.58
455.294	5073.67
455.5	5464.83
455.705	5606.14
455.911	5901.05
456.117	5782.27
456.323	5966.59
456.529	5896.96
456.735	6589.17
456.941	6861.55
457.147	6994.67
457.352	7230.18
457.558	7498.47
457.764	7985.88
457.97	8198.87
458.176	8422.1
458.381	8905.42
458.587	8938.19
458.793	9312.97
458.999	9274.06
459.204	10826.42
459.41	11035.31
459.616	10967.73
459.821	11526.82
460.027	12028.57
460.233	12479.13
460.438	12642.96
460.644	13027.98
460.85	13365.9
461.055	14088.83
461.261	14451.32
461.466	14264.96
461.672	14461.56
461.878	16400.99
462.083	15983.2
462.289	16255.58
462.494	17148.5
462.7	17117.78
462.905	17416.78
463.111	18842.17
463.316	19960.36
463.522	20021.8
463.727	20775.45
463.932	21535.24
464.138	22256.13
464.343	22919.67
464.549	23632.36
464.754	24846.81
464.959	25346.51
465.165	26163.65
465.37	25754.06
465.575	26038.73
465.781	27457.97
465.986	28406.18
466.191	27943.34
466.397	28133.8
466.602	27347.38
466.807	28924.32
467.012	29415.83
467.218	30083.47
467.423	30478.72
467.628	31170.94
467.833	32635.24
468.038	31852.91
468.244	31539.57
468.449	33059.16
