Data from USB4F104151__55__10-26-04-930.txt Node

Date: Wed Feb 26 10:26:04 EST 2025
User: louis
Spectrometer: USB4F10415
Trigger mode: 4
Integration Time (sec): 1.000000E-1
Scans to average: 1
Electric dark correction enabled: true
Nonlinearity correction enabled: false
Boxcar width: 0
XAxis mode: Wavelengths
Number of Pixels in Spectrum: 3648
>>>>>Begin Spectral Data<<<<<
178.204	-375.97
178.424	-375.97
178.644	-375.97
178.864	-414.88
179.084	-402.6
179.304	-9.39
179.524	-5.29
179.744	9.05
179.964	41.81
180.184	47.96
180.404	47.96
180.624	-13.48
180.844	-3.24
181.064	-101.55
181.283	-13.48
181.503	-46.25
181.723	45.91
181.943	-119.98
182.163	189.27
182.383	-64.68
182.602	2.9
182.822	138.07
183.042	76.63
183.262	-25.77
183.482	41.81
183.701	64.34
183.921	43.86
184.141	-99.5
184.361	97.11
184.58	84.82
184.8	33.62
185.02	-50.35
185.239	2.9
185.459	13.14
185.679	76.63
185.898	-74.92
186.118	-27.82
186.338	111.44
186.557	197.46
186.777	-36.01
186.997	-50.35
187.216	54.1
187.436	142.16
187.655	84.82
187.875	103.25
188.095	-13.48
188.314	72.53
188.534	136.02
188.753	-68.78
188.973	70.48
189.192	127.83
189.412	0.85
189.631	45.91
189.851	113.49
190.07	113.49
190.29	-21.67
190.509	-5.29
190.729	29.52
190.948	172.88
191.168	238.42
191.387	-25.77
191.607	43.86
191.826	50
192.045	72.53
192.265	-27.82
192.484	39.76
192.704	-40.11
192.923	-62.63
193.142	123.73
193.362	93.01
193.581	162.64
193.8	-11.43
194.02	52.05
194.239	93.01
194.458	47.96
194.678	15.19
194.897	-19.63
195.116	78.68
195.335	103.25
195.555	15.19
195.774	-38.06
195.993	95.06
196.212	13.14
196.432	-52.39
196.651	-31.91
196.87	-9.39
197.089	203.6
197.308	23.38
197.528	35.67
197.747	-66.73
197.966	-17.58
198.185	109.4
198.404	-7.34
198.623	125.78
198.842	179.03
199.062	95.06
199.281	101.2
199.5	39.76
199.719	58.2
199.938	68.44
200.157	25.43
200.376	56.15
200.595	127.83
200.814	56.15
201.033	-46.25
201.252	136.02
201.471	47.96
201.69	125.78
201.909	-3.24
202.128	97.11
202.347	90.96
202.566	19.29
202.785	-44.2
203.004	-7.34
203.223	162.64
203.442	-42.15
203.661	0.85
203.879	70.48
204.098	93.01
204.317	-3.24
204.536	78.68
204.755	64.34
204.974	86.87
205.193	35.67
205.411	101.2
205.63	156.5
205.849	76.63
206.068	-38.06
206.287	-87.21
206.505	119.64
206.724	0.85
206.943	-72.87
207.162	-56.49
207.381	88.92
207.599	13.14
207.818	-31.91
208.037	-31.91
208.255	-25.77
208.474	13.14
208.693	-15.53
208.911	-19.63
209.13	52.05
209.349	66.39
209.567	52.05
209.786	47.96
210.005	66.39
210.223	56.15
210.442	-27.82
210.661	68.44
210.879	23.38
211.098	80.72
211.316	64.34
211.535	117.59
211.753	66.39
211.972	82.77
212.191	60.24
212.409	-9.39
212.628	140.12
212.846	19.29
213.065	80.72
213.283	93.01
213.502	41.81
213.72	-7.34
213.938	82.77
214.157	37.72
214.375	56.15
214.594	37.72
214.812	101.2
215.031	21.33
215.249	-31.91
215.467	35.67
215.686	29.52
215.904	70.48
216.122	27.48
216.341	90.96
216.559	39.76
216.778	101.2
216.996	76.63
217.214	19.29
217.432	33.62
217.651	-1.19
217.869	29.52
218.087	9.05
218.306	-21.67
218.524	-1.19
218.742	-36.01
218.96	154.45
219.179	-38.06
219.397	31.57
219.615	205.65
219.833	166.74
220.051	-48.3
220.27	41.81
220.488	162.64
220.706	109.4
220.924	-27.82
221.142	-11.43
221.36	101.2
221.578	86.87
221.796	-5.29
222.015	13.14
222.233	105.3
222.451	170.83
222.669	-91.31
222.887	66.39
223.105	9.05
223.323	-56.49
223.541	-64.68
223.759	74.58
223.977	4.95
224.195	109.4
224.413	35.67
224.631	9.05
224.849	19.29
225.067	187.22
225.285	-46.25
225.503	-56.49
225.721	-87.21
225.939	-40.11
226.157	17.24
226.375	224.08
226.592	-111.78
226.81	-5.29
227.028	58.2
227.246	78.68
227.464	-29.87
227.682	133.97
227.9	80.72
228.117	58.2
228.335	31.57
228.553	17.24
228.771	-58.54
228.989	50
229.206	70.48
229.424	7
229.642	37.72
229.86	-72.87
230.077	123.73
230.295	62.29
230.513	54.1
230.731	56.15
230.948	93.01
231.166	162.64
231.384	-9.39
231.601	-38.06
231.819	183.12
232.037	-38.06
232.254	-23.72
232.472	-29.87
232.689	-27.82
232.907	140.12
233.125	25.43
233.342	-25.77
233.56	-101.55
233.777	-3.24
233.995	15.19
234.213	146.26
234.43	50
234.648	0.85
234.865	-56.49
235.083	15.19
235.3	9.05
235.518	56.15
235.735	125.78
235.953	31.57
236.17	9.05
236.388	-5.29
236.605	90.96
236.822	25.43
237.04	72.53
237.257	68.44
237.475	19.29
237.692	74.58
237.909	58.2
238.127	29.52
238.344	13.14
238.562	15.19
238.779	-58.54
238.996	-68.78
239.214	-1.19
239.431	113.49
239.648	-5.29
239.865	52.05
240.083	27.48
240.3	68.44
240.517	13.14
240.735	29.52
240.952	86.87
241.169	23.38
241.386	25.43
241.603	17.24
241.821	-9.39
242.038	78.68
242.255	88.92
242.472	-19.63
242.689	35.67
242.907	21.33
243.124	33.62
243.341	76.63
243.558	33.62
243.775	-9.39
243.992	-58.54
244.209	68.44
244.426	131.92
244.643	88.92
244.86	50
245.078	121.68
245.295	-23.72
245.512	0.85
245.729	-107.69
245.946	17.24
246.163	50
246.38	-38.06
246.597	105.3
246.814	11.09
247.031	78.68
247.248	-3.24
247.464	103.25
247.681	86.87
247.898	9.05
248.115	2.9
248.332	-15.53
248.549	107.35
248.766	168.79
248.983	105.3
249.2	56.15
249.417	146.26
249.633	27.48
249.85	39.76
250.067	-29.87
250.284	-9.39
250.501	93.01
250.717	21.33
250.934	-89.26
251.151	21.33
251.368	4.95
251.585	47.96
251.801	90.96
252.018	-50.35
252.235	95.06
252.451	-23.72
252.668	-40.11
252.885	164.69
253.102	-9.39
253.318	-36.01
253.535	2.9
253.752	33.62
253.968	21.33
254.185	-64.68
254.401	47.96
254.618	74.58
254.835	9.05
255.051	115.54
255.268	80.72
255.484	0.85
255.701	31.57
255.917	27.48
256.134	60.24
256.351	13.14
256.567	-15.53
256.784	95.06
257	-52.39
257.217	93.01
257.433	37.72
257.65	13.14
257.866	123.73
258.082	-99.5
258.299	-27.82
258.515	58.2
258.732	-79.02
258.948	-54.44
259.165	62.29
259.381	-25.77
259.597	21.33
259.814	-1.19
260.03	0.85
260.246	-19.63
260.463	74.58
260.679	203.6
260.895	29.52
261.112	84.82
261.328	-40.11
261.544	-19.63
261.761	174.93
261.977	-15.53
262.193	-74.92
262.409	101.2
262.626	-124.07
262.842	101.2
263.058	-46.25
263.274	105.3
263.49	56.15
263.707	66.39
263.923	47.96
264.139	-99.5
264.355	78.68
264.571	150.36
264.787	9.05
265.004	64.34
265.22	-7.34
265.436	-15.53
265.652	43.86
265.868	-5.29
266.084	-130.22
266.3	0.85
266.516	-23.72
266.732	39.76
266.948	9.05
267.164	-52.39
267.38	70.48
267.596	19.29
267.812	211.79
268.028	-31.91
268.244	-27.82
268.46	31.57
268.676	-36.01
268.892	39.76
269.108	-62.63
269.324	-29.87
269.54	-109.74
269.756	58.2
269.972	-85.16
270.188	-40.11
270.403	-52.39
270.619	37.72
270.835	17.24
271.051	33.62
271.267	-19.63
271.483	-62.63
271.698	60.24
271.914	45.91
272.13	127.83
272.346	-103.59
272.562	21.33
272.777	115.54
272.993	-25.77
273.209	-48.3
273.425	13.14
273.64	-5.29
273.856	93.01
274.072	-50.35
274.287	2.9
274.503	113.49
274.719	62.29
274.934	66.39
275.15	-87.21
275.366	35.67
275.581	50
275.797	-11.43
276.012	54.1
276.228	-7.34
276.444	-17.58
276.659	103.25
276.875	-74.92
277.09	11.09
277.306	-29.87
277.521	101.2
277.737	-21.67
277.952	84.82
278.168	0.85
278.383	80.72
278.599	25.43
278.814	39.76
279.03	-11.43
279.245	103.25
279.461	-19.63
279.676	117.59
279.892	-3.24
280.107	-50.35
280.322	-42.15
280.538	-1.19
280.753	-23.72
280.969	117.59
281.184	19.29
281.399	64.34
281.615	-9.39
281.83	58.2
282.045	-60.59
282.26	-23.72
282.476	-25.77
282.691	70.48
282.906	13.14
283.122	19.29
283.337	9.05
283.552	45.91
283.767	-79.02
283.983	105.3
284.198	27.48
284.413	39.76
284.628	9.05
284.843	11.09
285.058	78.68
285.274	19.29
285.489	-68.78
285.704	140.12
285.919	56.15
286.134	-9.39
286.349	23.38
286.564	2.9
286.779	86.87
286.995	-7.34
287.21	-25.77
287.425	54.1
287.64	21.33
287.855	82.77
288.07	-5.29
288.285	111.44
288.5	136.02
288.715	172.88
288.93	35.67
289.145	23.38
289.36	43.86
289.575	21.33
289.79	164.69
290.004	-91.31
290.219	56.15
290.434	-36.01
290.649	-36.01
290.864	-36.01
291.079	-25.77
291.294	13.14
291.509	-31.91
291.724	0.85
291.938	-64.68
292.153	74.58
292.368	-29.87
292.583	-9.39
292.798	58.2
293.012	7
293.227	107.35
293.442	-56.49
293.657	101.2
293.871	107.35
294.086	64.34
294.301	156.5
294.516	60.24
294.73	-60.59
294.945	-9.39
295.16	39.76
295.374	105.3
295.589	90.96
295.804	25.43
296.018	7
296.233	142.16
296.447	88.92
296.662	7
296.877	144.21
297.091	119.64
297.306	21.33
297.52	35.67
297.735	11.09
297.949	2.9
298.164	17.24
298.378	50
298.593	-48.3
298.807	-89.26
299.022	-19.63
299.236	84.82
299.451	-17.58
299.665	-21.67
299.88	45.91
300.094	47.96
300.309	-3.24
300.523	17.24
300.737	0.85
300.952	37.72
301.166	86.87
301.381	-13.48
301.595	-19.63
301.809	43.86
302.024	-50.35
302.238	-76.97
302.452	127.83
302.667	64.34
302.881	146.26
303.095	-11.43
303.309	39.76
303.524	80.72
303.738	76.63
303.952	-50.35
304.166	78.68
304.381	-189.61
304.595	86.87
304.809	-85.16
305.023	-17.58
305.237	-44.2
305.452	-52.39
305.666	111.44
305.88	-7.34
306.094	144.21
306.308	37.72
306.522	88.92
306.736	50
306.95	119.64
307.164	-27.82
307.379	-72.87
307.593	113.49
307.807	64.34
308.021	138.07
308.235	-5.29
308.449	-89.26
308.663	45.91
308.877	127.83
309.091	-19.63
309.305	56.15
309.519	-124.07
309.733	97.11
309.947	-52.39
310.161	47.96
310.374	84.82
310.588	88.92
310.802	-89.26
311.016	-48.3
311.23	64.34
311.444	-150.7
311.658	35.67
311.872	189.27
312.085	64.34
312.299	82.77
312.513	136.02
312.727	56.15
312.941	-64.68
313.154	15.19
313.368	-7.34
313.582	17.24
313.796	9.05
314.009	72.53
314.223	105.3
314.437	25.43
314.651	78.68
314.864	-25.77
315.078	-56.49
315.292	-74.92
315.505	-38.06
315.719	-3.24
315.933	19.29
316.146	-33.96
316.36	-62.63
316.573	111.44
316.787	-11.43
317.001	70.48
317.214	-64.68
317.428	52.05
317.641	-95.4
317.855	27.48
318.068	76.63
318.282	-1.19
318.495	176.98
318.709	80.72
318.922	39.76
319.136	68.44
319.349	60.24
319.563	-27.82
319.776	84.82
319.99	-140.46
320.203	47.96
320.417	54.1
320.63	76.63
320.843	230.23
321.057	50
321.27	50
321.483	72.53
321.697	93.01
321.91	21.33
322.124	68.44
322.337	64.34
322.55	-93.35
322.763	11.09
322.977	4.95
323.19	-101.55
323.403	84.82
323.617	13.14
323.83	80.72
324.043	-19.63
324.256	-13.48
324.469	-101.55
324.683	127.83
324.896	-17.58
325.109	72.53
325.322	-103.59
325.535	131.92
325.748	60.24
325.962	-128.17
326.175	82.77
326.388	117.59
326.601	105.3
326.814	25.43
327.027	-13.48
327.24	111.44
327.453	-81.07
327.666	80.72
327.879	142.16
328.092	129.88
328.305	111.44
328.518	-27.82
328.731	-60.59
328.944	4.95
329.157	41.81
329.37	4.95
329.583	86.87
329.796	211.79
330.009	35.67
330.222	37.72
330.435	107.35
330.648	27.48
330.861	105.3
331.073	-3.24
331.286	56.15
331.499	-29.87
331.712	-7.34
331.925	72.53
332.138	11.09
332.35	45.91
332.563	-29.87
332.776	107.35
332.989	-54.44
333.202	-95.4
333.414	-5.29
333.627	43.86
333.84	-5.29
334.053	62.29
334.265	-66.73
334.478	-25.77
334.691	-36.01
334.903	35.67
335.116	-17.58
335.329	-23.72
335.541	82.77
335.754	148.31
335.966	-62.63
336.179	15.19
336.392	50
336.604	23.38
336.817	70.48
337.029	-29.87
337.242	29.52
337.454	52.05
337.667	2.9
337.88	52.05
338.092	105.3
338.305	43.86
338.517	-64.68
338.729	144.21
338.942	93.01
339.154	-60.59
339.367	9.05
339.579	70.48
339.792	-42.15
340.004	27.48
340.217	56.15
340.429	2.9
340.641	27.48
340.854	15.19
341.066	11.09
341.278	119.64
341.491	203.6
341.703	33.62
341.915	-3.24
342.128	31.57
342.34	-1.19
342.552	-85.16
342.764	13.14
342.977	43.86
343.189	13.14
343.401	7
343.613	-62.63
343.826	93.01
344.038	-19.63
344.25	142.16
344.462	-23.72
344.674	56.15
344.886	-19.63
345.099	21.33
345.311	86.87
345.523	-60.59
345.735	-33.96
345.947	82.77
346.159	-23.72
346.371	25.43
346.583	27.48
346.795	152.4
347.007	13.14
347.219	107.35
347.431	39.76
347.643	136.02
347.855	-87.21
348.067	119.64
348.279	-54.44
348.491	66.39
348.703	58.2
348.915	41.81
349.127	-66.73
349.339	13.14
349.551	-11.43
349.763	66.39
349.975	35.67
350.187	138.07
350.399	86.87
350.61	-9.39
350.822	64.34
351.034	47.96
351.246	27.48
351.458	58.2
351.669	72.53
351.881	50
352.093	86.87
352.305	54.1
352.517	47.96
352.728	164.69
352.94	25.43
353.152	60.24
353.363	-19.63
353.575	56.15
353.787	146.26
353.999	86.87
354.21	203.6
354.422	23.38
354.633	56.15
354.845	105.3
355.057	-19.63
355.268	72.53
355.48	60.24
355.692	-46.25
355.903	47.96
356.115	-76.97
356.326	-68.78
356.538	117.59
356.749	97.11
356.961	148.31
357.172	-9.39
357.384	-7.34
357.595	207.7
357.807	47.96
358.018	31.57
358.23	33.62
358.441	105.3
358.653	7
358.864	109.4
359.075	-19.63
359.287	93.01
359.498	105.3
359.709	80.72
359.921	-3.24
360.132	39.76
360.344	-29.87
360.555	-21.67
360.766	-17.58
360.977	-33.96
361.189	93.01
361.4	29.52
361.611	64.34
361.823	93.01
362.034	50
362.245	-40.11
362.456	25.43
362.667	74.58
362.879	27.48
363.09	23.38
363.301	31.57
363.512	82.77
363.723	-76.97
363.935	-21.67
364.146	142.16
364.357	11.09
364.568	27.48
364.779	-52.39
364.99	99.16
365.201	-15.53
365.412	115.54
365.623	0.85
365.834	127.83
366.045	-56.49
366.256	25.43
366.467	95.06
366.678	25.43
366.889	19.29
367.1	70.48
367.311	103.25
367.522	-50.35
367.733	52.05
367.944	39.76
368.155	64.34
368.366	72.53
368.577	45.91
368.788	72.53
368.999	-62.63
369.209	88.92
369.42	131.92
369.631	140.12
369.842	70.48
370.053	4.95
370.264	88.92
370.474	23.38
370.685	64.34
370.896	25.43
371.107	95.06
371.317	93.01
371.528	-56.49
371.739	156.5
371.95	29.52
372.16	115.54
372.371	-31.91
372.582	-46.25
372.792	76.63
373.003	60.24
373.214	109.4
373.424	2.9
373.635	-40.11
373.846	166.74
374.056	-46.25
374.267	33.62
374.477	74.58
374.688	-13.48
374.898	80.72
375.109	80.72
375.319	43.86
375.53	142.16
375.74	23.38
375.951	17.24
376.161	35.67
376.372	86.87
376.582	27.48
376.793	-17.58
377.003	-11.43
377.214	13.14
377.424	146.26
377.635	-44.2
377.845	52.05
378.055	129.88
378.266	-19.63
378.476	52.05
378.686	27.48
378.897	-7.34
379.107	105.3
379.317	82.77
379.528	21.33
379.738	152.4
379.948	-87.21
380.158	86.87
380.369	-13.48
380.579	74.58
380.789	2.9
380.999	29.52
381.21	78.68
381.42	222.03
381.63	-5.29
381.84	115.54
382.05	52.05
382.261	76.63
382.471	60.24
382.681	-29.87
382.891	158.55
383.101	64.34
383.311	47.96
383.521	-99.5
383.731	66.39
383.941	119.64
384.151	109.4
384.361	15.19
384.571	-23.72
384.781	29.52
384.991	189.27
385.201	183.12
385.411	74.58
385.621	4.95
385.831	103.25
386.041	31.57
386.251	2.9
386.461	113.49
386.671	-3.24
386.881	93.01
387.091	13.14
387.301	158.55
387.511	19.29
387.72	117.59
387.93	25.43
388.14	-21.67
388.35	66.39
388.56	103.25
388.769	111.44
388.979	21.33
389.189	-46.25
389.399	7
389.609	45.91
389.818	115.54
390.028	27.48
390.238	23.38
390.447	-5.29
390.657	82.77
390.867	-36.01
391.076	-11.43
391.286	50
391.496	-42.15
391.705	27.48
391.915	123.73
392.125	86.87
392.334	-19.63
392.544	150.36
392.753	21.33
392.963	13.14
393.172	13.14
393.382	15.19
393.591	172.88
393.801	47.96
394.01	127.83
394.22	45.91
394.429	-23.72
394.639	56.15
394.848	101.2
395.058	47.96
395.267	31.57
395.477	111.44
395.686	0.85
395.895	150.36
396.105	113.49
396.314	23.38
396.524	-7.34
396.733	4.95
396.942	66.39
397.152	93.01
397.361	84.82
397.57	23.38
397.78	43.86
397.989	19.29
398.198	203.6
398.407	25.43
398.617	9.05
398.826	25.43
399.035	107.35
399.244	185.17
399.453	17.24
399.663	86.87
399.872	35.67
400.081	-38.06
400.29	117.59
400.499	4.95
400.708	97.11
400.917	50
401.127	0.85
401.336	-1.19
401.545	199.51
401.754	158.55
401.963	97.11
402.172	-21.67
402.381	9.05
402.59	58.2
402.799	54.1
403.008	121.68
403.217	21.33
403.426	9.05
403.635	-66.73
403.844	47.96
404.053	-81.07
404.262	64.34
404.471	166.74
404.68	31.57
404.888	111.44
405.097	-40.11
405.306	25.43
405.515	25.43
405.724	-25.77
405.933	9.05
406.142	2.9
406.35	125.78
406.559	2.9
406.768	95.06
406.977	119.64
407.185	127.83
407.394	35.67
407.603	-74.92
407.812	4.95
408.02	88.92
408.229	-52.39
408.438	82.77
408.646	-79.02
408.855	-13.48
409.064	121.68
409.272	39.76
409.481	64.34
409.69	-31.91
409.898	-91.31
410.107	0.85
410.315	158.55
410.524	-1.19
410.733	-19.63
410.941	90.96
411.15	41.81
411.358	54.1
411.567	228.18
411.775	88.92
411.984	23.38
412.192	80.72
412.401	-93.35
412.609	101.2
412.818	121.68
413.026	-25.77
413.234	15.19
413.443	31.57
413.651	9.05
413.86	76.63
414.068	119.64
414.276	119.64
414.485	2.9
414.693	185.17
414.901	187.22
415.11	39.76
415.318	15.19
415.526	41.81
415.734	140.12
415.943	82.77
416.151	84.82
416.359	78.68
416.567	95.06
416.776	160.59
416.984	101.2
417.192	158.55
417.4	27.48
417.608	-21.67
417.817	-62.63
418.025	152.4
418.233	27.48
418.441	-52.39
418.649	-42.15
418.857	78.68
419.065	138.07
419.273	-76.97
419.481	68.44
419.689	117.59
419.897	11.09
420.105	60.24
420.313	74.58
420.521	164.69
420.729	183.12
420.937	9.05
421.145	4.95
421.353	37.72
421.561	140.12
421.769	47.96
421.977	-25.77
422.185	131.92
422.393	13.14
422.601	68.44
422.809	121.68
423.017	72.53
423.224	142.16
423.432	138.07
423.64	-7.34
423.848	125.78
424.056	-21.67
424.263	68.44
424.471	66.39
424.679	185.17
424.887	-81.07
425.094	138.07
425.302	113.49
425.51	39.76
425.718	68.44
425.925	-3.24
426.133	72.53
426.341	191.31
426.548	131.92
426.756	39.76
426.964	88.92
427.171	-11.43
427.379	29.52
427.586	101.2
427.794	138.07
428.001	95.06
428.209	90.96
428.417	254.8
428.624	60.24
428.832	195.41
429.039	64.34
429.247	144.21
429.454	127.83
429.662	215.89
429.869	127.83
430.076	144.21
430.284	197.46
430.491	179.03
430.699	78.68
430.906	197.46
431.114	93.01
431.321	117.59
431.528	64.34
431.736	131.92
431.943	174.93
432.15	176.98
432.358	211.79
432.565	222.03
432.772	33.62
432.979	328.53
433.187	103.25
433.394	248.66
433.601	107.35
433.808	172.88
434.016	260.95
434.223	166.74
434.43	238.42
434.637	207.7
434.844	301.9
435.052	170.83
435.259	361.3
435.466	316.24
435.673	244.56
435.88	349.01
436.087	330.58
436.294	377.68
436.501	312.14
436.708	295.76
436.915	291.66
437.122	306
437.329	297.81
437.537	412.5
437.743	303.95
437.95	461.65
438.157	455.5
438.364	447.31
438.571	469.84
438.778	482.13
438.985	514.89
439.192	484.17
439.399	457.55
439.606	459.6
439.813	609.1
440.02	691.02
440.227	787.27
440.433	594.76
440.64	662.35
440.847	668.49
441.054	709.45
441.261	809.8
441.467	699.21
441.674	652.11
441.881	844.62
442.088	740.17
442.294	846.66
442.501	844.62
442.708	975.69
442.914	799.56
443.121	922.44
443.328	955.21
443.534	1063.75
443.741	990.02
443.948	983.88
444.154	1067.85
444.361	1344.32
444.568	1213.25
444.774	1121.09
444.981	1082.18
445.187	1379.14
445.394	1289.03
445.6	1358.66
445.807	1497.92
446.013	1383.23
446.22	1358.66
446.426	1631.04
446.633	1727.29
446.839	1923.9
447.046	1719.1
447.252	1844.03
447.459	1870.65
447.665	1903.42
447.871	2075.45
448.078	2173.75
448.284	2188.08
448.491	2304.82
448.697	2364.21
448.903	2446.13
449.11	2433.84
449.316	2519.85
449.522	2700.08
449.728	2710.32
449.935	2939.69
450.141	2788.14
450.347	3220.26
450.553	3046.18
450.76	3109.67
450.966	3349.28
451.172	3455.78
451.378	3631.9
451.584	3775.26
451.791	3881.75
451.997	4164.37
452.203	3998.49
452.409	4215.57
452.615	4436.75
452.821	4401.94
453.027	4436.75
453.233	5098.25
453.44	4907.79
453.646	5210.89
453.852	5374.72
454.058	5653.25
454.264	5673.73
454.47	6202.1
454.676	6005.5
454.882	6562.55
455.088	6349.56
455.294	6583.02
455.5	7189.22
455.705	7826.14
455.911	7684.83
456.117	7678.69
456.323	8116.95
456.529	8194.78
456.735	8923.85
456.941	8964.81
457.147	9394.89
457.352	9667.27
457.558	10052.28
457.764	10531.51
457.97	10672.82
458.176	11248.3
458.381	11692.71
458.587	12153.5
458.793	12657.3
458.999	12411.54
459.204	14127.74
459.41	14520.95
459.616	14271.1
459.821	15315.56
460.027	16005.73
460.233	16845.4
460.438	16564.82
460.644	17752.65
460.85	17719.88
461.055	18418.24
461.261	19335.73
461.466	18987.57
461.672	19264.05
461.878	21762.57
462.083	21410.32
462.289	21662.22
462.494	22946.3
462.7	23038.45
462.905	23357.94
463.111	24961.5
463.316	26597.82
463.522	26993.08
463.727	27836.84
463.932	28932.51
464.138	29915.53
464.343	31146.36
464.549	31263.1
464.754	33808.72
464.959	34464.07
465.165	35094.85
465.37	34367.82
465.575	34556.23
465.781	37021.98
465.986	38068.5
466.191	37495.07
466.397	37843.22
466.602	36905.25
466.807	39350.52
467.012	39569.66
467.218	39903.48
467.423	40489.2
467.628	41691.35
467.833	43550.91
468.038	42709.19
468.244	42268.88
468.449	44140.72
468.654	43700.41
468.859	43473.09
