Data from USB4F104151__52__10-25-47-932.txt Node

Date: Wed Feb 26 10:25:47 EST 2025
User: louis
Spectrometer: USB4F10415
Trigger mode: 4
Integration Time (sec): 1.000000E-1
Scans to average: 1
Electric dark correction enabled: true
Nonlinearity correction enabled: false
Boxcar width: 0
XAxis mode: Wavelengths
Number of Pixels in Spectrum: 3648
>>>>>Begin Spectral Data<<<<<
178.204	-369.66
178.424	-369.66
178.644	-369.66
178.864	-349.18
179.084	-349.18
179.304	-80.89
179.524	9.22
179.744	48.13
179.964	7.17
180.184	31.74
180.404	97.28
180.624	-35.84
180.844	-19.46
181.064	-123.9
181.283	17.41
181.503	-25.6
181.723	74.75
181.943	-80.89
182.163	209.92
182.383	25.6
182.602	99.33
182.822	128
183.042	148.48
183.262	1.02
183.482	13.31
183.701	72.7
183.921	99.33
184.141	-5.12
184.361	72.7
184.58	95.23
184.8	-13.31
185.02	9.22
185.239	168.96
185.459	95.23
185.679	197.63
185.898	-41.98
186.118	95.23
186.338	146.43
186.557	128
186.777	-11.26
186.997	17.41
187.216	11.26
187.436	95.23
187.655	7.17
187.875	105.47
188.095	56.32
188.314	82.94
188.534	68.61
188.753	-62.46
188.973	125.95
189.192	175.1
189.412	93.18
189.631	1.02
189.851	27.65
190.07	226.3
190.29	-13.31
190.509	56.32
190.729	87.04
190.948	60.42
191.168	304.12
191.387	52.22
191.607	37.89
191.826	146.43
192.045	39.94
192.265	39.94
192.484	46.08
192.704	56.32
192.923	-23.55
193.142	228.35
193.362	76.8
193.581	166.91
193.8	48.13
194.02	130.05
194.239	29.7
194.458	76.8
194.678	-5.12
194.897	-19.46
195.116	84.99
195.335	48.13
195.555	48.13
195.774	-11.26
195.993	123.9
196.212	54.27
196.432	3.07
196.651	-33.79
196.87	46.08
197.089	189.44
197.308	44.03
197.528	115.71
197.747	-17.41
197.966	50.18
198.185	140.29
198.404	-17.41
198.623	97.28
198.842	152.57
199.062	93.18
199.281	132.09
199.5	144.38
199.719	130.05
199.938	46.08
200.157	154.62
200.376	152.57
200.595	162.81
200.814	31.74
201.033	70.65
201.252	158.72
201.471	60.42
201.69	29.7
201.909	48.13
202.128	78.85
202.347	23.55
202.566	-25.6
202.785	37.89
203.004	37.89
203.223	201.72
203.442	87.04
203.661	44.03
203.879	7.17
204.098	162.81
204.317	50.18
204.536	97.28
204.755	99.33
204.974	93.18
205.193	37.89
205.411	93.18
205.63	140.29
205.849	52.22
206.068	-15.36
206.287	3.07
206.505	160.77
206.724	13.31
206.943	62.46
207.162	27.65
207.381	185.34
207.599	121.85
207.818	99.33
208.037	-13.31
208.255	64.51
208.474	9.22
208.693	97.28
208.911	62.46
209.13	115.71
209.349	136.19
209.567	78.85
209.786	125.95
210.005	99.33
210.223	-23.55
210.442	-95.23
210.661	7.17
210.879	121.85
211.098	105.47
211.316	78.85
211.535	50.18
211.753	62.46
211.972	123.9
212.191	101.37
212.409	87.04
212.628	162.81
212.846	-25.6
213.065	115.71
213.283	111.61
213.502	19.46
213.72	74.75
213.938	50.18
214.157	68.61
214.375	154.62
214.594	54.27
214.812	105.47
215.031	-50.18
215.249	-15.36
215.467	93.18
215.686	93.18
215.904	50.18
216.122	31.74
216.341	164.86
216.559	101.37
216.778	78.85
216.996	144.38
217.214	-3.07
217.432	29.7
217.651	-25.6
217.869	15.36
218.087	72.7
218.306	44.03
218.524	93.18
218.742	23.55
218.96	132.09
219.179	-11.26
219.397	72.7
219.615	230.4
219.833	128
220.051	-15.36
220.27	66.56
220.488	115.71
220.706	89.09
220.924	-48.13
221.142	46.08
221.36	99.33
221.578	64.51
221.796	56.32
222.015	-7.17
222.233	54.27
222.451	160.77
222.669	-19.46
222.887	84.99
223.105	11.26
223.323	35.84
223.541	15.36
223.759	60.42
223.977	46.08
224.195	113.66
224.413	105.47
224.631	46.08
224.849	41.98
225.067	201.72
225.285	-17.41
225.503	25.6
225.721	-60.42
225.939	128
226.157	52.22
226.375	330.75
226.592	25.6
226.81	39.94
227.028	152.57
227.246	109.57
227.464	35.84
227.682	125.95
227.9	117.76
228.117	64.51
228.335	103.42
228.553	31.74
228.771	3.07
228.989	93.18
229.206	44.03
229.424	-29.7
229.642	-15.36
229.86	19.46
230.077	242.68
230.295	78.85
230.513	136.19
230.731	113.66
230.948	230.4
231.166	148.48
231.384	35.84
231.601	19.46
231.819	201.72
232.037	-84.99
232.254	1.02
232.472	19.46
232.689	54.27
232.907	185.34
233.125	48.13
233.342	-3.07
233.56	-35.84
233.777	11.26
233.995	54.27
234.213	144.38
234.43	150.53
234.648	82.94
234.865	25.6
235.083	-41.98
235.3	70.65
235.518	101.37
235.735	91.13
235.953	117.76
236.17	39.94
236.388	21.5
236.605	111.61
236.822	99.33
237.04	109.57
237.257	84.99
237.475	-1.02
237.692	97.28
237.909	128
238.127	-37.89
238.344	117.76
238.562	60.42
238.779	-82.94
238.996	15.36
239.214	-25.6
239.431	121.85
239.648	62.46
239.865	41.98
240.083	123.9
240.3	1.02
240.517	48.13
240.735	70.65
240.952	156.67
241.169	146.43
241.386	56.32
241.603	48.13
241.821	-54.27
242.038	64.51
242.255	72.7
242.472	-80.89
242.689	35.84
242.907	132.09
243.124	121.85
243.341	76.8
243.558	48.13
243.775	3.07
243.992	-54.27
244.209	82.94
244.426	164.86
244.643	89.09
244.86	13.31
245.078	134.14
245.295	60.42
245.512	84.99
245.729	33.79
245.946	183.29
246.163	64.51
246.38	-9.22
246.597	111.61
246.814	35.84
247.031	44.03
247.248	-17.41
247.464	123.9
247.681	17.41
247.898	95.23
248.115	101.37
248.332	-5.12
248.549	152.57
248.766	148.48
248.983	33.79
249.2	27.65
249.417	39.94
249.633	-1.02
249.85	33.79
250.067	-9.22
250.284	89.09
250.501	144.38
250.717	97.28
250.934	-60.42
251.151	70.65
251.368	29.7
251.585	46.08
251.801	60.42
252.018	-31.74
252.235	134.14
252.451	-17.41
252.668	39.94
252.885	171.01
253.102	25.6
253.318	-1.02
253.535	44.03
253.752	111.61
253.968	11.26
254.185	-64.51
254.401	48.13
254.618	35.84
254.835	1.02
255.051	158.72
255.268	119.81
255.484	89.09
255.701	-1.02
255.917	158.72
256.134	9.22
256.351	21.5
256.567	-7.17
256.784	37.89
257	-128
257.217	115.71
257.433	168.96
257.65	-11.26
257.866	162.81
258.082	9.22
258.299	-21.5
258.515	7.17
258.732	27.65
258.948	-37.89
259.165	56.32
259.381	72.7
259.597	44.03
259.814	35.84
260.03	-13.31
260.246	-17.41
260.463	125.95
260.679	113.66
260.895	-3.07
261.112	68.61
261.328	76.8
261.544	74.75
261.761	156.67
261.977	60.42
262.193	-21.5
262.409	125.95
262.626	148.48
262.842	91.13
263.058	70.65
263.274	60.42
263.49	111.61
263.707	119.81
263.923	187.39
264.139	-19.46
264.355	33.79
264.571	140.29
264.787	46.08
265.004	177.15
265.22	84.99
265.436	-17.41
265.652	13.31
265.868	101.37
266.084	46.08
266.3	111.61
266.516	-15.36
266.732	74.75
266.948	103.42
267.164	46.08
267.38	111.61
267.596	52.22
267.812	175.1
268.028	46.08
268.244	11.26
268.46	27.65
268.676	39.94
268.892	37.89
269.108	60.42
269.324	11.26
269.54	35.84
269.756	140.29
269.972	-52.22
270.188	-5.12
270.403	-35.84
270.619	-39.94
270.835	125.95
271.051	64.51
271.267	-3.07
271.483	-37.89
271.698	128
271.914	105.47
272.13	13.31
272.346	103.42
272.562	72.7
272.777	146.43
272.993	17.41
273.209	103.42
273.425	89.09
273.64	46.08
273.856	148.48
274.072	-5.12
274.287	52.22
274.503	103.42
274.719	66.56
274.934	11.26
275.15	-111.61
275.366	72.7
275.581	11.26
275.797	58.37
276.012	89.09
276.228	97.28
276.444	25.6
276.659	134.14
276.875	-23.55
277.09	-25.6
277.306	82.94
277.521	105.47
277.737	97.28
277.952	62.46
278.168	-5.12
278.383	-9.22
278.599	29.7
278.814	87.04
279.03	60.42
279.245	121.85
279.461	31.74
279.676	113.66
279.892	17.41
280.107	17.41
280.322	39.94
280.538	37.89
280.753	64.51
280.969	44.03
281.184	1.02
281.399	150.53
281.615	37.89
281.83	13.31
282.045	-5.12
282.26	-1.02
282.476	52.22
282.691	101.37
282.906	33.79
283.122	54.27
283.337	-58.37
283.552	107.52
283.767	58.37
283.983	50.18
284.198	74.75
284.413	101.37
284.628	-35.84
284.843	33.79
285.058	93.18
285.274	89.09
285.489	39.94
285.704	82.94
285.919	19.46
286.134	-29.7
286.349	7.17
286.564	15.36
286.779	211.96
286.995	-31.74
287.21	9.22
287.425	89.09
287.64	13.31
287.855	117.76
288.07	-54.27
288.285	82.94
288.5	134.14
288.715	52.22
288.93	99.33
289.145	-1.02
289.36	125.95
289.575	72.7
289.79	117.76
290.004	37.89
290.219	134.14
290.434	-35.84
290.649	-23.55
290.864	80.89
291.079	37.89
291.294	87.04
291.509	39.94
291.724	39.94
291.938	-1.02
292.153	80.89
292.368	80.89
292.583	27.65
292.798	136.19
293.012	80.89
293.227	78.85
293.442	60.42
293.657	123.9
293.871	115.71
294.086	31.74
294.301	216.06
294.516	128
294.73	105.47
294.945	48.13
295.16	46.08
295.374	93.18
295.589	72.7
295.804	62.46
296.018	78.85
296.233	132.09
296.447	101.37
296.662	-1.02
296.877	156.67
297.091	128
297.306	15.36
297.52	70.65
297.735	41.98
297.949	35.84
298.164	41.98
298.378	68.61
298.593	-33.79
298.807	9.22
299.022	89.09
299.236	107.52
299.451	54.27
299.665	23.55
299.88	39.94
300.094	93.18
300.309	101.37
300.523	68.61
300.737	9.22
300.952	187.39
301.166	103.42
301.381	60.42
301.595	37.89
301.809	91.13
302.024	56.32
302.238	46.08
302.452	89.09
302.667	39.94
302.881	162.81
303.095	138.24
303.309	56.32
303.524	107.52
303.738	3.07
303.952	13.31
304.166	93.18
304.381	-78.85
304.595	177.15
304.809	27.65
305.023	113.66
305.237	91.13
305.452	70.65
305.666	119.81
305.88	132.09
306.094	185.34
306.308	62.46
306.522	115.71
306.736	82.94
306.95	105.47
307.164	97.28
307.379	39.94
307.593	158.72
307.807	60.42
308.021	72.7
308.235	125.95
308.449	5.12
308.663	66.56
308.877	252.92
309.091	78.85
309.305	101.37
309.519	-68.61
309.733	164.86
309.947	-52.22
310.161	46.08
310.374	164.86
310.588	74.75
310.802	11.26
311.016	19.46
311.23	138.24
311.444	5.12
311.658	33.79
311.872	80.89
312.085	54.27
312.299	66.56
312.513	144.38
312.727	54.27
312.941	7.17
313.154	25.6
313.368	46.08
313.582	56.32
313.796	99.33
314.009	78.85
314.223	128
314.437	154.62
314.651	76.8
314.864	7.17
315.078	66.56
315.292	7.17
315.505	54.27
315.719	-11.26
315.933	78.85
316.146	87.04
316.36	35.84
316.573	119.81
316.787	107.52
317.001	134.14
317.214	-19.46
317.428	64.51
317.641	21.5
317.855	-13.31
318.068	121.85
318.282	-9.22
318.495	189.44
318.709	7.17
318.922	-9.22
319.136	191.49
319.349	76.8
319.563	56.32
319.776	78.85
319.99	-41.98
320.203	89.09
320.417	82.94
320.63	162.81
320.843	136.19
321.057	78.85
321.27	37.89
321.483	134.14
321.697	154.62
321.91	113.66
322.124	105.47
322.337	99.33
322.55	-62.46
322.763	84.99
322.977	3.07
323.19	-13.31
323.403	117.76
323.617	144.38
323.83	128
324.043	31.74
324.256	76.8
324.469	-21.5
324.683	121.85
324.896	93.18
325.109	66.56
325.322	-54.27
325.535	46.08
325.748	113.66
325.962	60.42
326.175	-9.22
326.388	5.12
326.601	101.37
326.814	-1.02
327.027	87.04
327.24	154.62
327.453	-95.23
327.666	68.61
327.879	199.68
328.092	115.71
328.305	80.89
328.518	-5.12
328.731	-7.17
328.944	48.13
329.157	128
329.37	11.26
329.583	148.48
329.796	146.43
330.009	-46.08
330.222	74.75
330.435	95.23
330.648	111.61
330.861	103.42
331.073	39.94
331.286	74.75
331.499	13.31
331.712	25.6
331.925	-3.07
332.138	64.51
332.35	121.85
332.563	7.17
332.776	148.48
332.989	-3.07
333.202	56.32
333.414	107.52
333.627	21.5
333.84	66.56
334.053	31.74
334.265	-3.07
334.478	-3.07
334.691	13.31
334.903	15.36
335.116	52.22
335.329	29.7
335.541	72.7
335.754	191.49
335.966	44.03
336.179	31.74
336.392	68.61
336.604	93.18
336.817	13.31
337.029	107.52
337.242	80.89
337.454	177.15
337.667	15.36
337.88	228.35
338.092	103.42
338.305	128
338.517	3.07
338.729	117.76
338.942	64.51
339.154	35.84
339.367	1.02
339.579	123.9
339.792	11.26
340.004	95.23
340.217	21.5
340.429	29.7
340.641	58.37
340.854	64.51
341.066	76.8
341.278	171.01
341.491	148.48
341.703	27.65
341.915	-95.23
342.128	173.05
342.34	23.55
342.552	9.22
342.764	21.5
342.977	56.32
343.189	166.91
343.401	87.04
343.613	-89.09
343.826	17.41
344.038	17.41
344.25	134.14
344.462	-44.03
344.674	87.04
344.886	64.51
345.099	148.48
345.311	105.47
345.523	23.55
345.735	-1.02
345.947	44.03
346.159	128
346.371	105.47
346.583	113.66
346.795	193.53
347.007	21.5
347.219	33.79
347.431	5.12
347.643	209.92
347.855	25.6
348.067	173.05
348.279	-87.04
348.491	78.85
348.703	84.99
348.915	27.65
349.127	5.12
349.339	60.42
349.551	25.6
349.763	113.66
349.975	70.65
350.187	78.85
350.399	207.87
350.61	195.58
350.822	60.42
351.034	15.36
351.246	35.84
351.458	121.85
351.669	132.09
351.881	84.99
352.093	99.33
352.305	103.42
352.517	130.05
352.728	113.66
352.94	136.19
353.152	111.61
353.363	44.03
353.575	154.62
353.787	197.63
353.999	121.85
354.21	154.62
354.422	68.61
354.633	13.31
354.845	72.7
355.057	31.74
355.268	97.28
355.48	76.8
355.692	-84.99
355.903	115.71
356.115	-50.18
356.326	-41.98
356.538	216.06
356.749	123.9
356.961	171.01
357.172	23.55
357.384	-25.6
357.595	265.21
357.807	1.02
358.018	46.08
358.23	115.71
358.441	142.33
358.653	78.85
358.864	74.75
359.075	74.75
359.287	64.51
359.498	123.9
359.709	68.61
359.921	78.85
360.132	140.29
360.344	78.85
360.555	21.5
360.766	35.84
360.977	9.22
361.189	95.23
361.4	46.08
361.611	197.63
361.823	138.24
362.034	72.7
362.245	33.79
362.456	54.27
362.667	138.24
362.879	-50.18
363.09	11.26
363.301	99.33
363.512	117.76
363.723	9.22
363.935	166.91
364.146	166.91
364.357	27.65
364.568	91.13
364.779	-19.46
364.99	50.18
365.201	3.07
365.412	138.24
365.623	-37.89
365.834	130.05
366.045	82.94
366.256	70.65
366.467	97.28
366.678	39.94
366.889	-11.26
367.1	-17.41
367.311	74.75
367.522	29.7
367.733	175.1
367.944	97.28
368.155	68.61
368.366	117.76
368.577	91.13
368.788	44.03
368.999	27.65
369.209	107.52
369.42	201.72
369.631	271.36
369.842	121.85
370.053	72.7
370.264	130.05
370.474	-19.46
370.685	37.89
370.896	68.61
371.107	166.91
371.317	50.18
371.528	35.84
371.739	115.71
371.95	99.33
372.16	62.46
372.371	-7.17
372.582	50.18
372.792	89.09
373.003	111.61
373.214	39.94
373.424	74.75
373.635	-5.12
373.846	134.14
374.056	119.81
374.267	97.28
374.477	136.19
374.688	-66.56
374.898	123.9
375.109	109.57
375.319	123.9
375.53	132.09
375.74	179.2
375.951	-46.08
376.161	105.47
376.372	154.62
376.582	64.51
376.793	91.13
377.003	78.85
377.214	-17.41
377.424	125.95
377.635	19.46
377.845	3.07
378.055	97.28
378.266	-87.04
378.476	39.94
378.686	105.47
378.897	80.89
379.107	138.24
379.317	119.81
379.528	35.84
379.738	142.33
379.948	13.31
380.158	162.81
380.369	25.6
380.579	27.65
380.789	68.61
380.999	152.57
381.21	68.61
381.42	220.16
381.63	11.26
381.84	140.29
382.05	5.12
382.261	87.04
382.471	144.38
382.681	103.42
382.891	160.77
383.101	99.33
383.311	-99.33
383.521	56.32
383.731	132.09
383.941	156.67
384.151	99.33
384.361	5.12
384.571	70.65
384.781	105.47
384.991	242.68
385.201	203.77
385.411	115.71
385.621	70.65
385.831	97.28
386.041	91.13
386.251	103.42
386.461	144.38
386.671	21.5
386.881	115.71
387.091	119.81
387.301	158.72
387.511	99.33
387.72	119.81
387.93	115.71
388.14	-95.23
388.35	39.94
388.56	111.61
388.769	103.42
388.979	1.02
389.189	1.02
389.399	80.89
389.609	150.53
389.818	179.2
390.028	44.03
390.238	121.85
390.447	-23.55
390.657	109.57
390.867	-3.07
391.076	-56.32
391.286	142.33
391.496	142.33
391.705	-3.07
391.915	211.96
392.125	115.71
392.334	37.89
392.544	107.52
392.753	-21.5
392.963	-3.07
393.172	56.32
393.382	3.07
393.591	132.09
393.801	-50.18
394.01	156.67
394.22	44.03
394.429	-15.36
394.639	5.12
394.848	132.09
395.058	93.18
395.267	-13.31
395.477	164.86
395.686	78.85
395.895	224.25
396.105	185.34
396.314	97.28
396.524	119.81
396.733	50.18
396.942	187.39
397.152	125.95
397.361	203.77
397.57	130.05
397.78	95.23
397.989	95.23
398.198	220.16
398.407	37.89
398.617	74.75
398.826	89.09
399.035	119.81
399.244	117.76
399.453	134.14
399.663	72.7
399.872	95.23
400.081	56.32
400.29	211.96
400.499	-3.07
400.708	66.56
400.917	52.22
401.127	15.36
401.336	-29.7
401.545	230.4
401.754	121.85
401.963	76.8
402.172	-21.5
402.381	13.31
402.59	-9.22
402.799	58.37
403.008	164.86
403.217	132.09
403.426	62.46
403.635	-33.79
403.844	23.55
404.053	9.22
404.262	56.32
404.471	185.34
404.68	97.28
404.888	121.85
405.097	109.57
405.306	93.18
405.515	136.19
405.724	66.56
405.933	113.66
406.142	31.74
406.35	154.62
406.559	87.04
406.768	58.37
406.977	220.16
407.185	121.85
407.394	74.75
407.603	-46.08
407.812	136.19
408.02	154.62
408.229	93.18
408.438	119.81
408.646	-60.42
408.855	125.95
409.064	76.8
409.272	41.98
409.481	132.09
409.69	-11.26
409.898	-68.61
410.107	146.43
410.315	171.01
410.524	23.55
410.733	87.04
410.941	130.05
411.15	99.33
411.358	87.04
411.567	142.33
411.775	31.74
411.984	56.32
412.192	52.22
412.401	13.31
412.609	171.01
412.818	134.14
413.026	70.65
413.234	13.31
413.443	37.89
413.651	31.74
413.86	48.13
414.068	130.05
414.276	125.95
414.485	9.22
414.693	191.49
414.901	162.81
415.11	33.79
415.318	27.65
415.526	99.33
415.734	105.47
415.943	138.24
416.151	138.24
416.359	19.46
416.567	105.47
416.776	140.29
416.984	123.9
417.192	232.44
417.4	146.43
417.608	21.5
417.817	68.61
418.025	154.62
418.233	70.65
418.441	11.26
418.649	-25.6
418.857	113.66
419.065	220.16
419.273	46.08
419.481	121.85
419.689	103.42
419.897	27.65
420.105	35.84
420.313	148.48
420.521	173.05
420.729	214.01
420.937	31.74
421.145	15.36
421.353	132.09
421.561	154.62
421.769	136.19
421.977	48.13
422.185	50.18
422.393	29.7
422.601	148.48
422.809	93.18
423.017	68.61
423.224	136.19
423.432	119.81
423.64	13.31
423.848	105.47
424.056	76.8
424.263	148.48
424.471	115.71
424.679	228.35
424.887	87.04
425.094	293.88
425.302	144.38
425.51	-15.36
425.718	189.44
425.925	158.72
426.133	39.94
426.341	228.35
426.548	121.85
426.756	152.57
426.964	27.65
427.171	138.24
427.379	166.91
427.586	119.81
427.794	175.1
428.001	187.39
428.209	132.09
428.417	207.87
428.624	134.14
428.832	101.37
429.039	95.23
429.247	146.43
429.454	130.05
429.662	183.29
429.869	224.25
430.076	216.06
430.284	179.2
430.491	226.3
430.699	220.16
430.906	232.44
431.114	140.29
431.321	89.09
431.528	211.96
431.736	152.57
431.943	179.2
432.15	171.01
432.358	197.63
432.565	236.54
432.772	50.18
432.979	238.59
433.187	97.28
433.394	273.4
433.601	224.25
433.808	300.03
434.016	287.74
434.223	242.68
434.43	228.35
434.637	244.73
434.844	287.74
435.052	205.82
435.259	244.73
435.466	390.14
435.673	234.49
435.88	308.22
436.087	330.75
436.294	414.71
436.501	306.17
436.708	291.84
436.915	291.84
437.122	408.57
437.329	310.27
437.537	349.18
437.743	326.65
437.95	472.06
438.157	375.8
438.364	441.34
438.571	414.71
438.778	506.87
438.985	521.21
439.192	494.58
439.399	537.59
439.606	517.11
439.813	564.22
440.02	592.89
440.227	662.52
440.433	590.84
440.64	621.56
440.847	576.5
441.054	644.09
441.261	793.59
441.467	693.24
441.674	676.85
441.881	740.34
442.088	773.11
442.294	719.86
442.501	816.12
442.708	965.62
442.914	926.71
443.121	959.47
443.328	869.36
443.534	1104.88
443.741	1022.96
443.948	906.23
444.154	1104.88
444.361	1338.35
444.568	1129.45
444.774	1174.51
444.981	1092.59
445.187	1350.64
445.394	1301.48
445.6	1203.18
445.807	1455.08
446.013	1485.8
446.22	1385.45
446.426	1453.03
446.633	1643.49
446.839	1893.35
447.046	1528.81
447.252	1866.72
447.459	1696.74
447.665	1784.8
447.871	1950.69
448.078	2206.69
448.284	2087.9
448.491	2073.57
448.697	2272.22
448.903	2393.05
449.11	2444.25
449.316	2362.33
449.522	2651.1
449.728	2647
449.935	2659.29
450.141	2679.77
450.347	2991.06
450.553	2921.43
450.76	3150.8
450.966	3267.53
451.172	3216.33
451.378	3462.09
451.584	3390.41
451.791	3754.95
451.997	3910.6
452.203	3871.68
452.409	4201.41
452.615	4268.99
452.821	4199.36
453.027	4215.74
453.233	4719.54
453.44	4518.84
453.646	4875.19
453.852	5133.23
454.058	5333.93
454.264	5102.51
454.47	5667.75
454.676	5860.26
454.882	6245.28
455.088	6112.16
455.294	6396.83
455.5	6771.61
455.705	7224.21
455.911	7123.86
456.117	7283.6
456.323	7674.76
456.529	7467.92
456.735	8108.93
456.941	8457.09
457.147	8833.91
457.352	8950.65
457.558	9356.15
457.764	10107.75
457.97	10036.07
458.176	10476.38
458.381	11043.67
458.587	11195.22
458.793	11653.97
458.999	11606.86
459.204	13228.85
459.41	13644.59
459.616	13396.79
459.821	14246.69
460.027	14828.32
460.233	15498
460.438	15688.46
460.644	16630.53
460.85	16513.8
461.055	17433.33
461.261	18062.06
461.466	17728.24
461.672	18416.36
461.878	20517.57
462.083	20114.13
462.289	20443.85
462.494	21476.02
462.7	21467.83
462.905	21664.44
463.111	23415.45
463.316	24427.15
463.522	25004.67
463.727	25977.46
463.932	26853.99
464.138	27880.02
464.343	28678.73
464.549	28994.12
464.754	31310.37
464.959	31928.86
465.165	32490
465.37	32662.03
465.575	32418.32
465.781	34335.22
465.986	35430.88
466.191	34884.08
466.397	34859.5
466.602	34427.38
466.807	36311.51
467.012	36874.7
467.218	37167.56
467.423	37841.34
467.628	38416.82
467.833	40233.37
468.038	40128.92
468.244	39360.94
