Data from USB4F104151__45__09-27-56-305.txt Node

Date: Wed Feb 26 09:27:56 EST 2025
User: louis
Spectrometer: USB4F10415
Trigger mode: 4
Integration Time (sec): 1.000000E-1
Scans to average: 1
Electric dark correction enabled: true
Nonlinearity correction enabled: false
Boxcar width: 0
XAxis mode: Wavelengths
Number of Pixels in Spectrum: 3648
>>>>>Begin Spectral Data<<<<<
178.204	-364.54
178.424	-364.54
178.644	-364.54
178.864	-415.74
179.084	-389.11
179.304	14.34
179.524	20.48
179.744	-4.1
179.964	30.72
180.184	-22.53
180.404	-47.1
180.624	-30.72
180.844	59.39
181.064	8.19
181.283	43.01
181.503	-69.63
181.723	-2.05
181.943	-120.83
182.163	169.98
182.383	8.19
182.602	38.91
182.822	106.49
183.042	-55.3
183.262	-61.44
183.482	36.86
183.701	-30.72
183.921	-51.2
184.141	-20.48
184.361	81.92
184.58	20.48
184.8	43.01
185.02	32.77
185.239	-14.34
185.459	32.77
185.679	71.68
185.898	-63.49
186.118	61.44
186.338	22.53
186.557	112.64
186.777	-43.01
186.997	-36.86
187.216	22.53
187.436	165.89
187.655	18.43
187.875	104.45
188.095	65.54
188.314	51.2
188.534	112.64
188.753	26.62
188.973	90.11
189.192	178.17
189.412	-20.48
189.631	73.73
189.851	40.96
190.07	51.2
190.29	16.38
190.509	-59.39
190.729	45.06
190.948	94.21
191.168	208.89
191.387	30.72
191.607	-47.1
191.826	18.43
192.045	88.06
192.265	2.05
192.484	4.1
192.704	75.77
192.923	2.05
193.142	151.55
193.362	47.1
193.581	63.49
193.8	92.16
194.02	-40.96
194.239	16.38
194.458	63.49
194.678	26.62
194.897	2.05
195.116	-47.1
195.335	51.2
195.555	26.62
195.774	38.91
195.993	36.86
196.212	14.34
196.432	-24.58
196.651	-73.73
196.87	73.73
197.089	139.26
197.308	-24.58
197.528	49.15
197.747	-81.92
197.966	51.2
198.185	43.01
198.404	8.19
198.623	147.45
198.842	53.25
199.062	59.39
199.281	8.19
199.5	110.59
199.719	28.67
199.938	36.86
200.157	120.83
200.376	36.86
200.595	43.01
200.814	129.02
201.033	10.24
201.252	118.78
201.471	43.01
201.69	96.25
201.909	-6.14
202.128	120.83
202.347	-2.05
202.566	88.06
202.785	-86.01
203.004	-88.06
203.223	182.27
203.442	59.39
203.661	-22.53
203.879	18.43
204.098	61.44
204.317	45.06
204.536	75.77
204.755	59.39
204.974	79.87
205.193	-34.82
205.411	118.78
205.63	55.3
205.849	0
206.068	28.67
206.287	-40.96
206.505	86.01
206.724	2.05
206.943	28.67
207.162	-88.06
207.381	40.96
207.599	49.15
207.818	57.34
208.037	6.14
208.255	26.62
208.474	-22.53
208.693	63.49
208.911	40.96
209.13	55.3
209.349	92.16
209.567	69.63
209.786	73.73
210.005	57.34
210.223	38.91
210.442	-90.11
210.661	104.45
210.879	75.77
211.098	30.72
211.316	32.77
211.535	86.01
211.753	-59.39
211.972	14.34
212.191	30.72
212.409	-65.54
212.628	157.69
212.846	-14.34
213.065	83.97
213.283	57.34
213.502	51.2
213.72	-12.29
213.938	67.58
214.157	28.67
214.375	75.77
214.594	-34.82
214.812	61.44
215.031	-47.1
215.249	71.68
215.467	22.53
215.686	-53.25
215.904	-6.14
216.122	18.43
216.341	90.11
216.559	43.01
216.778	88.06
216.996	122.88
217.214	-22.53
217.432	-22.53
217.651	-36.86
217.869	49.15
218.087	69.63
218.306	4.1
218.524	-71.68
218.742	-26.62
218.96	40.96
219.179	-57.34
219.397	24.58
219.615	223.23
219.833	135.17
220.051	-30.72
220.27	126.97
220.488	112.64
220.706	43.01
220.924	-14.34
221.142	40.96
221.36	-8.19
221.578	49.15
221.796	4.1
222.015	4.1
222.233	118.78
222.451	83.97
222.669	-57.34
222.887	24.58
223.105	-2.05
223.323	67.58
223.541	8.19
223.759	59.39
223.977	24.58
224.195	131.07
224.413	88.06
224.631	96.25
224.849	96.25
225.067	221.18
225.285	40.96
225.503	-34.82
225.721	-174.08
225.939	22.53
226.157	49.15
226.375	163.84
226.592	-79.87
226.81	67.58
227.028	61.44
227.246	53.25
227.464	10.24
227.682	77.82
227.9	104.45
228.117	26.62
228.335	30.72
228.553	-36.86
228.771	-12.29
228.989	-12.29
229.206	79.87
229.424	57.34
229.642	-43.01
229.86	-22.53
230.077	47.1
230.295	81.92
230.513	149.5
230.731	92.16
230.948	153.6
231.166	174.08
231.384	67.58
231.601	34.82
231.819	180.22
232.037	-34.82
232.254	-75.77
232.472	67.58
232.689	-45.06
232.907	55.3
233.125	38.91
233.342	-57.34
233.56	73.73
233.777	-47.1
233.995	-92.16
234.213	86.01
234.43	92.16
234.648	-63.49
234.865	-59.39
235.083	96.25
235.3	34.82
235.518	30.72
235.735	71.68
235.953	94.21
236.17	67.58
236.388	67.58
236.605	126.97
236.822	161.79
237.04	116.73
237.257	83.97
237.475	-75.77
237.692	28.67
237.909	22.53
238.127	30.72
238.344	98.3
238.562	59.39
238.779	-57.34
238.996	-40.96
239.214	-24.58
239.431	28.67
239.648	-8.19
239.865	36.86
240.083	26.62
240.3	-2.05
240.517	6.14
240.735	65.54
240.952	126.97
241.169	18.43
241.386	51.2
241.603	6.14
241.821	-102.4
242.038	6.14
242.255	73.73
242.472	-16.38
242.689	139.26
242.907	51.2
243.124	24.58
243.341	-16.38
243.558	-6.14
243.775	-73.73
243.992	-92.16
244.209	118.78
244.426	108.54
244.643	81.92
244.86	63.49
245.078	106.49
245.295	-32.77
245.512	53.25
245.729	34.82
245.946	81.92
246.163	51.2
246.38	8.19
246.597	-8.19
246.814	-34.82
247.031	22.53
247.248	59.39
247.464	69.63
247.681	147.45
247.898	43.01
248.115	86.01
248.332	-104.45
248.549	75.77
248.766	139.26
248.983	100.35
249.2	104.45
249.417	116.73
249.633	-8.19
249.85	92.16
250.067	-16.38
250.284	-6.14
250.501	26.62
250.717	8.19
250.934	-96.25
251.151	49.15
251.368	-10.24
251.585	-28.67
251.801	63.49
252.018	-38.91
252.235	16.38
252.451	16.38
252.668	-22.53
252.885	59.39
253.102	47.1
253.318	26.62
253.535	36.86
253.752	16.38
253.968	22.53
254.185	6.14
254.401	-10.24
254.618	55.3
254.835	-16.38
255.051	88.06
255.268	47.1
255.484	40.96
255.701	-34.82
255.917	102.4
256.134	2.05
256.351	90.11
256.567	-30.72
256.784	18.43
257	-55.3
257.217	118.78
257.433	112.64
257.65	30.72
257.866	73.73
258.082	-8.19
258.299	-131.07
258.515	34.82
258.732	-6.14
258.948	-20.48
259.165	47.1
259.381	-30.72
259.597	8.19
259.814	-43.01
260.03	10.24
260.246	-10.24
260.463	47.1
260.679	92.16
260.895	-24.58
261.112	-26.62
261.328	14.34
261.544	-45.06
261.761	215.04
261.977	-45.06
262.193	-12.29
262.409	67.58
262.626	92.16
262.842	18.43
263.058	-10.24
263.274	143.36
263.49	26.62
263.707	81.92
263.923	-30.72
264.139	-83.97
264.355	-59.39
264.571	65.54
264.787	75.77
265.004	71.68
265.22	53.25
265.436	22.53
265.652	-6.14
265.868	57.34
266.084	-22.53
266.3	32.77
266.516	-16.38
266.732	43.01
266.948	92.16
267.164	14.34
267.38	-32.77
267.596	129.02
267.812	2.05
268.028	43.01
268.244	67.58
268.46	-18.43
268.676	26.62
268.892	28.67
269.108	-108.54
269.324	-47.1
269.54	-24.58
269.756	112.64
269.972	-86.01
270.188	10.24
270.403	75.77
270.619	90.11
270.835	32.77
271.051	0
271.267	-28.67
271.483	-24.58
271.698	67.58
271.914	110.59
272.13	12.29
272.346	26.62
272.562	26.62
272.777	149.5
272.993	-18.43
273.209	-8.19
273.425	79.87
273.64	-75.77
273.856	92.16
274.072	-30.72
274.287	-28.67
274.503	0
274.719	122.88
274.934	2.05
275.15	-24.58
275.366	30.72
275.581	-98.3
275.797	65.54
276.012	38.91
276.228	-36.86
276.444	43.01
276.659	63.49
276.875	-32.77
277.09	2.05
277.306	-26.62
277.521	112.64
277.737	38.91
277.952	81.92
278.168	45.06
278.383	-14.34
278.599	-16.38
278.814	14.34
279.03	-34.82
279.245	122.88
279.461	16.38
279.676	53.25
279.892	-32.77
280.107	-71.68
280.322	-51.2
280.538	40.96
280.753	-114.69
280.969	88.06
281.184	-26.62
281.399	108.54
281.615	81.92
281.83	90.11
282.045	22.53
282.26	-71.68
282.476	18.43
282.691	126.97
282.906	77.82
283.122	59.39
283.337	-20.48
283.552	81.92
283.767	0
283.983	14.34
284.198	-26.62
284.413	24.58
284.628	-28.67
284.843	79.87
285.058	98.3
285.274	-30.72
285.489	75.77
285.704	116.73
285.919	-28.67
286.134	-26.62
286.349	-38.91
286.564	-55.3
286.779	155.65
286.995	-75.77
287.21	-86.01
287.425	43.01
287.64	-12.29
287.855	57.34
288.07	-86.01
288.285	100.35
288.5	120.83
288.715	26.62
288.93	12.29
289.145	-24.58
289.36	75.77
289.575	43.01
289.79	53.25
290.004	-36.86
290.219	100.35
290.434	-40.96
290.649	-28.67
290.864	-22.53
291.079	6.14
291.294	67.58
291.509	26.62
291.724	65.54
291.938	-4.1
292.153	172.03
292.368	-30.72
292.583	36.86
292.798	47.1
293.012	86.01
293.227	71.68
293.442	-26.62
293.657	4.1
293.871	47.1
294.086	-16.38
294.301	143.36
294.516	73.73
294.73	-22.53
294.945	-94.21
295.16	49.15
295.374	49.15
295.589	79.87
295.804	-55.3
296.018	-8.19
296.233	79.87
296.447	-10.24
296.662	18.43
296.877	67.58
297.091	53.25
297.306	18.43
297.52	34.82
297.735	98.3
297.949	-36.86
298.164	51.2
298.378	81.92
298.593	-40.96
298.807	0
299.022	18.43
299.236	98.3
299.451	-49.15
299.665	63.49
299.88	10.24
300.094	43.01
300.309	-67.58
300.523	-22.53
300.737	-2.05
300.952	49.15
301.166	86.01
301.381	18.43
301.595	-10.24
301.809	32.77
302.024	14.34
302.238	-6.14
302.452	2.05
302.667	-8.19
302.881	71.68
303.095	59.39
303.309	-12.29
303.524	-8.19
303.738	28.67
303.952	-55.3
304.166	10.24
304.381	-118.78
304.595	104.45
304.809	-24.58
305.023	6.14
305.237	-67.58
305.452	49.15
305.666	32.77
305.88	34.82
306.094	10.24
306.308	8.19
306.522	71.68
306.736	47.1
306.95	49.15
307.164	-34.82
307.379	-24.58
307.593	108.54
307.807	59.39
308.021	34.82
308.235	28.67
308.449	-96.25
308.663	16.38
308.877	192.51
309.091	47.1
309.305	43.01
309.519	-116.73
309.733	92.16
309.947	-79.87
310.161	63.49
310.374	-10.24
310.588	51.2
310.802	-32.77
311.016	34.82
311.23	57.34
311.444	-59.39
311.658	30.72
311.872	98.3
312.085	104.45
312.299	165.89
312.513	75.77
312.727	49.15
312.941	-32.77
313.154	81.92
313.368	98.3
313.582	63.49
313.796	67.58
314.009	-14.34
314.223	-26.62
314.437	-6.14
314.651	75.77
314.864	-20.48
315.078	10.24
315.292	-88.06
315.505	-59.39
315.719	53.25
315.933	32.77
316.146	-6.14
316.36	-92.16
316.573	43.01
316.787	75.77
317.001	-63.49
317.214	-28.67
317.428	-57.34
317.641	-73.73
317.855	36.86
318.068	43.01
318.282	163.84
318.495	129.02
318.709	55.3
318.922	-26.62
319.136	108.54
319.349	92.16
319.563	47.1
319.776	63.49
319.99	-104.45
320.203	88.06
320.417	22.53
320.63	124.93
320.843	120.83
321.057	18.43
321.27	-81.92
321.483	26.62
321.697	210.94
321.91	83.97
322.124	12.29
322.337	32.77
322.55	-86.01
322.763	34.82
322.977	112.64
323.19	26.62
323.403	20.48
323.617	4.1
323.83	86.01
324.043	-6.14
324.256	71.68
324.469	-16.38
324.683	126.97
324.896	-24.58
325.109	24.58
325.322	-32.77
325.535	75.77
325.748	47.1
325.962	-38.91
326.175	43.01
326.388	-16.38
326.601	122.88
326.814	10.24
327.027	90.11
327.24	161.79
327.453	-73.73
327.666	18.43
327.879	81.92
328.092	8.19
328.305	10.24
328.518	-36.86
328.731	-14.34
328.944	45.06
329.157	73.73
329.37	32.77
329.583	124.93
329.796	-6.14
330.009	-57.34
330.222	110.59
330.435	65.54
330.648	26.62
330.861	67.58
331.073	0
331.286	149.5
331.499	-14.34
331.712	-51.2
331.925	-2.05
332.138	12.29
332.35	124.93
332.563	-28.67
332.776	92.16
332.989	53.25
333.202	-30.72
333.414	-16.38
333.627	2.05
333.84	-24.58
334.053	71.68
334.265	-26.62
334.478	-18.43
334.691	28.67
334.903	-51.2
335.116	-45.06
335.329	69.63
335.541	96.25
335.754	131.07
335.966	-20.48
336.179	10.24
336.392	32.77
336.604	-6.14
336.817	114.69
337.029	92.16
337.242	34.82
337.454	120.83
337.667	16.38
337.88	139.26
338.092	20.48
338.305	106.49
338.517	40.96
338.729	114.69
338.942	59.39
339.154	-59.39
339.367	-98.3
339.579	-10.24
339.792	2.05
340.004	114.69
340.217	88.06
340.429	34.82
340.641	-26.62
340.854	-18.43
341.066	10.24
341.278	96.25
341.491	40.96
341.703	26.62
341.915	18.43
342.128	67.58
342.34	22.53
342.552	-12.29
342.764	59.39
342.977	-145.41
343.189	67.58
343.401	51.2
343.613	10.24
343.826	32.77
344.038	-51.2
344.25	-2.05
344.462	-65.54
344.674	69.63
344.886	-18.43
345.099	106.49
345.311	-104.45
345.523	2.05
345.735	-88.06
345.947	26.62
346.159	59.39
346.371	-24.58
346.583	-63.49
346.795	157.69
347.007	47.1
347.219	81.92
347.431	38.91
347.643	202.75
347.855	-75.77
348.067	182.27
348.279	2.05
348.491	-67.58
348.703	-2.05
348.915	30.72
349.127	-38.91
349.339	8.19
349.551	59.39
349.763	47.1
349.975	-14.34
350.187	90.11
350.399	122.88
350.61	-18.43
350.822	40.96
351.034	-26.62
351.246	61.44
351.458	96.25
351.669	75.77
351.881	67.58
352.093	122.88
352.305	16.38
352.517	67.58
352.728	110.59
352.94	-8.19
353.152	75.77
353.363	-83.97
353.575	14.34
353.787	77.82
353.999	-43.01
354.21	112.64
354.422	-90.11
354.633	16.38
354.845	-71.68
355.057	40.96
355.268	30.72
355.48	100.35
355.692	-59.39
355.903	-16.38
356.115	2.05
356.326	-63.49
356.538	26.62
356.749	16.38
356.961	163.84
357.172	75.77
357.384	20.48
357.595	102.4
357.807	24.58
358.018	-18.43
358.23	-55.3
358.441	63.49
358.653	81.92
358.864	-24.58
359.075	-22.53
359.287	-10.24
359.498	34.82
359.709	30.72
359.921	24.58
360.132	-6.14
360.344	-2.05
360.555	-14.34
360.766	-14.34
360.977	-51.2
361.189	61.44
361.4	-67.58
361.611	26.62
361.823	6.14
362.034	102.4
362.245	-14.34
362.456	49.15
362.667	75.77
362.879	-69.63
363.09	51.2
363.301	53.25
363.512	-10.24
363.723	24.58
363.935	30.72
364.146	88.06
364.357	-47.1
364.568	98.3
364.779	-112.64
364.99	174.08
365.201	-14.34
365.412	120.83
365.623	-90.11
365.834	-47.1
366.045	18.43
366.256	26.62
366.467	147.45
366.678	36.86
366.889	-10.24
367.1	-16.38
367.311	81.92
367.522	24.58
367.733	0
367.944	-4.1
368.155	38.91
368.366	116.73
368.577	110.59
368.788	141.31
368.999	-51.2
369.209	32.77
369.42	159.74
369.631	190.46
369.842	106.49
370.053	-38.91
370.264	149.5
370.474	-88.06
370.685	106.49
370.896	4.1
371.107	129.02
371.317	81.92
371.528	43.01
371.739	63.49
371.95	40.96
372.16	69.63
372.371	-139.26
372.582	-28.67
372.792	-2.05
373.003	55.3
373.214	32.77
373.424	57.34
373.635	-8.19
373.846	120.83
374.056	51.2
374.267	67.58
374.477	-22.53
374.688	-96.25
374.898	22.53
375.109	49.15
375.319	59.39
375.53	90.11
375.74	57.34
375.951	-14.34
376.161	53.25
376.372	90.11
376.582	-90.11
376.793	14.34
377.003	2.05
377.214	-59.39
377.424	26.62
377.635	112.64
377.845	12.29
378.055	61.44
378.266	-24.58
378.476	2.05
378.686	30.72
378.897	51.2
379.107	63.49
379.317	98.3
379.528	2.05
379.738	71.68
379.948	-63.49
380.158	16.38
380.369	-22.53
380.579	63.49
380.789	32.77
380.999	38.91
381.21	131.07
381.42	149.5
381.63	24.58
381.84	43.01
382.05	32.77
382.261	32.77
382.471	16.38
382.681	12.29
382.891	184.32
383.101	43.01
383.311	-73.73
383.521	-8.19
383.731	18.43
383.941	90.11
384.151	34.82
384.361	30.72
384.571	43.01
384.781	10.24
384.991	141.31
385.201	133.12
385.411	61.44
385.621	43.01
385.831	6.14
386.041	-38.91
386.251	8.19
386.461	45.06
386.671	2.05
386.881	67.58
387.091	43.01
387.301	92.16
387.511	-24.58
387.72	67.58
387.93	53.25
388.14	-63.49
388.35	34.82
388.56	169.98
388.769	98.3
388.979	65.54
389.189	-51.2
389.399	32.77
389.609	83.97
389.818	90.11
390.028	36.86
390.238	12.29
390.447	-16.38
390.657	26.62
390.867	36.86
391.076	-71.68
391.286	26.62
391.496	-26.62
391.705	106.49
391.915	133.12
392.125	75.77
392.334	-30.72
392.544	59.39
392.753	20.48
392.963	-63.49
393.172	100.35
393.382	43.01
393.591	157.69
393.801	61.44
394.01	167.93
394.22	30.72
394.429	71.68
394.639	0
394.848	12.29
395.058	32.77
395.267	14.34
395.477	65.54
395.686	20.48
395.895	202.75
396.105	92.16
396.314	55.3
396.524	-43.01
396.733	0
396.942	106.49
397.152	77.82
397.361	16.38
397.57	51.2
397.78	-47.1
397.989	100.35
398.198	151.55
398.407	73.73
398.617	6.14
398.826	26.62
399.035	16.38
399.244	63.49
399.453	38.91
399.663	92.16
399.872	36.86
400.081	-65.54
400.29	129.02
400.499	-32.77
400.708	108.54
400.917	-6.14
401.127	30.72
401.336	-14.34
401.545	153.6
401.754	139.26
401.963	14.34
402.172	-8.19
402.381	-63.49
402.59	28.67
402.799	-24.58
403.008	53.25
403.217	2.05
403.426	92.16
403.635	-81.92
403.844	-36.86
404.053	-45.06
404.262	26.62
404.471	151.55
404.68	55.3
404.888	-26.62
405.097	32.77
405.306	6.14
405.515	38.91
405.724	24.58
405.933	67.58
406.142	104.45
406.35	104.45
406.559	14.34
406.768	98.3
406.977	57.34
407.185	40.96
407.394	79.87
407.603	-38.91
407.812	63.49
408.02	145.41
408.229	53.25
408.438	18.43
408.646	-47.1
408.855	0
409.064	40.96
409.272	-10.24
409.481	22.53
409.69	-79.87
409.898	-26.62
410.107	34.82
410.315	108.54
410.524	106.49
410.733	24.58
410.941	-6.14
411.15	26.62
411.358	51.2
411.567	141.31
411.775	83.97
411.984	28.67
412.192	100.35
412.401	2.05
412.609	151.55
412.818	102.4
413.026	88.06
413.234	-45.06
413.443	81.92
413.651	-20.48
413.86	-6.14
414.068	141.31
414.276	169.98
414.485	43.01
414.693	159.74
414.901	141.31
415.11	34.82
415.318	14.34
415.526	79.87
415.734	106.49
415.943	-22.53
416.151	32.77
416.359	-53.25
416.567	28.67
416.776	26.62
416.984	26.62
417.192	114.69
417.4	26.62
417.608	-14.34
417.817	16.38
418.025	83.97
418.233	161.79
418.441	-24.58
418.649	-53.25
418.857	55.3
419.065	141.31
419.273	-51.2
419.481	22.53
419.689	57.34
419.897	51.2
420.105	-32.77
420.313	14.34
420.521	90.11
420.729	108.54
420.937	30.72
421.145	4.1
421.353	182.27
421.561	86.01
421.769	63.49
421.977	-8.19
422.185	110.59
422.393	-40.96
422.601	63.49
422.809	34.82
423.017	26.62
423.224	75.77
423.432	18.43
423.64	102.4
423.848	43.01
424.056	-24.58
424.263	73.73
424.471	24.58
424.679	133.12
424.887	-45.06
425.094	137.21
425.302	61.44
425.51	0
425.718	172.03
425.925	-51.2
426.133	-83.97
426.341	155.65
426.548	-14.34
426.756	-30.72
426.964	18.43
427.171	-61.44
427.379	139.26
427.586	43.01
427.794	106.49
428.001	161.79
428.209	77.82
428.417	143.36
428.624	155.65
428.832	106.49
429.039	-6.14
429.247	92.16
429.454	145.41
429.662	204.8
429.869	67.58
430.076	61.44
430.284	104.45
430.491	194.56
430.699	81.92
430.906	165.89
431.114	43.01
431.321	73.73
431.528	30.72
431.736	124.93
431.943	110.59
432.15	75.77
432.358	137.21
432.565	88.06
432.772	67.58
432.979	159.74
433.187	-2.05
433.394	104.45
433.601	18.43
433.808	65.54
434.016	122.88
434.223	126.97
434.43	98.3
434.637	204.8
434.844	151.55
435.052	169.98
435.259	239.61
435.466	147.45
435.673	153.6
435.88	153.6
436.087	245.76
436.294	219.13
436.501	212.99
436.708	116.73
436.915	131.07
437.122	198.65
437.329	198.65
437.537	208.89
437.743	198.65
437.95	315.39
438.157	251.9
438.364	249.85
438.571	296.96
438.778	264.19
438.985	309.24
439.192	358.39
439.399	321.53
439.606	442.36
439.813	397.31
440.02	428.03
440.227	524.28
440.433	423.93
440.64	315.39
440.847	323.58
441.054	405.5
441.261	489.46
441.467	460.79
441.674	444.41
441.881	505.85
442.088	501.75
442.294	542.71
442.501	559.1
442.708	616.44
442.914	557.05
443.121	636.92
443.328	659.45
443.534	694.26
443.741	663.54
443.948	667.64
444.154	712.69
444.361	786.42
444.568	657.4
444.774	761.84
444.981	655.35
445.187	919.54
445.394	817.14
445.6	862.19
445.807	903.15
446.013	886.77
446.22	952.31
446.426	925.68
446.633	1079.28
446.839	1173.49
447.046	1036.27
447.252	1169.39
447.459	1157.1
447.665	1198.06
447.871	1349.61
448.078	1388.52
448.284	1230.83
448.491	1462.25
448.697	1370.09
448.903	1648.61
449.11	1587.18
449.316	1587.18
449.522	1705.96
449.728	1816.55
449.935	1828.84
450.141	1806.31
450.347	1994.72
450.553	1914.85
450.76	1927.14
450.966	1998.82
451.172	2189.28
451.378	2289.63
451.584	2252.77
451.791	2482.14
451.997	2488.28
452.203	2557.91
452.409	2662.36
452.615	2717.65
452.821	2723.8
453.027	2762.71
453.233	3127.25
453.44	3088.34
453.646	3110.86
453.852	3325.9
454.058	3387.34
454.264	3512.27
454.47	3712.97
454.676	3626.95
454.882	4040.64
455.088	3864.52
455.294	4341.69
455.5	4618.17
455.705	4773.82
455.911	4747.19
456.117	4790.2
456.323	4988.85
456.529	4884.41
456.735	5466.03
456.941	5529.52
457.147	5801.9
457.352	5959.59
457.558	6119.33
457.764	6625.18
457.97	6768.54
458.176	7096.21
458.381	7335.82
458.587	7489.42
458.793	7841.67
458.999	7737.23
459.204	8685.44
459.41	9002.87
459.616	8908.66
459.821	9338.74
460.027	9645.93
460.233	10225.51
460.438	10227.56
460.644	10938.2
460.85	10903.39
461.055	11507.54
461.261	12201.8
461.466	11917.13
461.672	12080.97
461.878	13510.45
462.083	13285.17
462.289	13666.1
462.494	13813.55
462.7	14040.87
462.905	14546.72
463.111	15591.19
463.316	16387.85
463.522	16340.74
463.727	16987.9
463.932	17630.96
464.138	18521.83
464.343	19068.64
464.549	19009.25
464.754	20520.65
464.959	21061.31
465.165	21313.21
465.37	21425.85
465.575	21188.28
465.781	22744.74
465.986	23697.05
466.191	22986.4
466.397	23113.38
466.602	22754.98
466.807	23936.66
467.012	24413.84
467.218	24692.36
467.423	24788.61
467.628	25568.89
467.833	26959.46
468.038	26441.32
468.244	25775.73
468.449	27246.18
468.654	26619.5
468.859	26850.92
469.064	26871.4
