Data from USB4F104151__1__11-24-08-709.txt Node

Date: Wed Feb 26 11:24:08 EST 2025
User: louis
Spectrometer: USB4F10415
Trigger mode: 4
Integration Time (sec): 1.000000E-1
Scans to average: 1
Electric dark correction enabled: true
Nonlinearity correction enabled: false
Boxcar width: 0
XAxis mode: Wavelengths
Number of Pixels in Spectrum: 3648
>>>>>Begin Spectral Data<<<<<
178.204	-379.56
178.424	-379.56
178.644	-379.56
178.864	-371.37
179.084	-402.08
179.304	122.2
179.524	-55.98
179.744	19.8
179.964	17.75
180.184	36.18
180.404	23.89
180.624	-86.7
180.844	-12.97
181.064	-117.42
181.283	1.37
181.503	-4.78
181.723	56.66
181.943	-55.98
182.163	134.48
182.383	-74.41
182.602	68.95
182.822	118.1
183.042	118.1
183.262	62.8
183.482	40.28
183.701	105.81
183.921	54.61
184.141	15.7
184.361	130.39
184.58	128.34
184.8	9.56
185.02	-35.5
185.239	122.2
185.459	60.76
185.679	187.73
185.898	-21.16
186.118	64.85
186.338	48.47
186.557	107.86
186.777	-66.22
186.997	23.89
187.216	48.47
187.436	185.68
187.655	60.76
187.875	95.57
188.095	99.67
188.314	154.96
188.534	140.63
188.753	54.61
188.973	146.77
189.192	140.63
189.412	52.56
189.631	71
189.851	81.24
190.07	109.91
190.29	-29.35
190.509	19.8
190.729	9.56
190.948	62.8
191.168	224.59
191.387	165.2
191.607	7.51
191.826	81.24
192.045	38.23
192.265	15.7
192.484	81.24
192.704	62.8
192.923	-70.31
193.142	232.79
193.362	97.62
193.581	148.82
193.8	27.99
194.02	71
194.239	48.47
194.458	97.62
194.678	-4.78
194.897	85.33
195.116	62.8
195.335	21.84
195.555	130.39
195.774	44.37
195.993	68.95
196.212	85.33
196.432	-10.92
196.651	-88.75
196.87	105.81
197.089	251.22
197.308	75.09
197.528	60.76
197.747	-29.35
197.966	91.48
198.185	95.57
198.404	-27.31
198.623	163.15
198.842	130.39
199.062	167.25
199.281	83.28
199.5	19.8
199.719	114
199.938	17.75
200.157	183.63
200.376	181.59
200.595	64.85
200.814	11.61
201.033	73.04
201.252	171.35
201.471	124.24
201.69	95.57
201.909	134.48
202.128	146.77
202.347	42.32
202.566	48.47
202.785	-35.5
203.004	30.04
203.223	308.56
203.442	56.66
203.661	13.65
203.879	114
204.098	103.76
204.317	11.61
204.536	91.48
204.755	136.53
204.974	159.06
205.193	58.71
205.411	173.39
205.63	107.86
205.849	32.08
206.068	23.89
206.287	-23.21
206.505	146.77
206.724	-70.31
206.943	-62.12
207.162	1.37
207.381	99.67
207.599	40.28
207.818	23.89
208.037	-15.02
208.255	21.84
208.474	99.67
208.693	5.46
208.911	79.19
209.13	146.77
209.349	181.59
209.567	81.24
209.786	19.8
210.005	17.75
210.223	19.8
210.442	-72.36
210.661	-39.59
210.879	79.19
211.098	97.62
211.316	95.57
211.535	85.33
211.753	30.04
211.972	124.24
212.191	-35.5
212.409	62.8
212.628	75.09
212.846	27.99
213.065	111.96
213.283	11.61
213.502	30.04
213.72	17.75
213.938	36.18
214.157	40.28
214.375	93.52
214.594	5.46
214.812	99.67
215.031	81.24
215.249	27.99
215.467	130.39
215.686	-33.45
215.904	32.08
216.122	32.08
216.341	185.68
216.559	101.72
216.778	134.48
216.996	85.33
217.214	77.14
217.432	-82.6
217.651	17.75
217.869	101.72
218.087	25.94
218.306	107.86
218.524	32.08
218.742	105.81
218.96	87.38
219.179	27.99
219.397	77.14
219.615	197.97
219.833	122.2
220.051	17.75
220.27	103.76
220.488	89.43
220.706	95.57
220.924	64.85
221.142	17.75
221.36	54.61
221.578	93.52
221.796	13.65
222.015	103.76
222.233	44.37
222.451	206.16
222.669	85.33
222.887	87.38
223.105	50.52
223.323	79.19
223.541	19.8
223.759	17.75
223.977	128.34
224.195	163.15
224.413	130.39
224.631	48.47
224.849	101.72
225.067	251.22
225.285	-12.97
225.503	17.75
225.721	-51.88
225.939	9.56
226.157	146.77
226.375	185.68
226.592	27.99
226.81	75.09
227.028	146.77
227.246	77.14
227.464	66.9
227.682	87.38
227.9	103.76
228.117	89.43
228.335	36.18
228.553	60.76
228.771	130.39
228.989	54.61
229.206	97.62
229.424	40.28
229.642	23.89
229.86	23.89
230.077	138.58
230.295	105.81
230.513	85.33
230.731	38.23
230.948	154.96
231.166	202.07
231.384	-41.64
231.601	-25.26
231.819	142.68
232.037	25.94
232.254	-21.16
232.472	105.81
232.689	-60.07
232.907	116.05
233.125	11.61
233.342	-8.87
233.56	-37.55
233.777	-27.31
233.995	21.84
234.213	73.04
234.43	154.96
234.648	-10.92
234.865	62.8
235.083	40.28
235.3	60.76
235.518	68.95
235.735	138.58
235.953	68.95
236.17	30.04
236.388	64.85
236.605	50.52
236.822	68.95
237.04	165.2
237.257	71
237.475	11.61
237.692	-35.5
237.909	120.15
238.127	19.8
238.344	23.89
238.562	68.95
238.779	-62.12
238.996	38.23
239.214	27.99
239.431	58.71
239.648	64.85
239.865	66.9
240.083	60.76
240.3	23.89
240.517	-27.31
240.735	64.85
240.952	136.53
241.169	50.52
241.386	93.52
241.603	23.89
241.821	-2.73
242.038	77.14
242.255	97.62
242.472	-80.55
242.689	73.04
242.907	73.04
243.124	3.41
243.341	66.9
243.558	56.66
243.775	-39.59
243.992	-27.31
244.209	159.06
244.426	118.1
244.643	-37.55
244.86	23.89
245.078	95.57
245.295	146.77
245.512	46.42
245.729	7.51
245.946	93.52
246.163	71
246.38	19.8
246.597	27.99
246.814	99.67
247.031	1.37
247.248	19.8
247.464	56.66
247.681	38.23
247.898	40.28
248.115	42.32
248.332	15.7
248.549	101.72
248.766	259.41
248.983	32.08
249.2	66.9
249.417	187.73
249.633	19.8
249.85	64.85
250.067	54.61
250.284	60.76
250.501	42.32
250.717	136.53
250.934	-21.16
251.151	-0.68
251.368	68.95
251.585	99.67
251.801	58.71
252.018	-35.5
252.235	93.52
252.451	44.37
252.668	7.51
252.885	200.02
253.102	56.66
253.318	58.71
253.535	32.08
253.752	-39.59
253.968	21.84
254.185	38.23
254.401	68.95
254.618	52.56
254.835	30.04
255.051	150.87
255.268	138.58
255.484	91.48
255.701	30.04
255.917	103.76
256.134	-8.87
256.351	103.76
256.567	-62.12
256.784	-8.87
257	-29.35
257.217	128.34
257.433	130.39
257.65	114
257.866	173.39
258.082	-12.97
258.299	-37.55
258.515	42.32
258.732	52.56
258.948	-60.07
259.165	1.37
259.381	17.75
259.597	111.96
259.814	75.09
260.03	66.9
260.246	15.7
260.463	105.81
260.679	89.43
260.895	13.65
261.112	83.28
261.328	101.72
261.544	19.8
261.761	177.49
261.977	21.84
262.193	34.13
262.409	42.32
262.626	97.62
262.842	81.24
263.058	9.56
263.274	144.72
263.49	146.77
263.707	114
263.923	83.28
264.139	7.51
264.355	103.76
264.571	191.83
264.787	36.18
265.004	93.52
265.22	73.04
265.436	-17.07
265.652	68.95
265.868	48.47
266.084	-55.98
266.3	54.61
266.516	1.37
266.732	19.8
266.948	81.24
267.164	-33.45
267.38	95.57
267.596	77.14
267.812	165.2
268.028	52.56
268.244	71
268.46	38.23
268.676	42.32
268.892	21.84
269.108	17.75
269.324	-37.55
269.54	-53.93
269.756	83.28
269.972	-72.36
270.188	73.04
270.403	48.47
270.619	-29.35
270.835	38.23
271.051	64.85
271.267	25.94
271.483	15.7
271.698	120.15
271.914	140.63
272.13	73.04
272.346	7.51
272.562	60.76
272.777	165.2
272.993	89.43
273.209	21.84
273.425	85.33
273.64	-21.16
273.856	114
274.072	23.89
274.287	40.28
274.503	71
274.719	64.85
274.934	7.51
275.15	-41.64
275.366	-6.83
275.581	-4.78
275.797	140.63
276.012	30.04
276.228	71
276.444	19.8
276.659	107.86
276.875	32.08
277.09	66.9
277.306	-15.02
277.521	50.52
277.737	17.75
277.952	144.72
278.168	64.85
278.383	46.42
278.599	105.81
278.814	46.42
279.03	38.23
279.245	161.11
279.461	13.65
279.676	60.76
279.892	-39.59
280.107	-58.03
280.322	9.56
280.538	124.24
280.753	9.56
280.969	118.1
281.184	81.24
281.399	111.96
281.615	21.84
281.83	124.24
282.045	-25.26
282.26	-19.11
282.476	58.71
282.691	111.96
282.906	23.89
283.122	181.59
283.337	32.08
283.552	105.81
283.767	-12.97
283.983	118.1
284.198	60.76
284.413	103.76
284.628	-12.97
284.843	68.95
285.058	136.53
285.274	62.8
285.489	3.41
285.704	81.24
285.919	7.51
286.134	87.38
286.349	105.81
286.564	-4.78
286.779	157.01
286.995	23.89
287.21	-78.51
287.425	38.23
287.64	7.51
287.855	97.62
288.07	-37.55
288.285	116.05
288.5	105.81
288.715	122.2
288.93	48.47
289.145	71
289.36	77.14
289.575	91.48
289.79	124.24
290.004	9.56
290.219	103.76
290.434	1.37
290.649	-43.69
290.864	30.04
291.079	52.56
291.294	-10.92
291.509	66.9
291.724	56.66
291.938	87.38
292.153	85.33
292.368	-4.78
292.583	19.8
292.798	167.25
293.012	-6.83
293.227	73.04
293.442	60.76
293.657	91.48
293.871	140.63
294.086	11.61
294.301	134.48
294.516	97.62
294.73	58.71
294.945	-39.59
295.16	36.18
295.374	171.35
295.589	116.05
295.804	-2.73
296.018	40.28
296.233	50.52
296.447	107.86
296.662	9.56
296.877	179.54
297.091	116.05
297.306	77.14
297.52	44.37
297.735	163.15
297.949	114
298.164	68.95
298.378	64.85
298.593	-17.07
298.807	58.71
299.022	23.89
299.236	159.06
299.451	38.23
299.665	36.18
299.88	52.56
300.094	136.53
300.309	-6.83
300.523	27.99
300.737	23.89
300.952	-21.16
301.166	60.76
301.381	-86.7
301.595	46.42
301.809	134.48
302.024	3.41
302.238	-49.83
302.452	73.04
302.667	-6.83
302.881	204.11
303.095	187.73
303.309	50.52
303.524	25.94
303.738	56.66
303.952	32.08
304.166	60.76
304.381	-107.18
304.595	159.06
304.809	1.37
305.023	62.8
305.237	-12.97
305.452	-43.69
305.666	58.71
305.88	118.1
306.094	146.77
306.308	52.56
306.522	163.15
306.736	71
306.95	79.19
307.164	15.7
307.379	85.33
307.593	152.91
307.807	120.15
308.021	95.57
308.235	42.32
308.449	-10.92
308.663	83.28
308.877	204.11
309.091	36.18
309.305	101.72
309.519	3.41
309.733	111.96
309.947	-72.36
310.161	101.72
310.374	85.33
310.588	140.63
310.802	-43.69
311.016	58.71
311.23	124.24
311.444	-4.78
311.658	15.7
311.872	120.15
312.085	124.24
312.299	144.72
312.513	150.87
312.727	87.38
312.941	-0.68
313.154	23.89
313.368	19.8
313.582	64.85
313.796	60.76
314.009	34.13
314.223	146.77
314.437	140.63
314.651	103.76
314.864	-10.92
315.078	136.53
315.292	3.41
315.505	44.37
315.719	118.1
315.933	38.23
316.146	11.61
316.36	-10.92
316.573	118.1
316.787	128.34
317.001	81.24
317.214	1.37
317.428	91.48
317.641	48.47
317.855	75.09
318.068	52.56
318.282	42.32
318.495	175.44
318.709	99.67
318.922	46.42
319.136	144.72
319.349	95.57
319.563	34.13
319.776	64.85
319.99	-84.65
320.203	152.91
320.417	-6.83
320.63	60.76
320.843	206.16
321.057	32.08
321.27	50.52
321.483	146.77
321.697	197.97
321.91	91.48
322.124	46.42
322.337	68.95
322.55	17.75
322.763	-84.65
322.977	40.28
323.19	73.04
323.403	23.89
323.617	85.33
323.83	159.06
324.043	-10.92
324.256	202.07
324.469	-17.07
324.683	146.77
324.896	89.43
325.109	79.19
325.322	3.41
325.535	105.81
325.748	138.58
325.962	95.57
326.175	136.53
326.388	77.14
326.601	87.38
326.814	1.37
327.027	-0.68
327.24	167.25
327.453	-12.97
327.666	126.29
327.879	114
328.092	97.62
328.305	134.48
328.518	-23.21
328.731	-6.83
328.944	52.56
329.157	75.09
329.37	19.8
329.583	140.63
329.796	95.57
330.009	-27.31
330.222	122.2
330.435	122.2
330.648	34.13
330.861	134.48
331.073	68.95
331.286	93.52
331.499	50.52
331.712	32.08
331.925	58.71
332.138	54.61
332.35	157.01
332.563	-98.99
332.776	152.91
332.989	-25.26
333.202	-0.68
333.414	81.24
333.627	62.8
333.84	1.37
334.053	27.99
334.265	-103.08
334.478	7.51
334.691	48.47
334.903	93.52
335.116	-64.17
335.329	-29.35
335.541	150.87
335.754	122.2
335.966	9.56
336.179	93.52
336.392	-45.74
336.604	19.8
336.817	95.57
337.029	132.44
337.242	32.08
337.454	79.19
337.667	81.24
337.88	105.81
338.092	68.95
338.305	118.1
338.517	-17.07
338.729	111.96
338.942	249.17
339.154	-15.02
339.367	-41.64
339.579	101.72
339.792	-15.02
340.004	132.44
340.217	-19.11
340.429	68.95
340.641	-37.55
340.854	3.41
341.066	19.8
341.278	101.72
341.491	107.86
341.703	32.08
341.915	-2.73
342.128	36.18
342.34	75.09
342.552	-25.26
342.764	27.99
342.977	23.89
343.189	83.28
343.401	81.24
343.613	-80.55
343.826	48.47
344.038	-31.4
344.25	87.38
344.462	-53.93
344.674	75.09
344.886	60.76
345.099	83.28
345.311	83.28
345.523	-41.64
345.735	-90.79
345.947	148.82
346.159	87.38
346.371	17.75
346.583	54.61
346.795	202.07
347.007	-10.92
347.219	118.1
347.431	25.94
347.643	97.62
347.855	1.37
348.067	101.72
348.279	-15.02
348.491	46.42
348.703	83.28
348.915	44.37
349.127	-68.27
349.339	91.48
349.551	-4.78
349.763	107.86
349.975	15.7
350.187	114
350.399	161.11
350.61	107.86
350.822	-109.23
351.034	27.99
351.246	50.52
351.458	114
351.669	56.66
351.881	138.58
352.093	95.57
352.305	154.96
352.517	83.28
352.728	93.52
352.94	52.56
353.152	111.96
353.363	-70.31
353.575	97.62
353.787	154.96
353.999	68.95
354.21	165.2
354.422	-15.02
354.633	1.37
354.845	27.99
355.057	124.24
355.268	85.33
355.48	140.63
355.692	-15.02
355.903	58.71
356.115	5.46
356.326	-0.68
356.538	23.89
356.749	128.34
356.961	175.44
357.172	-4.78
357.384	1.37
357.595	195.92
357.807	23.89
358.018	-103.08
358.23	79.19
358.441	187.73
358.653	89.43
358.864	97.62
359.075	-53.93
359.287	138.58
359.498	152.91
359.709	95.57
359.921	32.08
360.132	56.66
360.344	-37.55
360.555	27.99
360.766	75.09
360.977	68.95
361.189	81.24
361.4	1.37
361.611	150.87
361.823	118.1
362.034	42.32
362.245	-6.83
362.456	21.84
362.667	81.24
362.879	-4.78
363.09	13.65
363.301	97.62
363.512	34.13
363.723	-2.73
363.935	-2.73
364.146	62.8
364.357	79.19
364.568	32.08
364.779	-94.89
364.99	206.16
365.201	-0.68
365.412	75.09
365.623	3.41
365.834	101.72
366.045	87.38
366.256	66.9
366.467	81.24
366.678	-10.92
366.889	62.8
367.1	32.08
367.311	116.05
367.522	21.84
367.733	58.71
367.944	81.24
368.155	50.52
368.366	89.43
368.577	97.62
368.788	87.38
368.999	52.56
369.209	52.56
369.42	193.87
369.631	283.98
369.842	105.81
370.053	-8.87
370.264	73.04
370.474	-35.5
370.685	44.37
370.896	48.47
371.107	111.96
371.317	73.04
371.528	-47.79
371.739	58.71
371.95	77.14
372.16	75.09
372.371	-70.31
372.582	-4.78
372.792	169.3
373.003	52.56
373.214	101.72
373.424	97.62
373.635	-74.41
373.846	111.96
374.056	48.47
374.267	34.13
374.477	15.7
374.688	-27.31
374.898	42.32
375.109	130.39
375.319	150.87
375.53	179.54
375.74	111.96
375.951	21.84
376.161	118.1
376.372	87.38
376.582	30.04
376.793	97.62
377.003	25.94
377.214	3.41
377.424	114
377.635	68.95
377.845	-10.92
378.055	132.44
378.266	1.37
378.476	25.94
378.686	36.18
378.897	77.14
379.107	91.48
379.317	140.63
379.528	19.8
379.738	114
379.948	-33.45
380.158	116.05
380.369	89.43
380.579	44.37
380.789	91.48
380.999	118.1
381.21	122.2
381.42	210.26
381.63	-27.31
381.84	191.83
382.05	85.33
382.261	91.48
382.471	175.44
382.681	21.84
382.891	204.11
383.101	30.04
383.311	19.8
383.521	7.51
383.731	77.14
383.941	142.68
384.151	36.18
384.361	13.65
384.571	73.04
384.781	89.43
384.991	218.45
385.201	214.35
385.411	89.43
385.621	60.76
385.831	85.33
386.041	42.32
386.251	95.57
386.461	136.53
386.671	3.41
386.881	38.23
387.091	34.13
387.301	79.19
387.511	54.61
387.72	66.9
387.93	87.38
388.14	71
388.35	11.61
388.56	171.35
388.769	171.35
388.979	64.85
389.189	7.51
389.399	111.96
389.609	148.82
389.818	114
390.028	62.8
390.238	15.7
390.447	-88.75
390.657	30.04
390.867	50.52
391.076	-105.13
391.286	95.57
391.496	105.81
391.705	58.71
391.915	183.63
392.125	167.25
392.334	-29.35
392.544	181.59
392.753	-4.78
392.963	-21.16
393.172	-37.55
393.382	13.65
393.591	148.82
393.801	32.08
394.01	109.91
394.22	103.76
394.429	42.32
394.639	114
394.848	42.32
395.058	130.39
395.267	77.14
395.477	111.96
395.686	87.38
395.895	165.2
396.105	175.44
396.314	111.96
396.524	62.8
396.733	109.91
396.942	107.86
397.152	77.14
397.361	171.35
397.57	132.44
397.78	81.24
397.989	154.96
398.198	261.46
398.407	-27.31
398.617	66.9
398.826	71
399.035	7.51
399.244	142.68
399.453	21.84
399.663	64.85
399.872	101.72
400.081	-2.73
400.29	116.05
400.499	-35.5
400.708	97.62
400.917	60.76
401.127	-33.45
401.336	25.94
401.545	200.02
401.754	103.76
401.963	130.39
402.172	11.61
402.381	-8.87
402.59	46.42
402.799	111.96
403.008	210.26
403.217	138.58
403.426	79.19
403.635	-76.46
403.844	89.43
404.053	68.95
404.262	-41.64
404.471	253.27
404.68	52.56
404.888	66.9
405.097	5.46
405.306	-47.79
405.515	146.77
405.724	109.91
405.933	85.33
406.142	17.75
406.35	130.39
406.559	1.37
406.768	60.76
406.977	101.72
407.185	130.39
407.394	42.32
407.603	17.75
407.812	103.76
408.02	99.67
408.229	52.56
408.438	116.05
408.646	15.7
408.855	118.1
409.064	116.05
409.272	46.42
409.481	109.91
409.69	-51.88
409.898	-45.74
410.107	21.84
410.315	111.96
410.524	40.28
410.733	83.28
410.941	-72.36
411.15	130.39
411.358	132.44
411.567	202.07
411.775	56.66
411.984	9.56
412.192	130.39
412.401	107.86
412.609	95.57
412.818	97.62
413.026	91.48
413.234	126.29
413.443	46.42
413.651	34.13
413.86	116.05
414.068	152.91
414.276	181.59
414.485	9.56
414.693	171.35
414.901	140.63
415.11	56.66
415.318	99.67
415.526	101.72
415.734	163.15
415.943	68.95
416.151	138.58
416.359	68.95
416.567	75.09
416.776	175.44
416.984	107.86
417.192	134.48
417.4	27.99
417.608	11.61
417.817	-41.64
418.025	93.52
418.233	165.2
418.441	71
418.649	-15.02
418.857	165.2
419.065	111.96
419.273	1.37
419.481	46.42
419.689	64.85
419.897	120.15
420.105	-29.35
420.313	107.86
420.521	173.39
420.729	204.11
420.937	27.99
421.145	-45.74
421.353	89.43
421.561	146.77
421.769	120.15
421.977	58.71
422.185	38.23
422.393	25.94
422.601	101.72
422.809	52.56
423.017	77.14
423.224	111.96
423.432	208.21
423.64	62.8
423.848	142.68
424.056	36.18
424.263	118.1
424.471	17.75
424.679	93.52
424.887	3.41
425.094	226.64
425.302	136.53
425.51	68.95
425.718	109.91
425.925	32.08
426.133	36.18
426.341	257.36
426.548	40.28
426.756	71
426.964	167.25
427.171	62.8
427.379	87.38
427.586	83.28
427.794	191.83
428.001	152.91
428.209	50.52
428.417	128.34
428.624	183.63
428.832	126.29
429.039	91.48
429.247	132.44
429.454	116.05
429.662	183.63
429.869	93.52
430.076	161.11
430.284	134.48
430.491	138.58
430.699	130.39
430.906	228.69
431.114	175.44
431.321	140.63
431.528	120.15
431.736	173.39
431.943	181.59
432.15	224.59
432.358	173.39
432.565	224.59
432.772	87.38
432.979	232.79
433.187	152.91
433.394	148.82
433.601	118.1
433.808	232.79
434.016	181.59
434.223	240.98
434.43	150.87
434.637	288.08
434.844	304.46
435.052	216.4
435.259	206.16
435.466	222.55
435.673	185.68
435.88	208.21
436.087	353.62
436.294	363.86
436.501	312.66
436.708	224.59
436.915	359.76
437.122	355.66
437.329	271.7
437.537	333.14
437.743	372.05
437.95	478.54
438.157	357.71
438.364	390.48
438.571	456.01
438.778	435.53
438.985	396.62
439.192	521.55
439.399	447.82
439.606	488.78
439.813	499.02
440.02	556.36
440.227	656.72
440.433	556.36
440.64	525.65
440.847	564.56
441.054	603.47
441.261	730.44
441.467	582.99
441.674	630.09
441.881	763.21
442.088	560.46
442.294	709.96
442.501	716.11
442.708	785.74
442.914	740.68
443.121	859.46
443.328	832.84
443.534	830.79
443.741	855.37
443.948	793.93
444.154	972.1
444.361	1115.46
444.568	1027.4
444.774	976.2
444.981	970.05
445.187	1203.52
445.394	1097.03
445.6	1105.22
445.807	1254.72
446.013	1256.77
446.22	1170.76
446.426	1299.78
446.633	1416.51
446.839	1643.84
447.046	1457.47
447.252	1516.86
447.459	1563.97
447.665	1568.06
447.871	1721.66
448.078	1848.63
448.284	1885.5
448.491	1955.13
448.697	2028.85
448.903	1975.61
449.11	2065.72
449.316	2276.66
449.522	2137.4
449.728	2444.59
449.935	2354.48
450.141	2395.44
450.347	2710.83
450.553	2602.29
450.76	2811.18
450.966	2835.75
451.172	3048.74
451.378	3052.84
451.584	3024.17
451.791	3228.96
451.997	3274.02
452.203	3360.03
452.409	3499.3
452.615	3818.78
452.821	3656.99
453.027	3759.39
453.233	4234.52
453.44	4103.45
453.646	4226.32
453.852	4386.07
454.058	4613.39
454.264	4801.8
454.47	5096.71
454.676	5119.24
454.882	5455.11
455.088	5295.36
455.294	5627.14
455.5	6116.6
455.705	6241.53
455.911	6407.41
456.117	6563.06
456.323	6829.29
456.529	6722.8
456.735	7263.46
456.941	7568.61
457.147	7673.06
457.352	7898.33
457.558	8142.04
457.764	8842.45
457.97	8832.21
458.176	9133.26
458.381	9850.05
458.587	9972.93
458.793	10486.97
458.999	10503.35
459.204	11668.64
459.41	11994.27
459.616	12092.57
459.821	12510.36
460.027	13139.08
460.233	13708.42
460.438	13776
460.644	14574.71
460.85	14670.97
461.055	15066.22
461.261	15973.47
461.466	15678.57
461.672	16006.24
461.878	17857.6
462.083	17474.63
462.289	18089.03
462.494	18781.24
462.7	19035.19
462.905	19235.89
463.111	20636.7
463.316	21969.93
463.522	22195.2
463.727	22909.94
463.932	23600.11
464.138	24386.53
464.343	25365.46
464.549	25662.41
464.754	27468.72
464.959	28353.44
465.165	28621.73
465.37	28410.79
465.575	28447.65
465.781	29936.52
465.986	31122.3
466.191	30661.51
466.397	30950.27
466.602	30370.69
466.807	31568.76
467.012	32363.37
467.218	33235.8
467.423	33354.58
467.628	34237.26
467.833	35795.76
468.038	34853.7
468.244	34655.04
468.449	36459.31
468.654	35459.9
468.859	35750.71
469.064	35570.49
469.269	34726.72
