Data from USB4F104151__52__11-26-52-391.txt Node

Date: Wed Feb 26 11:26:52 EST 2025
User: louis
Spectrometer: USB4F10415
Trigger mode: 4
Integration Time (sec): 1.000000E-1
Scans to average: 1
Electric dark correction enabled: true
Nonlinearity correction enabled: false
Boxcar width: 0
XAxis mode: Wavelengths
Number of Pixels in Spectrum: 3648
>>>>>Begin Spectral Data<<<<<
178.204	-369.83
178.424	-369.83
178.644	-369.83
178.864	-418.98
179.084	-371.88
179.304	56.15
179.524	-9.39
179.744	19.29
179.964	-23.72
180.184	0.85
180.404	-21.67
180.624	-3.24
180.844	-42.15
181.064	-23.72
181.283	35.67
181.503	-15.53
181.723	27.48
181.943	-74.92
182.163	144.21
182.383	-44.2
182.602	31.57
182.822	162.64
183.042	21.33
183.262	-79.02
183.482	13.14
183.701	123.73
183.921	-3.24
184.141	-56.49
184.361	84.82
184.58	76.63
184.8	-1.19
185.02	-7.34
185.239	72.53
185.459	88.92
185.679	113.49
185.898	-62.63
186.118	-1.19
186.338	170.83
186.557	52.05
186.777	-72.87
186.997	107.35
187.216	39.76
187.436	176.98
187.655	80.72
187.875	107.35
188.095	90.96
188.314	68.44
188.534	113.49
188.753	-33.96
188.973	158.55
189.192	93.01
189.412	29.52
189.631	29.52
189.851	125.78
190.07	160.59
190.29	-29.87
190.509	25.43
190.729	17.24
190.948	109.4
191.168	191.31
191.387	97.11
191.607	-17.58
191.826	-1.19
192.045	62.29
192.265	-68.78
192.484	64.34
192.704	9.05
192.923	-56.49
193.142	176.98
193.362	207.7
193.581	144.21
193.8	95.06
194.02	101.2
194.239	121.68
194.458	107.35
194.678	54.1
194.897	-23.72
195.116	9.05
195.335	80.72
195.555	58.2
195.774	17.24
195.993	187.22
196.212	101.2
196.432	21.33
196.651	0.85
196.87	-13.48
197.089	271.19
197.308	76.63
197.528	54.1
197.747	-70.83
197.966	66.39
198.185	144.21
198.404	-40.11
198.623	164.69
198.842	140.12
199.062	103.25
199.281	115.54
199.5	82.77
199.719	144.21
199.938	66.39
200.157	74.58
200.376	58.2
200.595	74.58
200.814	84.82
201.033	-85.16
201.252	191.31
201.471	129.88
201.69	82.77
201.909	-21.67
202.128	140.12
202.347	2.9
202.566	29.52
202.785	-56.49
203.004	-44.2
203.223	197.46
203.442	35.67
203.661	-38.06
203.879	138.07
204.098	144.21
204.317	29.52
204.536	121.68
204.755	64.34
204.974	176.98
205.193	15.19
205.411	158.55
205.63	88.92
205.849	31.57
206.068	-5.29
206.287	15.19
206.505	158.55
206.724	-29.87
206.943	-74.92
207.162	21.33
207.381	62.29
207.599	-9.39
207.818	68.44
208.037	15.19
208.255	95.06
208.474	107.35
208.693	-9.39
208.911	-60.59
209.13	86.87
209.349	86.87
209.567	66.39
209.786	131.92
210.005	31.57
210.223	95.06
210.442	-144.55
210.661	37.72
210.879	-56.49
211.098	64.34
211.316	97.11
211.535	47.96
211.753	25.43
211.972	74.58
212.191	-62.63
212.409	58.2
212.628	162.64
212.846	-33.96
213.065	74.58
213.283	82.77
213.502	56.15
213.72	2.9
213.938	70.48
214.157	23.38
214.375	52.05
214.594	-27.82
214.812	90.96
215.031	74.58
215.249	101.2
215.467	64.34
215.686	-38.06
215.904	133.97
216.122	-44.2
216.341	191.31
216.559	23.38
216.778	60.24
216.996	193.36
217.214	60.24
217.432	-91.31
217.651	-107.69
217.869	29.52
218.087	64.34
218.306	-38.06
218.524	37.72
218.742	-5.29
218.96	76.63
219.179	-13.48
219.397	-23.72
219.615	226.13
219.833	76.63
220.051	-25.77
220.27	82.77
220.488	101.2
220.706	84.82
220.924	-3.24
221.142	-17.58
221.36	41.81
221.578	78.68
221.796	58.2
222.015	11.09
222.233	-5.29
222.451	144.21
222.669	-25.77
222.887	23.38
223.105	-31.91
223.323	13.14
223.541	-66.73
223.759	121.68
223.977	56.15
224.195	183.12
224.413	99.16
224.631	62.29
224.849	103.25
225.067	248.66
225.285	-68.78
225.503	82.77
225.721	-95.4
225.939	156.5
226.157	90.96
226.375	191.31
226.592	-25.77
226.81	95.06
227.028	60.24
227.246	72.53
227.464	60.24
227.682	97.11
227.9	103.25
228.117	15.19
228.335	27.48
228.553	84.82
228.771	0.85
228.989	-11.43
229.206	93.01
229.424	39.76
229.642	58.2
229.86	-23.72
230.077	142.16
230.295	80.72
230.513	133.97
230.731	56.15
230.948	224.08
231.166	142.16
231.384	43.86
231.601	41.81
231.819	195.41
232.037	-5.29
232.254	11.09
232.472	11.09
232.689	4.95
232.907	82.77
233.125	-46.25
233.342	25.43
233.56	39.76
233.777	4.95
233.995	31.57
234.213	140.12
234.43	70.48
234.648	-44.2
234.865	15.19
235.083	164.69
235.3	56.15
235.518	133.97
235.735	123.73
235.953	105.3
236.17	105.3
236.388	-3.24
236.605	58.2
236.822	86.87
237.04	117.59
237.257	2.9
237.475	-3.24
237.692	72.53
237.909	-1.19
238.127	45.91
238.344	133.97
238.562	-13.48
238.779	-50.35
238.996	-11.43
239.214	-13.48
239.431	64.34
239.648	25.43
239.865	78.68
240.083	93.01
240.3	-13.48
240.517	-17.58
240.735	-29.87
240.952	86.87
241.169	52.05
241.386	74.58
241.603	43.86
241.821	-38.06
242.038	70.48
242.255	119.64
242.472	-7.34
242.689	78.68
242.907	56.15
243.124	13.14
243.341	39.76
243.558	54.1
243.775	-9.39
243.992	-52.39
244.209	148.31
244.426	217.94
244.643	-9.39
244.86	-31.91
245.078	144.21
245.295	70.48
245.512	-33.96
245.729	27.48
245.946	129.88
246.163	-3.24
246.38	47.96
246.597	84.82
246.814	7
247.031	33.62
247.248	70.48
247.464	142.16
247.681	7
247.898	80.72
248.115	111.44
248.332	-17.58
248.549	76.63
248.766	185.17
248.983	86.87
249.2	4.95
249.417	156.5
249.633	-15.53
249.85	97.11
250.067	-56.49
250.284	35.67
250.501	111.44
250.717	68.44
250.934	88.92
251.151	-3.24
251.368	43.86
251.585	88.92
251.801	41.81
252.018	-33.96
252.235	93.01
252.451	23.38
252.668	54.1
252.885	138.07
253.102	76.63
253.318	-62.63
253.535	17.24
253.752	13.14
253.968	-25.77
254.185	-64.68
254.401	37.72
254.618	25.43
254.835	2.9
255.051	127.83
255.268	50
255.484	97.11
255.701	82.77
255.917	15.19
256.134	-50.35
256.351	17.24
256.567	-48.3
256.784	86.87
257	-74.92
257.217	168.79
257.433	45.91
257.65	37.72
257.866	93.01
258.082	-99.5
258.299	43.86
258.515	39.76
258.732	45.91
258.948	-31.91
259.165	113.49
259.381	-74.92
259.597	35.67
259.814	121.68
260.03	21.33
260.246	-29.87
260.463	146.26
260.679	131.92
260.895	74.58
261.112	-5.29
261.328	27.48
261.544	-19.63
261.761	117.59
261.977	-27.82
262.193	-29.87
262.409	90.96
262.626	-17.58
262.842	43.86
263.058	-23.72
263.274	142.16
263.49	172.88
263.707	52.05
263.923	68.44
264.139	-52.39
264.355	56.15
264.571	86.87
264.787	93.01
265.004	138.07
265.22	80.72
265.436	-44.2
265.652	-3.24
265.868	84.82
266.084	25.43
266.3	113.49
266.516	-36.01
266.732	84.82
266.948	58.2
267.164	54.1
267.38	74.58
267.596	19.29
267.812	129.88
268.028	31.57
268.244	41.81
268.46	43.86
268.676	35.67
268.892	60.24
269.108	50
269.324	43.86
269.54	21.33
269.756	78.68
269.972	-54.44
270.188	45.91
270.403	-17.58
270.619	45.91
270.835	127.83
271.051	13.14
271.267	-36.01
271.483	9.05
271.698	158.55
271.914	72.53
272.13	-11.43
272.346	17.24
272.562	82.77
272.777	125.78
272.993	45.91
273.209	-5.29
273.425	76.63
273.64	93.01
273.856	68.44
274.072	-56.49
274.287	-70.83
274.503	160.59
274.719	123.73
274.934	7
275.15	-42.15
275.366	43.86
275.581	-11.43
275.797	11.09
276.012	121.68
276.228	144.21
276.444	109.4
276.659	97.11
276.875	58.2
277.09	52.05
277.306	-1.19
277.521	82.77
277.737	50
277.952	78.68
278.168	4.95
278.383	54.1
278.599	54.1
278.814	90.96
279.03	64.34
279.245	140.12
279.461	17.24
279.676	95.06
279.892	-36.01
280.107	50
280.322	35.67
280.538	47.96
280.753	66.39
280.969	82.77
281.184	52.05
281.399	150.36
281.615	97.11
281.83	4.95
282.045	-3.24
282.26	84.82
282.476	52.05
282.691	99.16
282.906	13.14
283.122	76.63
283.337	-11.43
283.552	111.44
283.767	23.38
283.983	168.79
284.198	-29.87
284.413	95.06
284.628	-68.78
284.843	68.44
285.058	119.64
285.274	27.48
285.489	-31.91
285.704	142.16
285.919	-11.43
286.134	-3.24
286.349	37.72
286.564	9.05
286.779	185.17
286.995	2.9
287.21	-91.31
287.425	68.44
287.64	-36.01
287.855	76.63
288.07	-64.68
288.285	138.07
288.5	37.72
288.715	84.82
288.93	-5.29
289.145	-17.58
289.36	131.92
289.575	60.24
289.79	111.44
290.004	-27.82
290.219	123.73
290.434	72.53
290.649	-66.73
290.864	-17.58
291.079	-3.24
291.294	121.68
291.509	50
291.724	-5.29
291.938	-17.58
292.153	43.86
292.368	-25.77
292.583	78.68
292.798	37.72
293.012	72.53
293.227	56.15
293.442	-17.58
293.657	27.48
293.871	179.03
294.086	60.24
294.301	215.89
294.516	123.73
294.73	95.06
294.945	-60.59
295.16	29.52
295.374	146.26
295.589	97.11
295.804	-70.83
296.018	107.35
296.233	226.13
296.447	80.72
296.662	-1.19
296.877	152.4
297.091	113.49
297.306	47.96
297.52	-19.63
297.735	82.77
297.949	4.95
298.164	27.48
298.378	56.15
298.593	-54.44
298.807	-54.44
299.022	17.24
299.236	193.36
299.451	50
299.665	-31.91
299.88	84.82
300.094	88.92
300.309	35.67
300.523	25.43
300.737	39.76
300.952	64.34
301.166	80.72
301.381	31.57
301.595	33.62
301.809	70.48
302.024	-11.43
302.238	11.09
302.452	199.51
302.667	-5.29
302.881	129.88
303.095	76.63
303.309	78.68
303.524	-38.06
303.738	-19.63
303.952	43.86
304.166	37.72
304.381	13.14
304.595	144.21
304.809	-33.96
305.023	-1.19
305.237	-9.39
305.452	13.14
305.666	17.24
305.88	35.67
306.094	86.87
306.308	74.58
306.522	121.68
306.736	56.15
306.95	93.01
307.164	60.24
307.379	37.72
307.593	119.64
307.807	129.88
308.021	138.07
308.235	115.54
308.449	-54.44
308.663	33.62
308.877	222.03
309.091	56.15
309.305	78.68
309.519	-27.82
309.733	176.98
309.947	-36.01
310.161	80.72
310.374	148.31
310.588	29.52
310.802	-7.34
311.016	25.43
311.23	2.9
311.444	-44.2
311.658	-5.29
311.872	93.01
312.085	109.4
312.299	152.4
312.513	136.02
312.727	82.77
312.941	-13.48
313.154	101.2
313.368	56.15
313.582	9.05
313.796	90.96
314.009	19.29
314.223	127.83
314.437	15.19
314.651	72.53
314.864	2.9
315.078	58.2
315.292	-33.96
315.505	45.91
315.719	58.2
315.933	29.52
316.146	-36.01
316.36	25.43
316.573	-17.58
316.787	109.4
317.001	37.72
317.214	11.09
317.428	80.72
317.641	-15.53
317.855	58.2
318.068	27.48
318.282	7
318.495	90.96
318.709	74.58
318.922	64.34
319.136	170.83
319.349	179.03
319.563	-42.15
319.776	148.31
319.99	-103.59
320.203	123.73
320.417	31.57
320.63	156.5
320.843	275.28
321.057	88.92
321.27	54.1
321.483	37.72
321.697	119.64
321.91	58.2
322.124	90.96
322.337	-3.24
322.55	4.95
322.763	62.29
322.977	4.95
323.19	21.33
323.403	45.91
323.617	86.87
323.83	97.11
324.043	4.95
324.256	86.87
324.469	-66.73
324.683	125.78
324.896	-19.63
325.109	15.19
325.322	-17.58
325.535	86.87
325.748	101.2
325.962	58.2
326.175	45.91
326.388	105.3
326.601	179.03
326.814	95.06
327.027	11.09
327.24	185.17
327.453	-33.96
327.666	158.55
327.879	144.21
328.092	117.59
328.305	105.3
328.518	-23.72
328.731	0.85
328.944	39.76
329.157	43.86
329.37	9.05
329.583	222.03
329.796	168.79
330.009	-25.77
330.222	88.92
330.435	109.4
330.648	88.92
330.861	47.96
331.073	39.76
331.286	105.3
331.499	70.48
331.712	0.85
331.925	9.05
332.138	74.58
332.35	64.34
332.563	-66.73
332.776	146.26
332.989	86.87
333.202	2.9
333.414	74.58
333.627	31.57
333.84	70.48
334.053	45.91
334.265	27.48
334.478	4.95
334.691	17.24
334.903	58.2
335.116	133.97
335.329	29.52
335.541	68.44
335.754	191.31
335.966	-13.48
336.179	0.85
336.392	45.91
336.604	64.34
336.817	209.75
337.029	35.67
337.242	66.39
337.454	117.59
337.667	50
337.88	156.5
338.092	133.97
338.305	25.43
338.517	-42.15
338.729	111.44
338.942	219.99
339.154	-44.2
339.367	-19.63
339.579	119.64
339.792	-27.82
340.004	138.07
340.217	43.86
340.429	68.44
340.641	-54.44
340.854	9.05
341.066	54.1
341.278	64.34
341.491	207.7
341.703	60.24
341.915	-13.48
342.128	136.02
342.34	37.72
342.552	0.85
342.764	-11.43
342.977	23.38
343.189	168.79
343.401	103.25
343.613	-25.77
343.826	-38.06
344.038	35.67
344.25	31.57
344.462	78.68
344.674	43.86
344.886	72.53
345.099	109.4
345.311	84.82
345.523	-3.24
345.735	7
345.947	74.58
346.159	2.9
346.371	113.49
346.583	-1.19
346.795	170.83
347.007	64.34
347.219	-29.87
347.431	21.33
347.643	129.88
347.855	-33.96
348.067	119.64
348.279	-3.24
348.491	58.2
348.703	97.11
348.915	-27.82
349.127	-76.97
349.339	80.72
349.551	-1.19
349.763	25.43
349.975	17.24
350.187	64.34
350.399	140.12
350.61	-23.72
350.822	52.05
351.034	115.54
351.246	80.72
351.458	52.05
351.669	80.72
351.881	-42.15
352.093	127.83
352.305	121.68
352.517	27.48
352.728	152.4
352.94	107.35
353.152	179.03
353.363	52.05
353.575	66.39
353.787	105.3
353.999	68.44
354.21	152.4
354.422	45.91
354.633	-36.01
354.845	60.24
355.057	17.24
355.268	64.34
355.48	119.64
355.692	-87.21
355.903	84.82
356.115	-19.63
356.326	-62.63
356.538	95.06
356.749	86.87
356.961	97.11
357.172	-1.19
357.384	-21.67
357.595	226.13
357.807	7
358.018	-40.11
358.23	123.73
358.441	166.74
358.653	107.35
358.864	35.67
359.075	0.85
359.287	115.54
359.498	62.29
359.709	99.16
359.921	99.16
360.132	115.54
360.344	56.15
360.555	15.19
360.766	50
360.977	-13.48
361.189	103.25
361.4	21.33
361.611	119.64
361.823	158.55
362.034	11.09
362.245	-87.21
362.456	-15.53
362.667	76.63
362.879	-62.63
363.09	62.29
363.301	97.11
363.512	11.09
363.723	21.33
363.935	19.29
364.146	121.68
364.357	35.67
364.568	58.2
364.779	-36.01
364.99	123.73
365.201	-33.96
365.412	111.44
365.623	-111.78
365.834	66.39
366.045	-21.67
366.256	82.77
366.467	15.19
366.678	45.91
366.889	39.76
367.1	31.57
367.311	90.96
367.522	-50.35
367.733	90.96
367.944	80.72
368.155	62.29
368.366	129.88
368.577	15.19
368.788	86.87
368.999	58.2
369.209	99.16
369.42	205.65
369.631	172.88
369.842	64.34
370.053	111.44
370.264	150.36
370.474	52.05
370.685	84.82
370.896	70.48
371.107	103.25
371.317	88.92
371.528	-44.2
371.739	144.21
371.95	82.77
372.16	101.2
372.371	-64.68
372.582	21.33
372.792	64.34
373.003	60.24
373.214	52.05
373.424	174.93
373.635	13.14
373.846	129.88
374.056	-1.19
374.267	95.06
374.477	45.91
374.688	-85.16
374.898	-1.19
375.109	80.72
375.319	127.83
375.53	66.39
375.74	76.63
375.951	-19.63
376.161	66.39
376.372	62.29
376.582	101.2
376.793	58.2
377.003	-31.91
377.214	-27.82
377.424	-3.24
377.635	58.2
377.845	31.57
378.055	140.12
378.266	-103.59
378.476	68.44
378.686	123.73
378.897	-5.29
379.107	113.49
379.317	82.77
379.528	52.05
379.738	140.12
379.948	-85.16
380.158	33.62
380.369	-13.48
380.579	76.63
380.789	86.87
380.999	78.68
381.21	103.25
381.42	168.79
381.63	4.95
381.84	78.68
382.05	90.96
382.261	154.45
382.471	166.74
382.681	-5.29
382.891	240.47
383.101	45.91
383.311	-58.54
383.521	35.67
383.731	113.49
383.941	121.68
384.151	-36.01
384.361	-11.43
384.571	17.24
384.781	113.49
384.991	197.46
385.201	105.3
385.411	27.48
385.621	41.81
385.831	52.05
386.041	72.53
386.251	7
386.461	136.02
386.671	29.52
386.881	95.06
387.091	-7.34
387.301	113.49
387.511	4.95
387.72	72.53
387.93	125.78
388.14	-29.87
388.35	74.58
388.56	129.88
388.769	93.01
388.979	17.24
389.189	29.52
389.399	13.14
389.609	103.25
389.818	129.88
390.028	-25.77
390.238	95.06
390.447	72.53
390.657	113.49
390.867	7
391.076	-50.35
391.286	150.36
391.496	-9.39
391.705	0.85
391.915	158.55
392.125	176.98
392.334	-48.3
392.544	109.4
392.753	-27.82
392.963	0.85
393.172	95.06
393.382	43.86
393.591	203.6
393.801	-27.82
394.01	217.94
394.22	183.12
394.429	-23.72
394.639	25.43
394.848	29.52
395.058	76.63
395.267	-5.29
395.477	33.62
395.686	68.44
395.895	170.83
396.105	187.22
396.314	140.12
396.524	19.29
396.733	109.4
396.942	125.78
397.152	121.68
397.361	146.26
397.57	80.72
397.78	70.48
397.989	99.16
398.198	195.41
398.407	148.31
398.617	93.01
398.826	-1.19
399.035	-27.82
399.244	66.39
399.453	64.34
399.663	74.58
399.872	101.2
400.081	-107.69
400.29	152.4
400.499	37.72
400.708	109.4
400.917	21.33
401.127	-17.58
401.336	144.21
401.545	127.83
401.754	154.45
401.963	105.3
402.172	17.24
402.381	-85.16
402.59	33.62
402.799	105.3
403.008	47.96
403.217	33.62
403.426	21.33
403.635	-83.11
403.844	31.57
404.053	64.34
404.262	90.96
404.471	168.79
404.68	13.14
404.888	-50.35
405.097	17.24
405.306	66.39
405.515	47.96
405.724	-13.48
405.933	115.54
406.142	13.14
406.35	146.26
406.559	43.86
406.768	123.73
406.977	224.08
407.185	78.68
407.394	129.88
407.603	-36.01
407.812	47.96
408.02	117.59
408.229	47.96
408.438	78.68
408.646	9.05
408.855	2.9
409.064	25.43
409.272	45.91
409.481	103.25
409.69	35.67
409.898	4.95
410.107	47.96
410.315	111.44
410.524	17.24
410.733	19.29
410.941	68.44
411.15	29.52
411.358	82.77
411.567	115.54
411.775	52.05
411.984	37.72
412.192	37.72
412.401	29.52
412.609	213.84
412.818	117.59
413.026	62.29
413.234	-21.67
413.443	19.29
413.651	41.81
413.86	58.2
414.068	154.45
414.276	166.74
414.485	-66.73
414.693	168.79
414.901	199.51
415.11	-1.19
415.318	103.25
415.526	54.1
415.734	111.44
415.943	97.11
416.151	150.36
416.359	56.15
416.567	93.01
416.776	144.21
416.984	45.91
417.192	121.68
417.4	-91.31
417.608	-11.43
417.817	-33.96
418.025	179.03
418.233	146.26
418.441	-5.29
418.649	-19.63
418.857	84.82
419.065	107.35
419.273	88.92
419.481	86.87
419.689	58.2
419.897	-19.63
420.105	-25.77
420.313	168.79
420.521	105.3
420.729	162.64
420.937	2.9
421.145	-60.59
421.353	158.55
421.561	162.64
421.769	50
421.977	9.05
422.185	107.35
422.393	35.67
422.601	133.97
422.809	62.29
423.017	54.1
423.224	70.48
423.432	60.24
423.64	39.76
423.848	117.59
424.056	31.57
424.263	174.93
424.471	62.29
424.679	125.78
424.887	52.05
425.094	185.17
425.302	66.39
425.51	74.58
425.718	129.88
425.925	101.2
426.133	9.05
426.341	201.55
426.548	107.35
426.756	13.14
426.964	72.53
427.171	76.63
427.379	107.35
427.586	121.68
427.794	117.59
428.001	76.63
428.209	82.77
428.417	121.68
428.624	156.5
428.832	93.01
429.039	99.16
429.247	52.05
429.454	86.87
429.662	168.79
429.869	99.16
430.076	156.5
430.284	189.27
430.491	226.13
430.699	129.88
430.906	181.07
431.114	185.17
431.321	80.72
431.528	76.63
431.736	103.25
431.943	176.98
432.15	117.59
432.358	166.74
432.565	215.89
432.772	-44.2
432.979	209.75
433.187	115.54
433.394	205.65
433.601	31.57
433.808	156.5
434.016	230.23
434.223	193.36
434.43	88.92
434.637	162.64
434.844	183.12
435.052	222.03
435.259	226.13
435.466	199.51
435.673	215.89
435.88	242.51
436.087	219.99
436.294	320.34
436.501	183.12
436.708	238.42
436.915	187.22
437.122	303.95
437.329	127.83
437.537	230.23
437.743	293.71
437.95	363.34
438.157	306
438.364	338.77
438.571	275.28
438.778	310.1
438.985	324.43
439.192	428.88
439.399	238.42
439.606	330.58
439.813	367.44
440.02	430.93
440.227	406.35
440.433	459.6
440.64	295.76
440.847	367.44
441.054	432.97
441.261	521.04
441.467	408.4
441.674	379.73
441.881	439.12
442.088	375.63
442.294	512.85
442.501	549.71
442.708	529.23
442.914	545.61
443.121	555.85
443.328	541.52
443.534	605
443.741	586.57
443.948	533.33
444.154	586.57
444.361	877.38
444.568	705.35
444.774	680.78
444.981	627.53
445.187	826.18
445.394	764.75
445.6	738.12
445.807	955.21
446.013	791.37
446.22	824.14
446.426	934.73
446.633	1026.89
446.839	1170.24
447.046	881.48
447.252	1106.76
447.459	1090.37
447.665	1192.77
447.871	1274.69
448.078	1315.65
448.284	1305.41
448.491	1307.46
448.697	1444.67
448.903	1397.57
449.11	1418.05
449.316	1393.47
449.522	1631.04
449.728	1608.51
449.935	1733.43
450.141	1710.91
450.347	1944.38
450.553	1780.54
450.76	1790.78
450.966	1913.66
451.172	1997.62
451.378	2114.36
451.584	2190.13
451.791	2362.16
451.997	2454.32
452.203	2302.77
452.409	2540.33
452.615	2532.14
452.821	2466.61
453.027	2431.79
453.233	2937.64
453.44	2618.16
453.646	2982.7
453.852	3015.46
454.058	3169.06
454.264	3263.27
454.47	3330.85
454.676	3416.87
454.882	3820.32
455.088	3572.51
455.294	3851.03
455.5	4086.55
455.705	4381.46
455.911	4170.52
456.117	4363.03
456.323	4524.82
456.529	4631.31
456.735	5081.86
456.941	5143.3
457.147	5219.08
457.352	5454.59
457.558	5452.55
457.764	5985.02
457.97	6034.17
458.176	6392.56
458.381	6476.53
458.587	6867.69
458.793	6957.8
458.999	7058.15
459.204	8039.13
459.41	8182.49
459.616	7989.98
459.821	8704.72
460.027	8760.02
460.233	9263.82
460.438	9378.5
460.644	10015.42
460.85	9841.34
461.055	10547.89
461.261	11152.04
461.466	10586.8
461.672	11088.56
461.878	12229.27
462.083	12216.99
462.289	12278.43
462.494	12720.79
462.7	12864.15
462.905	13070.99
463.111	14187.13
463.316	14865.01
463.522	15043.18
463.727	15530.6
463.932	16233.05
464.138	16626.26
464.343	17568.33
464.549	17893.96
464.754	18987.57
464.959	19149.36
465.165	19499.56
465.37	19452.46
465.575	19421.74
465.781	20826.65
465.986	21178.9
466.191	20787.74
466.397	20986.39
466.602	20865.56
466.807	22411.78
467.012	22397.44
467.218	22854.14
467.423	23032.31
467.628	23757.29
467.833	24801.75
468.038	24166.88
468.244	24119.78
468.449	25000.41
468.654	24633.82
468.859	24779.23
