Data from USB4F104151__21__09-25-44-419.txt Node

Date: Wed Feb 26 09:25:44 EST 2025
User: louis
Spectrometer: USB4F10415
Trigger mode: 4
Integration Time (sec): 1.000000E-1
Scans to average: 1
Electric dark correction enabled: true
Nonlinearity correction enabled: false
Boxcar width: 0
XAxis mode: Wavelengths
Number of Pixels in Spectrum: 3648
>>>>>Begin Spectral Data<<<<<
178.204	-340.99
178.424	-340.99
178.644	-340.99
178.864	-326.65
179.084	-291.84
179.304	17.41
179.524	-37.89
179.744	-21.5
179.964	35.84
180.184	11.26
180.404	48.13
180.624	31.74
180.844	-46.08
181.064	-21.5
181.283	15.36
181.503	-82.94
181.723	50.18
181.943	-35.84
182.163	87.04
182.383	-82.94
182.602	54.27
182.822	74.75
183.042	105.47
183.262	-11.26
183.482	3.07
183.701	15.36
183.921	-5.12
184.141	-11.26
184.361	91.13
184.58	56.32
184.8	103.42
185.02	9.22
185.239	105.47
185.459	78.85
185.679	80.89
185.898	-70.65
186.118	31.74
186.338	15.36
186.557	62.46
186.777	23.55
186.997	1.02
187.216	-46.08
187.436	27.65
187.655	62.46
187.875	-9.22
188.095	76.8
188.314	123.9
188.534	117.76
188.753	-7.17
188.973	99.33
189.192	166.91
189.412	-13.31
189.631	72.7
189.851	80.89
190.07	78.85
190.29	-17.41
190.509	3.07
190.729	-9.22
190.948	87.04
191.168	269.31
191.387	152.57
191.607	-35.84
191.826	72.7
192.045	54.27
192.265	-52.22
192.484	29.7
192.704	70.65
192.923	-99.33
193.142	199.68
193.362	168.96
193.581	121.85
193.8	56.32
194.02	105.47
194.239	76.8
194.458	-3.07
194.678	-21.5
194.897	17.41
195.116	64.51
195.335	128
195.555	142.33
195.774	35.84
195.993	66.56
196.212	48.13
196.432	-74.75
196.651	-9.22
196.87	-13.31
197.089	232.44
197.308	72.7
197.528	113.66
197.747	-31.74
197.966	95.23
198.185	216.06
198.404	13.31
198.623	121.85
198.842	72.7
199.062	37.89
199.281	128
199.5	50.18
199.719	58.37
199.938	76.8
200.157	78.85
200.376	101.37
200.595	87.04
200.814	62.46
201.033	-9.22
201.252	103.42
201.471	91.13
201.69	136.19
201.909	44.03
202.128	80.89
202.347	64.51
202.566	21.5
202.785	-35.84
203.004	-31.74
203.223	232.44
203.442	113.66
203.661	-44.03
203.879	41.98
204.098	158.72
204.317	15.36
204.536	115.71
204.755	58.37
204.974	99.33
205.193	-29.7
205.411	226.3
205.63	123.9
205.849	7.17
206.068	-29.7
206.287	-134.14
206.505	68.61
206.724	93.18
206.943	44.03
207.162	-29.7
207.381	48.13
207.599	19.46
207.818	-5.12
208.037	-60.42
208.255	9.22
208.474	123.9
208.693	37.89
208.911	13.31
209.13	39.94
209.349	72.7
209.567	37.89
209.786	187.39
210.005	72.7
210.223	19.46
210.442	-70.65
210.661	148.48
210.879	101.37
211.098	50.18
211.316	13.31
211.535	109.57
211.753	80.89
211.972	23.55
212.191	21.5
212.409	46.08
212.628	154.62
212.846	23.55
213.065	134.14
213.283	160.77
213.502	109.57
213.72	3.07
213.938	9.22
214.157	-23.55
214.375	70.65
214.594	-9.22
214.812	37.89
215.031	-35.84
215.249	68.61
215.467	23.55
215.686	74.75
215.904	74.75
216.122	76.8
216.341	68.61
216.559	29.7
216.778	29.7
216.996	177.15
217.214	72.7
217.432	-13.31
217.651	-91.13
217.869	17.41
218.087	66.56
218.306	48.13
218.524	48.13
218.742	82.94
218.96	60.42
219.179	3.07
219.397	11.26
219.615	222.2
219.833	109.57
220.051	-35.84
220.27	119.81
220.488	70.65
220.706	27.65
220.924	13.31
221.142	-35.84
221.36	13.31
221.578	93.18
221.796	-7.17
222.015	33.79
222.233	52.22
222.451	130.05
222.669	29.7
222.887	19.46
223.105	19.46
223.323	-11.26
223.541	13.31
223.759	23.55
223.977	15.36
224.195	136.19
224.413	72.7
224.631	35.84
224.849	-33.79
225.067	234.49
225.285	60.42
225.503	-21.5
225.721	-82.94
225.939	-3.07
226.157	125.95
226.375	261.12
226.592	-35.84
226.81	31.74
227.028	117.76
227.246	76.8
227.464	27.65
227.682	66.56
227.9	56.32
228.117	-7.17
228.335	15.36
228.553	13.31
228.771	64.51
228.989	125.95
229.206	48.13
229.424	-97.28
229.642	35.84
229.86	-11.26
230.077	84.99
230.295	39.94
230.513	107.52
230.731	46.08
230.948	166.91
231.166	138.24
231.384	78.85
231.601	-21.5
231.819	136.19
232.037	-35.84
232.254	-91.13
232.472	5.12
232.689	-91.13
232.907	87.04
233.125	9.22
233.342	-15.36
233.56	41.98
233.777	101.37
233.995	-3.07
234.213	33.79
234.43	87.04
234.648	-50.18
234.865	44.03
235.083	44.03
235.3	23.55
235.518	89.09
235.735	136.19
235.953	117.76
236.17	56.32
236.388	33.79
236.605	87.04
236.822	138.24
237.04	121.85
237.257	111.61
237.475	25.6
237.692	50.18
237.909	62.46
238.127	-3.07
238.344	27.65
238.562	25.6
238.779	-25.6
238.996	-103.42
239.214	80.89
239.431	66.56
239.648	29.7
239.865	105.47
240.083	39.94
240.3	-19.46
240.517	-7.17
240.735	37.89
240.952	78.85
241.169	31.74
241.386	11.26
241.603	33.79
241.821	-72.7
242.038	1.02
242.255	95.23
242.472	15.36
242.689	68.61
242.907	15.36
243.124	27.65
243.341	-39.94
243.558	48.13
243.775	68.61
243.992	-48.13
244.209	78.85
244.426	216.06
244.643	72.7
244.86	46.08
245.078	66.56
245.295	76.8
245.512	68.61
245.729	11.26
245.946	78.85
246.163	35.84
246.38	39.94
246.597	29.7
246.814	93.18
247.031	52.22
247.248	27.65
247.464	56.32
247.681	64.51
247.898	72.7
248.115	111.61
248.332	1.02
248.549	125.95
248.766	128
248.983	44.03
249.2	41.98
249.417	107.52
249.633	7.17
249.85	56.32
250.067	66.56
250.284	62.46
250.501	48.13
250.717	25.6
250.934	39.94
251.151	-1.02
251.368	-1.02
251.585	113.66
251.801	15.36
252.018	-11.26
252.235	84.99
252.451	-66.56
252.668	-50.18
252.885	115.71
253.102	41.98
253.318	56.32
253.535	46.08
253.752	7.17
253.968	48.13
254.185	37.89
254.401	27.65
254.618	113.66
254.835	27.65
255.051	175.1
255.268	56.32
255.484	68.61
255.701	48.13
255.917	87.04
256.134	7.17
256.351	11.26
256.567	11.26
256.784	-9.22
257	-5.12
257.217	107.52
257.433	60.42
257.65	54.27
257.866	27.65
258.082	-11.26
258.299	-54.27
258.515	-5.12
258.732	-25.6
258.948	-76.8
259.165	35.84
259.381	-46.08
259.597	117.76
259.814	-35.84
260.03	62.46
260.246	-39.94
260.463	66.56
260.679	89.09
260.895	13.31
261.112	54.27
261.328	46.08
261.544	-7.17
261.761	140.29
261.977	37.89
262.193	-66.56
262.409	15.36
262.626	82.94
262.842	3.07
263.058	3.07
263.274	101.37
263.49	107.52
263.707	111.61
263.923	7.17
264.139	-82.94
264.355	44.03
264.571	93.18
264.787	17.41
265.004	89.09
265.22	1.02
265.436	23.55
265.652	37.89
265.868	72.7
266.084	-44.03
266.3	25.6
266.516	-3.07
266.732	44.03
266.948	62.46
267.164	15.36
267.38	128
267.596	11.26
267.812	158.72
268.028	44.03
268.244	62.46
268.46	-3.07
268.676	117.76
268.892	54.27
269.108	-46.08
269.324	21.5
269.54	3.07
269.756	56.32
269.972	-140.29
270.188	23.55
270.403	-17.41
270.619	87.04
270.835	64.51
271.051	-5.12
271.267	11.26
271.483	-72.7
271.698	107.52
271.914	82.94
272.13	-19.46
272.346	13.31
272.562	5.12
272.777	138.24
272.993	-5.12
273.209	-5.12
273.425	130.05
273.64	-46.08
273.856	62.46
274.072	-54.27
274.287	-48.13
274.503	-50.18
274.719	80.89
274.934	-15.36
275.15	-91.13
275.366	46.08
275.581	-74.75
275.797	25.6
276.012	76.8
276.228	-80.89
276.444	-7.17
276.659	158.72
276.875	-41.98
277.09	1.02
277.306	23.55
277.521	52.22
277.737	-5.12
277.952	144.38
278.168	31.74
278.383	105.47
278.599	21.5
278.814	62.46
279.03	11.26
279.245	166.91
279.461	-17.41
279.676	95.23
279.892	-70.65
280.107	-56.32
280.322	3.07
280.538	41.98
280.753	-1.02
280.969	76.8
281.184	52.22
281.399	132.09
281.615	130.05
281.83	113.66
282.045	-17.41
282.26	29.7
282.476	64.51
282.691	76.8
282.906	113.66
283.122	50.18
283.337	-1.02
283.552	117.76
283.767	-19.46
283.983	54.27
284.198	-35.84
284.413	-1.02
284.628	29.7
284.843	37.89
285.058	31.74
285.274	66.56
285.489	39.94
285.704	93.18
285.919	37.89
286.134	31.74
286.349	39.94
286.564	80.89
286.779	109.57
286.995	37.89
287.21	-17.41
287.425	50.18
287.64	39.94
287.855	60.42
288.07	-70.65
288.285	101.37
288.5	105.47
288.715	142.33
288.93	39.94
289.145	19.46
289.36	111.61
289.575	11.26
289.79	144.38
290.004	-25.6
290.219	99.33
290.434	-58.37
290.649	-31.74
290.864	-3.07
291.079	-7.17
291.294	52.22
291.509	23.55
291.724	-19.46
291.938	-3.07
292.153	48.13
292.368	-11.26
292.583	125.95
292.798	76.8
293.012	13.31
293.227	19.46
293.442	-5.12
293.657	140.29
293.871	103.42
294.086	13.31
294.301	150.53
294.516	130.05
294.73	-25.6
294.945	-9.22
295.16	31.74
295.374	101.37
295.589	130.05
295.804	39.94
296.018	39.94
296.233	218.11
296.447	44.03
296.662	-3.07
296.877	113.66
297.091	103.42
297.306	-25.6
297.52	39.94
297.735	64.51
297.949	93.18
298.164	52.22
298.378	31.74
298.593	-119.81
298.807	-44.03
299.022	29.7
299.236	138.24
299.451	52.22
299.665	48.13
299.88	56.32
300.094	23.55
300.309	-48.13
300.523	80.89
300.737	72.7
300.952	46.08
301.166	-1.02
301.381	-70.65
301.595	-37.89
301.809	21.5
302.024	-44.03
302.238	-29.7
302.452	56.32
302.667	44.03
302.881	115.71
303.095	48.13
303.309	13.31
303.524	-11.26
303.738	-17.41
303.952	-19.46
304.166	-27.65
304.381	-52.22
304.595	209.92
304.809	-25.6
305.023	21.5
305.237	-1.02
305.452	46.08
305.666	76.8
305.88	138.24
306.094	89.09
306.308	121.85
306.522	29.7
306.736	78.85
306.95	50.18
307.164	15.36
307.379	9.22
307.593	105.47
307.807	89.09
308.021	-3.07
308.235	15.36
308.449	-123.9
308.663	9.22
308.877	220.16
309.091	31.74
309.305	19.46
309.519	-68.61
309.733	89.09
309.947	-37.89
310.161	115.71
310.374	74.75
310.588	97.28
310.802	44.03
311.016	31.74
311.23	31.74
311.444	23.55
311.658	48.13
311.872	54.27
312.085	128
312.299	80.89
312.513	105.47
312.727	54.27
312.941	-7.17
313.154	62.46
313.368	15.36
313.582	17.41
313.796	66.56
314.009	-9.22
314.223	113.66
314.437	84.99
314.651	121.85
314.864	21.5
315.078	23.55
315.292	-41.98
315.505	11.26
315.719	19.46
315.933	46.08
316.146	13.31
316.36	-21.5
316.573	58.37
316.787	101.37
317.001	5.12
317.214	-35.84
317.428	37.89
317.641	31.74
317.855	-5.12
318.068	54.27
318.282	21.5
318.495	187.39
318.709	39.94
318.922	52.22
319.136	70.65
319.349	29.7
319.563	-76.8
319.776	-27.65
319.99	-27.65
320.203	31.74
320.417	-39.94
320.63	15.36
320.843	195.58
321.057	37.89
321.27	-25.6
321.483	103.42
321.697	125.95
321.91	111.61
322.124	95.23
322.337	56.32
322.55	80.89
322.763	7.17
322.977	29.7
323.19	97.28
323.403	-46.08
323.617	62.46
323.83	115.71
324.043	35.84
324.256	44.03
324.469	-46.08
324.683	109.57
324.896	3.07
325.109	50.18
325.322	5.12
325.535	76.8
325.748	160.77
325.962	13.31
326.175	105.47
326.388	13.31
326.601	62.46
326.814	41.98
327.027	89.09
327.24	146.43
327.453	-91.13
327.666	3.07
327.879	209.92
328.092	37.89
328.305	39.94
328.518	46.08
328.731	-25.6
328.944	54.27
329.157	48.13
329.37	3.07
329.583	171.01
329.796	72.7
330.009	-33.79
330.222	37.89
330.435	111.61
330.648	31.74
330.861	52.22
331.073	113.66
331.286	76.8
331.499	-58.37
331.712	-41.98
331.925	31.74
332.138	7.17
332.35	97.28
332.563	7.17
332.776	48.13
332.989	-29.7
333.202	1.02
333.414	-41.98
333.627	41.98
333.84	60.42
334.053	80.89
334.265	1.02
334.478	29.7
334.691	33.79
334.903	-21.5
335.116	17.41
335.329	31.74
335.541	60.42
335.754	109.57
335.966	-23.55
336.179	9.22
336.392	-9.22
336.604	31.74
336.817	101.37
337.029	78.85
337.242	29.7
337.454	27.65
337.667	3.07
337.88	72.7
338.092	74.75
338.305	50.18
338.517	1.02
338.729	58.37
338.942	138.24
339.154	-56.32
339.367	15.36
339.579	48.13
339.792	7.17
340.004	140.29
340.217	-15.36
340.429	-1.02
340.641	-13.31
340.854	-82.94
341.066	19.46
341.278	121.85
341.491	134.14
341.703	119.81
341.915	-46.08
342.128	89.09
342.34	-9.22
342.552	3.07
342.764	27.65
342.977	7.17
343.189	101.37
343.401	5.12
343.613	-25.6
343.826	23.55
344.038	15.36
344.25	97.28
344.462	35.84
344.674	31.74
344.886	13.31
345.099	46.08
345.311	33.79
345.523	80.89
345.735	-62.46
345.947	46.08
346.159	31.74
346.371	15.36
346.583	-17.41
346.795	134.14
347.007	48.13
347.219	105.47
347.431	-41.98
347.643	93.18
347.855	-35.84
348.067	158.72
348.279	-107.52
348.491	1.02
348.703	70.65
348.915	125.95
349.127	-25.6
349.339	7.17
349.551	13.31
349.763	27.65
349.975	41.98
350.187	123.9
350.399	60.42
350.61	27.65
350.822	-41.98
351.034	66.56
351.246	-7.17
351.458	-1.02
351.669	29.7
351.881	80.89
352.093	101.37
352.305	109.57
352.517	103.42
352.728	166.91
352.94	130.05
353.152	66.56
353.363	9.22
353.575	39.94
353.787	119.81
353.999	54.27
354.21	93.18
354.422	-50.18
354.633	-15.36
354.845	-19.46
355.057	62.46
355.268	60.42
355.48	105.47
355.692	-56.32
355.903	80.89
356.115	35.84
356.326	-48.13
356.538	121.85
356.749	99.33
356.961	197.63
357.172	76.8
357.384	-64.51
357.595	146.43
357.807	54.27
358.018	17.41
358.23	21.5
358.441	158.72
358.653	146.43
358.864	-1.02
359.075	-41.98
359.287	52.22
359.498	101.37
359.709	91.13
359.921	-1.02
360.132	-31.74
360.344	9.22
360.555	-64.51
360.766	15.36
360.977	5.12
361.189	89.09
361.4	-11.26
361.611	130.05
361.823	115.71
362.034	80.89
362.245	-60.42
362.456	99.33
362.667	54.27
362.879	27.65
363.09	111.61
363.301	33.79
363.512	-1.02
363.723	-56.32
363.935	35.84
364.146	138.24
364.357	-9.22
364.568	80.89
364.779	-33.79
364.99	21.5
365.201	15.36
365.412	101.37
365.623	-87.04
365.834	39.94
366.045	33.79
366.256	123.9
366.467	121.85
366.678	62.46
366.889	7.17
367.1	7.17
367.311	31.74
367.522	-46.08
367.733	13.31
367.944	48.13
368.155	27.65
368.366	48.13
368.577	103.42
368.788	109.57
368.999	-50.18
369.209	23.55
369.42	130.05
369.631	166.91
369.842	95.23
370.053	37.89
370.264	101.37
370.474	31.74
370.685	80.89
370.896	-33.79
371.107	89.09
371.317	60.42
371.528	21.5
371.739	68.61
371.95	44.03
372.16	80.89
372.371	-46.08
372.582	35.84
372.792	41.98
373.003	72.7
373.214	31.74
373.424	130.05
373.635	25.6
373.846	158.72
374.056	78.85
374.267	80.89
374.477	72.7
374.688	39.94
374.898	89.09
375.109	74.75
375.319	3.07
375.53	154.62
375.74	60.42
375.951	-70.65
376.161	66.56
376.372	123.9
376.582	19.46
376.793	87.04
377.003	23.55
377.214	-11.26
377.424	54.27
377.635	82.94
377.845	19.46
378.055	125.95
378.266	-15.36
378.476	19.46
378.686	78.85
378.897	41.98
379.107	113.66
379.317	64.51
379.528	-9.22
379.738	33.79
379.948	-9.22
380.158	44.03
380.369	37.89
380.579	113.66
380.789	80.89
380.999	123.9
381.21	93.18
381.42	109.57
381.63	31.74
381.84	72.7
382.05	7.17
382.261	87.04
382.471	76.8
382.681	-17.41
382.891	97.28
383.101	113.66
383.311	-41.98
383.521	-1.02
383.731	119.81
383.941	37.89
384.151	82.94
384.361	13.31
384.571	68.61
384.781	54.27
384.991	160.77
385.201	105.47
385.411	117.76
385.621	39.94
385.831	29.7
386.041	-13.31
386.251	66.56
386.461	134.14
386.671	-52.22
386.881	9.22
387.091	35.84
387.301	64.51
387.511	-1.02
387.72	152.57
387.93	93.18
388.14	-66.56
388.35	7.17
388.56	64.51
388.769	150.53
388.979	5.12
389.189	60.42
389.399	78.85
389.609	115.71
389.818	101.37
390.028	13.31
390.238	99.33
390.447	-25.6
390.657	58.37
390.867	-3.07
391.076	-97.28
391.286	13.31
391.496	62.46
391.705	19.46
391.915	58.37
392.125	97.28
392.334	5.12
392.544	130.05
392.753	9.22
392.963	-78.85
393.172	76.8
393.382	-25.6
393.591	134.14
393.801	-50.18
394.01	119.81
394.22	111.61
394.429	68.61
394.639	-56.32
394.848	39.94
395.058	-5.12
395.267	23.55
395.477	105.47
395.686	78.85
395.895	89.09
396.105	132.09
396.314	56.32
396.524	3.07
396.733	41.98
396.942	105.47
397.152	-3.07
397.361	64.51
397.57	70.65
397.78	52.22
397.989	119.81
398.198	203.77
398.407	5.12
398.617	23.55
398.826	-21.5
399.035	3.07
399.244	46.08
399.453	-5.12
399.663	46.08
399.872	56.32
400.081	-66.56
400.29	123.9
400.499	46.08
400.708	111.61
400.917	91.13
401.127	-41.98
401.336	5.12
401.545	195.58
401.754	123.9
401.963	29.7
402.172	48.13
402.381	7.17
402.59	23.55
402.799	46.08
403.008	56.32
403.217	11.26
403.426	17.41
403.635	-41.98
403.844	89.09
404.053	5.12
404.262	37.89
404.471	70.65
404.68	52.22
404.888	7.17
405.097	11.26
405.306	130.05
405.515	101.37
405.724	-31.74
405.933	101.37
406.142	125.95
406.35	130.05
406.559	-58.37
406.768	39.94
406.977	97.28
407.185	39.94
407.394	115.71
407.603	31.74
407.812	23.55
408.02	171.01
408.229	35.84
408.438	37.89
408.646	-35.84
408.855	97.28
409.064	105.47
409.272	31.74
409.481	89.09
409.69	-27.65
409.898	-27.65
410.107	97.28
410.315	134.14
410.524	-13.31
410.733	109.57
410.941	27.65
411.15	91.13
411.358	95.23
411.567	179.2
411.775	-19.46
411.984	-13.31
412.192	80.89
412.401	66.56
412.609	54.27
412.818	142.33
413.026	70.65
413.234	29.7
413.443	78.85
413.651	11.26
413.86	5.12
414.068	52.22
414.276	183.29
414.485	-5.12
414.693	128
414.901	111.61
415.11	19.46
415.318	3.07
415.526	56.32
415.734	58.37
415.943	7.17
416.151	179.2
416.359	-1.02
416.567	27.65
416.776	15.36
416.984	11.26
417.192	117.76
417.4	9.22
417.608	1.02
417.817	17.41
418.025	54.27
418.233	113.66
418.441	-70.65
418.649	37.89
418.857	41.98
419.065	97.28
419.273	15.36
419.481	125.95
419.689	91.13
419.897	72.7
420.105	29.7
420.313	113.66
420.521	113.66
420.729	113.66
420.937	84.99
421.145	-27.65
421.353	103.42
421.561	132.09
421.769	82.94
421.977	39.94
422.185	152.57
422.393	23.55
422.601	56.32
422.809	93.18
423.017	46.08
423.224	70.65
423.432	148.48
423.64	-5.12
423.848	150.53
424.056	13.31
424.263	171.01
424.471	27.65
424.679	179.2
424.887	-41.98
425.094	183.29
425.302	64.51
425.51	37.89
425.718	142.33
425.925	144.38
426.133	19.46
426.341	179.2
426.548	-7.17
426.756	130.05
426.964	130.05
427.171	-37.89
427.379	93.18
427.586	140.29
427.794	84.99
428.001	125.95
428.209	121.85
428.417	252.92
428.624	150.53
428.832	72.7
429.039	91.13
429.247	128
429.454	128
429.662	183.29
429.869	146.43
430.076	48.13
430.284	220.16
430.491	246.78
430.699	125.95
430.906	166.91
431.114	144.38
431.321	78.85
431.528	142.33
431.736	171.01
431.943	130.05
432.15	140.29
432.358	236.54
432.565	263.16
432.772	50.18
432.979	171.01
433.187	158.72
433.394	222.2
433.601	117.76
433.808	289.79
434.016	207.87
434.223	236.54
434.43	199.68
434.637	248.83
434.844	263.16
435.052	279.55
435.259	211.96
435.466	285.69
435.673	351.23
435.88	277.5
436.087	357.37
436.294	302.08
436.501	365.56
436.708	275.45
436.915	226.3
437.122	334.84
437.329	295.93
437.537	302.08
437.743	431.1
437.95	351.23
438.157	445.43
438.364	330.75
438.571	340.99
438.778	414.71
438.985	404.47
439.192	537.59
439.399	490.49
439.606	537.59
439.813	498.68
440.02	660.47
440.227	609.27
440.433	519.16
440.64	541.69
440.847	592.89
441.054	623.61
441.261	766.96
441.467	572.41
441.674	635.89
441.881	613.37
442.088	699.38
442.294	750.58
442.501	838.64
442.708	828.4
442.914	777.2
443.121	955.38
443.328	928.75
443.534	1061.87
443.741	928.75
443.948	809.97
444.154	1014.77
444.361	1266.67
444.568	1084.4
444.774	1063.92
444.981	1037.3
445.187	1180.65
445.394	1188.85
445.6	1168.37
445.807	1334.25
446.013	1342.44
446.22	1311.72
446.426	1446.89
446.633	1496.04
446.839	1713.13
447.046	1520.62
447.252	1731.56
447.459	1618.92
447.665	1805.28
447.871	1778.66
448.078	1938.4
448.284	2022.37
448.491	2042.85
448.697	2048.99
448.903	2243.55
449.11	2280.41
449.316	2171.87
449.522	2466.78
449.728	2511.83
449.935	2622.42
450.141	2552.79
450.347	2735.06
450.553	2769.88
450.76	2866.13
450.966	3027.92
451.172	3128.27
451.378	3251.15
451.584	3290.06
451.791	3589.07
451.997	3595.21
452.203	3847.11
452.409	3840.97
452.615	4074.43
452.821	3961.8
453.027	4109.25
453.233	4527.03
453.44	4381.63
453.646	4631.48
453.852	4774.84
454.058	4991.92
454.264	5180.34
454.47	5561.26
454.676	5569.45
454.882	6138.79
455.088	5880.74
455.294	6237.09
455.5	6552.48
455.705	6826.9
455.911	6966.17
456.117	7023.51
456.323	7285.65
456.529	7230.35
456.735	8063.88
456.941	8278.91
457.147	8416.13
457.352	8594.3
457.558	8817.53
457.764	9507.69
457.97	9671.53
458.176	9870.19
458.381	10607.45
458.587	10797.92
458.793	11189.08
458.999	11244.37
459.204	12573.5
459.41	13335.35
459.616	12911.42
459.821	13765.42
460.027	14293.8
460.233	15031.07
460.438	14965.53
460.644	16053
460.85	16022.28
461.055	16618.24
461.261	17332.98
461.466	17183.48
461.672	17378.04
461.878	19684.05
462.083	19309.27
462.289	19819.22
462.494	20548.29
462.7	20798.15
462.905	20693.7
463.111	22446.76
463.316	23552.66
463.522	24062.61
463.727	24783.49
463.932	26163.82
464.138	26792.55
464.343	27437.66
464.549	27953.75
464.754	29850.17
464.959	30851.63
465.165	31177.25
465.37	30876.2
465.575	31345.19
465.781	32936.46
465.986	34228.73
466.191	33706.49
466.397	33942.01
466.602	33098.25
466.807	35193.32
467.012	35527.14
467.218	36354.52
467.423	36114.9
467.628	37032.39
467.833	38992.3
468.038	38382.01
468.244	37773.76
468.449	39586.21
468.654	38857.14
468.859	39141.8
469.064	39068.08
469.269	38183.35
469.474	38099.39
