Data from USB4F104151__63__09-29-11-597.txt Node

Date: Wed Feb 26 09:29:11 EST 2025
User: louis
Spectrometer: USB4F10415
Trigger mode: 4
Integration Time (sec): 1.000000E-1
Scans to average: 1
Electric dark correction enabled: true
Nonlinearity correction enabled: false
Boxcar width: 0
XAxis mode: Wavelengths
Number of Pixels in Spectrum: 3648
>>>>>Begin Spectral Data<<<<<
178.204	-352.42
178.424	-352.42
178.644	-352.42
178.864	-370.85
179.084	-327.85
179.304	18.26
179.524	14.17
179.744	51.03
179.964	65.36
180.184	1.88
180.404	-22.7
180.624	-4.27
180.844	-39.08
181.064	-104.62
181.283	96.08
181.503	-73.9
181.723	-2.22
181.943	-24.75
182.163	198.48
182.383	10.07
182.602	135
182.822	77.65
183.042	100.18
183.262	57.17
183.482	124.76
183.701	104.28
183.921	73.56
184.141	-10.41
184.361	110.42
184.58	57.17
184.8	153.43
185.02	44.88
185.239	104.28
185.459	81.75
185.679	118.61
185.898	-49.32
186.118	73.56
186.338	59.22
186.557	63.32
186.777	24.4
186.997	28.5
187.216	104.28
187.436	169.81
187.655	61.27
187.875	75.6
188.095	34.64
188.314	137.04
188.534	106.32
188.753	75.6
188.973	85.84
189.192	130.9
189.412	87.89
189.631	12.12
189.851	69.46
190.07	128.85
190.29	-39.08
190.509	28.5
190.729	10.07
190.948	118.61
191.168	272.21
191.387	87.89
191.607	57.17
191.826	38.74
192.045	28.5
192.265	32.6
192.484	51.03
192.704	36.69
192.923	-20.65
193.142	210.77
193.362	59.22
193.581	137.04
193.8	36.69
194.02	110.42
194.239	22.36
194.458	77.65
194.678	-22.7
194.897	73.56
195.116	87.89
195.335	83.8
195.555	30.55
195.774	96.08
195.993	100.18
196.212	32.6
196.432	112.47
196.651	51.03
196.87	18.26
197.089	194.39
197.308	98.13
197.528	112.47
197.747	-14.51
197.966	143.19
198.185	161.62
198.404	-43.18
198.623	192.34
198.842	128.85
199.062	126.8
199.281	126.8
199.5	73.56
199.719	75.6
199.938	63.32
200.157	106.32
200.376	81.75
200.595	180.05
200.814	34.64
201.033	26.45
201.252	149.33
201.471	75.6
201.69	178
201.909	67.41
202.128	153.43
202.347	98.13
202.566	89.94
202.785	-18.6
203.004	42.84
203.223	266.07
203.442	53.08
203.661	8.02
203.879	26.45
204.098	147.28
204.317	38.74
204.536	26.45
204.755	87.89
204.974	130.9
205.193	114.52
205.411	190.29
205.63	94.04
205.849	1.88
206.068	18.26
206.287	1.88
206.505	120.66
206.724	59.22
206.943	18.26
207.162	53.08
207.381	81.75
207.599	175.95
207.818	124.76
208.037	-4.27
208.255	16.21
208.474	114.52
208.693	26.45
208.911	24.4
209.13	100.18
209.349	83.8
209.567	110.42
209.786	91.99
210.005	85.84
210.223	51.03
210.442	-37.03
210.661	59.22
210.879	104.28
211.098	30.55
211.316	100.18
211.535	34.64
211.753	59.22
211.972	85.84
212.191	28.5
212.409	77.65
212.628	116.56
212.846	32.6
213.065	89.94
213.283	124.76
213.502	87.89
213.72	51.03
213.938	1.88
214.157	34.64
214.375	83.8
214.594	42.84
214.812	108.37
215.031	85.84
215.249	38.74
215.467	77.65
215.686	106.32
215.904	137.04
216.122	108.37
216.341	126.8
216.559	108.37
216.778	141.14
216.996	118.61
217.214	40.79
217.432	28.5
217.651	-57.51
217.869	65.36
218.087	18.26
218.306	108.37
218.524	16.21
218.742	139.09
218.96	137.04
219.179	59.22
219.397	81.75
219.615	186.19
219.833	73.56
220.051	24.4
220.27	67.41
220.488	145.24
220.706	53.08
220.924	91.99
221.142	32.6
221.36	38.74
221.578	112.47
221.796	67.41
222.015	42.84
222.233	94.04
222.451	130.9
222.669	18.26
222.887	53.08
223.105	42.84
223.323	22.36
223.541	24.4
223.759	63.32
223.977	89.94
224.195	139.09
224.413	87.89
224.631	165.71
224.849	91.99
225.067	204.63
225.285	-34.99
225.503	22.36
225.721	-32.94
225.939	106.32
226.157	67.41
226.375	208.72
226.592	8.02
226.81	20.31
227.028	147.28
227.246	135
227.464	16.21
227.682	81.75
227.9	59.22
228.117	61.27
228.335	71.51
228.553	40.79
228.771	65.36
228.989	98.13
229.206	38.74
229.424	55.12
229.642	-8.36
229.86	65.36
230.077	153.43
230.295	-6.31
230.513	124.76
230.731	3.93
230.948	173.91
231.166	130.9
231.384	36.69
231.601	67.41
231.819	102.23
232.037	18.26
232.254	-14.51
232.472	94.04
232.689	96.08
232.907	173.91
233.125	61.27
233.342	24.4
233.56	12.12
233.777	-43.18
233.995	26.45
234.213	75.6
234.43	104.28
234.648	135
234.865	46.93
235.083	73.56
235.3	63.32
235.518	116.56
235.735	157.52
235.953	91.99
236.17	116.56
236.388	22.36
236.605	-0.17
236.822	139.09
237.04	100.18
237.257	112.47
237.475	-57.51
237.692	87.89
237.909	55.12
238.127	-6.31
238.344	114.52
238.562	85.84
238.779	42.84
238.996	-118.95
239.214	8.02
239.431	147.28
239.648	34.64
239.865	14.17
240.083	106.32
240.3	28.5
240.517	34.64
240.735	81.75
240.952	153.43
241.169	96.08
241.386	28.5
241.603	10.07
241.821	-0.17
242.038	94.04
242.255	96.08
242.472	-61.61
242.689	63.32
242.907	124.76
243.124	81.75
243.341	-34.99
243.558	-10.41
243.775	-18.6
243.992	-14.51
244.209	98.13
244.426	261.97
244.643	91.99
244.86	38.74
245.078	98.13
245.295	120.66
245.512	63.32
245.729	8.02
245.946	116.56
246.163	18.26
246.38	-10.41
246.597	114.52
246.814	26.45
247.031	110.42
247.248	42.84
247.464	55.12
247.681	55.12
247.898	98.13
248.115	100.18
248.332	-18.6
248.549	192.34
248.766	223.06
248.983	69.46
249.2	24.4
249.417	135
249.633	-22.7
249.85	149.33
250.067	34.64
250.284	8.02
250.501	155.47
250.717	137.04
250.934	18.26
251.151	-49.32
251.368	14.17
251.585	20.31
251.801	98.13
252.018	-92.33
252.235	169.81
252.451	-12.46
252.668	22.36
252.885	83.8
253.102	128.85
253.318	71.51
253.535	-10.41
253.752	67.41
253.968	-0.17
254.185	-10.41
254.401	1.88
254.618	79.7
254.835	16.21
255.051	65.36
255.268	116.56
255.484	110.42
255.701	120.66
255.917	18.26
256.134	-63.66
256.351	30.55
256.567	-53.42
256.784	12.12
257	18.26
257.217	130.9
257.433	22.36
257.65	59.22
257.866	149.33
258.082	-2.22
258.299	-41.13
258.515	104.28
258.732	44.88
258.948	73.56
259.165	34.64
259.381	46.93
259.597	96.08
259.814	65.36
260.03	22.36
260.246	51.03
260.463	165.71
260.679	132.95
260.895	22.36
261.112	98.13
261.328	75.6
261.544	-28.84
261.761	239.44
261.977	22.36
262.193	-24.75
262.409	145.24
262.626	130.9
262.842	32.6
263.058	59.22
263.274	91.99
263.49	124.76
263.707	73.56
263.923	71.51
264.139	3.93
264.355	46.93
264.571	112.47
264.787	81.75
265.004	165.71
265.22	42.84
265.436	1.88
265.652	51.03
265.868	67.41
266.084	-4.27
266.3	5.97
266.516	-16.55
266.732	32.6
266.948	38.74
267.164	22.36
267.38	196.43
267.596	130.9
267.812	169.81
268.028	14.17
268.244	14.17
268.46	63.32
268.676	106.32
268.892	8.02
269.108	-18.6
269.324	-16.55
269.54	28.5
269.756	65.36
269.972	-14.51
270.188	36.69
270.403	-106.67
270.619	28.5
270.835	57.17
271.051	94.04
271.267	14.17
271.483	-28.84
271.698	155.47
271.914	114.52
272.13	51.03
272.346	14.17
272.562	108.37
272.777	157.52
272.993	85.84
273.209	-14.51
273.425	32.6
273.64	10.07
273.856	157.52
274.072	69.46
274.287	-4.27
274.503	67.41
274.719	122.71
274.934	-73.9
275.15	-26.79
275.366	38.74
275.581	-14.51
275.797	55.12
276.012	57.17
276.228	38.74
276.444	51.03
276.659	194.39
276.875	46.93
277.09	126.8
277.306	5.97
277.521	22.36
277.737	38.74
277.952	124.76
278.168	71.51
278.383	112.47
278.599	87.89
278.814	98.13
279.03	44.88
279.245	112.47
279.461	55.12
279.676	98.13
279.892	12.12
280.107	-10.41
280.322	96.08
280.538	106.32
280.753	-24.75
280.969	153.43
281.184	-10.41
281.399	161.62
281.615	42.84
281.83	89.94
282.045	-90.28
282.26	10.07
282.476	81.75
282.691	114.52
282.906	102.23
283.122	-6.31
283.337	100.18
283.552	44.88
283.767	-14.51
283.983	175.95
284.198	40.79
284.413	94.04
284.628	-28.84
284.843	98.13
285.058	89.94
285.274	30.55
285.489	10.07
285.704	100.18
285.919	83.8
286.134	42.84
286.349	67.41
286.564	26.45
286.779	178
286.995	26.45
287.21	22.36
287.425	44.88
287.64	28.5
287.855	63.32
288.07	-18.6
288.285	79.7
288.5	204.63
288.715	126.8
288.93	34.64
289.145	18.26
289.36	-6.31
289.575	8.02
289.79	124.76
290.004	30.55
290.219	94.04
290.434	-75.95
290.649	10.07
290.864	-51.37
291.079	42.84
291.294	71.51
291.509	26.45
291.724	22.36
291.938	53.08
292.153	69.46
292.368	-12.46
292.583	38.74
292.798	98.13
293.012	94.04
293.227	18.26
293.442	69.46
293.657	110.42
293.871	169.81
294.086	104.28
294.301	141.14
294.516	157.52
294.73	34.64
294.945	-47.27
295.16	40.79
295.374	100.18
295.589	94.04
295.804	-67.75
296.018	1.88
296.233	96.08
296.447	98.13
296.662	10.07
296.877	137.04
297.091	112.47
297.306	16.21
297.52	-0.17
297.735	128.85
297.949	71.51
298.164	77.65
298.378	75.6
298.593	12.12
298.807	-4.27
299.022	32.6
299.236	153.43
299.451	87.89
299.665	18.26
299.88	8.02
300.094	73.56
300.309	79.7
300.523	55.12
300.737	30.55
300.952	51.03
301.166	18.26
301.381	-100.52
301.595	59.22
301.809	34.64
302.024	40.79
302.238	14.17
302.452	173.91
302.667	26.45
302.881	114.52
303.095	132.95
303.309	26.45
303.524	5.97
303.738	65.36
303.952	-82.09
304.166	110.42
304.381	-30.89
304.595	139.09
304.809	5.97
305.023	96.08
305.237	-43.18
305.452	40.79
305.666	81.75
305.88	114.52
306.094	139.09
306.308	100.18
306.522	98.13
306.736	137.04
306.95	186.19
307.164	36.69
307.379	83.8
307.593	165.71
307.807	71.51
308.021	42.84
308.235	48.98
308.449	20.31
308.663	85.84
308.877	169.81
309.091	135
309.305	106.32
309.519	-80.04
309.733	59.22
309.947	-55.47
310.161	87.89
310.374	69.46
310.588	149.33
310.802	8.02
311.016	71.51
311.23	69.46
311.444	1.88
311.658	30.55
311.872	159.57
312.085	75.6
312.299	120.66
312.513	200.53
312.727	116.56
312.941	5.97
313.154	42.84
313.368	46.93
313.582	42.84
313.796	51.03
314.009	98.13
314.223	46.93
314.437	73.56
314.651	192.34
314.864	87.89
315.078	71.51
315.292	5.97
315.505	48.98
315.719	120.66
315.933	91.99
316.146	20.31
316.36	30.55
316.573	108.37
316.787	69.46
317.001	145.24
317.214	46.93
317.428	139.09
317.641	10.07
317.855	104.28
318.068	34.64
318.282	32.6
318.495	161.62
318.709	175.95
318.922	89.94
319.136	137.04
319.349	169.81
319.563	18.26
319.776	104.28
319.99	-39.08
320.203	89.94
320.417	83.8
320.63	190.29
320.843	108.37
321.057	81.75
321.27	53.08
321.483	8.02
321.697	110.42
321.91	24.4
322.124	89.94
322.337	61.27
322.55	34.64
322.763	32.6
322.977	22.36
323.19	34.64
323.403	-10.41
323.617	48.98
323.83	12.12
324.043	22.36
324.256	67.41
324.469	51.03
324.683	102.23
324.896	-73.9
325.109	46.93
325.322	-10.41
325.535	102.23
325.748	77.65
325.962	30.55
326.175	98.13
326.388	104.28
326.601	145.24
326.814	36.69
327.027	65.36
327.24	108.37
327.453	-51.37
327.666	75.6
327.879	96.08
328.092	61.27
328.305	73.56
328.518	26.45
328.731	65.36
328.944	51.03
329.157	36.69
329.37	48.98
329.583	229.2
329.796	161.62
330.009	-55.47
330.222	89.94
330.435	57.17
330.648	-2.22
330.861	106.32
331.073	83.8
331.286	108.37
331.499	14.17
331.712	-88.23
331.925	96.08
332.138	10.07
332.35	85.84
332.563	18.26
332.776	124.76
332.989	-10.41
333.202	18.26
333.414	55.12
333.627	8.02
333.84	79.7
334.053	48.98
334.265	108.37
334.478	34.64
334.691	34.64
334.903	-4.27
335.116	22.36
335.329	22.36
335.541	124.76
335.754	145.24
335.966	-16.55
336.179	48.98
336.392	67.41
336.604	22.36
336.817	83.8
337.029	94.04
337.242	102.23
337.454	55.12
337.667	63.32
337.88	161.62
338.092	77.65
338.305	71.51
338.517	28.5
338.729	38.74
338.942	206.67
339.154	26.45
339.367	22.36
339.579	91.99
339.792	8.02
340.004	108.37
340.217	55.12
340.429	-10.41
340.641	-71.85
340.854	-12.46
341.066	114.52
341.278	126.8
341.491	231.25
341.703	22.36
341.915	-4.27
342.128	126.8
342.34	36.69
342.552	1.88
342.764	51.03
342.977	79.7
343.189	120.66
343.401	71.51
343.613	-82.09
343.826	42.84
344.038	-8.36
344.25	63.32
344.462	-2.22
344.674	46.93
344.886	44.88
345.099	79.7
345.311	108.37
345.523	-41.13
345.735	-32.94
345.947	81.75
346.159	120.66
346.371	53.08
346.583	59.22
346.795	272.21
347.007	75.6
347.219	69.46
347.431	112.47
347.643	124.76
347.855	51.03
348.067	120.66
348.279	5.97
348.491	96.08
348.703	-2.22
348.915	30.55
349.127	-22.7
349.339	135
349.551	-43.18
349.763	67.41
349.975	79.7
350.187	63.32
350.399	126.8
350.61	116.56
350.822	24.4
351.034	67.41
351.246	67.41
351.458	59.22
351.669	75.6
351.881	116.56
352.093	83.8
352.305	96.08
352.517	100.18
352.728	28.5
352.94	98.13
353.152	102.23
353.363	-47.27
353.575	83.8
353.787	77.65
353.999	110.42
354.21	122.71
354.422	-14.51
354.633	-45.23
354.845	87.89
355.057	69.46
355.268	139.09
355.48	59.22
355.692	18.26
355.903	65.36
356.115	42.84
356.326	-32.94
356.538	120.66
356.749	106.32
356.961	167.76
357.172	46.93
357.384	32.6
357.595	145.24
357.807	22.36
358.018	-20.65
358.23	67.41
358.441	147.28
358.653	67.41
358.864	114.52
359.075	-51.37
359.287	96.08
359.498	130.9
359.709	75.6
359.921	-39.08
360.132	71.51
360.344	38.74
360.555	22.36
360.766	36.69
360.977	20.31
361.189	114.52
361.4	69.46
361.611	75.6
361.823	145.24
362.034	67.41
362.245	34.64
362.456	-2.22
362.667	124.76
362.879	34.64
363.09	75.6
363.301	120.66
363.512	63.32
363.723	83.8
363.935	-49.32
364.146	1.88
364.357	30.55
364.568	42.84
364.779	-47.27
364.99	63.32
365.201	40.79
365.412	141.14
365.623	22.36
365.834	81.75
366.045	159.57
366.256	139.09
366.467	65.36
366.678	65.36
366.889	91.99
367.1	-61.61
367.311	135
367.522	22.36
367.733	120.66
367.944	110.42
368.155	-14.51
368.366	198.48
368.577	180.05
368.788	155.47
368.999	40.79
369.209	65.36
369.42	270.16
369.631	302.93
369.842	67.41
370.053	16.21
370.264	128.85
370.474	-22.7
370.685	87.89
370.896	20.31
371.107	147.28
371.317	75.6
371.528	-2.22
371.739	141.14
371.95	85.84
372.16	139.09
372.371	-20.65
372.582	-8.36
372.792	55.12
373.003	104.28
373.214	116.56
373.424	132.95
373.635	22.36
373.846	137.04
374.056	128.85
374.267	77.65
374.477	-10.41
374.688	-18.6
374.898	102.23
375.109	130.9
375.319	96.08
375.53	130.9
375.74	157.52
375.951	75.6
376.161	59.22
376.372	122.71
376.582	40.79
376.793	87.89
377.003	-61.61
377.214	65.36
377.424	44.88
377.635	63.32
377.845	26.45
378.055	108.37
378.266	-63.66
378.476	26.45
378.686	57.17
378.897	83.8
379.107	91.99
379.317	173.91
379.528	51.03
379.738	153.43
379.948	28.5
380.158	98.13
380.369	38.74
380.579	141.14
380.789	108.37
380.999	75.6
381.21	87.89
381.42	257.87
381.63	75.6
381.84	102.23
382.05	108.37
382.261	106.32
382.471	161.62
382.681	-32.94
382.891	175.95
383.101	87.89
383.311	-39.08
383.521	67.41
383.731	153.43
383.941	51.03
384.151	57.17
384.361	44.88
384.571	38.74
384.781	102.23
384.991	196.43
385.201	139.09
385.411	130.9
385.621	108.37
385.831	98.13
386.041	1.88
386.251	26.45
386.461	83.8
386.671	36.69
386.881	79.7
387.091	48.98
387.301	141.14
387.511	79.7
387.72	180.05
387.93	94.04
388.14	-20.65
388.35	79.7
388.56	81.75
388.769	89.94
388.979	46.93
389.189	98.13
389.399	38.74
389.609	145.24
389.818	153.43
390.028	124.76
390.238	149.33
390.447	-30.89
390.657	18.26
390.867	26.45
391.076	-55.47
391.286	102.23
391.496	34.64
391.705	63.32
391.915	153.43
392.125	145.24
392.334	1.88
392.544	147.28
392.753	106.32
392.963	-0.17
393.172	24.4
393.382	36.69
393.591	208.72
393.801	-0.17
394.01	173.91
394.22	24.4
394.429	61.27
394.639	91.99
394.848	65.36
395.058	-12.46
395.267	46.93
395.477	94.04
395.686	57.17
395.895	159.57
396.105	186.19
396.314	87.89
396.524	-43.18
396.733	30.55
396.942	110.42
397.152	89.94
397.361	108.37
397.57	83.8
397.78	-51.37
397.989	98.13
398.198	192.34
398.407	18.26
398.617	89.94
398.826	83.8
399.035	124.76
399.244	91.99
399.453	-6.31
399.663	18.26
399.872	18.26
400.081	-20.65
400.29	69.46
400.499	46.93
400.708	116.56
400.917	22.36
401.127	34.64
401.336	30.55
401.545	216.91
401.754	91.99
401.963	81.75
402.172	14.17
402.381	48.98
402.59	-2.22
402.799	98.13
403.008	120.66
403.217	83.8
403.426	51.03
403.635	8.02
403.844	44.88
404.053	42.84
404.262	59.22
404.471	190.29
404.68	44.88
404.888	81.75
405.097	55.12
405.306	63.32
405.515	51.03
405.724	44.88
405.933	153.43
406.142	18.26
406.35	180.05
406.559	-12.46
406.768	32.6
406.977	153.43
407.185	91.99
407.394	57.17
407.603	22.36
407.812	75.6
408.02	81.75
408.229	34.64
408.438	104.28
408.646	22.36
408.855	-14.51
409.064	120.66
409.272	48.98
409.481	46.93
409.69	98.13
409.898	55.12
410.107	51.03
410.315	141.14
410.524	26.45
410.733	38.74
410.941	96.08
411.15	65.36
411.358	132.95
411.567	130.9
411.775	61.27
411.984	32.6
412.192	73.56
412.401	89.94
412.609	231.25
412.818	145.24
413.026	67.41
413.234	124.76
413.443	-32.94
413.651	-22.7
413.86	83.8
414.068	102.23
414.276	130.9
414.485	59.22
414.693	165.71
414.901	153.43
415.11	34.64
415.318	137.04
415.526	98.13
415.734	137.04
415.943	100.18
416.151	145.24
416.359	110.42
416.567	112.47
416.776	153.43
416.984	106.32
417.192	212.82
417.4	96.08
417.608	46.93
417.817	87.89
418.025	120.66
418.233	198.48
418.441	38.74
418.649	48.98
418.857	114.52
419.065	169.81
419.273	5.97
419.481	51.03
419.689	59.22
419.897	34.64
420.105	-26.79
420.313	91.99
420.521	194.39
420.729	198.48
420.937	44.88
421.145	-26.79
421.353	104.28
421.561	182.1
421.769	106.32
421.977	67.41
422.185	73.56
422.393	83.8
422.601	104.28
422.809	157.52
423.017	-18.6
423.224	151.38
423.432	114.52
423.64	83.8
423.848	147.28
424.056	40.79
424.263	118.61
424.471	55.12
424.679	161.62
424.887	38.74
425.094	65.36
425.302	114.52
425.51	83.8
425.718	94.04
425.925	100.18
426.133	59.22
426.341	200.53
426.548	124.76
426.756	79.7
426.964	106.32
427.171	32.6
427.379	75.6
427.586	100.18
427.794	79.7
428.001	120.66
428.209	161.62
428.417	237.39
428.624	196.43
428.832	100.18
429.039	83.8
429.247	51.03
429.454	126.8
429.662	182.1
429.869	141.14
430.076	122.71
430.284	167.76
430.491	196.43
430.699	135
430.906	247.63
431.114	130.9
431.321	135
431.528	132.95
431.736	161.62
431.943	188.24
432.15	229.2
432.358	139.09
432.565	298.83
432.772	28.5
432.979	182.1
433.187	214.87
433.394	137.04
433.601	192.34
433.808	274.26
434.016	268.11
434.223	231.25
434.43	178
434.637	247.63
434.844	218.96
435.052	247.63
435.259	233.3
435.466	319.31
435.673	241.49
435.88	319.31
436.087	358.22
436.294	337.74
436.501	296.78
436.708	210.77
436.915	292.69
437.122	337.74
437.329	210.77
437.537	300.88
437.743	304.98
437.95	350.03
438.157	331.6
438.364	399.18
438.571	401.23
438.778	368.46
438.985	370.51
439.192	438.09
439.399	337.74
439.606	472.91
439.813	456.53
440.02	509.77
440.227	601.93
440.433	501.58
440.64	513.87
440.847	507.73
441.054	544.59
441.261	657.23
441.467	606.03
441.674	534.35
441.881	726.86
442.088	530.25
442.294	675.66
442.501	737.1
442.708	726.86
442.914	618.32
443.121	876.36
443.328	821.06
443.534	894.79
443.741	833.35
443.948	706.38
444.154	878.41
444.361	1085.25
444.568	960.33
444.774	935.75
444.981	937.8
445.187	1107.78
445.394	1103.68
445.6	1040.2
445.807	1165.12
446.013	1126.21
446.22	1204.03
446.426	1292.1
446.633	1369.92
446.839	1531.71
447.046	1244.99
447.252	1503.04
447.459	1398.59
447.665	1437.5
447.871	1625.92
448.078	1707.84
448.284	1670.97
448.491	1865.53
448.697	1926.97
448.903	2047.8
449.11	1892.15
449.316	1951.54
449.522	2129.72
449.728	2189.11
449.935	2242.36
450.141	2389.81
450.347	2547.5
450.553	2361.14
450.76	2504.5
450.966	2721.58
451.172	2766.64
451.378	2842.41
451.584	2815.79
451.791	3118.89
451.997	3311.39
452.203	3274.53
452.409	3303.2
452.615	3637.02
452.821	3505.95
453.027	3495.71
453.233	4015.9
453.44	3798.81
453.646	4065.05
453.852	4177.69
454.058	4392.72
454.264	4345.62
454.47	4611.85
454.676	4886.28
454.882	5203.72
455.088	4912.91
455.294	5158.66
455.5	5486.34
455.705	5902.08
455.911	5932.79
456.117	5992.19
456.323	6321.91
456.529	6285.05
456.735	6846.19
456.941	7040.75
457.147	7405.28
457.352	7470.82
457.558	7669.47
457.764	8249.05
457.97	8318.68
458.176	8589.01
458.381	9014.99
458.587	9178.83
458.793	9731.78
458.999	9787.07
459.204	10927.79
459.41	11112.11
459.616	11089.58
459.821	11796.13
460.027	12412.57
460.233	12924.56
460.438	12904.08
460.644	13559.43
460.85	13706.88
461.055	14182.01
461.261	14804.6
461.466	14601.85
461.672	15064.69
461.878	16735.83
462.083	16526.94
462.289	16891.48
462.494	17729.09
462.7	17645.13
462.905	18124.35
463.111	19416.62
463.316	20071.97
463.522	20741.66
463.727	21265.94
463.932	22144.52
464.138	22742.52
464.343	23608.81
464.549	24030.69
464.754	25785.8
464.959	26375.62
465.165	26674.62
465.37	26572.22
465.575	26738.11
465.781	28456.36
465.986	29050.27
466.191	28911
466.397	28884.38
466.602	28339.62
466.807	30180.74
467.012	30709.12
467.218	30807.42
467.423	31481.2
467.628	32197.99
467.833	33862.99
468.038	33019.23
468.244	32339.3
468.449	34592.07
468.654	33348.95
468.859	33506.65
469.064	33801.55
469.269	32673.12
