Data from USB4F104151__24__10-23-57-943.txt Node

Date: Wed Feb 26 10:23:57 EST 2025
User: louis
Spectrometer: USB4F10415
Trigger mode: 4
Integration Time (sec): 1.000000E-1
Scans to average: 1
Electric dark correction enabled: true
Nonlinearity correction enabled: false
Boxcar width: 0
XAxis mode: Wavelengths
Number of Pixels in Spectrum: 3648
>>>>>Begin Spectral Data<<<<<
178.204	-373.58
178.424	-373.58
178.644	-373.58
178.864	-381.78
179.084	-336.72
179.304	29.87
179.524	-113.49
179.744	15.53
179.964	36.01
180.184	81.07
180.404	27.82
180.624	19.63
180.844	-29.52
181.064	-88.92
181.283	-0.85
181.503	-62.29
181.723	85.16
181.943	-45.91
182.163	201.9
182.383	-0.85
182.602	27.82
182.822	152.74
183.042	142.5
183.262	-68.44
183.482	31.91
183.701	40.11
183.921	-17.24
184.141	-50
184.361	103.59
184.58	50.35
184.8	21.67
185.02	1.19
185.239	185.51
185.459	117.93
185.679	126.12
185.898	-138.07
186.118	-13.14
186.338	134.31
186.557	79.02
186.777	-39.76
186.997	-15.19
187.216	91.31
187.436	130.22
187.655	83.11
187.875	107.69
188.095	-2.9
188.314	197.8
188.534	165.03
188.753	-33.62
188.973	134.31
189.192	195.75
189.412	29.87
189.631	62.63
189.851	31.91
190.07	218.28
190.29	-11.09
190.509	-39.76
190.729	83.11
190.948	183.46
191.168	302.25
191.387	152.74
191.607	60.59
191.826	76.97
192.045	52.39
192.265	-27.48
192.484	60.59
192.704	-7
192.923	-68.44
193.142	183.46
193.362	54.44
193.581	156.84
193.8	60.59
194.02	103.59
194.239	50.35
194.458	144.55
194.678	-27.48
194.897	-9.05
195.116	-7
195.335	42.15
195.555	29.87
195.774	-7
195.993	132.26
196.212	-0.85
196.432	40.11
196.651	-31.57
196.87	48.3
197.089	167.08
197.308	-0.85
197.528	146.6
197.747	-33.62
197.966	87.21
198.185	113.83
198.404	25.77
198.623	117.93
198.842	72.87
199.062	138.41
199.281	107.69
199.5	-17.24
199.719	89.26
199.938	109.74
200.157	48.3
200.376	97.45
200.595	117.93
200.814	44.2
201.033	-19.29
201.252	105.64
201.471	42.15
201.69	62.63
201.909	-27.48
202.128	93.35
202.347	36.01
202.566	31.91
202.785	-23.38
203.004	54.44
203.223	236.71
203.442	60.59
203.661	11.43
203.879	52.39
204.098	142.5
204.317	19.63
204.536	132.26
204.755	140.46
204.974	60.59
205.193	40.11
205.411	134.31
205.63	138.41
205.849	44.2
206.068	27.82
206.287	-23.38
206.505	72.87
206.724	50.35
206.943	-11.09
207.162	48.3
207.381	60.59
207.599	48.3
207.818	46.25
208.037	-15.19
208.255	-13.14
208.474	68.78
208.693	72.87
208.911	15.53
209.13	156.84
209.349	152.74
209.567	193.7
209.786	54.44
210.005	117.93
210.223	58.54
210.442	-60.24
210.661	97.45
210.879	136.36
211.098	70.83
211.316	9.39
211.535	74.92
211.753	76.97
211.972	-2.9
212.191	1.19
212.409	89.26
212.628	140.46
212.846	74.92
213.065	60.59
213.283	130.22
213.502	89.26
213.72	27.82
213.938	60.59
214.157	13.48
214.375	113.83
214.594	-29.52
214.812	124.07
215.031	25.77
215.249	76.97
215.467	81.07
215.686	38.06
215.904	11.43
216.122	81.07
216.341	87.21
216.559	-2.9
216.778	81.07
216.996	122.02
217.214	-27.48
217.432	44.2
217.651	-54.1
217.869	52.39
218.087	15.53
218.306	46.25
218.524	148.65
218.742	109.74
218.96	93.35
219.179	89.26
219.397	-4.95
219.615	187.56
219.833	40.11
220.051	-13.14
220.27	99.5
220.488	144.55
220.706	117.93
220.924	11.43
221.142	-13.14
221.36	81.07
221.578	42.15
221.796	33.96
222.015	60.59
222.233	62.63
222.451	199.85
222.669	-54.1
222.887	103.59
223.105	-9.05
223.323	27.82
223.541	13.48
223.759	97.45
223.977	7.34
224.195	249
224.413	167.08
224.631	-11.09
224.849	152.74
225.067	249
225.285	3.24
225.503	25.77
225.721	-29.52
225.939	95.4
226.157	25.77
226.375	208.04
226.592	64.68
226.81	99.5
227.028	62.63
227.246	124.07
227.464	44.2
227.682	58.54
227.9	115.88
228.117	52.39
228.335	68.78
228.553	91.31
228.771	-41.81
228.989	97.45
229.206	42.15
229.424	-2.9
229.642	-50
229.86	15.53
230.077	140.46
230.295	87.21
230.513	144.55
230.731	19.63
230.948	122.02
231.166	162.98
231.384	72.87
231.601	-84.82
231.819	238.76
232.037	-45.91
232.254	-19.29
232.472	46.25
232.689	-60.24
232.907	91.31
233.125	-37.72
233.342	81.07
233.56	38.06
233.777	38.06
233.995	5.29
234.213	83.11
234.43	19.63
234.648	81.07
234.865	21.67
235.083	136.36
235.3	19.63
235.518	175.27
235.735	224.42
235.953	87.21
236.17	68.78
236.388	-17.24
236.605	38.06
236.822	117.93
237.04	54.44
237.257	-15.19
237.475	-23.38
237.692	46.25
237.909	66.73
238.127	56.49
238.344	54.44
238.562	62.63
238.779	-45.91
238.996	-2.9
239.214	99.5
239.431	89.26
239.648	-23.38
239.865	56.49
240.083	197.8
240.3	3.24
240.517	-2.9
240.735	83.11
240.952	148.65
241.169	117.93
241.386	42.15
241.603	5.29
241.821	-76.63
242.038	119.98
242.255	175.27
242.472	66.73
242.689	23.72
242.907	13.48
243.124	62.63
243.341	44.2
243.558	11.43
243.775	-70.48
243.992	1.19
244.209	138.41
244.426	212.14
244.643	160.94
244.86	46.25
245.078	173.22
245.295	85.16
245.512	1.19
245.729	74.92
245.946	89.26
246.163	3.24
246.38	-13.14
246.597	46.25
246.814	54.44
247.031	23.72
247.248	44.2
247.464	103.59
247.681	60.59
247.898	64.68
248.115	109.74
248.332	-2.9
248.549	113.83
248.766	165.03
248.983	91.31
249.2	142.5
249.417	113.83
249.633	-35.67
249.85	74.92
250.067	85.16
250.284	79.02
250.501	13.48
250.717	111.78
250.934	70.83
251.151	48.3
251.368	52.39
251.585	128.17
251.801	40.11
252.018	60.59
252.235	36.01
252.451	-25.43
252.668	46.25
252.885	154.79
253.102	11.43
253.318	48.3
253.535	107.69
253.752	3.24
253.968	5.29
254.185	-113.49
254.401	52.39
254.618	56.49
254.835	25.77
255.051	156.84
255.268	111.78
255.484	1.19
255.701	64.68
255.917	74.92
256.134	-64.34
256.351	60.59
256.567	-72.53
256.784	25.77
257	-84.82
257.217	138.41
257.433	95.4
257.65	58.54
257.866	173.22
258.082	-45.91
258.299	60.59
258.515	93.35
258.732	-33.62
258.948	5.29
259.165	23.72
259.381	-56.15
259.597	76.97
259.814	-0.85
260.03	7.34
260.246	-39.76
260.463	144.55
260.679	160.94
260.895	60.59
261.112	74.92
261.328	81.07
261.544	5.29
261.761	162.98
261.977	13.48
262.193	-4.95
262.409	134.31
262.626	11.43
262.842	68.78
263.058	-9.05
263.274	224.42
263.49	33.96
263.707	52.39
263.923	136.36
264.139	-45.91
264.355	167.08
264.571	152.74
264.787	85.16
265.004	136.36
265.22	171.18
265.436	70.83
265.652	79.02
265.868	85.16
266.084	-17.24
266.3	13.48
266.516	3.24
266.732	21.67
266.948	76.97
267.164	-29.52
267.38	101.55
267.596	87.21
267.812	160.94
268.028	7.34
268.244	15.53
268.46	-21.33
268.676	52.39
268.892	9.39
269.108	-21.33
269.324	-31.57
269.54	-17.24
269.756	140.46
269.972	1.19
270.188	25.77
270.403	-78.68
270.619	48.3
270.835	85.16
271.051	60.59
271.267	52.39
271.483	-19.29
271.698	76.97
271.914	54.44
272.13	87.21
272.346	-15.19
272.562	89.26
272.777	70.83
272.993	-31.57
273.209	27.82
273.425	40.11
273.64	-45.91
273.856	87.21
274.072	-29.52
274.287	-23.38
274.503	64.68
274.719	50.35
274.934	-13.14
275.15	-74.58
275.366	93.35
275.581	46.25
275.797	29.87
276.012	126.12
276.228	-35.67
276.444	-13.14
276.659	146.6
276.875	-25.43
277.09	-17.24
277.306	23.72
277.521	81.07
277.737	48.3
277.952	144.55
278.168	68.78
278.383	72.87
278.599	44.2
278.814	113.83
279.03	40.11
279.245	210.09
279.461	29.87
279.676	132.26
279.892	29.87
280.107	36.01
280.322	19.63
280.538	105.64
280.753	-76.63
280.969	76.97
281.184	50.35
281.399	189.61
281.615	23.72
281.83	148.65
282.045	-58.2
282.26	9.39
282.476	130.22
282.691	158.89
282.906	99.5
283.122	52.39
283.337	-27.48
283.552	56.49
283.767	-43.86
283.983	93.35
284.198	13.48
284.413	87.21
284.628	-58.2
284.843	76.97
285.058	48.3
285.274	17.58
285.489	-119.64
285.704	115.88
285.919	-33.62
286.134	56.49
286.349	83.11
286.564	7.34
286.779	109.74
286.995	-41.81
287.21	-86.87
287.425	103.59
287.64	-19.29
287.855	33.96
288.07	-54.1
288.285	183.46
288.5	171.18
288.715	91.31
288.93	50.35
289.145	-11.09
289.36	13.48
289.575	-43.86
289.79	115.88
290.004	60.59
290.219	93.35
290.434	31.91
290.649	-23.38
290.864	21.67
291.079	31.91
291.294	130.22
291.509	-15.19
291.724	-4.95
291.938	-17.24
292.153	70.83
292.368	44.2
292.583	111.78
292.798	101.55
293.012	111.78
293.227	89.26
293.442	-9.05
293.657	93.35
293.871	128.17
294.086	50.35
294.301	228.52
294.516	175.27
294.73	46.25
294.945	-50
295.16	109.74
295.374	85.16
295.589	162.98
295.804	50.35
296.018	72.87
296.233	148.65
296.447	52.39
296.662	27.82
296.877	113.83
297.091	66.73
297.306	107.69
297.52	3.24
297.735	-0.85
297.949	13.48
298.164	21.67
298.378	11.43
298.593	-2.9
298.807	-9.05
299.022	-2.9
299.236	173.22
299.451	89.26
299.665	52.39
299.88	-19.29
300.094	56.49
300.309	44.2
300.523	56.49
300.737	5.29
300.952	128.17
301.166	113.83
301.381	-41.81
301.595	-19.29
301.809	42.15
302.024	64.68
302.238	-13.14
302.452	99.5
302.667	87.21
302.881	117.93
303.095	42.15
303.309	107.69
303.524	-13.14
303.738	79.02
303.952	-29.52
304.166	27.82
304.381	-84.82
304.595	140.46
304.809	-45.91
305.023	177.32
305.237	19.63
305.452	11.43
305.666	68.78
305.88	93.35
306.094	97.45
306.308	146.6
306.522	130.22
306.736	76.97
306.95	79.02
307.164	72.87
307.379	62.63
307.593	148.65
307.807	58.54
308.021	72.87
308.235	93.35
308.449	-29.52
308.663	101.55
308.877	251.05
309.091	31.91
309.305	76.97
309.519	-23.38
309.733	56.49
309.947	-136.02
310.161	103.59
310.374	173.22
310.588	113.83
310.802	9.39
311.016	25.77
311.23	76.97
311.444	-50
311.658	85.16
311.872	119.98
312.085	220.33
312.299	214.18
312.513	197.8
312.727	107.69
312.941	33.96
313.154	-37.72
313.368	76.97
313.582	21.67
313.796	48.3
314.009	7.34
314.223	146.6
314.437	70.83
314.651	107.69
314.864	-19.29
315.078	72.87
315.292	-41.81
315.505	-2.9
315.719	56.49
315.933	89.26
316.146	76.97
316.36	-45.91
316.573	175.27
316.787	17.58
317.001	150.7
317.214	9.39
317.428	126.12
317.641	-99.16
317.855	-35.67
318.068	-4.95
318.282	44.2
318.495	165.03
318.709	105.64
318.922	74.92
319.136	171.18
319.349	89.26
319.563	-13.14
319.776	74.92
319.99	-11.09
320.203	105.64
320.417	17.58
320.63	152.74
320.843	199.85
321.057	29.87
321.27	44.2
321.483	132.26
321.697	162.98
321.91	19.63
322.124	111.78
322.337	140.46
322.55	42.15
322.763	13.48
322.977	7.34
323.19	3.24
323.403	79.02
323.617	140.46
323.83	152.74
324.043	52.39
324.256	40.11
324.469	-37.72
324.683	68.78
324.896	95.4
325.109	52.39
325.322	-90.96
325.535	113.83
325.748	62.63
325.962	66.73
326.175	126.12
326.388	38.06
326.601	81.07
326.814	13.48
327.027	142.5
327.24	212.14
327.453	-103.25
327.666	64.68
327.879	109.74
328.092	70.83
328.305	132.26
328.518	1.19
328.731	15.53
328.944	-23.38
329.157	36.01
329.37	-41.81
329.583	199.85
329.796	44.2
330.009	-45.91
330.222	128.17
330.435	97.45
330.648	-0.85
330.861	48.3
331.073	31.91
331.286	132.26
331.499	56.49
331.712	23.72
331.925	54.44
332.138	97.45
332.35	99.5
332.563	-41.81
332.776	150.7
332.989	-64.34
333.202	-0.85
333.414	13.48
333.627	74.92
333.84	11.43
334.053	99.5
334.265	-82.77
334.478	25.77
334.691	31.91
334.903	79.02
335.116	-27.48
335.329	93.35
335.541	44.2
335.754	105.64
335.966	-56.15
336.179	48.3
336.392	1.19
336.604	40.11
336.817	5.29
337.029	81.07
337.242	105.64
337.454	148.65
337.667	54.44
337.88	193.7
338.092	115.88
338.305	132.26
338.517	-39.76
338.729	171.18
338.942	124.07
339.154	-60.24
339.367	-58.2
339.579	42.15
339.792	-56.15
340.004	66.73
340.217	58.54
340.429	46.25
340.641	-7
340.854	7.34
341.066	74.92
341.278	142.5
341.491	195.75
341.703	23.72
341.915	42.15
342.128	169.13
342.34	70.83
342.552	23.72
342.764	7.34
342.977	-7
343.189	124.07
343.401	31.91
343.613	3.24
343.826	103.59
344.038	3.24
344.25	-13.14
344.462	-17.24
344.674	62.63
344.886	21.67
345.099	52.39
345.311	115.88
345.523	40.11
345.735	-23.38
345.947	44.2
346.159	66.73
346.371	38.06
346.583	-41.81
346.795	242.85
347.007	29.87
347.219	117.93
347.431	38.06
347.643	173.22
347.855	38.06
348.067	191.66
348.279	-33.62
348.491	31.91
348.703	175.27
348.915	-2.9
349.127	44.2
349.339	119.98
349.551	1.19
349.763	19.63
349.975	60.59
350.187	91.31
350.399	191.66
350.61	-13.14
350.822	48.3
351.034	64.68
351.246	66.73
351.458	48.3
351.669	97.45
351.881	7.34
352.093	146.6
352.305	79.02
352.517	27.82
352.728	126.12
352.94	42.15
353.152	72.87
353.363	9.39
353.575	122.02
353.787	191.66
353.999	66.73
354.21	205.99
354.422	-4.95
354.633	25.77
354.845	36.01
355.057	48.3
355.268	46.25
355.48	183.46
355.692	-90.96
355.903	79.02
356.115	-80.72
356.326	13.48
356.538	175.27
356.749	50.35
356.961	70.83
357.172	33.96
357.384	-45.91
357.595	253.09
357.807	58.54
358.018	-37.72
358.23	44.2
358.441	154.79
358.653	66.73
358.864	15.53
359.075	-74.58
359.287	60.59
359.498	58.54
359.709	48.3
359.921	9.39
360.132	138.41
360.344	-9.05
360.555	-39.76
360.766	76.97
360.977	54.44
361.189	175.27
361.4	17.58
361.611	105.64
361.823	154.79
362.034	40.11
362.245	-37.72
362.456	56.49
362.667	50.35
362.879	-50
363.09	109.74
363.301	89.26
363.512	5.29
363.723	-17.24
363.935	134.31
364.146	136.36
364.357	70.83
364.568	76.97
364.779	-62.29
364.99	70.83
365.201	-62.29
365.412	152.74
365.623	-58.2
365.834	134.31
366.045	54.44
366.256	64.68
366.467	36.01
366.678	-7
366.889	74.92
367.1	19.63
367.311	17.58
367.522	-27.48
367.733	64.68
367.944	52.39
368.155	21.67
368.366	124.07
368.577	97.45
368.788	124.07
368.999	-41.81
369.209	70.83
369.42	298.15
369.631	173.22
369.842	117.93
370.053	85.16
370.264	136.36
370.474	-0.85
370.685	40.11
370.896	36.01
371.107	150.7
371.317	52.39
371.528	38.06
371.739	87.21
371.95	70.83
372.16	126.12
372.371	-13.14
372.582	13.48
372.792	132.26
373.003	158.89
373.214	27.82
373.424	79.02
373.635	-0.85
373.846	93.35
374.056	62.63
374.267	42.15
374.477	89.26
374.688	44.2
374.898	93.35
375.109	87.21
375.319	79.02
375.53	113.83
375.74	93.35
375.951	9.39
376.161	11.43
376.372	124.07
376.582	50.35
376.793	17.58
377.003	62.63
377.214	19.63
377.424	33.96
377.635	70.83
377.845	3.24
378.055	160.94
378.266	-68.44
378.476	23.72
378.686	60.59
378.897	64.68
379.107	136.36
379.317	111.78
379.528	76.97
379.738	115.88
379.948	-25.43
380.158	54.44
380.369	76.97
380.579	52.39
380.789	11.43
380.999	111.78
381.21	173.22
381.42	124.07
381.63	42.15
381.84	191.66
382.05	101.55
382.261	91.31
382.471	111.78
382.681	50.35
382.891	117.93
383.101	48.3
383.311	42.15
383.521	56.49
383.731	105.64
383.941	76.97
384.151	54.44
384.361	60.59
384.571	74.92
384.781	79.02
384.991	148.65
385.201	183.46
385.411	173.22
385.621	62.63
385.831	132.26
386.041	19.63
386.251	50.35
386.461	146.6
386.671	-25.43
386.881	134.31
387.091	9.39
387.301	42.15
387.511	9.39
387.72	74.92
387.93	195.75
388.14	-72.53
388.35	89.26
388.56	160.94
388.769	134.31
388.979	38.06
389.189	-11.09
389.399	70.83
389.609	85.16
389.818	83.11
390.028	89.26
390.238	105.64
390.447	27.82
390.657	138.41
390.867	83.11
391.076	-23.38
391.286	124.07
391.496	50.35
391.705	56.49
391.915	111.78
392.125	85.16
392.334	36.01
392.544	205.99
392.753	74.92
392.963	-19.29
393.172	58.54
393.382	56.49
393.591	158.89
393.801	27.82
394.01	158.89
394.22	74.92
394.429	122.02
394.639	9.39
394.848	87.21
395.058	91.31
395.267	31.91
395.477	128.17
395.686	138.41
395.895	201.9
396.105	238.76
396.314	31.91
396.524	44.2
396.733	33.96
396.942	128.17
397.152	64.68
397.361	128.17
397.57	40.11
397.78	109.74
397.989	60.59
398.198	136.36
398.407	46.25
398.617	25.77
398.826	19.63
399.035	60.59
399.244	122.02
399.453	36.01
399.663	-11.09
399.872	130.22
400.081	27.82
400.29	146.6
400.499	-15.19
400.708	81.07
400.917	44.2
401.127	27.82
401.336	21.67
401.545	107.69
401.754	201.9
401.963	48.3
402.172	54.44
402.381	-11.09
402.59	7.34
402.799	25.77
403.008	175.27
403.217	130.22
403.426	58.54
403.635	-121.68
403.844	56.49
404.053	124.07
404.262	66.73
404.471	148.65
404.68	31.91
404.888	29.87
405.097	17.58
405.306	136.36
405.515	124.07
405.724	40.11
405.933	124.07
406.142	85.16
406.35	122.02
406.559	7.34
406.768	46.25
406.977	126.12
407.185	111.78
407.394	101.55
407.603	31.91
407.812	68.78
408.02	115.88
408.229	70.83
408.438	160.94
408.646	-101.2
408.855	58.54
409.064	99.5
409.272	29.87
409.481	103.59
409.69	27.82
409.898	38.06
410.107	122.02
410.315	138.41
410.524	64.68
410.733	58.54
410.941	-4.95
411.15	165.03
411.358	132.26
411.567	113.83
411.775	23.72
411.984	52.39
412.192	134.31
412.401	152.74
412.609	136.36
412.818	158.89
413.026	46.25
413.234	44.2
413.443	93.35
413.651	3.24
413.86	17.58
414.068	132.26
414.276	105.64
414.485	72.87
414.693	156.84
414.901	144.55
415.11	87.21
415.318	76.97
415.526	-4.95
415.734	150.7
415.943	126.12
416.151	79.02
416.359	38.06
416.567	124.07
416.776	105.64
416.984	89.26
417.192	66.73
417.4	15.53
417.608	81.07
417.817	-4.95
418.025	52.39
418.233	162.98
418.441	-23.38
418.649	29.87
418.857	97.45
419.065	146.6
419.273	91.31
419.481	83.11
419.689	27.82
419.897	70.83
420.105	72.87
420.313	42.15
420.521	83.11
420.729	130.22
420.937	3.24
421.145	17.58
421.353	97.45
421.561	195.75
421.769	91.31
421.977	-33.62
422.185	177.32
422.393	66.73
422.601	115.88
422.809	42.15
423.017	72.87
423.224	105.64
423.432	187.56
423.64	62.63
423.848	169.13
424.056	5.29
424.263	117.93
424.471	76.97
424.679	150.7
424.887	-0.85
425.094	142.5
425.302	115.88
425.51	40.11
425.718	48.3
425.925	97.45
426.133	54.44
426.341	140.46
426.548	36.01
426.756	-9.05
426.964	99.5
427.171	42.15
427.379	13.48
427.586	48.3
427.794	79.02
428.001	169.13
428.209	72.87
428.417	195.75
428.624	122.02
428.832	97.45
429.039	68.78
429.247	103.59
429.454	205.99
429.662	179.37
429.869	173.22
430.076	62.63
430.284	183.46
430.491	269.48
430.699	189.61
430.906	228.52
431.114	208.04
431.321	58.54
431.528	101.55
431.736	148.65
431.943	236.71
432.15	197.8
432.358	152.74
432.565	298.15
432.772	33.96
432.979	222.38
433.187	115.88
433.394	177.32
433.601	138.41
433.808	214.18
434.016	230.57
434.223	212.14
434.43	165.03
434.637	226.47
434.844	218.28
435.052	144.55
435.259	230.57
435.466	193.7
435.673	205.99
435.88	298.15
436.087	306.34
436.294	306.34
436.501	283.81
436.708	236.71
436.915	226.47
437.122	384.16
437.329	292.01
437.537	314.53
437.743	349.35
437.95	367.78
438.157	367.78
438.364	236.71
438.571	326.82
438.778	335.01
438.985	335.01
439.192	443.56
439.399	367.78
439.606	464.04
439.813	500.9
440.02	539.81
440.227	490.66
440.433	517.28
440.64	480.42
440.847	341.16
441.054	525.47
441.261	652.45
441.467	504.99
441.674	490.66
441.881	615.59
442.088	521.38
442.294	574.63
442.501	670.88
442.708	597.15
442.914	730.27
443.121	699.55
443.328	795.81
443.534	795.81
443.741	699.55
443.948	679.07
444.154	797.85
444.361	945.31
444.568	830.62
444.774	908.44
444.981	851.1
445.187	953.5
445.394	953.5
445.6	1004.7
445.807	1105.05
446.013	1043.61
446.22	1076.38
446.426	1193.11
446.633	1191.06
446.839	1426.58
447.046	1197.21
447.252	1451.16
447.459	1340.57
447.665	1346.71
447.871	1469.59
448.078	1680.53
448.284	1440.92
448.491	1725.58
448.697	1660.05
448.903	1797.26
449.11	1864.85
449.316	1870.99
449.522	1973.39
449.728	2016.4
449.935	2174.09
450.141	2065.55
450.347	2374.79
450.553	2278.54
450.76	2346.12
450.966	2362.5
451.172	2522.24
451.378	2768
451.584	2591.88
451.791	2942.08
451.997	2948.22
452.203	3036.28
452.409	3079.29
452.615	3191.93
452.821	3064.96
453.027	3159.16
453.233	3681.39
453.44	3576.95
453.646	3572.85
453.852	3878
454.058	3912.81
454.264	4119.66
454.47	4379.75
454.676	4353.13
454.882	4850.78
455.088	4428.9
455.294	4664.42
455.5	5057.63
455.705	5397.59
455.911	5446.74
456.117	5669.97
456.323	5715.03
456.529	5731.41
456.735	6374.47
456.941	6538.31
457.147	6653
457.352	6841.41
457.558	7103.55
457.764	7457.85
457.97	7539.77
458.176	7863.35
458.381	8334.38
458.587	8592.42
458.793	8883.24
458.999	8969.25
459.204	10007.57
459.41	10392.59
459.616	10136.59
459.821	10785.8
460.027	11340.8
460.233	11893.75
460.438	11922.42
460.644	12694.5
460.85	12880.87
461.055	13204.45
461.261	13655
461.466	13503.45
461.672	13702.11
461.878	15518.65
462.083	15213.51
462.289	15492.03
462.494	16225.2
462.7	16358.32
462.905	16726.96
463.111	17847.19
463.316	18570.13
463.522	19110.79
463.727	19813.24
463.932	20300.66
464.138	20861.8
464.343	22004.57
464.549	22227.8
464.754	23667.52
464.959	24365.88
465.165	24754.99
465.37	24394.55
465.575	24521.52
465.781	26352.41
465.986	26966.8
466.191	26782.48
466.397	27020.05
466.602	25961.25
466.807	27706.12
467.012	28396.28
467.218	28267.26
467.423	28658.42
467.628	29500.14
467.833	30913.23
468.038	30403.29
468.244	29897.44
468.449	31302.35
468.654	30507.74
468.859	30923.47
