Data from USB4F104151__42__11-26-38-993.txt Node

Date: Wed Feb 26 11:26:38 EST 2025
User: louis
Spectrometer: USB4F10415
Trigger mode: 4
Integration Time (sec): 1.000000E-1
Scans to average: 1
Electric dark correction enabled: true
Nonlinearity correction enabled: false
Boxcar width: 0
XAxis mode: Wavelengths
Number of Pixels in Spectrum: 3648
>>>>>Begin Spectral Data<<<<<
178.204	-321.7
178.424	-321.7
178.644	-321.7
178.864	-458.92
179.084	-420
179.304	-39.08
179.524	-45.23
179.744	61.27
179.964	75.6
180.184	36.69
180.404	-0.17
180.624	-24.75
180.844	38.74
181.064	-71.85
181.283	3.93
181.503	-67.75
181.723	32.6
181.943	-24.75
182.163	257.87
182.383	-0.17
182.602	48.98
182.822	175.95
183.042	96.08
183.262	28.5
183.482	38.74
183.701	-2.22
183.921	36.69
184.141	-28.84
184.361	-10.41
184.58	32.6
184.8	46.93
185.02	-12.46
185.239	130.9
185.459	81.75
185.679	110.42
185.898	-106.67
186.118	26.45
186.338	87.89
186.557	79.7
186.777	-14.51
186.997	-73.9
187.216	67.41
187.436	194.39
187.655	116.56
187.875	157.52
188.095	32.6
188.314	8.02
188.534	163.67
188.753	-41.13
188.973	149.33
189.192	104.28
189.412	42.84
189.631	116.56
189.851	71.51
190.07	171.86
190.29	-65.71
190.509	-41.13
190.729	51.03
190.948	212.82
191.168	225.11
191.387	94.04
191.607	3.93
191.826	79.7
192.045	36.69
192.265	30.55
192.484	67.41
192.704	40.79
192.923	8.02
193.142	188.24
193.362	143.19
193.581	116.56
193.8	102.23
194.02	44.88
194.239	-0.17
194.458	173.91
194.678	-37.03
194.897	-16.55
195.116	122.71
195.335	110.42
195.555	118.61
195.774	-77.99
195.993	128.85
196.212	96.08
196.432	-71.85
196.651	44.88
196.87	34.64
197.089	204.63
197.308	116.56
197.528	87.89
197.747	-98.47
197.966	102.23
198.185	155.47
198.404	-59.56
198.623	100.18
198.842	198.48
199.062	108.37
199.281	151.38
199.5	30.55
199.719	91.99
199.938	40.79
200.157	130.9
200.376	32.6
200.595	208.72
200.814	44.88
201.033	-55.47
201.252	188.24
201.471	77.65
201.69	59.22
201.909	-63.66
202.128	87.89
202.347	137.04
202.566	28.5
202.785	-16.55
203.004	42.84
203.223	229.2
203.442	34.64
203.661	-63.66
203.879	20.31
204.098	216.91
204.317	38.74
204.536	85.84
204.755	94.04
204.974	163.67
205.193	-24.75
205.411	110.42
205.63	87.89
205.849	81.75
206.068	20.31
206.287	5.97
206.505	114.52
206.724	5.97
206.943	30.55
207.162	12.12
207.381	55.12
207.599	3.93
207.818	94.04
208.037	-45.23
208.255	10.07
208.474	51.03
208.693	59.22
208.911	59.22
209.13	91.99
209.349	12.12
209.567	59.22
209.786	145.24
210.005	91.99
210.223	38.74
210.442	-149.67
210.661	38.74
210.879	30.55
211.098	79.7
211.316	-26.79
211.535	53.08
211.753	53.08
211.972	91.99
212.191	-8.36
212.409	28.5
212.628	20.31
212.846	-34.99
213.065	94.04
213.283	229.2
213.502	51.03
213.72	28.5
213.938	36.69
214.157	10.07
214.375	108.37
214.594	59.22
214.812	104.28
215.031	108.37
215.249	1.88
215.467	89.94
215.686	42.84
215.904	3.93
216.122	8.02
216.341	143.19
216.559	53.08
216.778	118.61
216.996	163.67
217.214	8.02
217.432	-53.42
217.651	-26.79
217.869	53.08
218.087	40.79
218.306	51.03
218.524	38.74
218.742	42.84
218.96	139.09
219.179	14.17
219.397	-30.89
219.615	253.78
219.833	124.76
220.051	18.26
220.27	81.75
220.488	96.08
220.706	73.56
220.924	-49.32
221.142	12.12
221.36	53.08
221.578	53.08
221.796	46.93
222.015	48.98
222.233	51.03
222.451	120.66
222.669	-53.42
222.887	79.7
223.105	20.31
223.323	-8.36
223.541	-80.04
223.759	24.4
223.977	71.51
224.195	182.1
224.413	153.43
224.631	51.03
224.849	63.32
225.067	206.67
225.285	26.45
225.503	20.31
225.721	-59.56
225.939	65.36
226.157	38.74
226.375	210.77
226.592	-12.46
226.81	22.36
227.028	132.95
227.246	120.66
227.464	87.89
227.682	46.93
227.9	71.51
228.117	-34.99
228.335	44.88
228.553	59.22
228.771	26.45
228.989	63.32
229.206	85.84
229.424	122.71
229.642	-67.75
229.86	22.36
230.077	186.19
230.295	71.51
230.513	114.52
230.731	40.79
230.948	165.71
231.166	137.04
231.384	65.36
231.601	-39.08
231.819	225.11
232.037	-12.46
232.254	-61.61
232.472	63.32
232.689	-12.46
232.907	65.36
233.125	81.75
233.342	10.07
233.56	34.64
233.777	-61.61
233.995	-14.51
234.213	110.42
234.43	128.85
234.648	71.51
234.865	3.93
235.083	89.94
235.3	67.41
235.518	104.28
235.735	161.62
235.953	73.56
236.17	63.32
236.388	-37.03
236.605	87.89
236.822	79.7
237.04	110.42
237.257	55.12
237.475	-34.99
237.692	24.4
237.909	28.5
238.127	30.55
238.344	137.04
238.562	51.03
238.779	-47.27
238.996	-84.14
239.214	30.55
239.431	69.46
239.648	30.55
239.865	155.47
240.083	118.61
240.3	40.79
240.517	-75.95
240.735	18.26
240.952	122.71
241.169	18.26
241.386	83.8
241.603	48.98
241.821	-37.03
242.038	135
242.255	108.37
242.472	32.6
242.689	83.8
242.907	73.56
243.124	73.56
243.341	122.71
243.558	-90.28
243.775	-43.18
243.992	-61.61
244.209	139.09
244.426	270.16
244.643	63.32
244.86	1.88
245.078	128.85
245.295	94.04
245.512	42.84
245.729	-43.18
245.946	46.93
246.163	61.27
246.38	32.6
246.597	159.57
246.814	61.27
247.031	22.36
247.248	48.98
247.464	57.17
247.681	28.5
247.898	55.12
248.115	51.03
248.332	-14.51
248.549	165.71
248.766	135
248.983	59.22
249.2	40.79
249.417	130.9
249.633	-63.66
249.85	85.84
250.067	36.69
250.284	38.74
250.501	53.08
250.717	116.56
250.934	30.55
251.151	36.69
251.368	12.12
251.585	73.56
251.801	98.13
252.018	-37.03
252.235	46.93
252.451	83.8
252.668	69.46
252.885	151.38
253.102	143.19
253.318	104.28
253.535	-55.47
253.752	22.36
253.968	-6.31
254.185	-88.23
254.401	77.65
254.618	147.28
254.835	-67.75
255.051	137.04
255.268	53.08
255.484	75.6
255.701	79.7
255.917	91.99
256.134	-39.08
256.351	44.88
256.567	-16.55
256.784	102.23
257	10.07
257.217	157.52
257.433	85.84
257.65	51.03
257.866	118.61
258.082	-141.48
258.299	100.18
258.515	42.84
258.732	-86.19
258.948	3.93
259.165	57.17
259.381	-2.22
259.597	16.21
259.814	55.12
260.03	-16.55
260.246	48.98
260.463	67.41
260.679	141.14
260.895	63.32
261.112	18.26
261.328	34.64
261.544	-14.51
261.761	192.34
261.977	-0.17
262.193	-30.89
262.409	216.91
262.626	110.42
262.842	85.84
263.058	22.36
263.274	135
263.49	26.45
263.707	89.94
263.923	112.47
264.139	-69.8
264.355	5.97
264.571	87.89
264.787	98.13
265.004	153.43
265.22	-34.99
265.436	5.97
265.652	-24.75
265.868	32.6
266.084	-8.36
266.3	36.69
266.516	42.84
266.732	69.46
266.948	67.41
267.164	-8.36
267.38	63.32
267.596	65.36
267.812	139.09
268.028	53.08
268.244	87.89
268.46	48.98
268.676	-32.94
268.892	44.88
269.108	-77.99
269.324	3.93
269.54	-43.18
269.756	171.86
269.972	-61.61
270.188	30.55
270.403	-49.32
270.619	32.6
270.835	155.47
271.051	51.03
271.267	-0.17
271.483	-39.08
271.698	55.12
271.914	85.84
272.13	26.45
272.346	1.88
272.562	53.08
272.777	104.28
272.993	-10.41
273.209	-63.66
273.425	20.31
273.64	1.88
273.856	34.64
274.072	-26.79
274.287	81.75
274.503	77.65
274.719	186.19
274.934	-6.31
275.15	-12.46
275.366	81.75
275.581	-45.23
275.797	63.32
276.012	40.79
276.228	36.69
276.444	18.26
276.659	38.74
276.875	-53.42
277.09	67.41
277.306	14.17
277.521	55.12
277.737	20.31
277.952	61.27
278.168	118.61
278.383	20.31
278.599	126.8
278.814	149.33
279.03	-16.55
279.245	169.81
279.461	16.21
279.676	178
279.892	-16.55
280.107	-18.6
280.322	-26.79
280.538	40.79
280.753	-6.31
280.969	10.07
281.184	59.22
281.399	163.67
281.615	48.98
281.83	5.97
282.045	-49.32
282.26	10.07
282.476	16.21
282.691	61.27
282.906	51.03
283.122	85.84
283.337	-32.94
283.552	110.42
283.767	104.28
283.983	118.61
284.198	30.55
284.413	110.42
284.628	-114.86
284.843	32.6
285.058	61.27
285.274	32.6
285.489	12.12
285.704	114.52
285.919	65.36
286.134	-16.55
286.349	108.37
286.564	42.84
286.779	130.9
286.995	63.32
287.21	-6.31
287.425	132.95
287.64	-63.66
287.855	-30.89
288.07	1.88
288.285	75.6
288.5	178
288.715	85.84
288.93	1.88
289.145	73.56
289.36	106.32
289.575	-16.55
289.79	126.8
290.004	42.84
290.219	104.28
290.434	-10.41
290.649	-4.27
290.864	1.88
291.079	106.32
291.294	38.74
291.509	69.46
291.724	-20.65
291.938	83.8
292.153	59.22
292.368	-26.79
292.583	40.79
292.798	83.8
293.012	65.36
293.227	98.13
293.442	-28.84
293.657	175.95
293.871	71.51
294.086	61.27
294.301	165.71
294.516	118.61
294.73	55.12
294.945	-90.28
295.16	-2.22
295.374	180.05
295.589	128.85
295.804	-30.89
296.018	100.18
296.233	171.86
296.447	42.84
296.662	40.79
296.877	194.39
297.091	63.32
297.306	-12.46
297.52	-14.51
297.735	87.89
297.949	40.79
298.164	67.41
298.378	-37.03
298.593	30.55
298.807	-2.22
299.022	28.5
299.236	85.84
299.451	-8.36
299.665	67.41
299.88	71.51
300.094	40.79
300.309	77.65
300.523	20.31
300.737	-8.36
300.952	16.21
301.166	59.22
301.381	89.94
301.595	61.27
301.809	34.64
302.024	26.45
302.238	10.07
302.452	188.24
302.667	87.89
302.881	194.39
303.095	102.23
303.309	42.84
303.524	24.4
303.738	69.46
303.952	-2.22
304.166	141.14
304.381	-98.47
304.595	38.74
304.809	-4.27
305.023	5.97
305.237	12.12
305.452	65.36
305.666	87.89
305.88	71.51
306.094	126.8
306.308	81.75
306.522	51.03
306.736	44.88
306.95	116.56
307.164	32.6
307.379	14.17
307.593	218.96
307.807	143.19
308.021	57.17
308.235	40.79
308.449	-84.14
308.663	96.08
308.877	280.4
309.091	46.93
309.305	114.52
309.519	12.12
309.733	145.24
309.947	-84.14
310.161	30.55
310.374	126.8
310.588	102.23
310.802	-18.6
311.016	-71.85
311.23	46.93
311.444	10.07
311.658	-14.51
311.872	118.61
312.085	108.37
312.299	143.19
312.513	139.09
312.727	102.23
312.941	-84.14
313.154	71.51
313.368	16.21
313.582	40.79
313.796	1.88
314.009	42.84
314.223	81.75
314.437	46.93
314.651	44.88
314.864	5.97
315.078	81.75
315.292	-0.17
315.505	87.89
315.719	61.27
315.933	116.56
316.146	3.93
316.36	-28.84
316.573	36.69
316.787	67.41
317.001	67.41
317.214	-84.14
317.428	53.08
317.641	-24.75
317.855	51.03
318.068	8.02
318.282	100.18
318.495	227.15
318.709	55.12
318.922	-2.22
319.136	151.38
319.349	94.04
319.563	55.12
319.776	114.52
319.99	-127.14
320.203	108.37
320.417	-26.79
320.63	61.27
320.843	194.39
321.057	59.22
321.27	32.6
321.483	65.36
321.697	96.08
321.91	48.98
322.124	73.56
322.337	36.69
322.55	8.02
322.763	102.23
322.977	38.74
323.19	-43.18
323.403	77.65
323.617	71.51
323.83	175.95
324.043	-2.22
324.256	24.4
324.469	-71.85
324.683	237.39
324.896	51.03
325.109	55.12
325.322	-53.42
325.535	165.71
325.748	104.28
325.962	71.51
326.175	71.51
326.388	36.69
326.601	32.6
326.814	40.79
327.027	65.36
327.24	204.63
327.453	-131.24
327.666	67.41
327.879	83.8
328.092	132.95
328.305	128.85
328.518	14.17
328.731	30.55
328.944	-8.36
329.157	83.8
329.37	22.36
329.583	282.45
329.796	151.38
330.009	-39.08
330.222	126.8
330.435	98.13
330.648	14.17
330.861	-0.17
331.073	34.64
331.286	48.98
331.499	75.6
331.712	-20.65
331.925	75.6
332.138	87.89
332.35	118.61
332.563	114.52
332.776	145.24
332.989	-6.31
333.202	79.7
333.414	71.51
333.627	-49.32
333.84	28.5
334.053	24.4
334.265	22.36
334.478	34.64
334.691	59.22
334.903	59.22
335.116	14.17
335.329	-2.22
335.541	61.27
335.754	128.85
335.966	-16.55
336.179	122.71
336.392	55.12
336.604	-16.55
336.817	44.88
337.029	71.51
337.242	100.18
337.454	69.46
337.667	122.71
337.88	186.19
338.092	40.79
338.305	63.32
338.517	59.22
338.729	151.38
338.942	130.9
339.154	10.07
339.367	30.55
339.579	44.88
339.792	32.6
340.004	73.56
340.217	71.51
340.429	79.7
340.641	28.5
340.854	-28.84
341.066	69.46
341.278	145.24
341.491	151.38
341.703	46.93
341.915	40.79
342.128	212.82
342.34	182.1
342.552	3.93
342.764	57.17
342.977	59.22
343.189	175.95
343.401	73.56
343.613	-22.7
343.826	1.88
344.038	-34.99
344.25	63.32
344.462	-20.65
344.674	67.41
344.886	75.6
345.099	20.31
345.311	102.23
345.523	10.07
345.735	-59.56
345.947	216.91
346.159	18.26
346.371	-32.94
346.583	-22.7
346.795	182.1
347.007	-18.6
347.219	40.79
347.431	51.03
347.643	149.33
347.855	-47.27
348.067	212.82
348.279	-41.13
348.491	22.36
348.703	120.66
348.915	71.51
349.127	44.88
349.339	89.94
349.551	32.6
349.763	63.32
349.975	12.12
350.187	137.04
350.399	163.67
350.61	28.5
350.822	5.97
351.034	-14.51
351.246	147.28
351.458	57.17
351.669	108.37
351.881	63.32
352.093	122.71
352.305	89.94
352.517	-0.17
352.728	165.71
352.94	79.7
353.152	145.24
353.363	-32.94
353.575	98.13
353.787	204.63
353.999	94.04
354.21	178
354.422	-82.09
354.633	51.03
354.845	14.17
355.057	75.6
355.268	42.84
355.48	112.47
355.692	-28.84
355.903	63.32
356.115	-8.36
356.326	-26.79
356.538	94.04
356.749	85.84
356.961	143.19
357.172	48.98
357.384	24.4
357.595	229.2
357.807	51.03
358.018	-55.47
358.23	38.74
358.441	153.43
358.653	155.47
358.864	53.08
359.075	-12.46
359.287	124.76
359.498	126.8
359.709	53.08
359.921	51.03
360.132	96.08
360.344	32.6
360.555	-12.46
360.766	112.47
360.977	14.17
361.189	175.95
361.4	30.55
361.611	145.24
361.823	100.18
362.034	108.37
362.245	-0.17
362.456	143.19
362.667	30.55
362.879	-51.37
363.09	145.24
363.301	18.26
363.512	63.32
363.723	-71.85
363.935	10.07
364.146	161.62
364.357	98.13
364.568	87.89
364.779	-37.03
364.99	161.62
365.201	34.64
365.412	124.76
365.623	-53.42
365.834	77.65
366.045	28.5
366.256	48.98
366.467	42.84
366.678	30.55
366.889	71.51
367.1	-12.46
367.311	81.75
367.522	-14.51
367.733	108.37
367.944	126.8
368.155	5.97
368.366	106.32
368.577	124.76
368.788	180.05
368.999	-26.79
369.209	12.12
369.42	163.67
369.631	169.81
369.842	69.46
370.053	71.51
370.264	79.7
370.474	-18.6
370.685	81.75
370.896	36.69
371.107	94.04
371.317	81.75
371.528	1.88
371.739	157.52
371.95	48.98
372.16	79.7
372.371	26.45
372.582	42.84
372.792	59.22
373.003	108.37
373.214	210.77
373.424	108.37
373.635	-77.99
373.846	192.34
374.056	-12.46
374.267	24.4
374.477	83.8
374.688	-10.41
374.898	57.17
375.109	46.93
375.319	46.93
375.53	126.8
375.74	100.18
375.951	-20.65
376.161	104.28
376.372	106.32
376.582	-32.94
376.793	-34.99
377.003	3.93
377.214	12.12
377.424	87.89
377.635	20.31
377.845	-20.65
378.055	173.91
378.266	-2.22
378.476	75.6
378.686	83.8
378.897	104.28
379.107	116.56
379.317	89.94
379.528	-4.27
379.738	28.5
379.948	5.97
380.158	159.57
380.369	24.4
380.579	32.6
380.789	57.17
380.999	149.33
381.21	40.79
381.42	212.82
381.63	10.07
381.84	53.08
382.05	67.41
382.261	42.84
382.471	98.13
382.681	-2.22
382.891	130.9
383.101	87.89
383.311	65.36
383.521	57.17
383.731	77.65
383.941	87.89
384.151	-30.89
384.361	-92.33
384.571	81.75
384.781	16.21
384.991	194.39
385.201	175.95
385.411	81.75
385.621	124.76
385.831	94.04
386.041	12.12
386.251	87.89
386.461	184.15
386.671	46.93
386.881	77.65
387.091	38.74
387.301	67.41
387.511	-69.8
387.72	155.47
387.93	151.38
388.14	-16.55
388.35	75.6
388.56	139.09
388.769	145.24
388.979	87.89
389.189	-73.9
389.399	77.65
389.609	75.6
389.818	91.99
390.028	94.04
390.238	77.65
390.447	85.84
390.657	40.79
390.867	44.88
391.076	18.26
391.286	96.08
391.496	22.36
391.705	8.02
391.915	81.75
392.125	126.8
392.334	16.21
392.544	145.24
392.753	38.74
392.963	42.84
393.172	34.64
393.382	-0.17
393.591	257.87
393.801	57.17
394.01	87.89
394.22	141.14
394.429	32.6
394.639	-2.22
394.848	57.17
395.058	48.98
395.267	8.02
395.477	155.47
395.686	51.03
395.895	118.61
396.105	221.01
396.314	163.67
396.524	34.64
396.733	1.88
396.942	135
397.152	44.88
397.361	139.09
397.57	51.03
397.78	-10.41
397.989	169.81
398.198	175.95
398.407	100.18
398.617	169.81
398.826	51.03
399.035	-4.27
399.244	114.52
399.453	-0.17
399.663	24.4
399.872	175.95
400.081	-96.43
400.29	159.57
400.499	10.07
400.708	124.76
400.917	20.31
401.127	-22.7
401.336	20.31
401.545	241.49
401.754	94.04
401.963	135
402.172	44.88
402.381	14.17
402.59	-8.36
402.799	89.94
403.008	157.52
403.217	81.75
403.426	26.45
403.635	-26.79
403.844	18.26
404.053	57.17
404.262	1.88
404.471	48.98
404.68	87.89
404.888	-43.18
405.097	57.17
405.306	48.98
405.515	112.47
405.724	14.17
405.933	102.23
406.142	65.36
406.35	120.66
406.559	24.4
406.768	100.18
406.977	130.9
407.185	59.22
407.394	85.84
407.603	-77.99
407.812	5.97
408.02	141.14
408.229	32.6
408.438	61.27
408.646	-24.75
408.855	-47.27
409.064	89.94
409.272	-12.46
409.481	22.36
409.69	-22.7
409.898	48.98
410.107	143.19
410.315	169.81
410.524	67.41
410.733	96.08
410.941	32.6
411.15	118.61
411.358	24.4
411.567	122.71
411.775	10.07
411.984	91.99
412.192	44.88
412.401	-0.17
412.609	218.96
412.818	141.14
413.026	65.36
413.234	22.36
413.443	96.08
413.651	-26.79
413.86	139.09
414.068	132.95
414.276	212.82
414.485	91.99
414.693	157.52
414.901	212.82
415.11	89.94
415.318	65.36
415.526	14.17
415.734	132.95
415.943	65.36
416.151	204.63
416.359	42.84
416.567	122.71
416.776	167.76
416.984	110.42
417.192	227.15
417.4	85.84
417.608	10.07
417.817	-39.08
418.025	96.08
418.233	208.72
418.441	-16.55
418.649	8.02
418.857	106.32
419.065	73.56
419.273	-28.84
419.481	5.97
419.689	28.5
419.897	-2.22
420.105	-94.38
420.313	104.28
420.521	145.24
420.729	204.63
420.937	20.31
421.145	-20.65
421.353	143.19
421.561	102.23
421.769	153.43
421.977	40.79
422.185	114.52
422.393	67.41
422.601	28.5
422.809	108.37
423.017	104.28
423.224	28.5
423.432	153.43
423.64	87.89
423.848	118.61
424.056	-16.55
424.263	94.04
424.471	14.17
424.679	110.42
424.887	44.88
425.094	110.42
425.302	81.75
425.51	8.02
425.718	51.03
425.925	102.23
426.133	10.07
426.341	200.53
426.548	145.24
426.756	116.56
426.964	106.32
427.171	-90.28
427.379	161.62
427.586	130.9
427.794	147.28
428.001	221.01
428.209	135
428.417	91.99
428.624	69.46
428.832	98.13
429.039	94.04
429.247	98.13
429.454	163.67
429.662	288.59
429.869	147.28
430.076	120.66
430.284	182.1
430.491	130.9
430.699	155.47
430.906	208.72
431.114	161.62
431.321	130.9
431.528	67.41
431.736	124.76
431.943	139.09
432.15	147.28
432.358	180.05
432.565	190.29
432.772	24.4
432.979	249.68
433.187	110.42
433.394	216.91
433.601	44.88
433.808	198.48
434.016	239.44
434.223	194.39
434.43	214.87
434.637	192.34
434.844	243.54
435.052	200.53
435.259	290.64
435.466	286.54
435.673	249.68
435.88	225.11
436.087	292.69
436.294	284.5
436.501	274.26
436.708	282.45
436.915	319.31
437.122	337.74
437.329	255.83
437.537	257.87
437.743	270.16
437.95	384.85
438.157	399.18
438.364	317.26
438.571	335.7
438.778	503.63
438.985	347.98
439.192	372.56
439.399	393.04
439.606	401.23
439.813	505.68
440.02	499.53
440.227	651.08
440.433	485.2
440.64	481.1
440.847	421.71
441.054	411.47
441.261	591.69
441.467	528.21
441.674	538.45
441.881	700.23
442.088	612.17
442.294	757.58
442.501	683.85
442.708	687.95
442.914	671.56
443.121	784.2
443.328	683.85
443.534	864.07
443.741	780.11
443.948	694.09
444.154	952.13
444.361	997.19
444.568	993.09
444.774	839.5
444.981	798.54
445.187	1132.36
445.394	1083.2
445.6	1111.88
445.807	1093.44
446.013	1218.37
446.22	1077.06
446.426	1208.13
446.633	1279.81
446.839	1529.66
447.046	1304.39
447.252	1457.98
447.459	1496.89
447.665	1447.74
447.871	1691.45
448.078	1732.41
448.284	1689.4
448.491	1806.14
448.697	1756.99
448.903	1947.45
449.11	2027.32
449.316	1965.88
449.522	2092.85
449.728	2258.74
449.935	2350.9
450.141	2137.91
450.347	2510.64
450.553	2389.81
450.76	2567.98
450.966	2619.18
451.172	2649.9
451.378	2971.43
451.584	2772.78
451.791	3112.74
451.997	3147.56
452.203	3172.13
452.409	3262.24
452.615	3407.65
452.821	3288.87
453.027	3399.46
453.233	3987.22
453.44	3798.81
453.646	3944.22
453.852	4085.53
454.058	4349.71
454.264	4425.49
454.47	4751.12
454.676	4611.85
454.882	5144.33
455.088	4816.65
455.294	5199.62
455.5	5494.53
455.705	5789.44
455.911	5797.63
456.117	5963.51
456.323	6010.62
456.529	6274.81
456.735	6844.14
456.941	6983.4
457.147	7024.36
457.352	7386.85
457.558	7616.23
457.764	8136.41
457.97	8384.21
458.176	8705.74
458.381	9058
458.587	9029.32
458.793	9637.57
458.999	9299.66
459.204	10882.74
459.41	11028.14
459.616	11042.48
459.821	11617.96
460.027	12222.11
460.233	12555.93
460.438	12652.18
460.644	13571.72
460.85	13575.81
461.055	14306.94
461.261	14704.24
461.466	14472.82
461.672	14958.19
461.878	16465.5
462.083	16432.73
462.289	16789.08
462.494	17348.17
462.7	17405.52
462.905	17909.32
463.111	19414.57
463.316	20213.28
463.522	20684.31
463.727	21171.73
463.932	22091.27
464.138	22713.85
464.343	23737.84
464.549	23649.77
464.754	25286.1
464.959	26410.43
465.165	26394.05
465.37	26058.18
465.575	26453.44
465.781	28409.25
465.986	29175.19
466.191	28548.51
466.397	29064.6
466.602	27913.64
466.807	29789.58
467.012	30446.98
467.218	31001.98
467.423	31161.72
467.628	32136.55
467.833	33508.69
468.038	32730.47
468.244	32243.05
468.449	34086.22
468.654	33449.3
