Data from USB4F104151__54__11-30-45-765.txt Node

Date: Wed Feb 26 11:30:45 EST 2025
User: louis
Spectrometer: USB4F10415
Trigger mode: 4
Integration Time (sec): 1.000000E-1
Scans to average: 1
Electric dark correction enabled: true
Nonlinearity correction enabled: false
Boxcar width: 0
XAxis mode: Wavelengths
Number of Pixels in Spectrum: 3648
>>>>>Begin Spectral Data<<<<<
178.204	-367.78
178.424	-367.78
178.644	-367.78
178.864	-351.4
179.084	-414.88
179.304	-50.35
179.524	-5.29
179.744	19.29
179.964	105.3
180.184	93.01
180.404	0.85
180.624	-36.01
180.844	-7.34
181.064	-58.54
181.283	-19.63
181.503	-140.46
181.723	99.16
181.943	-97.45
182.163	170.83
182.383	-50.35
182.602	23.38
182.822	131.92
183.042	72.53
183.262	2.9
183.482	-40.11
183.701	7
183.921	41.81
184.141	-50.35
184.361	70.48
184.58	50
184.8	62.29
185.02	-11.43
185.239	115.54
185.459	131.92
185.679	123.73
185.898	-58.54
186.118	129.88
186.338	58.2
186.557	66.39
186.777	-70.83
186.997	27.48
187.216	45.91
187.436	176.98
187.655	2.9
187.875	78.68
188.095	17.24
188.314	152.4
188.534	136.02
188.753	21.33
188.973	123.73
189.192	185.17
189.412	68.44
189.631	15.19
189.851	84.82
190.07	164.69
190.29	9.05
190.509	-56.49
190.729	13.14
190.948	129.88
191.168	269.14
191.387	60.24
191.607	45.91
191.826	78.68
192.045	-33.96
192.265	-1.19
192.484	99.16
192.704	-17.58
192.923	-40.11
193.142	187.22
193.362	50
193.581	64.34
193.8	72.53
194.02	64.34
194.239	21.33
194.458	129.88
194.678	9.05
194.897	15.19
195.116	47.96
195.335	123.73
195.555	76.63
195.774	23.38
195.993	144.21
196.212	80.72
196.432	31.57
196.651	-27.82
196.87	19.29
197.089	217.94
197.308	121.68
197.528	76.63
197.747	-31.91
197.966	105.3
198.185	179.03
198.404	0.85
198.623	127.83
198.842	144.21
199.062	111.44
199.281	88.92
199.5	-7.34
199.719	72.53
199.938	72.53
200.157	45.91
200.376	90.96
200.595	78.68
200.814	31.57
201.033	-3.24
201.252	203.6
201.471	62.29
201.69	131.92
201.909	-5.29
202.128	72.53
202.347	105.3
202.566	31.57
202.785	-29.87
203.004	47.96
203.223	215.89
203.442	74.58
203.661	62.29
203.879	-46.25
204.098	136.02
204.317	13.14
204.536	99.16
204.755	101.2
204.974	56.15
205.193	-48.3
205.411	129.88
205.63	158.55
205.849	97.11
206.068	-36.01
206.287	33.62
206.505	68.44
206.724	41.81
206.943	23.38
207.162	29.52
207.381	66.39
207.599	41.81
207.818	82.77
208.037	9.05
208.255	43.86
208.474	19.29
208.693	45.91
208.911	31.57
209.13	121.68
209.349	52.05
209.567	111.44
209.786	138.07
210.005	101.2
210.223	80.72
210.442	-99.5
210.661	70.48
210.879	90.96
211.098	-3.24
211.316	117.59
211.535	43.86
211.753	74.58
211.972	58.2
212.191	50
212.409	17.24
212.628	158.55
212.846	47.96
213.065	0.85
213.283	162.64
213.502	50
213.72	88.92
213.938	-21.67
214.157	56.15
214.375	117.59
214.594	-15.53
214.812	58.2
215.031	166.74
215.249	68.44
215.467	41.81
215.686	90.96
215.904	43.86
216.122	72.53
216.341	131.92
216.559	39.76
216.778	-9.39
216.996	152.4
217.214	13.14
217.432	-25.77
217.651	-46.25
217.869	60.24
218.087	56.15
218.306	-36.01
218.524	43.86
218.742	-40.11
218.96	103.25
219.179	-11.43
219.397	37.72
219.615	187.22
219.833	144.21
220.051	33.62
220.27	41.81
220.488	82.77
220.706	37.72
220.924	-54.44
221.142	88.92
221.36	82.77
221.578	33.62
221.796	9.05
222.015	60.24
222.233	74.58
222.451	127.83
222.669	-13.48
222.887	105.3
223.105	-54.44
223.323	107.35
223.541	-40.11
223.759	66.39
223.977	103.25
224.195	193.36
224.413	138.07
224.631	52.05
224.849	78.68
225.067	142.16
225.285	-17.58
225.503	-52.39
225.721	-91.31
225.939	76.63
226.157	29.52
226.375	201.55
226.592	-13.48
226.81	123.73
227.028	80.72
227.246	158.55
227.464	117.59
227.682	136.02
227.9	66.39
228.117	47.96
228.335	76.63
228.553	82.77
228.771	99.16
228.989	72.53
229.206	64.34
229.424	21.33
229.642	47.96
229.86	-87.21
230.077	148.31
230.295	99.16
230.513	95.06
230.731	31.57
230.948	219.99
231.166	129.88
231.384	-33.96
231.601	15.19
231.819	230.23
232.037	9.05
232.254	-40.11
232.472	-27.82
232.689	107.35
232.907	187.22
233.125	21.33
233.342	-15.53
233.56	19.29
233.777	-50.35
233.995	17.24
234.213	113.49
234.43	136.02
234.648	35.67
234.865	-33.96
235.083	125.78
235.3	84.82
235.518	127.83
235.735	146.26
235.953	33.62
236.17	7
236.388	37.72
236.605	56.15
236.822	138.07
237.04	136.02
237.257	-19.63
237.475	33.62
237.692	205.65
237.909	45.91
238.127	-9.39
238.344	43.86
238.562	86.87
238.779	-17.58
238.996	-9.39
239.214	99.16
239.431	45.91
239.648	31.57
239.865	117.59
240.083	84.82
240.3	90.96
240.517	25.43
240.735	-7.34
240.952	119.64
241.169	97.11
241.386	72.53
241.603	-25.77
241.821	19.29
242.038	39.76
242.255	154.45
242.472	-52.39
242.689	82.77
242.907	84.82
243.124	131.92
243.341	-7.34
243.558	-23.72
243.775	-52.39
243.992	-70.83
244.209	99.16
244.426	211.79
244.643	37.72
244.86	76.63
245.078	119.64
245.295	107.35
245.512	72.53
245.729	-9.39
245.946	136.02
246.163	60.24
246.38	-25.77
246.597	127.83
246.814	140.12
247.031	47.96
247.248	15.19
247.464	133.97
247.681	54.1
247.898	58.2
248.115	58.2
248.332	-36.01
248.549	179.03
248.766	172.88
248.983	113.49
249.2	-3.24
249.417	117.59
249.633	33.62
249.85	47.96
250.067	-7.34
250.284	78.68
250.501	41.81
250.717	54.1
250.934	11.09
251.151	74.58
251.368	72.53
251.585	82.77
251.801	50
252.018	-79.02
252.235	164.69
252.451	-101.55
252.668	-23.72
252.885	222.03
253.102	68.44
253.318	-74.92
253.535	70.48
253.752	-21.67
253.968	37.72
254.185	-95.4
254.401	78.68
254.618	103.25
254.835	29.52
255.051	164.69
255.268	62.29
255.484	86.87
255.701	45.91
255.917	52.05
256.134	-15.53
256.351	80.72
256.567	52.05
256.784	-13.48
257	-21.67
257.217	125.78
257.433	129.88
257.65	185.17
257.866	133.97
258.082	-76.97
258.299	25.43
258.515	80.72
258.732	-15.53
258.948	-1.19
259.165	50
259.381	-115.88
259.597	78.68
259.814	19.29
260.03	43.86
260.246	50
260.463	90.96
260.679	90.96
260.895	99.16
261.112	105.3
261.328	33.62
261.544	31.57
261.761	127.83
261.977	-11.43
262.193	-27.82
262.409	68.44
262.626	72.53
262.842	-23.72
263.058	-33.96
263.274	119.64
263.49	19.29
263.707	39.76
263.923	138.07
264.139	-44.2
264.355	58.2
264.571	117.59
264.787	50
265.004	125.78
265.22	-23.72
265.436	0.85
265.652	23.38
265.868	90.96
266.084	-91.31
266.3	60.24
266.516	-15.53
266.732	72.53
266.948	45.91
267.164	99.16
267.38	84.82
267.596	93.01
267.812	181.07
268.028	39.76
268.244	64.34
268.46	105.3
268.676	-9.39
268.892	125.78
269.108	-68.78
269.324	-56.49
269.54	52.05
269.756	88.92
269.972	54.1
270.188	68.44
270.403	-31.91
270.619	25.43
270.835	90.96
271.051	78.68
271.267	-13.48
271.483	33.62
271.698	119.64
271.914	117.59
272.13	-15.53
272.346	29.52
272.562	62.29
272.777	129.88
272.993	80.72
273.209	23.38
273.425	160.59
273.64	-76.97
273.856	64.34
274.072	15.19
274.287	-60.59
274.503	103.25
274.719	150.36
274.934	-38.06
275.15	-38.06
275.366	-15.53
275.581	11.09
275.797	47.96
276.012	-87.21
276.228	4.95
276.444	52.05
276.659	170.83
276.875	27.48
277.09	97.11
277.306	-38.06
277.521	88.92
277.737	52.05
277.952	78.68
278.168	2.9
278.383	35.67
278.599	-1.19
278.814	13.14
279.03	47.96
279.245	62.29
279.461	60.24
279.676	146.26
279.892	-93.35
280.107	31.57
280.322	-31.91
280.538	168.79
280.753	86.87
280.969	43.86
281.184	60.24
281.399	176.98
281.615	45.91
281.83	86.87
282.045	-27.82
282.26	43.86
282.476	74.58
282.691	119.64
282.906	66.39
283.122	70.48
283.337	0.85
283.552	123.73
283.767	29.52
283.983	31.57
284.198	2.9
284.413	68.44
284.628	-70.83
284.843	76.63
285.058	80.72
285.274	-15.53
285.489	0.85
285.704	27.48
285.919	-33.96
286.134	2.9
286.349	25.43
286.564	29.52
286.779	181.07
286.995	47.96
287.21	-27.82
287.425	56.15
287.64	11.09
287.855	107.35
288.07	-64.68
288.285	66.39
288.5	119.64
288.715	103.25
288.93	4.95
289.145	-66.73
289.36	66.39
289.575	70.48
289.79	105.3
290.004	45.91
290.219	123.73
290.434	88.92
290.649	-81.07
290.864	45.91
291.079	39.76
291.294	25.43
291.509	99.16
291.724	72.53
291.938	27.48
292.153	158.55
292.368	35.67
292.583	70.48
292.798	52.05
293.012	72.53
293.227	47.96
293.442	41.81
293.657	113.49
293.871	121.68
294.086	52.05
294.301	201.55
294.516	80.72
294.73	115.54
294.945	-25.77
295.16	47.96
295.374	58.2
295.589	101.2
295.804	-46.25
296.018	11.09
296.233	105.3
296.447	107.35
296.662	13.14
296.877	82.77
297.091	66.39
297.306	4.95
297.52	29.52
297.735	117.59
297.949	93.01
298.164	66.39
298.378	78.68
298.593	-19.63
298.807	39.76
299.022	52.05
299.236	174.93
299.451	54.1
299.665	31.57
299.88	-17.58
300.094	88.92
300.309	4.95
300.523	17.24
300.737	74.58
300.952	80.72
301.166	29.52
301.381	-19.63
301.595	43.86
301.809	56.15
302.024	25.43
302.238	-38.06
302.452	95.06
302.667	62.29
302.881	99.16
303.095	35.67
303.309	15.19
303.524	43.86
303.738	39.76
303.952	4.95
304.166	64.34
304.381	-103.59
304.595	148.31
304.809	-23.72
305.023	88.92
305.237	-46.25
305.452	7
305.666	80.72
305.88	88.92
306.094	88.92
306.308	119.64
306.522	146.26
306.736	68.44
306.95	97.11
307.164	121.68
307.379	84.82
307.593	113.49
307.807	181.07
308.021	60.24
308.235	66.39
308.449	-23.72
308.663	47.96
308.877	222.03
309.091	154.45
309.305	146.26
309.519	-44.2
309.733	88.92
309.947	-58.54
310.161	33.62
310.374	121.68
310.588	140.12
310.802	-44.2
311.016	31.57
311.23	105.3
311.444	31.57
311.658	90.96
311.872	213.84
312.085	131.92
312.299	121.68
312.513	158.55
312.727	15.19
312.941	2.9
313.154	29.52
313.368	72.53
313.582	50
313.796	97.11
314.009	74.58
314.223	127.83
314.437	74.58
314.651	109.4
314.864	15.19
315.078	23.38
315.292	-38.06
315.505	33.62
315.719	179.03
315.933	54.1
316.146	17.24
316.36	31.57
316.573	117.59
316.787	129.88
317.001	7
317.214	56.15
317.428	113.49
317.641	-19.63
317.855	-3.24
318.068	29.52
318.282	86.87
318.495	148.31
318.709	43.86
318.922	62.29
319.136	125.78
319.349	41.81
319.563	13.14
319.776	11.09
319.99	-33.96
320.203	68.44
320.417	93.01
320.63	119.64
320.843	181.07
321.057	50
321.27	72.53
321.483	86.87
321.697	95.06
321.91	107.35
322.124	29.52
322.337	72.53
322.55	78.68
322.763	31.57
322.977	-5.29
323.19	45.91
323.403	95.06
323.617	54.1
323.83	158.55
324.043	-29.87
324.256	105.3
324.469	-54.44
324.683	136.02
324.896	88.92
325.109	58.2
325.322	25.43
325.535	115.54
325.748	123.73
325.962	70.48
326.175	62.29
326.388	76.63
326.601	99.16
326.814	31.57
327.027	31.57
327.24	127.83
327.453	-38.06
327.666	90.96
327.879	82.77
328.092	105.3
328.305	111.44
328.518	11.09
328.731	0.85
328.944	-33.96
329.157	-13.48
329.37	88.92
329.583	254.8
329.796	150.36
330.009	-36.01
330.222	54.1
330.435	148.31
330.648	19.29
330.861	45.91
331.073	56.15
331.286	136.02
331.499	41.81
331.712	47.96
331.925	31.57
332.138	78.68
332.35	125.78
332.563	13.14
332.776	99.16
332.989	-17.58
333.202	-1.19
333.414	-1.19
333.627	68.44
333.84	2.9
334.053	70.48
334.265	76.63
334.478	62.29
334.691	15.19
334.903	58.2
335.116	-46.25
335.329	31.57
335.541	111.44
335.754	195.41
335.966	19.29
336.179	123.73
336.392	47.96
336.604	54.1
336.817	148.31
337.029	31.57
337.242	2.9
337.454	97.11
337.667	47.96
337.88	111.44
338.092	76.63
338.305	37.72
338.517	-25.77
338.729	86.87
338.942	101.2
339.154	-42.15
339.367	-11.43
339.579	41.81
339.792	86.87
340.004	93.01
340.217	99.16
340.429	72.53
340.641	52.05
340.854	-72.87
341.066	0.85
341.278	156.5
341.491	93.01
341.703	4.95
341.915	-5.29
342.128	50
342.34	-3.24
342.552	-19.63
342.764	105.3
342.977	31.57
343.189	35.67
343.401	45.91
343.613	-31.91
343.826	140.12
344.038	2.9
344.25	140.12
344.462	17.24
344.674	62.29
344.886	13.14
345.099	43.86
345.311	33.62
345.523	7
345.735	-46.25
345.947	33.62
346.159	27.48
346.371	95.06
346.583	-66.73
346.795	234.32
347.007	-38.06
347.219	68.44
347.431	56.15
347.643	193.36
347.855	-79.02
348.067	107.35
348.279	-87.21
348.491	39.76
348.703	45.91
348.915	9.05
349.127	50
349.339	99.16
349.551	62.29
349.763	84.82
349.975	80.72
350.187	45.91
350.399	211.79
350.61	95.06
350.822	64.34
351.034	33.62
351.246	-19.63
351.458	117.59
351.669	103.25
351.881	152.4
352.093	78.68
352.305	127.83
352.517	13.14
352.728	76.63
352.94	17.24
353.152	133.97
353.363	-44.2
353.575	39.76
353.787	187.22
353.999	76.63
354.21	168.79
354.422	11.09
354.633	-23.72
354.845	74.58
355.057	11.09
355.268	7
355.48	127.83
355.692	-99.5
355.903	80.72
356.115	-19.63
356.326	-25.77
356.538	195.41
356.749	88.92
356.961	99.16
357.172	56.15
357.384	-72.87
357.595	166.74
357.807	103.25
358.018	-9.39
358.23	37.72
358.441	150.36
358.653	52.05
358.864	52.05
359.075	-56.49
359.287	-29.87
359.498	136.02
359.709	-3.24
359.921	31.57
360.132	43.86
360.344	-11.43
360.555	-46.25
360.766	29.52
360.977	37.72
361.189	78.68
361.4	50
361.611	199.51
361.823	146.26
362.034	86.87
362.245	-60.59
362.456	27.48
362.667	84.82
362.879	2.9
363.09	107.35
363.301	43.86
363.512	47.96
363.723	39.76
363.935	47.96
364.146	217.94
364.357	74.58
364.568	158.55
364.779	-5.29
364.99	179.03
365.201	47.96
365.412	78.68
365.623	-105.64
365.834	-7.34
366.045	76.63
366.256	90.96
366.467	150.36
366.678	-48.3
366.889	-27.82
367.1	-25.77
367.311	219.99
367.522	-33.96
367.733	82.77
367.944	93.01
368.155	17.24
368.366	117.59
368.577	181.07
368.788	121.68
368.999	-50.35
369.209	74.58
369.42	236.37
369.631	224.08
369.842	101.2
370.053	21.33
370.264	111.44
370.474	-62.63
370.685	68.44
370.896	90.96
371.107	66.39
371.317	37.72
371.528	-11.43
371.739	131.92
371.95	115.54
372.16	74.58
372.371	-1.19
372.582	23.38
372.792	82.77
373.003	82.77
373.214	109.4
373.424	107.35
373.635	-1.19
373.846	125.78
374.056	11.09
374.267	95.06
374.477	50
374.688	13.14
374.898	103.25
375.109	17.24
375.319	60.24
375.53	211.79
375.74	125.78
375.951	50
376.161	136.02
376.372	121.68
376.582	43.86
376.793	90.96
377.003	15.19
377.214	-54.44
377.424	123.73
377.635	54.1
377.845	2.9
378.055	133.97
378.266	11.09
378.476	52.05
378.686	33.62
378.897	13.14
379.107	129.88
379.317	66.39
379.528	15.19
379.738	105.3
379.948	0.85
380.158	140.12
380.369	103.25
380.579	174.93
380.789	68.44
380.999	56.15
381.21	62.29
381.42	160.59
381.63	107.35
381.84	121.68
382.05	109.4
382.261	47.96
382.471	84.82
382.681	-1.19
382.891	172.88
383.101	97.11
383.311	-15.53
383.521	56.15
383.731	35.67
383.941	93.01
384.151	80.72
384.361	56.15
384.571	95.06
384.781	109.4
384.991	189.27
385.201	158.55
385.411	144.21
385.621	50
385.831	50
386.041	68.44
386.251	25.43
386.461	203.6
386.671	109.4
386.881	58.2
387.091	78.68
387.301	154.45
387.511	103.25
387.72	62.29
387.93	156.5
388.14	-36.01
388.35	15.19
388.56	123.73
388.769	127.83
388.979	90.96
389.189	99.16
389.399	86.87
389.609	117.59
389.818	103.25
390.028	58.2
390.238	136.02
390.447	-68.78
390.657	136.02
390.867	39.76
391.076	-79.02
391.286	60.24
391.496	144.21
391.705	21.33
391.915	136.02
392.125	125.78
392.334	0.85
392.544	209.75
392.753	50
392.963	11.09
393.172	19.29
393.382	17.24
393.591	193.36
393.801	-46.25
394.01	84.82
394.22	140.12
394.429	52.05
394.639	0.85
394.848	80.72
395.058	64.34
395.267	103.25
395.477	84.82
395.686	97.11
395.895	238.42
396.105	172.88
396.314	66.39
396.524	23.38
396.733	-25.77
396.942	103.25
397.152	90.96
397.361	119.64
397.57	117.59
397.78	23.38
397.989	66.39
398.198	224.08
398.407	17.24
398.617	23.38
398.826	84.82
399.035	29.52
399.244	101.2
399.453	97.11
399.663	123.73
399.872	150.36
400.081	-56.49
400.29	185.17
400.499	15.19
400.708	121.68
400.917	-1.19
401.127	52.05
401.336	58.2
401.545	199.51
401.754	191.31
401.963	140.12
402.172	15.19
402.381	-58.54
402.59	29.52
402.799	25.43
403.008	101.2
403.217	9.05
403.426	54.1
403.635	-40.11
403.844	62.29
404.053	105.3
404.262	41.81
404.471	203.6
404.68	103.25
404.888	11.09
405.097	76.63
405.306	60.24
405.515	78.68
405.724	37.72
405.933	181.07
406.142	107.35
406.35	160.59
406.559	21.33
406.768	50
406.977	211.79
407.185	41.81
407.394	105.3
407.603	19.29
407.812	115.54
408.02	146.26
408.229	17.24
408.438	80.72
408.646	-1.19
408.855	31.57
409.064	29.52
409.272	-1.19
409.481	101.2
409.69	-29.87
409.898	-15.53
410.107	66.39
410.315	170.83
410.524	2.9
410.733	95.06
410.941	119.64
411.15	105.3
411.358	119.64
411.567	193.36
411.775	58.2
411.984	-40.11
412.192	37.72
412.401	93.01
412.609	176.98
412.818	82.77
413.026	117.59
413.234	13.14
413.443	121.68
413.651	19.29
413.86	64.34
414.068	142.16
414.276	179.03
414.485	15.19
414.693	193.36
414.901	248.66
415.11	156.5
415.318	47.96
415.526	54.1
415.734	215.89
415.943	127.83
416.151	160.59
416.359	43.86
416.567	41.81
416.776	152.4
416.984	99.16
417.192	242.51
417.4	-19.63
417.608	25.43
417.817	-38.06
418.025	111.44
418.233	189.27
418.441	11.09
418.649	-29.87
418.857	58.2
419.065	176.98
419.273	-15.53
419.481	93.01
419.689	95.06
419.897	-7.34
420.105	-23.72
420.313	142.16
420.521	234.32
420.729	109.4
420.937	109.4
421.145	4.95
421.353	127.83
421.561	131.92
421.769	119.64
421.977	2.9
422.185	93.01
422.393	31.57
422.601	176.98
422.809	95.06
423.017	88.92
423.224	50
423.432	90.96
423.64	88.92
423.848	248.66
424.056	142.16
424.263	119.64
424.471	39.76
424.679	185.17
424.887	58.2
425.094	111.44
425.302	60.24
425.51	70.48
425.718	107.35
425.925	113.49
426.133	86.87
426.341	209.75
426.548	37.72
426.756	72.53
426.964	-3.24
427.171	39.76
427.379	64.34
427.586	105.3
427.794	136.02
428.001	203.6
428.209	95.06
428.417	199.51
428.624	191.31
428.832	174.93
429.039	101.2
429.247	84.82
429.454	203.6
429.662	260.95
429.869	136.02
430.076	93.01
430.284	156.5
430.491	183.12
430.699	111.44
430.906	170.83
431.114	158.55
431.321	217.94
431.528	95.06
431.736	105.3
431.943	193.36
432.15	170.83
432.358	232.27
432.565	217.94
432.772	66.39
432.979	234.32
433.187	129.88
433.394	322.38
433.601	93.01
433.808	279.38
434.016	228.18
434.223	246.61
434.43	207.7
434.637	219.99
434.844	322.38
435.052	281.43
435.259	285.52
435.466	215.89
435.673	295.76
435.88	260.95
436.087	324.43
436.294	265.04
436.501	353.1
436.708	228.18
436.915	281.43
437.122	324.43
437.329	228.18
437.537	330.58
437.743	303.95
437.95	422.73
438.157	385.87
438.364	365.39
438.571	340.82
438.778	381.78
438.985	447.31
439.192	502.61
439.399	432.97
439.606	471.89
439.813	478.03
440.02	584.52
440.227	602.96
440.433	631.63
440.64	570.19
440.847	473.93
441.054	521.04
441.261	795.47
441.467	555.85
441.674	621.39
441.881	635.72
442.088	641.87
442.294	719.69
442.501	817.99
442.708	779.08
442.914	803.66
443.121	856.9
443.328	838.47
443.534	918.34
443.741	809.8
443.948	772.94
444.154	959.3
444.361	1057.61
444.568	940.87
444.774	918.34
444.981	973.64
445.187	1250.11
445.394	1088.32
445.6	1182.53
445.807	1278.79
446.013	1143.62
446.22	1219.39
446.426	1315.65
446.633	1459.01
446.839	1649.47
447.046	1344.32
447.252	1669.95
447.459	1661.76
447.665	1624.89
447.871	1801.02
448.078	1798.97
448.284	1848.12
448.491	1876.79
448.697	2001.72
448.903	2120.5
449.11	2263.86
449.316	2079.54
449.522	2272.05
449.728	2382.64
449.935	2478.9
450.141	2437.94
450.347	2677.55
450.553	2566.96
450.76	2638.64
450.966	2831.15
451.172	2845.48
451.378	2970.41
451.584	3195.68
451.791	3367.71
451.997	3455.78
452.203	3509.02
452.409	3654.43
452.615	3746.59
452.821	3777.31
453.027	3775.26
453.233	4215.57
453.44	4121.37
453.646	4414.23
453.852	4512.53
454.058	4709.13
454.264	4807.44
454.47	5274.37
454.676	5247.75
454.882	5591.81
455.088	5327.62
455.294	5647.1
455.5	6013.69
455.705	6249.21
455.911	6290.17
456.117	6724.33
456.323	7068.39
456.529	6632.18
456.735	7488.23
456.941	7641.82
457.147	8164.06
457.352	8176.34
457.558	8196.82
457.764	9022.16
457.97	9222.86
458.176	9829.06
458.381	9925.31
458.587	10105.53
458.793	11008.69
458.999	10799.79
459.204	11971.23
459.41	12485.27
459.616	12243.61
459.821	12911.25
460.027	13769.35
460.233	13972.1
460.438	14074.49
460.644	14996.08
460.85	15100.53
461.055	15565.42
461.261	16540.25
461.466	16284.25
461.672	16441.95
461.878	18424.38
462.083	18401.85
462.289	18612.79
462.494	19325.49
462.7	19896.87
462.905	19765.8
463.111	21344.78
463.316	22348.29
463.522	22866.42
463.727	23677.42
463.932	24871.39
464.138	25272.79
464.343	26384.83
464.549	26270.15
464.754	28479.91
464.959	29227.42
465.165	29692.3
465.37	29524.37
465.575	29651.34
465.781	31379.83
465.986	32207.21
466.191	32055.66
466.397	32434.53
466.602	31289.72
466.807	32987.49
467.012	33638.74
467.218	34228.56
467.423	34242.89
467.628	35377.47
467.833	37069.09
468.038	36249.9
468.244	35692.85
468.449	37347.61
468.654	36886.82
468.859	36679.97
