Data from USB4F104151__38__10-24-48-038.txt Node

Date: Wed Feb 26 10:24:48 EST 2025
User: louis
Spectrometer: USB4F10415
Trigger mode: 4
Integration Time (sec): 1.000000E-1
Scans to average: 1
Electric dark correction enabled: true
Nonlinearity correction enabled: false
Boxcar width: 0
XAxis mode: Wavelengths
Number of Pixels in Spectrum: 3648
>>>>>Begin Spectral Data<<<<<
178.204	-394.58
178.424	-394.58
178.644	-394.58
178.864	-408.91
179.084	-335.18
179.304	15.02
179.524	-71
179.744	4.78
179.964	31.4
180.184	101.03
180.404	31.4
180.624	-52.56
180.844	-32.08
181.064	-95.57
181.283	47.79
181.503	-44.37
181.723	64.17
181.943	-68.95
182.163	158.38
182.383	33.45
182.602	62.12
182.822	158.38
183.042	66.22
183.262	-42.32
183.482	-13.65
183.701	-15.7
183.921	84.65
184.141	2.73
184.361	94.89
184.58	115.37
184.8	101.03
185.02	-40.28
185.239	129.7
185.459	90.79
185.679	82.6
185.898	-73.04
186.118	117.42
186.338	115.37
186.557	58.03
186.777	-120.15
186.997	-40.28
187.216	37.55
187.436	225.96
187.655	70.31
187.875	-7.51
188.095	8.87
188.314	144.04
188.534	86.7
188.753	-21.84
188.973	96.94
189.192	215.72
189.412	8.87
189.631	33.45
189.851	86.7
190.07	187.05
190.29	-71
190.509	-19.8
190.729	12.97
190.948	139.94
191.168	172.71
191.387	84.65
191.607	53.93
191.826	66.22
192.045	53.93
192.265	0.68
192.484	76.46
192.704	39.59
192.923	-17.75
193.142	125.61
193.362	19.11
193.581	135.85
193.8	29.35
194.02	109.23
194.239	121.51
194.458	41.64
194.678	43.69
194.897	55.98
195.116	68.27
195.335	4.78
195.555	148.14
195.774	80.55
195.993	158.38
196.212	66.22
196.432	45.74
196.651	47.79
196.87	62.12
197.089	322.21
197.308	45.74
197.528	90.79
197.747	-7.51
197.966	45.74
198.185	131.75
198.404	-3.41
198.623	154.28
198.842	117.42
199.062	164.52
199.281	125.61
199.5	2.73
199.719	66.22
199.938	37.55
200.157	94.89
200.376	105.13
200.595	166.57
200.814	125.61
201.033	-25.94
201.252	197.29
201.471	58.03
201.69	27.31
201.909	47.79
202.128	154.28
202.347	103.08
202.566	68.27
202.785	-107.86
203.004	-7.51
203.223	264.87
203.442	64.17
203.661	8.87
203.879	133.8
204.098	137.9
204.317	33.45
204.536	144.04
204.755	133.8
204.974	78.51
205.193	45.74
205.411	88.75
205.63	109.23
205.849	45.74
206.068	-9.56
206.287	-1.37
206.505	160.42
206.724	55.98
206.943	10.92
207.162	-9.56
207.381	146.09
207.599	8.87
207.818	70.31
208.037	-11.61
208.255	39.59
208.474	78.51
208.693	53.93
208.911	101.03
209.13	74.41
209.349	76.46
209.567	141.99
209.786	125.61
210.005	205.48
210.223	86.7
210.442	-116.05
210.661	-25.94
210.879	55.98
211.098	47.79
211.316	90.79
211.535	92.84
211.753	103.08
211.972	66.22
212.191	-19.8
212.409	49.83
212.628	74.41
212.846	-5.46
213.065	88.75
213.283	78.51
213.502	86.7
213.72	82.6
213.938	2.73
214.157	33.45
214.375	127.66
214.594	-66.9
214.812	74.41
215.031	17.07
215.249	29.35
215.467	107.18
215.686	43.69
215.904	125.61
216.122	80.55
216.341	115.37
216.559	49.83
216.778	117.42
216.996	121.51
217.214	-5.46
217.432	19.11
217.651	-48.47
217.869	25.26
218.087	21.16
218.306	43.69
218.524	-25.94
218.742	33.45
218.96	90.79
219.179	-44.37
219.397	-17.75
219.615	242.34
219.833	72.36
220.051	-21.84
220.27	72.36
220.488	113.32
220.706	33.45
220.924	17.07
221.142	23.21
221.36	68.27
221.578	96.94
221.796	-1.37
222.015	70.31
222.233	-9.56
222.451	240.3
222.669	-25.94
222.887	94.89
223.105	4.78
223.323	27.31
223.541	45.74
223.759	55.98
223.977	62.12
224.195	133.8
224.413	31.4
224.631	144.04
224.849	111.27
225.067	205.48
225.285	31.4
225.503	19.11
225.721	-99.67
225.939	94.89
226.157	51.88
226.375	185
226.592	23.21
226.81	23.21
227.028	148.14
227.246	76.46
227.464	107.18
227.682	150.18
227.9	160.42
228.117	146.09
228.335	51.88
228.553	-44.37
228.771	43.69
228.989	53.93
229.206	107.18
229.424	94.89
229.642	58.03
229.86	-1.37
230.077	90.79
230.295	72.36
230.513	170.66
230.731	74.41
230.948	127.66
231.166	168.62
231.384	92.84
231.601	-1.37
231.819	250.53
232.037	-38.23
232.254	2.73
232.472	70.31
232.689	8.87
232.907	168.62
233.125	17.07
233.342	88.75
233.56	62.12
233.777	33.45
233.995	113.32
234.213	58.03
234.43	119.46
234.648	37.55
234.865	-3.41
235.083	98.99
235.3	64.17
235.518	98.99
235.735	88.75
235.953	78.51
236.17	33.45
236.388	31.4
236.605	86.7
236.822	21.16
237.04	125.61
237.257	64.17
237.475	-75.09
237.692	21.16
237.909	144.04
238.127	2.73
238.344	113.32
238.562	43.69
238.779	-68.95
238.996	-25.94
239.214	23.21
239.431	80.55
239.648	-30.04
239.865	135.85
240.083	66.22
240.3	64.17
240.517	49.83
240.735	60.07
240.952	111.27
241.169	68.27
241.386	39.59
241.603	0.68
241.821	-73.04
242.038	117.42
242.255	137.9
242.472	4.78
242.689	94.89
242.907	127.66
243.124	31.4
243.341	62.12
243.558	45.74
243.775	-19.8
243.992	12.97
244.209	146.09
244.426	185
244.643	37.55
244.86	-34.13
245.078	176.81
245.295	-11.61
245.512	113.32
245.729	47.79
245.946	58.03
246.163	107.18
246.38	25.26
246.597	111.27
246.814	68.27
247.031	27.31
247.248	37.55
247.464	82.6
247.681	144.04
247.898	31.4
248.115	123.56
248.332	107.18
248.549	193.19
248.766	109.23
248.983	51.88
249.2	92.84
249.417	123.56
249.633	47.79
249.85	-11.61
250.067	74.41
250.284	21.16
250.501	72.36
250.717	94.89
250.934	31.4
251.151	107.18
251.368	37.55
251.585	64.17
251.801	41.64
252.018	21.16
252.235	107.18
252.451	41.64
252.668	0.68
252.885	80.55
253.102	17.07
253.318	80.55
253.535	35.5
253.752	80.55
253.968	21.16
254.185	-34.13
254.401	64.17
254.618	101.03
254.835	45.74
255.051	228.01
255.268	105.13
255.484	94.89
255.701	60.07
255.917	31.4
256.134	-58.71
256.351	58.03
256.567	-44.37
256.784	88.75
257	-46.42
257.217	137.9
257.433	64.17
257.65	0.68
257.866	141.99
258.082	21.16
258.299	29.35
258.515	82.6
258.732	-5.46
258.948	-66.9
259.165	72.36
259.381	-30.04
259.597	105.13
259.814	15.02
260.03	47.79
260.246	15.02
260.463	90.79
260.679	121.51
260.895	135.85
261.112	31.4
261.328	37.55
261.544	-21.84
261.761	180.9
261.977	2.73
262.193	10.92
262.409	74.41
262.626	86.7
262.842	60.07
263.058	-17.75
263.274	98.99
263.49	66.22
263.707	115.37
263.923	117.42
264.139	27.31
264.355	80.55
264.571	92.84
264.787	82.6
265.004	158.38
265.22	53.93
265.436	-44.37
265.652	37.55
265.868	152.23
266.084	-27.99
266.3	88.75
266.516	0.68
266.732	76.46
266.948	-40.28
267.164	-7.51
267.38	129.7
267.596	131.75
267.812	156.33
268.028	10.92
268.244	23.21
268.46	17.07
268.676	47.79
268.892	111.27
269.108	-50.52
269.324	55.98
269.54	-64.85
269.756	60.07
269.972	-38.23
270.188	2.73
270.403	29.35
270.619	2.73
270.835	92.84
271.051	-15.7
271.267	33.45
271.483	-89.43
271.698	117.42
271.914	137.9
272.13	62.12
272.346	-11.61
272.562	-3.41
272.777	168.62
272.993	53.93
273.209	33.45
273.425	66.22
273.64	4.78
273.856	90.79
274.072	-40.28
274.287	33.45
274.503	137.9
274.719	185
274.934	49.83
275.15	-79.19
275.366	12.97
275.581	-52.56
275.797	19.11
276.012	31.4
276.228	35.5
276.444	49.83
276.659	144.04
276.875	0.68
277.09	76.46
277.306	-17.75
277.521	37.55
277.737	55.98
277.952	141.99
278.168	31.4
278.383	78.51
278.599	58.03
278.814	146.09
279.03	51.88
279.245	121.51
279.461	8.87
279.676	80.55
279.892	-23.89
280.107	-68.95
280.322	-54.61
280.538	131.75
280.753	19.11
280.969	27.31
281.184	74.41
281.399	121.51
281.615	80.55
281.83	96.94
282.045	-46.42
282.26	-7.51
282.476	8.87
282.691	58.03
282.906	58.03
283.122	55.98
283.337	-32.08
283.552	78.51
283.767	12.97
283.983	107.18
284.198	6.83
284.413	125.61
284.628	-15.7
284.843	23.21
285.058	107.18
285.274	66.22
285.489	-42.32
285.704	74.41
285.919	-48.47
286.134	19.11
286.349	55.98
286.564	-3.41
286.779	113.32
286.995	-15.7
287.21	15.02
287.425	4.78
287.64	-9.56
287.855	105.13
288.07	-38.23
288.285	172.71
288.5	105.13
288.715	39.59
288.93	-1.37
289.145	-3.41
289.36	123.56
289.575	33.45
289.79	131.75
290.004	6.83
290.219	101.03
290.434	27.31
290.649	47.79
290.864	8.87
291.079	-32.08
291.294	49.83
291.509	98.99
291.724	68.27
291.938	-11.61
292.153	41.64
292.368	4.78
292.583	51.88
292.798	127.66
293.012	74.41
293.227	-3.41
293.442	12.97
293.657	125.61
293.871	105.13
294.086	62.12
294.301	133.8
294.516	78.51
294.73	37.55
294.945	-109.91
295.16	8.87
295.374	182.95
295.589	176.81
295.804	-23.89
296.018	15.02
296.233	113.32
296.447	62.12
296.662	-7.51
296.877	60.07
297.091	131.75
297.306	0.68
297.52	33.45
297.735	62.12
297.949	121.51
298.164	101.03
298.378	21.16
298.593	92.84
298.807	-30.04
299.022	41.64
299.236	170.66
299.451	37.55
299.665	101.03
299.88	23.21
300.094	-15.7
300.309	4.78
300.523	64.17
300.737	41.64
300.952	96.94
301.166	113.32
301.381	43.69
301.595	10.92
301.809	-11.61
302.024	10.92
302.238	-5.46
302.452	152.23
302.667	70.31
302.881	168.62
303.095	168.62
303.309	141.99
303.524	62.12
303.738	94.89
303.952	51.88
304.166	72.36
304.381	-120.15
304.595	154.28
304.809	64.17
305.023	135.85
305.237	39.59
305.452	0.68
305.666	66.22
305.88	96.94
306.094	55.98
306.308	21.16
306.522	70.31
306.736	19.11
306.95	55.98
307.164	4.78
307.379	51.88
307.593	135.85
307.807	88.75
308.021	189.1
308.235	29.35
308.449	-46.42
308.663	49.83
308.877	201.38
309.091	101.03
309.305	82.6
309.519	25.26
309.733	133.8
309.947	-81.24
310.161	51.88
310.374	105.13
310.588	201.38
310.802	19.11
311.016	72.36
311.23	109.23
311.444	-9.56
311.658	33.45
311.872	160.42
312.085	39.59
312.299	215.72
312.513	127.66
312.727	101.03
312.941	-32.08
313.154	51.88
313.368	21.16
313.582	53.93
313.796	55.98
314.009	62.12
314.223	195.24
314.437	23.21
314.651	-7.51
314.864	2.73
315.078	-25.94
315.292	-103.76
315.505	10.92
315.719	-5.46
315.933	111.27
316.146	25.26
316.36	-11.61
316.573	127.66
316.787	74.41
317.001	27.31
317.214	8.87
317.428	39.59
317.641	-52.56
317.855	-15.7
318.068	43.69
318.282	39.59
318.495	160.42
318.709	58.03
318.922	17.07
319.136	156.33
319.349	70.31
319.563	62.12
319.776	25.26
319.99	-66.9
320.203	72.36
320.417	-30.04
320.63	51.88
320.843	144.04
321.057	64.17
321.27	-21.84
321.483	90.79
321.697	107.18
321.91	43.69
322.124	72.36
322.337	39.59
322.55	23.21
322.763	76.46
322.977	62.12
323.19	-11.61
323.403	41.64
323.617	115.37
323.83	107.18
324.043	90.79
324.256	60.07
324.469	-11.61
324.683	154.28
324.896	101.03
325.109	39.59
325.322	-58.71
325.535	135.85
325.748	66.22
325.962	6.83
326.175	101.03
326.388	31.4
326.601	111.27
326.814	23.21
327.027	-44.37
327.24	187.05
327.453	-5.46
327.666	127.66
327.879	158.38
328.092	94.89
328.305	98.99
328.518	-13.65
328.731	62.12
328.944	90.79
329.157	125.61
329.37	-5.46
329.583	205.48
329.796	176.81
330.009	-15.7
330.222	82.6
330.435	-5.46
330.648	0.68
330.861	88.75
331.073	35.5
331.286	117.42
331.499	58.03
331.712	-83.28
331.925	-64.85
332.138	74.41
332.35	166.57
332.563	51.88
332.776	148.14
332.989	25.26
333.202	19.11
333.414	-5.46
333.627	131.75
333.84	43.69
334.053	43.69
334.265	23.21
334.478	0.68
334.691	-21.84
334.903	-44.37
335.116	8.87
335.329	12.97
335.541	121.51
335.754	215.72
335.966	10.92
336.179	27.31
336.392	94.89
336.604	49.83
336.817	135.85
337.029	133.8
337.242	78.51
337.454	66.22
337.667	43.69
337.88	109.23
338.092	146.09
338.305	94.89
338.517	-97.62
338.729	70.31
338.942	111.27
339.154	-44.37
339.367	-25.94
339.579	35.5
339.792	-79.19
340.004	148.14
340.217	80.55
340.429	117.42
340.641	-19.8
340.854	49.83
341.066	12.97
341.278	127.66
341.491	187.05
341.703	98.99
341.915	12.97
342.128	111.27
342.34	29.35
342.552	-17.75
342.764	58.03
342.977	96.94
343.189	94.89
343.401	68.27
343.613	-3.41
343.826	39.59
344.038	37.55
344.25	74.41
344.462	-9.56
344.674	15.02
344.886	-32.08
345.099	68.27
345.311	111.27
345.523	29.35
345.735	2.73
345.947	86.7
346.159	170.66
346.371	70.31
346.583	41.64
346.795	271.01
347.007	2.73
347.219	6.83
347.431	94.89
347.643	103.08
347.855	-11.61
348.067	137.9
348.279	-36.18
348.491	23.21
348.703	88.75
348.915	19.11
349.127	-9.56
349.339	92.84
349.551	45.74
349.763	166.57
349.975	41.64
350.187	68.27
350.399	158.38
350.61	105.13
350.822	72.36
351.034	53.93
351.246	144.04
351.458	70.31
351.669	39.59
351.881	43.69
352.093	41.64
352.305	139.94
352.517	121.51
352.728	121.51
352.94	-15.7
353.152	80.55
353.363	8.87
353.575	101.03
353.787	86.7
353.999	2.73
354.21	162.47
354.422	6.83
354.633	66.22
354.845	23.21
355.057	43.69
355.268	23.21
355.48	80.55
355.692	-71
355.903	12.97
356.115	76.46
356.326	-87.38
356.538	125.61
356.749	45.74
356.961	131.75
357.172	62.12
357.384	-30.04
357.595	191.14
357.807	2.73
358.018	25.26
358.23	74.41
358.441	148.14
358.653	45.74
358.864	92.84
359.075	17.07
359.287	19.11
359.498	109.23
359.709	82.6
359.921	12.97
360.132	37.55
360.344	8.87
360.555	17.07
360.766	45.74
360.977	55.98
361.189	219.82
361.4	-9.56
361.611	139.94
361.823	129.7
362.034	78.51
362.245	-97.62
362.456	107.18
362.667	98.99
362.879	37.55
363.09	133.8
363.301	72.36
363.512	33.45
363.723	23.21
363.935	-3.41
364.146	119.46
364.357	98.99
364.568	51.88
364.779	-9.56
364.99	144.04
365.201	-34.13
365.412	137.9
365.623	-85.33
365.834	27.31
366.045	25.26
366.256	82.6
366.467	66.22
366.678	68.27
366.889	33.45
367.1	-13.65
367.311	135.85
367.522	76.46
367.733	62.12
367.944	72.36
368.155	0.68
368.366	84.65
368.577	113.32
368.788	80.55
368.999	-111.96
369.209	68.27
369.42	152.23
369.631	219.82
369.842	51.88
370.053	-15.7
370.264	170.66
370.474	-68.95
370.685	66.22
370.896	55.98
371.107	113.32
371.317	86.7
371.528	88.75
371.739	197.29
371.95	109.23
372.16	62.12
372.371	-58.71
372.582	49.83
372.792	109.23
373.003	53.93
373.214	80.55
373.424	62.12
373.635	-9.56
373.846	121.51
374.056	12.97
374.267	135.85
374.477	68.27
374.688	19.11
374.898	76.46
375.109	62.12
375.319	-11.61
375.53	66.22
375.74	150.18
375.951	35.5
376.161	55.98
376.372	164.52
376.582	64.17
376.793	74.41
377.003	-13.65
377.214	-66.9
377.424	84.65
377.635	76.46
377.845	29.35
378.055	144.04
378.266	-40.28
378.476	-25.94
378.686	68.27
378.897	123.56
379.107	111.27
379.317	72.36
379.528	2.73
379.738	12.97
379.948	-21.84
380.158	125.61
380.369	49.83
380.579	-5.46
380.789	88.75
380.999	-11.61
381.21	109.23
381.42	238.25
381.63	35.5
381.84	72.36
382.05	115.37
382.261	78.51
382.471	115.37
382.681	-21.84
382.891	146.09
383.101	60.07
383.311	31.4
383.521	45.74
383.731	64.17
383.941	90.79
384.151	84.65
384.361	25.26
384.571	70.31
384.781	47.79
384.991	213.67
385.201	221.86
385.411	78.51
385.621	45.74
385.831	27.31
386.041	45.74
386.251	4.78
386.461	117.42
386.671	-7.51
386.881	53.93
387.091	10.92
387.301	133.8
387.511	31.4
387.72	86.7
387.93	168.62
388.14	-75.09
388.35	86.7
388.56	66.22
388.769	166.57
388.979	47.79
389.189	6.83
389.399	47.79
389.609	129.7
389.818	41.64
390.028	51.88
390.238	86.7
390.447	-11.61
390.657	33.45
390.867	103.08
391.076	-38.23
391.286	86.7
391.496	-23.89
391.705	43.69
391.915	98.99
392.125	195.24
392.334	12.97
392.544	78.51
392.753	82.6
392.963	0.68
393.172	86.7
393.382	66.22
393.591	185
393.801	-7.51
394.01	152.23
394.22	62.12
394.429	129.7
394.639	47.79
394.848	6.83
395.058	45.74
395.267	64.17
395.477	39.59
395.686	49.83
395.895	238.25
396.105	197.29
396.314	129.7
396.524	78.51
396.733	113.32
396.942	74.41
397.152	37.55
397.361	121.51
397.57	62.12
397.78	45.74
397.989	62.12
398.198	113.32
398.407	21.16
398.617	43.69
398.826	113.32
399.035	8.87
399.244	-25.94
399.453	31.4
399.663	35.5
399.872	15.02
400.081	21.16
400.29	172.71
400.499	33.45
400.708	111.27
400.917	17.07
401.127	-5.46
401.336	33.45
401.545	62.12
401.754	170.66
401.963	129.7
402.172	-111.96
402.381	62.12
402.59	31.4
402.799	-1.37
403.008	101.03
403.217	105.13
403.426	127.66
403.635	27.31
403.844	94.89
404.053	115.37
404.262	-40.28
404.471	191.14
404.68	66.22
404.888	0.68
405.097	74.41
405.306	105.13
405.515	119.46
405.724	35.5
405.933	123.56
406.142	90.79
406.35	80.55
406.559	-36.18
406.768	62.12
406.977	101.03
407.185	107.18
407.394	-42.32
407.603	-30.04
407.812	80.55
408.02	68.27
408.229	41.64
408.438	107.18
408.646	-7.51
408.855	146.09
409.064	27.31
409.272	49.83
409.481	105.13
409.69	19.11
409.898	33.45
410.107	45.74
410.315	199.34
410.524	-15.7
410.733	80.55
410.941	78.51
411.15	121.51
411.358	41.64
411.567	135.85
411.775	68.27
411.984	84.65
412.192	117.42
412.401	103.08
412.609	180.9
412.818	92.84
413.026	125.61
413.234	43.69
413.443	139.94
413.651	55.98
413.86	37.55
414.068	109.23
414.276	209.58
414.485	4.78
414.693	94.89
414.901	168.62
415.11	47.79
415.318	51.88
415.526	62.12
415.734	117.42
415.943	39.59
416.151	135.85
416.359	27.31
416.567	58.03
416.776	127.66
416.984	98.99
417.192	178.86
417.4	6.83
417.608	66.22
417.817	27.31
418.025	82.6
418.233	168.62
418.441	41.64
418.649	8.87
418.857	96.94
419.065	166.57
419.273	49.83
419.481	58.03
419.689	80.55
419.897	25.26
420.105	-89.43
420.313	105.13
420.521	207.53
420.729	109.23
420.937	-79.19
421.145	82.6
421.353	205.48
421.561	178.86
421.769	45.74
421.977	-42.32
422.185	182.95
422.393	43.69
422.601	47.79
422.809	94.89
423.017	-7.51
423.224	135.85
423.432	166.57
423.64	31.4
423.848	164.52
424.056	-32.08
424.263	60.07
424.471	86.7
424.679	215.72
424.887	45.74
425.094	162.47
425.302	127.66
425.51	76.46
425.718	92.84
425.925	66.22
426.133	29.35
426.341	205.48
426.548	94.89
426.756	90.79
426.964	133.8
427.171	51.88
427.379	162.47
427.586	80.55
427.794	76.46
428.001	189.1
428.209	109.23
428.417	150.18
428.624	80.55
428.832	137.9
429.039	58.03
429.247	94.89
429.454	105.13
429.662	266.92
429.869	137.9
430.076	90.79
430.284	172.71
430.491	127.66
430.699	166.57
430.906	117.42
431.114	182.95
431.321	152.23
431.528	115.37
431.736	135.85
431.943	152.23
432.15	170.66
432.358	191.14
432.565	207.53
432.772	-17.75
432.979	197.29
433.187	117.42
433.394	182.95
433.601	137.9
433.808	170.66
434.016	279.21
434.223	207.53
434.43	209.58
434.637	291.49
434.844	234.15
435.052	246.44
435.259	185
435.466	244.39
435.673	258.73
435.88	291.49
436.087	348.84
436.294	365.22
436.501	307.88
436.708	307.88
436.915	332.45
437.122	397.99
437.329	289.45
437.537	303.78
437.743	293.54
437.95	395.94
438.157	371.37
438.364	395.94
438.571	332.45
438.778	385.7
438.985	424.61
439.192	436.9
439.399	418.47
439.606	418.47
439.813	565.92
440.02	563.87
440.227	653.98
440.433	529.06
440.64	561.83
440.847	510.63
441.054	660.13
441.261	707.23
441.467	649.89
441.674	584.35
441.881	766.62
442.088	604.83
442.294	803.49
442.501	840.35
442.708	832.16
442.914	846.49
443.121	830.11
443.328	887.45
443.534	879.26
443.741	996
443.948	815.77
444.154	944.8
444.361	1211.03
444.568	998.04
444.774	1012.38
444.981	957.08
445.187	1133.21
445.394	1165.98
445.6	1178.26
445.807	1335.96
446.013	1319.57
446.22	1292.95
446.426	1415.83
446.633	1526.42
446.839	1616.53
447.046	1460.88
447.252	1651.35
447.459	1491.6
447.665	1602.19
447.871	1755.79
448.078	1981.07
448.284	1817.23
448.491	2071.18
448.697	2138.76
448.903	2196.11
449.11	2181.77
449.316	2245.26
449.522	2237.06
449.728	2443.91
449.935	2519.68
450.141	2486.92
450.347	2814.59
450.553	2679.43
450.76	2751.1
450.966	3005.05
451.172	2945.66
451.378	3203.71
451.584	3170.94
451.791	3488.37
451.997	3502.71
452.203	3449.46
452.409	3654.26
452.615	3957.36
452.821	3664.5
453.027	3897.97
453.233	4475.49
453.44	4192.87
453.646	4448.87
453.852	4588.13
454.058	4731.49
454.264	4936.29
454.47	5182.04
454.676	5395.03
454.882	5757.52
455.088	5565.01
455.294	5804.63
455.5	6232.65
455.705	6548.04
455.911	6492.74
456.117	6632.01
456.323	6996.54
456.529	6890.05
456.735	7643.7
456.941	7739.96
457.147	8061.49
457.352	8290.86
457.558	8514.09
457.764	9177.63
457.97	9245.21
458.176	9695.77
458.381	9953.81
458.587	10365.45
458.793	10766.85
458.999	10715.66
459.204	12399.09
459.41	12571.11
459.616	12327.41
459.821	13099.49
460.027	13738.46
460.233	14215.63
460.438	14209.49
460.644	15106.5
460.85	15223.23
461.055	15999.41
461.261	16757.16
461.466	16316.85
461.672	16777.64
461.878	18157.97
462.083	18127.25
462.289	18674.06
462.494	19626.37
462.7	19679.61
462.905	20175.22
463.111	21451.11
463.316	22671.7
463.522	22872.4
463.727	23449.92
463.932	24811.82
464.138	25317.67
464.343	26525.97
464.549	26636.56
464.754	28526.84
464.959	29122.8
465.165	29460.71
465.37	29409.51
465.575	29614.31
465.781	31701.19
465.986	32688.31
466.191	32389.31
466.397	32239.81
466.602	31625.42
466.807	33441.96
467.012	33835.17
467.218	34424.99
467.423	34353.31
467.628	35729.55
467.833	37220.47
468.038	36636.8
468.244	36176
468.449	37783.66
468.654	37017.72
468.859	36526.21
