Data from USB4F104151__27__09-26-29-414.txt Node

Date: Wed Feb 26 09:26:29 EST 2025
User: louis
Spectrometer: USB4F10415
Trigger mode: 4
Integration Time (sec): 1.000000E-1
Scans to average: 1
Electric dark correction enabled: true
Nonlinearity correction enabled: false
Boxcar width: 0
XAxis mode: Wavelengths
Number of Pixels in Spectrum: 3648
>>>>>Begin Spectral Data<<<<<
178.204	-279.72
178.424	-279.72
178.644	-279.72
178.864	-341.16
179.084	-375.97
179.304	-21.67
179.524	-21.67
179.744	15.19
179.964	29.52
180.184	7
180.404	-15.53
180.624	-9.39
180.844	15.19
181.064	2.9
181.283	4.95
181.503	-13.48
181.723	7
181.943	-130.22
182.163	150.36
182.383	39.76
182.602	93.01
182.822	158.55
183.042	54.1
183.262	-15.53
183.482	29.52
183.701	-15.53
183.921	-58.54
184.141	-70.83
184.361	54.1
184.58	78.68
184.8	15.19
185.02	11.09
185.239	123.73
185.459	47.96
185.679	54.1
185.898	-74.92
186.118	68.44
186.338	64.34
186.557	138.07
186.777	-5.29
186.997	-13.48
187.216	2.9
187.436	191.31
187.655	41.81
187.875	82.77
188.095	88.92
188.314	58.2
188.534	58.2
188.753	-27.82
188.973	109.4
189.192	131.92
189.412	0.85
189.631	27.48
189.851	70.48
190.07	76.63
190.29	-1.19
190.509	-36.01
190.729	56.15
190.948	142.16
191.168	232.27
191.387	80.72
191.607	21.33
191.826	66.39
192.045	52.05
192.265	-5.29
192.484	-29.87
192.704	-15.53
192.923	-46.25
193.142	138.07
193.362	99.16
193.581	183.12
193.8	72.53
194.02	101.2
194.239	-5.29
194.458	47.96
194.678	62.29
194.897	54.1
195.116	111.44
195.335	80.72
195.555	74.58
195.774	-33.96
195.993	95.06
196.212	27.48
196.432	66.39
196.651	80.72
196.87	0.85
197.089	215.89
197.308	107.35
197.528	2.9
197.747	-23.72
197.966	64.34
198.185	84.82
198.404	-23.72
198.623	158.55
198.842	56.15
199.062	115.54
199.281	54.1
199.5	93.01
199.719	93.01
199.938	90.96
200.157	76.63
200.376	41.81
200.595	93.01
200.814	72.53
201.033	-38.06
201.252	197.46
201.471	23.38
201.69	90.96
201.909	37.72
202.128	113.49
202.347	9.05
202.566	43.86
202.785	-40.11
203.004	-17.58
203.223	166.74
203.442	15.19
203.661	-25.77
203.879	35.67
204.098	152.4
204.317	-21.67
204.536	2.9
204.755	62.29
204.974	80.72
205.193	-38.06
205.411	117.59
205.63	138.07
205.849	-29.87
206.068	11.09
206.287	-11.43
206.505	60.24
206.724	80.72
206.943	-23.72
207.162	35.67
207.381	-31.91
207.599	-58.54
207.818	7
208.037	25.43
208.255	-46.25
208.474	97.11
208.693	27.48
208.911	72.53
209.13	88.92
209.349	115.54
209.567	39.76
209.786	131.92
210.005	99.16
210.223	35.67
210.442	2.9
210.661	39.76
210.879	68.44
211.098	64.34
211.316	72.53
211.535	90.96
211.753	58.2
211.972	93.01
212.191	-15.53
212.409	-40.11
212.628	121.68
212.846	-19.63
213.065	52.05
213.283	117.59
213.502	0.85
213.72	13.14
213.938	45.91
214.157	43.86
214.375	86.87
214.594	97.11
214.812	117.59
215.031	58.2
215.249	29.52
215.467	95.06
215.686	15.19
215.904	88.92
216.122	84.82
216.341	109.4
216.559	-29.87
216.778	52.05
216.996	133.97
217.214	-17.58
217.432	29.52
217.651	11.09
217.869	60.24
218.087	2.9
218.306	-33.96
218.524	97.11
218.742	-15.53
218.96	154.45
219.179	-31.91
219.397	41.81
219.615	256.85
219.833	105.3
220.051	9.05
220.27	117.59
220.488	33.62
220.706	29.52
220.924	-13.48
221.142	0.85
221.36	33.62
221.578	76.63
221.796	58.2
222.015	-29.87
222.233	27.48
222.451	140.12
222.669	27.48
222.887	41.81
223.105	-21.67
223.323	41.81
223.541	-13.48
223.759	7
223.977	31.57
224.195	144.21
224.413	129.88
224.631	125.78
224.849	35.67
225.067	205.65
225.285	-7.34
225.503	4.95
225.721	0.85
225.939	101.2
226.157	64.34
226.375	203.6
226.592	9.05
226.81	84.82
227.028	62.29
227.246	133.97
227.464	33.62
227.682	93.01
227.9	68.44
228.117	95.06
228.335	19.29
228.553	-7.34
228.771	76.63
228.989	23.38
229.206	50
229.424	27.48
229.642	41.81
229.86	-50.35
230.077	138.07
230.295	47.96
230.513	113.49
230.731	-21.67
230.948	123.73
231.166	176.98
231.384	-15.53
231.601	19.29
231.819	148.31
232.037	-27.82
232.254	2.9
232.472	95.06
232.689	-5.29
232.907	64.34
233.125	25.43
233.342	9.05
233.56	27.48
233.777	-29.87
233.995	-48.3
234.213	50
234.43	90.96
234.648	45.91
234.865	4.95
235.083	111.44
235.3	0.85
235.518	93.01
235.735	90.96
235.953	41.81
236.17	64.34
236.388	25.43
236.605	23.38
236.822	82.77
237.04	97.11
237.257	68.44
237.475	-9.39
237.692	119.64
237.909	54.1
238.127	2.9
238.344	17.24
238.562	101.2
238.779	-97.45
238.996	-9.39
239.214	2.9
239.431	56.15
239.648	27.48
239.865	99.16
240.083	88.92
240.3	-42.15
240.517	-13.48
240.735	74.58
240.952	111.44
241.169	72.53
241.386	13.14
241.603	35.67
241.821	-74.92
242.038	80.72
242.255	66.39
242.472	-64.68
242.689	64.34
242.907	31.57
243.124	-74.92
243.341	60.24
243.558	-29.87
243.775	-21.67
243.992	-33.96
244.209	2.9
244.426	170.83
244.643	70.48
244.86	41.81
245.078	113.49
245.295	70.48
245.512	-19.63
245.729	-15.53
245.946	54.1
246.163	15.19
246.38	-25.77
246.597	66.39
246.814	60.24
247.031	74.58
247.248	56.15
247.464	93.01
247.681	15.19
247.898	68.44
248.115	43.86
248.332	-21.67
248.549	154.45
248.766	129.88
248.983	74.58
249.2	74.58
249.417	88.92
249.633	35.67
249.85	88.92
250.067	56.15
250.284	97.11
250.501	15.19
250.717	31.57
250.934	-13.48
251.151	97.11
251.368	-17.58
251.585	176.98
251.801	52.05
252.018	-19.63
252.235	174.93
252.451	-23.72
252.668	117.59
252.885	101.2
253.102	140.12
253.318	25.43
253.535	2.9
253.752	-3.24
253.968	35.67
254.185	-1.19
254.401	-1.19
254.618	129.88
254.835	-48.3
255.051	133.97
255.268	111.44
255.484	109.4
255.701	37.72
255.917	80.72
256.134	-13.48
256.351	17.24
256.567	-38.06
256.784	45.91
257	-23.72
257.217	82.77
257.433	117.59
257.65	113.49
257.866	150.36
258.082	-54.44
258.299	-70.83
258.515	52.05
258.732	43.86
258.948	-58.54
259.165	23.38
259.381	25.43
259.597	29.52
259.814	11.09
260.03	35.67
260.246	41.81
260.463	150.36
260.679	47.96
260.895	41.81
261.112	-17.58
261.328	13.14
261.544	17.24
261.761	131.92
261.977	-33.96
262.193	2.9
262.409	62.29
262.626	78.68
262.842	70.48
263.058	50
263.274	80.72
263.49	105.3
263.707	107.35
263.923	84.82
264.139	45.91
264.355	56.15
264.571	74.58
264.787	123.73
265.004	101.2
265.22	15.19
265.436	-23.72
265.652	-17.58
265.868	78.68
266.084	-83.11
266.3	2.9
266.516	-56.49
266.732	-1.19
266.948	11.09
267.164	17.24
267.38	142.16
267.596	17.24
267.812	172.88
268.028	84.82
268.244	27.48
268.46	82.77
268.676	60.24
268.892	99.16
269.108	50
269.324	29.52
269.54	-50.35
269.756	35.67
269.972	47.96
270.188	29.52
270.403	-42.15
270.619	47.96
270.835	70.48
271.051	54.1
271.267	-38.06
271.483	7
271.698	70.48
271.914	105.3
272.13	43.86
272.346	2.9
272.562	66.39
272.777	84.82
272.993	25.43
273.209	-54.44
273.425	93.01
273.64	-1.19
273.856	60.24
274.072	-36.01
274.287	25.43
274.503	78.68
274.719	33.62
274.934	-38.06
275.15	-52.39
275.366	-48.3
275.581	-5.29
275.797	-15.53
276.012	11.09
276.228	-19.63
276.444	19.29
276.659	160.59
276.875	-7.34
277.09	68.44
277.306	52.05
277.521	88.92
277.737	29.52
277.952	170.83
278.168	41.81
278.383	35.67
278.599	95.06
278.814	-29.87
279.03	-13.48
279.245	138.07
279.461	66.39
279.676	95.06
279.892	-9.39
280.107	4.95
280.322	-21.67
280.538	74.58
280.753	-21.67
280.969	158.55
281.184	27.48
281.399	162.64
281.615	33.62
281.83	37.72
282.045	23.38
282.26	-5.29
282.476	47.96
282.691	56.15
282.906	45.91
283.122	52.05
283.337	-21.67
283.552	0.85
283.767	-5.29
283.983	43.86
284.198	-1.19
284.413	-21.67
284.628	-13.48
284.843	19.29
285.058	140.12
285.274	-38.06
285.489	7
285.704	15.19
285.919	7
286.134	64.34
286.349	101.2
286.564	-105.64
286.779	64.34
286.995	-3.24
287.21	-122.02
287.425	82.77
287.64	-23.72
287.855	88.92
288.07	2.9
288.285	123.73
288.5	99.16
288.715	93.01
288.93	9.05
289.145	-44.2
289.36	23.38
289.575	60.24
289.79	109.4
290.004	37.72
290.219	121.68
290.434	-17.58
290.649	50
290.864	78.68
291.079	56.15
291.294	11.09
291.509	39.76
291.724	88.92
291.938	109.4
292.153	72.53
292.368	11.09
292.583	72.53
292.798	88.92
293.012	13.14
293.227	97.11
293.442	70.48
293.657	27.48
293.871	127.83
294.086	90.96
294.301	99.16
294.516	43.86
294.73	31.57
294.945	-25.77
295.16	-9.39
295.374	101.2
295.589	76.63
295.804	-72.87
296.018	109.4
296.233	138.07
296.447	47.96
296.662	-36.01
296.877	52.05
297.091	47.96
297.306	66.39
297.52	-17.58
297.735	52.05
297.949	-56.49
298.164	43.86
298.378	90.96
298.593	-54.44
298.807	-66.73
299.022	29.52
299.236	174.93
299.451	-1.19
299.665	66.39
299.88	50
300.094	68.44
300.309	-21.67
300.523	64.34
300.737	-38.06
300.952	95.06
301.166	117.59
301.381	-23.72
301.595	23.38
301.809	58.2
302.024	25.43
302.238	4.95
302.452	105.3
302.667	23.38
302.881	107.35
303.095	60.24
303.309	50
303.524	-15.53
303.738	58.2
303.952	2.9
304.166	54.1
304.381	-70.83
304.595	183.12
304.809	-48.3
305.023	7
305.237	54.1
305.452	-27.82
305.666	107.35
305.88	58.2
306.094	99.16
306.308	52.05
306.522	131.92
306.736	72.53
306.95	154.45
307.164	15.19
307.379	60.24
307.593	80.72
307.807	88.92
308.021	68.44
308.235	56.15
308.449	13.14
308.663	93.01
308.877	207.7
309.091	0.85
309.305	37.72
309.519	-122.02
309.733	88.92
309.947	-64.68
310.161	60.24
310.374	17.24
310.588	162.64
310.802	45.91
311.016	-23.72
311.23	60.24
311.444	9.05
311.658	-60.59
311.872	117.59
312.085	90.96
312.299	121.68
312.513	203.6
312.727	74.58
312.941	2.9
313.154	13.14
313.368	45.91
313.582	0.85
313.796	105.3
314.009	-3.24
314.223	82.77
314.437	66.39
314.651	82.77
314.864	-7.34
315.078	115.54
315.292	-27.82
315.505	-38.06
315.719	76.63
315.933	62.29
316.146	64.34
316.36	-74.92
316.573	109.4
316.787	93.01
317.001	93.01
317.214	-70.83
317.428	27.48
317.641	-23.72
317.855	-25.77
318.068	54.1
318.282	47.96
318.495	168.79
318.709	78.68
318.922	68.44
319.136	136.02
319.349	84.82
319.563	-15.53
319.776	52.05
319.99	-91.31
320.203	68.44
320.417	-42.15
320.63	72.53
320.843	158.55
321.057	25.43
321.27	43.86
321.483	47.96
321.697	25.43
321.91	41.81
322.124	23.38
322.337	45.91
322.55	11.09
322.763	11.09
322.977	-113.83
323.19	-1.19
323.403	27.48
323.617	60.24
323.83	129.88
324.043	27.48
324.256	60.24
324.469	-64.68
324.683	45.91
324.896	-1.19
325.109	88.92
325.322	-95.4
325.535	76.63
325.748	125.78
325.962	15.19
326.175	15.19
326.388	99.16
326.601	45.91
326.814	-1.19
327.027	-1.19
327.24	72.53
327.453	-97.45
327.666	35.67
327.879	84.82
328.092	56.15
328.305	-5.29
328.518	-46.25
328.731	-31.91
328.944	62.29
329.157	35.67
329.37	62.29
329.583	113.49
329.796	123.73
330.009	-40.11
330.222	146.26
330.435	115.54
330.648	19.29
330.861	52.05
331.073	109.4
331.286	64.34
331.499	62.29
331.712	23.38
331.925	56.15
332.138	15.19
332.35	78.68
332.563	-17.58
332.776	138.07
332.989	21.33
333.202	-29.87
333.414	11.09
333.627	-7.34
333.84	72.53
334.053	39.76
334.265	-11.43
334.478	15.19
334.691	29.52
334.903	82.77
335.116	27.48
335.329	-97.45
335.541	117.59
335.754	150.36
335.966	-9.39
336.179	86.87
336.392	41.81
336.604	56.15
336.817	99.16
337.029	70.48
337.242	-54.44
337.454	66.39
337.667	37.72
337.88	138.07
338.092	93.01
338.305	88.92
338.517	-40.11
338.729	90.96
338.942	76.63
339.154	-48.3
339.367	-107.69
339.579	62.29
339.792	-54.44
340.004	101.2
340.217	58.2
340.429	-15.53
340.641	86.87
340.854	-64.68
341.066	17.24
341.278	21.33
341.491	152.4
341.703	68.44
341.915	25.43
342.128	62.29
342.34	-33.96
342.552	19.29
342.764	80.72
342.977	35.67
343.189	84.82
343.401	-3.24
343.613	-13.48
343.826	29.52
344.038	-17.58
344.25	41.81
344.462	-9.39
344.674	2.9
344.886	27.48
345.099	115.54
345.311	17.24
345.523	33.62
345.735	-72.87
345.947	19.29
346.159	43.86
346.371	109.4
346.583	-38.06
346.795	125.78
347.007	19.29
347.219	78.68
347.431	68.44
347.643	56.15
347.855	25.43
348.067	64.34
348.279	-66.73
348.491	74.58
348.703	88.92
348.915	33.62
349.127	33.62
349.339	68.44
349.551	-58.54
349.763	7
349.975	60.24
350.187	80.72
350.399	99.16
350.61	19.29
350.822	-5.29
351.034	37.72
351.246	39.76
351.458	11.09
351.669	146.26
351.881	127.83
352.093	70.48
352.305	68.44
352.517	58.2
352.728	72.53
352.94	-9.39
353.152	107.35
353.363	7
353.575	119.64
353.787	133.97
353.999	78.68
354.21	136.02
354.422	-95.4
354.633	2.9
354.845	47.96
355.057	37.72
355.268	33.62
355.48	117.59
355.692	-66.73
355.903	56.15
356.115	11.09
356.326	-136.36
356.538	131.92
356.749	80.72
356.961	138.07
357.172	9.05
357.384	-81.07
357.595	84.82
357.807	62.29
358.018	9.05
358.23	-21.67
358.441	140.12
358.653	35.67
358.864	-9.39
359.075	-15.53
359.287	64.34
359.498	58.2
359.709	105.3
359.921	84.82
360.132	103.25
360.344	15.19
360.555	-9.39
360.766	84.82
360.977	50
361.189	27.48
361.4	35.67
361.611	88.92
361.823	78.68
362.034	29.52
362.245	-95.4
362.456	-5.29
362.667	33.62
362.879	-64.68
363.09	86.87
363.301	56.15
363.512	9.05
363.723	-46.25
363.935	-3.24
364.146	56.15
364.357	-1.19
364.568	31.57
364.779	-79.02
364.99	43.86
365.201	41.81
365.412	105.3
365.623	-70.83
365.834	97.11
366.045	121.68
366.256	39.76
366.467	99.16
366.678	2.9
366.889	9.05
367.1	97.11
367.311	17.24
367.522	9.05
367.733	-7.34
367.944	-13.48
368.155	58.2
368.366	52.05
368.577	125.78
368.788	152.4
368.999	23.38
369.209	70.48
369.42	197.46
369.631	256.85
369.842	93.01
370.053	0.85
370.264	142.16
370.474	0.85
370.685	119.64
370.896	-31.91
371.107	97.11
371.317	47.96
371.528	60.24
371.739	80.72
371.95	76.63
372.16	66.39
372.371	-58.54
372.582	11.09
372.792	52.05
373.003	86.87
373.214	25.43
373.424	15.19
373.635	-40.11
373.846	234.32
374.056	-7.34
374.267	21.33
374.477	158.55
374.688	43.86
374.898	27.48
375.109	52.05
375.319	66.39
375.53	103.25
375.74	27.48
375.951	74.58
376.161	97.11
376.372	95.06
376.582	-5.29
376.793	37.72
377.003	68.44
377.214	-36.01
377.424	54.1
377.635	64.34
377.845	25.43
378.055	150.36
378.266	-13.48
378.476	-3.24
378.686	111.44
378.897	66.39
379.107	64.34
379.317	86.87
379.528	-29.87
379.738	103.25
379.948	-19.63
380.158	86.87
380.369	15.19
380.579	72.53
380.789	-60.59
380.999	72.53
381.21	82.77
381.42	203.6
381.63	21.33
381.84	80.72
382.05	17.24
382.261	103.25
382.471	74.58
382.681	-9.39
382.891	97.11
383.101	52.05
383.311	27.48
383.521	27.48
383.731	82.77
383.941	72.53
384.151	21.33
384.361	2.9
384.571	41.81
384.781	121.68
384.991	131.92
385.201	138.07
385.411	52.05
385.621	21.33
385.831	47.96
386.041	4.95
386.251	68.44
386.461	162.64
386.671	41.81
386.881	-70.83
387.091	58.2
387.301	58.2
387.511	-21.67
387.72	90.96
387.93	39.76
388.14	-79.02
388.35	29.52
388.56	60.24
388.769	41.81
388.979	76.63
389.189	19.29
389.399	66.39
389.609	113.49
389.818	66.39
390.028	11.09
390.238	117.59
390.447	-5.29
390.657	21.33
390.867	66.39
391.076	-68.78
391.286	74.58
391.496	19.29
391.705	58.2
391.915	41.81
392.125	133.97
392.334	-7.34
392.544	115.54
392.753	111.44
392.963	25.43
393.172	43.86
393.382	-13.48
393.591	58.2
393.801	9.05
394.01	181.07
394.22	95.06
394.429	29.52
394.639	2.9
394.848	-17.58
395.058	25.43
395.267	111.44
395.477	72.53
395.686	123.73
395.895	166.74
396.105	238.42
396.314	84.82
396.524	58.2
396.733	54.1
396.942	115.54
397.152	109.4
397.361	64.34
397.57	74.58
397.78	7
397.989	54.1
398.198	260.95
398.407	66.39
398.617	25.43
398.826	9.05
399.035	23.38
399.244	101.2
399.453	56.15
399.663	97.11
399.872	84.82
400.081	2.9
400.29	115.54
400.499	-38.06
400.708	86.87
400.917	68.44
401.127	-21.67
401.336	33.62
401.545	174.93
401.754	90.96
401.963	136.02
402.172	-21.67
402.381	-48.3
402.59	52.05
402.799	45.91
403.008	117.59
403.217	33.62
403.426	95.06
403.635	4.95
403.844	41.81
404.053	-36.01
404.262	47.96
404.471	162.64
404.68	43.86
404.888	35.67
405.097	-21.67
405.306	39.76
405.515	84.82
405.724	25.43
405.933	72.53
406.142	166.74
406.35	74.58
406.559	9.05
406.768	15.19
406.977	164.69
407.185	50
407.394	101.2
407.603	-19.63
407.812	52.05
408.02	82.77
408.229	-17.58
408.438	19.29
408.646	-40.11
408.855	33.62
409.064	109.4
409.272	43.86
409.481	101.2
409.69	-31.91
409.898	-54.44
410.107	93.01
410.315	80.72
410.524	-27.82
410.733	74.58
410.941	25.43
411.15	52.05
411.358	125.78
411.567	76.63
411.775	43.86
411.984	86.87
412.192	58.2
412.401	-11.43
412.609	131.92
412.818	109.4
413.026	60.24
413.234	19.29
413.443	35.67
413.651	-13.48
413.86	25.43
414.068	86.87
414.276	158.55
414.485	-31.91
414.693	127.83
414.901	201.55
415.11	76.63
415.318	78.68
415.526	43.86
415.734	129.88
415.943	64.34
416.151	64.34
416.359	60.24
416.567	35.67
416.776	21.33
416.984	58.2
417.192	170.83
417.4	21.33
417.608	39.76
417.817	-33.96
418.025	88.92
418.233	166.74
418.441	25.43
418.649	-62.63
418.857	47.96
419.065	74.58
419.273	-44.2
419.481	56.15
419.689	99.16
419.897	19.29
420.105	-70.83
420.313	99.16
420.521	117.59
420.729	219.99
420.937	47.96
421.145	15.19
421.353	113.49
421.561	84.82
421.769	56.15
421.977	27.48
422.185	60.24
422.393	-5.29
422.601	39.76
422.809	56.15
423.017	60.24
423.224	56.15
423.432	74.58
423.64	0.85
423.848	199.51
424.056	-21.67
424.263	195.41
424.471	62.29
424.679	136.02
424.887	-9.39
425.094	76.63
425.302	52.05
425.51	62.29
425.718	80.72
425.925	105.3
426.133	41.81
426.341	217.94
426.548	72.53
426.756	47.96
426.964	99.16
427.171	31.57
427.379	109.4
427.586	33.62
427.794	131.92
428.001	80.72
428.209	64.34
428.417	133.97
428.624	123.73
428.832	76.63
429.039	31.57
429.247	117.59
429.454	133.97
429.662	115.54
429.869	90.96
430.076	121.68
430.284	41.81
430.491	158.55
430.699	119.64
430.906	113.49
431.114	82.77
431.321	133.97
431.528	119.64
431.736	74.58
431.943	125.78
432.15	121.68
432.358	140.12
432.565	191.31
432.772	50
432.979	142.16
433.187	97.11
433.394	189.27
433.601	54.1
433.808	158.55
434.016	287.57
434.223	156.5
434.43	162.64
434.637	183.12
434.844	236.37
435.052	129.88
435.259	205.65
435.466	222.03
435.673	211.79
435.88	205.65
436.087	260.95
436.294	228.18
436.501	205.65
436.708	193.36
436.915	246.61
437.122	379.73
437.329	232.27
437.537	267.09
437.743	269.14
437.95	396.11
438.157	346.96
438.364	267.09
438.571	285.52
438.778	410.45
438.985	392.02
439.192	394.06
439.399	426.83
439.606	363.34
439.813	447.31
440.02	461.65
440.227	590.67
440.433	432.97
440.64	480.08
440.847	383.82
441.054	500.56
441.261	576.33
441.467	492.37
441.674	435.02
441.881	549.71
442.088	494.41
442.294	695.11
442.501	609.1
442.708	584.52
442.914	637.77
443.121	682.83
443.328	723.79
443.534	731.98
443.741	756.55
443.948	656.2
444.154	820.04
444.361	990.02
444.568	850.76
444.774	799.56
444.981	727.88
445.187	899.91
445.394	928.58
445.6	906.06
445.807	1184.58
446.013	1104.71
446.22	953.16
446.426	1102.66
446.633	1084.23
446.839	1440.58
447.046	1270.59
447.252	1393.47
447.459	1307.46
447.665	1229.63
447.871	1395.52
448.078	1567.55
448.284	1555.26
448.491	1583.93
448.697	1545.02
448.903	1798.97
449.11	1692.48
449.316	1690.43
449.522	1950.52
449.728	2026.29
449.935	1989.43
450.141	2140.98
450.347	2214.71
450.553	2165.56
450.76	2300.72
450.966	2335.54
451.172	2448.18
451.378	2609.97
451.584	2618.16
451.791	2747.18
451.997	2820.91
452.203	2857.77
452.409	3083.05
452.615	3081
452.821	3025.7
453.027	3009.32
453.233	3623.71
453.44	3380
453.646	3629.85
453.852	3824.41
454.058	3975.96
454.264	4031.26
454.47	4293.4
454.676	4330.26
454.882	4803.34
455.088	4420.37
455.294	4580.11
455.5	5083.91
455.705	5241.61
455.911	5313.28
456.117	5499.65
456.323	5772.03
456.529	5475.07
456.735	6183.67
456.941	6324.98
457.147	6523.63
457.352	6664.94
457.558	6808.3
457.764	7365.35
457.97	7555.81
458.176	7946.97
458.381	8153.82
458.587	8325.85
458.793	8809.17
458.999	8800.98
459.204	9947.84
459.41	10103.48
459.616	9964.22
459.821	10674.87
460.027	10947.25
460.233	11713.19
460.438	11707.04
460.644	12286.62
460.85	12315.29
461.055	12825.23
461.261	13505.16
461.466	13167.24
461.672	13570.69
461.878	15235.69
462.083	14871.15
462.289	15211.12
462.494	15622.76
462.7	15784.55
462.905	16149.09
463.111	17627.72
463.316	18520.63
463.522	18872.89
463.727	19180.08
463.932	20120.1
464.138	20372
464.343	21479.95
464.549	21539.34
464.754	23185.91
464.959	24095.21
465.165	24248.8
465.37	23857.64
465.575	24023.53
465.781	25512.4
465.986	26378.69
466.191	26112.45
466.397	26448.32
466.602	25827.79
466.807	27259.32
467.012	27632.05
467.218	28017.07
467.423	28185
467.628	29057.43
467.833	30253.45
468.038	29565.33
468.244	29491.6
468.449	30904.7
468.654	30286.22
468.859	30292.36
469.064	30161.29
469.269	29469.08
469.474	30069.13
469.679	30601.6
469.885	29680.02
470.09	30179.72
470.295	30177.67
470.5	29546.9
