Data from USB4F104151__29__09-26-43-713.txt Node

Date: Wed Feb 26 09:26:43 EST 2025
User: louis
Spectrometer: USB4F10415
Trigger mode: 4
Integration Time (sec): 1.000000E-1
Scans to average: 1
Electric dark correction enabled: true
Nonlinearity correction enabled: false
Boxcar width: 0
XAxis mode: Wavelengths
Number of Pixels in Spectrum: 3648
>>>>>Begin Spectral Data<<<<<
178.204	-312.49
178.424	-312.49
178.644	-312.49
178.864	-392.36
179.084	-322.73
179.304	0.85
179.524	-42.15
179.744	-38.06
179.964	95.06
180.184	-46.25
180.404	29.52
180.624	-7.34
180.844	54.1
181.064	-105.64
181.283	52.05
181.503	-19.63
181.723	27.48
181.943	-70.83
182.163	234.32
182.383	-11.43
182.602	68.44
182.822	80.72
183.042	27.48
183.262	9.05
183.482	45.91
183.701	11.09
183.921	23.38
184.141	-62.63
184.361	93.01
184.58	74.58
184.8	33.62
185.02	-5.29
185.239	52.05
185.459	140.12
185.679	146.26
185.898	-93.35
186.118	7
186.338	68.44
186.557	148.31
186.777	11.09
186.997	-1.19
187.216	2.9
187.436	215.89
187.655	60.24
187.875	33.62
188.095	113.49
188.314	115.54
188.534	142.16
188.753	-5.29
188.973	111.44
189.192	197.46
189.412	43.86
189.631	109.4
189.851	68.44
190.07	136.02
190.29	-29.87
190.509	27.48
190.729	43.86
190.948	160.59
191.168	205.65
191.387	66.39
191.607	4.95
191.826	31.57
192.045	-17.58
192.265	84.82
192.484	19.29
192.704	15.19
192.923	-42.15
193.142	99.16
193.362	52.05
193.581	144.21
193.8	-9.39
194.02	129.88
194.239	29.52
194.458	99.16
194.678	-5.29
194.897	56.15
195.116	146.26
195.335	-7.34
195.555	54.1
195.774	35.67
195.993	60.24
196.212	7
196.432	-5.29
196.651	50
196.87	97.11
197.089	205.65
197.308	82.77
197.528	97.11
197.747	-36.01
197.966	138.07
198.185	115.54
198.404	-1.19
198.623	84.82
198.842	86.87
199.062	121.68
199.281	105.3
199.5	19.29
199.719	0.85
199.938	90.96
200.157	64.34
200.376	17.24
200.595	150.36
200.814	50
201.033	-1.19
201.252	82.77
201.471	27.48
201.69	101.2
201.909	66.39
202.128	103.25
202.347	123.73
202.566	70.48
202.785	-111.78
203.004	70.48
203.223	154.45
203.442	-44.2
203.661	-13.48
203.879	93.01
204.098	133.97
204.317	-23.72
204.536	144.21
204.755	146.26
204.974	74.58
205.193	-9.39
205.411	160.59
205.63	152.4
205.849	58.2
206.068	0.85
206.287	-62.63
206.505	162.64
206.724	33.62
206.943	27.48
207.162	17.24
207.381	88.92
207.599	54.1
207.818	93.01
208.037	-13.48
208.255	41.81
208.474	84.82
208.693	47.96
208.911	-19.63
209.13	138.07
209.349	95.06
209.567	90.96
209.786	43.86
210.005	78.68
210.223	33.62
210.442	-89.26
210.661	37.72
210.879	35.67
211.098	90.96
211.316	2.9
211.535	43.86
211.753	60.24
211.972	25.43
212.191	-13.48
212.409	29.52
212.628	166.74
212.846	-62.63
213.065	43.86
213.283	148.31
213.502	101.2
213.72	119.64
213.938	101.2
214.157	-15.53
214.375	103.25
214.594	7
214.812	82.77
215.031	64.34
215.249	17.24
215.467	27.48
215.686	86.87
215.904	113.49
216.122	33.62
216.341	146.26
216.559	52.05
216.778	183.12
216.996	125.78
217.214	-25.77
217.432	66.39
217.651	-74.92
217.869	41.81
218.087	113.49
218.306	23.38
218.524	35.67
218.742	84.82
218.96	43.86
219.179	84.82
219.397	-29.87
219.615	133.97
219.833	113.49
220.051	-50.35
220.27	136.02
220.488	101.2
220.706	19.29
220.924	-9.39
221.142	-36.01
221.36	0.85
221.578	17.24
221.796	74.58
222.015	64.34
222.233	19.29
222.451	179.03
222.669	-17.58
222.887	109.4
223.105	-15.53
223.323	52.05
223.541	37.72
223.759	60.24
223.977	72.53
224.195	97.11
224.413	50
224.631	56.15
224.849	31.57
225.067	127.83
225.285	84.82
225.503	41.81
225.721	-31.91
225.939	95.06
226.157	35.67
226.375	166.74
226.592	-42.15
226.81	90.96
227.028	125.78
227.246	195.41
227.464	21.33
227.682	47.96
227.9	125.78
228.117	90.96
228.335	54.1
228.553	58.2
228.771	-9.39
228.989	60.24
229.206	125.78
229.424	-33.96
229.642	-40.11
229.86	-13.48
230.077	74.58
230.295	43.86
230.513	150.36
230.731	31.57
230.948	183.12
231.166	125.78
231.384	52.05
231.601	-27.82
231.819	170.83
232.037	21.33
232.254	-21.67
232.472	78.68
232.689	-31.91
232.907	109.4
233.125	68.44
233.342	-25.77
233.56	-1.19
233.777	62.29
233.995	68.44
234.213	133.97
234.43	109.4
234.648	19.29
234.865	-5.29
235.083	90.96
235.3	39.76
235.518	82.77
235.735	158.55
235.953	84.82
236.17	23.38
236.388	31.57
236.605	78.68
236.822	129.88
237.04	185.17
237.257	97.11
237.475	-58.54
237.692	109.4
237.909	50
238.127	58.2
238.344	74.58
238.562	0.85
238.779	-72.87
238.996	0.85
239.214	35.67
239.431	109.4
239.648	-46.25
239.865	84.82
240.083	121.68
240.3	47.96
240.517	-13.48
240.735	-5.29
240.952	107.35
241.169	72.53
241.386	52.05
241.603	4.95
241.821	-56.49
242.038	93.01
242.255	80.72
242.472	-21.67
242.689	107.35
242.907	97.11
243.124	35.67
243.341	62.29
243.558	23.38
243.775	17.24
243.992	-40.11
244.209	52.05
244.426	238.42
244.643	-5.29
244.86	7
245.078	60.24
245.295	17.24
245.512	-11.43
245.729	0.85
245.946	97.11
246.163	60.24
246.38	131.92
246.597	66.39
246.814	152.4
247.031	27.48
247.248	80.72
247.464	84.82
247.681	50
247.898	99.16
248.115	68.44
248.332	-13.48
248.549	107.35
248.766	101.2
248.983	93.01
249.2	23.38
249.417	47.96
249.633	-13.48
249.85	60.24
250.067	47.96
250.284	11.09
250.501	111.44
250.717	150.36
250.934	-58.54
251.151	-7.34
251.368	9.05
251.585	166.74
251.801	-38.06
252.018	-3.24
252.235	64.34
252.451	-17.58
252.668	74.58
252.885	113.49
253.102	9.05
253.318	72.53
253.535	47.96
253.752	43.86
253.968	43.86
254.185	-25.77
254.401	107.35
254.618	11.09
254.835	-1.19
255.051	119.64
255.268	76.63
255.484	27.48
255.701	41.81
255.917	78.68
256.134	-9.39
256.351	84.82
256.567	2.9
256.784	27.48
257	-87.21
257.217	99.16
257.433	172.88
257.65	76.63
257.866	125.78
258.082	2.9
258.299	-9.39
258.515	58.2
258.732	62.29
258.948	37.72
259.165	105.3
259.381	13.14
259.597	78.68
259.814	31.57
260.03	74.58
260.246	0.85
260.463	197.46
260.679	117.59
260.895	35.67
261.112	101.2
261.328	99.16
261.544	-5.29
261.761	52.05
261.977	-42.15
262.193	-87.21
262.409	25.43
262.626	9.05
262.842	47.96
263.058	-50.35
263.274	43.86
263.49	56.15
263.707	66.39
263.923	82.77
264.139	-33.96
264.355	-7.34
264.571	125.78
264.787	31.57
265.004	146.26
265.22	60.24
265.436	66.39
265.652	13.14
265.868	84.82
266.084	-1.19
266.3	52.05
266.516	-11.43
266.732	-9.39
266.948	80.72
267.164	43.86
267.38	43.86
267.596	68.44
267.812	187.22
268.028	72.53
268.244	11.09
268.46	-1.19
268.676	-15.53
268.892	25.43
269.108	4.95
269.324	-25.77
269.54	60.24
269.756	179.03
269.972	-50.35
270.188	107.35
270.403	-17.58
270.619	-17.58
270.835	123.73
271.051	-1.19
271.267	27.48
271.483	109.4
271.698	60.24
271.914	74.58
272.13	15.19
272.346	-70.83
272.562	70.48
272.777	162.64
272.993	43.86
273.209	-21.67
273.425	74.58
273.64	-50.35
273.856	45.91
274.072	-83.11
274.287	60.24
274.503	109.4
274.719	99.16
274.934	15.19
275.15	-87.21
275.366	43.86
275.581	0.85
275.797	21.33
276.012	39.76
276.228	19.29
276.444	27.48
276.659	164.69
276.875	-7.34
277.09	13.14
277.306	11.09
277.521	39.76
277.737	121.68
277.952	131.92
278.168	-1.19
278.383	27.48
278.599	111.44
278.814	97.11
279.03	103.25
279.245	148.31
279.461	113.49
279.676	86.87
279.892	2.9
280.107	19.29
280.322	-25.77
280.538	127.83
280.753	-13.48
280.969	47.96
281.184	97.11
281.399	154.45
281.615	39.76
281.83	136.02
282.045	-29.87
282.26	-3.24
282.476	109.4
282.691	101.2
282.906	33.62
283.122	125.78
283.337	37.72
283.552	64.34
283.767	29.52
283.983	-3.24
284.198	47.96
284.413	93.01
284.628	-33.96
284.843	17.24
285.058	84.82
285.274	62.29
285.489	-64.68
285.704	107.35
285.919	-7.34
286.134	68.44
286.349	31.57
286.564	80.72
286.779	166.74
286.995	7
287.21	-85.16
287.425	105.3
287.64	-31.91
287.855	27.48
288.07	-21.67
288.285	86.87
288.5	80.72
288.715	84.82
288.93	11.09
289.145	47.96
289.36	154.45
289.575	33.62
289.79	117.59
290.004	113.49
290.219	76.63
290.434	-1.19
290.649	-52.39
290.864	2.9
291.079	41.81
291.294	88.92
291.509	68.44
291.724	-29.87
291.938	27.48
292.153	41.81
292.368	-72.87
292.583	129.88
292.798	33.62
293.012	82.77
293.227	131.92
293.442	15.19
293.657	99.16
293.871	93.01
294.086	93.01
294.301	60.24
294.516	68.44
294.73	52.05
294.945	-50.35
295.16	58.2
295.374	148.31
295.589	136.02
295.804	0.85
296.018	80.72
296.233	162.64
296.447	-9.39
296.662	31.57
296.877	90.96
297.091	45.91
297.306	74.58
297.52	-54.44
297.735	123.73
297.949	33.62
298.164	35.67
298.378	56.15
298.593	41.81
298.807	-31.91
299.022	54.1
299.236	146.26
299.451	37.72
299.665	-13.48
299.88	45.91
300.094	11.09
300.309	54.1
300.523	95.06
300.737	47.96
300.952	88.92
301.166	25.43
301.381	31.57
301.595	35.67
301.809	35.67
302.024	50
302.238	-5.29
302.452	31.57
302.667	97.11
302.881	133.97
303.095	80.72
303.309	41.81
303.524	52.05
303.738	15.19
303.952	27.48
304.166	90.96
304.381	-42.15
304.595	68.44
304.809	-17.58
305.023	7
305.237	-54.44
305.452	82.77
305.666	9.05
305.88	76.63
306.094	117.59
306.308	76.63
306.522	131.92
306.736	60.24
306.95	148.31
307.164	80.72
307.379	101.2
307.593	90.96
307.807	39.76
308.021	72.53
308.235	52.05
308.449	-66.73
308.663	68.44
308.877	219.99
309.091	76.63
309.305	86.87
309.519	-74.92
309.733	105.3
309.947	-36.01
310.161	111.44
310.374	97.11
310.588	174.93
310.802	-31.91
311.016	45.91
311.23	82.77
311.444	-21.67
311.658	56.15
311.872	193.36
312.085	125.78
312.299	146.26
312.513	129.88
312.727	68.44
312.941	-17.58
313.154	88.92
313.368	-46.25
313.582	11.09
313.796	97.11
314.009	56.15
314.223	179.03
314.437	76.63
314.651	97.11
314.864	37.72
315.078	11.09
315.292	0.85
315.505	-15.53
315.719	43.86
315.933	88.92
316.146	27.48
316.36	-38.06
316.573	47.96
316.787	72.53
317.001	93.01
317.214	-17.58
317.428	54.1
317.641	-89.26
317.855	47.96
318.068	-23.72
318.282	47.96
318.495	99.16
318.709	123.73
318.922	-15.53
319.136	127.83
319.349	11.09
319.563	7
319.776	52.05
319.99	-62.63
320.203	31.57
320.417	64.34
320.63	170.83
320.843	166.74
321.057	39.76
321.27	99.16
321.483	43.86
321.697	23.38
321.91	2.9
322.124	99.16
322.337	105.3
322.55	-7.34
322.763	0.85
322.977	-3.24
323.19	9.05
323.403	68.44
323.617	43.86
323.83	138.07
324.043	41.81
324.256	127.83
324.469	-89.26
324.683	107.35
324.896	50
325.109	17.24
325.322	-60.59
325.535	117.59
325.748	156.5
325.962	66.39
326.175	33.62
326.388	76.63
326.601	95.06
326.814	11.09
327.027	107.35
327.24	125.78
327.453	-115.88
327.666	27.48
327.879	84.82
328.092	148.31
328.305	33.62
328.518	-7.34
328.731	50
328.944	13.14
329.157	-11.43
329.37	25.43
329.583	150.36
329.796	35.67
330.009	-76.97
330.222	25.43
330.435	80.72
330.648	25.43
330.861	23.38
331.073	111.44
331.286	174.93
331.499	15.19
331.712	7
331.925	52.05
332.138	90.96
332.35	107.35
332.563	97.11
332.776	121.68
332.989	-13.48
333.202	15.19
333.414	11.09
333.627	15.19
333.84	-46.25
334.053	25.43
334.265	15.19
334.478	0.85
334.691	-3.24
334.903	-40.11
335.116	7
335.329	45.91
335.541	39.76
335.754	146.26
335.966	-7.34
336.179	58.2
336.392	11.09
336.604	97.11
336.817	121.68
337.029	95.06
337.242	23.38
337.454	43.86
337.667	-19.63
337.88	150.36
338.092	99.16
338.305	21.33
338.517	31.57
338.729	66.39
338.942	146.26
339.154	80.72
339.367	-66.73
339.579	52.05
339.792	-50.35
340.004	109.4
340.217	-33.96
340.429	23.38
340.641	-21.67
340.854	0.85
341.066	-13.48
341.278	166.74
341.491	226.13
341.703	-42.15
341.915	2.9
342.128	52.05
342.34	58.2
342.552	-13.48
342.764	2.9
342.977	50
343.189	58.2
343.401	72.53
343.613	-7.34
343.826	39.76
344.038	-81.07
344.25	80.72
344.462	25.43
344.674	37.72
344.886	72.53
345.099	136.02
345.311	111.44
345.523	50
345.735	-113.83
345.947	47.96
346.159	11.09
346.371	43.86
346.583	52.05
346.795	240.47
347.007	19.29
347.219	80.72
347.431	-13.48
347.643	166.74
347.855	-44.2
348.067	109.4
348.279	-56.49
348.491	76.63
348.703	93.01
348.915	41.81
349.127	-70.83
349.339	68.44
349.551	-19.63
349.763	58.2
349.975	31.57
350.187	101.2
350.399	101.2
350.61	125.78
350.822	62.29
351.034	66.39
351.246	64.34
351.458	117.59
351.669	93.01
351.881	74.58
352.093	107.35
352.305	140.12
352.517	37.72
352.728	43.86
352.94	27.48
353.152	35.67
353.363	-29.87
353.575	86.87
353.787	84.82
353.999	19.29
354.21	183.12
354.422	11.09
354.633	60.24
354.845	35.67
355.057	-13.48
355.268	-25.77
355.48	47.96
355.692	-83.11
355.903	72.53
356.115	-66.73
356.326	-56.49
356.538	140.12
356.749	47.96
356.961	152.4
357.172	15.19
357.384	-15.53
357.595	174.93
357.807	52.05
358.018	25.43
358.23	-15.53
358.441	164.69
358.653	72.53
358.864	43.86
359.075	-1.19
359.287	60.24
359.498	72.53
359.709	41.81
359.921	41.81
360.132	11.09
360.344	39.76
360.555	41.81
360.766	54.1
360.977	37.72
361.189	136.02
361.4	45.91
361.611	99.16
361.823	103.25
362.034	17.24
362.245	-29.87
362.456	56.15
362.667	88.92
362.879	-40.11
363.09	64.34
363.301	41.81
363.512	23.38
363.723	-15.53
363.935	-29.87
364.146	50
364.357	29.52
364.568	80.72
364.779	45.91
364.99	111.44
365.201	-29.87
365.412	74.58
365.623	-52.39
365.834	-13.48
366.045	70.48
366.256	-19.63
366.467	72.53
366.678	86.87
366.889	-23.72
367.1	-50.35
367.311	62.29
367.522	25.43
367.733	9.05
367.944	140.12
368.155	70.48
368.366	62.29
368.577	64.34
368.788	207.7
368.999	-5.29
369.209	109.4
369.42	236.37
369.631	170.83
369.842	68.44
370.053	-5.29
370.264	174.93
370.474	31.57
370.685	115.54
370.896	13.14
371.107	93.01
371.317	82.77
371.528	-44.2
371.739	93.01
371.95	68.44
372.16	78.68
372.371	-54.44
372.582	58.2
372.792	99.16
373.003	80.72
373.214	54.1
373.424	47.96
373.635	-58.54
373.846	45.91
374.056	35.67
374.267	80.72
374.477	101.2
374.688	7
374.898	58.2
375.109	-17.58
375.319	60.24
375.53	17.24
375.74	127.83
375.951	62.29
376.161	-5.29
376.372	93.01
376.582	11.09
376.793	19.29
377.003	-9.39
377.214	47.96
377.424	39.76
377.635	31.57
377.845	11.09
378.055	232.27
378.266	-68.78
378.476	50
378.686	29.52
378.897	105.3
379.107	123.73
379.317	64.34
379.528	-33.96
379.738	76.63
379.948	-42.15
380.158	39.76
380.369	125.78
380.579	76.63
380.789	27.48
380.999	39.76
381.21	101.2
381.42	146.26
381.63	21.33
381.84	56.15
382.05	123.73
382.261	88.92
382.471	129.88
382.681	25.43
382.891	123.73
383.101	90.96
383.311	-21.67
383.521	25.43
383.731	19.29
383.941	105.3
384.151	23.38
384.361	25.43
384.571	88.92
384.781	13.14
384.991	170.83
385.201	174.93
385.411	144.21
385.621	90.96
385.831	76.63
386.041	62.29
386.251	-13.48
386.461	170.83
386.671	47.96
386.881	52.05
387.091	-25.77
387.301	156.5
387.511	68.44
387.72	62.29
387.93	76.63
388.14	-103.59
388.35	64.34
388.56	80.72
388.769	72.53
388.979	-1.19
389.189	-15.53
389.399	47.96
389.609	133.97
389.818	72.53
390.028	50
390.238	187.22
390.447	-38.06
390.657	31.57
390.867	74.58
391.076	-17.58
391.286	84.82
391.496	27.48
391.705	50
391.915	115.54
392.125	144.21
392.334	62.29
392.544	74.58
392.753	19.29
392.963	9.05
393.172	115.54
393.382	17.24
393.591	144.21
393.801	17.24
394.01	119.64
394.22	123.73
394.429	58.2
394.639	2.9
394.848	133.97
395.058	80.72
395.267	58.2
395.477	99.16
395.686	109.4
395.895	140.12
396.105	142.16
396.314	35.67
396.524	-9.39
396.733	45.91
396.942	107.35
397.152	133.97
397.361	56.15
397.57	119.64
397.78	129.88
397.989	68.44
398.198	127.83
398.407	64.34
398.617	4.95
398.826	64.34
399.035	13.14
399.244	88.92
399.453	17.24
399.663	43.86
399.872	107.35
400.081	-54.44
400.29	90.96
400.499	-15.53
400.708	148.31
400.917	-11.43
401.127	43.86
401.336	-11.43
401.545	133.97
401.754	111.44
401.963	64.34
402.172	-9.39
402.381	-5.29
402.59	39.76
402.799	93.01
403.008	129.88
403.217	76.63
403.426	17.24
403.635	33.62
403.844	39.76
404.053	23.38
404.262	43.86
404.471	181.07
404.68	66.39
404.888	66.39
405.097	52.05
405.306	60.24
405.515	60.24
405.724	9.05
405.933	84.82
406.142	187.22
406.35	11.09
406.559	21.33
406.768	74.58
406.977	144.21
407.185	25.43
407.394	74.58
407.603	-21.67
407.812	123.73
408.02	76.63
408.229	84.82
408.438	21.33
408.646	19.29
408.855	56.15
409.064	105.3
409.272	93.01
409.481	60.24
409.69	31.57
409.898	13.14
410.107	68.44
410.315	60.24
410.524	-13.48
410.733	-23.72
410.941	74.58
411.15	93.01
411.358	121.68
411.567	90.96
411.775	50
411.984	2.9
412.192	179.03
412.401	-25.77
412.609	111.44
412.818	158.55
413.026	15.19
413.234	-62.63
413.443	64.34
413.651	-56.49
413.86	80.72
414.068	90.96
414.276	179.03
414.485	47.96
414.693	131.92
414.901	125.78
415.11	84.82
415.318	64.34
415.526	72.53
415.734	97.11
415.943	-5.29
416.151	105.3
416.359	72.53
416.567	99.16
416.776	80.72
416.984	142.16
417.192	133.97
417.4	-9.39
417.608	7
417.817	-58.54
418.025	88.92
418.233	197.46
418.441	-56.49
418.649	13.14
418.857	78.68
419.065	183.12
419.273	-3.24
419.481	15.19
419.689	47.96
419.897	-15.53
420.105	-42.15
420.313	113.49
420.521	60.24
420.729	68.44
420.937	-17.58
421.145	-17.58
421.353	123.73
421.561	144.21
421.769	76.63
421.977	2.9
422.185	68.44
422.393	90.96
422.601	129.88
422.809	125.78
423.017	43.86
423.224	11.09
423.432	125.78
423.64	64.34
423.848	52.05
424.056	37.72
424.263	140.12
424.471	68.44
424.679	125.78
424.887	-7.34
425.094	166.74
425.302	72.53
425.51	60.24
425.718	82.77
425.925	56.15
426.133	56.15
426.341	197.46
426.548	131.92
426.756	9.05
426.964	78.68
427.171	62.29
427.379	72.53
427.586	99.16
427.794	80.72
428.001	95.06
428.209	101.2
428.417	156.5
428.624	129.88
428.832	88.92
429.039	58.2
429.247	54.1
429.454	197.46
429.662	140.12
429.869	84.82
430.076	174.93
430.284	84.82
430.491	215.89
430.699	43.86
430.906	170.83
431.114	129.88
431.321	133.97
431.528	74.58
431.736	117.59
431.943	133.97
432.15	109.4
432.358	189.27
432.565	213.84
432.772	-23.72
432.979	211.79
433.187	56.15
433.394	101.2
433.601	129.88
433.808	109.4
434.016	164.69
434.223	150.36
434.43	142.16
434.637	203.6
434.844	209.75
435.052	195.41
435.259	248.66
435.466	228.18
435.673	207.7
435.88	207.7
436.087	316.24
436.294	260.95
436.501	230.23
436.708	205.65
436.915	273.23
437.122	279.38
437.329	219.99
437.537	252.75
437.743	244.56
437.95	369.49
438.157	246.61
438.364	238.42
438.571	269.14
438.778	336.72
438.985	342.86
439.192	262.99
439.399	326.48
439.606	330.58
439.813	486.22
440.02	482.13
440.227	480.08
440.433	443.21
440.64	412.5
440.847	412.5
441.054	443.21
441.261	568.14
441.467	494.41
441.674	490.32
441.881	551.76
442.088	486.22
442.294	492.37
442.501	605
442.708	633.68
442.914	578.38
443.121	643.92
443.328	774.99
443.534	725.83
443.741	760.65
443.948	580.43
444.154	738.12
444.361	936.78
444.568	764.75
444.774	748.36
444.981	721.74
445.187	932.68
445.394	863.05
445.6	838.47
445.807	1166.15
446.013	981.83
446.22	983.88
446.426	1010.5
446.633	1112.9
446.839	1211.2
447.046	1020.74
447.252	1243.97
447.459	1215.3
447.665	1225.54
447.871	1442.62
448.078	1475.39
448.284	1463.1
448.491	1567.55
448.697	1612.6
448.903	1614.65
449.11	1735.48
449.316	1624.89
449.522	1788.73
449.728	1876.79
449.935	1897.27
450.141	1899.32
450.347	2104.12
450.553	2042.68
450.76	2100.02
450.966	2190.13
451.172	2251.57
451.378	2429.74
451.584	2358.07
451.791	2642.73
451.997	2614.06
452.203	2648.88
452.409	2800.43
452.615	3054.37
452.821	2980.65
453.027	2868.01
453.233	3220.26
453.44	3199.78
453.646	3296.04
453.852	3457.82
454.058	3549.98
454.264	3654.43
454.47	3922.71
454.676	3990.3
454.882	4422.42
455.088	4033.3
455.294	4352.79
455.5	4614.93
455.705	4893.45
455.911	4834.06
456.117	4999.95
456.323	5188.36
456.529	5270.28
456.735	5702.4
456.941	5864.19
457.147	6114.04
457.352	6286.07
457.558	6394.61
457.764	6744.81
457.97	6841.07
458.176	7285.48
458.381	7549.67
458.587	7529.19
458.793	8207.06
458.999	7971.55
459.204	9036.49
459.41	9347.78
459.616	9288.39
459.821	9900.73
460.027	10439.35
460.233	10504.89
460.438	10736.31
460.644	11360.94
460.85	11580.07
461.055	12071.58
461.261	12704.4
461.466	12339.87
461.672	12503.7
461.878	13771.4
462.083	13486.73
462.289	13863.55
462.494	14576.25
462.7	14629.49
462.905	14951.03
463.111	16063.07
463.316	16896.6
463.522	17322.57
463.727	17635.91
463.932	18164.29
464.138	19124.79
464.343	20060.71
464.549	19984.93
464.754	21512.72
464.959	21760.52
465.165	22354.43
465.37	22092.29
465.575	22166.02
465.781	23259.63
465.986	24359.39
466.191	24001
466.397	24078.82
466.602	23284.21
466.807	24838.62
467.012	25592.27
467.218	25960.91
467.423	25758.16
467.628	26579.39
467.833	27732.4
468.038	27257.27
468.244	27376.05
468.449	28424.61
468.654	27845.04
468.859	27998.63
469.064	27675.06
469.269	27148.73
469.474	27388.34
469.679	28131.75
469.885	27417.01
