Data from USB4F104151__16__11-24-30-107.txt Node

Date: Wed Feb 26 11:24:30 EST 2025
User: louis
Spectrometer: USB4F10415
Trigger mode: 4
Integration Time (sec): 1.000000E-1
Scans to average: 1
Electric dark correction enabled: true
Nonlinearity correction enabled: false
Boxcar width: 0
XAxis mode: Wavelengths
Number of Pixels in Spectrum: 3648
>>>>>Begin Spectral Data<<<<<
178.204	-431.95
178.424	-431.95
178.644	-431.95
178.864	-333.65
179.084	-460.62
179.304	75.95
179.524	-20.31
179.744	-14.17
179.964	-12.12
180.184	-12.12
180.404	28.84
180.624	18.6
180.844	-18.26
181.064	-44.88
181.283	10.41
181.503	-44.88
181.723	32.94
181.943	-89.94
182.163	178.34
182.383	-20.31
182.602	88.23
182.822	157.86
183.042	77.99
183.262	-40.79
183.482	-20.31
183.701	96.43
183.921	4.27
184.141	20.65
184.361	166.06
184.58	34.99
184.8	18.6
185.02	0.17
185.239	133.29
185.459	65.71
185.679	133.29
185.898	-85.84
186.118	0.17
186.338	139.43
186.557	71.85
186.777	-51.03
186.997	30.89
187.216	67.75
187.436	161.96
187.655	65.71
187.875	86.19
188.095	45.23
188.314	196.78
188.534	116.9
188.753	-48.98
188.973	153.77
189.192	286.89
189.412	-16.21
189.631	123.05
189.851	53.42
190.07	129.19
190.29	18.6
190.509	18.6
190.729	-18.26
190.948	176.3
191.168	305.32
191.387	41.13
191.607	-44.88
191.826	118.95
192.045	14.51
192.265	-24.4
192.484	73.9
192.704	100.52
192.923	-104.28
193.142	141.48
193.362	149.67
193.581	59.56
193.8	51.37
194.02	94.38
194.239	34.99
194.458	133.29
194.678	49.32
194.897	-12.12
195.116	98.47
195.335	22.7
195.555	30.89
195.774	4.27
195.993	145.58
196.212	69.8
196.432	28.84
196.651	30.89
196.87	-3.93
197.089	247.97
197.308	125.1
197.528	45.23
197.747	-1.88
197.966	20.65
198.185	178.34
198.404	47.27
198.623	65.71
198.842	133.29
199.062	86.19
199.281	102.57
199.5	-20.31
199.719	125.1
199.938	77.99
200.157	71.85
200.376	16.55
200.595	37.03
200.814	82.09
201.033	26.79
201.252	186.54
201.471	110.76
201.69	71.85
201.909	43.18
202.128	172.2
202.347	67.75
202.566	34.99
202.785	-5.97
203.004	-65.36
203.223	280.74
203.442	55.47
203.661	-46.93
203.879	84.14
204.098	125.1
204.317	-59.22
204.536	161.96
204.755	147.62
204.974	211.11
205.193	-8.02
205.411	170.15
205.63	98.47
205.849	45.23
206.068	104.62
206.287	26.79
206.505	151.72
206.724	49.32
206.943	10.41
207.162	20.65
207.381	53.42
207.599	94.38
207.818	37.03
208.037	92.33
208.255	67.75
208.474	16.55
208.693	100.52
208.911	-24.4
209.13	88.23
209.349	164.01
209.567	57.51
209.786	80.04
210.005	71.85
210.223	59.56
210.442	-118.61
210.661	86.19
210.879	53.42
211.098	59.56
211.316	86.19
211.535	121
211.753	59.56
211.972	49.32
212.191	-20.31
212.409	51.37
212.628	100.52
212.846	-40.79
213.065	10.41
213.283	190.63
213.502	39.08
213.72	-12.12
213.938	14.51
214.157	14.51
214.375	192.68
214.594	2.22
214.812	69.8
215.031	114.86
215.249	34.99
215.467	98.47
215.686	82.09
215.904	104.62
216.122	39.08
216.341	231.59
216.559	84.14
216.778	80.04
216.996	133.29
217.214	-5.97
217.432	-63.32
217.651	-18.26
217.869	41.13
218.087	-8.02
218.306	-32.6
218.524	94.38
218.742	90.28
218.96	141.48
219.179	22.7
219.397	-1.88
219.615	209.06
219.833	155.82
220.051	-48.98
220.27	129.19
220.488	151.72
220.706	30.89
220.924	-55.12
221.142	-22.36
221.36	43.18
221.578	102.57
221.796	14.51
222.015	69.8
222.233	127.14
222.451	110.76
222.669	-36.69
222.887	34.99
223.105	-28.5
223.323	75.95
223.541	-28.5
223.759	55.47
223.977	61.61
224.195	178.34
224.413	133.29
224.631	26.79
224.849	51.37
225.067	149.67
225.285	-3.93
225.503	-51.03
225.721	-81.75
225.939	75.95
226.157	-18.26
226.375	239.78
226.592	37.03
226.81	43.18
227.028	61.61
227.246	180.39
227.464	39.08
227.682	71.85
227.9	41.13
228.117	92.33
228.335	61.61
228.553	57.51
228.771	59.56
228.989	59.56
229.206	84.14
229.424	51.37
229.642	-77.65
229.86	-22.36
230.077	90.28
230.295	53.42
230.513	104.62
230.731	100.52
230.948	211.11
231.166	229.54
231.384	32.94
231.601	-30.55
231.819	129.19
232.037	-28.5
232.254	-108.37
232.472	6.31
232.689	43.18
232.907	94.38
233.125	73.9
233.342	0.17
233.56	53.42
233.777	65.71
233.995	24.75
234.213	137.38
234.43	65.71
234.648	168.1
234.865	-51.03
235.083	37.03
235.3	82.09
235.518	118.95
235.735	149.67
235.953	94.38
236.17	10.41
236.388	65.71
236.605	82.09
236.822	88.23
237.04	127.14
237.257	65.71
237.475	20.65
237.692	22.7
237.909	28.84
238.127	49.32
238.344	57.51
238.562	112.81
238.779	-63.32
238.996	39.08
239.214	55.47
239.431	110.76
239.648	112.81
239.865	30.89
240.083	65.71
240.3	10.41
240.517	-22.36
240.735	80.04
240.952	129.19
241.169	88.23
241.386	80.04
241.603	24.75
241.821	-36.69
242.038	129.19
242.255	133.29
242.472	-57.17
242.689	43.18
242.907	37.03
243.124	84.14
243.341	43.18
243.558	-22.36
243.775	-63.32
243.992	-28.5
244.209	110.76
244.426	188.58
244.643	4.27
244.86	26.79
245.078	41.13
245.295	47.27
245.512	57.51
245.729	47.27
245.946	69.8
246.163	61.61
246.38	6.31
246.597	80.04
246.814	49.32
247.031	86.19
247.248	61.61
247.464	28.84
247.681	125.1
247.898	55.47
248.115	77.99
248.332	-22.36
248.549	114.86
248.766	229.54
248.983	86.19
249.2	69.8
249.417	59.56
249.633	98.47
249.85	73.9
250.067	96.43
250.284	61.61
250.501	69.8
250.717	84.14
250.934	-8.02
251.151	30.89
251.368	-18.26
251.585	98.47
251.801	65.71
252.018	-71.51
252.235	63.66
252.451	18.6
252.668	39.08
252.885	80.04
253.102	57.51
253.318	16.55
253.535	-14.17
253.752	57.51
253.968	-22.36
254.185	-96.08
254.401	65.71
254.618	73.9
254.835	14.51
255.051	143.53
255.268	77.99
255.484	30.89
255.701	90.28
255.917	155.82
256.134	-3.93
256.351	47.27
256.567	-28.5
256.784	4.27
257	-83.8
257.217	133.29
257.433	90.28
257.65	73.9
257.866	43.18
258.082	-10.07
258.299	10.41
258.515	98.47
258.732	8.36
258.948	6.31
259.165	65.71
259.381	-30.55
259.597	73.9
259.814	61.61
260.03	24.75
260.246	90.28
260.463	131.24
260.679	196.78
260.895	57.51
261.112	34.99
261.328	98.47
261.544	-3.93
261.761	170.15
261.977	6.31
262.193	-46.93
262.409	28.84
262.626	18.6
262.842	57.51
263.058	-3.93
263.274	100.52
263.49	10.41
263.707	20.65
263.923	96.43
264.139	-65.36
264.355	34.99
264.571	59.56
264.787	55.47
265.004	133.29
265.22	14.51
265.436	45.23
265.652	75.95
265.868	49.32
266.084	-46.93
266.3	24.75
266.516	10.41
266.732	75.95
266.948	47.27
267.164	24.75
267.38	100.52
267.596	116.9
267.812	215.21
268.028	-10.07
268.244	-24.4
268.46	32.94
268.676	-42.84
268.892	63.66
269.108	-14.17
269.324	-36.69
269.54	43.18
269.756	49.32
269.972	10.41
270.188	37.03
270.403	-18.26
270.619	110.76
270.835	59.56
271.051	-3.93
271.267	-32.6
271.483	10.41
271.698	106.67
271.914	53.42
272.13	32.94
272.346	-44.88
272.562	26.79
272.777	98.47
272.993	59.56
273.209	32.94
273.425	71.85
273.64	-73.56
273.856	145.58
274.072	-3.93
274.287	34.99
274.503	16.55
274.719	114.86
274.934	24.75
275.15	-36.69
275.366	41.13
275.581	-40.79
275.797	49.32
276.012	10.41
276.228	-100.18
276.444	49.32
276.659	92.33
276.875	-8.02
277.09	59.56
277.306	34.99
277.521	32.94
277.737	49.32
277.952	86.19
278.168	61.61
278.383	16.55
278.599	16.55
278.814	106.67
279.03	47.27
279.245	153.77
279.461	69.8
279.676	143.53
279.892	26.79
280.107	-34.64
280.322	-20.31
280.538	34.99
280.753	-48.98
280.969	121
281.184	34.99
281.399	108.71
281.615	184.49
281.83	110.76
282.045	-34.64
282.26	32.94
282.476	28.84
282.691	88.23
282.906	6.31
283.122	43.18
283.337	26.79
283.552	75.95
283.767	-73.56
283.983	84.14
284.198	-1.88
284.413	49.32
284.628	-77.65
284.843	-14.17
285.058	123.05
285.274	32.94
285.489	-36.69
285.704	123.05
285.919	24.75
286.134	39.08
286.349	65.71
286.564	47.27
286.779	166.06
286.995	0.17
287.21	-46.93
287.425	186.54
287.64	-3.93
287.855	41.13
288.07	2.22
288.285	121
288.5	116.9
288.715	118.95
288.93	129.19
289.145	118.95
289.36	114.86
289.575	65.71
289.79	207.02
290.004	24.75
290.219	57.51
290.434	51.37
290.649	53.42
290.864	41.13
291.079	-20.31
291.294	75.95
291.509	82.09
291.724	49.32
291.938	37.03
292.153	114.86
292.368	28.84
292.583	47.27
292.798	73.9
293.012	28.84
293.227	159.91
293.442	45.23
293.657	92.33
293.871	190.63
294.086	73.9
294.301	204.97
294.516	118.95
294.73	57.51
294.945	10.41
295.16	16.55
295.374	159.91
295.589	73.9
295.804	-5.97
296.018	82.09
296.233	190.63
296.447	41.13
296.662	-42.84
296.877	151.72
297.091	127.14
297.306	65.71
297.52	14.51
297.735	106.67
297.949	96.43
298.164	18.6
298.378	-3.93
298.593	-51.03
298.807	-16.21
299.022	77.99
299.236	178.34
299.451	53.42
299.665	-42.84
299.88	-12.12
300.094	-26.45
300.309	6.31
300.523	55.47
300.737	18.6
300.952	172.2
301.166	84.14
301.381	-12.12
301.595	34.99
301.809	77.99
302.024	2.22
302.238	37.03
302.452	47.27
302.667	30.89
302.881	170.15
303.095	75.95
303.309	65.71
303.524	-51.03
303.738	73.9
303.952	-22.36
304.166	73.9
304.381	-48.98
304.595	161.96
304.809	-12.12
305.023	114.86
305.237	82.09
305.452	34.99
305.666	43.18
305.88	112.81
306.094	45.23
306.308	157.86
306.522	57.51
306.736	67.75
306.95	127.14
307.164	125.1
307.379	-3.93
307.593	172.2
307.807	96.43
308.021	184.49
308.235	112.81
308.449	-69.46
308.663	30.89
308.877	225.45
309.091	-8.02
309.305	116.9
309.519	16.55
309.733	69.8
309.947	-18.26
310.161	55.47
310.374	176.3
310.588	135.34
310.802	-89.94
311.016	14.51
311.23	47.27
311.444	47.27
311.658	-12.12
311.872	174.25
312.085	94.38
312.299	149.67
312.513	123.05
312.727	67.75
312.941	-12.12
313.154	37.03
313.368	84.14
313.582	30.89
313.796	114.86
314.009	12.46
314.223	102.57
314.437	106.67
314.651	67.75
314.864	-34.64
315.078	71.85
315.292	-26.45
315.505	59.56
315.719	104.62
315.933	123.05
316.146	32.94
316.36	-14.17
316.573	217.26
316.787	16.55
317.001	86.19
317.214	-26.45
317.428	28.84
317.641	-42.84
317.855	18.6
318.068	47.27
318.282	43.18
318.495	200.87
318.709	20.65
318.922	59.56
319.136	217.26
319.349	166.06
319.563	-53.08
319.776	127.14
319.99	-145.24
320.203	159.91
320.417	77.99
320.63	92.33
320.843	217.26
321.057	49.32
321.27	71.85
321.483	98.47
321.697	141.48
321.91	108.71
322.124	69.8
322.337	75.95
322.55	47.27
322.763	80.04
322.977	-16.21
323.19	12.46
323.403	88.23
323.617	88.23
323.83	102.57
324.043	10.41
324.256	77.99
324.469	-34.64
324.683	133.29
324.896	55.47
325.109	28.84
325.322	-116.56
325.535	174.25
325.748	100.52
325.962	86.19
326.175	61.61
326.388	37.03
326.601	149.67
326.814	-51.03
327.027	51.37
327.24	118.95
327.453	-85.84
327.666	20.65
327.879	164.01
328.092	53.42
328.305	80.04
328.518	12.46
328.731	-10.07
328.944	20.65
329.157	49.32
329.37	-61.27
329.583	168.1
329.796	151.72
330.009	-124.76
330.222	82.09
330.435	135.34
330.648	71.85
330.861	63.66
331.073	65.71
331.286	211.11
331.499	53.42
331.712	30.89
331.925	63.66
332.138	123.05
332.35	157.86
332.563	-5.97
332.776	151.72
332.989	-36.69
333.202	28.84
333.414	26.79
333.627	65.71
333.84	65.71
334.053	14.51
334.265	43.18
334.478	4.27
334.691	34.99
334.903	32.94
335.116	20.65
335.329	4.27
335.541	98.47
335.754	164.01
335.966	12.46
336.179	18.6
336.392	12.46
336.604	12.46
336.817	94.38
337.029	114.86
337.242	18.6
337.454	73.9
337.667	-22.36
337.88	151.72
338.092	80.04
338.305	98.47
338.517	49.32
338.729	166.06
338.942	96.43
339.154	-53.08
339.367	-38.74
339.579	24.75
339.792	20.65
340.004	133.29
340.217	37.03
340.429	43.18
340.641	8.36
340.854	57.51
341.066	73.9
341.278	137.38
341.491	254.12
341.703	49.32
341.915	-10.07
342.128	57.51
342.34	67.75
342.552	14.51
342.764	73.9
342.977	34.99
343.189	61.61
343.401	-24.4
343.613	-34.64
343.826	94.38
344.038	-10.07
344.25	71.85
344.462	2.22
344.674	65.71
344.886	110.76
345.099	77.99
345.311	71.85
345.523	-14.17
345.735	-98.13
345.947	34.99
346.159	51.37
346.371	26.79
346.583	8.36
346.795	231.59
347.007	-26.45
347.219	71.85
347.431	28.84
347.643	133.29
347.855	-1.88
348.067	153.77
348.279	-44.88
348.491	61.61
348.703	75.95
348.915	22.7
349.127	18.6
349.339	37.03
349.551	22.7
349.763	133.29
349.975	30.89
350.187	98.47
350.399	174.25
350.61	75.95
350.822	49.32
351.034	53.42
351.246	88.23
351.458	112.81
351.669	129.19
351.881	118.95
352.093	55.47
352.305	141.48
352.517	32.94
352.728	172.2
352.94	61.61
353.152	75.95
353.363	-10.07
353.575	106.67
353.787	178.34
353.999	75.95
354.21	149.67
354.422	-22.36
354.633	55.47
354.845	32.94
355.057	102.57
355.268	90.28
355.48	155.82
355.692	-106.32
355.903	8.36
356.115	-14.17
356.326	-36.69
356.538	129.19
356.749	45.23
356.961	184.49
357.172	94.38
357.384	49.32
357.595	219.3
357.807	80.04
358.018	-67.41
358.23	82.09
358.441	168.1
358.653	129.19
358.864	2.22
359.075	16.55
359.287	108.71
359.498	131.24
359.709	86.19
359.921	82.09
360.132	24.75
360.344	28.84
360.555	12.46
360.766	104.62
360.977	45.23
361.189	127.14
361.4	2.22
361.611	77.99
361.823	41.13
362.034	65.71
362.245	-102.23
362.456	-32.6
362.667	47.27
362.879	18.6
363.09	49.32
363.301	28.84
363.512	131.24
363.723	-18.26
363.935	-34.64
364.146	133.29
364.357	28.84
364.568	30.89
364.779	-91.99
364.99	164.01
365.201	-18.26
365.412	30.89
365.623	-44.88
365.834	75.95
366.045	49.32
366.256	112.81
366.467	84.14
366.678	94.38
366.889	30.89
367.1	-46.93
367.311	92.33
367.522	77.99
367.733	0.17
367.944	18.6
368.155	51.37
368.366	164.01
368.577	96.43
368.788	108.71
368.999	53.42
369.209	43.18
369.42	172.2
369.631	207.02
369.842	118.95
370.053	-34.64
370.264	207.02
370.474	41.13
370.685	71.85
370.896	100.52
371.107	161.96
371.317	121
371.528	90.28
371.739	102.57
371.95	84.14
372.16	59.56
372.371	-24.4
372.582	18.6
372.792	147.62
373.003	88.23
373.214	104.62
373.424	57.51
373.635	-20.31
373.846	41.13
374.056	39.08
374.267	71.85
374.477	149.67
374.688	-8.02
374.898	59.56
375.109	75.95
375.319	51.37
375.53	151.72
375.74	106.67
375.951	-14.17
376.161	28.84
376.372	143.53
376.582	-20.31
376.793	22.7
377.003	65.71
377.214	-20.31
377.424	100.52
377.635	63.66
377.845	4.27
378.055	178.34
378.266	-1.88
378.476	43.18
378.686	47.27
378.897	112.81
379.107	139.43
379.317	82.09
379.528	8.36
379.738	39.08
379.948	-63.32
380.158	135.34
380.369	90.28
380.579	75.95
380.789	84.14
380.999	71.85
381.21	161.96
381.42	227.5
381.63	30.89
381.84	106.67
382.05	39.08
382.261	100.52
382.471	194.73
382.681	-53.08
382.891	221.35
383.101	73.9
383.311	-26.45
383.521	24.75
383.731	131.24
383.941	92.33
384.151	18.6
384.361	10.41
384.571	110.76
384.781	47.27
384.991	198.82
385.201	198.82
385.411	145.58
385.621	67.75
385.831	20.65
386.041	37.03
386.251	49.32
386.461	49.32
386.671	28.84
386.881	133.29
387.091	20.65
387.301	98.47
387.511	69.8
387.72	88.23
387.93	123.05
388.14	-18.26
388.35	57.51
388.56	153.77
388.769	47.27
388.979	59.56
389.189	71.85
389.399	-10.07
389.609	125.1
389.818	92.33
390.028	80.04
390.238	57.51
390.447	-94.04
390.657	153.77
390.867	63.66
391.076	-22.36
391.286	30.89
391.496	67.75
391.705	84.14
391.915	94.38
392.125	147.62
392.334	82.09
392.544	161.96
392.753	34.99
392.963	67.75
393.172	116.9
393.382	-22.36
393.591	151.72
393.801	-34.64
394.01	145.58
394.22	141.48
394.429	-28.5
394.639	30.89
394.848	86.19
395.058	4.27
395.267	43.18
395.477	98.47
395.686	104.62
395.895	213.16
396.105	229.54
396.314	139.43
396.524	30.89
396.733	80.04
396.942	125.1
397.152	22.7
397.361	135.34
397.57	69.8
397.78	112.81
397.989	98.47
398.198	223.4
398.407	18.6
398.617	96.43
398.826	28.84
399.035	14.51
399.244	157.86
399.453	45.23
399.663	88.23
399.872	98.47
400.081	-12.12
400.29	145.58
400.499	-12.12
400.708	112.81
400.917	-16.21
401.127	59.56
401.336	16.55
401.545	151.72
401.754	106.67
401.963	129.19
402.172	-24.4
402.381	-46.93
402.59	59.56
402.799	26.79
403.008	71.85
403.217	41.13
403.426	30.89
403.635	-38.74
403.844	-67.41
404.053	43.18
404.262	22.7
404.471	207.02
404.68	63.66
404.888	8.36
405.097	12.46
405.306	129.19
405.515	106.67
405.724	71.85
405.933	129.19
406.142	149.67
406.35	77.99
406.559	55.47
406.768	63.66
406.977	114.86
407.185	121
407.394	6.31
407.603	26.79
407.812	47.27
408.02	114.86
408.229	73.9
408.438	110.76
408.646	-28.5
408.855	20.65
409.064	69.8
409.272	51.37
409.481	86.19
409.69	-40.79
409.898	-48.98
410.107	59.56
410.315	61.61
410.524	53.42
410.733	65.71
410.941	135.34
411.15	200.87
411.358	2.22
411.567	98.47
411.775	100.52
411.984	86.19
412.192	98.47
412.401	34.99
412.609	270.5
412.818	157.86
413.026	127.14
413.234	30.89
413.443	67.75
413.651	8.36
413.86	-24.4
414.068	161.96
414.276	147.62
414.485	43.18
414.693	151.72
414.901	231.59
415.11	90.28
415.318	55.47
415.526	86.19
415.734	213.16
415.943	127.14
416.151	159.91
416.359	63.66
416.567	116.9
416.776	157.86
416.984	127.14
417.192	188.58
417.4	-3.93
417.608	-3.93
417.817	55.47
418.025	200.87
418.233	133.29
418.441	6.31
418.649	-57.17
418.857	75.95
419.065	182.44
419.273	47.27
419.481	75.95
419.689	37.03
419.897	-26.45
420.105	-22.36
420.313	45.23
420.521	161.96
420.729	174.25
420.937	53.42
421.145	75.95
421.353	168.1
421.561	96.43
421.769	57.51
421.977	102.57
422.185	92.33
422.393	41.13
422.601	112.81
422.809	98.47
423.017	45.23
423.224	108.71
423.432	49.32
423.64	67.75
423.848	164.01
424.056	12.46
424.263	176.3
424.471	-14.17
424.679	125.1
424.887	45.23
425.094	190.63
425.302	123.05
425.51	53.42
425.718	102.57
425.925	49.32
426.133	39.08
426.341	288.93
426.548	26.79
426.756	-16.21
426.964	114.86
427.171	14.51
427.379	108.71
427.586	106.67
427.794	170.15
428.001	141.48
428.209	86.19
428.417	137.38
428.624	211.11
428.832	71.85
429.039	90.28
429.247	28.84
429.454	118.95
429.662	213.16
429.869	196.78
430.076	159.91
430.284	204.97
430.491	174.25
430.699	241.83
430.906	225.45
431.114	59.56
431.321	178.34
431.528	176.3
431.736	147.62
431.943	151.72
432.15	202.92
432.358	170.15
432.565	286.89
432.772	28.84
432.979	235.69
433.187	110.76
433.394	176.3
433.601	200.87
433.808	229.54
434.016	157.86
434.223	225.45
434.43	188.58
434.637	231.59
434.844	319.65
435.052	233.64
435.259	360.61
435.466	241.83
435.673	319.65
435.88	245.93
436.087	254.12
436.294	327.85
436.501	293.03
436.708	274.6
436.915	295.08
437.122	350.37
437.329	225.45
437.537	331.94
437.743	368.81
437.95	417.96
438.157	336.04
438.364	360.61
438.571	368.81
438.778	483.49
438.985	475.3
439.192	401.57
439.399	336.04
439.606	467.11
439.813	510.11
440.02	606.37
440.227	608.42
440.433	585.89
440.64	506.02
440.847	542.88
441.054	569.51
441.261	669.86
441.467	616.61
441.674	577.7
441.881	676
442.088	610.47
442.294	731.3
442.501	839.84
442.708	800.93
442.914	647.33
443.121	835.74
443.328	823.45
443.534	972.96
443.741	837.79
443.948	815.26
444.154	944.28
444.361	1144.99
444.568	1001.63
444.774	1056.92
444.981	1032.35
445.187	1071.26
445.394	1093.79
445.6	1116.31
445.807	1243.29
446.013	1280.15
446.22	1140.89
446.426	1388.69
446.633	1425.56
446.839	1548.44
447.046	1368.21
447.252	1616.02
447.459	1519.76
447.665	1659.03
447.871	1734.8
448.078	1855.63
448.284	1798.29
448.491	1888.4
448.697	1980.56
448.903	2037.9
449.11	2105.48
449.316	2031.76
449.522	2248.84
449.728	2379.91
449.935	2510.98
450.141	2457.73
450.347	2502.79
450.553	2525.32
450.76	2660.48
450.966	2883.71
451.172	2805.89
451.378	3080.32
451.584	3119.23
451.791	3405.94
451.997	3317.88
452.203	3516.53
452.409	3571.83
452.615	3840.11
452.821	3776.63
453.027	3768.43
453.233	4272.23
453.44	4032.62
453.646	4296.81
453.852	4417.64
454.058	4620.39
454.264	4860
454.47	5091.42
454.676	5144.67
454.882	5609.56
455.088	5189.72
455.294	5634.13
455.5	6139.98
455.705	6453.32
455.911	6277.19
456.117	6422.6
456.323	6756.42
456.529	6766.66
456.735	7307.32
456.941	7651.38
457.147	7825.46
457.352	7995.44
457.558	8407.08
457.764	8788
457.97	9039.9
458.176	9386.01
458.381	9797.65
458.587	10209.29
458.793	10651.66
458.999	10483.72
459.204	11782.13
459.41	12060.66
459.616	12122.1
459.821	12734.44
460.027	13320.16
460.233	13813.72
460.438	14012.37
460.644	14837.7
460.85	14776.27
461.055	15562.69
461.261	16037.81
461.466	15765.43
461.672	16119.73
461.878	18063.26
462.083	17774.49
462.289	18065.3
462.494	18898.83
462.7	18935.69
462.905	19271.56
463.111	20731.76
463.316	21909.34
463.522	22249.3
463.727	22794.06
463.932	23975.74
464.138	24774.45
464.343	25493.29
464.549	25863.97
464.754	27815.68
464.959	28446.46
465.165	28421.88
465.37	28475.13
465.575	28518.14
465.781	30473.95
465.986	31348.43
466.191	30772.95
466.397	30869.2
466.602	30183.13
466.807	32251.58
467.012	32704.18
467.218	33048.24
467.423	33076.91
467.628	34268.83
467.833	36040.32
468.038	35135.12
468.244	34686.62
