Data from USB4F104151__10__09-24-57-325.txt Node

Date: Wed Feb 26 09:24:57 EST 2025
User: louis
Spectrometer: USB4F10415
Trigger mode: 4
Integration Time (sec): 1.000000E-1
Scans to average: 1
Electric dark correction enabled: true
Nonlinearity correction enabled: false
Boxcar width: 0
XAxis mode: Wavelengths
Number of Pixels in Spectrum: 3648
>>>>>Begin Spectral Data<<<<<
178.204	-357.88
178.424	-357.88
178.644	-357.88
178.864	-349.69
179.084	-386.55
179.304	6.66
179.524	-26.11
179.744	45.57
179.964	70.14
180.184	-3.58
180.404	-28.16
180.624	-26.11
180.844	49.66
181.064	-42.5
181.283	-17.92
181.503	-75.26
181.723	47.62
181.943	-97.79
182.163	111.1
182.383	16.9
182.602	37.38
182.822	72.19
183.042	-1.54
183.262	-77.31
183.482	29.18
183.701	20.99
183.921	-1.54
184.141	-7.68
184.361	47.62
184.58	4.61
184.8	-13.82
185.02	-79.36
185.239	74.24
185.459	68.09
185.679	84.48
185.898	-118.27
186.118	-11.78
186.338	-30.21
186.557	72.19
186.777	-75.26
186.997	-28.16
187.216	-11.78
187.436	102.91
187.655	57.86
187.875	55.81
188.095	-67.07
188.314	82.43
188.534	111.1
188.753	-67.07
188.973	64
189.192	123.39
189.412	-11.78
189.631	2.56
189.851	-3.58
190.07	133.63
190.29	-46.59
190.509	47.62
190.729	2.56
190.948	55.81
191.168	244.22
191.387	94.72
191.607	-69.12
191.826	74.24
192.045	-3.58
192.265	-36.35
192.484	43.52
192.704	35.33
192.923	14.85
193.142	158.21
193.362	35.33
193.581	-22.02
193.8	64
194.02	64
194.239	51.71
194.458	111.1
194.678	39.42
194.897	-32.26
195.116	84.48
195.335	53.76
195.555	76.29
195.774	-46.59
195.993	43.52
196.212	6.66
196.432	-30.21
196.651	-91.65
196.87	2.56
197.089	219.64
197.308	37.38
197.528	-28.16
197.747	-46.59
197.966	-28.16
198.185	158.21
198.404	-30.21
198.623	29.18
198.842	78.33
199.062	80.38
199.281	74.24
199.5	74.24
199.719	43.52
199.938	72.19
200.157	129.53
200.376	47.62
200.595	78.33
200.814	-1.54
201.033	-36.35
201.252	68.09
201.471	72.19
201.69	-9.73
201.909	-56.83
202.128	74.24
202.347	-36.35
202.566	-30.21
202.785	-140.8
203.004	-60.93
203.223	244.22
203.442	-17.92
203.661	-138.75
203.879	123.39
204.098	100.86
204.317	-77.31
204.536	166.4
204.755	109.05
204.974	70.14
205.193	-42.5
205.411	133.63
205.63	66.05
205.849	78.33
206.068	-17.92
206.287	-1.54
206.505	57.86
206.724	-52.74
206.943	-60.93
207.162	-132.61
207.381	98.81
207.599	20.99
207.818	6.66
208.037	-24.06
208.255	0.51
208.474	25.09
208.693	133.63
208.911	-40.45
209.13	35.33
209.349	68.09
209.567	41.47
209.786	39.42
210.005	55.81
210.223	53.76
210.442	-124.41
210.661	-5.63
210.879	104.96
211.098	-19.97
211.316	70.14
211.535	113.15
211.753	-9.73
211.972	10.75
212.191	14.85
212.409	84.48
212.628	27.14
212.846	51.71
213.065	86.53
213.283	59.9
213.502	96.77
213.72	-24.06
213.938	31.23
214.157	-7.68
214.375	72.19
214.594	-48.64
214.812	31.23
215.031	-1.54
215.249	18.94
215.467	25.09
215.686	29.18
215.904	39.42
216.122	-3.58
216.341	78.33
216.559	-34.3
216.778	102.91
216.996	88.57
217.214	55.81
217.432	-15.87
217.651	-101.89
217.869	-19.97
218.087	-11.78
218.306	-3.58
218.524	31.23
218.742	31.23
218.96	76.29
219.179	64
219.397	18.94
219.615	135.68
219.833	113.15
220.051	-75.26
220.27	57.86
220.488	41.47
220.706	43.52
220.924	0.51
221.142	-52.74
221.36	35.33
221.578	-34.3
221.796	-1.54
222.015	-28.16
222.233	45.57
222.451	72.19
222.669	-3.58
222.887	53.76
223.105	4.61
223.323	23.04
223.541	23.04
223.759	70.14
223.977	-1.54
224.195	104.96
224.413	96.77
224.631	18.94
224.849	64
225.067	109.05
225.285	31.23
225.503	43.52
225.721	-157.18
225.939	-1.54
226.157	-22.02
226.375	242.17
226.592	41.47
226.81	27.14
227.028	27.14
227.246	98.81
227.464	25.09
227.682	82.43
227.9	53.76
228.117	53.76
228.335	68.09
228.553	-17.92
228.771	10.75
228.989	-32.26
229.206	72.19
229.424	-30.21
229.642	29.18
229.86	-91.65
230.077	129.53
230.295	31.23
230.513	23.04
230.731	27.14
230.948	137.73
231.166	170.49
231.384	4.61
231.601	-44.54
231.819	53.76
232.037	2.56
232.254	-85.5
232.472	-5.63
232.689	-9.73
232.907	107.01
233.125	-11.78
233.342	6.66
233.56	-62.98
233.777	-58.88
233.995	0.51
234.213	96.77
234.43	18.94
234.648	-13.82
234.865	-5.63
235.083	49.66
235.3	-83.45
235.518	-13.82
235.735	57.86
235.953	78.33
236.17	-69.12
236.388	-7.68
236.605	-17.92
236.822	47.62
237.04	100.86
237.257	4.61
237.475	23.04
237.692	4.61
237.909	100.86
238.127	39.42
238.344	35.33
238.562	14.85
238.779	-99.84
238.996	-56.83
239.214	16.9
239.431	76.29
239.648	4.61
239.865	92.67
240.083	117.25
240.3	8.7
240.517	-28.16
240.735	10.75
240.952	109.05
241.169	104.96
241.386	2.56
241.603	51.71
241.821	-62.98
242.038	109.05
242.255	82.43
242.472	-62.98
242.689	78.33
242.907	8.7
243.124	14.85
243.341	35.33
243.558	-9.73
243.775	-60.93
243.992	-75.26
244.209	139.77
244.426	180.73
244.643	-5.63
244.86	25.09
245.078	74.24
245.295	78.33
245.512	-5.63
245.729	-44.54
245.946	29.18
246.163	39.42
246.38	-34.3
246.597	39.42
246.814	76.29
247.031	72.19
247.248	-11.78
247.464	23.04
247.681	31.23
247.898	37.38
248.115	14.85
248.332	47.62
248.549	80.38
248.766	66.05
248.983	-3.58
249.2	68.09
249.417	147.97
249.633	55.81
249.85	59.9
250.067	-26.11
250.284	-22.02
250.501	68.09
250.717	-26.11
250.934	-46.59
251.151	-7.68
251.368	-34.3
251.585	-5.63
251.801	35.33
252.018	8.7
252.235	45.57
252.451	-99.84
252.668	-67.07
252.885	111.1
253.102	0.51
253.318	14.85
253.535	0.51
253.752	16.9
253.968	-9.73
254.185	-50.69
254.401	35.33
254.618	41.47
254.835	-15.87
255.051	127.49
255.268	70.14
255.484	25.09
255.701	49.66
255.917	2.56
256.134	-5.63
256.351	-3.58
256.567	-58.88
256.784	-9.73
257	-77.31
257.217	129.53
257.433	29.18
257.65	6.66
257.866	88.57
258.082	-50.69
258.299	-11.78
258.515	25.09
258.732	14.85
258.948	-58.88
259.165	43.52
259.381	76.29
259.597	43.52
259.814	92.67
260.03	6.66
260.246	-40.45
260.463	98.81
260.679	152.06
260.895	29.18
261.112	74.24
261.328	39.42
261.544	-42.5
261.761	137.73
261.977	-7.68
262.193	-85.5
262.409	-11.78
262.626	-9.73
262.842	31.23
263.058	-50.69
263.274	72.19
263.49	51.71
263.707	68.09
263.923	-38.4
264.139	-112.13
264.355	-26.11
264.571	86.53
264.787	68.09
265.004	113.15
265.22	31.23
265.436	-36.35
265.652	-13.82
265.868	31.23
266.084	-36.35
266.3	-13.82
266.516	-40.45
266.732	41.47
266.948	-19.97
267.164	-19.97
267.38	61.95
267.596	-17.92
267.812	182.78
268.028	-5.63
268.244	37.38
268.46	10.75
268.676	47.62
268.892	43.52
269.108	-36.35
269.324	25.09
269.54	-50.69
269.756	29.18
269.972	-3.58
270.188	2.56
270.403	-73.21
270.619	-26.11
270.835	6.66
271.051	137.73
271.267	-9.73
271.483	-46.59
271.698	33.28
271.914	115.2
272.13	4.61
272.346	16.9
272.562	20.99
272.777	72.19
272.993	20.99
273.209	-58.88
273.425	23.04
273.64	-65.02
273.856	68.09
274.072	2.56
274.287	4.61
274.503	104.96
274.719	102.91
274.934	23.04
275.15	-44.54
275.366	14.85
275.581	-28.16
275.797	55.81
276.012	55.81
276.228	-28.16
276.444	72.19
276.659	107.01
276.875	-67.07
277.09	-26.11
277.306	72.19
277.521	72.19
277.737	-13.82
277.952	41.47
278.168	4.61
278.383	31.23
278.599	27.14
278.814	68.09
279.03	31.23
279.245	70.14
279.461	-69.12
279.676	20.99
279.892	-112.13
280.107	6.66
280.322	-69.12
280.538	43.52
280.753	-24.06
280.969	-3.58
281.184	31.23
281.399	137.73
281.615	-36.35
281.83	23.04
282.045	2.56
282.26	-71.17
282.476	2.56
282.691	51.71
282.906	64
283.122	113.15
283.337	12.8
283.552	-48.64
283.767	-17.92
283.983	84.48
284.198	-46.59
284.413	55.81
284.628	-24.06
284.843	-38.4
285.058	12.8
285.274	-46.59
285.489	0.51
285.704	74.24
285.919	-52.74
286.134	-22.02
286.349	61.95
286.564	20.99
286.779	78.33
286.995	92.67
287.21	-58.88
287.425	84.48
287.64	-34.3
287.855	45.57
288.07	-112.13
288.285	55.81
288.5	88.57
288.715	68.09
288.93	-11.78
289.145	-65.02
289.36	92.67
289.575	-87.55
289.79	104.96
290.004	33.28
290.219	49.66
290.434	2.56
290.649	45.57
290.864	39.42
291.079	-1.54
291.294	74.24
291.509	45.57
291.724	-85.5
291.938	-116.22
292.153	2.56
292.368	-1.54
292.583	-17.92
292.798	18.94
293.012	8.7
293.227	59.9
293.442	-36.35
293.657	18.94
293.871	150.01
294.086	-26.11
294.301	107.01
294.516	64
294.73	10.75
294.945	-60.93
295.16	27.14
295.374	37.38
295.589	98.81
295.804	-60.93
296.018	35.33
296.233	94.72
296.447	23.04
296.662	-7.68
296.877	88.57
297.091	80.38
297.306	4.61
297.52	-40.45
297.735	14.85
297.949	47.62
298.164	-38.4
298.378	86.53
298.593	-13.82
298.807	-9.73
299.022	-17.92
299.236	59.9
299.451	-19.97
299.665	6.66
299.88	-13.82
300.094	31.23
300.309	29.18
300.523	47.62
300.737	-5.63
300.952	-3.58
301.166	125.44
301.381	-15.87
301.595	53.76
301.809	27.14
302.024	-75.26
302.238	-97.79
302.452	125.44
302.667	10.75
302.881	115.2
303.095	66.05
303.309	0.51
303.524	6.66
303.738	45.57
303.952	-1.54
304.166	-3.58
304.381	-93.69
304.595	131.58
304.809	10.75
305.023	10.75
305.237	25.09
305.452	14.85
305.666	66.05
305.88	47.62
306.094	29.18
306.308	51.71
306.522	111.1
306.736	0.51
306.95	25.09
307.164	-1.54
307.379	20.99
307.593	121.34
307.807	104.96
308.021	43.52
308.235	23.04
308.449	-95.74
308.663	-19.97
308.877	264.7
309.091	20.99
309.305	-26.11
309.519	-114.17
309.733	78.33
309.947	35.33
310.161	43.52
310.374	64
310.588	127.49
310.802	-126.46
311.016	-40.45
311.23	55.81
311.444	-50.69
311.658	-67.07
311.872	129.53
312.085	96.77
312.299	88.57
312.513	109.05
312.727	39.42
312.941	-110.08
313.154	76.29
313.368	-5.63
313.582	74.24
313.796	-3.58
314.009	78.33
314.223	80.38
314.437	23.04
314.651	61.95
314.864	-54.78
315.078	14.85
315.292	-24.06
315.505	-30.21
315.719	-56.83
315.933	68.09
316.146	8.7
316.36	-48.64
316.573	37.38
316.787	88.57
317.001	55.81
317.214	-22.02
317.428	45.57
317.641	-44.54
317.855	-34.3
318.068	55.81
318.282	59.9
318.495	178.69
318.709	70.14
318.922	-5.63
319.136	129.53
319.349	94.72
319.563	-17.92
319.776	-85.5
319.99	-58.88
320.203	88.57
320.417	-89.6
320.63	88.57
320.843	195.07
321.057	-13.82
321.27	64
321.483	37.38
321.697	107.01
321.91	-13.82
322.124	72.19
322.337	6.66
322.55	-52.74
322.763	-13.82
322.977	35.33
323.19	-89.6
323.403	-17.92
323.617	100.86
323.83	94.72
324.043	-15.87
324.256	139.77
324.469	-56.83
324.683	96.77
324.896	12.8
325.109	-26.11
325.322	-62.98
325.535	47.62
325.748	102.91
325.962	10.75
326.175	43.52
326.388	129.53
326.601	115.2
326.814	45.57
327.027	0.51
327.24	176.64
327.453	-101.89
327.666	-17.92
327.879	96.77
328.092	43.52
328.305	23.04
328.518	12.8
328.731	-26.11
328.944	0.51
329.157	33.28
329.37	-38.4
329.583	119.29
329.796	78.33
330.009	-62.98
330.222	39.42
330.435	96.77
330.648	-40.45
330.861	-26.11
331.073	2.56
331.286	70.14
331.499	35.33
331.712	2.56
331.925	-9.73
332.138	-32.26
332.35	80.38
332.563	-17.92
332.776	76.29
332.989	27.14
333.202	-62.98
333.414	18.94
333.627	-44.54
333.84	-60.93
334.053	27.14
334.265	-46.59
334.478	-85.5
334.691	61.95
334.903	145.92
335.116	16.9
335.329	-28.16
335.541	78.33
335.754	121.34
335.966	-71.17
336.179	-3.58
336.392	-38.4
336.604	-26.11
336.817	100.86
337.029	-26.11
337.242	61.95
337.454	2.56
337.667	25.09
337.88	31.23
338.092	86.53
338.305	51.71
338.517	4.61
338.729	78.33
338.942	78.33
339.154	-75.26
339.367	-69.12
339.579	-5.63
339.792	4.61
340.004	45.57
340.217	-34.3
340.429	-26.11
340.641	-30.21
340.854	-7.68
341.066	20.99
341.278	80.38
341.491	86.53
341.703	59.9
341.915	-60.93
342.128	88.57
342.34	-46.59
342.552	39.42
342.764	55.81
342.977	-9.73
343.189	53.76
343.401	23.04
343.613	-67.07
343.826	43.52
344.038	-46.59
344.25	-22.02
344.462	-48.64
344.674	23.04
344.886	45.57
345.099	-89.6
345.311	-7.68
345.523	-22.02
345.735	-101.89
345.947	37.38
346.159	-26.11
346.371	35.33
346.583	-42.5
346.795	158.21
347.007	-32.26
347.219	-11.78
347.431	-13.82
347.643	119.29
347.855	-3.58
348.067	82.43
348.279	-126.46
348.491	2.56
348.703	29.18
348.915	-42.5
349.127	-5.63
349.339	66.05
349.551	-50.69
349.763	68.09
349.975	-11.78
350.187	43.52
350.399	125.44
350.61	10.75
350.822	29.18
351.034	61.95
351.246	113.15
351.458	-50.69
351.669	109.05
351.881	111.1
352.093	92.67
352.305	90.62
352.517	90.62
352.728	14.85
352.94	20.99
353.152	72.19
353.363	-1.54
353.575	10.75
353.787	94.72
353.999	72.19
354.21	166.4
354.422	-1.54
354.633	-62.98
354.845	12.8
355.057	-15.87
355.268	51.71
355.48	78.33
355.692	0.51
355.903	-1.54
356.115	-54.78
356.326	-67.07
356.538	129.53
356.749	102.91
356.961	154.11
357.172	-34.3
357.384	-58.88
357.595	221.69
357.807	-13.82
358.018	8.7
358.23	31.23
358.441	102.91
358.653	66.05
358.864	49.66
359.075	-77.31
359.287	25.09
359.498	94.72
359.709	70.14
359.921	-17.92
360.132	92.67
360.344	92.67
360.555	23.04
360.766	41.47
360.977	6.66
361.189	59.9
361.4	-9.73
361.611	102.91
361.823	35.33
362.034	45.57
362.245	-69.12
362.456	-75.26
362.667	-1.54
362.879	-42.5
363.09	-17.92
363.301	-5.63
363.512	35.33
363.723	6.66
363.935	-77.31
364.146	100.86
364.357	-36.35
364.568	90.62
364.779	-99.84
364.99	115.2
365.201	-60.93
365.412	74.24
365.623	-11.78
365.834	-34.3
366.045	10.75
366.256	80.38
366.467	88.57
366.678	39.42
366.889	39.42
367.1	49.66
367.311	68.09
367.522	-34.3
367.733	43.52
367.944	-1.54
368.155	45.57
368.366	59.9
368.577	55.81
368.788	39.42
368.999	-112.13
369.209	-1.54
369.42	178.69
369.631	123.39
369.842	70.14
370.053	-9.73
370.264	29.18
370.474	-34.3
370.685	35.33
370.896	25.09
371.107	47.62
371.317	-3.58
371.528	31.23
371.739	150.01
371.95	55.81
372.16	61.95
372.371	-52.74
372.582	20.99
372.792	76.29
373.003	78.33
373.214	49.66
373.424	29.18
373.635	-34.3
373.846	104.96
374.056	29.18
374.267	-9.73
374.477	55.81
374.688	-50.69
374.898	109.05
375.109	37.38
375.319	86.53
375.53	27.14
375.74	35.33
375.951	23.04
376.161	49.66
376.372	-1.54
376.582	6.66
376.793	-46.59
377.003	-44.54
377.214	-58.88
377.424	59.9
377.635	8.7
377.845	-83.45
378.055	135.68
378.266	-1.54
378.476	53.76
378.686	125.44
378.897	18.94
379.107	84.48
379.317	72.19
379.528	31.23
379.738	39.42
379.948	-56.83
380.158	104.96
380.369	29.18
380.579	115.2
380.789	-5.63
380.999	68.09
381.21	64
381.42	131.58
381.63	88.57
381.84	35.33
382.05	-3.58
382.261	131.58
382.471	123.39
382.681	-34.3
382.891	82.43
383.101	0.51
383.311	-13.82
383.521	-79.36
383.731	102.91
383.941	64
384.151	55.81
384.361	27.14
384.571	2.56
384.781	64
384.991	137.73
385.201	113.15
385.411	14.85
385.621	18.94
385.831	2.56
386.041	49.66
386.251	-9.73
386.461	111.1
386.671	12.8
386.881	-11.78
387.091	61.95
387.301	27.14
387.511	82.43
387.72	23.04
387.93	2.56
388.14	-73.21
388.35	14.85
388.56	31.23
388.769	90.62
388.979	47.62
389.189	-34.3
389.399	64
389.609	88.57
389.818	49.66
390.028	-36.35
390.238	64
390.447	-71.17
390.657	64
390.867	-1.54
391.076	-24.06
391.286	51.71
391.496	6.66
391.705	64
391.915	55.81
392.125	86.53
392.334	-44.54
392.544	70.14
392.753	20.99
392.963	-34.3
393.172	66.05
393.382	-50.69
393.591	129.53
393.801	35.33
394.01	129.53
394.22	43.52
394.429	-9.73
394.639	-13.82
394.848	20.99
395.058	53.76
395.267	64
395.477	6.66
395.686	64
395.895	111.1
396.105	145.92
396.314	57.86
396.524	-17.92
396.733	6.66
396.942	117.25
397.152	20.99
397.361	88.57
397.57	39.42
397.78	100.86
397.989	6.66
398.198	102.91
398.407	25.09
398.617	-3.58
398.826	47.62
399.035	-26.11
399.244	94.72
399.453	-13.82
399.663	51.71
399.872	55.81
400.081	27.14
400.29	111.1
400.499	-26.11
400.708	47.62
400.917	6.66
401.127	51.71
401.336	-28.16
401.545	135.68
401.754	78.33
401.963	100.86
402.172	14.85
402.381	-99.84
402.59	64
402.799	86.53
403.008	123.39
403.217	37.38
403.426	18.94
403.635	-28.16
403.844	-42.5
404.053	37.38
404.262	-19.97
404.471	55.81
404.68	68.09
404.888	-42.5
405.097	-7.68
405.306	72.19
405.515	39.42
405.724	68.09
405.933	64
406.142	14.85
406.35	100.86
406.559	-36.35
406.768	47.62
406.977	109.05
407.185	76.29
407.394	-1.54
407.603	-32.26
407.812	64
408.02	131.58
408.229	10.75
408.438	12.8
408.646	2.56
408.855	14.85
409.064	39.42
409.272	33.28
409.481	61.95
409.69	4.61
409.898	27.14
410.107	8.7
410.315	100.86
410.524	53.76
410.733	84.48
410.941	33.28
411.15	113.15
411.358	18.94
411.567	43.52
411.775	-17.92
411.984	35.33
412.192	59.9
412.401	-46.59
412.609	127.49
412.818	80.38
413.026	59.9
413.234	51.71
413.443	45.57
413.651	-13.82
413.86	-52.74
414.068	162.3
414.276	141.82
414.485	6.66
414.693	104.96
414.901	125.44
415.11	61.95
415.318	20.99
415.526	-22.02
415.734	96.77
415.943	25.09
416.151	145.92
416.359	29.18
416.567	-9.73
416.776	102.91
416.984	72.19
417.192	158.21
417.4	2.56
417.608	0.51
417.817	18.94
418.025	129.53
418.233	150.01
418.441	12.8
418.649	-87.55
418.857	137.73
419.065	78.33
419.273	-1.54
419.481	18.94
419.689	64
419.897	-1.54
420.105	-85.5
420.313	174.59
420.521	137.73
420.729	98.81
420.937	-54.78
421.145	-50.69
421.353	84.48
421.561	125.44
421.769	135.68
421.977	4.61
422.185	39.42
422.393	59.9
422.601	125.44
422.809	127.49
423.017	-9.73
423.224	96.77
423.432	70.14
423.64	8.7
423.848	100.86
424.056	-65.02
424.263	92.67
424.471	-9.73
424.679	4.61
424.887	-36.35
425.094	100.86
425.302	23.04
425.51	47.62
425.718	129.53
425.925	53.76
426.133	59.9
426.341	166.4
426.548	47.62
426.756	61.95
426.964	64
427.171	-13.82
427.379	102.91
427.586	64
427.794	45.57
428.001	109.05
428.209	113.15
428.417	135.68
428.624	139.77
428.832	61.95
429.039	55.81
429.247	39.42
429.454	27.14
429.662	111.1
429.869	135.68
430.076	78.33
430.284	111.1
430.491	143.87
430.699	117.25
430.906	166.4
431.114	199.16
431.321	109.05
431.528	129.53
431.736	131.58
431.943	154.11
432.15	190.97
432.358	104.96
432.565	240.12
432.772	51.71
432.979	219.64
433.187	6.66
433.394	285.18
433.601	88.57
433.808	231.93
434.016	309.76
434.223	217.6
434.43	270.84
434.637	123.39
434.844	186.88
435.052	223.74
435.259	164.35
435.466	238.08
435.673	299.52
435.88	322.04
436.087	276.99
436.294	268.8
436.501	383.48
436.708	301.56
436.915	365.05
437.122	363
437.329	272.89
437.537	387.58
437.743	338.43
437.95	449.02
438.157	424.44
438.364	365.05
438.571	373.24
438.778	371.19
438.985	467.45
439.192	442.87
439.399	422.39
439.606	496.12
439.813	520.7
440.02	594.42
440.227	633.33
440.433	481.78
440.64	582.14
440.847	485.88
441.054	610.81
441.261	768.5
441.467	647.67
441.674	616.95
441.881	657.91
442.088	688.63
442.294	668.15
442.501	711.16
442.708	768.5
442.914	817.65
443.121	768.5
443.328	907.76
443.534	1004.02
443.741	891.38
443.948	881.14
444.154	1006.06
444.361	1184.24
444.568	979.44
444.774	1073.65
444.981	1020.4
445.187	1116.65
445.394	1235.44
445.6	1120.75
445.807	1364.46
446.013	1260.01
446.22	1294.83
446.426	1493.48
446.633	1532.39
446.839	1638.89
447.046	1485.29
447.252	1710.57
447.459	1634.79
447.665	1673.7
447.871	1810.92
448.078	1991.14
448.284	1894.88
448.491	2028
448.697	2157.02
448.903	2316.76
449.11	2333.15
449.316	2288.09
449.522	2257.37
449.728	2531.8
449.935	2587.1
450.141	2736.6
450.347	2773.46
450.553	2740.69
450.76	2845.14
450.966	3158.48
451.172	3178.96
451.378	3307.98
451.584	3236.3
451.791	3682.76
451.997	3686.86
452.203	3799.49
452.409	3873.22
452.615	4049.35
452.821	3971.52
453.027	4043.2
453.233	4585.91
453.44	4299.2
453.646	4741.56
453.852	4911.54
454.058	5118.39
454.264	5157.3
454.47	5575.08
454.676	5511.6
454.882	6013.35
455.088	5781.93
455.294	6042.02
455.5	6594.97
455.705	7092.63
455.911	6764.95
456.117	7072.15
456.323	7256.47
456.529	7276.94
456.735	8087.94
456.941	8241.54
457.147	8530.3
457.352	8890.74
457.558	8978.81
457.764	9623.92
457.97	9894.25
458.176	10156.39
458.381	10768.73
458.587	10897.75
458.793	11489.62
458.999	11374.93
459.204	12951.87
459.41	13537.59
459.616	13119.8
459.821	13981.99
460.027	14692.64
460.233	15345.94
460.438	15333.65
460.644	15954.19
460.85	16337.16
461.055	17105.15
461.261	18024.68
461.466	17522.93
461.672	17828.08
461.878	20043.98
462.083	19413.21
462.289	20486.34
462.494	21008.58
462.7	21223.61
462.905	21233.85
463.111	23132.32
463.316	24141.97
463.522	24371.34
463.727	25393.28
463.932	26323.05
464.138	27408.48
464.343	28409.93
464.549	28385.36
464.754	30394.42
464.959	31113.25
465.165	31840.28
465.37	31950.87
465.575	31723.55
465.781	33734.65
465.986	35090.41
466.191	34197.49
466.397	34336.76
466.602	33955.83
466.807	35921.88
467.012	35968.99
467.218	36896.72
467.423	37171.14
467.628	38191.03
467.833	39600.04
468.038	39147.43
468.244	38635.44
468.449	40394.65
468.654	39626.66
468.859	39851.94
469.064	39688.1
469.269	39022.51
469.474	39321.51
469.679	40230.81
