Data from USB4F104151__54__10-26-01-430.txt Node

Date: Wed Feb 26 10:26:01 EST 2025
User: louis
Spectrometer: USB4F10415
Trigger mode: 4
Integration Time (sec): 1.000000E-1
Scans to average: 1
Electric dark correction enabled: true
Nonlinearity correction enabled: false
Boxcar width: 0
XAxis mode: Wavelengths
Number of Pixels in Spectrum: 3648
>>>>>Begin Spectral Data<<<<<
178.204	-366.59
178.424	-366.59
178.644	-366.59
178.864	-440.31
179.084	-344.06
179.304	18.43
179.524	47.1
179.744	-14.34
179.964	28.67
180.184	22.53
180.404	-16.38
180.624	-36.86
180.844	-10.24
181.064	-57.34
181.283	45.06
181.503	-57.34
181.723	30.72
181.943	-45.06
182.163	165.89
182.383	12.29
182.602	0
182.822	190.46
183.042	88.06
183.262	0
183.482	14.34
183.701	34.82
183.921	12.29
184.141	-77.82
184.361	92.16
184.58	104.45
184.8	133.12
185.02	12.29
185.239	153.6
185.459	71.68
185.679	194.56
185.898	-155.65
186.118	79.87
186.338	32.77
186.557	55.3
186.777	-75.77
186.997	38.91
187.216	-12.29
187.436	200.7
187.655	112.64
187.875	34.82
188.095	67.58
188.314	155.65
188.534	161.79
188.753	-24.58
188.973	28.67
189.192	219.13
189.412	71.68
189.631	59.39
189.851	102.4
190.07	184.32
190.29	22.53
190.509	-2.05
190.729	81.92
190.948	114.69
191.168	292.86
191.387	79.87
191.607	8.19
191.826	28.67
192.045	114.69
192.265	-71.68
192.484	114.69
192.704	90.11
192.923	-65.54
193.142	245.76
193.362	126.97
193.581	161.79
193.8	129.02
194.02	86.01
194.239	40.96
194.458	43.01
194.678	75.77
194.897	40.96
195.116	151.55
195.335	67.58
195.555	18.43
195.774	14.34
195.993	86.01
196.212	-2.05
196.432	-30.72
196.651	18.43
196.87	-24.58
197.089	266.24
197.308	83.97
197.528	53.25
197.747	8.19
197.966	22.53
198.185	172.03
198.404	18.43
198.623	65.54
198.842	92.16
199.062	102.4
199.281	71.68
199.5	59.39
199.719	110.59
199.938	77.82
200.157	151.55
200.376	38.91
200.595	96.25
200.814	71.68
201.033	-32.77
201.252	215.04
201.471	122.88
201.69	124.93
201.909	6.14
202.128	135.17
202.347	126.97
202.566	38.91
202.785	-53.25
203.004	28.67
203.223	264.19
203.442	-81.92
203.661	-18.43
203.879	120.83
204.098	88.06
204.317	-2.05
204.536	102.4
204.755	122.88
204.974	188.41
205.193	-26.62
205.411	120.83
205.63	112.64
205.849	36.86
206.068	-59.39
206.287	-18.43
206.505	161.79
206.724	98.3
206.943	24.58
207.162	36.86
207.381	108.54
207.599	45.06
207.818	47.1
208.037	10.24
208.255	53.25
208.474	149.5
208.693	-4.1
208.911	40.96
209.13	75.77
209.349	139.26
209.567	102.4
209.786	83.97
210.005	102.4
210.223	59.39
210.442	-212.99
210.661	61.44
210.879	86.01
211.098	79.87
211.316	57.34
211.535	40.96
211.753	71.68
211.972	75.77
212.191	69.63
212.409	-47.1
212.628	153.6
212.846	38.91
213.065	92.16
213.283	129.02
213.502	65.54
213.72	96.25
213.938	75.77
214.157	65.54
214.375	67.58
214.594	124.93
214.812	141.31
215.031	124.93
215.249	43.01
215.467	30.72
215.686	104.45
215.904	94.21
216.122	24.58
216.341	118.78
216.559	47.1
216.778	88.06
216.996	167.93
217.214	-2.05
217.432	10.24
217.651	-34.82
217.869	110.59
218.087	-36.86
218.306	-24.58
218.524	43.01
218.742	-8.19
218.96	112.64
219.179	79.87
219.397	83.97
219.615	239.61
219.833	176.13
220.051	-4.1
220.27	126.97
220.488	120.83
220.706	4.1
220.924	6.14
221.142	16.38
221.36	8.19
221.578	32.77
221.796	71.68
222.015	153.6
222.233	18.43
222.451	151.55
222.669	-63.49
222.887	73.73
223.105	-30.72
223.323	38.91
223.541	-63.49
223.759	-2.05
223.977	61.44
224.195	135.17
224.413	161.79
224.631	-2.05
224.849	118.78
225.067	301.05
225.285	96.25
225.503	-8.19
225.721	-67.58
225.939	53.25
226.157	112.64
226.375	235.52
226.592	-10.24
226.81	51.2
227.028	63.49
227.246	151.55
227.464	102.4
227.682	77.82
227.9	67.58
228.117	75.77
228.335	-57.34
228.553	88.06
228.771	14.34
228.989	79.87
229.206	122.88
229.424	51.2
229.642	-8.19
229.86	-24.58
230.077	116.73
230.295	79.87
230.513	110.59
230.731	36.86
230.948	161.79
231.166	186.37
231.384	-10.24
231.601	-63.49
231.819	102.4
232.037	-14.34
232.254	-67.58
232.472	53.25
232.689	36.86
232.907	145.41
233.125	36.86
233.342	-12.29
233.56	26.62
233.777	-20.48
233.995	-18.43
234.213	149.5
234.43	98.3
234.648	38.91
234.865	40.96
235.083	57.34
235.3	100.35
235.518	96.25
235.735	153.6
235.953	141.31
236.17	79.87
236.388	-43.01
236.605	8.19
236.822	104.45
237.04	149.5
237.257	12.29
237.475	-6.14
237.692	30.72
237.909	81.92
238.127	-55.3
238.344	98.3
238.562	14.34
238.779	28.67
238.996	-59.39
239.214	59.39
239.431	104.45
239.648	112.64
239.865	18.43
240.083	120.83
240.3	22.53
240.517	36.86
240.735	-32.77
240.952	135.17
241.169	53.25
241.386	108.54
241.603	38.91
241.821	-14.34
242.038	90.11
242.255	129.02
242.472	-20.48
242.689	8.19
242.907	81.92
243.124	90.11
243.341	-22.53
243.558	-2.05
243.775	-12.29
243.992	-8.19
244.209	73.73
244.426	221.18
244.643	133.12
244.86	45.06
245.078	114.69
245.295	38.91
245.512	36.86
245.729	71.68
245.946	108.54
246.163	90.11
246.38	-14.34
246.597	122.88
246.814	106.49
247.031	18.43
247.248	26.62
247.464	55.3
247.681	63.49
247.898	190.46
248.115	86.01
248.332	-53.25
248.549	169.98
248.766	266.24
248.983	106.49
249.2	98.3
249.417	122.88
249.633	-98.3
249.85	163.84
250.067	43.01
250.284	47.1
250.501	172.03
250.717	59.39
250.934	0
251.151	116.73
251.368	61.44
251.585	2.05
251.801	26.62
252.018	18.43
252.235	88.06
252.451	-65.54
252.668	83.97
252.885	176.13
253.102	77.82
253.318	92.16
253.535	34.82
253.752	20.48
253.968	59.39
254.185	-114.69
254.401	112.64
254.618	122.88
254.835	26.62
255.051	114.69
255.268	43.01
255.484	120.83
255.701	-6.14
255.917	63.49
256.134	-10.24
256.351	71.68
256.567	10.24
256.784	28.67
257	71.68
257.217	90.11
257.433	79.87
257.65	4.1
257.866	120.83
258.082	-20.48
258.299	26.62
258.515	67.58
258.732	0
258.948	-32.77
259.165	10.24
259.381	-55.3
259.597	45.06
259.814	79.87
260.03	47.1
260.246	59.39
260.463	114.69
260.679	157.69
260.895	83.97
261.112	14.34
261.328	77.82
261.544	4.1
261.761	178.17
261.977	16.38
262.193	-18.43
262.409	81.92
262.626	-6.14
262.842	88.06
263.058	10.24
263.274	139.26
263.49	71.68
263.707	151.55
263.923	102.4
264.139	-53.25
264.355	65.54
264.571	96.25
264.787	88.06
265.004	102.4
265.22	75.77
265.436	32.77
265.652	34.82
265.868	75.77
266.084	73.73
266.3	61.44
266.516	-51.2
266.732	28.67
266.948	40.96
267.164	-6.14
267.38	83.97
267.596	36.86
267.812	176.13
268.028	59.39
268.244	79.87
268.46	49.15
268.676	-10.24
268.892	122.88
269.108	38.91
269.324	73.73
269.54	20.48
269.756	106.49
269.972	-61.44
270.188	-32.77
270.403	-30.72
270.619	-36.86
270.835	47.1
271.051	79.87
271.267	-22.53
271.483	-14.34
271.698	100.35
271.914	30.72
272.13	-53.25
272.346	-12.29
272.562	67.58
272.777	129.02
272.993	-2.05
273.209	-24.58
273.425	69.63
273.64	-65.54
273.856	81.92
274.072	-2.05
274.287	73.73
274.503	79.87
274.719	43.01
274.934	10.24
275.15	-10.24
275.366	96.25
275.581	22.53
275.797	-36.86
276.012	14.34
276.228	-49.15
276.444	96.25
276.659	176.13
276.875	24.58
277.09	69.63
277.306	77.82
277.521	-8.19
277.737	18.43
277.952	59.39
278.168	24.58
278.383	67.58
278.599	63.49
278.814	77.82
279.03	-40.96
279.245	65.54
279.461	32.77
279.676	174.08
279.892	-38.91
280.107	12.29
280.322	83.97
280.538	30.72
280.753	-43.01
280.969	77.82
281.184	14.34
281.399	92.16
281.615	100.35
281.83	-2.05
282.045	-63.49
282.26	-28.67
282.476	30.72
282.691	112.64
282.906	120.83
283.122	102.4
283.337	-14.34
283.552	16.38
283.767	-28.67
283.983	129.02
284.198	40.96
284.413	69.63
284.628	-112.64
284.843	83.97
285.058	137.21
285.274	0
285.489	4.1
285.704	79.87
285.919	-4.1
286.134	77.82
286.349	83.97
286.564	-8.19
286.779	210.94
286.995	18.43
287.21	-22.53
287.425	122.88
287.64	32.77
287.855	75.77
288.07	-2.05
288.285	106.49
288.5	114.69
288.715	55.3
288.93	-65.54
289.145	94.21
289.36	129.02
289.575	22.53
289.79	100.35
290.004	-10.24
290.219	129.02
290.434	-10.24
290.649	-26.62
290.864	-18.43
291.079	43.01
291.294	53.25
291.509	108.54
291.724	-18.43
291.938	32.77
292.153	83.97
292.368	6.14
292.583	61.44
292.798	94.21
293.012	26.62
293.227	81.92
293.442	24.58
293.657	49.15
293.871	90.11
294.086	51.2
294.301	145.41
294.516	135.17
294.73	26.62
294.945	-32.77
295.16	22.53
295.374	143.36
295.589	57.34
295.804	40.96
296.018	90.11
296.233	145.41
296.447	43.01
296.662	36.86
296.877	137.21
297.091	104.45
297.306	26.62
297.52	79.87
297.735	65.54
297.949	96.25
298.164	32.77
298.378	98.3
298.593	38.91
298.807	-8.19
299.022	36.86
299.236	120.83
299.451	38.91
299.665	71.68
299.88	104.45
300.094	88.06
300.309	-4.1
300.523	53.25
300.737	20.48
300.952	75.77
301.166	151.55
301.381	2.05
301.595	59.39
301.809	81.92
302.024	86.01
302.238	6.14
302.452	135.17
302.667	73.73
302.881	83.97
303.095	155.65
303.309	65.54
303.524	16.38
303.738	53.25
303.952	4.1
304.166	151.55
304.381	-96.25
304.595	186.37
304.809	12.29
305.023	55.3
305.237	18.43
305.452	28.67
305.666	106.49
305.88	92.16
306.094	167.93
306.308	114.69
306.522	86.01
306.736	124.93
306.95	137.21
307.164	90.11
307.379	90.11
307.593	106.49
307.807	167.93
308.021	88.06
308.235	149.5
308.449	-90.11
308.663	0
308.877	221.18
309.091	63.49
309.305	47.1
309.519	-108.54
309.733	110.59
309.947	-53.25
310.161	182.27
310.374	-51.2
310.588	88.06
310.802	-45.06
311.016	69.63
311.23	57.34
311.444	45.06
311.658	73.73
311.872	165.89
312.085	131.07
312.299	196.61
312.513	178.17
312.727	55.3
312.941	-75.77
313.154	45.06
313.368	-28.67
313.582	61.44
313.796	124.93
314.009	8.19
314.223	104.45
314.437	71.68
314.651	75.77
314.864	-6.14
315.078	34.82
315.292	-14.34
315.505	4.1
315.719	16.38
315.933	88.06
316.146	30.72
316.36	-6.14
316.573	157.69
316.787	116.73
317.001	94.21
317.214	-34.82
317.428	47.1
317.641	28.67
317.855	45.06
318.068	51.2
318.282	-67.58
318.495	178.17
318.709	4.1
318.922	30.72
319.136	178.17
319.349	38.91
319.563	43.01
319.776	75.77
319.99	-79.87
320.203	108.54
320.417	-83.97
320.63	100.35
320.843	159.74
321.057	86.01
321.27	69.63
321.483	59.39
321.697	124.93
321.91	73.73
322.124	112.64
322.337	71.68
322.55	-24.58
322.763	18.43
322.977	61.44
323.19	16.38
323.403	10.24
323.617	75.77
323.83	63.49
324.043	116.73
324.256	20.48
324.469	-24.58
324.683	79.87
324.896	61.44
325.109	22.53
325.322	-79.87
325.535	77.82
325.748	147.45
325.962	12.29
326.175	-10.24
326.388	83.97
326.601	116.73
326.814	-2.05
327.027	10.24
327.24	88.06
327.453	-81.92
327.666	167.93
327.879	120.83
328.092	67.58
328.305	137.21
328.518	43.01
328.731	-10.24
328.944	32.77
329.157	88.06
329.37	43.01
329.583	202.75
329.796	129.02
330.009	8.19
330.222	100.35
330.435	47.1
330.648	0
330.861	129.02
331.073	118.78
331.286	161.79
331.499	92.16
331.712	-4.1
331.925	47.1
332.138	124.93
332.35	94.21
332.563	-14.34
332.776	188.41
332.989	-73.73
333.202	47.1
333.414	10.24
333.627	-49.15
333.84	67.58
334.053	40.96
334.265	-24.58
334.478	104.45
334.691	26.62
334.903	118.78
335.116	-53.25
335.329	32.77
335.541	73.73
335.754	192.51
335.966	-14.34
336.179	-61.44
336.392	24.58
336.604	77.82
336.817	83.97
337.029	20.48
337.242	26.62
337.454	98.3
337.667	-2.05
337.88	98.3
338.092	61.44
338.305	24.58
338.517	-6.14
338.729	155.65
338.942	102.4
339.154	24.58
339.367	38.91
339.579	114.69
339.792	-34.82
340.004	188.41
340.217	20.48
340.429	53.25
340.641	-24.58
340.854	12.29
341.066	108.54
341.278	159.74
341.491	126.97
341.703	77.82
341.915	14.34
342.128	81.92
342.34	100.35
342.552	57.34
342.764	88.06
342.977	22.53
343.189	57.34
343.401	141.31
343.613	-40.96
343.826	100.35
344.038	-8.19
344.25	12.29
344.462	20.48
344.674	120.83
344.886	4.1
345.099	100.35
345.311	12.29
345.523	61.44
345.735	-12.29
345.947	47.1
346.159	100.35
346.371	114.69
346.583	55.3
346.795	161.79
347.007	18.43
347.219	174.08
347.431	4.1
347.643	129.02
347.855	-16.38
348.067	178.17
348.279	10.24
348.491	22.53
348.703	73.73
348.915	-10.24
349.127	-14.34
349.339	104.45
349.551	14.34
349.763	26.62
349.975	0
350.187	112.64
350.399	219.13
350.61	63.49
350.822	-69.63
351.034	59.39
351.246	8.19
351.458	108.54
351.669	65.54
351.881	47.1
352.093	182.27
352.305	116.73
352.517	96.25
352.728	139.26
352.94	129.02
353.152	83.97
353.363	-32.77
353.575	86.01
353.787	219.13
353.999	20.48
354.21	223.23
354.422	47.1
354.633	129.02
354.845	71.68
355.057	108.54
355.268	45.06
355.48	137.21
355.692	-32.77
355.903	81.92
356.115	18.43
356.326	6.14
356.538	217.08
356.749	104.45
356.961	161.79
357.172	47.1
357.384	28.67
357.595	182.27
357.807	47.1
358.018	20.48
358.23	55.3
358.441	180.22
358.653	110.59
358.864	92.16
359.075	-30.72
359.287	59.39
359.498	63.49
359.709	92.16
359.921	75.77
360.132	59.39
360.344	22.53
360.555	38.91
360.766	73.73
360.977	-12.29
361.189	180.22
361.4	47.1
361.611	169.98
361.823	67.58
362.034	51.2
362.245	-2.05
362.456	47.1
362.667	122.88
362.879	-8.19
363.09	112.64
363.301	-4.1
363.512	32.77
363.723	-49.15
363.935	18.43
364.146	77.82
364.357	-32.77
364.568	67.58
364.779	-67.58
364.99	86.01
365.201	-79.87
365.412	157.69
365.623	16.38
365.834	155.65
366.045	45.06
366.256	73.73
366.467	49.15
366.678	-57.34
366.889	61.44
367.1	36.86
367.311	92.16
367.522	71.68
367.733	86.01
367.944	141.31
368.155	4.1
368.366	102.4
368.577	124.93
368.788	143.36
368.999	-77.82
369.209	114.69
369.42	215.04
369.631	272.38
369.842	96.25
370.053	59.39
370.264	124.93
370.474	-40.96
370.685	57.34
370.896	30.72
371.107	81.92
371.317	-18.43
371.528	63.49
371.739	120.83
371.95	155.65
372.16	24.58
372.371	10.24
372.582	55.3
372.792	75.77
373.003	75.77
373.214	108.54
373.424	102.4
373.635	30.72
373.846	210.94
374.056	55.3
374.267	133.12
374.477	143.36
374.688	-34.82
374.898	12.29
375.109	45.06
375.319	38.91
375.53	79.87
375.74	110.59
375.951	67.58
376.161	57.34
376.372	81.92
376.582	12.29
376.793	135.17
377.003	-26.62
377.214	8.19
377.424	77.82
377.635	30.72
377.845	6.14
378.055	102.4
378.266	-16.38
378.476	-12.29
378.686	32.77
378.897	79.87
379.107	133.12
379.317	57.34
379.528	22.53
379.738	73.73
379.948	-59.39
380.158	176.13
380.369	86.01
380.579	45.06
380.789	55.3
380.999	0
381.21	116.73
381.42	178.17
381.63	24.58
381.84	182.27
382.05	98.3
382.261	110.59
382.471	159.74
382.681	-4.1
382.891	184.32
383.101	77.82
383.311	-59.39
383.521	-55.3
383.731	36.86
383.941	167.93
384.151	63.49
384.361	55.3
384.571	16.38
384.781	110.59
384.991	108.54
385.201	225.28
385.411	30.72
385.621	86.01
385.831	106.49
386.041	51.2
386.251	100.35
386.461	71.68
386.671	-18.43
386.881	114.69
387.091	63.49
387.301	112.64
387.511	71.68
387.72	149.5
387.93	104.45
388.14	-6.14
388.35	10.24
388.56	135.17
388.769	200.7
388.979	71.68
389.189	-4.1
389.399	14.34
389.609	163.84
389.818	45.06
390.028	79.87
390.238	71.68
390.447	16.38
390.657	227.32
390.867	45.06
391.076	-43.01
391.286	106.49
391.496	28.67
391.705	40.96
391.915	139.26
392.125	92.16
392.334	-36.86
392.544	143.36
392.753	30.72
392.963	55.3
393.172	71.68
393.382	53.25
393.591	161.79
393.801	67.58
394.01	137.21
394.22	153.6
394.429	16.38
394.639	24.58
394.848	61.44
395.058	63.49
395.267	57.34
395.477	118.78
395.686	20.48
395.895	212.99
396.105	217.08
396.314	139.26
396.524	90.11
396.733	129.02
396.942	86.01
397.152	71.68
397.361	102.4
397.57	69.63
397.78	6.14
397.989	157.69
398.198	190.46
398.407	63.49
398.617	65.54
398.826	47.1
399.035	57.34
399.244	116.73
399.453	77.82
399.663	96.25
399.872	53.25
400.081	2.05
400.29	176.13
400.499	-81.92
400.708	83.97
400.917	83.97
401.127	30.72
401.336	12.29
401.545	206.84
401.754	67.58
401.963	75.77
402.172	77.82
402.381	-81.92
402.59	81.92
402.799	81.92
403.008	122.88
403.217	86.01
403.426	151.55
403.635	-108.54
403.844	8.19
404.053	6.14
404.262	45.06
404.471	145.41
404.68	0
404.888	-20.48
405.097	57.34
405.306	22.53
405.515	110.59
405.724	-6.14
405.933	131.07
406.142	94.21
406.35	120.83
406.559	81.92
406.768	-30.72
406.977	143.36
407.185	2.05
407.394	69.63
407.603	20.48
407.812	47.1
408.02	112.64
408.229	51.2
408.438	32.77
408.646	-8.19
408.855	26.62
409.064	83.97
409.272	32.77
409.481	139.26
409.69	63.49
409.898	53.25
410.107	67.58
410.315	202.75
410.524	8.19
410.733	24.58
410.941	79.87
411.15	-6.14
411.358	147.45
411.567	114.69
411.775	63.49
411.984	59.39
412.192	98.3
412.401	-16.38
412.609	135.17
412.818	75.77
413.026	161.79
413.234	75.77
413.443	34.82
413.651	28.67
413.86	28.67
414.068	212.99
414.276	104.45
414.485	-4.1
414.693	204.8
414.901	200.7
415.11	131.07
415.318	131.07
415.526	63.49
415.734	30.72
415.943	139.26
416.151	159.74
416.359	18.43
416.567	30.72
416.776	38.91
416.984	126.97
417.192	143.36
417.4	47.1
417.608	-32.77
417.817	30.72
418.025	51.2
418.233	184.32
418.441	-47.1
418.649	-43.01
418.857	104.45
419.065	153.6
419.273	112.64
419.481	71.68
419.689	90.11
419.897	34.82
420.105	16.38
420.313	65.54
420.521	227.32
420.729	94.21
420.937	98.3
421.145	38.91
421.353	149.5
421.561	202.75
421.769	133.12
421.977	53.25
422.185	165.89
422.393	57.34
422.601	188.41
422.809	51.2
423.017	139.26
423.224	124.93
423.432	129.02
423.64	61.44
423.848	161.79
424.056	86.01
424.263	217.08
424.471	71.68
424.679	147.45
424.887	86.01
425.094	159.74
425.302	149.5
425.51	77.82
425.718	186.37
425.925	100.35
426.133	12.29
426.341	210.94
426.548	-71.68
426.756	10.24
426.964	157.69
427.171	51.2
427.379	143.36
427.586	129.02
427.794	67.58
428.001	161.79
428.209	86.01
428.417	149.5
428.624	126.97
428.832	-26.62
429.039	135.17
429.247	79.87
429.454	71.68
429.662	190.46
429.869	126.97
430.076	106.49
430.284	159.74
430.491	196.61
430.699	182.27
430.906	235.52
431.114	122.88
431.321	135.17
431.528	126.97
431.736	163.84
431.943	118.78
432.15	184.32
432.358	233.47
432.565	264.19
432.772	24.58
432.979	260.09
433.187	167.93
433.394	235.52
433.601	102.4
433.808	215.04
434.016	223.23
434.223	266.24
434.43	225.28
434.637	239.61
434.844	210.94
435.052	122.88
435.259	235.52
435.466	319.48
435.673	202.75
435.88	288.76
436.087	335.87
436.294	253.95
436.501	270.33
436.708	286.72
436.915	286.72
437.122	337.91
437.329	219.13
437.537	270.33
437.743	292.86
437.95	487.42
438.157	372.73
438.364	354.3
438.571	348.15
438.778	342.01
438.985	507.9
439.192	446.46
439.399	423.93
439.606	462.84
439.813	481.27
440.02	616.44
440.227	669.69
440.433	544.76
440.64	514.04
440.847	526.33
441.054	522.23
441.261	700.41
441.467	591.86
441.674	575.48
441.881	681.97
442.088	542.71
442.294	729.08
442.501	704.5
442.708	763.89
442.914	737.27
443.121	962.55
443.328	790.52
443.534	919.54
443.741	825.33
443.948	692.21
444.154	925.68
444.361	1107.95
444.568	935.92
444.774	1056.75
444.981	956.4
445.187	1118.19
445.394	1148.91
445.6	1124.33
445.807	1222.64
446.013	1161.2
446.22	1193.97
446.426	1251.31
446.633	1421.29
446.839	1517.54
447.046	1386.47
447.252	1425.39
447.459	1486.83
447.665	1595.37
447.871	1720.29
448.078	1810.4
448.284	1703.91
448.491	2004.96
448.697	1900.52
448.903	2045.92
449.11	2082.78
449.316	2058.21
449.522	2230.24
449.728	2363.36
449.935	2312.16
450.141	2359.26
450.347	2625.5
450.553	2383.84
450.76	2459.61
450.966	2691.03
451.172	2738.13
451.378	2914.26
451.584	2953.17
451.791	3250.13
451.997	3211.22
452.203	3274.7
452.409	3559.37
452.615	3678.15
452.821	3551.18
453.027	3563.47
453.233	4071.36
453.44	3895.24
453.646	4171.71
453.852	4247.49
454.058	4313.02
454.264	4499.39
454.47	4833.21
454.676	4816.82
454.882	5345.2
455.088	5068.72
455.294	5490.6
455.5	5758.89
455.705	6191.01
455.911	5912.49
456.117	6141.86
456.323	6584.22
456.529	6432.67
456.735	7171.99
456.941	7204.75
457.147	7399.31
457.352	7794.57
457.558	7604.11
457.764	8484.73
457.97	8566.65
458.176	8957.82
458.381	9365.36
458.587	9455.47
458.793	10022.76
458.999	9967.46
459.204	11421.52
459.41	11636.56
459.616	11415.38
459.821	12003.14
460.027	12490.56
460.233	13420.34
460.438	13297.46
460.644	14239.53
460.85	13924.14
461.055	14671.65
461.261	15351.57
461.466	14907.16
461.672	15327
461.878	17250.04
462.083	17116.92
462.289	17430.26
462.494	18112.24
462.7	18030.32
462.905	18558.69
463.111	19906.26
463.316	20905.67
463.522	21280.44
463.727	21849.78
463.932	23072.42
464.138	23424.67
464.343	24108.69
464.549	24606.34
464.754	26494.57
464.959	27317.86
465.165	27551.32
465.37	27530.84
465.575	27500.12
465.781	29668.92
465.986	30314.03
466.191	29605.44
466.397	29929.02
466.602	29593.15
466.807	30866.98
467.012	31440.42
467.218	31880.73
467.423	31919.64
467.628	32693.77
467.833	34584.05
468.038	34246.13
468.244	33500.67
468.449	34969.07
