Data from USB4F104151__32__11-24-58-603.txt Node

Date: Wed Feb 26 11:24:58 EST 2025
User: louis
Spectrometer: USB4F10415
Trigger mode: 4
Integration Time (sec): 1.000000E-1
Scans to average: 1
Electric dark correction enabled: true
Nonlinearity correction enabled: false
Boxcar width: 0
XAxis mode: Wavelengths
Number of Pixels in Spectrum: 3648
>>>>>Begin Spectral Data<<<<<
178.204	-371.88
178.424	-371.88
178.644	-371.88
178.864	-412.84
179.084	-384.16
179.304	-48.3
179.524	78.68
179.744	-87.21
179.964	37.72
180.184	39.76
180.404	72.53
180.624	-70.83
180.844	-1.19
181.064	-103.59
181.283	25.43
181.503	-23.72
181.723	80.72
181.943	-76.97
182.163	222.03
182.383	19.29
182.602	95.06
182.822	172.88
183.042	115.54
183.262	35.67
183.482	39.76
183.701	90.96
183.921	158.55
184.141	-44.2
184.361	68.44
184.58	66.39
184.8	60.24
185.02	80.72
185.239	183.12
185.459	62.29
185.679	181.07
185.898	-64.68
186.118	82.77
186.338	148.31
186.557	70.48
186.777	-54.44
186.997	-66.73
187.216	21.33
187.436	230.23
187.655	156.5
187.875	99.16
188.095	68.44
188.314	119.64
188.534	129.88
188.753	60.24
188.973	150.36
189.192	232.27
189.412	11.09
189.631	52.05
189.851	37.72
190.07	187.22
190.29	-38.06
190.509	-72.87
190.729	129.88
190.948	148.31
191.168	240.47
191.387	58.2
191.607	60.24
191.826	101.2
192.045	-11.43
192.265	2.9
192.484	15.19
192.704	47.96
192.923	4.95
193.142	174.93
193.362	133.97
193.581	62.29
193.8	39.76
194.02	113.49
194.239	82.77
194.458	101.2
194.678	72.53
194.897	-3.24
195.116	47.96
195.335	25.43
195.555	80.72
195.774	21.33
195.993	80.72
196.212	41.81
196.432	-33.96
196.651	23.38
196.87	45.91
197.089	176.98
197.308	99.16
197.528	54.1
197.747	-46.25
197.966	88.92
198.185	119.64
198.404	25.43
198.623	52.05
198.842	189.27
199.062	66.39
199.281	33.62
199.5	43.86
199.719	88.92
199.938	62.29
200.157	66.39
200.376	99.16
200.595	142.16
200.814	127.83
201.033	68.44
201.252	222.03
201.471	15.19
201.69	119.64
201.909	105.3
202.128	158.55
202.347	107.35
202.566	127.83
202.785	-60.59
203.004	39.76
203.223	207.7
203.442	47.96
203.661	-29.87
203.879	72.53
204.098	117.59
204.317	41.81
204.536	150.36
204.755	21.33
204.974	107.35
205.193	7
205.411	136.02
205.63	31.57
205.849	88.92
206.068	43.86
206.287	25.43
206.505	191.31
206.724	62.29
206.943	-25.77
207.162	2.9
207.381	140.12
207.599	86.87
207.818	11.09
208.037	50
208.255	76.63
208.474	146.26
208.693	64.34
208.911	39.76
209.13	125.78
209.349	115.54
209.567	174.93
209.786	148.31
210.005	146.26
210.223	-42.15
210.442	-132.26
210.661	62.29
210.879	21.33
211.098	23.38
211.316	50
211.535	84.82
211.753	31.57
211.972	95.06
212.191	74.58
212.409	138.07
212.628	76.63
212.846	13.14
213.065	29.52
213.283	133.97
213.502	105.3
213.72	95.06
213.938	41.81
214.157	15.19
214.375	197.46
214.594	72.53
214.812	140.12
215.031	52.05
215.249	101.2
215.467	74.58
215.686	95.06
215.904	111.44
216.122	66.39
216.341	111.44
216.559	109.4
216.778	115.54
216.996	121.68
217.214	-13.48
217.432	0.85
217.651	-13.48
217.869	107.35
218.087	60.24
218.306	56.15
218.524	56.15
218.742	21.33
218.96	70.48
219.179	99.16
219.397	50
219.615	318.29
219.833	35.67
220.051	-27.82
220.27	191.31
220.488	195.41
220.706	127.83
220.924	-3.24
221.142	62.29
221.36	119.64
221.578	41.81
221.796	109.4
222.015	45.91
222.233	82.77
222.451	219.99
222.669	-40.11
222.887	50
223.105	80.72
223.323	82.77
223.541	0.85
223.759	68.44
223.977	72.53
224.195	176.98
224.413	84.82
224.631	78.68
224.849	111.44
225.067	232.27
225.285	9.05
225.503	-3.24
225.721	-33.96
225.939	121.68
226.157	45.91
226.375	226.13
226.592	-15.53
226.81	93.01
227.028	111.44
227.246	125.78
227.464	43.86
227.682	131.92
227.9	140.12
228.117	193.36
228.335	142.16
228.553	70.48
228.771	62.29
228.989	76.63
229.206	133.97
229.424	74.58
229.642	37.72
229.86	-7.34
230.077	86.87
230.295	-3.24
230.513	103.25
230.731	80.72
230.948	152.4
231.166	246.61
231.384	4.95
231.601	-27.82
231.819	76.63
232.037	11.09
232.254	-56.49
232.472	72.53
232.689	39.76
232.907	136.02
233.125	35.67
233.342	-46.25
233.56	56.15
233.777	84.82
233.995	35.67
234.213	101.2
234.43	64.34
234.648	19.29
234.865	50
235.083	123.73
235.3	95.06
235.518	80.72
235.735	174.93
235.953	158.55
236.17	80.72
236.388	107.35
236.605	97.11
236.822	131.92
237.04	176.98
237.257	17.24
237.475	2.9
237.692	107.35
237.909	162.64
238.127	9.05
238.344	90.96
238.562	54.1
238.779	-25.77
238.996	2.9
239.214	76.63
239.431	80.72
239.648	33.62
239.865	119.64
240.083	205.65
240.3	17.24
240.517	27.48
240.735	50
240.952	162.64
241.169	52.05
241.386	58.2
241.603	58.2
241.821	-74.92
242.038	56.15
242.255	127.83
242.472	2.9
242.689	56.15
242.907	29.52
243.124	90.96
243.341	125.78
243.558	-52.39
243.775	-29.87
243.992	-58.54
244.209	127.83
244.426	144.21
244.643	66.39
244.86	-23.72
245.078	62.29
245.295	111.44
245.512	88.92
245.729	43.86
245.946	88.92
246.163	29.52
246.38	-7.34
246.597	47.96
246.814	125.78
247.031	62.29
247.248	33.62
247.464	103.25
247.681	-17.58
247.898	117.59
248.115	131.92
248.332	-52.39
248.549	213.84
248.766	236.37
248.983	154.45
249.2	82.77
249.417	121.68
249.633	31.57
249.85	99.16
250.067	29.52
250.284	131.92
250.501	70.48
250.717	68.44
250.934	-40.11
251.151	33.62
251.368	101.2
251.585	115.54
251.801	41.81
252.018	-89.26
252.235	148.31
252.451	-91.31
252.668	45.91
252.885	156.5
253.102	80.72
253.318	58.2
253.535	7
253.752	-15.53
253.968	43.86
254.185	-29.87
254.401	97.11
254.618	70.48
254.835	21.33
255.051	156.5
255.268	74.58
255.484	103.25
255.701	60.24
255.917	56.15
256.134	7
256.351	27.48
256.567	-36.01
256.784	103.25
257	23.38
257.217	193.36
257.433	172.88
257.65	33.62
257.866	93.01
258.082	-25.77
258.299	74.58
258.515	78.68
258.732	78.68
258.948	-9.39
259.165	101.2
259.381	-19.63
259.597	125.78
259.814	39.76
260.03	23.38
260.246	27.48
260.463	197.46
260.679	123.73
260.895	80.72
261.112	138.07
261.328	117.59
261.544	64.34
261.761	140.12
261.977	64.34
262.193	-58.54
262.409	13.14
262.626	74.58
262.842	50
263.058	2.9
263.274	160.59
263.49	107.35
263.707	172.88
263.923	195.41
264.139	47.96
264.355	99.16
264.571	90.96
264.787	138.07
265.004	166.74
265.22	84.82
265.436	66.39
265.652	74.58
265.868	54.1
266.084	33.62
266.3	11.09
266.516	21.33
266.732	52.05
266.948	103.25
267.164	70.48
267.38	189.27
267.596	93.01
267.812	164.69
268.028	95.06
268.244	-44.2
268.46	-15.53
268.676	37.72
268.892	88.92
269.108	37.72
269.324	-19.63
269.54	-13.48
269.756	74.58
269.972	4.95
270.188	68.44
270.403	-9.39
270.619	-13.48
270.835	88.92
271.051	52.05
271.267	-54.44
271.483	25.43
271.698	119.64
271.914	90.96
272.13	78.68
272.346	66.39
272.562	-5.29
272.777	162.64
272.993	13.14
273.209	78.68
273.425	68.44
273.64	31.57
273.856	183.12
274.072	-19.63
274.287	-21.67
274.503	80.72
274.719	74.58
274.934	39.76
275.15	25.43
275.366	-5.29
275.581	19.29
275.797	4.95
276.012	84.82
276.228	37.72
276.444	0.85
276.659	144.21
276.875	-19.63
277.09	99.16
277.306	11.09
277.521	54.1
277.737	129.88
277.952	140.12
278.168	-13.48
278.383	70.48
278.599	64.34
278.814	183.12
279.03	2.9
279.245	127.83
279.461	43.86
279.676	78.68
279.892	31.57
280.107	-46.25
280.322	-1.19
280.538	15.19
280.753	90.96
280.969	109.4
281.184	33.62
281.399	213.84
281.615	76.63
281.83	62.29
282.045	-89.26
282.26	50
282.476	23.38
282.691	115.54
282.906	50
283.122	72.53
283.337	-9.39
283.552	17.24
283.767	82.77
283.983	117.59
284.198	25.43
284.413	123.73
284.628	47.96
284.843	74.58
285.058	60.24
285.274	29.52
285.489	21.33
285.704	164.69
285.919	25.43
286.134	50
286.349	21.33
286.564	64.34
286.779	70.48
286.995	11.09
287.21	-105.64
287.425	152.4
287.64	-33.96
287.855	156.5
288.07	-58.54
288.285	148.31
288.5	193.36
288.715	172.88
288.93	45.91
289.145	39.76
289.36	179.03
289.575	50
289.79	35.67
290.004	4.95
290.219	211.79
290.434	9.05
290.649	74.58
290.864	-5.29
291.079	64.34
291.294	23.38
291.509	93.01
291.724	29.52
291.938	-25.77
292.153	136.02
292.368	37.72
292.583	76.63
292.798	86.87
293.012	23.38
293.227	131.92
293.442	-74.92
293.657	119.64
293.871	209.75
294.086	84.82
294.301	172.88
294.516	86.87
294.73	119.64
294.945	-62.63
295.16	50
295.374	70.48
295.589	160.59
295.804	39.76
296.018	52.05
296.233	271.19
296.447	66.39
296.662	41.81
296.877	60.24
297.091	103.25
297.306	64.34
297.52	72.53
297.735	29.52
297.949	66.39
298.164	29.52
298.378	19.29
298.593	-52.39
298.807	-36.01
299.022	123.73
299.236	111.44
299.451	52.05
299.665	-17.58
299.88	60.24
300.094	82.77
300.309	25.43
300.523	37.72
300.737	23.38
300.952	82.77
301.166	68.44
301.381	15.19
301.595	58.2
301.809	29.52
302.024	68.44
302.238	-72.87
302.452	138.07
302.667	11.09
302.881	152.4
303.095	140.12
303.309	84.82
303.524	-21.67
303.738	43.86
303.952	-23.72
304.166	64.34
304.381	-38.06
304.595	234.32
304.809	-19.63
305.023	66.39
305.237	-5.29
305.452	13.14
305.666	60.24
305.88	95.06
306.094	93.01
306.308	95.06
306.522	127.83
306.736	107.35
306.95	74.58
307.164	25.43
307.379	95.06
307.593	109.4
307.807	162.64
308.021	90.96
308.235	45.91
308.449	-56.49
308.663	97.11
308.877	191.31
309.091	35.67
309.305	43.86
309.519	-89.26
309.733	115.54
309.947	-111.78
310.161	140.12
310.374	103.25
310.588	133.97
310.802	13.14
311.016	41.81
311.23	105.3
311.444	-48.3
311.658	-7.34
311.872	99.16
312.085	52.05
312.299	105.3
312.513	158.55
312.727	111.44
312.941	27.48
313.154	41.81
313.368	97.11
313.582	84.82
313.796	107.35
314.009	15.19
314.223	66.39
314.437	23.38
314.651	125.78
314.864	43.86
315.078	95.06
315.292	7
315.505	43.86
315.719	88.92
315.933	45.91
316.146	23.38
316.36	-21.67
316.573	152.4
316.787	99.16
317.001	50
317.214	-7.34
317.428	62.29
317.641	-11.43
317.855	13.14
318.068	4.95
318.282	105.3
318.495	281.43
318.709	107.35
318.922	39.76
319.136	152.4
319.349	131.92
319.563	64.34
319.776	123.73
319.99	-36.01
320.203	88.92
320.417	0.85
320.63	70.48
320.843	234.32
321.057	56.15
321.27	43.86
321.483	154.45
321.697	144.21
321.91	37.72
322.124	107.35
322.337	35.67
322.55	15.19
322.763	97.11
322.977	47.96
323.19	29.52
323.403	33.62
323.617	109.4
323.83	41.81
324.043	25.43
324.256	60.24
324.469	11.09
324.683	248.66
324.896	-11.43
325.109	117.59
325.322	-56.49
325.535	133.97
325.748	162.64
325.962	2.9
326.175	136.02
326.388	195.41
326.601	109.4
326.814	19.29
327.027	64.34
327.24	119.64
327.453	-42.15
327.666	70.48
327.879	70.48
328.092	90.96
328.305	127.83
328.518	68.44
328.731	15.19
328.944	21.33
329.157	41.81
329.37	9.05
329.583	121.68
329.796	117.59
330.009	-11.43
330.222	181.07
330.435	150.36
330.648	39.76
330.861	25.43
331.073	187.22
331.286	127.83
331.499	66.39
331.712	-50.35
331.925	162.64
332.138	4.95
332.35	168.79
332.563	45.91
332.776	142.16
332.989	50
333.202	78.68
333.414	-13.48
333.627	99.16
333.84	21.33
334.053	35.67
334.265	-1.19
334.478	2.9
334.691	17.24
334.903	158.55
335.116	-3.24
335.329	66.39
335.541	172.88
335.754	222.03
335.966	109.4
336.179	64.34
336.392	43.86
336.604	21.33
336.817	152.4
337.029	97.11
337.242	105.3
337.454	29.52
337.667	25.43
337.88	148.31
338.092	97.11
338.305	119.64
338.517	60.24
338.729	113.49
338.942	109.4
339.154	-1.19
339.367	-13.48
339.579	88.92
339.792	-25.77
340.004	97.11
340.217	90.96
340.429	121.68
340.641	33.62
340.854	-31.91
341.066	39.76
341.278	209.75
341.491	160.59
341.703	37.72
341.915	-13.48
342.128	107.35
342.34	156.5
342.552	11.09
342.764	50
342.977	9.05
343.189	109.4
343.401	107.35
343.613	2.9
343.826	90.96
344.038	-58.54
344.25	74.58
344.462	31.57
344.674	86.87
344.886	29.52
345.099	52.05
345.311	109.4
345.523	43.86
345.735	-1.19
345.947	101.2
346.159	56.15
346.371	80.72
346.583	54.1
346.795	146.26
347.007	-11.43
347.219	86.87
347.431	107.35
347.643	219.99
347.855	35.67
348.067	138.07
348.279	-3.24
348.491	47.96
348.703	97.11
348.915	0.85
349.127	35.67
349.339	80.72
349.551	-5.29
349.763	123.73
349.975	31.57
350.187	56.15
350.399	115.54
350.61	43.86
350.822	103.25
351.034	80.72
351.246	78.68
351.458	50
351.669	97.11
351.881	11.09
352.093	174.93
352.305	107.35
352.517	70.48
352.728	138.07
352.94	109.4
353.152	140.12
353.363	35.67
353.575	82.77
353.787	136.02
353.999	70.48
354.21	156.5
354.422	-70.83
354.633	58.2
354.845	78.68
355.057	119.64
355.268	144.21
355.48	115.54
355.692	11.09
355.903	74.58
356.115	-25.77
356.326	-31.91
356.538	174.93
356.749	70.48
356.961	230.23
357.172	0.85
357.384	-5.29
357.595	215.89
357.807	25.43
358.018	68.44
358.23	88.92
358.441	238.42
358.653	47.96
358.864	-15.53
359.075	-1.19
359.287	86.87
359.498	80.72
359.709	78.68
359.921	47.96
360.132	93.01
360.344	47.96
360.555	-46.25
360.766	121.68
360.977	70.48
361.189	136.02
361.4	23.38
361.611	99.16
361.823	148.31
362.034	64.34
362.245	-76.97
362.456	86.87
362.667	78.68
362.879	-21.67
363.09	62.29
363.301	121.68
363.512	-5.29
363.723	37.72
363.935	-33.96
364.146	88.92
364.357	33.62
364.568	107.35
364.779	-21.67
364.99	140.12
365.201	-31.91
365.412	140.12
365.623	-76.97
365.834	86.87
366.045	43.86
366.256	23.38
366.467	158.55
366.678	64.34
366.889	82.77
367.1	52.05
367.311	205.65
367.522	2.9
367.733	27.48
367.944	146.26
368.155	54.1
368.366	97.11
368.577	127.83
368.788	131.92
368.999	95.06
369.209	131.92
369.42	187.22
369.631	209.75
369.842	84.82
370.053	64.34
370.264	76.63
370.474	-19.63
370.685	68.44
370.896	80.72
371.107	168.79
371.317	23.38
371.528	31.57
371.739	84.82
371.95	103.25
372.16	62.29
372.371	39.76
372.582	-3.24
372.792	103.25
373.003	52.05
373.214	88.92
373.424	56.15
373.635	-38.06
373.846	176.98
374.056	13.14
374.267	93.01
374.477	97.11
374.688	64.34
374.898	117.59
375.109	31.57
375.319	103.25
375.53	203.6
375.74	103.25
375.951	52.05
376.161	99.16
376.372	207.7
376.582	29.52
376.793	80.72
377.003	74.58
377.214	43.86
377.424	78.68
377.635	97.11
377.845	35.67
378.055	168.79
378.266	21.33
378.476	29.52
378.686	123.73
378.897	156.5
379.107	78.68
379.317	99.16
379.528	37.72
379.738	93.01
379.948	-3.24
380.158	150.36
380.369	84.82
380.579	82.77
380.789	109.4
380.999	131.92
381.21	105.3
381.42	252.75
381.63	11.09
381.84	103.25
382.05	72.53
382.261	160.59
382.471	74.58
382.681	-13.48
382.891	185.17
383.101	78.68
383.311	-21.67
383.521	2.9
383.731	119.64
383.941	97.11
384.151	125.78
384.361	45.91
384.571	90.96
384.781	131.92
384.991	156.5
385.201	195.41
385.411	176.98
385.621	27.48
385.831	131.92
386.041	72.53
386.251	50
386.461	211.79
386.671	74.58
386.881	74.58
387.091	27.48
387.301	148.31
387.511	111.44
387.72	142.16
387.93	136.02
388.14	-50.35
388.35	140.12
388.56	72.53
388.769	121.68
388.979	76.63
389.189	-7.34
389.399	62.29
389.609	80.72
389.818	66.39
390.028	80.72
390.238	117.59
390.447	43.86
390.657	109.4
390.867	76.63
391.076	-70.83
391.286	97.11
391.496	-9.39
391.705	68.44
391.915	164.69
392.125	138.07
392.334	64.34
392.544	179.03
392.753	72.53
392.963	66.39
393.172	52.05
393.382	17.24
393.591	209.75
393.801	-58.54
394.01	164.69
394.22	105.3
394.429	50
394.639	90.96
394.848	138.07
395.058	39.76
395.267	56.15
395.477	101.2
395.686	68.44
395.895	267.09
396.105	170.83
396.314	111.44
396.524	154.45
396.733	74.58
396.942	164.69
397.152	23.38
397.361	129.88
397.57	62.29
397.78	37.72
397.989	158.55
398.198	222.03
398.407	82.77
398.617	35.67
398.826	74.58
399.035	15.19
399.244	142.16
399.453	107.35
399.663	109.4
399.872	64.34
400.081	-29.87
400.29	123.73
400.499	82.77
400.708	88.92
400.917	68.44
401.127	54.1
401.336	-56.49
401.545	158.55
401.754	129.88
401.963	158.55
402.172	21.33
402.381	-25.77
402.59	45.91
402.799	60.24
403.008	107.35
403.217	90.96
403.426	174.93
403.635	-50.35
403.844	70.48
404.053	70.48
404.262	45.91
404.471	211.79
404.68	123.73
404.888	64.34
405.097	50
405.306	97.11
405.515	125.78
405.724	17.24
405.933	136.02
406.142	115.54
406.35	113.49
406.559	76.63
406.768	146.26
406.977	176.98
407.185	82.77
407.394	74.58
407.603	11.09
407.812	76.63
408.02	123.73
408.229	11.09
408.438	189.27
408.646	-48.3
408.855	64.34
409.064	82.77
409.272	15.19
409.481	144.21
409.69	29.52
409.898	45.91
410.107	101.2
410.315	111.44
410.524	72.53
410.733	111.44
410.941	97.11
411.15	185.17
411.358	138.07
411.567	140.12
411.775	88.92
411.984	17.24
412.192	29.52
412.401	43.86
412.609	197.46
412.818	90.96
413.026	129.88
413.234	66.39
413.443	54.1
413.651	-42.15
413.86	72.53
414.068	131.92
414.276	189.27
414.485	-5.29
414.693	109.4
414.901	187.22
415.11	103.25
415.318	9.05
415.526	78.68
415.734	164.69
415.943	121.68
416.151	117.59
416.359	101.2
416.567	105.3
416.776	103.25
416.984	99.16
417.192	162.64
417.4	4.95
417.608	76.63
417.817	13.14
418.025	152.4
418.233	166.74
418.441	-105.64
418.649	15.19
418.857	176.98
419.065	281.43
419.273	76.63
419.481	74.58
419.689	56.15
419.897	117.59
420.105	-15.53
420.313	56.15
420.521	111.44
420.729	133.97
420.937	-42.15
421.145	-25.77
421.353	154.45
421.561	201.55
421.769	101.2
421.977	-3.24
422.185	156.5
422.393	33.62
422.601	150.36
422.809	142.16
423.017	70.48
423.224	45.91
423.432	88.92
423.64	70.48
423.848	146.26
424.056	17.24
424.263	140.12
424.471	35.67
424.679	191.31
424.887	39.76
425.094	136.02
425.302	82.77
425.51	168.79
425.718	152.4
425.925	93.01
426.133	47.96
426.341	234.32
426.548	56.15
426.756	70.48
426.964	50
427.171	39.76
427.379	64.34
427.586	136.02
427.794	133.97
428.001	160.59
428.209	84.82
428.417	213.84
428.624	168.79
428.832	146.26
429.039	99.16
429.247	66.39
429.454	162.64
429.662	144.21
429.869	88.92
430.076	105.3
430.284	164.69
430.491	183.12
430.699	203.6
430.906	217.94
431.114	158.55
431.321	207.7
431.528	95.06
431.736	142.16
431.943	136.02
432.15	213.84
432.358	181.07
432.565	254.8
432.772	101.2
432.979	140.12
433.187	179.03
433.394	133.97
433.601	127.83
433.808	224.08
434.016	217.94
434.223	252.75
434.43	213.84
434.637	332.62
434.844	328.53
435.052	230.23
435.259	293.71
435.466	240.47
435.673	303.95
435.88	291.66
436.087	375.63
436.294	291.66
436.501	363.34
436.708	267.09
436.915	316.24
437.122	396.11
437.329	213.84
437.537	334.67
437.743	363.34
437.95	375.63
438.157	340.82
438.364	320.34
438.571	383.82
438.778	445.26
438.985	521.04
439.192	439.12
439.399	389.97
439.606	480.08
439.813	455.5
440.02	605
440.227	586.57
440.433	547.66
440.64	504.65
440.847	478.03
441.054	578.38
441.261	662.35
441.467	672.59
441.674	578.38
441.881	740.17
442.088	670.54
442.294	729.93
442.501	863.05
442.708	842.57
442.914	815.94
443.121	932.68
443.328	848.71
443.534	850.76
443.741	875.34
443.948	809.8
444.154	1000.26
444.361	1106.76
444.568	1024.84
444.774	1020.74
444.981	901.96
445.187	1114.95
445.394	1168.2
445.6	1114.95
445.807	1301.31
446.013	1217.35
446.22	1207.11
446.426	1360.7
446.633	1489.73
446.839	1588.03
447.046	1336.13
447.252	1502.01
447.459	1590.08
447.665	1555.26
447.871	1753.91
448.078	1968.95
448.284	1862.46
448.491	1995.57
448.697	1989.43
448.903	2237.24
449.11	2063.16
449.316	2085.69
449.522	2347.83
449.728	2300.72
449.935	2396.98
450.141	2394.93
450.347	2800.43
450.553	2683.69
450.76	2652.97
450.966	2804.52
451.172	2790.19
451.378	3029.8
451.584	3191.59
451.791	3328.8
451.997	3402.53
452.203	3345.19
452.409	3691.29
452.615	3734.3
452.821	3644.19
453.027	3717.92
453.233	4191
453.44	4098.84
453.646	4248.34
453.852	4479.76
454.058	4612.88
454.264	4721.42
454.47	5190.41
454.676	5198.6
454.882	5630.72
455.088	5286.66
455.294	5669.63
455.5	5937.91
455.705	6222.58
455.911	6288.12
456.117	6384.37
456.323	6804.21
456.529	6644.46
456.735	7140.07
456.941	7668.45
457.147	7840.48
457.352	7873.25
457.558	8100.57
457.764	8684.24
457.97	9009.87
458.176	9284.3
458.381	9577.16
458.587	10115.77
458.793	10455.73
458.999	10330.81
459.204	11451.05
459.41	12126.88
459.616	12030.62
459.821	12694.16
460.027	13050.51
460.233	13785.73
460.438	13941.38
460.644	14535.29
460.85	14756.47
461.055	15184.49
461.261	16063.07
461.466	15948.39
461.672	15888.99
461.878	18053.7
462.083	17527.37
462.289	18111.04
462.494	18797.11
462.7	18883.13
462.905	19173.94
463.111	20896.28
463.316	22032.9
463.522	22053.38
463.727	22931.96
463.932	23853.55
464.138	24596.96
464.343	25903.56
464.549	25348.56
464.754	27357.62
464.959	28119.46
465.165	28363.17
465.37	28639.65
465.575	28674.46
465.781	30560.64
465.986	31457.65
466.191	30841.21
466.397	30935.42
466.602	30531.97
466.807	32135.53
467.012	32956.77
467.218	33460.57
467.423	33468.76
467.628	34113.87
467.833	36022.58
468.038	35641.65
468.244	34922.82
468.449	36661.54
468.654	35785.01
