Data from USB4F104151__39__11-26-32-493.txt Node

Date: Wed Feb 26 11:26:32 EST 2025
User: louis
Spectrometer: USB4F10415
Trigger mode: 4
Integration Time (sec): 1.000000E-1
Scans to average: 1
Electric dark correction enabled: true
Nonlinearity correction enabled: false
Boxcar width: 0
XAxis mode: Wavelengths
Number of Pixels in Spectrum: 3648
>>>>>Begin Spectral Data<<<<<
178.204	-401.57
178.424	-401.57
178.644	-401.57
178.864	-399.52
179.084	-354.47
179.304	-34.99
179.524	8.02
179.744	-10.41
179.964	-16.55
180.184	12.12
180.404	63.32
180.624	-30.89
180.844	8.02
181.064	-20.65
181.283	18.26
181.503	-6.31
181.723	10.07
181.943	-20.65
182.163	124.76
182.383	-8.36
182.602	85.84
182.822	243.54
183.042	73.56
183.262	-55.47
183.482	28.5
183.701	34.64
183.921	-12.46
184.141	-65.71
184.361	87.89
184.58	20.31
184.8	14.17
185.02	-2.22
185.239	-18.6
185.459	110.42
185.679	96.08
185.898	-75.95
186.118	42.84
186.338	79.7
186.557	53.08
186.777	-53.42
186.997	-32.94
187.216	-6.31
187.436	116.56
187.655	63.32
187.875	79.7
188.095	8.02
188.314	151.38
188.534	130.9
188.753	-8.36
188.973	100.18
189.192	247.63
189.412	-24.75
189.631	8.02
189.851	79.7
190.07	141.14
190.29	-10.41
190.509	-8.36
190.729	12.12
190.948	159.57
191.168	253.78
191.387	53.08
191.607	-10.41
191.826	57.17
192.045	14.17
192.265	20.31
192.484	3.93
192.704	36.69
192.923	38.74
193.142	180.05
193.362	57.17
193.581	192.34
193.8	108.37
194.02	57.17
194.239	28.5
194.458	73.56
194.678	30.55
194.897	-22.7
195.116	1.88
195.335	100.18
195.555	30.55
195.774	-24.75
195.993	53.08
196.212	44.88
196.432	106.32
196.651	-14.51
196.87	20.31
197.089	196.43
197.308	139.09
197.528	98.13
197.747	-116.9
197.966	20.31
198.185	122.71
198.404	-94.38
198.623	128.85
198.842	112.47
199.062	73.56
199.281	81.75
199.5	77.65
199.719	16.21
199.938	-26.79
200.157	59.22
200.376	48.98
200.595	102.23
200.814	36.69
201.033	73.56
201.252	165.71
201.471	32.6
201.69	102.23
201.909	12.12
202.128	141.14
202.347	110.42
202.566	22.36
202.785	-51.37
203.004	-32.94
203.223	255.83
203.442	61.27
203.661	-98.47
203.879	83.8
204.098	151.38
204.317	18.26
204.536	44.88
204.755	3.93
204.974	98.13
205.193	-12.46
205.411	77.65
205.63	102.23
205.849	57.17
206.068	-8.36
206.287	-88.23
206.505	130.9
206.724	63.32
206.943	-8.36
207.162	-73.9
207.381	65.36
207.599	-4.27
207.818	42.84
208.037	-45.23
208.255	75.6
208.474	87.89
208.693	96.08
208.911	-16.55
209.13	89.94
209.349	30.55
209.567	102.23
209.786	114.52
210.005	85.84
210.223	28.5
210.442	-47.27
210.661	81.75
210.879	10.07
211.098	89.94
211.316	53.08
211.535	85.84
211.753	36.69
211.972	26.45
212.191	-37.03
212.409	69.46
212.628	83.8
212.846	36.69
213.065	51.03
213.283	135
213.502	30.55
213.72	5.97
213.938	-59.56
214.157	38.74
214.375	81.75
214.594	24.4
214.812	89.94
215.031	-34.99
215.249	55.12
215.467	12.12
215.686	-4.27
215.904	69.46
216.122	112.47
216.341	96.08
216.559	96.08
216.778	173.91
216.996	122.71
217.214	-24.75
217.432	8.02
217.651	12.12
217.869	100.18
218.087	-32.94
218.306	22.36
218.524	20.31
218.742	8.02
218.96	20.31
219.179	18.26
219.397	44.88
219.615	221.01
219.833	126.8
220.051	-22.7
220.27	143.19
220.488	42.84
220.706	89.94
220.924	40.79
221.142	-2.22
221.36	81.75
221.578	98.13
221.796	-41.13
222.015	-22.7
222.233	85.84
222.451	212.82
222.669	-12.46
222.887	108.37
223.105	3.93
223.323	1.88
223.541	-32.94
223.759	91.99
223.977	48.98
224.195	132.95
224.413	120.66
224.631	106.32
224.849	59.22
225.067	259.92
225.285	-32.94
225.503	32.6
225.721	-49.32
225.939	77.65
226.157	18.26
226.375	163.67
226.592	-34.99
226.81	-22.7
227.028	100.18
227.246	114.52
227.464	116.56
227.682	98.13
227.9	51.03
228.117	51.03
228.335	81.75
228.553	3.93
228.771	-4.27
228.989	8.02
229.206	57.17
229.424	65.36
229.642	53.08
229.86	-20.65
230.077	180.05
230.295	83.8
230.513	98.13
230.731	79.7
230.948	116.56
231.166	178
231.384	3.93
231.601	53.08
231.819	157.52
232.037	-22.7
232.254	-6.31
232.472	14.17
232.689	59.22
232.907	114.52
233.125	69.46
233.342	-82.09
233.56	22.36
233.777	30.55
233.995	-28.84
234.213	130.9
234.43	128.85
234.648	-6.31
234.865	-51.37
235.083	8.02
235.3	112.47
235.518	120.66
235.735	96.08
235.953	67.41
236.17	26.45
236.388	28.5
236.605	75.6
236.822	108.37
237.04	98.13
237.257	61.27
237.475	-57.51
237.692	32.6
237.909	143.19
238.127	-18.6
238.344	91.99
238.562	34.64
238.779	-96.43
238.996	-37.03
239.214	-8.36
239.431	135
239.648	-34.99
239.865	24.4
240.083	61.27
240.3	-59.56
240.517	-30.89
240.735	-24.75
240.952	87.89
241.169	28.5
241.386	83.8
241.603	30.55
241.821	-47.27
242.038	44.88
242.255	100.18
242.472	-2.22
242.689	57.17
242.907	79.7
243.124	98.13
243.341	10.07
243.558	32.6
243.775	-2.22
243.992	-94.38
244.209	63.32
244.426	124.76
244.643	71.51
244.86	28.5
245.078	1.88
245.295	53.08
245.512	-18.6
245.729	34.64
245.946	32.6
246.163	98.13
246.38	38.74
246.597	85.84
246.814	22.36
247.031	30.55
247.248	81.75
247.464	102.23
247.681	34.64
247.898	24.4
248.115	73.56
248.332	-18.6
248.549	159.57
248.766	153.43
248.983	63.32
249.2	-6.31
249.417	89.94
249.633	-59.56
249.85	65.36
250.067	40.79
250.284	96.08
250.501	91.99
250.717	106.32
250.934	-65.71
251.151	-32.94
251.368	53.08
251.585	75.6
251.801	42.84
252.018	-30.89
252.235	120.66
252.451	-82.09
252.668	18.26
252.885	167.76
253.102	59.22
253.318	36.69
253.535	28.5
253.752	-75.95
253.968	61.27
254.185	-45.23
254.401	65.36
254.618	67.41
254.835	-121
255.051	53.08
255.268	77.65
255.484	67.41
255.701	30.55
255.917	69.46
256.134	22.36
256.351	98.13
256.567	-30.89
256.784	16.21
257	-77.99
257.217	77.65
257.433	89.94
257.65	77.65
257.866	155.47
258.082	-65.71
258.299	-41.13
258.515	42.84
258.732	-32.94
258.948	-12.46
259.165	69.46
259.381	-59.56
259.597	48.98
259.814	18.26
260.03	55.12
260.246	26.45
260.463	106.32
260.679	143.19
260.895	42.84
261.112	46.93
261.328	12.12
261.544	8.02
261.761	139.09
261.977	-22.7
262.193	-43.18
262.409	79.7
262.626	53.08
262.842	73.56
263.058	-55.47
263.274	102.23
263.49	106.32
263.707	40.79
263.923	118.61
264.139	-106.67
264.355	40.79
264.571	96.08
264.787	12.12
265.004	243.54
265.22	83.8
265.436	42.84
265.652	83.8
265.868	63.32
266.084	-67.75
266.3	85.84
266.516	-0.17
266.732	61.27
266.948	57.17
267.164	-14.51
267.38	38.74
267.596	81.75
267.812	212.82
268.028	122.71
268.244	44.88
268.46	71.51
268.676	28.5
268.892	40.79
269.108	53.08
269.324	-127.14
269.54	-131.24
269.756	114.52
269.972	-41.13
270.188	22.36
270.403	-112.81
270.619	44.88
270.835	118.61
271.051	32.6
271.267	-30.89
271.483	-8.36
271.698	132.95
271.914	26.45
272.13	63.32
272.346	-6.31
272.562	116.56
272.777	55.12
272.993	22.36
273.209	10.07
273.425	42.84
273.64	-28.84
273.856	65.36
274.072	-6.31
274.287	5.97
274.503	73.56
274.719	57.17
274.934	34.64
275.15	-41.13
275.366	-30.89
275.581	-106.67
275.797	91.99
276.012	102.23
276.228	85.84
276.444	67.41
276.659	79.7
276.875	-55.47
277.09	12.12
277.306	-57.51
277.521	106.32
277.737	-30.89
277.952	128.85
278.168	96.08
278.383	12.12
278.599	89.94
278.814	81.75
279.03	18.26
279.245	51.03
279.461	104.28
279.676	81.75
279.892	-82.09
280.107	-84.14
280.322	16.21
280.538	40.79
280.753	-61.61
280.969	-16.55
281.184	30.55
281.399	178
281.615	10.07
281.83	44.88
282.045	-0.17
282.26	-18.6
282.476	48.98
282.691	104.28
282.906	36.69
283.122	14.17
283.337	-77.99
283.552	98.13
283.767	-26.79
283.983	63.32
284.198	36.69
284.413	24.4
284.628	-28.84
284.843	-4.27
285.058	-2.22
285.274	10.07
285.489	-20.65
285.704	89.94
285.919	-26.79
286.134	-32.94
286.349	65.36
286.564	22.36
286.779	237.39
286.995	20.31
287.21	-43.18
287.425	151.38
287.64	1.88
287.855	71.51
288.07	-53.42
288.285	110.42
288.5	91.99
288.715	44.88
288.93	81.75
289.145	83.8
289.36	110.42
289.575	-16.55
289.79	104.28
290.004	34.64
290.219	36.69
290.434	-16.55
290.649	-65.71
290.864	-30.89
291.079	87.89
291.294	46.93
291.509	36.69
291.724	5.97
291.938	-4.27
292.153	155.47
292.368	28.5
292.583	108.37
292.798	71.51
293.012	53.08
293.227	122.71
293.442	30.55
293.657	100.18
293.871	145.24
294.086	55.12
294.301	178
294.516	118.61
294.73	57.17
294.945	-4.27
295.16	44.88
295.374	114.52
295.589	100.18
295.804	-94.38
296.018	79.7
296.233	175.95
296.447	81.75
296.662	98.13
296.877	116.56
297.091	106.32
297.306	32.6
297.52	5.97
297.735	42.84
297.949	-22.7
298.164	102.23
298.378	3.93
298.593	-69.8
298.807	3.93
299.022	116.56
299.236	163.67
299.451	-14.51
299.665	32.6
299.88	22.36
300.094	100.18
300.309	-18.6
300.523	16.21
300.737	67.41
300.952	32.6
301.166	71.51
301.381	-69.8
301.595	-8.36
301.809	26.45
302.024	10.07
302.238	-20.65
302.452	77.65
302.667	98.13
302.881	147.28
303.095	147.28
303.309	77.65
303.524	104.28
303.738	-47.27
303.952	-2.22
304.166	69.46
304.381	-88.23
304.595	139.09
304.809	-8.36
305.023	53.08
305.237	73.56
305.452	-28.84
305.666	53.08
305.88	126.8
306.094	145.24
306.308	94.04
306.522	167.76
306.736	100.18
306.95	42.84
307.164	30.55
307.379	48.98
307.593	59.22
307.807	98.13
308.021	175.95
308.235	65.36
308.449	-112.81
308.663	36.69
308.877	175.95
309.091	53.08
309.305	83.8
309.519	-102.57
309.733	143.19
309.947	-57.51
310.161	79.7
310.374	81.75
310.588	122.71
310.802	-4.27
311.016	-65.71
311.23	63.32
311.444	-41.13
311.658	48.98
311.872	126.8
312.085	102.23
312.299	100.18
312.513	139.09
312.727	1.88
312.941	-88.23
313.154	69.46
313.368	22.36
313.582	69.46
313.796	65.36
314.009	120.66
314.223	114.52
314.437	38.74
314.651	147.28
314.864	36.69
315.078	-26.79
315.292	-6.31
315.505	18.26
315.719	67.41
315.933	81.75
316.146	67.41
316.36	-43.18
316.573	85.84
316.787	98.13
317.001	34.64
317.214	-57.51
317.428	44.88
317.641	-77.99
317.855	-2.22
318.068	3.93
318.282	22.36
318.495	188.24
318.709	118.61
318.922	-2.22
319.136	171.86
319.349	145.24
319.563	20.31
319.776	34.64
319.99	-55.47
320.203	126.8
320.417	59.22
320.63	67.41
320.843	231.25
321.057	67.41
321.27	30.55
321.483	100.18
321.697	194.39
321.91	32.6
322.124	65.36
322.337	65.36
322.55	-73.9
322.763	65.36
322.977	40.79
323.19	12.12
323.403	44.88
323.617	32.6
323.83	157.52
324.043	-0.17
324.256	18.26
324.469	8.02
324.683	120.66
324.896	36.69
325.109	59.22
325.322	-49.32
325.535	69.46
325.748	71.51
325.962	87.89
326.175	44.88
326.388	67.41
326.601	237.39
326.814	32.6
327.027	69.46
327.24	159.57
327.453	-32.94
327.666	98.13
327.879	67.41
328.092	73.56
328.305	26.45
328.518	-0.17
328.731	24.4
328.944	53.08
329.157	67.41
329.37	-16.55
329.583	212.82
329.796	173.91
330.009	-10.41
330.222	73.56
330.435	104.28
330.648	44.88
330.861	77.65
331.073	65.36
331.286	48.98
331.499	53.08
331.712	-82.09
331.925	1.88
332.138	44.88
332.35	161.62
332.563	-45.23
332.776	137.04
332.989	-20.65
333.202	24.4
333.414	59.22
333.627	-8.36
333.84	-8.36
334.053	55.12
334.265	-20.65
334.478	28.5
334.691	-6.31
334.903	10.07
335.116	-2.22
335.329	61.27
335.541	81.75
335.754	169.81
335.966	26.45
336.179	96.08
336.392	5.97
336.604	-32.94
336.817	91.99
337.029	24.4
337.242	12.12
337.454	61.27
337.667	38.74
337.88	178
338.092	59.22
338.305	42.84
338.517	18.26
338.729	40.79
338.942	126.8
339.154	-6.31
339.367	-6.31
339.579	28.5
339.792	-39.08
340.004	-34.99
340.217	46.93
340.429	48.98
340.641	-41.13
340.854	-22.7
341.066	-16.55
341.278	145.24
341.491	122.71
341.703	-6.31
341.915	-77.99
342.128	89.94
342.34	53.08
342.552	30.55
342.764	61.27
342.977	1.88
343.189	153.43
343.401	-16.55
343.613	-106.67
343.826	32.6
344.038	-32.94
344.25	26.45
344.462	12.12
344.674	69.46
344.886	57.17
345.099	63.32
345.311	-24.75
345.523	10.07
345.735	-100.52
345.947	53.08
346.159	-0.17
346.371	65.36
346.583	22.36
346.795	184.15
347.007	-2.22
347.219	110.42
347.431	61.27
347.643	36.69
347.855	48.98
348.067	147.28
348.279	-6.31
348.491	73.56
348.703	3.93
348.915	-26.79
349.127	34.64
349.339	44.88
349.551	22.36
349.763	116.56
349.975	96.08
350.187	143.19
350.399	169.81
350.61	94.04
350.822	-57.51
351.034	98.13
351.246	24.4
351.458	130.9
351.669	85.84
351.881	100.18
352.093	73.56
352.305	135
352.517	71.51
352.728	100.18
352.94	63.32
353.152	46.93
353.363	-22.7
353.575	20.31
353.787	51.03
353.999	12.12
354.21	34.64
354.422	55.12
354.633	44.88
354.845	67.41
355.057	22.36
355.268	48.98
355.48	143.19
355.692	-53.42
355.903	-20.65
356.115	34.64
356.326	-53.42
356.538	130.9
356.749	59.22
356.961	155.47
357.172	44.88
357.384	-8.36
357.595	153.43
357.807	-41.13
358.018	-14.51
358.23	63.32
358.441	143.19
358.653	71.51
358.864	16.21
359.075	5.97
359.287	46.93
359.498	104.28
359.709	122.71
359.921	10.07
360.132	38.74
360.344	91.99
360.555	34.64
360.766	75.6
360.977	-43.18
361.189	132.95
361.4	-24.75
361.611	-8.36
361.823	3.93
362.034	-12.46
362.245	-34.99
362.456	1.88
362.667	106.32
362.879	-37.03
363.09	16.21
363.301	-39.08
363.512	-2.22
363.723	-10.41
363.935	40.79
364.146	36.69
364.357	26.45
364.568	87.89
364.779	-82.09
364.99	149.33
365.201	-0.17
365.412	130.9
365.623	-49.32
365.834	48.98
366.045	36.69
366.256	87.89
366.467	57.17
366.678	-32.94
366.889	61.27
367.1	-67.75
367.311	81.75
367.522	10.07
367.733	104.28
367.944	16.21
368.155	-12.46
368.366	137.04
368.577	94.04
368.788	151.38
368.999	20.31
369.209	-16.55
369.42	188.24
369.631	212.82
369.842	44.88
370.053	3.93
370.264	130.9
370.474	61.27
370.685	22.36
370.896	-14.51
371.107	28.5
371.317	22.36
371.528	28.5
371.739	83.8
371.95	106.32
372.16	53.08
372.371	-59.56
372.582	28.5
372.792	34.64
373.003	-18.6
373.214	77.65
373.424	120.66
373.635	12.12
373.846	116.56
374.056	22.36
374.267	89.94
374.477	67.41
374.688	-18.6
374.898	53.08
375.109	10.07
375.319	106.32
375.53	69.46
375.74	102.23
375.951	30.55
376.161	85.84
376.372	120.66
376.582	18.26
376.793	28.5
377.003	14.17
377.214	16.21
377.424	59.22
377.635	128.85
377.845	106.32
378.055	81.75
378.266	-22.7
378.476	55.12
378.686	3.93
378.897	-0.17
379.107	139.09
379.317	73.56
379.528	18.26
379.738	14.17
379.948	-65.71
380.158	63.32
380.369	22.36
380.579	51.03
380.789	63.32
380.999	100.18
381.21	128.85
381.42	165.71
381.63	22.36
381.84	63.32
382.05	120.66
382.261	157.52
382.471	104.28
382.681	-22.7
382.891	89.94
383.101	102.23
383.311	10.07
383.521	26.45
383.731	186.19
383.941	182.1
384.151	67.41
384.361	40.79
384.571	67.41
384.781	71.51
384.991	184.15
385.201	288.59
385.411	175.95
385.621	73.56
385.831	-28.84
386.041	42.84
386.251	24.4
386.461	67.41
386.671	-26.79
386.881	135
387.091	116.56
387.301	178
387.511	20.31
387.72	53.08
387.93	104.28
388.14	-32.94
388.35	40.79
388.56	122.71
388.769	89.94
388.979	26.45
389.189	36.69
389.399	34.64
389.609	61.27
389.818	173.91
390.028	22.36
390.238	126.8
390.447	36.69
390.657	98.13
390.867	20.31
391.076	3.93
391.286	71.51
391.496	30.55
391.705	63.32
391.915	173.91
392.125	216.91
392.334	8.02
392.544	137.04
392.753	71.51
392.963	28.5
393.172	-2.22
393.382	-86.19
393.591	200.53
393.801	59.22
394.01	161.62
394.22	163.67
394.429	57.17
394.639	8.02
394.848	-16.55
395.058	85.84
395.267	44.88
395.477	79.7
395.686	73.56
395.895	161.62
396.105	145.24
396.314	26.45
396.524	51.03
396.733	108.37
396.942	106.32
397.152	85.84
397.361	57.17
397.57	65.36
397.78	79.7
397.989	73.56
398.198	270.16
398.407	100.18
398.617	112.47
398.826	44.88
399.035	-24.75
399.244	87.89
399.453	139.09
399.663	20.31
399.872	32.6
400.081	-86.19
400.29	114.52
400.499	40.79
400.708	100.18
400.917	36.69
401.127	73.56
401.336	8.02
401.545	186.19
401.754	184.15
401.963	130.9
402.172	-37.03
402.381	63.32
402.59	-12.46
402.799	61.27
403.008	110.42
403.217	77.65
403.426	102.23
403.635	-16.55
403.844	-2.22
404.053	-16.55
404.262	63.32
404.471	218.96
404.68	32.6
404.888	22.36
405.097	30.55
405.306	1.88
405.515	132.95
405.724	104.28
405.933	163.67
406.142	96.08
406.35	110.42
406.559	48.98
406.768	83.8
406.977	155.47
407.185	79.7
407.394	110.42
407.603	-47.27
407.812	59.22
408.02	173.91
408.229	69.46
408.438	40.79
408.646	1.88
408.855	-22.7
409.064	149.33
409.272	28.5
409.481	55.12
409.69	16.21
409.898	-45.23
410.107	79.7
410.315	104.28
410.524	1.88
410.733	34.64
410.941	18.26
411.15	180.05
411.358	110.42
411.567	79.7
411.775	44.88
411.984	44.88
412.192	106.32
412.401	51.03
412.609	245.59
412.818	194.39
413.026	69.46
413.234	1.88
413.443	51.03
413.651	22.36
413.86	36.69
414.068	87.89
414.276	135
414.485	22.36
414.693	118.61
414.901	81.75
415.11	116.56
415.318	48.98
415.526	116.56
415.734	61.27
415.943	85.84
416.151	163.67
416.359	55.12
416.567	36.69
416.776	223.06
416.984	116.56
417.192	151.38
417.4	20.31
417.608	-47.27
417.817	10.07
418.025	51.03
418.233	249.68
418.441	-53.42
418.649	-34.99
418.857	106.32
419.065	145.24
419.273	12.12
419.481	-0.17
419.689	-2.22
419.897	-6.31
420.105	-28.84
420.313	206.67
420.521	180.05
420.729	122.71
420.937	20.31
421.145	5.97
421.353	108.37
421.561	200.53
421.769	128.85
421.977	22.36
422.185	122.71
422.393	55.12
422.601	87.89
422.809	-26.79
423.017	55.12
423.224	139.09
423.432	171.86
423.64	36.69
423.848	223.06
424.056	-16.55
424.263	182.1
424.471	26.45
424.679	63.32
424.887	-14.51
425.094	30.55
425.302	100.18
425.51	28.5
425.718	94.04
425.925	110.42
426.133	-34.99
426.341	173.91
426.548	1.88
426.756	69.46
426.964	102.23
427.171	71.51
427.379	83.8
427.586	79.7
427.794	85.84
428.001	122.71
428.209	118.61
428.417	141.14
428.624	202.58
428.832	175.95
429.039	145.24
429.247	139.09
429.454	102.23
429.662	225.11
429.869	61.27
430.076	137.04
430.284	218.96
430.491	218.96
430.699	139.09
430.906	241.49
431.114	188.24
431.321	223.06
431.528	116.56
431.736	114.52
431.943	210.77
432.15	196.43
432.358	233.3
432.565	302.93
432.772	108.37
432.979	214.87
433.187	161.62
433.394	221.01
433.601	200.53
433.808	302.93
434.016	212.82
434.223	249.68
434.43	278.35
434.637	253.78
434.844	311.12
435.052	235.35
435.259	268.11
435.466	274.26
435.673	235.35
435.88	329.55
436.087	358.22
436.294	413.52
436.501	419.66
436.708	186.19
436.915	282.45
437.122	423.76
437.329	261.97
437.537	388.94
437.743	364.37
437.95	481.1
438.157	339.79
438.364	388.94
438.571	460.62
438.778	444.24
438.985	515.92
439.192	491.34
439.399	468.81
439.606	454.48
439.813	558.92
440.02	571.21
440.227	651.08
440.433	626.51
440.64	563.02
440.847	509.77
441.054	599.88
441.261	687.95
441.467	665.42
441.674	737.1
441.881	767.82
442.088	745.29
442.294	720.71
442.501	878.41
442.708	991.05
442.914	978.76
443.121	956.23
443.328	923.46
443.534	1036.1
443.741	905.03
443.948	859.98
444.154	1034.05
444.361	1290.05
444.568	1201.99
444.774	1199.94
444.981	1099.59
445.187	1271.62
445.394	1300.29
445.6	1376.06
445.807	1474.37
446.013	1318.72
446.22	1283.91
446.426	1486.65
446.633	1593.15
446.839	1814.33
447.046	1584.96
447.252	1826.62
447.459	1775.42
447.665	1789.75
447.871	1959.74
448.078	2031.41
448.284	2105.14
448.491	2203.44
448.697	2443.06
448.903	2406.19
449.11	2432.82
449.316	2434.86
449.522	2531.12
449.728	2719.53
449.935	2770.73
450.141	2787.11
450.347	2950.95
450.553	2928.42
450.76	2975.53
450.966	3223.33
451.172	3217.19
451.378	3319.59
451.584	3514.14
451.791	3698.46
451.997	3802.91
452.203	3940.12
452.409	4255.51
452.615	4194.07
452.821	4175.64
453.027	4290.32
453.233	4697.87
453.44	4720.4
453.646	5115.66
453.852	5068.55
454.058	5107.46
454.264	5431.04
454.47	5922.55
454.676	5670.65
454.882	6371.06
455.088	6043.39
455.294	6385.4
455.5	6926.06
455.705	7184.1
455.911	7345.89
456.117	7548.64
456.323	7737.06
456.529	7581.41
456.735	8310.49
456.941	8494.8
457.147	8957.64
457.352	9203.4
457.558	9393.86
457.764	9973.44
457.97	10258.1
458.176	10591.92
458.381	11038.38
458.587	11447.97
458.793	11796.13
458.999	12033.69
459.204	13217.42
459.41	13889.15
459.616	13850.24
459.821	14407.29
460.027	15365.74
460.233	15697.51
460.438	15840.87
460.644	16852.56
460.85	16797.27
461.055	17407.56
461.261	18544.19
461.466	17808.97
461.672	18617.91
461.878	20827.67
462.083	20149.79
462.289	20788.76
462.494	21472.78
462.7	21642.76
462.905	22134.28
463.111	23913.96
463.316	25146.84
463.522	25456.08
463.727	26099.14
463.932	27334.07
464.138	28114.34
464.343	29033.88
464.549	29472.15
464.754	31552.88
464.959	32218.47
465.165	32830.82
465.37	32761.19
465.575	32699.75
465.781	34897.22
465.986	35673.4
466.191	35337.53
466.397	35415.35
466.602	34868.55
466.807	36656.42
467.012	37600.54
467.218	37952.79
467.423	38165.77
467.628	39501.05
467.833	41116.9
468.038	40629.48
468.244	39832.82
468.449	41856.21
468.654	41317.6
