Data from USB4F104151__36__09-27-20-509.txt Node

Date: Wed Feb 26 09:27:20 EST 2025
User: louis
Spectrometer: USB4F10415
Trigger mode: 4
Integration Time (sec): 1.000000E-1
Scans to average: 1
Electric dark correction enabled: true
Nonlinearity correction enabled: false
Boxcar width: 0
XAxis mode: Wavelengths
Number of Pixels in Spectrum: 3648
>>>>>Begin Spectral Data<<<<<
178.204	-383.48
178.424	-383.48
178.644	-383.48
178.864	-313.85
179.084	-301.56
179.304	3.58
179.524	1.54
179.744	42.5
179.964	30.21
180.184	38.4
180.404	-6.66
180.624	-70.14
180.844	1.54
181.064	-53.76
181.283	11.78
181.503	-76.29
181.723	77.31
181.943	-127.49
182.163	85.5
182.383	-14.85
182.602	75.26
182.822	58.88
183.042	60.93
183.262	-37.38
183.482	-4.61
183.701	3.58
183.921	44.54
184.141	-33.28
184.361	75.26
184.58	48.64
184.8	19.97
185.02	1.54
185.239	38.4
185.459	87.55
185.679	22.02
185.898	-53.76
186.118	19.97
186.338	79.36
186.557	54.78
186.777	-100.86
186.997	5.63
187.216	54.78
187.436	93.69
187.655	40.45
187.875	128.51
188.095	-47.62
188.314	24.06
188.534	36.35
188.753	3.58
188.973	112.13
189.192	200.19
189.412	44.54
189.631	30.21
189.851	36.35
190.07	99.84
190.29	-14.85
190.509	-35.33
190.729	56.83
190.948	187.9
191.168	214.52
191.387	157.18
191.607	-33.28
191.826	26.11
192.045	24.06
192.265	22.02
192.484	110.08
192.704	-2.56
192.923	-57.86
193.142	181.76
193.362	138.75
193.581	105.98
193.8	13.82
194.02	60.93
194.239	79.36
194.458	36.35
194.678	34.3
194.897	26.11
195.116	-2.56
195.335	5.63
195.555	40.45
195.774	1.54
195.993	22.02
196.212	17.92
196.432	-18.94
196.651	28.16
196.87	17.92
197.089	146.94
197.308	3.58
197.528	101.89
197.747	-39.42
197.966	75.26
198.185	144.89
198.404	-102.91
198.623	134.65
198.842	118.27
199.062	108.03
199.281	26.11
199.5	65.02
199.719	48.64
199.938	-20.99
200.157	79.36
200.376	34.3
200.595	60.93
200.814	-4.61
201.033	-29.18
201.252	99.84
201.471	40.45
201.69	120.32
201.909	-12.8
202.128	132.61
202.347	75.26
202.566	-29.18
202.785	5.63
203.004	-53.76
203.223	206.33
203.442	62.98
203.661	-47.62
203.879	-31.23
204.098	136.7
204.317	1.54
204.536	97.79
204.755	87.55
204.974	60.93
205.193	13.82
205.411	177.66
205.63	52.74
205.849	69.12
206.068	22.02
206.287	-10.75
206.505	58.88
206.724	19.97
206.943	-29.18
207.162	1.54
207.381	-0.51
207.599	-39.42
207.818	-14.85
208.037	11.78
208.255	-33.28
208.474	71.17
208.693	-59.9
208.911	-2.56
209.13	77.31
209.349	46.59
209.567	95.74
209.786	79.36
210.005	116.22
210.223	77.31
210.442	-98.81
210.661	38.4
210.879	73.21
211.098	15.87
211.316	13.82
211.535	58.88
211.753	13.82
211.972	19.97
212.191	-2.56
212.409	69.12
212.628	17.92
212.846	-23.04
213.065	101.89
213.283	130.56
213.502	-45.57
213.72	-29.18
213.938	1.54
214.157	36.35
214.375	134.65
214.594	34.3
214.812	79.36
215.031	-2.56
215.249	46.59
215.467	-23.04
215.686	-2.56
215.904	134.65
216.122	46.59
216.341	79.36
216.559	-12.8
216.778	83.45
216.996	120.32
217.214	-31.23
217.432	-53.76
217.651	-10.75
217.869	28.16
218.087	44.54
218.306	42.5
218.524	13.82
218.742	19.97
218.96	13.82
219.179	1.54
219.397	-31.23
219.615	167.42
219.833	44.54
220.051	-57.86
220.27	46.59
220.488	77.31
220.706	87.55
220.924	-104.96
221.142	22.02
221.36	-27.14
221.578	60.93
221.796	36.35
222.015	95.74
222.233	52.74
222.451	146.94
222.669	-37.38
222.887	28.16
223.105	-6.66
223.323	28.16
223.541	-27.14
223.759	13.82
223.977	1.54
224.195	151.04
224.413	62.98
224.631	75.26
224.849	1.54
225.067	239.1
225.285	-59.9
225.503	28.16
225.721	-119.29
225.939	40.45
226.157	42.5
226.375	241.15
226.592	-31.23
226.81	-104.96
227.028	110.08
227.246	58.88
227.464	46.59
227.682	83.45
227.9	46.59
228.117	15.87
228.335	60.93
228.553	36.35
228.771	42.5
228.989	60.93
229.206	52.74
229.424	-29.18
229.642	-23.04
229.86	54.78
230.077	62.98
230.295	-61.95
230.513	87.55
230.731	52.74
230.948	112.13
231.166	83.45
231.384	62.98
231.601	17.92
231.819	216.57
232.037	22.02
232.254	-61.95
232.472	-4.61
232.689	-2.56
232.907	110.08
233.125	-29.18
233.342	-41.47
233.56	-27.14
233.777	38.4
233.995	3.58
234.213	71.17
234.43	124.41
234.648	44.54
234.865	-59.9
235.083	22.02
235.3	17.92
235.518	85.5
235.735	120.32
235.953	110.08
236.17	11.78
236.388	-43.52
236.605	-29.18
236.822	81.41
237.04	122.37
237.257	54.78
237.475	-6.66
237.692	-10.75
237.909	17.92
238.127	7.68
238.344	56.83
238.562	71.17
238.779	-27.14
238.996	-29.18
239.214	62.98
239.431	58.88
239.648	28.16
239.865	-23.04
240.083	48.64
240.3	-43.52
240.517	1.54
240.735	-18.94
240.952	116.22
241.169	153.09
241.386	40.45
241.603	24.06
241.821	46.59
242.038	85.5
242.255	87.55
242.472	-55.81
242.689	101.89
242.907	38.4
243.124	77.31
243.341	24.06
243.558	-27.14
243.775	-33.28
243.992	-80.38
244.209	46.59
244.426	81.41
244.643	103.93
244.86	-10.75
245.078	13.82
245.295	75.26
245.512	50.69
245.729	60.93
245.946	60.93
246.163	-18.94
246.38	19.97
246.597	5.63
246.814	-2.56
247.031	19.97
247.248	40.45
247.464	132.61
247.681	52.74
247.898	-16.9
248.115	46.59
248.332	15.87
248.549	165.37
248.766	99.84
248.983	36.35
249.2	1.54
249.417	103.93
249.633	-35.33
249.85	85.5
250.067	91.65
250.284	3.58
250.501	83.45
250.717	71.17
250.934	-45.57
251.151	-12.8
251.368	26.11
251.585	85.5
251.801	22.02
252.018	-25.09
252.235	38.4
252.451	-0.51
252.668	3.58
252.885	116.22
253.102	-23.04
253.318	-88.57
253.535	-47.62
253.752	99.84
253.968	38.4
254.185	-68.09
254.401	42.5
254.618	9.73
254.835	-25.09
255.051	144.89
255.268	75.26
255.484	1.54
255.701	11.78
255.917	36.35
256.134	-57.86
256.351	13.82
256.567	-37.38
256.784	77.31
257	-20.99
257.217	34.3
257.433	48.64
257.65	54.78
257.866	17.92
258.082	-16.9
258.299	-37.38
258.515	40.45
258.732	32.26
258.948	36.35
259.165	28.16
259.381	-43.52
259.597	-31.23
259.814	-8.7
260.03	46.59
260.246	5.63
260.463	146.94
260.679	105.98
260.895	118.27
261.112	-6.66
261.328	1.54
261.544	-64
261.761	148.99
261.977	11.78
262.193	-109.05
262.409	93.69
262.626	65.02
262.842	60.93
263.058	-64
263.274	75.26
263.49	22.02
263.707	87.55
263.923	60.93
264.139	-59.9
264.355	34.3
264.571	105.98
264.787	79.36
265.004	28.16
265.22	-8.7
265.436	-47.62
265.652	30.21
265.868	-76.29
266.084	-41.47
266.3	7.68
266.516	-80.38
266.732	-2.56
266.948	52.74
267.164	34.3
267.38	69.12
267.596	114.17
267.812	169.47
268.028	112.13
268.244	-27.14
268.46	-14.85
268.676	-20.99
268.892	60.93
269.108	-4.61
269.324	-4.61
269.54	-92.67
269.756	71.17
269.972	-109.05
270.188	-88.57
270.403	-94.72
270.619	-43.52
270.835	24.06
271.051	40.45
271.267	30.21
271.483	-59.9
271.698	13.82
271.914	38.4
272.13	87.55
272.346	-53.76
272.562	69.12
272.777	95.74
272.993	54.78
273.209	-2.56
273.425	87.55
273.64	-72.19
273.856	95.74
274.072	-45.57
274.287	-23.04
274.503	87.55
274.719	-2.56
274.934	-10.75
275.15	-121.34
275.366	-27.14
275.581	-2.56
275.797	-31.23
276.012	50.69
276.228	48.64
276.444	60.93
276.659	60.93
276.875	-59.9
277.09	5.63
277.306	-33.28
277.521	42.5
277.737	13.82
277.952	69.12
278.168	56.83
278.383	38.4
278.599	11.78
278.814	48.64
279.03	-4.61
279.245	136.7
279.461	48.64
279.676	163.33
279.892	-41.47
280.107	-61.95
280.322	-43.52
280.538	34.3
280.753	-23.04
280.969	83.45
281.184	-41.47
281.399	87.55
281.615	22.02
281.83	28.16
282.045	-86.53
282.26	-61.95
282.476	97.79
282.691	97.79
282.906	44.54
283.122	95.74
283.337	-47.62
283.552	52.74
283.767	-14.85
283.983	99.84
284.198	1.54
284.413	60.93
284.628	-68.09
284.843	13.82
285.058	169.47
285.274	15.87
285.489	-68.09
285.704	22.02
285.919	7.68
286.134	-55.81
286.349	26.11
286.564	42.5
286.779	132.61
286.995	44.54
287.21	-64
287.425	50.69
287.64	28.16
287.855	5.63
288.07	-88.57
288.285	-20.99
288.5	28.16
288.715	46.59
288.93	56.83
289.145	30.21
289.36	144.89
289.575	-72.19
289.79	169.47
290.004	62.98
290.219	60.93
290.434	-98.81
290.649	-47.62
290.864	-59.9
291.079	-23.04
291.294	67.07
291.509	46.59
291.724	-59.9
291.938	-25.09
292.153	24.06
292.368	-14.85
292.583	48.64
292.798	34.3
293.012	87.55
293.227	56.83
293.442	-76.29
293.657	60.93
293.871	81.41
294.086	7.68
294.301	192
294.516	128.51
294.73	1.54
294.945	24.06
295.16	-14.85
295.374	67.07
295.589	71.17
295.804	-66.05
296.018	3.58
296.233	5.63
296.447	19.97
296.662	-59.9
296.877	134.65
297.091	58.88
297.306	-2.56
297.52	5.63
297.735	48.64
297.949	85.5
298.164	13.82
298.378	46.59
298.593	40.45
298.807	15.87
299.022	-70.14
299.236	87.55
299.451	-41.47
299.665	5.63
299.88	-76.29
300.094	62.98
300.309	28.16
300.523	1.54
300.737	-6.66
300.952	22.02
301.166	79.36
301.381	-49.66
301.595	42.5
301.809	-18.94
302.024	46.59
302.238	13.82
302.452	48.64
302.667	-27.14
302.881	114.17
303.095	91.65
303.309	60.93
303.524	-33.28
303.738	34.3
303.952	30.21
304.166	11.78
304.381	-98.81
304.595	15.87
304.809	-6.66
305.023	13.82
305.237	36.35
305.452	9.73
305.666	36.35
305.88	-4.61
306.094	118.27
306.308	95.74
306.522	99.84
306.736	-0.51
306.95	58.88
307.164	-2.56
307.379	-10.75
307.593	126.46
307.807	85.5
308.021	-4.61
308.235	116.22
308.449	-2.56
308.663	26.11
308.877	120.32
309.091	-4.61
309.305	112.13
309.519	-68.09
309.733	52.74
309.947	-111.1
310.161	44.54
310.374	97.79
310.588	46.59
310.802	-47.62
311.016	-45.57
311.23	-10.75
311.444	-74.24
311.658	-14.85
311.872	54.78
312.085	67.07
312.299	122.37
312.513	7.68
312.727	-53.76
312.941	-49.66
313.154	17.92
313.368	67.07
313.582	-25.09
313.796	-23.04
314.009	-8.7
314.223	165.37
314.437	50.69
314.651	38.4
314.864	46.59
315.078	-14.85
315.292	-55.81
315.505	-14.85
315.719	54.78
315.933	3.58
316.146	9.73
316.36	-35.33
316.573	73.21
316.787	40.45
317.001	38.4
317.214	-68.09
317.428	-2.56
317.641	-25.09
317.855	32.26
318.068	22.02
318.282	-0.51
318.495	103.93
318.709	44.54
318.922	13.82
319.136	116.22
319.349	83.45
319.563	46.59
319.776	67.07
319.99	-55.81
320.203	116.22
320.417	54.78
320.63	30.21
320.843	95.74
321.057	-12.8
321.27	56.83
321.483	89.6
321.697	138.75
321.91	3.58
322.124	95.74
322.337	15.87
322.55	-53.76
322.763	9.73
322.977	-16.9
323.19	11.78
323.403	71.17
323.617	34.3
323.83	93.69
324.043	-70.14
324.256	22.02
324.469	-41.47
324.683	-43.52
324.896	1.54
325.109	11.78
325.322	-109.05
325.535	28.16
325.748	22.02
325.962	112.13
326.175	50.69
326.388	28.16
326.601	-43.52
326.814	5.63
327.027	30.21
327.24	187.9
327.453	-78.33
327.666	62.98
327.879	99.84
328.092	52.74
328.305	91.65
328.518	22.02
328.731	13.82
328.944	-6.66
329.157	52.74
329.37	-27.14
329.583	99.84
329.796	99.84
330.009	-121.34
330.222	42.5
330.435	-14.85
330.648	13.82
330.861	22.02
331.073	69.12
331.286	97.79
331.499	17.92
331.712	1.54
331.925	54.78
332.138	44.54
332.35	58.88
332.563	-8.7
332.776	87.55
332.989	-45.57
333.202	-4.61
333.414	42.5
333.627	38.4
333.84	38.4
334.053	73.21
334.265	-18.94
334.478	-59.9
334.691	-25.09
334.903	19.97
335.116	-43.52
335.329	-53.76
335.541	5.63
335.754	140.8
335.966	-0.51
336.179	-94.72
336.392	11.78
336.604	-14.85
336.817	-16.9
337.029	77.31
337.242	30.21
337.454	128.51
337.667	56.83
337.88	151.04
338.092	-4.61
338.305	30.21
338.517	-61.95
338.729	54.78
338.942	148.99
339.154	-66.05
339.367	-53.76
339.579	-25.09
339.792	-16.9
340.004	71.17
340.217	42.5
340.429	67.07
340.641	-35.33
340.854	-39.42
341.066	-64
341.278	85.5
341.491	202.24
341.703	69.12
341.915	-39.42
342.128	75.26
342.34	36.35
342.552	-18.94
342.764	-2.56
342.977	46.59
343.189	48.64
343.401	101.89
343.613	-86.53
343.826	1.54
344.038	-27.14
344.25	7.68
344.462	-59.9
344.674	93.69
344.886	62.98
345.099	-27.14
345.311	118.27
345.523	7.68
345.735	-59.9
345.947	54.78
346.159	-18.94
346.371	-12.8
346.583	-33.28
346.795	159.23
347.007	-53.76
347.219	60.93
347.431	-41.47
347.643	62.98
347.855	-23.04
348.067	40.45
348.279	-4.61
348.491	32.26
348.703	91.65
348.915	-20.99
349.127	-104.96
349.339	54.78
349.551	-6.66
349.763	46.59
349.975	60.93
350.187	-18.94
350.399	151.04
350.61	71.17
350.822	-33.28
351.034	19.97
351.246	9.73
351.458	122.37
351.669	101.89
351.881	22.02
352.093	71.17
352.305	120.32
352.517	128.51
352.728	75.26
352.94	-2.56
353.152	36.35
353.363	-104.96
353.575	91.65
353.787	110.08
353.999	-2.56
354.21	-8.7
354.422	-10.75
354.633	-70.14
354.845	19.97
355.057	7.68
355.268	11.78
355.48	-18.94
355.692	-43.52
355.903	48.64
356.115	-35.33
356.326	-131.58
356.538	183.81
356.749	65.02
356.961	52.74
357.172	36.35
357.384	-12.8
357.595	155.13
357.807	3.58
358.018	-45.57
358.23	97.79
358.441	114.17
358.653	-18.94
358.864	17.92
359.075	3.58
359.287	9.73
359.498	105.98
359.709	22.02
359.921	22.02
360.132	26.11
360.344	-49.66
360.555	-51.71
360.766	22.02
360.977	-8.7
361.189	89.6
361.4	44.54
361.611	85.5
361.823	95.74
362.034	-2.56
362.245	-78.33
362.456	38.4
362.667	75.26
362.879	-16.9
363.09	34.3
363.301	38.4
363.512	30.21
363.723	-14.85
363.935	7.68
364.146	81.41
364.357	26.11
364.568	-2.56
364.779	-86.53
364.99	196.09
365.201	-18.94
365.412	124.41
365.623	-127.49
365.834	36.35
366.045	13.82
366.256	67.07
366.467	103.93
366.678	-43.52
366.889	17.92
367.1	22.02
367.311	69.12
367.522	-6.66
367.733	36.35
367.944	116.22
368.155	-84.48
368.366	28.16
368.577	67.07
368.788	42.5
368.999	67.07
369.209	-14.85
369.42	171.52
369.631	108.03
369.842	126.46
370.053	62.98
370.264	163.33
370.474	-27.14
370.685	56.83
370.896	85.5
371.107	89.6
371.317	-23.04
371.528	-10.75
371.739	40.45
371.95	58.88
372.16	95.74
372.371	-94.72
372.582	-43.52
372.792	-4.61
373.003	40.45
373.214	13.82
373.424	77.31
373.635	-35.33
373.846	146.94
374.056	42.5
374.267	118.27
374.477	81.41
374.688	24.06
374.898	40.45
375.109	13.82
375.319	28.16
375.53	93.69
375.74	120.32
375.951	-37.38
376.161	99.84
376.372	85.5
376.582	-10.75
376.793	52.74
377.003	3.58
377.214	17.92
377.424	71.17
377.635	-12.8
377.845	22.02
378.055	124.41
378.266	-76.29
378.476	58.88
378.686	30.21
378.897	103.93
379.107	3.58
379.317	81.41
379.528	-51.71
379.738	79.36
379.948	-18.94
380.158	40.45
380.369	13.82
380.579	77.31
380.789	-0.51
380.999	71.17
381.21	93.69
381.42	181.76
381.63	-0.51
381.84	9.73
382.05	50.69
382.261	101.89
382.471	138.75
382.681	22.02
382.891	140.8
383.101	13.82
383.311	42.5
383.521	-111.1
383.731	110.08
383.941	173.57
384.151	-14.85
384.361	-23.04
384.571	73.21
384.781	114.17
384.991	159.23
385.201	157.18
385.411	52.74
385.621	58.88
385.831	36.35
386.041	44.54
386.251	-25.09
386.461	34.3
386.671	-10.75
386.881	46.59
387.091	-23.04
387.301	99.84
387.511	5.63
387.72	54.78
387.93	136.7
388.14	-35.33
388.35	83.45
388.56	48.64
388.769	46.59
388.979	42.5
389.189	-12.8
389.399	15.87
389.609	122.37
389.818	99.84
390.028	58.88
390.238	9.73
390.447	44.54
390.657	22.02
390.867	-68.09
391.076	-70.14
391.286	-14.85
391.496	-10.75
391.705	22.02
391.915	85.5
392.125	56.83
392.334	-47.62
392.544	103.93
392.753	83.45
392.963	67.07
393.172	-2.56
393.382	-25.09
393.591	161.28
393.801	36.35
394.01	112.13
394.22	81.41
394.429	-0.51
394.639	-10.75
394.848	19.97
395.058	62.98
395.267	1.54
395.477	30.21
395.686	30.21
395.895	132.61
396.105	95.74
396.314	-25.09
396.524	1.54
396.733	26.11
396.942	77.31
397.152	128.51
397.361	103.93
397.57	40.45
397.78	3.58
397.989	48.64
398.198	144.89
398.407	-10.75
398.617	36.35
398.826	48.64
399.035	-20.99
399.244	-2.56
399.453	136.7
399.663	46.59
399.872	50.69
400.081	-57.86
400.29	83.45
400.499	38.4
400.708	44.54
400.917	-2.56
401.127	60.93
401.336	-2.56
401.545	110.08
401.754	175.61
401.963	28.16
402.172	-27.14
402.381	-14.85
402.59	22.02
402.799	42.5
403.008	112.13
403.217	42.5
403.426	17.92
403.635	-70.14
403.844	-68.09
404.053	22.02
404.262	1.54
404.471	204.28
404.68	67.07
404.888	-29.18
405.097	89.6
405.306	130.56
405.515	-29.18
405.724	-6.66
405.933	126.46
406.142	54.78
406.35	130.56
406.559	-96.77
406.768	32.26
406.977	89.6
407.185	75.26
407.394	69.12
407.603	-29.18
407.812	65.02
408.02	167.42
408.229	81.41
408.438	79.36
408.646	-70.14
408.855	3.58
409.064	83.45
409.272	77.31
409.481	48.64
409.69	-8.7
409.898	-70.14
410.107	62.98
410.315	161.28
410.524	36.35
410.733	112.13
410.941	46.59
411.15	67.07
411.358	105.98
411.567	204.28
411.775	-2.56
411.984	48.64
412.192	124.41
412.401	93.69
412.609	95.74
412.818	50.69
413.026	34.3
413.234	-39.42
413.443	46.59
413.651	24.06
413.86	38.4
414.068	108.03
414.276	151.04
414.485	-18.94
414.693	134.65
414.901	161.28
415.11	54.78
415.318	22.02
415.526	38.4
415.734	52.74
415.943	71.17
416.151	44.54
416.359	-31.23
416.567	9.73
416.776	83.45
416.984	19.97
417.192	159.23
417.4	-18.94
417.608	67.07
417.817	-39.42
418.025	95.74
418.233	165.37
418.441	-64
418.649	-43.52
418.857	75.26
419.065	122.37
419.273	-23.04
419.481	36.35
419.689	71.17
419.897	1.54
420.105	-2.56
420.313	101.89
420.521	54.78
420.729	62.98
420.937	46.59
421.145	79.36
421.353	140.8
421.561	17.92
421.769	58.88
421.977	-39.42
422.185	71.17
422.393	-0.51
422.601	60.93
422.809	110.08
423.017	69.12
423.224	103.93
423.432	128.51
423.64	-20.99
423.848	157.18
424.056	-18.94
424.263	165.37
424.471	77.31
424.679	167.42
424.887	-10.75
425.094	91.65
425.302	67.07
425.51	5.63
425.718	71.17
425.925	36.35
426.133	5.63
426.341	142.85
426.548	77.31
426.756	71.17
426.964	87.55
427.171	-6.66
427.379	-2.56
427.586	58.88
427.794	50.69
428.001	108.03
428.209	73.21
428.417	120.32
428.624	97.79
428.832	87.55
429.039	132.61
429.247	189.95
429.454	120.32
429.662	210.43
429.869	95.74
430.076	118.27
430.284	87.55
430.491	110.08
430.699	148.99
430.906	173.57
431.114	91.65
431.321	71.17
431.528	62.98
431.736	210.43
431.943	194.05
432.15	163.33
432.358	126.46
432.565	132.61
432.772	128.51
432.979	194.05
433.187	79.36
433.394	218.62
433.601	71.17
433.808	249.34
434.016	218.62
434.223	122.37
434.43	181.76
434.637	296.44
434.844	257.53
435.052	198.14
435.259	220.67
435.466	220.67
435.673	85.5
435.88	251.39
436.087	247.29
436.294	290.3
436.501	259.58
436.708	230.91
436.915	280.06
437.122	290.3
437.329	210.43
437.537	302.59
437.743	284.16
437.95	339.45
438.157	323.07
438.364	374.27
438.571	329.21
438.778	366.07
438.985	380.41
439.192	417.27
439.399	386.55
439.606	374.27
439.813	515.58
440.02	622.07
440.227	603.64
440.433	558.58
440.64	480.76
440.847	497.14
441.054	562.68
441.261	622.07
441.467	552.44
441.674	550.39
441.881	673.27
442.088	579.06
442.294	726.52
442.501	712.18
442.708	775.67
442.914	790
443.121	708.09
443.328	808.44
443.534	861.68
443.741	830.96
443.948	755.19
444.154	849.4
444.361	1140.21
444.568	816.63
444.774	931.31
444.981	1050.1
445.187	1132.01
445.394	1095.15
445.6	1021.42
445.807	1240.56
446.013	1226.22
446.22	1199.6
446.426	1345
446.633	1351.15
446.839	1537.51
447.046	1310.19
447.252	1545.7
447.459	1412.59
447.665	1461.74
447.871	1562.09
448.078	1779.17
448.284	1680.87
448.491	1803.75
448.697	1998.31
448.903	1996.26
449.11	2123.23
449.316	1943.01
449.522	2174.43
449.728	2250.21
449.935	2330.08
450.141	2373.08
450.347	2563.54
450.553	2520.54
450.76	2586.07
450.966	2762.2
451.172	2872.79
451.378	2901.46
451.584	2999.76
451.791	3204.56
451.997	3249.61
452.203	3378.64
452.409	3548.62
452.615	3560.91
452.821	3605.96
453.027	3620.3
453.233	4101.57
453.44	3851.72
453.646	4113.86
453.852	4347.33
454.058	4572.6
454.264	4636.09
454.47	5035.44
454.676	4967.86
454.882	5436.85
455.088	5152.18
455.294	5584.3
455.5	5846.44
455.705	6165.92
455.911	6028.71
456.117	6301.09
456.323	6561.18
456.529	6520.22
456.735	7062.93
456.941	7394.7
457.147	7525.77
457.352	7744.91
457.558	8021.38
457.764	8521.09
457.97	8611.2
458.176	9231.73
458.381	9571.69
458.587	9801.07
458.793	10028.39
458.999	10188.13
459.204	11425.11
459.41	11859.28
459.616	11851.08
459.821	12363.08
460.027	13153.59
460.233	13577.52
460.438	13673.78
460.644	14269.73
460.85	14484.77
461.055	14918.94
461.261	15904.01
461.466	15412.5
461.672	15791.38
461.878	17429.75
462.083	17210.62
462.289	17806.58
462.494	18535.65
462.7	18586.85
462.905	18791.65
463.111	20638.92
463.316	21398.71
463.522	21505.21
463.727	22205.61
463.932	23141.53
464.138	24085.65
464.343	24751.24
464.549	25105.54
464.754	26967.14
464.959	27597.91
465.165	28073.04
465.37	27692.12
465.575	27987.03
465.781	29785.15
465.986	30676.01
466.191	30065.72
466.397	30422.06
466.602	29625.4
466.807	31556.64
467.012	32054.29
467.218	32234.52
467.423	32586.77
467.628	33616.9
467.833	34933.74
468.038	34380.79
468.244	33700.86
468.449	35363.81
468.654	34651.12
468.859	34735.09
469.064	34753.52
469.269	33799.16
