Data from USB4F104151__55__11-30-46-065.txt Node

Date: Wed Feb 26 11:30:46 EST 2025
User: louis
Spectrometer: USB4F10415
Trigger mode: 4
Integration Time (sec): 1.000000E-1
Scans to average: 1
Electric dark correction enabled: true
Nonlinearity correction enabled: false
Boxcar width: 0
XAxis mode: Wavelengths
Number of Pixels in Spectrum: 3648
>>>>>Begin Spectral Data<<<<<
178.204	-424.78
178.424	-424.78
178.644	-424.78
178.864	-412.5
179.084	-385.87
179.304	-15.19
179.524	-25.43
179.744	-84.82
179.964	85.16
180.184	-19.29
180.404	60.59
180.624	36.01
180.844	5.29
181.064	-109.4
181.283	62.63
181.503	-39.76
181.723	44.2
181.943	-80.72
182.163	132.26
182.383	54.44
182.602	97.45
182.822	167.08
183.042	85.16
183.262	29.87
183.482	-7
183.701	50.35
183.921	19.63
184.141	13.48
184.361	130.22
184.58	76.97
184.8	87.21
185.02	-23.38
185.239	62.63
185.459	33.96
185.679	124.07
185.898	-97.11
186.118	48.3
186.338	44.2
186.557	144.55
186.777	-33.62
186.997	56.49
187.216	-2.9
187.436	134.31
187.655	23.72
187.875	124.07
188.095	-4.95
188.314	126.12
188.534	56.49
188.753	25.77
188.973	132.26
189.192	189.61
189.412	29.87
189.631	-9.05
189.851	48.3
190.07	113.83
190.29	-19.29
190.509	-58.2
190.729	-2.9
190.948	173.22
191.168	257.19
191.387	111.78
191.607	19.63
191.826	50.35
192.045	66.73
192.265	83.11
192.484	81.07
192.704	9.39
192.923	21.67
193.142	205.99
193.362	183.46
193.581	134.31
193.8	91.31
194.02	177.32
194.239	25.77
194.458	74.92
194.678	38.06
194.897	38.06
195.116	-45.91
195.335	-2.9
195.555	105.64
195.774	42.15
195.993	146.6
196.212	5.29
196.432	58.54
196.651	3.24
196.87	81.07
197.089	197.8
197.308	85.16
197.528	103.59
197.747	-11.09
197.966	68.78
198.185	181.42
198.404	-78.68
198.623	191.66
198.842	165.03
199.062	117.93
199.281	124.07
199.5	13.48
199.719	52.39
199.938	60.59
200.157	46.25
200.376	95.4
200.595	52.39
200.814	113.83
201.033	42.15
201.252	152.74
201.471	58.54
201.69	95.4
201.909	15.53
202.128	111.78
202.347	62.63
202.566	52.39
202.785	-74.58
203.004	-52.05
203.223	275.62
203.442	42.15
203.661	23.72
203.879	62.63
204.098	68.78
204.317	11.43
204.536	101.55
204.755	85.16
204.974	74.92
205.193	21.67
205.411	122.02
205.63	95.4
205.849	70.83
206.068	89.26
206.287	-45.91
206.505	124.07
206.724	89.26
206.943	-39.76
207.162	25.77
207.381	113.83
207.599	62.63
207.818	87.21
208.037	3.24
208.255	33.96
208.474	42.15
208.693	62.63
208.911	1.19
209.13	115.88
209.349	144.55
209.567	76.97
209.786	93.35
210.005	150.7
210.223	54.44
210.442	-68.44
210.661	40.11
210.879	50.35
211.098	-21.33
211.316	130.22
211.535	66.73
211.753	-23.38
211.972	56.49
212.191	-17.24
212.409	23.72
212.628	48.3
212.846	-97.11
213.065	97.45
213.283	138.41
213.502	9.39
213.72	72.87
213.938	31.91
214.157	-7
214.375	140.46
214.594	-17.24
214.812	115.88
215.031	52.39
215.249	46.25
215.467	56.49
215.686	122.02
215.904	74.92
216.122	109.74
216.341	167.08
216.559	-0.85
216.778	115.88
216.996	91.31
217.214	-58.2
217.432	-60.24
217.651	-9.05
217.869	56.49
218.087	83.11
218.306	15.53
218.524	38.06
218.742	-7
218.96	76.97
219.179	60.59
219.397	72.87
219.615	244.9
219.833	130.22
220.051	-21.33
220.27	152.74
220.488	113.83
220.706	113.83
220.924	-68.44
221.142	33.96
221.36	29.87
221.578	140.46
221.796	-11.09
222.015	62.63
222.233	62.63
222.451	160.94
222.669	1.19
222.887	62.63
223.105	42.15
223.323	19.63
223.541	36.01
223.759	115.88
223.977	-9.05
224.195	132.26
224.413	119.98
224.631	38.06
224.849	101.55
225.067	187.56
225.285	27.82
225.503	-2.9
225.721	-43.86
225.939	46.25
226.157	-0.85
226.375	152.74
226.592	27.82
226.81	40.11
227.028	117.93
227.246	146.6
227.464	95.4
227.682	56.49
227.9	126.12
228.117	56.49
228.335	70.83
228.553	31.91
228.771	-47.96
228.989	38.06
229.206	19.63
229.424	-115.54
229.642	48.3
229.86	-52.05
230.077	191.66
230.295	81.07
230.513	132.26
230.731	74.92
230.948	126.12
231.166	208.04
231.384	58.54
231.601	11.43
231.819	224.42
232.037	29.87
232.254	29.87
232.472	93.35
232.689	-62.29
232.907	138.41
233.125	31.91
233.342	56.49
233.56	17.58
233.777	54.44
233.995	-56.15
234.213	152.74
234.43	113.83
234.648	38.06
234.865	38.06
235.083	122.02
235.3	83.11
235.518	115.88
235.735	124.07
235.953	76.97
236.17	-47.96
236.388	21.67
236.605	81.07
236.822	165.03
237.04	140.46
237.257	85.16
237.475	-29.52
237.692	25.77
237.909	66.73
238.127	36.01
238.344	48.3
238.562	31.91
238.779	-27.48
238.996	-47.96
239.214	70.83
239.431	72.87
239.648	11.43
239.865	50.35
240.083	81.07
240.3	83.11
240.517	-13.14
240.735	33.96
240.952	187.56
241.169	68.78
241.386	119.98
241.603	62.63
241.821	-52.05
242.038	70.83
242.255	148.65
242.472	-29.52
242.689	70.83
242.907	81.07
243.124	83.11
243.341	-0.85
243.558	-13.14
243.775	9.39
243.992	-52.05
244.209	87.21
244.426	214.18
244.643	29.87
244.86	-25.43
245.078	152.74
245.295	167.08
245.512	72.87
245.729	-29.52
245.946	189.61
246.163	50.35
246.38	1.19
246.597	85.16
246.814	50.35
247.031	-15.19
247.248	-43.86
247.464	38.06
247.681	44.2
247.898	87.21
248.115	101.55
248.332	-7
248.549	124.07
248.766	152.74
248.983	42.15
249.2	87.21
249.417	107.69
249.633	72.87
249.85	23.72
250.067	89.26
250.284	17.58
250.501	148.65
250.717	91.31
250.934	5.29
251.151	91.31
251.368	-27.48
251.585	83.11
251.801	105.64
252.018	19.63
252.235	160.94
252.451	-21.33
252.668	-4.95
252.885	140.46
253.102	-0.85
253.318	-64.34
253.535	27.82
253.752	23.72
253.968	60.59
254.185	-23.38
254.401	89.26
254.618	109.74
254.835	3.24
255.051	111.78
255.268	99.5
255.484	152.74
255.701	-37.72
255.917	31.91
256.134	17.58
256.351	62.63
256.567	-27.48
256.784	33.96
257	-43.86
257.217	183.46
257.433	148.65
257.65	50.35
257.866	191.66
258.082	-41.81
258.299	7.34
258.515	60.59
258.732	33.96
258.948	-11.09
259.165	38.06
259.381	-41.81
259.597	126.12
259.814	83.11
260.03	42.15
260.246	7.34
260.463	66.73
260.679	138.41
260.895	79.02
261.112	140.46
261.328	93.35
261.544	-107.35
261.761	156.84
261.977	-31.57
262.193	-19.29
262.409	126.12
262.626	103.59
262.842	38.06
263.058	54.44
263.274	44.2
263.49	33.96
263.707	97.45
263.923	205.99
264.139	-21.33
264.355	46.25
264.571	152.74
264.787	74.92
265.004	134.31
265.22	-45.91
265.436	-27.48
265.652	-2.9
265.868	5.29
266.084	-45.91
266.3	-4.95
266.516	48.3
266.732	40.11
266.948	74.92
267.164	-17.24
267.38	111.78
267.596	103.59
267.812	158.89
268.028	29.87
268.244	46.25
268.46	103.59
268.676	11.43
268.892	40.11
269.108	38.06
269.324	42.15
269.54	-25.43
269.756	144.55
269.972	-47.96
270.188	25.77
270.403	-31.57
270.619	50.35
270.835	72.87
271.051	-23.38
271.267	-4.95
271.483	15.53
271.698	130.22
271.914	93.35
272.13	15.53
272.346	7.34
272.562	85.16
272.777	154.79
272.993	42.15
273.209	-7
273.425	124.07
273.64	-74.58
273.856	165.03
274.072	-50
274.287	-11.09
274.503	5.29
274.719	91.31
274.934	54.44
275.15	-78.68
275.366	103.59
275.581	-84.82
275.797	-13.14
276.012	58.54
276.228	-17.24
276.444	-0.85
276.659	160.94
276.875	-9.05
277.09	-23.38
277.306	27.82
277.521	87.21
277.737	52.39
277.952	181.42
278.168	83.11
278.383	-13.14
278.599	79.02
278.814	99.5
279.03	58.54
279.245	70.83
279.461	50.35
279.676	158.89
279.892	-109.4
280.107	-82.77
280.322	-64.34
280.538	146.6
280.753	-70.48
280.969	89.26
281.184	93.35
281.399	175.27
281.615	44.2
281.83	58.54
282.045	-60.24
282.26	-4.95
282.476	-4.95
282.691	58.54
282.906	99.5
283.122	-15.19
283.337	-9.05
283.552	122.02
283.767	40.11
283.983	171.18
284.198	97.45
284.413	50.35
284.628	-23.38
284.843	58.54
285.058	105.64
285.274	48.3
285.489	-29.52
285.704	48.3
285.919	-66.39
286.134	89.26
286.349	72.87
286.564	7.34
286.779	160.94
286.995	31.91
287.21	-27.48
287.425	91.31
287.64	23.72
287.855	21.67
288.07	-33.62
288.285	103.59
288.5	197.8
288.715	87.21
288.93	36.01
289.145	21.67
289.36	173.22
289.575	-13.14
289.79	115.88
290.004	58.54
290.219	179.37
290.434	-0.85
290.649	23.72
290.864	54.44
291.079	-74.58
291.294	21.67
291.509	44.2
291.724	-15.19
291.938	-45.91
292.153	119.98
292.368	9.39
292.583	64.68
292.798	130.22
293.012	103.59
293.227	38.06
293.442	-41.81
293.657	201.9
293.871	83.11
294.086	119.98
294.301	154.79
294.516	126.12
294.73	66.73
294.945	66.73
295.16	64.68
295.374	74.92
295.589	62.63
295.804	-58.2
296.018	21.67
296.233	111.78
296.447	3.24
296.662	-43.86
296.877	124.07
297.091	7.34
297.306	-17.24
297.52	29.87
297.735	122.02
297.949	46.25
298.164	36.01
298.378	40.11
298.593	-17.24
298.807	-15.19
299.022	95.4
299.236	193.7
299.451	11.43
299.665	25.77
299.88	70.83
300.094	31.91
300.309	-47.96
300.523	74.92
300.737	-9.05
300.952	150.7
301.166	48.3
301.381	-4.95
301.595	-60.24
301.809	83.11
302.024	-7
302.238	-45.91
302.452	128.17
302.667	105.64
302.881	126.12
303.095	48.3
303.309	33.96
303.524	-74.58
303.738	46.25
303.952	52.39
304.166	46.25
304.381	-86.87
304.595	263.33
304.809	-17.24
305.023	44.2
305.237	-15.19
305.452	105.64
305.666	17.58
305.88	115.88
306.094	83.11
306.308	124.07
306.522	138.41
306.736	79.02
306.95	124.07
307.164	-7
307.379	48.3
307.593	62.63
307.807	105.64
308.021	46.25
308.235	152.74
308.449	-72.53
308.663	33.96
308.877	257.19
309.091	-7
309.305	19.63
309.519	-7
309.733	130.22
309.947	23.72
310.161	52.39
310.374	95.4
310.588	165.03
310.802	54.44
311.016	40.11
311.23	148.65
311.444	-4.95
311.658	9.39
311.872	111.78
312.085	79.02
312.299	165.03
312.513	52.39
312.727	93.35
312.941	-45.91
313.154	72.87
313.368	76.97
313.582	11.43
313.796	113.83
314.009	38.06
314.223	85.16
314.437	103.59
314.651	62.63
314.864	38.06
315.078	42.15
315.292	19.63
315.505	103.59
315.719	83.11
315.933	142.5
316.146	70.83
316.36	-2.9
316.573	160.94
316.787	142.5
317.001	56.49
317.214	-11.09
317.428	38.06
317.641	-27.48
317.855	-74.58
318.068	23.72
318.282	7.34
318.495	234.66
318.709	165.03
318.922	113.83
319.136	111.78
319.349	85.16
319.563	54.44
319.776	31.91
319.99	-60.24
320.203	64.68
320.417	91.31
320.63	175.27
320.843	234.66
321.057	15.53
321.27	-9.05
321.483	60.59
321.697	99.5
321.91	60.59
322.124	160.94
322.337	3.24
322.55	-0.85
322.763	58.54
322.977	64.68
323.19	3.24
323.403	11.43
323.617	97.45
323.83	113.83
324.043	-33.62
324.256	19.63
324.469	-37.72
324.683	113.83
324.896	56.49
325.109	60.59
325.322	40.11
325.535	89.26
325.748	79.02
325.962	11.43
326.175	91.31
326.388	99.5
326.601	115.88
326.814	50.35
327.027	42.15
327.24	134.31
327.453	-56.15
327.666	95.4
327.879	199.85
328.092	165.03
328.305	107.69
328.518	-29.52
328.731	3.24
328.944	103.59
329.157	66.73
329.37	13.48
329.583	169.13
329.796	160.94
330.009	-37.72
330.222	83.11
330.435	99.5
330.648	115.88
330.861	89.26
331.073	-13.14
331.286	17.58
331.499	-0.85
331.712	-90.96
331.925	70.83
332.138	17.58
332.35	103.59
332.563	29.87
332.776	93.35
332.989	-23.38
333.202	23.72
333.414	42.15
333.627	109.74
333.84	58.54
334.053	97.45
334.265	1.19
334.478	-86.87
334.691	31.91
334.903	17.58
335.116	-21.33
335.329	27.82
335.541	72.87
335.754	218.28
335.966	-37.72
336.179	46.25
336.392	74.92
336.604	-70.48
336.817	109.74
337.029	72.87
337.242	40.11
337.454	103.59
337.667	27.82
337.88	115.88
338.092	68.78
338.305	111.78
338.517	-47.96
338.729	70.83
338.942	201.9
339.154	-33.62
339.367	-35.67
339.579	146.6
339.792	-43.86
340.004	95.4
340.217	56.49
340.429	70.83
340.641	-15.19
340.854	56.49
341.066	56.49
341.278	79.02
341.491	165.03
341.703	79.02
341.915	-93.01
342.128	83.11
342.34	95.4
342.552	-41.81
342.764	48.3
342.977	128.17
343.189	93.35
343.401	-15.19
343.613	-7
343.826	85.16
344.038	-25.43
344.25	7.34
344.462	58.54
344.674	42.15
344.886	72.87
345.099	115.88
345.311	113.83
345.523	-9.05
345.735	-37.72
345.947	40.11
346.159	33.96
346.371	60.59
346.583	-25.43
346.795	240.81
347.007	5.29
347.219	38.06
347.431	-2.9
347.643	128.17
347.855	-41.81
348.067	103.59
348.279	-37.72
348.491	13.48
348.703	74.92
348.915	33.96
349.127	-0.85
349.339	154.79
349.551	29.87
349.763	103.59
349.975	62.63
350.187	115.88
350.399	181.42
350.61	89.26
350.822	60.59
351.034	85.16
351.246	27.82
351.458	72.87
351.669	50.35
351.881	103.59
352.093	181.42
352.305	136.36
352.517	56.49
352.728	115.88
352.94	91.31
353.152	85.16
353.363	-60.24
353.575	44.2
353.787	195.75
353.999	89.26
354.21	150.7
354.422	-11.09
354.633	72.87
354.845	124.07
355.057	97.45
355.268	60.59
355.48	72.87
355.692	11.43
355.903	31.91
356.115	79.02
356.326	-66.39
356.538	140.46
356.749	50.35
356.961	95.4
357.172	68.78
357.384	-43.86
357.595	187.56
357.807	36.01
358.018	-27.48
358.23	-21.33
358.441	195.75
358.653	74.92
358.864	44.2
359.075	-17.24
359.287	152.74
359.498	132.26
359.709	52.39
359.921	54.44
360.132	160.94
360.344	3.24
360.555	1.19
360.766	79.02
360.977	21.67
361.189	171.18
361.4	-41.81
361.611	48.3
361.823	167.08
362.034	54.44
362.245	-107.35
362.456	-15.19
362.667	66.73
362.879	38.06
363.09	99.5
363.301	122.02
363.512	79.02
363.723	-88.92
363.935	-41.81
364.146	117.93
364.357	25.77
364.568	27.82
364.779	-50
364.99	144.55
365.201	-37.72
365.412	122.02
365.623	-17.24
365.834	117.93
366.045	74.92
366.256	124.07
366.467	74.92
366.678	31.91
366.889	33.96
367.1	-13.14
367.311	105.64
367.522	-23.38
367.733	79.02
367.944	70.83
368.155	87.21
368.366	173.22
368.577	146.6
368.788	189.61
368.999	25.77
369.209	25.77
369.42	210.09
369.631	246.95
369.842	105.64
370.053	66.73
370.264	144.55
370.474	-64.34
370.685	126.12
370.896	7.34
371.107	216.23
371.317	105.64
371.528	23.72
371.739	169.13
371.95	132.26
372.16	148.65
372.371	-50
372.582	-17.24
372.792	91.31
373.003	70.83
373.214	97.45
373.424	140.46
373.635	38.06
373.846	122.02
374.056	-4.95
374.267	46.25
374.477	81.07
374.688	-9.05
374.898	99.5
375.109	11.43
375.319	101.55
375.53	23.72
375.74	85.16
375.951	-58.2
376.161	93.35
376.372	111.78
376.582	-58.2
376.793	122.02
377.003	1.19
377.214	-19.29
377.424	89.26
377.635	21.67
377.845	19.63
378.055	199.85
378.266	11.43
378.476	101.55
378.686	83.11
378.897	101.55
379.107	38.06
379.317	46.25
379.528	-19.29
379.738	56.49
379.948	-2.9
380.158	113.83
380.369	48.3
380.579	136.36
380.789	81.07
380.999	25.77
381.21	150.7
381.42	165.03
381.63	62.63
381.84	138.41
382.05	138.41
382.261	210.09
382.471	220.33
382.681	62.63
382.891	203.94
383.101	29.87
383.311	-31.57
383.521	29.87
383.731	70.83
383.941	107.69
384.151	54.44
384.361	42.15
384.571	64.68
384.781	54.44
384.991	179.37
385.201	165.03
385.411	99.5
385.621	115.88
385.831	7.34
386.041	11.43
386.251	-43.86
386.461	85.16
386.671	-11.09
386.881	132.26
387.091	33.96
387.301	25.77
387.511	-4.95
387.72	76.97
387.93	189.61
388.14	-47.96
388.35	48.3
388.56	142.5
388.769	126.12
388.979	13.48
389.189	50.35
389.399	48.3
389.609	70.83
389.818	62.63
390.028	128.17
390.238	93.35
390.447	7.34
390.657	117.93
390.867	62.63
391.076	-68.44
391.286	56.49
391.496	23.72
391.705	-15.19
391.915	152.74
392.125	101.55
392.334	40.11
392.544	179.37
392.753	1.19
392.963	33.96
393.172	52.39
393.382	-11.09
393.591	193.7
393.801	-2.9
394.01	142.5
394.22	11.43
394.429	-58.2
394.639	54.44
394.848	42.15
395.058	103.59
395.267	-11.09
395.477	60.59
395.686	138.41
395.895	214.18
396.105	183.46
396.314	117.93
396.524	19.63
396.733	-41.81
396.942	162.98
397.152	99.5
397.361	76.97
397.57	-37.72
397.78	56.49
397.989	124.07
398.198	197.8
398.407	50.35
398.617	56.49
398.826	40.11
399.035	33.96
399.244	156.84
399.453	13.48
399.663	58.54
399.872	111.78
400.081	58.54
400.29	158.89
400.499	13.48
400.708	124.07
400.917	42.15
401.127	36.01
401.336	-2.9
401.545	177.32
401.754	107.69
401.963	64.68
402.172	-80.72
402.381	-7
402.59	25.77
402.799	60.59
403.008	52.39
403.217	27.82
403.426	60.59
403.635	31.91
403.844	31.91
404.053	21.67
404.262	83.11
404.471	183.46
404.68	-21.33
404.888	74.92
405.097	99.5
405.306	62.63
405.515	119.98
405.724	48.3
405.933	58.54
406.142	105.64
406.35	130.22
406.559	117.93
406.768	97.45
406.977	195.75
407.185	33.96
407.394	48.3
407.603	-88.92
407.812	72.87
408.02	146.6
408.229	52.39
408.438	150.7
408.646	-111.44
408.855	62.63
409.064	144.55
409.272	21.67
409.481	50.35
409.69	-15.19
409.898	-31.57
410.107	175.27
410.315	140.46
410.524	58.54
410.733	48.3
410.941	52.39
411.15	130.22
411.358	117.93
411.567	144.55
411.775	62.63
411.984	40.11
412.192	74.92
412.401	85.16
412.609	201.9
412.818	83.11
413.026	146.6
413.234	64.68
413.443	-9.05
413.651	-50
413.86	-19.29
414.068	162.98
414.276	240.81
414.485	9.39
414.693	85.16
414.901	134.31
415.11	142.5
415.318	46.25
415.526	46.25
415.734	124.07
415.943	74.92
416.151	27.82
416.359	89.26
416.567	58.54
416.776	142.5
416.984	150.7
417.192	144.55
417.4	134.31
417.608	36.01
417.817	15.53
418.025	138.41
418.233	205.99
418.441	38.06
418.649	3.24
418.857	124.07
419.065	140.46
419.273	1.19
419.481	93.35
419.689	83.11
419.897	56.49
420.105	50.35
420.313	79.02
420.521	205.99
420.729	95.4
420.937	-43.86
421.145	-19.29
421.353	177.32
421.561	212.14
421.769	87.21
421.977	29.87
422.185	195.75
422.393	-35.67
422.601	189.61
422.809	119.98
423.017	105.64
423.224	87.21
423.432	113.83
423.64	117.93
423.848	195.75
424.056	52.39
424.263	140.46
424.471	62.63
424.679	187.56
424.887	-50
425.094	95.4
425.302	126.12
425.51	99.5
425.718	203.94
425.925	40.11
426.133	50.35
426.341	285.86
426.548	87.21
426.756	62.63
426.964	64.68
427.171	9.39
427.379	171.18
427.586	29.87
427.794	158.89
428.001	169.13
428.209	54.44
428.417	203.94
428.624	101.55
428.832	117.93
429.039	66.73
429.247	42.15
429.454	99.5
429.662	261.29
429.869	117.93
430.076	83.11
430.284	148.65
430.491	208.04
430.699	152.74
430.906	246.95
431.114	165.03
431.321	142.5
431.528	236.71
431.736	160.94
431.943	175.27
432.15	175.27
432.358	128.17
432.565	296.1
432.772	44.2
432.979	244.9
433.187	146.6
433.394	226.47
433.601	179.37
433.808	279.72
434.016	257.19
434.223	242.85
434.43	171.18
434.637	302.25
434.844	285.86
435.052	201.9
435.259	337.06
435.466	330.92
435.673	222.38
435.88	253.09
436.087	292.01
436.294	285.86
436.501	390.31
436.708	308.39
436.915	367.78
437.122	242.85
437.329	351.4
437.537	367.78
437.743	335.01
437.95	437.41
438.157	394.4
438.364	386.21
438.571	384.16
438.778	472.23
438.985	435.36
439.192	386.21
439.399	443.56
439.606	443.56
439.813	560.29
440.02	576.67
440.227	621.73
440.433	595.11
440.64	568.48
440.847	521.38
441.054	550.05
441.261	693.41
441.467	582.82
441.674	550.05
441.881	685.22
442.088	652.45
442.294	687.26
442.501	738.46
442.708	955.55
442.914	758.94
443.121	771.23
443.328	877.73
443.534	906.4
443.741	849.05
443.948	832.67
444.154	906.4
444.361	1078.43
444.568	908.44
444.774	1012.89
444.981	943.26
445.187	1227.93
445.394	1172.63
445.6	1148.06
445.807	1236.12
446.013	1209.5
446.22	1203.35
446.426	1453.2
446.633	1414.29
446.839	1604.75
447.046	1440.92
447.252	1614.99
447.459	1557.65
447.665	1522.84
447.871	1787.02
448.078	1848.46
448.284	1807.5
448.491	1901.71
448.697	1973.39
448.903	2145.42
449.11	2143.37
449.316	2213
449.522	2364.55
449.728	2423.94
449.935	2446.47
450.141	2452.61
450.347	2741.38
450.553	2563.2
450.76	2686.08
450.966	2813.06
451.172	2901.12
451.378	3007.61
451.584	3230.84
451.791	3290.23
451.997	3370.1
452.203	3331.19
452.409	3634.29
452.615	3781.74
452.821	3746.93
453.027	3783.79
453.233	4291.69
453.44	3953.77
453.646	4324.46
453.852	4508.77
454.058	4658.28
454.264	4682.85
454.47	5106.78
454.676	5100.64
454.882	5569.62
455.088	5440.6
455.294	5674.07
455.5	6181.96
455.705	6368.33
455.911	6349.9
456.117	6755.4
456.323	6954.05
456.529	6757.44
456.735	7531.58
456.941	7535.67
457.147	7875.63
457.352	8041.52
457.558	8318
457.764	8793.12
457.97	9114.66
458.176	9554.97
458.381	10023.95
458.587	10208.27
458.793	10558.47
458.999	10742.79
459.204	11869.17
459.41	12602.35
459.616	12360.69
459.821	13057
460.027	13501.4
460.233	14375.89
460.438	14330.83
460.644	15086.53
460.85	15182.79
461.055	15680.44
461.261	16382.9
461.466	16128.95
461.672	16778.15
461.878	18312.08
462.083	18287.51
462.289	18750.35
462.494	19417.99
462.7	19452.8
462.905	20185.97
463.111	21232.49
463.316	22545.23
463.522	22932.3
463.727	23599.94
463.932	24554.29
464.138	25144.11
464.343	26434.33
464.549	26354.46
464.754	28513.02
464.959	29272.81
465.165	29491.94
465.37	29418.22
465.575	29354.73
465.781	31218.38
465.986	31978.18
466.191	31490.76
466.397	32420.54
466.602	31294.16
466.807	33102.51
467.012	33643.18
467.218	34388.64
467.423	34577.05
467.628	35297.94
467.833	36807.29
468.038	36145.8
468.244	35580.56
468.449	37663.34
