Data from USB4F104151__104__10-35-48-026.txt Node

Date: Wed Feb 26 10:35:48 EST 2025
User: louis
Spectrometer: USB4F10415
Trigger mode: 4
Integration Time (sec): 1.000000E-1
Scans to average: 1
Electric dark correction enabled: true
Nonlinearity correction enabled: false
Boxcar width: 0
XAxis mode: Wavelengths
Number of Pixels in Spectrum: 3648
>>>>>Begin Spectral Data<<<<<
178.204	-368.63
178.424	-368.63
178.644	-368.63
178.864	-483.32
179.084	-382.97
179.304	2.05
179.524	-34.82
179.744	24.58
179.964	-6.14
180.184	-67.58
180.404	24.58
180.624	26.62
180.844	-4.1
181.064	-34.82
181.283	24.58
181.503	-24.58
181.723	69.63
181.943	-124.93
182.163	141.31
182.383	32.77
182.602	4.1
182.822	79.87
183.042	30.72
183.262	43.01
183.482	88.06
183.701	22.53
183.921	26.62
184.141	-4.1
184.361	18.43
184.58	6.14
184.8	-4.1
185.02	-30.72
185.239	98.3
185.459	63.49
185.679	139.26
185.898	-94.21
186.118	-14.34
186.338	57.34
186.557	129.02
186.777	-79.87
186.997	-16.38
187.216	14.34
187.436	139.26
187.655	73.73
187.875	65.53
188.095	71.68
188.314	194.56
188.534	145.41
188.753	-77.82
188.973	137.21
189.192	108.54
189.412	-12.29
189.631	-34.82
189.851	65.53
190.07	88.06
190.29	-137.21
190.509	-0
190.729	-32.77
190.948	120.83
191.168	108.54
191.387	90.11
191.607	22.53
191.826	30.72
192.045	22.53
192.265	-8.19
192.484	-40.96
192.704	-10.24
192.923	-86.01
193.142	176.13
193.362	40.96
193.581	102.4
193.8	106.49
194.02	67.58
194.239	53.25
194.458	110.59
194.678	-28.67
194.897	-57.34
195.116	8.19
195.335	43.01
195.555	4.1
195.774	-14.34
195.993	112.64
196.212	-75.77
196.432	-98.3
196.651	-36.86
196.87	16.38
197.089	143.36
197.308	67.58
197.528	53.25
197.747	-51.2
197.966	-18.43
198.185	112.64
198.404	-49.15
198.623	133.12
198.842	24.58
199.062	75.77
199.281	49.15
199.5	90.11
199.719	73.73
199.938	28.67
200.157	116.73
200.376	-14.34
200.595	155.65
200.814	-0
201.033	-16.38
201.252	61.44
201.471	38.91
201.69	30.72
201.909	10.24
202.128	135.17
202.347	36.86
202.566	-20.48
202.785	-83.97
203.004	-47.1
203.223	96.25
203.442	28.67
203.661	-49.15
203.879	45.06
204.098	67.58
204.317	20.48
204.536	81.92
204.755	57.34
204.974	106.49
205.193	8.19
205.411	77.82
205.63	55.3
205.849	90.11
206.068	69.63
206.287	-26.62
206.505	88.06
206.724	26.62
206.943	-53.25
207.162	-51.2
207.381	12.29
207.599	-28.67
207.818	67.58
208.037	12.29
208.255	45.06
208.474	81.92
208.693	38.91
208.911	-40.96
209.13	133.12
209.349	63.49
209.567	77.82
209.786	32.77
210.005	94.21
210.223	51.2
210.442	-90.11
210.661	-8.19
210.879	75.77
211.098	-47.1
211.316	34.82
211.535	71.68
211.753	69.63
211.972	88.06
212.191	-16.38
212.409	-12.29
212.628	36.86
212.846	-0
213.065	-2.05
213.283	88.06
213.502	-14.34
213.72	10.24
213.938	26.62
214.157	-47.1
214.375	79.87
214.594	-26.62
214.812	36.86
215.031	-16.38
215.249	55.3
215.467	40.96
215.686	-4.1
215.904	20.48
216.122	47.1
216.341	63.49
216.559	-24.58
216.778	102.4
216.996	163.84
217.214	30.72
217.432	6.14
217.651	-59.39
217.869	75.77
218.087	-34.82
218.306	34.82
218.524	-0
218.742	104.45
218.96	73.73
219.179	-18.43
219.397	-0
219.615	198.65
219.833	129.02
220.051	-59.39
220.27	14.34
220.488	120.83
220.706	100.35
220.924	-34.82
221.142	-61.44
221.36	133.12
221.578	-16.38
221.796	-0
222.015	2.05
222.233	114.69
222.451	219.13
222.669	-12.29
222.887	83.97
223.105	38.91
223.323	49.15
223.541	2.05
223.759	49.15
223.977	104.45
224.195	159.74
224.413	22.53
224.631	51.2
224.849	63.49
225.067	182.27
225.285	8.19
225.503	-53.25
225.721	-83.97
225.939	55.3
226.157	36.86
226.375	143.36
226.592	-61.44
226.81	6.14
227.028	75.77
227.246	28.67
227.464	69.63
227.682	59.39
227.9	71.68
228.117	81.92
228.335	104.45
228.553	14.34
228.771	30.72
228.989	-16.38
229.206	129.02
229.424	28.67
229.642	-43.01
229.86	-20.48
230.077	106.49
230.295	-67.58
230.513	129.02
230.731	92.16
230.948	120.83
231.166	139.26
231.384	2.05
231.601	-16.38
231.819	137.21
232.037	-24.58
232.254	57.34
232.472	-38.91
232.689	20.48
232.907	88.06
233.125	18.43
233.342	-43.01
233.56	-32.77
233.777	8.19
233.995	-18.43
234.213	40.96
234.43	51.2
234.648	-6.14
234.865	-18.43
235.083	57.34
235.3	10.24
235.518	61.44
235.735	69.63
235.953	32.77
236.17	-30.72
236.388	-36.86
236.605	63.49
236.822	90.11
237.04	94.21
237.257	53.25
237.475	34.82
237.692	22.53
237.909	24.58
238.127	-0
238.344	104.45
238.562	-24.58
238.779	-104.45
238.996	-20.48
239.214	-18.43
239.431	47.1
239.648	-30.72
239.865	59.39
240.083	51.2
240.3	12.29
240.517	-43.01
240.735	36.86
240.952	81.92
241.169	43.01
241.386	49.15
241.603	12.29
241.821	-59.39
242.038	106.49
242.255	98.3
242.472	-65.54
242.689	73.73
242.907	-36.86
243.124	45.06
243.341	47.1
243.558	-69.63
243.775	2.05
243.992	-38.91
244.209	129.02
244.426	223.23
244.643	-14.34
244.86	20.48
245.078	81.92
245.295	88.06
245.512	-2.05
245.729	-75.77
245.946	22.53
246.163	18.43
246.38	-26.62
246.597	65.53
246.814	-10.24
247.031	38.91
247.248	34.82
247.464	108.54
247.681	-26.62
247.898	22.53
248.115	26.62
248.332	67.58
248.549	67.58
248.766	139.26
248.983	67.58
249.2	47.1
249.417	22.53
249.633	-2.05
249.85	40.96
250.067	-0
250.284	65.53
250.501	28.67
250.717	-4.1
250.934	-16.38
251.151	14.34
251.368	-4.1
251.585	51.2
251.801	57.34
252.018	28.67
252.235	116.73
252.451	-20.48
252.668	4.1
252.885	59.39
253.102	28.67
253.318	40.96
253.535	100.35
253.752	32.77
253.968	-57.34
254.185	-65.54
254.401	71.68
254.618	36.86
254.835	-14.34
255.051	165.89
255.268	118.78
255.484	47.1
255.701	69.63
255.917	100.35
256.134	75.77
256.351	38.91
256.567	-55.3
256.784	-26.62
257	-98.3
257.217	118.78
257.433	96.25
257.65	90.11
257.866	75.77
258.082	40.96
258.299	-28.67
258.515	49.15
258.732	-40.96
258.948	4.1
259.165	47.1
259.381	-116.73
259.597	34.82
259.814	75.77
260.03	22.53
260.246	114.69
260.463	122.88
260.679	83.97
260.895	22.53
261.112	6.14
261.328	-40.96
261.544	-38.91
261.761	106.49
261.977	-73.73
262.193	65.53
262.409	145.41
262.626	20.48
262.842	34.82
263.058	-16.38
263.274	114.69
263.49	139.26
263.707	34.82
263.923	135.17
264.139	-38.91
264.355	20.48
264.571	141.31
264.787	-10.24
265.004	122.88
265.22	40.96
265.436	-49.15
265.652	-43.01
265.868	96.25
266.084	-90.11
266.3	69.63
266.516	-26.62
266.732	20.48
266.948	-10.24
267.164	34.82
267.38	26.62
267.596	-10.24
267.812	204.8
268.028	112.64
268.244	-57.34
268.46	-16.38
268.676	69.63
268.892	81.92
269.108	-32.77
269.324	-24.58
269.54	-20.48
269.756	26.62
269.972	-79.87
270.188	30.72
270.403	-92.16
270.619	10.24
270.835	59.39
271.051	20.48
271.267	12.29
271.483	-8.19
271.698	59.39
271.914	88.06
272.13	20.48
272.346	-40.96
272.562	59.39
272.777	69.63
272.993	30.72
273.209	-14.34
273.425	47.1
273.64	-90.11
273.856	43.01
274.072	-67.58
274.287	-61.44
274.503	26.62
274.719	108.54
274.934	-14.34
275.15	-71.68
275.366	-4.1
275.581	-75.77
275.797	6.14
276.012	-12.29
276.228	-0
276.444	57.34
276.659	47.1
276.875	32.77
277.09	12.29
277.306	16.38
277.521	73.73
277.737	73.73
277.952	92.16
278.168	28.67
278.383	45.06
278.599	61.44
278.814	108.54
279.03	36.86
279.245	178.17
279.461	26.62
279.676	131.07
279.892	-57.34
280.107	-83.97
280.322	8.19
280.538	61.44
280.753	-104.45
280.969	10.24
281.184	90.11
281.399	137.21
281.615	-36.86
281.83	100.35
282.045	-14.34
282.26	-22.53
282.476	30.72
282.691	65.53
282.906	69.63
283.122	36.86
283.337	-12.29
283.552	110.59
283.767	-51.2
283.983	141.31
284.198	124.93
284.413	20.48
284.628	-4.1
284.843	75.77
285.058	114.69
285.274	18.43
285.489	-0
285.704	116.73
285.919	-26.62
286.134	-22.53
286.349	55.3
286.564	59.39
286.779	122.88
286.995	94.21
287.21	-83.97
287.425	20.48
287.64	24.58
287.855	43.01
288.07	-137.21
288.285	124.93
288.5	79.87
288.715	45.06
288.93	100.35
289.145	-40.96
289.36	36.86
289.575	45.06
289.79	135.17
290.004	-24.58
290.219	53.25
290.434	45.06
290.649	14.34
290.864	59.39
291.079	-49.15
291.294	-16.38
291.509	73.73
291.724	-69.63
291.938	-4.1
292.153	94.21
292.368	10.24
292.583	71.68
292.798	45.06
293.012	124.93
293.227	8.19
293.442	-34.82
293.657	147.45
293.871	49.15
294.086	57.34
294.301	124.93
294.516	159.74
294.73	26.62
294.945	-0
295.16	6.14
295.374	63.49
295.589	71.68
295.804	22.53
296.018	79.87
296.233	79.87
296.447	-10.24
296.662	-67.58
296.877	120.83
297.091	36.86
297.306	63.49
297.52	4.1
297.735	45.06
297.949	51.2
298.164	77.82
298.378	92.16
298.593	-65.54
298.807	28.67
299.022	36.86
299.236	145.41
299.451	-47.1
299.665	-71.68
299.88	-4.1
300.094	38.91
300.309	40.96
300.523	8.19
300.737	34.82
300.952	77.82
301.166	43.01
301.381	-55.3
301.595	16.38
301.809	92.16
302.024	-4.1
302.238	-26.62
302.452	129.02
302.667	16.38
302.881	104.45
303.095	106.49
303.309	65.53
303.524	8.19
303.738	43.01
303.952	-28.67
304.166	34.82
304.381	-92.16
304.595	100.35
304.809	-65.54
305.023	30.72
305.237	6.14
305.452	-40.96
305.666	124.93
305.88	22.53
306.094	65.53
306.308	67.58
306.522	104.45
306.736	55.3
306.95	59.39
307.164	-6.14
307.379	24.58
307.593	34.82
307.807	139.26
308.021	24.58
308.235	71.68
308.449	49.15
308.663	49.15
308.877	182.27
309.091	88.06
309.305	83.97
309.519	-178.17
309.733	77.82
309.947	-104.45
310.161	-20.48
310.374	59.39
310.588	100.35
310.802	-34.82
311.016	-14.34
311.23	83.97
311.444	-40.96
311.658	45.06
311.872	67.58
312.085	90.11
312.299	100.35
312.513	83.97
312.727	34.82
312.941	-20.48
313.154	63.49
313.368	26.62
313.582	20.48
313.796	-18.43
314.009	-6.14
314.223	169.98
314.437	40.96
314.651	51.2
314.864	-36.86
315.078	-28.67
315.292	-141.31
315.505	4.1
315.719	49.15
315.933	67.58
316.146	24.58
316.36	-55.3
316.573	137.21
316.787	120.83
317.001	43.01
317.214	-12.29
317.428	100.35
317.641	-22.53
317.855	-32.77
318.068	34.82
318.282	-8.19
318.495	133.12
318.709	102.4
318.922	-2.05
319.136	94.21
319.349	63.49
319.563	10.24
319.776	59.39
319.99	-88.06
320.203	147.45
320.417	86.01
320.63	96.25
320.843	172.03
321.057	106.49
321.27	40.96
321.483	57.34
321.697	100.35
321.91	79.87
322.124	-12.29
322.337	112.64
322.55	-81.92
322.763	28.67
322.977	32.77
323.19	-36.86
323.403	73.73
323.617	-6.14
323.83	92.16
324.043	-32.77
324.256	-2.05
324.469	-59.39
324.683	135.17
324.896	-55.3
325.109	61.44
325.322	-63.49
325.535	40.96
325.748	75.77
325.962	-12.29
326.175	131.07
326.388	49.15
326.601	102.4
326.814	-0
327.027	22.53
327.24	192.51
327.453	-77.82
327.666	104.45
327.879	157.69
328.092	77.82
328.305	45.06
328.518	12.29
328.731	-53.25
328.944	114.69
329.157	4.1
329.37	-10.24
329.583	169.98
329.796	147.45
330.009	-38.91
330.222	67.58
330.435	51.2
330.648	20.48
330.861	26.62
331.073	24.58
331.286	102.4
331.499	63.49
331.712	-55.3
331.925	77.82
332.138	53.25
332.35	79.87
332.563	-34.82
332.776	141.31
332.989	-65.54
333.202	-28.67
333.414	-6.14
333.627	67.58
333.84	16.38
334.053	28.67
334.265	14.34
334.478	-51.2
334.691	-12.29
334.903	-30.72
335.116	-38.91
335.329	43.01
335.541	22.53
335.754	178.17
335.966	-45.06
336.179	-8.19
336.392	-18.43
336.604	16.38
336.817	47.1
337.029	65.53
337.242	67.58
337.454	45.06
337.667	-90.11
337.88	133.12
338.092	137.21
338.305	102.4
338.517	4.1
338.729	77.82
338.942	126.97
339.154	10.24
339.367	6.14
339.579	34.82
339.792	-4.1
340.004	-4.1
340.217	-38.91
340.429	-32.77
340.641	-75.77
340.854	-20.48
341.066	-8.19
341.278	116.73
341.491	118.78
341.703	30.72
341.915	-59.39
342.128	73.73
342.34	-14.34
342.552	-28.67
342.764	131.07
342.977	-10.24
343.189	2.05
343.401	32.77
343.613	-65.54
343.826	14.34
344.038	14.34
344.25	-14.34
344.462	-18.43
344.674	69.63
344.886	-77.82
345.099	45.06
345.311	53.25
345.523	-22.53
345.735	-83.97
345.947	83.97
346.159	-0
346.371	-8.19
346.583	8.19
346.795	172.03
347.007	-16.38
347.219	63.49
347.431	65.53
347.643	124.93
347.855	-24.58
348.067	98.3
348.279	-104.45
348.491	12.29
348.703	20.48
348.915	-45.06
349.127	-8.19
349.339	106.49
349.551	32.77
349.763	90.11
349.975	26.62
350.187	143.36
350.399	53.25
350.61	94.21
350.822	-2.05
351.034	71.68
351.246	53.25
351.458	45.06
351.669	67.58
351.881	98.3
352.093	59.39
352.305	126.97
352.517	59.39
352.728	167.93
352.94	77.82
353.152	2.05
353.363	-30.72
353.575	61.44
353.787	126.97
353.999	61.44
354.21	145.41
354.422	6.14
354.633	6.14
354.845	38.91
355.057	38.91
355.268	65.53
355.48	96.25
355.692	-88.06
355.903	55.3
356.115	-8.19
356.326	-157.69
356.538	51.2
356.749	49.15
356.961	188.41
357.172	59.39
357.384	-63.49
357.595	194.56
357.807	-14.34
358.018	16.38
358.23	59.39
358.441	65.53
358.653	67.58
358.864	51.2
359.075	20.48
359.287	-14.34
359.498	57.34
359.709	69.63
359.921	47.1
360.132	16.38
360.344	-16.38
360.555	20.48
360.766	-22.53
360.977	4.1
361.189	114.69
361.4	69.63
361.611	139.26
361.823	122.88
362.034	88.06
362.245	16.38
362.456	-55.3
362.667	-18.43
362.879	-57.34
363.09	28.67
363.301	43.01
363.512	20.48
363.723	-86.01
363.935	-26.62
364.146	38.91
364.357	75.77
364.568	-10.24
364.779	-90.11
364.99	98.3
365.201	-8.19
365.412	165.89
365.623	-79.87
365.834	24.58
366.045	-47.1
366.256	108.54
366.467	43.01
366.678	36.86
366.889	26.62
367.1	6.14
367.311	88.06
367.522	18.43
367.733	98.3
367.944	77.82
368.155	32.77
368.366	40.96
368.577	53.25
368.788	116.73
368.999	-36.86
369.209	34.82
369.42	153.6
369.631	206.84
369.842	81.92
370.053	-53.25
370.264	133.12
370.474	-18.43
370.685	57.34
370.896	24.58
371.107	98.3
371.317	24.58
371.528	22.53
371.739	135.17
371.95	69.63
372.16	102.4
372.371	-69.63
372.582	-24.58
372.792	38.91
373.003	16.38
373.214	-40.96
373.424	104.45
373.635	-16.38
373.846	108.54
374.056	57.34
374.267	-2.05
374.477	-22.53
374.688	-24.58
374.898	63.49
375.109	94.21
375.319	32.77
375.53	112.64
375.74	38.91
375.951	40.96
376.161	-6.14
376.372	129.02
376.582	-26.62
376.793	-32.77
377.003	24.58
377.214	-63.49
377.424	26.62
377.635	47.1
377.845	-20.48
378.055	83.97
378.266	-16.38
378.476	30.72
378.686	102.4
378.897	32.77
379.107	198.65
379.317	51.2
379.528	108.54
379.738	88.06
379.948	-24.58
380.158	86.01
380.369	-22.53
380.579	47.1
380.789	57.34
380.999	90.11
381.21	-2.05
381.42	81.92
381.63	53.25
381.84	102.4
382.05	45.06
382.261	75.77
382.471	47.1
382.681	-114.69
382.891	94.21
383.101	36.86
383.311	-143.36
383.521	-0
383.731	100.35
383.941	24.58
384.151	36.86
384.361	61.44
384.571	34.82
384.781	2.05
384.991	198.65
385.201	129.02
385.411	129.02
385.621	16.38
385.831	24.58
386.041	40.96
386.251	47.1
386.461	81.92
386.671	-2.05
386.881	137.21
387.091	2.05
387.301	96.25
387.511	98.3
387.72	14.34
387.93	34.82
388.14	4.1
388.35	26.62
388.56	71.68
388.769	145.41
388.979	-67.58
389.189	-32.77
389.399	-30.72
389.609	81.92
389.818	67.58
390.028	45.06
390.238	49.15
390.447	30.72
390.657	4.1
390.867	-45.06
391.076	-81.92
391.286	63.49
391.496	24.58
391.705	6.14
391.915	104.45
392.125	79.87
392.334	-81.92
392.544	149.5
392.753	94.21
392.963	-28.67
393.172	53.25
393.382	-2.05
393.591	161.79
393.801	-22.53
394.01	106.49
394.22	18.43
394.429	30.72
394.639	47.1
394.848	-10.24
395.058	30.72
395.267	-2.05
395.477	75.77
395.686	45.06
395.895	122.88
396.105	192.51
396.314	110.59
396.524	-0
396.733	-65.54
396.942	51.2
397.152	57.34
397.361	108.54
397.57	47.1
397.78	-30.72
397.989	12.29
398.198	165.89
398.407	-16.38
398.617	94.21
398.826	14.34
399.035	45.06
399.244	83.97
399.453	59.39
399.663	47.1
399.872	88.06
400.081	-71.68
400.29	114.69
400.499	12.29
400.708	174.08
400.917	2.05
401.127	-36.86
401.336	34.82
401.545	155.65
401.754	106.49
401.963	59.39
402.172	75.77
402.381	-118.78
402.59	-32.77
402.799	26.62
403.008	59.39
403.217	81.92
403.426	34.82
403.635	-96.25
403.844	2.05
404.053	30.72
404.262	47.1
404.471	192.51
404.68	110.59
404.888	49.15
405.097	-28.67
405.306	63.49
405.515	77.82
405.724	45.06
405.933	30.72
406.142	18.43
406.35	120.83
406.559	43.01
406.768	114.69
406.977	141.31
407.185	49.15
407.394	141.31
407.603	-20.48
407.812	77.82
408.02	45.06
408.229	22.53
408.438	12.29
408.646	-22.53
408.855	16.38
409.064	24.58
409.272	69.63
409.481	106.49
409.69	-71.68
409.898	-120.83
410.107	36.86
410.315	34.82
410.524	16.38
410.733	34.82
410.941	14.34
411.15	69.63
411.358	26.62
411.567	155.65
411.775	112.64
411.984	122.88
412.192	110.59
412.401	-71.68
412.609	227.32
412.818	163.84
413.026	57.34
413.234	55.3
413.443	49.15
413.651	-57.34
413.86	36.86
414.068	94.21
414.276	198.65
414.485	-20.48
414.693	110.59
414.901	131.07
415.11	65.53
415.318	4.1
415.526	67.58
415.734	79.87
415.943	-59.39
416.151	131.07
416.359	-14.34
416.567	110.59
416.776	22.53
416.984	120.83
417.192	112.64
417.4	24.58
417.608	90.11
417.817	-65.54
418.025	135.17
418.233	180.22
418.441	8.19
418.649	-96.25
418.857	49.15
419.065	126.97
419.273	61.44
419.481	100.35
419.689	20.48
419.897	38.91
420.105	-92.16
420.313	116.73
420.521	169.98
420.729	118.78
420.937	45.06
421.145	-47.1
421.353	73.73
421.561	176.13
421.769	63.49
421.977	14.34
422.185	47.1
422.393	28.67
422.601	157.69
422.809	65.53
423.017	18.43
423.224	55.3
423.432	100.35
423.64	-20.48
423.848	131.07
424.056	20.48
424.263	32.77
424.471	-22.53
424.679	184.32
424.887	-10.24
425.094	147.45
425.302	90.11
425.51	10.24
425.718	133.12
425.925	14.34
426.133	18.43
426.341	112.64
426.548	30.72
426.756	53.25
426.964	49.15
427.171	51.2
427.379	96.25
427.586	-20.48
427.794	100.35
428.001	147.45
428.209	51.2
428.417	147.45
428.624	61.44
428.832	65.53
429.039	83.97
429.247	79.87
429.454	114.69
429.662	167.93
429.869	104.45
430.076	165.89
430.284	135.17
430.491	143.36
430.699	155.65
430.906	176.13
431.114	106.49
431.321	157.69
431.528	122.88
431.736	163.84
431.943	165.89
432.15	131.07
432.358	208.89
432.565	169.98
432.772	90.11
432.979	184.32
433.187	75.77
433.394	151.55
433.601	26.62
433.808	212.99
434.016	180.22
434.223	239.61
434.43	260.09
434.637	167.93
434.844	296.96
435.052	208.89
435.259	167.93
435.466	280.57
435.673	245.76
435.88	227.32
436.087	348.15
436.294	344.06
436.501	278.52
436.708	264.19
436.915	315.39
437.122	409.59
437.329	243.71
437.537	235.52
437.743	337.91
437.95	434.17
438.157	284.67
438.364	397.31
438.571	337.91
438.778	544.76
438.985	434.17
439.192	468.98
439.399	483.32
439.606	403.45
439.813	477.18
440.02	571.38
440.227	598.01
440.433	509.94
440.64	536.57
440.847	608.25
441.054	579.58
441.261	772.08
441.467	655.35
441.674	591.86
441.881	724.98
442.088	677.88
442.294	698.36
442.501	813.04
442.708	821.24
442.914	745.46
443.121	854
443.328	886.77
443.534	1003.5
443.741	866.29
443.948	817.14
444.154	1044.46
444.361	1142.77
444.568	1038.32
444.774	1095.66
444.981	956.4
445.187	1193.97
445.394	1196.01
445.6	1224.69
445.807	1267.69
446.013	1298.41
446.22	1257.45
446.426	1413.1
446.633	1429.48
446.839	1646.57
447.046	1415.15
447.252	1683.43
447.459	1597.42
447.665	1546.22
447.871	1882.08
448.078	2000.87
448.284	1908.71
448.491	2097.12
448.697	2144.22
448.903	2179.04
449.11	2191.33
449.316	2107.36
449.522	2445.27
449.728	2410.46
449.935	2568.15
450.141	2580.44
450.347	2734.04
450.553	2838.48
450.76	2742.23
450.966	2949.07
451.172	3198.93
451.378	3205.07
451.584	3241.93
451.791	3469.26
451.997	3700.68
452.203	3676.1
452.409	3876.8
452.615	3944.39
452.821	3950.53
453.027	3946.44
453.233	4437.95
453.44	4198.34
453.646	4634.55
453.852	4829.11
454.058	4921.27
454.264	4939.7
454.47	5359.53
454.676	5423.02
454.882	5810.09
455.088	5578.67
455.294	5908.39
455.5	6467.49
455.705	6959
455.911	6619.03
456.117	6752.15
456.323	7180.18
456.529	7116.69
456.735	7532.43
456.941	7913.35
457.147	8398.72
457.352	8664.96
457.558	8800.12
457.764	9230.2
457.97	9744.24
458.176	10008.42
458.381	10608.48
458.587	10540.9
458.793	10970.97
458.999	11126.61
459.204	12443.46
459.41	12984.12
459.616	12746.56
459.821	13479.73
460.027	13991.72
460.233	14743.33
460.438	14884.64
460.644	15601.43
460.85	15617.81
461.055	16375.56
461.261	17299.19
461.466	16887.55
461.672	17166.07
461.878	19250.91
462.083	19025.63
462.289	19277.53
462.494	20229.84
462.7	20164.3
462.905	20530.89
463.111	22286
463.316	23043.74
463.522	23602.84
463.727	24346.25
463.932	25597.56
464.138	25949.81
464.343	27143.78
464.549	27080.29
464.754	29113.92
464.959	29767.23
465.165	30627.37
465.37	30094.9
465.575	30486.06
465.781	32517.65
465.986	33576.45
466.191	33070.6
466.397	33277.44
466.602	32296.47
466.807	34432.5
467.012	34831.85
467.218	35208.68
467.423	35079.66
467.628	36664.78
467.833	38446.52
468.038	37967.29
468.244	37055.95
468.449	38704.56
