Data from USB4F104151__112__10-36-24-422.txt Node

Date: Wed Feb 26 10:36:24 EST 2025
User: louis
Spectrometer: USB4F10415
Trigger mode: 4
Integration Time (sec): 1.000000E-1
Scans to average: 1
Electric dark correction enabled: true
Nonlinearity correction enabled: false
Boxcar width: 0
XAxis mode: Wavelengths
Number of Pixels in Spectrum: 3648
>>>>>Begin Spectral Data<<<<<
178.204	-444.75
178.424	-444.75
178.644	-444.75
178.864	-358.74
179.084	-454.99
179.304	9.9
179.524	-24.92
179.744	36.52
179.964	106.15
180.184	7.85
180.404	-4.44
180.624	-45.4
180.844	24.23
181.064	-98.64
181.283	16.04
181.503	-74.07
181.723	46.76
181.943	-110.93
182.163	183.98
182.383	3.75
182.602	57
182.822	147.11
183.042	11.95
183.262	-102.74
183.482	1.71
183.701	-24.92
183.921	44.71
184.141	-45.4
184.361	-4.44
184.58	13.99
184.8	18.09
185.02	-37.2
185.239	71.34
185.459	69.29
185.679	-8.53
185.898	-129.36
186.118	54.95
186.338	73.39
186.557	153.26
186.777	-74.07
186.997	-14.68
187.216	34.47
187.436	114.34
187.655	-14.68
187.875	57
188.095	34.47
188.314	102.06
188.534	208.55
188.753	-12.63
188.973	54.95
189.192	95.91
189.412	-61.78
189.631	-10.58
189.851	75.43
190.07	110.25
190.29	-29.01
190.509	24.23
190.729	57
190.948	87.72
191.168	155.3
191.387	91.82
191.607	11.95
191.826	42.67
192.045	34.47
192.265	-0.34
192.484	-12.63
192.704	-29.01
192.923	-24.92
193.142	183.98
193.362	30.38
193.581	132.78
193.8	69.29
194.02	85.67
194.239	59.05
194.458	102.06
194.678	73.39
194.897	71.34
195.116	28.33
195.335	26.28
195.555	18.09
195.774	-8.53
195.993	87.72
196.212	-39.25
196.432	-0.34
196.651	42.67
196.87	26.28
197.089	329.38
197.308	50.86
197.528	132.78
197.747	-74.07
197.966	57
198.185	136.87
198.404	-112.98
198.623	65.19
198.842	77.48
199.062	81.58
199.281	118.44
199.5	81.58
199.719	79.53
199.938	-4.44
200.157	20.14
200.376	1.71
200.595	153.26
200.814	57
201.033	-4.44
201.252	186.02
201.471	5.8
201.69	48.81
201.909	48.81
202.128	44.71
202.347	65.19
202.566	-51.54
202.785	-112.98
203.004	-0.34
203.223	290.47
203.442	-10.58
203.661	-14.68
203.879	122.54
204.098	85.67
204.317	22.19
204.536	89.77
204.755	34.47
204.974	71.34
205.193	-41.3
205.411	130.73
205.63	112.3
205.849	102.06
206.068	59.05
206.287	-49.49
206.505	186.02
206.724	-20.82
206.943	-10.58
207.162	-31.06
207.381	9.9
207.599	28.33
207.818	-14.68
208.037	-45.4
208.255	22.19
208.474	165.54
208.693	48.81
208.911	-47.44
209.13	106.15
209.349	65.19
209.567	57
209.786	114.34
210.005	69.29
210.223	-22.87
210.442	-184.66
210.661	-61.78
210.879	5.8
211.098	24.23
211.316	3.75
211.535	28.33
211.753	73.39
211.972	91.82
212.191	1.71
212.409	-20.82
212.628	34.47
212.846	-102.74
213.065	-10.58
213.283	63.15
213.502	85.67
213.72	34.47
213.938	20.14
214.157	1.71
214.375	91.82
214.594	46.76
214.812	71.34
215.031	-0.34
215.249	-16.73
215.467	44.71
215.686	104.11
215.904	73.39
216.122	59.05
216.341	79.53
216.559	38.57
216.778	77.48
216.996	110.25
217.214	-12.63
217.432	73.39
217.651	-20.82
217.869	38.57
218.087	93.87
218.306	22.19
218.524	110.25
218.742	38.57
218.96	59.05
219.179	-4.44
219.397	67.24
219.615	231.08
219.833	-12.63
220.051	40.62
220.27	22.19
220.488	77.48
220.706	61.1
220.924	-41.3
221.142	-37.2
221.36	-16.73
221.578	20.14
221.796	24.23
222.015	52.91
222.233	42.67
222.451	59.05
222.669	-33.11
222.887	24.23
223.105	26.28
223.323	-8.53
223.541	-29.01
223.759	7.85
223.977	-26.96
224.195	153.26
224.413	110.25
224.631	38.57
224.849	83.63
225.067	167.59
225.285	18.09
225.503	5.8
225.721	-33.11
225.939	75.43
226.157	-22.87
226.375	216.74
226.592	-4.44
226.81	16.04
227.028	112.3
227.246	126.63
227.464	73.39
227.682	69.29
227.9	52.91
228.117	149.16
228.335	-16.73
228.553	20.14
228.771	-29.01
228.989	40.62
229.206	104.11
229.424	-0.34
229.642	-47.44
229.86	-51.54
230.077	159.4
230.295	-14.68
230.513	112.3
230.731	128.68
230.948	122.54
231.166	173.74
231.384	48.81
231.601	-41.3
231.819	77.48
232.037	-39.25
232.254	-65.88
232.472	22.19
232.689	61.1
232.907	132.78
233.125	-10.58
233.342	-49.49
233.56	3.75
233.777	-26.96
233.995	-33.11
234.213	30.38
234.43	118.44
234.648	-20.82
234.865	-4.44
235.083	44.71
235.3	32.43
235.518	44.71
235.735	69.29
235.953	73.39
236.17	1.71
236.388	-4.44
236.605	48.81
236.822	183.98
237.04	1.71
237.257	128.68
237.475	16.04
237.692	-12.63
237.909	91.82
238.127	-43.35
238.344	57
238.562	118.44
238.779	-123.22
238.996	-57.68
239.214	26.28
239.431	42.67
239.648	11.95
239.865	65.19
240.083	81.58
240.3	-37.2
240.517	-22.87
240.735	61.1
240.952	200.36
241.169	118.44
241.386	100.01
241.603	24.23
241.821	-6.49
242.038	132.78
242.255	138.92
242.472	-129.36
242.689	73.39
242.907	9.9
243.124	-8.53
243.341	-61.78
243.558	-26.96
243.775	-63.83
243.992	-78.16
244.209	13.99
244.426	122.54
244.643	-22.87
244.86	42.67
245.078	57
245.295	75.43
245.512	50.86
245.729	1.71
245.946	44.71
246.163	-43.35
246.38	61.1
246.597	7.85
246.814	30.38
247.031	1.71
247.248	46.76
247.464	77.48
247.681	-10.58
247.898	69.29
248.115	52.91
248.332	-43.35
248.549	81.58
248.766	149.16
248.983	122.54
249.2	95.91
249.417	97.96
249.633	-4.44
249.85	81.58
250.067	61.1
250.284	73.39
250.501	79.53
250.717	36.52
250.934	-16.73
251.151	34.47
251.368	-29.01
251.585	-6.49
251.801	97.96
252.018	-65.88
252.235	30.38
252.451	-86.36
252.668	-72.02
252.885	48.81
253.102	48.81
253.318	38.57
253.535	-33.11
253.752	-41.3
253.968	9.9
254.185	-98.64
254.401	-16.73
254.618	59.05
254.835	-0.34
255.051	151.21
255.268	36.52
255.484	57
255.701	34.47
255.917	48.81
256.134	-37.2
256.351	13.99
256.567	-41.3
256.784	24.23
257	-78.16
257.217	67.24
257.433	87.72
257.65	-8.53
257.866	159.4
258.082	-143.7
258.299	-96.6
258.515	50.86
258.732	-65.88
258.948	-12.63
259.165	28.33
259.381	-41.3
259.597	32.43
259.814	-55.64
260.03	7.85
260.246	18.09
260.463	134.82
260.679	77.48
260.895	44.71
261.112	-4.44
261.328	-74.07
261.544	-29.01
261.761	130.73
261.977	34.47
262.193	-45.4
262.409	71.34
262.626	22.19
262.842	32.43
263.058	-18.77
263.274	114.34
263.49	85.67
263.707	50.86
263.923	69.29
264.139	-53.59
264.355	110.25
264.571	50.86
264.787	11.95
265.004	32.43
265.22	1.71
265.436	-10.58
265.652	57
265.868	13.99
266.084	-41.3
266.3	-22.87
266.516	-35.16
266.732	32.43
266.948	91.82
267.164	24.23
267.38	114.34
267.596	153.26
267.812	202.41
268.028	42.67
268.244	-24.92
268.46	16.04
268.676	-61.78
268.892	108.2
269.108	-65.88
269.324	-51.54
269.54	-4.44
269.756	52.91
269.972	-131.41
270.188	34.47
270.403	-43.35
270.619	-18.77
270.835	26.28
271.051	32.43
271.267	-26.96
271.483	16.04
271.698	91.82
271.914	40.62
272.13	89.77
272.346	-67.92
272.562	34.47
272.777	181.93
272.993	-47.44
273.209	32.43
273.425	89.77
273.64	-94.55
273.856	169.64
274.072	-55.64
274.287	-94.55
274.503	48.81
274.719	102.06
274.934	-49.49
275.15	-51.54
275.366	-43.35
275.581	-49.49
275.797	3.75
276.012	-0.34
276.228	-8.53
276.444	32.43
276.659	161.45
276.875	-92.5
277.09	-33.11
277.306	-2.39
277.521	73.39
277.737	54.95
277.952	46.76
278.168	5.8
278.383	71.34
278.599	134.82
278.814	75.43
279.03	22.19
279.245	85.67
279.461	30.38
279.676	106.15
279.892	-112.98
280.107	-106.84
280.322	-4.44
280.538	52.91
280.753	-90.45
280.969	95.91
281.184	30.38
281.399	192.17
281.615	32.43
281.83	30.38
282.045	-26.96
282.26	-45.4
282.476	38.57
282.691	143.02
282.906	89.77
283.122	57
283.337	-31.06
283.552	28.33
283.767	20.14
283.983	50.86
284.198	-43.35
284.413	61.1
284.628	-133.46
284.843	50.86
285.058	63.15
285.274	11.95
285.489	-67.92
285.704	46.76
285.919	-33.11
286.134	57
286.349	-12.63
286.564	3.75
286.779	89.77
286.995	42.67
287.21	-94.55
287.425	20.14
287.64	-80.21
287.855	1.71
288.07	-74.07
288.285	93.87
288.5	91.82
288.715	69.29
288.93	1.71
289.145	-74.07
289.36	106.15
289.575	1.71
289.79	179.88
290.004	24.23
290.219	132.78
290.434	13.99
290.649	-35.16
290.864	3.75
291.079	-29.01
291.294	54.95
291.509	24.23
291.724	54.95
291.938	7.85
292.153	65.19
292.368	36.52
292.583	38.57
292.798	11.95
293.012	122.54
293.227	61.1
293.442	61.1
293.657	140.97
293.871	138.92
294.086	-31.06
294.301	194.22
294.516	59.05
294.73	3.75
294.945	-10.58
295.16	24.23
295.374	89.77
295.589	69.29
295.804	16.04
296.018	9.9
296.233	110.25
296.447	97.96
296.662	-12.63
296.877	65.19
297.091	71.34
297.306	-43.35
297.52	3.75
297.735	57
297.949	-31.06
298.164	-0.34
298.378	-4.44
298.593	-57.68
298.807	20.14
299.022	-33.11
299.236	63.15
299.451	-29.01
299.665	-24.92
299.88	-14.68
300.094	42.67
300.309	-53.59
300.523	81.58
300.737	1.71
300.952	40.62
301.166	-12.63
301.381	-59.73
301.595	61.1
301.809	-16.73
302.024	9.9
302.238	13.99
302.452	120.49
302.667	69.29
302.881	83.63
303.095	59.05
303.309	112.3
303.524	-65.88
303.738	-18.77
303.952	-20.82
304.166	26.28
304.381	-102.74
304.595	163.5
304.809	-43.35
305.023	38.57
305.237	26.28
305.452	9.9
305.666	134.82
305.88	106.15
306.094	153.26
306.308	7.85
306.522	65.19
306.736	18.09
306.95	97.96
307.164	-6.49
307.379	-20.82
307.593	124.58
307.807	149.16
308.021	91.82
308.235	85.67
308.449	-47.44
308.663	-45.4
308.877	208.55
309.091	63.15
309.305	34.47
309.519	-80.21
309.733	126.63
309.947	-65.88
310.161	13.99
310.374	42.67
310.588	75.43
310.802	-47.44
311.016	-10.58
311.23	7.85
311.444	-37.2
311.658	40.62
311.872	30.38
312.085	122.54
312.299	75.43
312.513	112.3
312.727	-12.63
312.941	16.04
313.154	13.99
313.368	-22.87
313.582	-18.77
313.796	73.39
314.009	-29.01
314.223	128.68
314.437	81.58
314.651	-8.53
314.864	-22.87
315.078	-20.82
315.292	-24.92
315.505	38.57
315.719	89.77
315.933	22.19
316.146	-39.25
316.36	-33.11
316.573	102.06
316.787	13.99
317.001	20.14
317.214	46.76
317.428	-14.68
317.641	-47.44
317.855	11.95
318.068	65.19
318.282	83.63
318.495	132.78
318.709	-8.53
318.922	24.23
319.136	132.78
319.349	93.87
319.563	7.85
319.776	93.87
319.99	-86.36
320.203	1.71
320.417	-31.06
320.63	40.62
320.843	157.35
321.057	67.24
321.27	36.52
321.483	102.06
321.697	134.82
321.91	40.62
322.124	110.25
322.337	-12.63
322.55	-35.16
322.763	93.87
322.977	28.33
323.19	-78.16
323.403	44.71
323.617	42.67
323.83	108.2
324.043	38.57
324.256	52.91
324.469	-43.35
324.683	75.43
324.896	18.09
325.109	9.9
325.322	-26.96
325.535	26.28
325.748	18.09
325.962	50.86
326.175	1.71
326.388	20.14
326.601	106.15
326.814	1.71
327.027	40.62
327.24	13.99
327.453	-82.26
327.666	132.78
327.879	122.54
328.092	83.63
328.305	122.54
328.518	-4.44
328.731	34.47
328.944	34.47
329.157	130.73
329.37	-24.92
329.583	59.05
329.796	77.48
330.009	-35.16
330.222	69.29
330.435	87.72
330.648	3.75
330.861	-16.73
331.073	57
331.286	118.44
331.499	13.99
331.712	-84.31
331.925	36.52
332.138	-6.49
332.35	81.58
332.563	-14.68
332.776	157.35
332.989	3.75
333.202	54.95
333.414	18.09
333.627	61.1
333.84	11.95
334.053	-8.53
334.265	-8.53
334.478	-57.68
334.691	81.58
334.903	50.86
335.116	-43.35
335.329	-45.4
335.541	-6.49
335.754	40.62
335.966	20.14
336.179	-14.68
336.392	-8.53
336.604	-10.58
336.817	143.02
337.029	77.48
337.242	16.04
337.454	11.95
337.667	-12.63
337.88	106.15
338.092	91.82
338.305	48.81
338.517	-37.2
338.729	167.59
338.942	79.53
339.154	-69.97
339.367	-22.87
339.579	71.34
339.792	-14.68
340.004	67.24
340.217	-22.87
340.429	44.71
340.641	-51.54
340.854	-4.44
341.066	24.23
341.278	59.05
341.491	153.26
341.703	-8.53
341.915	-14.68
342.128	34.47
342.34	-35.16
342.552	-37.2
342.764	-59.73
342.977	-29.01
343.189	-4.44
343.401	65.19
343.613	13.99
343.826	34.47
344.038	-39.25
344.25	30.38
344.462	13.99
344.674	106.15
344.886	-39.25
345.099	81.58
345.311	124.58
345.523	24.23
345.735	-127.32
345.947	28.33
346.159	44.71
346.371	83.63
346.583	36.52
346.795	153.26
347.007	-78.16
347.219	59.05
347.431	40.62
347.643	132.78
347.855	-45.4
348.067	157.35
348.279	-53.59
348.491	-8.53
348.703	63.15
348.915	11.95
349.127	-33.11
349.339	57
349.551	-20.82
349.763	89.77
349.975	-6.49
350.187	97.96
350.399	134.82
350.61	30.38
350.822	22.19
351.034	-26.96
351.246	34.47
351.458	79.53
351.669	69.29
351.881	67.24
352.093	95.91
352.305	46.76
352.517	93.87
352.728	110.25
352.94	46.76
353.152	126.63
353.363	-51.54
353.575	-2.39
353.787	165.54
353.999	22.19
354.21	157.35
354.422	-33.11
354.633	9.9
354.845	75.43
355.057	-35.16
355.268	13.99
355.48	57
355.692	-117.08
355.903	5.8
356.115	-82.26
356.326	-94.55
356.538	44.71
356.749	16.04
356.961	85.67
357.172	-8.53
357.384	-104.79
357.595	208.55
357.807	-41.3
358.018	13.99
358.23	28.33
358.441	140.97
358.653	116.39
358.864	36.52
359.075	-24.92
359.287	-24.92
359.498	75.43
359.709	106.15
359.921	20.14
360.132	16.04
360.344	3.75
360.555	93.87
360.766	42.67
360.977	-41.3
361.189	77.48
361.4	-74.07
361.611	128.68
361.823	147.11
362.034	-6.49
362.245	-63.83
362.456	9.9
362.667	61.1
362.879	9.9
363.09	40.62
363.301	40.62
363.512	97.96
363.723	-67.92
363.935	48.81
364.146	42.67
364.357	26.28
364.568	24.23
364.779	-26.96
364.99	116.39
365.201	-39.25
365.412	83.63
365.623	-49.49
365.834	102.06
366.045	-35.16
366.256	54.95
366.467	48.81
366.678	145.06
366.889	-18.77
367.1	-57.68
367.311	57
367.522	-22.87
367.733	93.87
367.944	100.01
368.155	-33.11
368.366	116.39
368.577	104.11
368.788	28.33
368.999	-39.25
369.209	63.15
369.42	206.5
369.631	274.09
369.842	40.62
370.053	-14.68
370.264	81.58
370.474	-39.25
370.685	61.1
370.896	83.63
371.107	71.34
371.317	36.52
371.528	40.62
371.739	116.39
371.95	22.19
372.16	48.81
372.371	-24.92
372.582	-0.34
372.792	87.72
373.003	30.38
373.214	13.99
373.424	85.67
373.635	-37.2
373.846	77.48
374.056	28.33
374.267	50.86
374.477	-6.49
374.688	-45.4
374.898	30.38
375.109	93.87
375.319	-22.87
375.53	97.96
375.74	173.74
375.951	-4.44
376.161	28.33
376.372	40.62
376.582	7.85
376.793	71.34
377.003	-10.58
377.214	5.8
377.424	16.04
377.635	95.91
377.845	-12.63
378.055	89.77
378.266	-82.26
378.476	100.01
378.686	34.47
378.897	44.71
379.107	71.34
379.317	52.91
379.528	-45.4
379.738	79.53
379.948	-45.4
380.158	79.53
380.369	89.77
380.579	28.33
380.789	13.99
380.999	61.1
381.21	54.95
381.42	210.6
381.63	-2.39
381.84	63.15
382.05	46.76
382.261	87.72
382.471	147.11
382.681	32.43
382.891	122.54
383.101	63.15
383.311	-14.68
383.521	-102.74
383.731	85.67
383.941	95.91
384.151	69.29
384.361	-43.35
384.571	52.91
384.781	-4.44
384.991	190.12
385.201	118.44
385.411	44.71
385.621	26.28
385.831	34.47
386.041	-0.34
386.251	-22.87
386.461	83.63
386.671	-61.78
386.881	69.29
387.091	20.14
387.301	67.24
387.511	63.15
387.72	-14.68
387.93	147.11
388.14	-92.5
388.35	20.14
388.56	18.09
388.769	87.72
388.979	20.14
389.189	-12.63
389.399	89.77
389.609	85.67
389.818	83.63
390.028	24.23
390.238	108.2
390.447	28.33
390.657	128.68
390.867	-29.01
391.076	-117.08
391.286	5.8
391.496	57
391.705	89.77
391.915	132.78
392.125	171.69
392.334	54.95
392.544	122.54
392.753	114.34
392.963	-61.78
393.172	-14.68
393.382	40.62
393.591	65.19
393.801	-6.49
394.01	151.21
394.22	69.29
394.429	28.33
394.639	34.47
394.848	106.15
395.058	50.86
395.267	26.28
395.477	61.1
395.686	69.29
395.895	229.03
396.105	171.69
396.314	7.85
396.524	24.23
396.733	20.14
396.942	57
397.152	95.91
397.361	40.62
397.57	34.47
397.78	-45.4
397.989	65.19
398.198	151.21
398.407	20.14
398.617	-26.96
398.826	13.99
399.035	5.8
399.244	57
399.453	-14.68
399.663	57
399.872	87.72
400.081	-49.49
400.29	130.73
400.499	40.62
400.708	149.16
400.917	89.77
401.127	50.86
401.336	-49.49
401.545	153.26
401.754	52.91
401.963	54.95
402.172	48.81
402.381	-43.35
402.59	-2.39
402.799	26.28
403.008	93.87
403.217	102.06
403.426	52.91
403.635	-74.07
403.844	1.71
404.053	-31.06
404.262	-57.68
404.471	93.87
404.68	38.57
404.888	24.23
405.097	-33.11
405.306	32.43
405.515	44.71
405.724	-90.45
405.933	100.01
406.142	124.58
406.35	112.3
406.559	-6.49
406.768	42.67
406.977	177.83
407.185	32.43
407.394	126.63
407.603	1.71
407.812	11.95
408.02	136.87
408.229	67.24
408.438	95.91
408.646	-18.77
408.855	-86.36
409.064	67.24
409.272	63.15
409.481	30.38
409.69	-49.49
409.898	11.95
410.107	9.9
410.315	145.06
410.524	-35.16
410.733	9.9
410.941	1.71
411.15	95.91
411.358	52.91
411.567	114.34
411.775	30.38
411.984	18.09
412.192	130.73
412.401	1.71
412.609	50.86
412.818	71.34
413.026	69.29
413.234	-26.96
413.443	32.43
413.651	1.71
413.86	-18.77
414.068	44.71
414.276	149.16
414.485	-22.87
414.693	167.59
414.901	237.22
415.11	32.43
415.318	-8.53
415.526	7.85
415.734	143.02
415.943	57
416.151	106.15
416.359	97.96
416.567	46.76
416.776	130.73
416.984	118.44
417.192	159.4
417.4	-8.53
417.608	30.38
417.817	-33.11
418.025	59.05
418.233	134.82
418.441	20.14
418.649	-65.88
418.857	79.53
419.065	145.06
419.273	-51.54
419.481	-0.34
419.689	-6.49
419.897	-8.53
420.105	-51.54
420.313	91.82
420.521	61.1
420.729	134.82
420.937	9.9
421.145	-63.83
421.353	110.25
421.561	102.06
421.769	48.81
421.977	-31.06
422.185	48.81
422.393	20.14
422.601	28.33
422.809	95.91
423.017	32.43
423.224	57
423.432	97.96
423.64	-12.63
423.848	118.44
424.056	18.09
424.263	63.15
424.471	-26.96
424.679	153.26
424.887	-33.11
425.094	134.82
425.302	34.47
425.51	3.75
425.718	69.29
425.925	54.95
426.133	-2.39
426.341	186.02
426.548	-8.53
426.756	-2.39
426.964	34.47
427.171	-80.21
427.379	79.53
427.586	-10.58
427.794	89.77
428.001	151.21
428.209	52.91
428.417	110.25
428.624	118.44
428.832	40.62
429.039	52.91
429.247	40.62
429.454	126.63
429.662	112.3
429.869	95.91
430.076	110.25
430.284	61.1
430.491	200.36
430.699	116.39
430.906	188.07
431.114	63.15
431.321	110.25
431.528	89.77
431.736	112.3
431.943	75.43
432.15	161.45
432.358	194.22
432.565	218.79
432.772	1.71
432.979	181.93
433.187	163.5
433.394	200.36
433.601	97.96
433.808	177.83
434.016	159.4
434.223	173.74
434.43	54.95
434.637	143.02
434.844	128.68
435.052	188.07
435.259	210.6
435.466	247.46
435.673	233.13
435.88	237.22
436.087	245.41
436.294	235.18
436.501	259.75
436.708	237.22
436.915	251.56
437.122	278.18
437.329	186.02
437.537	231.08
437.743	249.51
437.95	366.25
438.157	286.37
438.364	294.57
438.571	282.28
438.778	372.39
438.985	261.8
439.192	362.15
439.399	278.18
439.606	337.57
439.813	403.11
440.02	564.9
440.227	503.46
440.433	448.16
440.64	460.45
440.847	347.81
441.054	429.73
441.261	525.99
441.467	528.03
441.674	429.73
441.881	587.43
442.088	448.16
442.294	566.95
442.501	546.47
442.708	546.47
442.914	546.47
443.121	630.43
443.328	773.79
443.534	677.54
443.741	751.26
443.948	554.66
444.154	829.09
444.361	888.48
444.568	767.65
444.774	824.99
444.981	753.31
445.187	831.13
445.394	851.61
445.6	857.76
445.807	966.3
446.013	951.96
446.22	878.24
446.426	1017.5
446.633	1035.93
446.839	1265.3
447.046	994.97
447.252	1236.63
447.459	1156.76
447.665	1191.58
447.871	1326.74
448.078	1414.81
448.284	1412.76
448.491	1562.26
448.697	1517.2
448.903	1578.64
449.11	1646.23
449.316	1523.35
449.522	1769.1
449.728	1877.65
449.935	1955.47
450.141	1939.09
450.347	2004.62
450.553	1992.33
450.76	1961.61
450.966	2313.86
451.172	2141.83
451.378	2389.64
451.584	2336.39
451.791	2651.78
451.997	2510.47
452.203	2592.39
452.409	2612.87
452.615	2860.67
452.821	2774.66
453.027	2819.71
453.233	3286.65
453.44	3063.42
453.646	3257.98
453.852	3477.11
454.058	3524.21
454.264	3491.45
454.47	3944.05
454.676	3837.55
454.882	4349.54
455.088	4083.31
455.294	4314.73
455.5	4523.62
455.705	4810.34
455.911	4812.39
456.117	5039.71
456.323	5076.57
456.529	5172.83
456.735	5652.05
456.941	5768.79
457.147	5805.65
457.352	6094.41
457.558	6381.13
457.764	6702.66
457.97	6889.03
458.176	7011.9
458.381	7384.63
458.587	7511.61
458.793	8060.46
458.999	7949.87
459.204	8920.61
459.41	9160.22
459.616	9098.78
459.821	9899.54
460.027	10012.18
460.233	10337.8
460.438	10581.51
460.644	11132.42
460.85	11128.32
461.055	11693.56
461.261	12348.91
461.466	12082.67
461.672	12242.42
461.878	13782.49
462.083	13598.17
462.289	13753.82
462.494	14308.82
462.7	14691.79
462.905	14822.86
463.111	16205.24
463.316	16729.52
463.522	17132.97
463.727	17659.29
463.932	18357.65
464.138	18974.09
464.343	19731.84
464.549	19926.39
464.754	21204.33
464.959	22037.85
465.165	22324.57
465.37	21972.32
465.575	22021.47
465.781	23131.47
465.986	23954.75
466.191	23770.43
466.397	24112.44
466.602	23434.57
466.807	24646.96
467.012	25224.49
467.218	25429.29
467.423	25728.29
467.628	26656.02
467.833	27641.09
468.038	27057.42
468.244	26754.32
468.449	27890.95
468.654	27757.83
468.859	27557.13
469.064	27655.43
