Data from USB4F104151__98__10-35-30-528.txt Node

Date: Wed Feb 26 10:35:30 EST 2025
User: louis
Spectrometer: USB4F10415
Trigger mode: 4
Integration Time (sec): 1.000000E-1
Scans to average: 1
Electric dark correction enabled: true
Nonlinearity correction enabled: false
Boxcar width: 0
XAxis mode: Wavelengths
Number of Pixels in Spectrum: 3648
>>>>>Begin Spectral Data<<<<<
178.204	-399.87
178.424	-399.87
178.644	-399.87
178.864	-365.05
179.084	-383.48
179.304	-51.71
179.524	60.93
179.744	3.58
179.964	58.88
180.184	79.36
180.404	50.69
180.624	-37.38
180.844	15.87
181.064	-100.86
181.283	44.54
181.503	-107.01
181.723	-16.9
181.943	-80.38
182.163	198.14
182.383	-8.7
182.602	110.08
182.822	177.66
183.042	85.5
183.262	-0.51
183.482	26.11
183.701	52.74
183.921	67.07
184.141	-10.75
184.361	65.02
184.58	134.65
184.8	15.87
185.02	-27.14
185.239	50.69
185.459	9.73
185.679	124.41
185.898	-104.96
186.118	54.78
186.338	89.6
186.557	146.94
186.777	17.92
186.997	17.92
187.216	75.26
187.436	138.75
187.655	112.13
187.875	89.6
188.095	44.54
188.314	218.62
188.534	93.69
188.753	-35.33
188.973	89.6
189.192	187.9
189.412	30.21
189.631	58.88
189.851	73.21
190.07	212.48
190.29	-43.52
190.509	32.26
190.729	-12.8
190.948	183.81
191.168	298.49
191.387	60.93
191.607	-45.57
191.826	91.65
192.045	24.06
192.265	1.54
192.484	81.41
192.704	157.18
192.923	54.78
193.142	167.42
193.362	97.79
193.581	140.8
193.8	56.83
194.02	138.75
194.239	97.79
194.458	71.17
194.678	-8.7
194.897	36.35
195.116	132.61
195.335	-2.56
195.555	105.98
195.774	-68.09
195.993	138.75
196.212	9.73
196.432	-20.99
196.651	-35.33
196.87	69.12
197.089	318.97
197.308	81.41
197.528	65.02
197.747	-55.81
197.966	130.56
198.185	122.37
198.404	-45.57
198.623	97.79
198.842	212.48
199.062	134.65
199.281	118.27
199.5	62.98
199.719	71.17
199.938	56.83
200.157	81.41
200.376	54.78
200.595	97.79
200.814	46.59
201.033	-41.47
201.252	187.9
201.471	151.04
201.69	122.37
201.909	56.83
202.128	124.41
202.347	38.4
202.566	48.64
202.785	-33.28
203.004	-8.7
203.223	249.34
203.442	54.78
203.661	-37.38
203.879	144.89
204.098	110.08
204.317	38.4
204.536	110.08
204.755	26.11
204.974	91.65
205.193	7.68
205.411	167.42
205.63	155.13
205.849	108.03
206.068	38.4
206.287	-23.04
206.505	200.19
206.724	65.02
206.943	-0.51
207.162	-23.04
207.381	114.17
207.599	85.5
207.818	9.73
208.037	28.16
208.255	110.08
208.474	93.69
208.693	118.27
208.911	26.11
209.13	30.21
209.349	126.46
209.567	42.5
209.786	130.56
210.005	112.13
210.223	28.16
210.442	-104.96
210.661	32.26
210.879	99.84
211.098	9.73
211.316	24.06
211.535	120.32
211.753	118.27
211.972	142.85
212.191	-43.52
212.409	30.21
212.628	153.09
212.846	13.82
213.065	65.02
213.283	87.55
213.502	-16.9
213.72	19.97
213.938	110.08
214.157	15.87
214.375	142.85
214.594	56.83
214.812	91.65
215.031	44.54
215.249	136.7
215.467	-27.14
215.686	11.78
215.904	85.5
216.122	48.64
216.341	204.28
216.559	28.16
216.778	130.56
216.996	110.08
217.214	11.78
217.432	-78.33
217.651	-6.66
217.869	75.26
218.087	24.06
218.306	50.69
218.524	48.64
218.742	52.74
218.96	105.98
219.179	-10.75
219.397	48.64
219.615	175.61
219.833	91.65
220.051	-72.19
220.27	161.28
220.488	99.84
220.706	132.61
220.924	22.02
221.142	-33.28
221.36	50.69
221.578	40.45
221.796	71.17
222.015	28.16
222.233	34.3
222.451	155.13
222.669	-33.28
222.887	97.79
223.105	30.21
223.323	34.3
223.541	-29.18
223.759	87.55
223.977	65.02
224.195	237.05
224.413	126.46
224.631	19.97
224.849	93.69
225.067	200.19
225.285	-27.14
225.503	-8.7
225.721	-37.38
225.939	-8.7
226.157	93.69
226.375	210.43
226.592	-70.14
226.81	26.11
227.028	151.04
227.246	134.65
227.464	99.84
227.682	110.08
227.9	52.74
228.117	87.55
228.335	79.36
228.553	99.84
228.771	69.12
228.989	73.21
229.206	99.84
229.424	-31.23
229.642	-35.33
229.86	1.54
230.077	65.02
230.295	11.78
230.513	24.06
230.731	146.94
230.948	187.9
231.166	99.84
231.384	28.16
231.601	83.45
231.819	179.71
232.037	81.41
232.254	-14.85
232.472	-18.94
232.689	3.58
232.907	153.09
233.125	28.16
233.342	-76.29
233.56	15.87
233.777	60.93
233.995	69.12
234.213	36.35
234.43	-12.8
234.648	112.13
234.865	-0.51
235.083	97.79
235.3	95.74
235.518	65.02
235.735	116.22
235.953	40.45
236.17	112.13
236.388	38.4
236.605	-12.8
236.822	89.6
237.04	132.61
237.257	-0.51
237.475	-31.23
237.692	116.22
237.909	91.65
238.127	46.59
238.344	65.02
238.562	56.83
238.779	7.68
238.996	-35.33
239.214	75.26
239.431	105.98
239.648	-16.9
239.865	81.41
240.083	26.11
240.3	19.97
240.517	-35.33
240.735	40.45
240.952	167.42
241.169	79.36
241.386	110.08
241.603	-6.66
241.821	30.21
242.038	85.5
242.255	151.04
242.472	-80.38
242.689	40.45
242.907	110.08
243.124	122.37
243.341	13.82
243.558	58.88
243.775	-14.85
243.992	-82.43
244.209	114.17
244.426	181.76
244.643	56.83
244.86	5.63
245.078	167.42
245.295	22.02
245.512	-14.85
245.729	-10.75
245.946	91.65
246.163	71.17
246.38	99.84
246.597	83.45
246.814	15.87
247.031	-12.8
247.248	40.45
247.464	108.03
247.681	103.93
247.898	44.54
248.115	112.13
248.332	15.87
248.549	167.42
248.766	177.66
248.983	167.42
249.2	-4.61
249.417	118.27
249.633	26.11
249.85	62.98
250.067	108.03
250.284	103.93
250.501	128.51
250.717	140.8
250.934	-66.05
251.151	48.64
251.368	-53.76
251.585	112.13
251.801	73.21
252.018	-51.71
252.235	151.04
252.451	-53.76
252.668	-8.7
252.885	120.32
253.102	42.5
253.318	69.12
253.535	26.11
253.752	-78.33
253.968	52.74
254.185	-10.75
254.401	142.85
254.618	77.31
254.835	9.73
255.051	173.57
255.268	118.27
255.484	101.89
255.701	34.3
255.917	71.17
256.134	-33.28
256.351	36.35
256.567	15.87
256.784	38.4
257	9.73
257.217	196.09
257.433	116.22
257.65	112.13
257.866	108.03
258.082	-16.9
258.299	-8.7
258.515	99.84
258.732	15.87
258.948	-4.61
259.165	-10.75
259.381	-51.71
259.597	62.98
259.814	22.02
260.03	-18.94
260.246	75.26
260.463	155.13
260.679	155.13
260.895	11.78
261.112	83.45
261.328	77.31
261.544	34.3
261.761	177.66
261.977	75.26
262.193	-23.04
262.409	153.09
262.626	89.6
262.842	71.17
263.058	30.21
263.274	65.02
263.49	50.69
263.707	54.78
263.923	126.46
264.139	-18.94
264.355	38.4
264.571	52.74
264.787	99.84
265.004	101.89
265.22	7.68
265.436	-6.66
265.652	7.68
265.868	44.54
266.084	-20.99
266.3	38.4
266.516	-49.66
266.732	142.85
266.948	56.83
267.164	-43.52
267.38	138.75
267.596	73.21
267.812	144.89
268.028	5.63
268.244	19.97
268.46	5.63
268.676	81.41
268.892	124.41
269.108	-4.61
269.324	-68.09
269.54	-23.04
269.756	165.37
269.972	-64
270.188	54.78
270.403	-37.38
270.619	71.17
270.835	93.69
271.051	3.58
271.267	-12.8
271.483	19.97
271.698	75.26
271.914	108.03
272.13	44.54
272.346	-29.18
272.562	108.03
272.777	69.12
272.993	13.82
273.209	-0.51
273.425	128.51
273.64	26.11
273.856	159.23
274.072	-27.14
274.287	13.82
274.503	83.45
274.719	83.45
274.934	52.74
275.15	-4.61
275.366	-51.71
275.581	-0.51
275.797	91.65
276.012	105.98
276.228	19.97
276.444	79.36
276.659	108.03
276.875	44.54
277.09	32.26
277.306	17.92
277.521	46.59
277.737	44.54
277.952	36.35
278.168	52.74
278.383	9.73
278.599	34.3
278.814	62.98
279.03	116.22
279.245	169.47
279.461	58.88
279.676	89.6
279.892	-43.52
280.107	-29.18
280.322	-14.85
280.538	114.17
280.753	-23.04
280.969	79.36
281.184	34.3
281.399	185.85
281.615	40.45
281.83	73.21
282.045	-8.7
282.26	52.74
282.476	3.58
282.691	202.24
282.906	50.69
283.122	9.73
283.337	60.93
283.552	56.83
283.767	-23.04
283.983	179.71
284.198	9.73
284.413	65.02
284.628	-57.86
284.843	19.97
285.058	77.31
285.274	-45.57
285.489	13.82
285.704	206.33
285.919	-16.9
286.134	15.87
286.349	-4.61
286.564	-16.9
286.779	171.52
286.995	26.11
287.21	-76.29
287.425	32.26
287.64	13.82
287.855	81.41
288.07	-29.18
288.285	222.72
288.5	105.98
288.715	77.31
288.93	69.12
289.145	15.87
289.36	19.97
289.575	36.35
289.79	148.99
290.004	-37.38
290.219	108.03
290.434	5.63
290.649	-23.04
290.864	9.73
291.079	58.88
291.294	62.98
291.509	46.59
291.724	46.59
291.938	11.78
292.153	42.5
292.368	17.92
292.583	99.84
292.798	118.27
293.012	120.32
293.227	95.74
293.442	13.82
293.657	130.56
293.871	169.47
294.086	112.13
294.301	128.51
294.516	85.5
294.73	13.82
294.945	15.87
295.16	58.88
295.374	177.66
295.589	171.52
295.804	-0.51
296.018	-16.9
296.233	181.76
296.447	28.16
296.662	-12.8
296.877	183.81
297.091	87.55
297.306	103.93
297.52	73.21
297.735	44.54
297.949	-4.61
298.164	24.06
298.378	44.54
298.593	-45.57
298.807	40.45
299.022	38.4
299.236	218.62
299.451	13.82
299.665	36.35
299.88	24.06
300.094	73.21
300.309	44.54
300.523	118.27
300.737	-37.38
300.952	42.5
301.166	79.36
301.381	77.31
301.595	85.5
301.809	91.65
302.024	93.69
302.238	11.78
302.452	54.78
302.667	42.5
302.881	99.84
303.095	108.03
303.309	32.26
303.524	-12.8
303.738	9.73
303.952	52.74
304.166	136.7
304.381	-27.14
304.595	97.79
304.809	13.82
305.023	-49.66
305.237	36.35
305.452	7.68
305.666	65.02
305.88	69.12
306.094	67.07
306.308	73.21
306.522	105.98
306.736	71.17
306.95	5.63
307.164	-10.75
307.379	99.84
307.593	177.66
307.807	97.79
308.021	77.31
308.235	171.52
308.449	-104.96
308.663	65.02
308.877	120.32
309.091	91.65
309.305	32.26
309.519	-10.75
309.733	75.26
309.947	-66.05
310.161	38.4
310.374	99.84
310.588	87.55
310.802	34.3
311.016	-39.42
311.23	44.54
311.444	-6.66
311.658	1.54
311.872	101.89
312.085	108.03
312.299	103.93
312.513	151.04
312.727	69.12
312.941	17.92
313.154	26.11
313.368	60.93
313.582	-10.75
313.796	28.16
314.009	67.07
314.223	169.47
314.437	52.74
314.651	118.27
314.864	-0.51
315.078	-23.04
315.292	-39.42
315.505	-37.38
315.719	67.07
315.933	81.41
316.146	26.11
316.36	44.54
316.573	126.46
316.787	140.8
317.001	44.54
317.214	-0.51
317.428	99.84
317.641	-0.51
317.855	26.11
318.068	75.26
318.282	101.89
318.495	198.14
318.709	58.88
318.922	36.35
319.136	194.05
319.349	114.17
319.563	-76.29
319.776	173.57
319.99	-70.14
320.203	155.13
320.417	54.78
320.63	136.7
320.843	179.71
321.057	34.3
321.27	-14.85
321.483	142.85
321.697	144.89
321.91	116.22
322.124	52.74
322.337	93.69
322.55	-4.61
322.763	30.21
322.977	130.56
323.19	44.54
323.403	50.69
323.617	103.93
323.83	148.99
324.043	116.22
324.256	30.21
324.469	-66.05
324.683	110.08
324.896	36.35
325.109	1.54
325.322	-25.09
325.535	146.94
325.748	116.22
325.962	24.06
326.175	42.5
326.388	44.54
326.601	110.08
326.814	-0.51
327.027	120.32
327.24	177.66
327.453	-27.14
327.666	-8.7
327.879	97.79
328.092	112.13
328.305	108.03
328.518	-27.14
328.731	-31.23
328.944	3.58
329.157	50.69
329.37	101.89
329.583	235
329.796	171.52
330.009	-49.66
330.222	99.84
330.435	144.89
330.648	26.11
330.861	34.3
331.073	114.17
331.286	93.69
331.499	46.59
331.712	24.06
331.925	32.26
332.138	13.82
332.35	56.83
332.563	13.82
332.776	105.98
332.989	26.11
333.202	19.97
333.414	22.02
333.627	73.21
333.84	5.63
334.053	9.73
334.265	-10.75
334.478	-18.94
334.691	56.83
334.903	95.74
335.116	-35.33
335.329	-0.51
335.541	116.22
335.754	249.34
335.966	65.02
336.179	30.21
336.392	42.5
336.604	-0.51
336.817	52.74
337.029	62.98
337.242	13.82
337.454	81.41
337.667	5.63
337.88	130.56
338.092	81.41
338.305	54.78
338.517	-18.94
338.729	124.41
338.942	171.52
339.154	22.02
339.367	-55.81
339.579	116.22
339.792	-78.33
340.004	130.56
340.217	69.12
340.429	71.17
340.641	-53.76
340.854	-6.66
341.066	32.26
341.278	146.94
341.491	200.19
341.703	75.26
341.915	-66.05
342.128	179.71
342.34	118.27
342.552	48.64
342.764	-23.04
342.977	-0.51
343.189	79.36
343.401	17.92
343.613	-27.14
343.826	105.98
344.038	-0.51
344.25	48.64
344.462	9.73
344.674	103.93
344.886	130.56
345.099	140.8
345.311	146.94
345.523	-23.04
345.735	-102.91
345.947	40.45
346.159	97.79
346.371	36.35
346.583	42.5
346.795	144.89
347.007	-64
347.219	95.74
347.431	24.06
347.643	192
347.855	34.3
348.067	183.81
348.279	3.58
348.491	22.02
348.703	62.98
348.915	24.06
349.127	-61.95
349.339	95.74
349.551	-80.38
349.763	122.37
349.975	11.78
350.187	87.55
350.399	124.41
350.61	40.45
350.822	-6.66
351.034	73.21
351.246	75.26
351.458	30.21
351.669	118.27
351.881	79.36
352.093	71.17
352.305	24.06
352.517	103.93
352.728	103.93
352.94	22.02
353.152	34.3
353.363	-18.94
353.575	60.93
353.787	142.85
353.999	81.41
354.21	153.09
354.422	-20.99
354.633	40.45
354.845	7.68
355.057	46.59
355.268	79.36
355.48	46.59
355.692	-31.23
355.903	71.17
356.115	-27.14
356.326	-147.97
356.538	128.51
356.749	52.74
356.961	171.52
357.172	-6.66
357.384	-45.57
357.595	220.67
357.807	-20.99
358.018	58.88
358.23	77.31
358.441	153.09
358.653	46.59
358.864	13.82
359.075	71.17
359.287	71.17
359.498	167.42
359.709	28.16
359.921	30.21
360.132	132.61
360.344	11.78
360.555	71.17
360.766	179.71
360.977	-20.99
361.189	146.94
361.4	36.35
361.611	132.61
361.823	77.31
362.034	24.06
362.245	-29.18
362.456	7.68
362.667	91.65
362.879	-8.7
363.09	128.51
363.301	91.65
363.512	38.4
363.723	69.12
363.935	75.26
364.146	128.51
364.357	-25.09
364.568	62.98
364.779	-25.09
364.99	216.57
365.201	30.21
365.412	118.27
365.623	-45.57
365.834	42.5
366.045	108.03
366.256	146.94
366.467	81.41
366.678	48.64
366.889	9.73
367.1	30.21
367.311	77.31
367.522	-18.94
367.733	89.6
367.944	181.76
368.155	79.36
368.366	148.99
368.577	65.02
368.788	38.4
368.999	-45.57
369.209	87.55
369.42	175.61
369.631	192
369.842	101.89
370.053	38.4
370.264	126.46
370.474	46.59
370.685	77.31
370.896	167.42
371.107	120.32
371.317	48.64
371.528	44.54
371.739	183.81
371.95	101.89
372.16	124.41
372.371	-20.99
372.582	9.73
372.792	95.74
373.003	83.45
373.214	144.89
373.424	132.61
373.635	-10.75
373.846	163.33
374.056	65.02
374.267	105.98
374.477	65.02
374.688	3.58
374.898	93.69
375.109	67.07
375.319	62.98
375.53	179.71
375.74	89.6
375.951	24.06
376.161	52.74
376.372	114.17
376.582	-31.23
376.793	81.41
377.003	3.58
377.214	22.02
377.424	40.45
377.635	54.78
377.845	11.78
378.055	155.13
378.266	-27.14
378.476	7.68
378.686	28.16
378.897	75.26
379.107	173.57
379.317	36.35
379.528	54.78
379.738	124.41
379.948	-74.24
380.158	91.65
380.369	81.41
380.579	75.26
380.789	46.59
380.999	126.46
381.21	110.08
381.42	181.76
381.63	24.06
381.84	124.41
382.05	19.97
382.261	163.33
382.471	165.37
382.681	-4.61
382.891	148.99
383.101	42.5
383.311	32.26
383.521	116.22
383.731	128.51
383.941	97.79
384.151	60.93
384.361	-55.81
384.571	97.79
384.781	97.79
384.991	165.37
385.201	198.14
385.411	151.04
385.621	75.26
385.831	77.31
386.041	110.08
386.251	-27.14
386.461	163.33
386.671	40.45
386.881	-39.42
387.091	58.88
387.301	183.81
387.511	-8.7
387.72	105.98
387.93	32.26
388.14	-74.24
388.35	124.41
388.56	140.8
388.769	108.03
388.979	73.21
389.189	26.11
389.399	75.26
389.609	114.17
389.818	103.93
390.028	38.4
390.238	144.89
390.447	-23.04
390.657	65.02
390.867	58.88
391.076	3.58
391.286	56.83
391.496	79.36
391.705	40.45
391.915	157.18
392.125	99.84
392.334	36.35
392.544	161.28
392.753	112.13
392.963	7.68
393.172	79.36
393.382	15.87
393.591	183.81
393.801	34.3
394.01	179.71
394.22	71.17
394.429	-12.8
394.639	9.73
394.848	112.13
395.058	85.5
395.267	-45.57
395.477	54.78
395.686	120.32
395.895	239.1
396.105	218.62
396.314	13.82
396.524	50.69
396.733	22.02
396.942	22.02
397.152	54.78
397.361	153.09
397.57	38.4
397.78	26.11
397.989	114.17
398.198	300.54
398.407	157.18
398.617	81.41
398.826	110.08
399.035	-23.04
399.244	146.94
399.453	40.45
399.663	116.22
399.872	97.79
400.081	-39.42
400.29	124.41
400.499	-37.38
400.708	206.33
400.917	60.93
401.127	44.54
401.336	32.26
401.545	239.1
401.754	144.89
401.963	44.54
402.172	-4.61
402.381	7.68
402.59	83.45
402.799	69.12
403.008	151.04
403.217	112.13
403.426	140.8
403.635	-27.14
403.844	105.98
404.053	9.73
404.262	81.41
404.471	112.13
404.68	85.5
404.888	19.97
405.097	40.45
405.306	85.5
405.515	132.61
405.724	73.21
405.933	71.17
406.142	148.99
406.35	105.98
406.559	32.26
406.768	85.5
406.977	134.65
407.185	30.21
407.394	151.04
407.603	11.78
407.812	103.93
408.02	159.23
408.229	52.74
408.438	134.65
408.646	-66.05
408.855	85.5
409.064	56.83
409.272	105.98
409.481	85.5
409.69	24.06
409.898	-4.61
410.107	3.58
410.315	218.62
410.524	7.68
410.733	73.21
410.941	46.59
411.15	87.55
411.358	124.41
411.567	222.72
411.775	71.17
411.984	48.64
412.192	103.93
412.401	22.02
412.609	204.28
412.818	136.7
413.026	69.12
413.234	91.65
413.443	67.07
413.651	-25.09
413.86	75.26
414.068	118.27
414.276	235
414.485	-0.51
414.693	177.66
414.901	122.37
415.11	54.78
415.318	116.22
415.526	-8.7
415.734	-10.75
415.943	38.4
416.151	97.79
416.359	32.26
416.567	62.98
416.776	134.65
416.984	144.89
417.192	214.52
417.4	-39.42
417.608	42.5
417.817	-59.9
418.025	-16.9
418.233	169.47
418.441	-37.38
418.649	32.26
418.857	105.98
419.065	146.94
419.273	-29.18
419.481	58.88
419.689	67.07
419.897	58.88
420.105	-43.52
420.313	120.32
420.521	202.24
420.729	187.9
420.937	-12.8
421.145	17.92
421.353	126.46
421.561	187.9
421.769	91.65
421.977	48.64
422.185	122.37
422.393	97.79
422.601	157.18
422.809	146.94
423.017	13.82
423.224	142.85
423.432	118.27
423.64	85.5
423.848	130.56
424.056	60.93
424.263	93.69
424.471	42.5
424.679	200.19
424.887	-20.99
425.094	138.75
425.302	58.88
425.51	67.07
425.718	140.8
425.925	-0.51
426.133	-4.61
426.341	220.67
426.548	93.69
426.756	17.92
426.964	128.51
427.171	83.45
427.379	167.42
427.586	52.74
427.794	89.6
428.001	235
428.209	26.11
428.417	91.65
428.624	159.23
428.832	118.27
429.039	69.12
429.247	3.58
429.454	196.09
429.662	153.09
429.869	130.56
430.076	132.61
430.284	157.18
430.491	267.77
430.699	161.28
430.906	255.48
431.114	202.24
431.321	40.45
431.528	189.95
431.736	165.37
431.943	122.37
432.15	151.04
432.358	192
432.565	237.05
432.772	38.4
432.979	269.82
433.187	153.09
433.394	202.24
433.601	122.37
433.808	261.63
434.016	214.52
434.223	249.34
434.43	204.28
434.637	237.05
434.844	241.15
435.052	216.57
435.259	261.63
435.466	333.31
435.673	284.16
435.88	249.34
436.087	331.26
436.294	392.7
436.501	257.53
436.708	261.63
436.915	341.5
437.122	394.75
437.329	290.3
437.537	310.78
437.743	407.03
437.95	400.89
438.157	419.32
438.364	378.36
438.571	384.51
438.778	409.08
438.985	413.18
439.192	538.1
439.399	462.33
439.606	493.05
439.813	591.35
440.02	675.32
440.227	593.4
440.433	654.84
440.64	585.21
440.847	476.66
441.054	605.69
441.261	675.32
441.467	574.97
441.674	591.35
441.881	703.99
442.088	630.26
442.294	763.38
442.501	736.76
442.708	787.96
442.914	767.48
443.121	806.39
443.328	896.5
443.534	912.88
443.741	929.27
443.948	794.1
444.154	968.18
444.361	1191.41
444.568	996.85
444.774	1097.2
444.981	1068.53
445.187	1332.72
445.394	1181.17
445.6	1224.17
445.807	1342.96
446.013	1361.39
446.22	1289.71
446.426	1562.09
446.633	1480.17
446.839	1723.88
447.046	1494.51
447.252	1650.15
447.459	1625.58
447.665	1730.02
447.871	1824.23
448.078	1932.77
448.284	1889.76
448.491	1977.83
448.697	2141.66
448.903	2139.62
449.11	2135.52
449.316	2168.29
449.522	2426.33
449.728	2442.71
449.935	2637.27
450.141	2522.59
450.347	2760.15
450.553	2723.29
450.76	2901.46
450.966	2930.13
451.172	3032.53
451.378	3167.7
451.584	3245.52
451.791	3517.9
451.997	3544.52
452.203	3526.09
452.409	3812.81
452.615	4097.47
452.821	3876.29
453.027	3775.94
453.233	4388.29
453.44	4265.41
453.646	4376
453.852	4697.53
454.058	4826.55
454.264	5033.4
454.47	5348.78
454.676	5336.49
454.882	5623.21
455.088	5666.22
455.294	5797.29
455.5	6159.78
455.705	6632.86
455.911	6493.6
456.117	6798.74
456.323	7095.7
456.529	6915.48
456.735	7693.71
456.941	7638.41
457.147	8150.4
457.352	8387.97
457.558	8734.07
457.764	9223.54
457.97	9379.18
458.176	10044.77
458.381	10220.9
458.587	10341.73
458.793	10997.08
458.999	10970.46
459.204	12301.64
459.41	12664.13
459.616	12520.77
459.821	13534.51
460.027	13692.21
460.233	14423.33
460.438	14554.4
460.644	15131.93
460.85	15451.41
461.055	16233.74
461.261	16852.22
461.466	16209.16
461.672	16909.57
461.878	18848.99
462.083	18636
462.289	19047.65
462.494	19692.76
462.7	19668.18
462.905	20126.92
463.111	21783.73
463.316	22791.33
463.522	23336.09
463.727	23702.68
463.932	25074.82
464.138	25560.19
464.343	26522.73
464.549	26547.31
464.754	28646.47
464.959	29692.99
465.165	30004.28
465.37	30022.71
465.575	29858.87
465.781	32044.06
465.986	32996.36
466.191	32111.64
466.397	32441.36
466.602	31740.96
466.807	33553.41
467.012	34350.07
467.218	34636.78
467.423	35046.38
467.628	35863.52
467.833	37759.94
468.038	36903.88
468.244	36383.7
