Data from USB4F104151__3__11-24-12-808.txt Node

Date: Wed Feb 26 11:24:12 EST 2025
User: louis
Spectrometer: USB4F10415
Trigger mode: 4
Integration Time (sec): 1.000000E-1
Scans to average: 1
Electric dark correction enabled: true
Nonlinearity correction enabled: false
Boxcar width: 0
XAxis mode: Wavelengths
Number of Pixels in Spectrum: 3648
>>>>>Begin Spectral Data<<<<<
178.204	-444.07
178.424	-444.07
178.644	-444.07
178.864	-409.25
179.084	-401.06
179.304	-22.19
179.524	18.77
179.744	-48.81
179.964	78.16
180.184	59.73
180.404	-24.23
180.624	-59.05
180.844	-50.86
181.064	-59.05
181.283	49.49
181.503	2.39
181.723	55.64
181.943	-75.43
182.163	182.61
182.383	-36.52
182.602	92.5
182.822	174.42
183.042	80.21
183.262	-30.38
183.482	47.44
183.701	-46.76
183.921	49.49
184.141	-9.9
184.361	92.5
184.58	31.06
184.8	92.5
185.02	-32.43
185.239	78.16
185.459	80.21
185.679	119.12
185.898	-136.87
186.118	47.44
186.338	94.55
186.557	135.51
186.777	0.34
186.997	-63.15
187.216	14.68
187.436	172.37
187.655	82.26
187.875	137.56
188.095	29.01
188.314	108.88
188.534	76.12
188.753	4.44
188.973	147.8
189.192	186.71
189.412	4.44
189.631	57.68
189.851	88.4
190.07	178.51
190.29	-85.67
190.509	14.68
190.729	37.2
190.948	82.26
191.168	239.95
191.387	125.27
191.607	37.2
191.826	127.32
192.045	74.07
192.265	14.68
192.484	31.06
192.704	29.01
192.923	-42.67
193.142	123.22
193.362	129.36
193.581	166.23
193.8	55.64
194.02	-5.8
194.239	14.68
194.458	131.41
194.678	-3.75
194.897	-5.8
195.116	29.01
195.335	26.96
195.555	22.87
195.774	22.87
195.993	80.21
196.212	41.3
196.432	-3.75
196.651	84.31
196.87	-44.71
197.089	258.39
197.308	59.73
197.528	82.26
197.747	-63.15
197.966	-71.34
198.185	108.88
198.404	-52.91
198.623	51.54
198.842	96.6
199.062	80.21
199.281	29.01
199.5	69.97
199.719	2.39
199.938	149.84
200.157	125.27
200.376	123.22
200.595	115.03
200.814	8.53
201.033	47.44
201.252	162.13
201.471	-13.99
201.69	76.12
201.909	-32.43
202.128	160.08
202.347	94.55
202.566	-30.38
202.785	-9.9
203.004	45.4
203.223	297.3
203.442	20.82
203.661	-34.47
203.879	57.68
204.098	149.84
204.317	35.16
204.536	110.93
204.755	10.58
204.974	178.51
205.193	-13.99
205.411	112.98
205.63	119.12
205.849	55.64
206.068	-22.19
206.287	-36.52
206.505	231.76
206.724	29.01
206.943	-26.28
207.162	-18.09
207.381	63.83
207.599	65.88
207.818	12.63
208.037	-32.43
208.255	53.59
208.474	53.59
208.693	82.26
208.911	10.58
209.13	110.93
209.349	84.31
209.567	24.92
209.786	65.88
210.005	106.84
210.223	72.02
210.442	-171.69
210.661	-32.43
210.879	84.31
211.098	0.34
211.316	16.73
211.535	141.65
211.753	39.25
211.972	37.2
212.191	-63.15
212.409	88.4
212.628	108.88
212.846	-20.14
213.065	14.68
213.283	80.21
213.502	-16.04
213.72	39.25
213.938	49.49
214.157	6.49
214.375	59.73
214.594	12.63
214.812	96.6
215.031	88.4
215.249	-3.75
215.467	24.92
215.686	22.87
215.904	4.44
216.122	63.83
216.341	92.5
216.559	35.16
216.778	139.6
216.996	98.64
217.214	102.74
217.432	6.49
217.651	8.53
217.869	-59.05
218.087	39.25
218.306	-24.23
218.524	104.79
218.742	43.35
218.96	53.59
219.179	-46.76
219.397	84.31
219.615	227.67
219.833	82.26
220.051	22.87
220.27	121.17
220.488	92.5
220.706	37.2
220.924	-9.9
221.142	-65.19
221.36	18.77
221.578	115.03
221.796	12.63
222.015	6.49
222.233	100.69
222.451	201.04
222.669	-65.19
222.887	86.36
223.105	43.35
223.323	104.79
223.541	12.63
223.759	14.68
223.977	84.31
224.195	153.94
224.413	35.16
224.631	74.07
224.849	90.45
225.067	186.71
225.285	37.2
225.503	12.63
225.721	-102.06
225.939	4.44
226.157	29.01
226.375	192.85
226.592	31.06
226.81	84.31
227.028	141.65
227.246	160.08
227.464	-3.75
227.682	129.36
227.9	115.03
228.117	88.4
228.335	69.97
228.553	153.94
228.771	0.34
228.989	-22.19
229.206	49.49
229.424	29.01
229.642	-5.8
229.86	-28.33
230.077	84.31
230.295	-46.76
230.513	129.36
230.731	96.6
230.948	209.23
231.166	121.17
231.384	18.77
231.601	-20.14
231.819	129.36
232.037	-7.85
232.254	8.53
232.472	-9.9
232.689	12.63
232.907	160.08
233.125	-26.28
233.342	18.77
233.56	22.87
233.777	18.77
233.995	31.06
234.213	121.17
234.43	160.08
234.648	14.68
234.865	-34.47
235.083	65.88
235.3	74.07
235.518	84.31
235.735	180.56
235.953	94.55
236.17	24.92
236.388	119.12
236.605	26.96
236.822	67.92
237.04	31.06
237.257	33.11
237.475	-77.48
237.692	-46.76
237.909	67.92
238.127	-3.75
238.344	76.12
238.562	10.58
238.779	-38.57
238.996	-40.62
239.214	26.96
239.431	-18.09
239.648	37.2
239.865	74.07
240.083	72.02
240.3	41.3
240.517	-40.62
240.735	26.96
240.952	76.12
241.169	96.6
241.386	39.25
241.603	45.4
241.821	0.34
242.038	12.63
242.255	190.8
242.472	-40.62
242.689	8.53
242.907	86.36
243.124	115.03
243.341	-13.99
243.558	-13.99
243.775	-63.15
243.992	-3.75
244.209	115.03
244.426	131.41
244.643	24.92
244.86	88.4
245.078	106.84
245.295	63.83
245.512	45.4
245.729	14.68
245.946	41.3
246.163	16.73
246.38	47.44
246.597	12.63
246.814	-32.43
247.031	90.45
247.248	39.25
247.464	115.03
247.681	108.88
247.898	41.3
248.115	88.4
248.332	24.92
248.549	78.16
248.766	131.41
248.983	84.31
249.2	112.98
249.417	22.87
249.633	6.49
249.85	82.26
250.067	51.54
250.284	139.6
250.501	59.73
250.717	147.8
250.934	2.39
251.151	14.68
251.368	-26.28
251.585	96.6
251.801	82.26
252.018	-7.85
252.235	88.4
252.451	-34.47
252.668	33.11
252.885	92.5
253.102	94.55
253.318	-16.04
253.535	18.77
253.752	-59.05
253.968	-67.24
254.185	-3.75
254.401	55.64
254.618	96.6
254.835	-24.23
255.051	96.6
255.268	10.58
255.484	86.36
255.701	10.58
255.917	80.21
256.134	-73.39
256.351	0.34
256.567	-22.19
256.784	41.3
257	18.77
257.217	115.03
257.433	108.88
257.65	4.44
257.866	155.99
258.082	-30.38
258.299	22.87
258.515	51.54
258.732	108.88
258.948	-30.38
259.165	10.58
259.381	20.82
259.597	92.5
259.814	33.11
260.03	-1.71
260.246	47.44
260.463	170.32
260.679	137.56
260.895	39.25
261.112	80.21
261.328	-20.14
261.544	59.73
261.761	178.51
261.977	-3.75
262.193	-61.1
262.409	72.02
262.626	-67.24
262.842	24.92
263.058	-46.76
263.274	182.61
263.49	55.64
263.707	29.01
263.923	100.69
264.139	-102.06
264.355	24.92
264.571	45.4
264.787	53.59
265.004	84.31
265.22	80.21
265.436	-20.14
265.652	6.49
265.868	39.25
266.084	-1.71
266.3	-13.99
266.516	-102.06
266.732	78.16
266.948	26.96
267.164	2.39
267.38	57.68
267.596	24.92
267.812	84.31
268.028	63.83
268.244	-11.95
268.46	35.16
268.676	20.82
268.892	69.97
269.108	65.88
269.324	-57
269.54	4.44
269.756	74.07
269.972	-34.47
270.188	22.87
270.403	-24.23
270.619	20.82
270.835	92.5
271.051	-20.14
271.267	72.02
271.483	-20.14
271.698	129.36
271.914	98.64
272.13	47.44
272.346	-46.76
272.562	-9.9
272.777	117.08
272.993	49.49
273.209	18.77
273.425	139.6
273.64	4.44
273.856	141.65
274.072	-34.47
274.287	53.59
274.503	2.39
274.719	133.46
274.934	-42.67
275.15	-28.33
275.366	26.96
275.581	14.68
275.797	53.59
276.012	82.26
276.228	53.59
276.444	133.46
276.659	92.5
276.875	-11.95
277.09	12.63
277.306	57.68
277.521	29.01
277.737	2.39
277.952	47.44
278.168	22.87
278.383	53.59
278.599	110.93
278.814	94.55
279.03	35.16
279.245	117.08
279.461	57.68
279.676	153.94
279.892	-93.87
280.107	-65.19
280.322	39.25
280.538	63.83
280.753	-28.33
280.969	41.3
281.184	-20.14
281.399	149.84
281.615	18.77
281.83	24.92
282.045	-91.82
282.26	4.44
282.476	49.49
282.691	110.93
282.906	49.49
283.122	63.83
283.337	-52.91
283.552	78.16
283.767	-1.71
283.983	57.68
284.198	57.68
284.413	92.5
284.628	-46.76
284.843	16.73
285.058	121.17
285.274	84.31
285.489	37.2
285.704	106.84
285.919	-9.9
286.134	6.49
286.349	29.01
286.564	16.73
286.779	139.6
286.995	2.39
287.21	0.34
287.425	100.69
287.64	12.63
287.855	84.31
288.07	-132.78
288.285	125.27
288.5	115.03
288.715	29.01
288.93	35.16
289.145	31.06
289.36	123.22
289.575	-1.71
289.79	125.27
290.004	16.73
290.219	86.36
290.434	31.06
290.649	0.34
290.864	41.3
291.079	-3.75
291.294	33.11
291.509	121.17
291.724	26.96
291.938	82.26
292.153	57.68
292.368	-20.14
292.583	24.92
292.798	39.25
293.012	49.49
293.227	76.12
293.442	33.11
293.657	104.79
293.871	137.56
294.086	125.27
294.301	162.13
294.516	121.17
294.73	74.07
294.945	-22.19
295.16	-13.99
295.374	39.25
295.589	147.8
295.804	-24.23
296.018	57.68
296.233	155.99
296.447	67.92
296.662	47.44
296.877	94.55
297.091	24.92
297.306	43.35
297.52	16.73
297.735	53.59
297.949	43.35
298.164	24.92
298.378	82.26
298.593	-69.29
298.807	-1.71
299.022	53.59
299.236	110.93
299.451	49.49
299.665	12.63
299.88	102.74
300.094	137.56
300.309	51.54
300.523	33.11
300.737	-61.1
300.952	80.21
301.166	61.78
301.381	-26.28
301.595	26.96
301.809	78.16
302.024	41.3
302.238	-7.85
302.452	172.37
302.667	96.6
302.881	168.27
303.095	29.01
303.309	33.11
303.524	-1.71
303.738	49.49
303.952	-22.19
304.166	45.4
304.381	-91.82
304.595	94.55
304.809	43.35
305.023	37.2
305.237	39.25
305.452	31.06
305.666	127.32
305.88	84.31
306.094	47.44
306.308	139.6
306.522	96.6
306.736	53.59
306.95	39.25
307.164	-44.71
307.379	65.88
307.593	160.08
307.807	151.89
308.021	78.16
308.235	69.97
308.449	-57
308.663	8.53
308.877	250.19
309.091	33.11
309.305	78.16
309.519	-93.87
309.733	182.61
309.947	-34.47
310.161	63.83
310.374	112.98
310.588	182.61
310.802	41.3
311.016	24.92
311.23	22.87
311.444	-16.04
311.658	16.73
311.872	106.84
312.085	94.55
312.299	137.56
312.513	94.55
312.727	59.73
312.941	-91.82
313.154	37.2
313.368	6.49
313.582	57.68
313.796	88.4
314.009	14.68
314.223	106.84
314.437	100.69
314.651	106.84
314.864	-42.67
315.078	-32.43
315.292	-42.67
315.505	-97.96
315.719	63.83
315.933	24.92
316.146	61.78
316.36	-24.23
316.573	127.32
316.787	22.87
317.001	86.36
317.214	-9.9
317.428	4.44
317.641	18.77
317.855	12.63
318.068	-3.75
318.282	96.6
318.495	180.56
318.709	72.02
318.922	55.64
319.136	190.8
319.349	112.98
319.563	16.73
319.776	78.16
319.99	-40.62
320.203	155.99
320.417	39.25
320.63	112.98
320.843	137.56
321.057	80.21
321.27	61.78
321.483	106.84
321.697	151.89
321.91	-9.9
322.124	88.4
322.337	59.73
322.55	-30.38
322.763	96.6
322.977	4.44
323.19	12.63
323.403	20.82
323.617	80.21
323.83	125.27
324.043	-32.43
324.256	43.35
324.469	-100.01
324.683	86.36
324.896	33.11
325.109	65.88
325.322	-102.06
325.535	115.03
325.748	110.93
325.962	8.53
326.175	69.97
326.388	145.75
326.601	72.02
326.814	31.06
327.027	72.02
327.24	65.88
327.453	-73.39
327.666	100.69
327.879	31.06
328.092	80.21
328.305	108.88
328.518	-18.09
328.731	63.83
328.944	31.06
329.157	59.73
329.37	12.63
329.583	192.85
329.796	123.22
330.009	65.88
330.222	92.5
330.435	104.79
330.648	14.68
330.861	55.64
331.073	125.27
331.286	92.5
331.499	51.54
331.712	6.49
331.925	35.16
332.138	55.64
332.35	57.68
332.563	-36.52
332.776	125.27
332.989	-34.47
333.202	-40.62
333.414	-75.43
333.627	67.92
333.84	22.87
334.053	106.84
334.265	-54.95
334.478	-22.19
334.691	65.88
334.903	43.35
335.116	16.73
335.329	63.83
335.541	94.55
335.754	186.71
335.966	39.25
336.179	-48.81
336.392	51.54
336.604	76.12
336.817	110.93
337.029	100.69
337.242	10.58
337.454	129.36
337.667	35.16
337.88	219.47
338.092	18.77
338.305	100.69
338.517	16.73
338.729	57.68
338.942	162.13
339.154	-5.8
339.367	22.87
339.579	98.64
339.792	0.34
340.004	43.35
340.217	94.55
340.429	39.25
340.641	-7.85
340.854	-28.33
341.066	90.45
341.278	147.8
341.491	221.52
341.703	33.11
341.915	-1.71
342.128	92.5
342.34	65.88
342.552	-85.67
342.764	-48.81
342.977	12.63
343.189	-18.09
343.401	29.01
343.613	-50.86
343.826	10.58
344.038	39.25
344.25	35.16
344.462	10.58
344.674	76.12
344.886	55.64
345.099	129.36
345.311	112.98
345.523	-5.8
345.735	-52.91
345.947	65.88
346.159	4.44
346.371	106.84
346.583	-40.62
346.795	225.62
347.007	45.4
347.219	69.97
347.431	-18.09
347.643	174.42
347.855	8.53
348.067	74.07
348.279	-1.71
348.491	-11.95
348.703	61.78
348.915	10.58
349.127	43.35
349.339	90.45
349.551	-50.86
349.763	100.69
349.975	33.11
350.187	104.79
350.399	127.32
350.61	147.8
350.822	-28.33
351.034	84.31
351.246	112.98
351.458	51.54
351.669	112.98
351.881	117.08
352.093	102.74
352.305	74.07
352.517	137.56
352.728	123.22
352.94	65.88
353.152	-16.04
353.363	10.58
353.575	57.68
353.787	129.36
353.999	6.49
354.21	94.55
354.422	24.92
354.633	43.35
354.845	80.21
355.057	39.25
355.268	72.02
355.48	78.16
355.692	-63.15
355.903	18.77
356.115	-52.91
356.326	-114.34
356.538	112.98
356.749	67.92
356.961	86.36
357.172	22.87
357.384	2.39
357.595	229.71
357.807	0.34
358.018	0.34
358.23	-34.47
358.441	139.6
358.653	59.73
358.864	129.36
359.075	0.34
359.287	131.41
359.498	137.56
359.709	69.97
359.921	6.49
360.132	43.35
360.344	2.39
360.555	69.97
360.766	94.55
360.977	37.2
361.189	151.89
361.4	-1.71
361.611	84.31
361.823	92.5
362.034	72.02
362.245	-65.19
362.456	37.2
362.667	145.75
362.879	-22.19
363.09	43.35
363.301	74.07
363.512	10.58
363.723	39.25
363.935	43.35
364.146	127.32
364.357	-30.38
364.568	61.78
364.779	-73.39
364.99	129.36
365.201	65.88
365.412	133.46
365.623	6.49
365.834	78.16
366.045	39.25
366.256	39.25
366.467	162.13
366.678	29.01
366.889	110.93
367.1	69.97
367.311	123.22
367.522	90.45
367.733	119.12
367.944	121.17
368.155	20.82
368.366	98.64
368.577	6.49
368.788	104.79
368.999	16.73
369.209	39.25
369.42	221.52
369.631	170.32
369.842	94.55
370.053	-24.23
370.264	166.23
370.474	-18.09
370.685	96.6
370.896	41.3
371.107	166.23
371.317	57.68
371.528	92.5
371.739	209.23
371.95	33.11
372.16	96.6
372.371	-3.75
372.582	-18.09
372.792	51.54
373.003	76.12
373.214	55.64
373.424	53.59
373.635	47.44
373.846	100.69
374.056	74.07
374.267	47.44
374.477	-7.85
374.688	-42.67
374.898	47.44
375.109	147.8
375.319	61.78
375.53	74.07
375.74	57.68
375.951	-46.76
376.161	119.12
376.372	20.82
376.582	-28.33
376.793	51.54
377.003	0.34
377.214	-42.67
377.424	39.25
377.635	0.34
377.845	0.34
378.055	139.6
378.266	-26.28
378.476	92.5
378.686	26.96
378.897	29.01
379.107	115.03
379.317	61.78
379.528	-7.85
379.738	55.64
379.948	-128.68
380.158	178.51
380.369	41.3
380.579	110.93
380.789	10.58
380.999	115.03
381.21	129.36
381.42	225.62
381.63	31.06
381.84	63.83
382.05	115.03
382.261	155.99
382.471	92.5
382.681	-5.8
382.891	166.23
383.101	72.02
383.311	-30.38
383.521	-20.14
383.731	108.88
383.941	184.66
384.151	41.3
384.361	51.54
384.571	78.16
384.781	35.16
384.991	174.42
385.201	203.09
385.411	131.41
385.621	-5.8
385.831	6.49
386.041	10.58
386.251	53.59
386.461	155.99
386.671	78.16
386.881	78.16
387.091	33.11
387.301	127.32
387.511	53.59
387.72	98.64
387.93	76.12
388.14	-48.81
388.35	18.77
388.56	80.21
388.769	96.6
388.979	20.82
389.189	-1.71
389.399	29.01
389.609	115.03
389.818	55.64
390.028	39.25
390.238	67.92
390.447	-7.85
390.657	22.87
390.867	14.68
391.076	-87.72
391.286	74.07
391.496	-1.71
391.705	131.41
391.915	153.94
392.125	155.99
392.334	-3.75
392.544	145.75
392.753	125.27
392.963	-18.09
393.172	51.54
393.382	-16.04
393.591	227.67
393.801	41.3
394.01	176.47
394.22	121.17
394.429	6.49
394.639	16.73
394.848	59.73
395.058	149.84
395.267	51.54
395.477	63.83
395.686	104.79
395.895	217.43
396.105	180.56
396.314	112.98
396.524	22.87
396.733	24.92
396.942	162.13
397.152	106.84
397.361	94.55
397.57	51.54
397.78	-1.71
397.989	129.36
398.198	149.84
398.407	49.49
398.617	14.68
398.826	39.25
399.035	55.64
399.244	127.32
399.453	16.73
399.663	67.92
399.872	53.59
400.081	26.96
400.29	155.99
400.499	-24.23
400.708	129.36
400.917	43.35
401.127	47.44
401.336	35.16
401.545	188.75
401.754	215.38
401.963	115.03
402.172	59.73
402.381	-75.43
402.59	57.68
402.799	59.73
403.008	69.97
403.217	76.12
403.426	80.21
403.635	-40.62
403.844	4.44
404.053	12.63
404.262	49.49
404.471	151.89
404.68	57.68
404.888	-11.95
405.097	59.73
405.306	31.06
405.515	80.21
405.724	59.73
405.933	123.22
406.142	139.6
406.35	129.36
406.559	139.6
406.768	-9.9
406.977	176.47
407.185	147.8
407.394	65.88
407.603	47.44
407.812	96.6
408.02	117.08
408.229	-20.14
408.438	155.99
408.646	-67.24
408.855	35.16
409.064	143.7
409.272	37.2
409.481	80.21
409.69	-32.43
409.898	-40.62
410.107	0.34
410.315	129.36
410.524	-42.67
410.733	12.63
410.941	26.96
411.15	55.64
411.358	125.27
411.567	227.67
411.775	0.34
411.984	112.98
412.192	69.97
412.401	12.63
412.609	88.4
412.818	188.75
413.026	41.3
413.234	-16.04
413.443	35.16
413.651	8.53
413.86	61.78
414.068	176.47
414.276	153.94
414.485	-24.23
414.693	143.7
414.901	242
415.11	119.12
415.318	80.21
415.526	-18.09
415.734	92.5
415.943	57.68
416.151	112.98
416.359	33.11
416.567	18.77
416.776	131.41
416.984	133.46
417.192	172.37
417.4	14.68
417.608	31.06
417.817	-34.47
418.025	133.46
418.233	158.03
418.441	45.4
418.649	-32.43
418.857	72.02
419.065	57.68
419.273	-40.62
419.481	43.35
419.689	80.21
419.897	-9.9
420.105	-3.75
420.313	90.45
420.521	141.65
420.729	172.37
420.937	-42.67
421.145	41.3
421.353	69.97
421.561	190.8
421.769	110.93
421.977	-13.99
422.185	106.84
422.393	18.77
422.601	145.75
422.809	92.5
423.017	18.77
423.224	86.36
423.432	47.44
423.64	14.68
423.848	170.32
424.056	-71.34
424.263	106.84
424.471	43.35
424.679	196.95
424.887	26.96
425.094	117.08
425.302	82.26
425.51	86.36
425.718	170.32
425.925	63.83
426.133	86.36
426.341	149.84
426.548	57.68
426.756	88.4
426.964	98.64
427.171	24.92
427.379	129.36
427.586	94.55
427.794	55.64
428.001	178.51
428.209	86.36
428.417	145.75
428.624	92.5
428.832	92.5
429.039	162.13
429.247	121.17
429.454	217.43
429.662	198.99
429.869	137.56
430.076	108.88
430.284	188.75
430.491	170.32
430.699	174.42
430.906	248.15
431.114	184.66
431.321	203.09
431.528	106.84
431.736	133.46
431.943	215.38
432.15	123.22
432.358	131.41
432.565	211.28
432.772	55.64
432.979	201.04
433.187	133.46
433.394	209.23
433.601	123.22
433.808	244.05
434.016	252.24
434.223	305.49
434.43	182.61
434.637	244.05
434.844	299.34
435.052	229.71
435.259	250.19
435.466	274.77
435.673	221.52
435.88	221.52
436.087	291.15
436.294	338.26
436.501	395.6
436.708	340.3
436.915	246.1
437.122	442.7
437.329	225.62
437.537	336.21
437.743	362.83
437.95	489.81
438.157	346.45
438.364	397.65
438.571	346.45
438.778	444.75
438.985	520.53
439.192	541.01
439.399	426.32
439.606	454.99
439.813	514.38
440.02	661.84
440.227	725.32
440.433	518.48
440.64	581.96
440.847	520.53
441.054	571.72
441.261	659.79
441.467	692.55
441.674	641.36
441.881	768.33
442.088	717.13
442.294	782.67
442.501	776.52
442.708	842.06
442.914	878.92
443.121	842.06
443.328	948.55
443.534	917.83
443.741	909.64
443.948	913.74
444.154	981.32
444.361	1225.03
444.568	1102.15
444.774	1124.68
444.981	938.31
445.187	1200.45
445.394	1206.59
445.6	1132.87
445.807	1448.26
446.013	1374.53
446.22	1188.16
446.426	1511.74
446.633	1597.76
446.839	1597.76
447.046	1464.64
447.252	1669.44
447.459	1671.48
447.665	1730.87
447.871	1800.51
448.078	2056.5
448.284	2005.3
448.491	2130.23
448.697	2085.17
448.903	2257.2
449.11	2289.97
449.316	2316.59
449.522	2560.3
449.728	2613.55
449.935	2552.11
450.141	2629.93
450.347	2894.12
450.553	2830.63
450.76	2961.7
450.966	3072.29
451.172	3215.65
451.378	3223.84
451.584	3229.99
451.791	3522.85
451.997	3602.72
452.203	3641.63
452.409	4038.94
452.615	4051.22
452.821	3877.15
453.027	3834.14
453.233	4471.06
453.44	4325.65
453.646	4618.51
453.852	4806.92
454.058	5032.2
454.264	5095.69
454.47	5544.19
454.676	5585.15
454.882	5851.39
455.088	5720.32
455.294	5982.46
455.5	6543.6
455.705	6842.6
455.911	6762.73
456.117	7031.02
456.323	7215.34
456.529	7086.31
456.735	7860.45
456.941	8089.82
457.147	8356.05
457.352	8558.8
457.558	8892.62
457.764	9390.28
457.97	9609.41
458.176	9846.98
458.381	10459.32
458.587	10770.61
458.793	11047.08
458.999	11206.83
459.204	12456.09
459.41	12875.92
459.616	12726.42
459.821	13623.43
460.027	14157.95
460.233	14831.73
460.438	14839.92
460.644	15503.46
460.85	15761.51
461.055	16582.74
461.261	17274.96
461.466	16955.47
461.672	17393.74
461.878	19329.07
462.083	19277.87
462.289	19619.88
462.494	20125.73
462.7	20424.73
462.905	20756.5
463.111	22321.15
463.316	23375.86
463.522	23795.69
463.727	24942.55
463.932	25845.71
464.138	26726.33
464.343	27492.27
464.549	27445.17
464.754	29427.6
464.959	30562.18
465.165	31010.68
465.37	30691.2
465.575	31033.21
465.781	32835.42
465.986	33830.74
466.191	33333.08
466.397	33787.73
466.602	33023.84
466.807	34877.25
467.012	35112.77
467.218	36077.36
467.423	36122.41
467.628	37300
467.833	39012.1
468.038	38070.03
468.244	37388.06
468.449	39583.48
468.654	38653.7
468.859	38745.86
