Data from USB4F104151__17__11-24-30-795.txt Node

Date: Wed Feb 26 11:24:30 EST 2025
User: louis
Spectrometer: USB4F10415
Trigger mode: 4
Integration Time (sec): 1.000000E-1
Scans to average: 1
Electric dark correction enabled: true
Nonlinearity correction enabled: false
Boxcar width: 0
XAxis mode: Wavelengths
Number of Pixels in Spectrum: 3648
>>>>>Begin Spectral Data<<<<<
178.204	-394.92
178.424	-394.92
178.644	-394.92
178.864	-388.77
179.084	-360.1
179.304	2.39
179.524	-11.95
179.744	-9.9
179.964	37.2
180.184	6.49
180.404	26.96
180.624	6.49
180.844	-16.04
181.064	-50.86
181.283	2.39
181.503	-11.95
181.723	18.77
181.943	-75.43
182.163	155.99
182.383	-5.8
182.602	45.4
182.822	180.56
183.042	127.32
183.262	-13.99
183.482	-7.85
183.701	45.4
183.921	26.96
184.141	63.83
184.361	14.68
184.58	104.79
184.8	-5.8
185.02	-50.86
185.239	139.6
185.459	145.75
185.679	121.17
185.898	-48.81
186.118	26.96
186.338	72.02
186.557	166.23
186.777	-24.23
186.997	-3.75
187.216	-18.09
187.436	147.8
187.655	67.92
187.875	190.8
188.095	-20.14
188.314	180.56
188.534	186.71
188.753	-124.58
188.973	55.64
189.192	121.17
189.412	0.34
189.631	39.25
189.851	18.77
190.07	176.47
190.29	-16.04
190.509	-54.95
190.729	74.07
190.948	190.8
191.168	297.3
191.387	22.87
191.607	20.82
191.826	2.39
192.045	49.49
192.265	-32.43
192.484	119.12
192.704	49.49
192.923	-20.14
193.142	219.47
193.362	53.59
193.581	82.26
193.8	20.82
194.02	98.64
194.239	104.79
194.458	123.22
194.678	53.59
194.897	31.06
195.116	80.21
195.335	16.73
195.555	63.83
195.774	-24.23
195.993	20.82
196.212	-40.62
196.432	-18.09
196.651	16.73
196.87	69.97
197.089	237.91
197.308	84.31
197.528	82.26
197.747	-40.62
197.966	22.87
198.185	121.17
198.404	31.06
198.623	98.64
198.842	155.99
199.062	143.7
199.281	74.07
199.5	31.06
199.719	74.07
199.938	0.34
200.157	121.17
200.376	90.45
200.595	178.51
200.814	41.3
201.033	26.96
201.252	135.51
201.471	59.73
201.69	55.64
201.909	49.49
202.128	94.55
202.347	125.27
202.566	69.97
202.785	-34.47
203.004	2.39
203.223	268.63
203.442	86.36
203.661	-5.8
203.879	117.08
204.098	51.54
204.317	12.63
204.536	74.07
204.755	49.49
204.974	145.75
205.193	-5.8
205.411	115.03
205.63	74.07
205.849	8.53
206.068	-1.71
206.287	-48.81
206.505	117.08
206.724	35.16
206.943	0.34
207.162	82.26
207.381	143.7
207.599	16.73
207.818	102.74
208.037	-54.95
208.255	57.68
208.474	47.44
208.693	55.64
208.911	-38.57
209.13	96.6
209.349	65.88
209.567	92.5
209.786	47.44
210.005	158.03
210.223	69.97
210.442	-57
210.661	-9.9
210.879	59.73
211.098	61.78
211.316	6.49
211.535	88.4
211.753	86.36
211.972	108.88
212.191	74.07
212.409	-32.43
212.628	39.25
212.846	31.06
213.065	65.88
213.283	102.74
213.502	82.26
213.72	37.2
213.938	78.16
214.157	47.44
214.375	90.45
214.594	-20.14
214.812	51.54
215.031	26.96
215.249	45.4
215.467	74.07
215.686	8.53
215.904	69.97
216.122	90.45
216.341	172.37
216.559	-18.09
216.778	98.64
216.996	94.55
217.214	51.54
217.432	33.11
217.651	-71.34
217.869	74.07
218.087	72.02
218.306	74.07
218.524	65.88
218.742	-26.28
218.96	39.25
219.179	41.3
219.397	-34.47
219.615	268.63
219.833	78.16
220.051	0.34
220.27	112.98
220.488	151.89
220.706	41.3
220.924	-28.33
221.142	-24.23
221.36	137.56
221.578	20.82
221.796	-40.62
222.015	-24.23
222.233	90.45
222.451	158.03
222.669	-44.71
222.887	108.88
223.105	-7.85
223.323	45.4
223.541	0.34
223.759	104.79
223.977	-7.85
224.195	162.13
224.413	80.21
224.631	98.64
224.849	86.36
225.067	209.23
225.285	-34.47
225.503	80.21
225.721	-40.62
225.939	33.11
226.157	80.21
226.375	239.95
226.592	33.11
226.81	4.44
227.028	121.17
227.246	112.98
227.464	98.64
227.682	43.35
227.9	69.97
228.117	69.97
228.335	45.4
228.553	29.01
228.771	12.63
228.989	-36.52
229.206	53.59
229.424	-93.87
229.642	29.01
229.86	6.49
230.077	151.89
230.295	-44.71
230.513	80.21
230.731	112.98
230.948	92.5
231.166	133.46
231.384	2.39
231.601	-16.04
231.819	170.32
232.037	-16.04
232.254	-63.15
232.472	4.44
232.689	84.31
232.907	151.89
233.125	-18.09
233.342	-3.75
233.56	-61.1
233.777	10.58
233.995	39.25
234.213	96.6
234.43	137.56
234.648	108.88
234.865	31.06
235.083	69.97
235.3	112.98
235.518	123.22
235.735	164.18
235.953	29.01
236.17	94.55
236.388	69.97
236.605	51.54
236.822	98.64
237.04	170.32
237.257	31.06
237.475	-44.71
237.692	92.5
237.909	82.26
238.127	47.44
238.344	123.22
238.562	37.2
238.779	-16.04
238.996	-32.43
239.214	110.93
239.431	53.59
239.648	24.92
239.865	96.6
240.083	76.12
240.3	98.64
240.517	29.01
240.735	53.59
240.952	131.41
241.169	104.79
241.386	86.36
241.603	18.77
241.821	-20.14
242.038	47.44
242.255	57.68
242.472	35.16
242.689	61.78
242.907	115.03
243.124	96.6
243.341	67.92
243.558	-40.62
243.775	61.78
243.992	-71.34
244.209	92.5
244.426	102.74
244.643	141.65
244.86	61.78
245.078	65.88
245.295	39.25
245.512	-22.19
245.729	-26.28
245.946	41.3
246.163	-11.95
246.38	6.49
246.597	20.82
246.814	10.58
247.031	20.82
247.248	35.16
247.464	98.64
247.681	55.64
247.898	37.2
248.115	92.5
248.332	10.58
248.549	127.32
248.766	158.03
248.983	86.36
249.2	129.36
249.417	143.7
249.633	35.16
249.85	55.64
250.067	117.08
250.284	37.2
250.501	59.73
250.717	117.08
250.934	20.82
251.151	49.49
251.368	43.35
251.585	102.74
251.801	61.78
252.018	8.53
252.235	86.36
252.451	-20.14
252.668	57.68
252.885	63.83
253.102	65.88
253.318	-11.95
253.535	24.92
253.752	43.35
253.968	-30.38
254.185	-44.71
254.401	82.26
254.618	65.88
254.835	10.58
255.051	135.51
255.268	84.31
255.484	67.92
255.701	18.77
255.917	51.54
256.134	-61.1
256.351	-20.14
256.567	72.02
256.784	18.77
257	-22.19
257.217	119.12
257.433	43.35
257.65	2.39
257.866	192.85
258.082	-59.05
258.299	-59.05
258.515	106.84
258.732	37.2
258.948	18.77
259.165	57.68
259.381	-1.71
259.597	-40.62
259.814	2.39
260.03	59.73
260.246	41.3
260.463	158.03
260.679	98.64
260.895	22.87
261.112	47.44
261.328	-16.04
261.544	-24.23
261.761	155.99
261.977	-11.95
262.193	-28.33
262.409	43.35
262.626	59.73
262.842	-9.9
263.058	49.49
263.274	170.32
263.49	88.4
263.707	96.6
263.923	160.08
264.139	-89.77
264.355	53.59
264.571	119.12
264.787	35.16
265.004	76.12
265.22	33.11
265.436	2.39
265.652	10.58
265.868	84.31
266.084	12.63
266.3	43.35
266.516	45.4
266.732	55.64
266.948	8.53
267.164	33.11
267.38	131.41
267.596	53.59
267.812	86.36
268.028	84.31
268.244	-5.8
268.46	104.79
268.676	12.63
268.892	84.31
269.108	-36.52
269.324	-5.8
269.54	-73.39
269.756	151.89
269.972	-44.71
270.188	10.58
270.403	57.68
270.619	51.54
270.835	149.84
271.051	86.36
271.267	-24.23
271.483	-52.91
271.698	127.32
271.914	108.88
272.13	16.73
272.346	-36.52
272.562	24.92
272.777	51.54
272.993	37.2
273.209	31.06
273.425	84.31
273.64	-7.85
273.856	121.17
274.072	0.34
274.287	4.44
274.503	63.83
274.719	112.98
274.934	37.2
275.15	-30.38
275.366	69.97
275.581	-48.81
275.797	45.4
276.012	39.25
276.228	26.96
276.444	61.78
276.659	168.27
276.875	8.53
277.09	-38.57
277.306	59.73
277.521	84.31
277.737	86.36
277.952	51.54
278.168	-38.57
278.383	86.36
278.599	51.54
278.814	86.36
279.03	82.26
279.245	192.85
279.461	69.97
279.676	119.12
279.892	-61.1
280.107	-13.99
280.322	-18.09
280.538	33.11
280.753	-26.28
280.969	100.69
281.184	104.79
281.399	125.27
281.615	110.93
281.83	20.82
282.045	-46.76
282.26	35.16
282.476	20.82
282.691	-7.85
282.906	47.44
283.122	33.11
283.337	14.68
283.552	123.22
283.767	88.4
283.983	137.56
284.198	96.6
284.413	57.68
284.628	-32.43
284.843	57.68
285.058	121.17
285.274	57.68
285.489	-67.24
285.704	76.12
285.919	-81.58
286.134	-5.8
286.349	31.06
286.564	59.73
286.779	176.47
286.995	37.2
287.21	-89.77
287.425	125.27
287.64	-38.57
287.855	106.84
288.07	-28.33
288.285	158.03
288.5	90.45
288.715	92.5
288.93	55.64
289.145	-24.23
289.36	-38.57
289.575	14.68
289.79	164.18
290.004	14.68
290.219	127.32
290.434	-28.33
290.649	65.88
290.864	55.64
291.079	33.11
291.294	92.5
291.509	49.49
291.724	-20.14
291.938	35.16
292.153	74.07
292.368	35.16
292.583	115.03
292.798	33.11
293.012	82.26
293.227	90.45
293.442	-11.95
293.657	166.23
293.871	141.65
294.086	94.55
294.301	198.99
294.516	133.46
294.73	20.82
294.945	-34.47
295.16	90.45
295.374	196.95
295.589	115.03
295.804	-5.8
296.018	74.07
296.233	168.27
296.447	-20.14
296.662	26.96
296.877	164.18
297.091	119.12
297.306	63.83
297.52	6.49
297.735	31.06
297.949	4.44
298.164	-1.71
298.378	74.07
298.593	-3.75
298.807	-52.91
299.022	22.87
299.236	53.59
299.451	-9.9
299.665	35.16
299.88	51.54
300.094	80.21
300.309	55.64
300.523	55.64
300.737	26.96
300.952	39.25
301.166	98.64
301.381	-20.14
301.595	51.54
301.809	164.18
302.024	12.63
302.238	-26.28
302.452	106.84
302.667	61.78
302.881	137.56
303.095	76.12
303.309	59.73
303.524	-5.8
303.738	22.87
303.952	-5.8
304.166	63.83
304.381	20.82
304.595	221.52
304.809	-9.9
305.023	33.11
305.237	-38.57
305.452	-48.81
305.666	108.88
305.88	29.01
306.094	170.32
306.308	33.11
306.522	141.65
306.736	65.88
306.95	151.89
307.164	12.63
307.379	92.5
307.593	135.51
307.807	78.16
308.021	47.44
308.235	100.69
308.449	-20.14
308.663	74.07
308.877	235.86
309.091	18.77
309.305	133.46
309.519	-32.43
309.733	110.93
309.947	2.39
310.161	86.36
310.374	69.97
310.588	168.27
310.802	-20.14
311.016	6.49
311.23	80.21
311.444	-30.38
311.658	24.92
311.872	127.32
312.085	129.36
312.299	188.75
312.513	127.32
312.727	106.84
312.941	-46.76
313.154	49.49
313.368	108.88
313.582	53.59
313.796	63.83
314.009	-22.19
314.223	158.03
314.437	-3.75
314.651	92.5
314.864	8.53
315.078	24.92
315.292	37.2
315.505	-7.85
315.719	86.36
315.933	74.07
316.146	16.73
316.36	-22.19
316.573	162.13
316.787	94.55
317.001	65.88
317.214	-52.91
317.428	80.21
317.641	-16.04
317.855	74.07
318.068	110.93
318.282	96.6
318.495	160.08
318.709	112.98
318.922	65.88
319.136	182.61
319.349	182.61
319.563	29.01
319.776	133.46
319.99	-24.23
320.203	115.03
320.417	102.74
320.63	106.84
320.843	205.14
321.057	106.84
321.27	80.21
321.483	-11.95
321.697	192.85
321.91	51.54
322.124	37.2
322.337	53.59
322.55	-30.38
322.763	14.68
322.977	-36.52
323.19	20.82
323.403	69.97
323.617	127.32
323.83	92.5
324.043	-9.9
324.256	63.83
324.469	-22.19
324.683	24.92
324.896	49.49
325.109	41.3
325.322	20.82
325.535	162.13
325.748	110.93
325.962	88.4
326.175	22.87
326.388	59.73
326.601	162.13
326.814	18.77
327.027	86.36
327.24	133.46
327.453	-61.1
327.666	121.17
327.879	119.12
328.092	84.31
328.305	106.84
328.518	35.16
328.731	16.73
328.944	-3.75
329.157	69.97
329.37	2.39
329.583	125.27
329.796	141.65
330.009	33.11
330.222	59.73
330.435	51.54
330.648	153.94
330.861	65.88
331.073	35.16
331.286	100.69
331.499	31.06
331.712	-40.62
331.925	65.88
332.138	63.83
332.35	108.88
332.563	12.63
332.776	74.07
332.989	12.63
333.202	-22.19
333.414	84.31
333.627	61.78
333.84	65.88
334.053	104.79
334.265	26.96
334.478	10.58
334.691	41.3
334.903	61.78
335.116	-16.04
335.329	-11.95
335.541	121.17
335.754	160.08
335.966	67.92
336.179	29.01
336.392	90.45
336.604	-11.95
336.817	88.4
337.029	72.02
337.242	125.27
337.454	37.2
337.667	61.78
337.88	151.89
338.092	92.5
338.305	108.88
338.517	49.49
338.729	78.16
338.942	151.89
339.154	-83.63
339.367	-28.33
339.579	151.89
339.792	59.73
340.004	88.4
340.217	39.25
340.429	10.58
340.641	-38.57
340.854	-32.43
341.066	4.44
341.278	170.32
341.491	219.47
341.703	43.35
341.915	-7.85
342.128	133.46
342.34	98.64
342.552	-79.53
342.764	8.53
342.977	59.73
343.189	55.64
343.401	69.97
343.613	-18.09
343.826	166.23
344.038	-46.76
344.25	33.11
344.462	43.35
344.674	6.49
344.886	16.73
345.099	115.03
345.311	106.84
345.523	-3.75
345.735	-100.01
345.947	26.96
346.159	86.36
346.371	51.54
346.583	24.92
346.795	196.95
347.007	37.2
347.219	84.31
347.431	14.68
347.643	127.32
347.855	-81.58
348.067	141.65
348.279	16.73
348.491	43.35
348.703	168.27
348.915	2.39
349.127	82.26
349.339	131.41
349.551	0.34
349.763	100.69
349.975	88.4
350.187	143.7
350.399	88.4
350.61	100.69
350.822	29.01
351.034	72.02
351.246	72.02
351.458	67.92
351.669	119.12
351.881	39.25
352.093	90.45
352.305	100.69
352.517	151.89
352.728	135.51
352.94	65.88
353.152	84.31
353.363	-50.86
353.575	96.6
353.787	184.66
353.999	94.55
354.21	131.41
354.422	39.25
354.633	47.44
354.845	106.84
355.057	100.69
355.268	24.92
355.48	55.64
355.692	-65.19
355.903	117.08
356.115	-52.91
356.326	14.68
356.538	168.27
356.749	86.36
356.961	76.12
357.172	49.49
357.384	-3.75
357.595	231.76
357.807	-75.43
358.018	76.12
358.23	72.02
358.441	207.19
358.653	129.36
358.864	80.21
359.075	53.59
359.287	67.92
359.498	102.74
359.709	53.59
359.921	86.36
360.132	104.79
360.344	108.88
360.555	29.01
360.766	41.3
360.977	-36.52
361.189	106.84
361.4	69.97
361.611	106.84
361.823	143.7
362.034	16.73
362.245	-75.43
362.456	24.92
362.667	151.89
362.879	-71.34
363.09	65.88
363.301	90.45
363.512	12.63
363.723	-30.38
363.935	12.63
364.146	96.6
364.357	37.2
364.568	78.16
364.779	-87.72
364.99	88.4
365.201	-38.57
365.412	192.85
365.623	-30.38
365.834	108.88
366.045	-11.95
366.256	84.31
366.467	119.12
366.678	63.83
366.889	94.55
367.1	-18.09
367.311	82.26
367.522	-24.23
367.733	29.01
367.944	121.17
368.155	43.35
368.366	112.98
368.577	139.6
368.788	141.65
368.999	84.31
369.209	6.49
369.42	248.15
369.631	192.85
369.842	72.02
370.053	-9.9
370.264	153.94
370.474	-38.57
370.685	43.35
370.896	96.6
371.107	119.12
371.317	86.36
371.528	72.02
371.739	72.02
371.95	-61.1
372.16	110.93
372.371	-30.38
372.582	10.58
372.792	74.07
373.003	37.2
373.214	141.65
373.424	94.55
373.635	-9.9
373.846	133.46
374.056	39.25
374.267	67.92
374.477	100.69
374.688	-38.57
374.898	90.45
375.109	76.12
375.319	20.82
375.53	92.5
375.74	112.98
375.951	47.44
376.161	119.12
376.372	160.08
376.582	45.4
376.793	63.83
377.003	53.59
377.214	-30.38
377.424	110.93
377.635	43.35
377.845	24.92
378.055	164.18
378.266	-32.43
378.476	43.35
378.686	41.3
378.897	53.59
379.107	53.59
379.317	131.41
379.528	22.87
379.738	143.7
379.948	14.68
380.158	67.92
380.369	29.01
380.579	53.59
380.789	84.31
380.999	90.45
381.21	125.27
381.42	248.15
381.63	-18.09
381.84	74.07
382.05	117.08
382.261	141.65
382.471	129.36
382.681	84.31
382.891	131.41
383.101	90.45
383.311	-44.71
383.521	53.59
383.731	88.4
383.941	74.07
384.151	67.92
384.361	-9.9
384.571	115.03
384.781	39.25
384.991	176.47
385.201	201.04
385.411	127.32
385.621	43.35
385.831	92.5
386.041	45.4
386.251	51.54
386.461	198.99
386.671	16.73
386.881	108.88
387.091	-9.9
387.301	82.26
387.511	31.06
387.72	80.21
387.93	47.44
388.14	-75.43
388.35	33.11
388.56	155.99
388.769	166.23
388.979	84.31
389.189	72.02
389.399	63.83
389.609	45.4
389.818	-3.75
390.028	72.02
390.238	119.12
390.447	41.3
390.657	53.59
390.867	33.11
391.076	-81.58
391.286	123.22
391.496	-28.33
391.705	-5.8
391.915	108.88
392.125	106.84
392.334	-30.38
392.544	104.79
392.753	55.64
392.963	0.34
393.172	55.64
393.382	57.68
393.591	233.81
393.801	-11.95
394.01	80.21
394.22	61.78
394.429	47.44
394.639	119.12
394.848	65.88
395.058	72.02
395.267	-11.95
395.477	102.74
395.686	170.32
395.895	153.94
396.105	180.56
396.314	180.56
396.524	49.49
396.733	24.92
396.942	180.56
397.152	112.98
397.361	168.27
397.57	47.44
397.78	57.68
397.989	104.79
398.198	198.99
398.407	61.78
398.617	127.32
398.826	76.12
399.035	41.3
399.244	184.66
399.453	69.97
399.663	72.02
399.872	2.39
400.081	26.96
400.29	178.51
400.499	-3.75
400.708	112.98
400.917	51.54
401.127	-40.62
401.336	0.34
401.545	196.95
401.754	162.13
401.963	182.61
402.172	20.82
402.381	-28.33
402.59	110.93
402.799	59.73
403.008	141.65
403.217	112.98
403.426	57.68
403.635	35.16
403.844	67.92
404.053	53.59
404.262	0.34
404.471	180.56
404.68	117.08
404.888	24.92
405.097	41.3
405.306	0.34
405.515	78.16
405.724	121.17
405.933	84.31
406.142	98.64
406.35	196.95
406.559	16.73
406.768	18.77
406.977	166.23
407.185	90.45
407.394	180.56
407.603	-48.81
407.812	16.73
408.02	188.75
408.229	110.93
408.438	65.88
408.646	-69.29
408.855	22.87
409.064	104.79
409.272	78.16
409.481	80.21
409.69	22.87
409.898	29.01
410.107	37.2
410.315	170.32
410.524	67.92
410.733	51.54
410.941	90.45
411.15	151.89
411.358	153.94
411.567	86.36
411.775	80.21
411.984	72.02
412.192	63.83
412.401	65.88
412.609	151.89
412.818	123.22
413.026	92.5
413.234	6.49
413.443	59.73
413.651	92.5
413.86	39.25
414.068	94.55
414.276	223.57
414.485	24.92
414.693	106.84
414.901	147.8
415.11	72.02
415.318	16.73
415.526	16.73
415.734	92.5
415.943	106.84
416.151	129.36
416.359	35.16
416.567	82.26
416.776	69.97
416.984	119.12
417.192	194.9
417.4	57.68
417.608	16.73
417.817	-9.9
418.025	108.88
418.233	225.62
418.441	-34.47
418.649	69.97
418.857	76.12
419.065	149.84
419.273	43.35
419.481	47.44
419.689	51.54
419.897	80.21
420.105	-1.71
420.313	80.21
420.521	164.18
420.729	98.64
420.937	14.68
421.145	-16.04
421.353	139.6
421.561	205.14
421.769	63.83
421.977	-32.43
422.185	221.52
422.393	61.78
422.601	112.98
422.809	139.6
423.017	86.36
423.224	31.06
423.432	119.12
423.64	10.58
423.848	184.66
424.056	45.4
424.263	192.85
424.471	22.87
424.679	135.51
424.887	41.3
425.094	149.84
425.302	119.12
425.51	37.2
425.718	100.69
425.925	53.59
426.133	26.96
426.341	315.73
426.548	37.2
426.756	82.26
426.964	129.36
427.171	59.73
427.379	67.92
427.586	45.4
427.794	80.21
428.001	133.46
428.209	90.45
428.417	168.27
428.624	145.75
428.832	84.31
429.039	96.6
429.247	53.59
429.454	98.64
429.662	170.32
429.869	123.22
430.076	145.75
430.284	133.46
430.491	287.06
430.699	141.65
430.906	176.47
431.114	115.03
431.321	92.5
431.528	125.27
431.736	213.33
431.943	198.99
432.15	182.61
432.358	184.66
432.565	158.03
432.772	-11.95
432.979	260.43
433.187	123.22
433.394	231.76
433.601	229.71
433.808	266.58
434.016	295.25
434.223	248.15
434.43	270.67
434.637	250.19
434.844	282.96
435.052	274.77
435.259	276.82
435.466	323.92
435.673	289.1
435.88	252.24
436.087	336.21
436.294	270.67
436.501	340.3
436.708	252.24
436.915	342.35
437.122	360.78
437.329	233.81
437.537	262.48
437.743	342.35
437.95	393.55
438.157	340.3
438.364	418.13
438.571	344.4
438.778	463.18
438.985	442.7
439.192	411.98
439.399	436.56
439.606	405.84
439.813	528.72
440.02	573.77
440.227	715.08
440.433	559.44
440.64	551.24
440.847	473.42
441.054	694.6
441.261	661.84
441.467	530.77
441.674	688.46
441.881	657.74
442.088	680.27
442.294	807.24
442.501	794.95
442.708	735.56
442.914	696.65
443.121	831.82
443.328	852.3
443.534	901.45
443.741	964.93
443.948	846.15
444.154	999.75
444.361	1102.15
444.568	1032.52
444.774	977.22
444.981	1065.29
445.187	1214.79
445.394	1073.48
445.6	1136.96
445.807	1237.31
446.013	1169.73
446.22	1179.97
446.426	1444.16
446.633	1462.59
446.839	1608
447.046	1302.85
447.252	1573.18
447.459	1636.67
447.665	1499.45
447.871	1861.94
448.078	1945.91
448.284	1943.86
448.491	2017.59
448.697	1931.58
448.903	2070.84
449.11	2197.81
449.316	2148.66
449.522	2265.39
449.728	2283.83
449.935	2539.82
450.141	2523.44
450.347	2699.56
450.553	2525.49
450.76	2713.9
450.966	2830.63
451.172	2920.74
451.378	3197.22
451.584	3176.74
451.791	3383.59
451.997	3500.32
452.203	3420.45
452.409	3707.16
452.615	3877.15
452.821	3709.21
453.027	3594.53
453.233	4352.27
453.44	4215.06
453.646	4426
453.852	4542.74
454.058	4600.08
454.264	4882.7
454.47	5175.56
454.676	5241.09
454.882	5681.41
455.088	5458.18
455.294	5660.93
455.5	6031.61
455.705	6486.26
455.911	6435.06
456.117	6551.79
456.323	6879.47
456.529	6828.27
456.735	7637.22
456.941	7735.52
457.147	8007.9
457.352	8065.24
457.558	8562.9
457.764	8927.44
457.97	9021.64
458.176	9369.8
458.381	9863.36
458.587	10113.21
458.793	10657.97
458.999	10729.65
459.204	11931.81
459.41	12470.42
459.616	12071.07
459.821	12927.12
460.027	13459.59
460.233	14207.1
460.438	14188.67
460.644	14803.06
460.85	14942.32
461.055	15505.51
461.261	16425.05
461.466	15976.55
461.672	16197.73
461.878	18303.04
462.083	18012.23
462.289	18544.7
462.494	19345.45
462.7	19089.46
462.905	19656.75
463.111	20981.78
463.316	22149.12
463.522	22446.08
463.727	22992.89
463.932	24279.01
464.138	25198.55
464.343	25855.95
464.549	25700.3
464.754	28004.27
464.959	28932
465.165	28917.66
465.37	28977.05
465.575	29013.91
465.781	30697.34
465.986	31704.95
466.191	31289.21
466.397	31657.84
466.602	30824.32
466.807	32501.61
467.012	33193.82
467.218	33384.28
467.423	33607.51
467.628	34592.58
467.833	36357.93
468.038	35845.94
468.244	35022.65
468.449	36634.41
468.654	35987.25
