Data from USB4F104151__44__09-27-53-805.txt Node

Date: Wed Feb 26 09:27:53 EST 2025
User: louis
Spectrometer: USB4F10415
Trigger mode: 4
Integration Time (sec): 1.000000E-1
Scans to average: 1
Electric dark correction enabled: true
Nonlinearity correction enabled: false
Boxcar width: 0
XAxis mode: Wavelengths
Number of Pixels in Spectrum: 3648
>>>>>Begin Spectral Data<<<<<
178.204	-300.37
178.424	-300.37
178.644	-300.37
178.864	-380.24
179.084	-423.25
179.304	60.07
179.524	-15.7
179.744	68.27
179.964	39.59
180.184	58.03
180.404	8.87
180.624	-103.76
180.844	-23.89
181.064	-40.28
181.283	41.64
181.503	-97.62
181.723	4.78
181.943	-93.52
182.163	133.8
182.383	-5.46
182.602	125.61
182.822	62.12
183.042	55.98
183.262	-60.76
183.482	12.97
183.701	37.55
183.921	-3.41
184.141	4.78
184.361	62.12
184.58	62.12
184.8	98.99
185.02	21.16
185.239	96.94
185.459	105.13
185.679	137.9
185.898	-38.23
186.118	98.99
186.338	58.03
186.557	103.08
186.777	39.59
186.997	0.68
187.216	19.11
187.436	131.75
187.655	45.74
187.875	98.99
188.095	2.73
188.314	98.99
188.534	150.18
188.753	-25.94
188.973	180.9
189.192	139.94
189.412	-38.23
189.631	-21.85
189.851	70.31
190.07	156.33
190.29	-40.28
190.509	94.89
190.729	66.22
190.948	94.89
191.168	293.54
191.387	111.27
191.607	-13.65
191.826	62.12
192.045	35.5
192.265	27.31
192.484	78.51
192.704	70.31
192.923	-73.04
193.142	197.29
193.362	135.85
193.581	94.89
193.8	66.22
194.02	49.83
194.239	29.35
194.458	98.99
194.678	144.04
194.897	-19.8
195.116	62.12
195.335	70.31
195.555	119.46
195.774	-9.56
195.993	74.41
196.212	8.87
196.432	45.74
196.651	43.69
196.87	76.46
197.089	215.72
197.308	35.5
197.528	12.97
197.747	-99.67
197.966	78.51
198.185	86.7
198.404	76.46
198.623	70.31
198.842	70.31
199.062	66.22
199.281	43.69
199.5	123.56
199.719	72.36
199.938	68.27
200.157	90.79
200.376	107.18
200.595	133.8
200.814	53.93
201.033	74.41
201.252	117.42
201.471	86.7
201.69	29.35
201.909	70.31
202.128	117.42
202.347	84.65
202.566	37.55
202.785	10.92
203.004	4.78
203.223	230.06
203.442	92.84
203.661	-79.19
203.879	109.22
204.098	176.81
204.317	21.16
204.536	148.14
204.755	72.36
204.974	47.79
205.193	10.92
205.411	115.37
205.63	68.27
205.849	19.11
206.068	8.87
206.287	53.93
206.505	74.41
206.724	8.87
206.943	31.4
207.162	68.27
207.381	80.55
207.599	41.64
207.818	90.79
208.037	-7.51
208.255	80.55
208.474	58.03
208.693	29.35
208.911	39.59
209.13	74.41
209.349	150.18
209.567	127.66
209.786	133.8
210.005	101.03
210.223	94.89
210.442	-73.04
210.661	-3.41
210.879	86.7
211.098	-9.56
211.316	47.79
211.535	129.7
211.753	60.07
211.972	101.03
212.191	8.87
212.409	0.68
212.628	127.66
212.846	-23.89
213.065	43.69
213.283	150.18
213.502	33.45
213.72	90.79
213.938	51.88
214.157	-38.23
214.375	76.46
214.594	-25.94
214.812	66.22
215.031	84.65
215.249	21.16
215.467	68.27
215.686	58.03
215.904	90.79
216.122	41.64
216.341	98.99
216.559	123.56
216.778	107.18
216.996	135.85
217.214	37.55
217.432	-44.37
217.651	-17.75
217.869	47.79
218.087	74.41
218.306	-27.99
218.524	66.22
218.742	-38.23
218.96	150.18
219.179	68.27
219.397	39.59
219.615	185
219.833	68.27
220.051	-71
220.27	66.22
220.488	113.32
220.706	-23.89
220.924	37.55
221.142	29.35
221.36	94.89
221.578	111.27
221.796	90.79
222.015	66.22
222.233	90.79
222.451	178.86
222.669	8.87
222.887	154.28
223.105	2.73
223.323	62.12
223.541	17.07
223.759	55.98
223.977	86.7
224.195	127.66
224.413	197.29
224.631	84.65
224.849	117.42
225.067	199.34
225.285	37.55
225.503	76.46
225.721	-54.61
225.939	86.7
226.157	98.99
226.375	254.63
226.592	0.68
226.81	-23.89
227.028	137.9
227.246	133.8
227.464	111.27
227.682	96.94
227.9	168.62
228.117	43.69
228.335	103.08
228.553	103.08
228.771	84.65
228.989	68.27
229.206	103.08
229.424	31.4
229.642	12.97
229.86	19.11
230.077	74.41
230.295	33.45
230.513	70.31
230.731	111.27
230.948	223.91
231.166	160.42
231.384	29.35
231.601	19.11
231.819	182.95
232.037	-58.71
232.254	-13.65
232.472	76.46
232.689	49.83
232.907	111.27
233.125	-15.7
233.342	-32.08
233.56	66.22
233.777	12.97
233.995	103.08
234.213	156.33
234.43	8.87
234.648	35.5
234.865	33.45
235.083	107.18
235.3	74.41
235.518	80.55
235.735	113.32
235.953	103.08
236.17	31.4
236.388	4.78
236.605	64.17
236.822	68.27
237.04	133.8
237.257	62.12
237.475	-7.51
237.692	96.94
237.909	0.68
238.127	19.11
238.344	68.27
238.562	8.87
238.779	-56.66
238.996	29.35
239.214	78.51
239.431	94.89
239.648	-91.48
239.865	119.46
240.083	86.7
240.3	45.74
240.517	29.35
240.735	45.74
240.952	133.8
241.169	76.46
241.386	90.79
241.603	-5.46
241.821	-44.37
242.038	82.6
242.255	135.85
242.472	-17.75
242.689	119.46
242.907	115.37
243.124	80.55
243.341	66.22
243.558	-3.41
243.775	45.74
243.992	10.92
244.209	119.46
244.426	148.14
244.643	35.5
244.86	19.11
245.078	90.79
245.295	94.89
245.512	35.5
245.729	-3.41
245.946	33.45
246.163	90.79
246.38	70.31
246.597	70.31
246.814	62.12
247.031	12.97
247.248	-9.56
247.464	29.35
247.681	117.42
247.898	37.55
248.115	62.12
248.332	-34.13
248.549	193.19
248.766	144.04
248.983	133.8
249.2	127.66
249.417	123.56
249.633	27.31
249.85	103.08
250.067	119.46
250.284	41.64
250.501	60.07
250.717	53.93
250.934	-38.23
251.151	78.51
251.368	-1.37
251.585	29.35
251.801	55.98
252.018	-23.89
252.235	141.99
252.451	-7.51
252.668	0.68
252.885	133.8
253.102	88.75
253.318	-60.76
253.535	31.4
253.752	39.59
253.968	25.26
254.185	35.5
254.401	101.03
254.618	119.46
254.835	-11.61
255.051	172.71
255.268	35.5
255.484	33.45
255.701	70.31
255.917	78.51
256.134	37.55
256.351	10.92
256.567	21.16
256.784	29.35
257	12.97
257.217	68.27
257.433	94.89
257.65	51.88
257.866	115.37
258.082	17.07
258.299	37.55
258.515	58.03
258.732	27.31
258.948	60.07
259.165	51.88
259.381	45.74
259.597	90.79
259.814	60.07
260.03	45.74
260.246	43.69
260.463	148.14
260.679	137.9
260.895	62.12
261.112	101.03
261.328	60.07
261.544	-30.04
261.761	119.46
261.977	-11.61
262.193	-3.41
262.409	66.22
262.626	94.89
262.842	0.68
263.058	0.68
263.274	25.26
263.49	146.09
263.707	103.08
263.923	115.37
264.139	-30.04
264.355	107.18
264.571	94.89
264.787	51.88
265.004	144.04
265.22	21.16
265.436	-9.56
265.652	-23.89
265.868	58.03
266.084	-3.41
266.3	109.22
266.516	-21.85
266.732	189.1
266.948	39.59
267.164	51.88
267.38	94.89
267.596	96.94
267.812	168.62
268.028	76.46
268.244	17.07
268.46	68.27
268.676	84.65
268.892	105.13
269.108	8.87
269.324	10.92
269.54	-85.33
269.756	105.13
269.972	-30.04
270.188	43.69
270.403	-15.7
270.619	76.46
270.835	84.65
271.051	25.26
271.267	-7.51
271.483	15.02
271.698	66.22
271.914	66.22
272.13	27.31
272.346	86.7
272.562	144.04
272.777	90.79
272.993	25.26
273.209	10.92
273.425	129.7
273.64	-15.7
273.856	92.84
274.072	33.45
274.287	43.69
274.503	70.31
274.719	78.51
274.934	25.26
275.15	-52.56
275.366	-19.8
275.581	10.92
275.797	41.64
276.012	92.84
276.228	35.5
276.444	-19.8
276.659	111.27
276.875	0.68
277.09	19.11
277.306	4.78
277.521	55.98
277.737	-1.37
277.952	47.79
278.168	12.97
278.383	25.26
278.599	115.37
278.814	78.51
279.03	101.03
279.245	148.14
279.461	15.02
279.676	144.04
279.892	-46.42
280.107	-3.41
280.322	49.83
280.538	41.64
280.753	45.74
280.969	92.84
281.184	12.97
281.399	146.09
281.615	94.89
281.83	111.27
282.045	4.78
282.26	-32.08
282.476	125.61
282.691	62.12
282.906	58.03
283.122	101.03
283.337	27.31
283.552	129.7
283.767	27.31
283.983	119.46
284.198	17.07
284.413	29.35
284.628	-13.65
284.843	51.88
285.058	103.08
285.274	-17.75
285.489	-38.23
285.704	66.22
285.919	-7.51
286.134	37.55
286.349	4.78
286.564	-23.89
286.779	164.52
286.995	74.41
287.21	-13.65
287.425	68.27
287.64	-17.75
287.855	123.56
288.07	21.16
288.285	185
288.5	166.57
288.715	127.66
288.93	-7.51
289.145	-21.85
289.36	160.42
289.575	51.88
289.79	115.37
290.004	12.97
290.219	88.75
290.434	25.26
290.649	-34.13
290.864	12.97
291.079	33.45
291.294	4.78
291.509	35.5
291.724	62.12
291.938	107.18
292.153	158.38
292.368	29.35
292.583	115.37
292.798	66.22
293.012	27.31
293.227	96.94
293.442	-38.23
293.657	51.88
293.871	117.42
294.086	135.85
294.301	133.8
294.516	68.27
294.73	21.16
294.945	-7.51
295.16	41.64
295.374	127.66
295.589	137.9
295.804	29.35
296.018	70.31
296.233	176.81
296.447	74.41
296.662	43.69
296.877	103.08
297.091	92.84
297.306	45.74
297.52	2.73
297.735	17.07
297.949	23.21
298.164	60.07
298.378	8.87
298.593	15.02
298.807	33.45
299.022	12.97
299.236	141.99
299.451	-21.85
299.665	76.46
299.88	47.79
300.094	29.35
300.309	-9.56
300.523	101.03
300.737	49.83
300.952	37.55
301.166	64.17
301.381	0.68
301.595	27.31
301.809	51.88
302.024	10.92
302.238	23.21
302.452	139.94
302.667	101.03
302.881	182.95
303.095	152.23
303.309	117.42
303.524	-32.08
303.738	66.22
303.952	-50.52
304.166	101.03
304.381	-73.04
304.595	78.51
304.809	12.97
305.023	82.6
305.237	74.41
305.452	10.92
305.666	111.27
305.88	103.08
306.094	168.62
306.308	78.51
306.522	92.84
306.736	78.51
306.95	152.23
307.164	103.08
307.379	33.45
307.593	96.94
307.807	139.94
308.021	98.99
308.235	127.66
308.449	-83.28
308.663	58.03
308.877	238.25
309.091	4.78
309.305	72.36
309.519	-75.09
309.733	92.84
309.947	74.41
310.161	39.59
310.374	109.22
310.588	76.46
310.802	21.16
311.016	23.21
311.23	127.66
311.444	19.11
311.658	45.74
311.872	127.66
312.085	139.94
312.299	119.46
312.513	135.85
312.727	21.16
312.941	-52.56
313.154	105.13
313.368	35.5
313.582	70.31
313.796	29.35
314.009	58.03
314.223	70.31
314.437	94.89
314.651	129.7
314.864	-48.47
315.078	37.55
315.292	-32.08
315.505	10.92
315.719	25.26
315.933	10.92
316.146	-3.41
316.36	-3.41
316.573	66.22
316.787	53.93
317.001	62.12
317.214	-36.18
317.428	25.26
317.641	109.22
317.855	68.27
318.068	25.26
318.282	66.22
318.495	168.62
318.709	6.83
318.922	41.64
319.136	168.62
319.349	144.04
319.563	8.87
319.776	17.07
319.99	-13.65
320.203	78.51
320.417	70.31
320.63	107.18
320.843	139.94
321.057	19.11
321.27	-32.08
321.483	121.51
321.697	76.46
321.91	29.35
322.124	8.87
322.337	109.22
322.55	-40.28
322.763	119.46
322.977	-11.61
323.19	17.07
323.403	101.03
323.617	115.37
323.83	68.27
324.043	4.78
324.256	66.22
324.469	-30.04
324.683	131.75
324.896	74.41
325.109	27.31
325.322	31.4
325.535	82.6
325.748	111.27
325.962	58.03
326.175	53.93
326.388	131.75
326.601	141.99
326.814	80.55
327.027	49.83
327.24	133.8
327.453	-21.85
327.666	107.18
327.879	123.56
328.092	109.22
328.305	98.99
328.518	-89.43
328.731	43.69
328.944	12.97
329.157	123.56
329.37	15.02
329.583	156.33
329.796	152.23
330.009	-79.19
330.222	103.08
330.435	64.17
330.648	51.88
330.861	111.27
331.073	33.45
331.286	80.55
331.499	105.13
331.712	-27.99
331.925	-13.65
332.138	55.98
332.35	144.04
332.563	29.35
332.776	117.42
332.989	4.78
333.202	25.26
333.414	74.41
333.627	-48.47
333.84	-19.8
334.053	68.27
334.265	-73.04
334.478	78.51
334.691	49.83
334.903	12.97
335.116	-19.8
335.329	84.65
335.541	78.51
335.754	141.99
335.966	8.87
336.179	51.88
336.392	19.11
336.604	53.93
336.817	105.13
337.029	70.31
337.242	129.7
337.454	131.75
337.667	-40.28
337.88	185
338.092	10.92
338.305	62.12
338.517	-17.75
338.729	129.7
338.942	146.09
339.154	-15.7
339.367	-44.37
339.579	111.27
339.792	21.16
340.004	141.99
340.217	47.79
340.429	101.03
340.641	12.97
340.854	-46.42
341.066	29.35
341.278	113.32
341.491	133.8
341.703	90.79
341.915	29.35
342.128	94.89
342.34	-34.13
342.552	-66.9
342.764	119.46
342.977	74.41
343.189	21.16
343.401	51.88
343.613	-175.44
343.826	68.27
344.038	55.98
344.25	27.31
344.462	21.16
344.674	88.75
344.886	43.69
345.099	37.55
345.311	8.87
345.523	60.07
345.735	-93.52
345.947	31.4
346.159	17.07
346.371	119.46
346.583	53.93
346.795	209.58
347.007	72.36
347.219	43.69
347.431	19.11
347.643	156.33
347.855	-62.8
348.067	162.47
348.279	-25.94
348.491	-15.7
348.703	49.83
348.915	66.22
349.127	21.16
349.339	109.22
349.551	4.78
349.763	109.22
349.975	2.73
350.187	150.18
350.399	191.14
350.61	60.07
350.822	101.03
351.034	27.31
351.246	51.88
351.458	111.27
351.669	45.74
351.881	131.75
352.093	127.66
352.305	113.32
352.517	19.11
352.728	103.08
352.94	78.51
353.152	72.36
353.363	-7.51
353.575	113.32
353.787	131.75
353.999	29.35
354.21	191.14
354.422	-19.8
354.633	37.55
354.845	29.35
355.057	64.17
355.268	45.74
355.48	45.74
355.692	8.87
355.903	53.93
356.115	-11.61
356.326	-32.08
356.538	121.51
356.749	127.66
356.961	119.46
357.172	64.17
357.384	-27.99
357.595	201.38
357.807	-9.56
358.018	-32.08
358.23	37.55
358.441	127.66
358.653	43.69
358.864	-5.46
359.075	80.55
359.287	58.03
359.498	105.13
359.709	105.13
359.921	43.69
360.132	111.27
360.344	8.87
360.555	15.02
360.766	78.51
360.977	51.88
361.189	105.13
361.4	86.7
361.611	66.22
361.823	152.23
362.034	35.5
362.245	-68.95
362.456	49.83
362.667	88.75
362.879	29.35
363.09	78.51
363.301	62.12
363.512	98.99
363.723	49.83
363.935	41.64
364.146	86.7
364.357	78.51
364.568	80.55
364.779	12.97
364.99	146.09
365.201	49.83
365.412	152.23
365.623	-87.38
365.834	58.03
366.045	-19.8
366.256	115.37
366.467	15.02
366.678	-48.47
366.889	43.69
367.1	25.26
367.311	168.62
367.522	-62.8
367.733	68.27
367.944	111.27
368.155	84.65
368.366	84.65
368.577	113.32
368.788	105.13
368.999	39.59
369.209	62.12
369.42	238.25
369.631	152.23
369.842	103.08
370.053	60.07
370.264	70.31
370.474	-1.37
370.685	-5.46
370.896	21.16
371.107	82.6
371.317	66.22
371.528	62.12
371.739	96.94
371.95	84.65
372.16	135.85
372.371	-44.37
372.582	-27.99
372.792	119.46
373.003	101.03
373.214	115.37
373.424	21.16
373.635	-83.28
373.846	174.76
374.056	62.12
374.267	37.55
374.477	115.37
374.688	107.18
374.898	98.99
375.109	74.41
375.319	148.14
375.53	94.89
375.74	213.67
375.951	107.18
376.161	12.97
376.372	103.08
376.582	70.31
376.793	37.55
377.003	37.55
377.214	19.11
377.424	74.41
377.635	49.83
377.845	70.31
378.055	180.9
378.266	-58.71
378.476	82.6
378.686	33.45
378.897	72.36
379.107	105.13
379.317	88.75
379.528	33.45
379.738	39.59
379.948	2.73
380.158	64.17
380.369	17.07
380.579	60.07
380.789	10.92
380.999	96.94
381.21	115.37
381.42	144.04
381.63	27.31
381.84	180.9
382.05	90.79
382.261	78.51
382.471	117.42
382.681	4.78
382.891	129.7
383.101	21.16
383.311	-19.8
383.521	-44.37
383.731	82.6
383.941	148.14
384.151	105.13
384.361	111.27
384.571	21.16
384.781	45.74
384.991	207.53
385.201	131.75
385.411	70.31
385.621	107.18
385.831	68.27
386.041	62.12
386.251	68.27
386.461	101.03
386.671	125.61
386.881	80.55
387.091	27.31
387.301	90.79
387.511	2.73
387.72	49.83
387.93	29.35
388.14	35.5
388.35	76.46
388.56	164.52
388.769	90.79
388.979	90.79
389.189	-25.94
389.399	68.27
389.609	133.8
389.818	133.8
390.028	66.22
390.238	29.35
390.447	43.69
390.657	101.03
390.867	-5.46
391.076	19.11
391.286	45.74
391.496	37.55
391.705	-27.99
391.915	29.35
392.125	137.9
392.334	-3.41
392.544	109.22
392.753	41.64
392.963	4.78
393.172	74.41
393.382	35.5
393.591	193.19
393.801	2.73
394.01	162.47
394.22	154.28
394.429	-11.61
394.639	6.83
394.848	80.55
395.058	82.6
395.267	-38.23
395.477	68.27
395.686	125.61
395.895	189.1
396.105	131.75
396.314	111.27
396.524	90.79
396.733	35.5
396.942	162.47
397.152	39.59
397.361	107.18
397.57	62.12
397.78	4.78
397.989	27.31
398.198	180.9
398.407	98.99
398.617	51.88
398.826	4.78
399.035	25.26
399.244	72.36
399.453	58.03
399.663	45.74
399.872	166.57
400.081	33.45
400.29	111.27
400.499	-15.7
400.708	156.33
400.917	96.94
401.127	-27.99
401.336	74.41
401.545	217.77
401.754	41.64
401.963	113.32
402.172	74.41
402.381	4.78
402.59	70.31
402.799	45.74
403.008	103.08
403.217	68.27
403.426	131.75
403.635	-17.75
403.844	-3.41
404.053	86.7
404.262	-5.46
404.471	117.42
404.68	137.9
404.888	135.85
405.097	2.73
405.306	41.64
405.515	45.74
405.724	10.92
405.933	103.08
406.142	43.69
406.35	103.08
406.559	-27.99
406.768	111.27
406.977	125.61
407.185	105.13
407.394	115.37
407.603	-46.42
407.812	72.36
408.02	160.42
408.229	76.46
408.438	109.22
408.646	-56.66
408.855	21.16
409.064	33.45
409.272	-3.41
409.481	125.61
409.69	17.07
409.898	-11.61
410.107	78.51
410.315	101.03
410.524	53.93
410.733	49.83
410.941	37.55
411.15	172.71
411.358	107.18
411.567	101.03
411.775	37.55
411.984	70.31
412.192	111.27
412.401	51.88
412.609	180.9
412.818	127.66
413.026	49.83
413.234	37.55
413.443	31.4
413.651	37.55
413.86	-1.37
414.068	90.79
414.276	170.66
414.485	78.51
414.693	115.37
414.901	119.46
415.11	-15.7
415.318	94.89
415.526	41.64
415.734	135.85
415.943	37.55
416.151	111.27
416.359	17.07
416.567	78.51
416.776	94.89
416.984	107.18
417.192	178.86
417.4	94.89
417.608	64.17
417.817	12.97
418.025	70.31
418.233	96.94
418.441	35.5
418.649	-21.85
418.857	70.31
419.065	60.07
419.273	-34.13
419.481	92.84
419.689	47.79
419.897	-30.04
420.105	-56.66
420.313	121.51
420.521	148.14
420.729	135.85
420.937	90.79
421.145	12.97
421.353	135.85
421.561	176.81
421.769	60.07
421.977	8.87
422.185	86.7
422.393	148.14
422.601	152.23
422.809	123.56
423.017	70.31
423.224	78.51
423.432	107.18
423.64	88.75
423.848	160.42
424.056	-7.51
424.263	164.52
424.471	51.88
424.679	148.14
424.887	37.55
425.094	80.55
425.302	92.84
425.51	84.65
425.718	86.7
425.925	111.27
426.133	60.07
426.341	101.03
426.548	74.41
426.756	17.07
426.964	119.46
427.171	-17.75
427.379	10.92
427.586	82.6
427.794	101.03
428.001	150.18
428.209	94.89
428.417	178.86
428.624	43.69
428.832	119.46
429.039	131.75
429.247	94.89
429.454	154.28
429.662	168.62
429.869	113.32
430.076	162.47
430.284	197.29
430.491	156.33
430.699	180.9
430.906	209.58
431.114	94.89
431.321	103.08
431.528	84.65
431.736	115.37
431.943	115.37
432.15	111.27
432.358	203.43
432.565	185
432.772	94.89
432.979	185
433.187	154.28
433.394	182.95
433.601	154.28
433.808	268.97
434.016	205.48
434.223	180.9
434.43	256.68
434.637	185
434.844	305.83
435.052	271.01
435.259	340.65
435.466	262.82
435.673	250.53
435.88	182.95
436.087	344.74
436.294	340.65
436.501	389.8
436.708	332.45
436.915	258.73
437.122	346.79
437.329	316.07
437.537	406.18
437.743	297.64
437.95	420.52
438.157	354.98
438.364	324.26
438.571	361.13
438.778	434.85
438.985	449.19
439.192	500.39
439.399	363.17
439.606	471.72
439.813	545.44
440.02	512.67
440.227	610.98
440.433	473.76
440.64	551.59
440.847	545.44
441.054	500.39
441.261	658.08
441.467	613.03
441.674	514.72
441.881	709.28
442.088	617.12
442.294	602.79
442.501	780.96
442.708	780.96
442.914	742.05
443.121	848.54
443.328	844.45
443.534	979.61
443.741	877.21
443.948	793.25
444.154	950.94
444.361	1120.92
444.568	987.8
444.774	950.94
444.981	938.65
445.187	1067.67
445.394	1176.22
445.6	1186.46
445.807	1225.37
446.013	1182.36
446.22	1196.7
446.426	1307.29
446.633	1378.97
446.839	1495.7
447.046	1378.97
447.252	1516.18
447.459	1544.85
447.665	1555.09
447.871	1659.54
448.078	1856.14
448.284	1821.33
448.491	1876.62
448.697	2011.79
448.903	1909.39
449.11	2083.47
449.316	2189.96
449.522	2169.48
449.728	2249.35
449.935	2411.14
450.141	2368.13
450.347	2617.99
450.553	2513.54
450.76	2583.17
450.966	2771.58
451.172	2871.93
451.378	2951.81
451.584	3119.74
451.791	3158.65
451.997	3254.9
452.203	3560.05
452.409	3564.15
452.615	3756.66
452.821	3641.97
453.027	3750.51
453.233	4026.99
453.44	3852.91
453.646	4211.31
453.852	4301.42
454.058	4481.64
454.264	4657.76
454.47	5110.36
454.676	5040.73
454.882	5612.12
455.088	5208.67
455.294	5472.86
455.5	5853.78
455.705	6249.04
455.911	6195.79
456.117	6378.06
456.323	6707.78
456.529	6654.53
456.735	7158.33
456.941	7420.47
457.147	7723.57
457.352	7891.51
457.558	8174.13
457.764	8442.41
457.97	8806.95
458.176	9095.71
458.381	9576.98
458.587	9671.19
458.793	10146.32
458.999	10236.43
459.204	11553.27
459.41	11862.52
459.616	11731.45
459.821	12366.32
460.027	12909.03
460.233	13492.7
460.438	13574.62
460.644	14365.14
460.85	14504.4
461.055	14930.37
461.261	15595.96
461.466	15489.47
461.672	15923.64
461.878	17764.76
462.083	17506.72
462.289	17510.82
462.494	18487.7
462.7	18489.74
462.905	18657.68
463.111	20308.34
463.316	21639.52
463.522	21772.64
463.727	22387.03
463.932	23243.08
464.138	23949.63
464.343	24936.75
464.549	25303.34
464.754	27019.53
464.959	27648.26
465.165	28154.11
465.37	27644.16
465.575	28076.29
465.781	29714.66
465.986	30916.82
466.191	30357.72
466.397	30468.31
466.602	29991.14
466.807	31697.1
467.012	31760.58
467.218	32614.58
467.423	32620.73
467.628	33325.23
467.833	35379.34
468.038	34658.46
468.244	33888.42
468.449	36049.03
468.654	34945.17
