Data from USB4F104151__31__10-24-22-541.txt Node

Date: Wed Feb 26 10:24:22 EST 2025
User: louis
Spectrometer: USB4F10415
Trigger mode: 4
Integration Time (sec): 1.000000E-1
Scans to average: 1
Electric dark correction enabled: true
Nonlinearity correction enabled: false
Boxcar width: 0
XAxis mode: Wavelengths
Number of Pixels in Spectrum: 3648
>>>>>Begin Spectral Data<<<<<
178.204	-384.16
178.424	-384.16
178.644	-384.16
178.864	-351.4
179.084	-341.16
179.304	31.57
179.524	-21.67
179.744	39.76
179.964	-29.87
180.184	43.86
180.404	-13.48
180.624	-122.02
180.844	13.14
181.064	-21.67
181.283	56.15
181.503	-17.58
181.723	41.81
181.943	-115.88
182.163	66.39
182.383	35.67
182.602	97.11
182.822	172.88
183.042	33.62
183.262	56.15
183.482	-58.54
183.701	35.67
183.921	7
184.141	-58.54
184.361	-17.58
184.58	-31.91
184.8	29.52
185.02	0.85
185.239	119.64
185.459	60.24
185.679	172.88
185.898	-64.68
186.118	19.29
186.338	66.39
186.557	101.2
186.777	-42.15
186.997	-23.72
187.216	0.85
187.436	205.65
187.655	58.2
187.875	93.01
188.095	-40.11
188.314	88.92
188.534	95.06
188.753	13.14
188.973	107.35
189.192	80.72
189.412	-13.48
189.631	60.24
189.851	76.63
190.07	97.11
190.29	-130.22
190.509	-46.25
190.729	27.48
190.948	113.49
191.168	176.98
191.387	101.2
191.607	-60.59
191.826	72.53
192.045	-13.48
192.265	-44.2
192.484	7
192.704	68.44
192.923	25.43
193.142	174.93
193.362	142.16
193.581	162.64
193.8	2.9
194.02	103.25
194.239	78.68
194.458	43.86
194.678	58.2
194.897	41.81
195.116	50
195.335	86.87
195.555	123.73
195.774	-48.3
195.993	56.15
196.212	7
196.432	-7.34
196.651	23.38
196.87	68.44
197.089	226.13
197.308	80.72
197.528	119.64
197.747	-13.48
197.966	62.29
198.185	150.36
198.404	-33.96
198.623	90.96
198.842	162.64
199.062	39.76
199.281	50
199.5	86.87
199.719	2.9
199.938	56.15
200.157	111.44
200.376	103.25
200.595	43.86
200.814	52.05
201.033	-15.53
201.252	138.07
201.471	62.29
201.69	131.92
201.909	17.24
202.128	88.92
202.347	168.79
202.566	-52.39
202.785	-91.31
203.004	-15.53
203.223	240.47
203.442	27.48
203.661	-42.15
203.879	84.82
204.098	162.64
204.317	-42.15
204.536	25.43
204.755	66.39
204.974	50
205.193	97.11
205.411	160.59
205.63	58.2
205.849	105.3
206.068	-56.49
206.287	37.72
206.505	176.98
206.724	27.48
206.943	15.19
207.162	43.86
207.381	154.45
207.599	74.58
207.818	21.33
208.037	0.85
208.255	0.85
208.474	138.07
208.693	31.57
208.911	-17.58
209.13	105.3
209.349	115.54
209.567	109.4
209.786	129.88
210.005	52.05
210.223	-29.87
210.442	-95.4
210.661	35.67
210.879	43.86
211.098	25.43
211.316	76.63
211.535	13.14
211.753	17.24
211.972	27.48
212.191	33.62
212.409	-25.77
212.628	121.68
212.846	-25.77
213.065	93.01
213.283	121.68
213.502	52.05
213.72	0.85
213.938	68.44
214.157	29.52
214.375	142.16
214.594	15.19
214.812	35.67
215.031	52.05
215.249	56.15
215.467	-60.59
215.686	43.86
215.904	60.24
216.122	33.62
216.341	248.66
216.559	78.68
216.778	150.36
216.996	88.92
217.214	45.91
217.432	2.9
217.651	-29.87
217.869	109.4
218.087	43.86
218.306	41.81
218.524	62.29
218.742	-38.06
218.96	142.16
219.179	13.14
219.397	2.9
219.615	187.22
219.833	82.77
220.051	-17.58
220.27	70.48
220.488	84.82
220.706	76.63
220.924	31.57
221.142	23.38
221.36	13.14
221.578	136.02
221.796	31.57
222.015	-13.48
222.233	-19.63
222.451	109.4
222.669	2.9
222.887	84.82
223.105	-25.77
223.323	52.05
223.541	-64.68
223.759	33.62
223.977	-3.24
224.195	191.31
224.413	158.55
224.631	68.44
224.849	54.1
225.067	277.33
225.285	23.38
225.503	9.05
225.721	-70.83
225.939	95.06
226.157	93.01
226.375	152.4
226.592	-36.01
226.81	80.72
227.028	125.78
227.246	140.12
227.464	64.34
227.682	119.64
227.9	29.52
228.117	33.62
228.335	88.92
228.553	9.05
228.771	80.72
228.989	54.1
229.206	123.73
229.424	-74.92
229.642	-36.01
229.86	-52.39
230.077	117.59
230.295	0.85
230.513	56.15
230.731	29.52
230.948	222.03
231.166	105.3
231.384	27.48
231.601	2.9
231.819	121.68
232.037	-66.73
232.254	33.62
232.472	0.85
232.689	0.85
232.907	142.16
233.125	21.33
233.342	-13.48
233.56	-66.73
233.777	50
233.995	88.92
234.213	11.09
234.43	50
234.648	45.91
234.865	72.53
235.083	74.58
235.3	121.68
235.518	105.3
235.735	150.36
235.953	74.58
236.17	-38.06
236.388	-9.39
236.605	82.77
236.822	101.2
237.04	101.2
237.257	62.29
237.475	17.24
237.692	41.81
237.909	95.06
238.127	-23.72
238.344	76.63
238.562	50
238.779	15.19
238.996	-81.07
239.214	90.96
239.431	29.52
239.648	21.33
239.865	86.87
240.083	45.91
240.3	-7.34
240.517	56.15
240.735	-3.24
240.952	101.2
241.169	133.97
241.386	154.45
241.603	15.19
241.821	-70.83
242.038	70.48
242.255	127.83
242.472	31.57
242.689	25.43
242.907	76.63
243.124	45.91
243.341	21.33
243.558	-52.39
243.775	45.91
243.992	-31.91
244.209	86.87
244.426	256.85
244.643	13.14
244.86	56.15
245.078	60.24
245.295	99.16
245.512	70.48
245.729	-79.02
245.946	138.07
246.163	-7.34
246.38	9.05
246.597	82.77
246.814	11.09
247.031	60.24
247.248	62.29
247.464	86.87
247.681	125.78
247.898	-31.91
248.115	115.54
248.332	-54.44
248.549	164.69
248.766	131.92
248.983	43.86
249.2	21.33
249.417	0.85
249.633	33.62
249.85	117.59
250.067	13.14
250.284	21.33
250.501	66.39
250.717	56.15
250.934	-15.53
251.151	33.62
251.368	-81.07
251.585	62.29
251.801	84.82
252.018	-1.19
252.235	129.88
252.451	15.19
252.668	84.82
252.885	72.53
253.102	13.14
253.318	19.29
253.535	27.48
253.752	-33.96
253.968	45.91
254.185	-58.54
254.401	-29.87
254.618	68.44
254.835	19.29
255.051	107.35
255.268	74.58
255.484	27.48
255.701	39.76
255.917	111.44
256.134	-46.25
256.351	50
256.567	-85.16
256.784	72.53
257	-89.26
257.217	121.68
257.433	144.21
257.65	11.09
257.866	125.78
258.082	-79.02
258.299	29.52
258.515	50
258.732	-33.96
258.948	21.33
259.165	41.81
259.381	21.33
259.597	95.06
259.814	97.11
260.03	50
260.246	50
260.463	131.92
260.679	97.11
260.895	31.57
261.112	95.06
261.328	2.9
261.544	-1.19
261.761	119.64
261.977	-38.06
262.193	-52.39
262.409	64.34
262.626	56.15
262.842	35.67
263.058	45.91
263.274	15.19
263.49	56.15
263.707	78.68
263.923	76.63
264.139	-11.43
264.355	62.29
264.571	105.3
264.787	64.34
265.004	68.44
265.22	-54.44
265.436	23.38
265.652	52.05
265.868	35.67
266.084	-42.15
266.3	-7.34
266.516	-81.07
266.732	33.62
266.948	47.96
267.164	33.62
267.38	136.02
267.596	133.97
267.812	138.07
268.028	39.76
268.244	-64.68
268.46	80.72
268.676	47.96
268.892	-9.39
269.108	-29.87
269.324	-11.43
269.54	-3.24
269.756	111.44
269.972	-21.67
270.188	84.82
270.403	-21.67
270.619	-5.29
270.835	90.96
271.051	-38.06
271.267	72.53
271.483	19.29
271.698	115.54
271.914	97.11
272.13	105.3
272.346	15.19
272.562	19.29
272.777	109.4
272.993	45.91
273.209	72.53
273.425	56.15
273.64	-38.06
273.856	97.11
274.072	-33.96
274.287	56.15
274.503	127.83
274.719	125.78
274.934	60.24
275.15	-85.16
275.366	-17.58
275.581	33.62
275.797	25.43
276.012	11.09
276.228	-7.34
276.444	125.78
276.659	54.1
276.875	-36.01
277.09	56.15
277.306	15.19
277.521	37.72
277.737	-13.48
277.952	95.06
278.168	47.96
278.383	86.87
278.599	-5.29
278.814	43.86
279.03	0.85
279.245	148.31
279.461	52.05
279.676	138.07
279.892	4.95
280.107	-48.3
280.322	-46.25
280.538	93.01
280.753	74.58
280.969	27.48
281.184	90.96
281.399	193.36
281.615	31.57
281.83	31.57
282.045	-15.53
282.26	-79.02
282.476	78.68
282.691	97.11
282.906	60.24
283.122	113.49
283.337	-9.39
283.552	84.82
283.767	-33.96
283.983	113.49
284.198	2.9
284.413	131.92
284.628	-50.35
284.843	29.52
285.058	105.3
285.274	-48.3
285.489	47.96
285.704	86.87
285.919	-105.64
286.134	84.82
286.349	60.24
286.564	21.33
286.779	176.98
286.995	2.9
287.21	-56.49
287.425	136.02
287.64	41.81
287.855	62.29
288.07	-1.19
288.285	76.63
288.5	97.11
288.715	107.35
288.93	66.39
289.145	33.62
289.36	84.82
289.575	33.62
289.79	179.03
290.004	54.1
290.219	125.78
290.434	-13.48
290.649	-21.67
290.864	76.63
291.079	-101.55
291.294	21.33
291.509	25.43
291.724	37.72
291.938	-19.63
292.153	95.06
292.368	17.24
292.583	58.2
292.798	70.48
293.012	56.15
293.227	78.68
293.442	43.86
293.657	43.86
293.871	80.72
294.086	47.96
294.301	265.04
294.516	107.35
294.73	-1.19
294.945	15.19
295.16	-33.96
295.374	97.11
295.589	148.31
295.804	9.05
296.018	23.38
296.233	101.2
296.447	-7.34
296.662	-58.54
296.877	54.1
297.091	99.16
297.306	23.38
297.52	-11.43
297.735	41.81
297.949	-1.19
298.164	66.39
298.378	2.9
298.593	-44.2
298.807	-29.87
299.022	72.53
299.236	125.78
299.451	-23.72
299.665	-15.53
299.88	-15.53
300.094	101.2
300.309	4.95
300.523	29.52
300.737	-19.63
300.952	105.3
301.166	84.82
301.381	-113.83
301.595	-9.39
301.809	33.62
302.024	29.52
302.238	39.76
302.452	123.73
302.667	82.77
302.881	136.02
303.095	58.2
303.309	123.73
303.524	88.92
303.738	50
303.952	52.05
304.166	117.59
304.381	-91.31
304.595	140.12
304.809	4.95
305.023	-13.48
305.237	27.48
305.452	-27.82
305.666	41.81
305.88	62.29
306.094	183.12
306.308	123.73
306.522	187.22
306.736	154.45
306.95	97.11
307.164	35.67
307.379	-5.29
307.593	156.5
307.807	31.57
308.021	39.76
308.235	4.95
308.449	-17.58
308.663	2.9
308.877	228.18
309.091	76.63
309.305	56.15
309.519	-66.73
309.733	164.69
309.947	-64.68
310.161	105.3
310.374	111.44
310.588	99.16
310.802	0.85
311.016	35.67
311.23	74.58
311.444	29.52
311.658	13.14
311.872	84.82
312.085	150.36
312.299	86.87
312.513	125.78
312.727	88.92
312.941	-38.06
313.154	58.2
313.368	62.29
313.582	103.25
313.796	37.72
314.009	15.19
314.223	93.01
314.437	54.1
314.651	168.79
314.864	-27.82
315.078	-3.24
315.292	-62.63
315.505	52.05
315.719	19.29
315.933	105.3
316.146	25.43
316.36	0.85
316.573	107.35
316.787	90.96
317.001	21.33
317.214	-117.93
317.428	41.81
317.641	-46.25
317.855	68.44
318.068	4.95
318.282	54.1
318.495	189.27
318.709	129.88
318.922	68.44
319.136	156.5
319.349	152.4
319.563	-38.06
319.776	125.78
319.99	-33.96
320.203	50
320.417	74.58
320.63	74.58
320.843	138.07
321.057	70.48
321.27	95.06
321.483	35.67
321.697	164.69
321.91	29.52
322.124	27.48
322.337	88.92
322.55	2.9
322.763	45.91
322.977	-38.06
323.19	-21.67
323.403	35.67
323.617	54.1
323.83	133.97
324.043	7
324.256	31.57
324.469	-42.15
324.683	78.68
324.896	88.92
325.109	35.67
325.322	-83.11
325.535	154.45
325.748	82.77
325.962	-1.19
326.175	23.38
326.388	86.87
326.601	136.02
326.814	111.44
327.027	99.16
327.24	176.98
327.453	-58.54
327.666	70.48
327.879	99.16
328.092	84.82
328.305	97.11
328.518	-15.53
328.731	-9.39
328.944	47.96
329.157	33.62
329.37	70.48
329.583	222.03
329.796	117.59
330.009	-56.49
330.222	154.45
330.435	62.29
330.648	95.06
330.861	29.52
331.073	140.12
331.286	133.97
331.499	-3.24
331.712	-89.26
331.925	17.24
332.138	47.96
332.35	101.2
332.563	-25.77
332.776	74.58
332.989	-33.96
333.202	58.2
333.414	109.4
333.627	19.29
333.84	29.52
334.053	50
334.265	29.52
334.478	17.24
334.691	-5.29
334.903	74.58
335.116	17.24
335.329	19.29
335.541	144.21
335.754	205.65
335.966	-11.43
336.179	39.76
336.392	0.85
336.604	56.15
336.817	105.3
337.029	56.15
337.242	7
337.454	127.83
337.667	-15.53
337.88	193.36
338.092	37.72
338.305	68.44
338.517	-38.06
338.729	86.87
338.942	176.98
339.154	-62.63
339.367	-38.06
339.579	160.59
339.792	-46.25
340.004	23.38
340.217	2.9
340.429	66.39
340.641	9.05
340.854	-42.15
341.066	2.9
341.278	168.79
341.491	201.55
341.703	54.1
341.915	-7.34
342.128	52.05
342.34	27.48
342.552	17.24
342.764	95.06
342.977	103.25
343.189	56.15
343.401	84.82
343.613	-33.96
343.826	-1.19
344.038	7
344.25	-3.24
344.462	-17.58
344.674	99.16
344.886	2.9
345.099	-7.34
345.311	50
345.523	19.29
345.735	-64.68
345.947	7
346.159	80.72
346.371	9.05
346.583	64.34
346.795	185.17
347.007	4.95
347.219	35.67
347.431	50
347.643	189.27
347.855	-7.34
348.067	95.06
348.279	-15.53
348.491	66.39
348.703	90.96
348.915	19.29
349.127	-33.96
349.339	74.58
349.551	11.09
349.763	99.16
349.975	47.96
350.187	146.26
350.399	142.16
350.61	105.3
350.822	-56.49
351.034	121.68
351.246	99.16
351.458	17.24
351.669	70.48
351.881	7
352.093	105.3
352.305	86.87
352.517	19.29
352.728	195.41
352.94	82.77
353.152	64.34
353.363	52.05
353.575	66.39
353.787	174.93
353.999	86.87
354.21	105.3
354.422	11.09
354.633	52.05
354.845	45.91
355.057	-46.25
355.268	-1.19
355.48	58.2
355.692	-93.35
355.903	-27.82
356.115	7
356.326	-44.2
356.538	181.07
356.749	72.53
356.961	29.52
357.172	58.2
357.384	-21.67
357.595	193.36
357.807	35.67
358.018	2.9
358.23	62.29
358.441	121.68
358.653	35.67
358.864	68.44
359.075	-3.24
359.287	127.83
359.498	35.67
359.709	148.31
359.921	95.06
360.132	56.15
360.344	76.63
360.555	-1.19
360.766	7
360.977	11.09
361.189	160.59
361.4	15.19
361.611	76.63
361.823	93.01
362.034	27.48
362.245	-56.49
362.456	56.15
362.667	123.73
362.879	-13.48
363.09	66.39
363.301	52.05
363.512	-40.11
363.723	-40.11
363.935	60.24
364.146	166.74
364.357	19.29
364.568	35.67
364.779	-99.5
364.99	43.86
365.201	-29.87
365.412	160.59
365.623	-17.58
365.834	84.82
366.045	54.1
366.256	129.88
366.467	97.11
366.678	80.72
366.889	121.68
367.1	-9.39
367.311	103.25
367.522	13.14
367.733	97.11
367.944	60.24
368.155	21.33
368.366	144.21
368.577	121.68
368.788	133.97
368.999	29.52
369.209	142.16
369.42	201.55
369.631	222.03
369.842	60.24
370.053	47.96
370.264	123.73
370.474	19.29
370.685	72.53
370.896	33.62
371.107	121.68
371.317	107.35
371.528	9.05
371.739	127.83
371.95	90.96
372.16	31.57
372.371	-66.73
372.582	-42.15
372.792	88.92
373.003	144.21
373.214	103.25
373.424	97.11
373.635	-1.19
373.846	66.39
374.056	39.76
374.267	90.96
374.477	123.73
374.688	4.95
374.898	109.4
375.109	66.39
375.319	19.29
375.53	80.72
375.74	90.96
375.951	76.63
376.161	86.87
376.372	35.67
376.582	64.34
376.793	138.07
377.003	-70.83
377.214	7
377.424	23.38
377.635	13.14
377.845	62.29
378.055	158.55
378.266	-36.01
378.476	15.19
378.686	7
378.897	78.68
379.107	82.77
379.317	127.83
379.528	35.67
379.738	105.3
379.948	-74.92
380.158	101.2
380.369	39.76
380.579	101.2
380.789	-17.58
380.999	117.59
381.21	56.15
381.42	123.73
381.63	27.48
381.84	166.74
382.05	148.31
382.261	68.44
382.471	113.49
382.681	-23.72
382.891	160.59
383.101	62.29
383.311	-38.06
383.521	7
383.731	93.01
383.941	164.69
384.151	97.11
384.361	64.34
384.571	93.01
384.781	74.58
384.991	176.98
385.201	156.5
385.411	105.3
385.621	62.29
385.831	136.02
386.041	70.48
386.251	54.1
386.461	105.3
386.671	41.81
386.881	47.96
387.091	119.64
387.301	113.49
387.511	-27.82
387.72	21.33
387.93	119.64
388.14	-62.63
388.35	76.63
388.56	82.77
388.769	95.06
388.979	154.45
389.189	-3.24
389.399	33.62
389.609	117.59
389.818	93.01
390.028	35.67
390.238	66.39
390.447	-36.01
390.657	86.87
390.867	7
391.076	-87.21
391.286	43.86
391.496	21.33
391.705	11.09
391.915	82.77
392.125	72.53
392.334	41.81
392.544	113.49
392.753	-40.11
392.963	-25.77
393.172	52.05
393.382	13.14
393.591	142.16
393.801	0.85
394.01	113.49
394.22	123.73
394.429	66.39
394.639	-1.19
394.848	101.2
395.058	99.16
395.267	60.24
395.477	78.68
395.686	93.01
395.895	183.12
396.105	240.47
396.314	62.29
396.524	60.24
396.733	-1.19
396.942	84.82
397.152	101.2
397.361	156.5
397.57	68.44
397.78	19.29
397.989	129.88
398.198	189.27
398.407	25.43
398.617	50
398.826	31.57
399.035	7
399.244	103.25
399.453	-13.48
399.663	21.33
399.872	103.25
400.081	-19.63
400.29	164.69
400.499	86.87
400.708	64.34
400.917	-9.39
401.127	0.85
401.336	29.52
401.545	174.93
401.754	152.4
401.963	103.25
402.172	39.76
402.381	-58.54
402.59	25.43
402.799	123.73
403.008	119.64
403.217	72.53
403.426	97.11
403.635	-46.25
403.844	4.95
404.053	37.72
404.262	60.24
404.471	211.79
404.68	88.92
404.888	56.15
405.097	35.67
405.306	47.96
405.515	154.45
405.724	15.19
405.933	41.81
406.142	103.25
406.35	136.02
406.559	31.57
406.768	41.81
406.977	113.49
407.185	11.09
407.394	93.01
407.603	15.19
407.812	95.06
408.02	97.11
408.229	-13.48
408.438	4.95
408.646	13.14
408.855	21.33
409.064	54.1
409.272	76.63
409.481	45.91
409.69	-36.01
409.898	-122.02
410.107	11.09
410.315	133.97
410.524	47.96
410.733	66.39
410.941	19.29
411.15	68.44
411.358	142.16
411.567	125.78
411.775	37.72
411.984	25.43
412.192	78.68
412.401	-52.39
412.609	107.35
412.818	183.12
413.026	64.34
413.234	-7.34
413.443	62.29
413.651	-13.48
413.86	19.29
414.068	131.92
414.276	140.12
414.485	56.15
414.693	217.94
414.901	168.79
415.11	11.09
415.318	47.96
415.526	33.62
415.734	131.92
415.943	15.19
416.151	168.79
416.359	68.44
416.567	115.54
416.776	72.53
416.984	90.96
417.192	195.41
417.4	54.1
417.608	129.88
417.817	35.67
418.025	62.29
418.233	103.25
418.441	9.05
418.649	-33.96
418.857	103.25
419.065	219.99
419.273	19.29
419.481	23.38
419.689	13.14
419.897	-21.67
420.105	19.29
420.313	7
420.521	136.02
420.729	156.5
420.937	68.44
421.145	-7.34
421.353	138.07
421.561	131.92
421.769	-17.58
421.977	25.43
422.185	80.72
422.393	68.44
422.601	125.78
422.809	78.68
423.017	119.64
423.224	90.96
423.432	76.63
423.64	54.1
423.848	138.07
424.056	21.33
424.263	176.98
424.471	35.67
424.679	222.03
424.887	0.85
425.094	119.64
425.302	142.16
425.51	21.33
425.718	93.01
425.925	109.4
426.133	0.85
426.341	152.4
426.548	37.72
426.756	115.54
426.964	176.98
427.171	27.48
427.379	166.74
427.586	119.64
427.794	185.17
428.001	93.01
428.209	168.79
428.417	129.88
428.624	115.54
428.832	230.23
429.039	156.5
429.247	88.92
429.454	84.82
429.662	215.89
429.869	133.97
430.076	70.48
430.284	80.72
430.491	224.08
430.699	107.35
430.906	191.31
431.114	84.82
431.321	162.64
431.528	86.87
431.736	164.69
431.943	228.18
432.15	152.4
432.358	226.13
432.565	265.04
432.772	58.2
432.979	228.18
433.187	84.82
433.394	232.27
433.601	252.75
433.808	285.52
434.016	179.03
434.223	230.23
434.43	283.47
434.637	308.05
434.844	336.72
435.052	217.94
435.259	295.76
435.466	228.18
435.673	340.82
435.88	299.86
436.087	324.43
436.294	367.44
436.501	297.81
436.708	322.38
436.915	310.1
437.122	377.68
437.329	316.24
437.537	295.76
437.743	322.38
437.95	424.78
438.157	441.17
438.364	342.86
438.571	336.72
438.778	451.41
438.985	410.45
439.192	447.31
439.399	410.45
439.606	418.64
439.813	482.13
440.02	525.13
440.227	645.96
440.433	574.28
440.64	504.65
440.847	459.6
441.054	584.52
441.261	754.51
441.467	662.35
441.674	570.19
441.881	736.07
442.088	609.1
442.294	750.41
442.501	822.09
442.708	883.53
442.914	846.66
443.121	918.34
443.328	848.71
443.534	940.87
443.741	924.49
443.948	844.62
444.154	961.35
444.361	1098.56
444.568	998.21
444.774	983.88
444.981	1020.74
445.187	1198.92
445.394	1209.15
445.6	1108.8
445.807	1356.61
446.013	1319.75
446.22	1184.58
446.426	1411.9
446.633	1518.4
446.839	1725.24
447.046	1391.42
447.252	1649.47
447.459	1674.04
447.665	1596.22
447.871	1923.9
448.078	1997.62
448.284	1934.14
448.491	2011.96
448.697	2224.95
448.903	2255.67
449.11	2196.28
449.316	2198.32
449.522	2351.92
449.728	2589.49
449.935	2622.25
450.141	2581.29
450.347	2894.63
450.553	2683.69
450.76	2859.82
450.966	3013.42
451.172	2988.84
451.378	3230.5
451.584	3177.25
451.791	3490.59
451.997	3498.78
452.203	3623.71
452.409	3885.85
452.615	3988.25
452.821	3902.23
453.027	4053.78
453.233	4379.41
453.44	4240.15
453.646	4592.4
453.852	4659.98
454.058	4850.44
454.264	5071.62
454.47	5249.8
454.676	5425.92
454.882	5827.32
455.088	5761.79
455.294	5845.76
455.5	6365.94
455.705	6576.88
455.911	6570.74
456.117	6890.22
456.323	6980.33
456.529	7037.67
456.735	7858.91
456.941	7852.77
457.147	8073.95
457.352	8573.65
457.558	8774.35
457.764	9200.33
457.97	9237.19
458.176	9773.76
458.381	10345.14
458.587	10615.48
458.793	11111.08
458.999	10982.06
459.204	12452.5
459.41	12753.55
459.616	12540.57
459.821	13472.39
460.027	13976.19
460.233	14377.59
460.438	14766.71
460.644	15438.44
460.85	15221.36
461.055	16124.51
461.261	16990.8
461.466	16570.97
461.672	17039.95
461.878	19053.11
462.083	18614.84
462.289	19151.41
462.494	20142.63
462.7	20202.02
462.905	20331.04
463.111	21914.12
463.316	23128.56
463.522	23284.21
463.727	24222.18
463.932	25594.32
464.138	25930.19
464.343	27355.57
464.549	27183.54
464.754	29061.53
464.959	30028.17
465.165	30294.41
465.37	30318.98
465.575	30433.67
465.781	32369
465.986	33503.57
466.191	32815.46
466.397	32872.8
466.602	32313.7
466.807	34552.13
467.012	34500.93
467.218	35367.23
467.423	35141.95
467.628	36264.24
467.833	38510.86
468.038	37474.59
468.244	36598.05
468.449	38355.21
468.654	37818.64
468.859	37644.57
469.064	38232.33
469.269	36931.87
469.474	37099.81
469.679	38682.89
