Data from USB4F104151__85__11-31-31-760.txt Node

Date: Wed Feb 26 11:31:31 EST 2025
User: louis
Spectrometer: USB4F10415
Trigger mode: 4
Integration Time (sec): 1.000000E-1
Scans to average: 1
Electric dark correction enabled: true
Nonlinearity correction enabled: false
Boxcar width: 0
XAxis mode: Wavelengths
Number of Pixels in Spectrum: 3648
>>>>>Begin Spectral Data<<<<<
178.204	-379.39
178.424	-379.39
178.644	-379.39
178.864	-408.06
179.084	-426.49
179.304	69.12
179.524	-12.8
179.744	30.21
179.964	-25.09
180.184	-16.9
180.404	24.06
180.624	-25.09
180.844	26.11
181.064	-35.33
181.283	9.73
181.503	-61.95
181.723	17.92
181.943	-102.91
182.163	206.33
182.383	-55.81
182.602	101.89
182.822	175.61
183.042	95.74
183.262	-39.42
183.482	5.63
183.701	110.08
183.921	48.64
184.141	-74.24
184.361	91.65
184.58	54.78
184.8	50.69
185.02	-76.29
185.239	110.08
185.459	73.21
185.679	155.13
185.898	-53.76
186.118	161.28
186.338	30.21
186.557	126.46
186.777	-43.52
186.997	11.78
187.216	-10.75
187.436	230.91
187.655	91.65
187.875	132.61
188.095	-6.66
188.314	87.55
188.534	179.71
188.753	5.63
188.973	136.7
189.192	163.33
189.412	24.06
189.631	136.7
189.851	69.12
190.07	183.81
190.29	-18.94
190.509	13.82
190.729	52.74
190.948	161.28
191.168	275.96
191.387	101.89
191.607	54.78
191.826	71.17
192.045	62.98
192.265	77.31
192.484	91.65
192.704	19.97
192.923	-64
193.142	192
193.362	138.75
193.581	122.37
193.8	56.83
194.02	105.98
194.239	62.98
194.458	69.12
194.678	28.16
194.897	9.73
195.116	89.6
195.335	54.78
195.555	62.98
195.774	81.41
195.993	196.09
196.212	38.4
196.432	-14.85
196.651	38.4
196.87	-8.7
197.089	251.39
197.308	112.13
197.528	108.03
197.747	-64
197.966	24.06
198.185	83.45
198.404	-18.94
198.623	151.04
198.842	101.89
199.062	75.26
199.281	52.74
199.5	67.07
199.719	110.08
199.938	56.83
200.157	85.5
200.376	132.61
200.595	171.52
200.814	65.02
201.033	-31.23
201.252	155.13
201.471	38.4
201.69	124.41
201.909	85.5
202.128	112.13
202.347	71.17
202.566	22.02
202.785	-35.33
203.004	62.98
203.223	263.68
203.442	89.6
203.661	-8.7
203.879	103.93
204.098	122.37
204.317	-2.56
204.536	101.89
204.755	122.37
204.974	130.56
205.193	9.73
205.411	124.41
205.63	132.61
205.849	95.74
206.068	-43.52
206.287	17.92
206.505	138.75
206.724	11.78
206.943	13.82
207.162	26.11
207.381	93.69
207.599	44.54
207.818	28.16
208.037	-18.94
208.255	-43.52
208.474	44.54
208.693	46.59
208.911	9.73
209.13	124.41
209.349	134.65
209.567	153.09
209.786	69.12
210.005	134.65
210.223	19.97
210.442	-94.72
210.661	17.92
210.879	77.31
211.098	1.54
211.316	105.98
211.535	73.21
211.753	28.16
211.972	81.41
212.191	62.98
212.409	77.31
212.628	159.23
212.846	46.59
213.065	122.37
213.283	171.52
213.502	71.17
213.72	24.06
213.938	19.97
214.157	44.54
214.375	95.74
214.594	-10.75
214.812	128.51
215.031	44.54
215.249	-6.66
215.467	38.4
215.686	30.21
215.904	148.99
216.122	60.93
216.341	144.89
216.559	79.36
216.778	124.41
216.996	67.07
217.214	54.78
217.432	-45.57
217.651	36.35
217.869	40.45
218.087	85.5
218.306	24.06
218.524	28.16
218.742	65.02
218.96	134.65
219.179	67.07
219.397	5.63
219.615	288.25
219.833	91.65
220.051	54.78
220.27	126.46
220.488	140.8
220.706	108.03
220.924	-23.04
221.142	44.54
221.36	73.21
221.578	81.41
221.796	99.84
222.015	36.35
222.233	-4.61
222.451	124.41
222.669	-0.51
222.887	93.69
223.105	15.87
223.323	46.59
223.541	-45.57
223.759	34.3
223.977	36.35
224.195	128.51
224.413	89.6
224.631	40.45
224.849	89.6
225.067	210.43
225.285	95.74
225.503	-6.66
225.721	-82.43
225.939	83.45
226.157	83.45
226.375	259.58
226.592	42.5
226.81	101.89
227.028	91.65
227.246	75.26
227.464	79.36
227.682	101.89
227.9	46.59
228.117	159.23
228.335	62.98
228.553	28.16
228.771	110.08
228.989	71.17
229.206	142.85
229.424	81.41
229.642	50.69
229.86	19.97
230.077	144.89
230.295	40.45
230.513	134.65
230.731	50.69
230.948	185.85
231.166	220.67
231.384	110.08
231.601	7.68
231.819	163.33
232.037	-33.28
232.254	-53.76
232.472	-14.85
232.689	28.16
232.907	-2.56
233.125	71.17
233.342	7.68
233.56	5.63
233.777	9.73
233.995	34.3
234.213	124.41
234.43	34.3
234.648	54.78
234.865	56.83
235.083	79.36
235.3	28.16
235.518	73.21
235.735	140.8
235.953	101.89
236.17	30.21
236.388	40.45
236.605	69.12
236.822	161.28
237.04	146.94
237.257	108.03
237.475	-6.66
237.692	-29.18
237.909	54.78
238.127	-33.28
238.344	93.69
238.562	50.69
238.779	-31.23
238.996	-2.56
239.214	17.92
239.431	112.13
239.648	83.45
239.865	148.99
240.083	75.26
240.3	83.45
240.517	36.35
240.735	-2.56
240.952	118.27
241.169	1.54
241.386	89.6
241.603	36.35
241.821	-4.61
242.038	114.17
242.255	103.93
242.472	-49.66
242.689	85.5
242.907	32.26
243.124	48.64
243.341	32.26
243.558	15.87
243.775	24.06
243.992	11.78
244.209	67.07
244.426	155.13
244.643	65.02
244.86	-0.51
245.078	97.79
245.295	56.83
245.512	11.78
245.729	-43.52
245.946	69.12
246.163	118.27
246.38	11.78
246.597	-18.94
246.814	28.16
247.031	69.12
247.248	144.89
247.464	-18.94
247.681	122.37
247.898	114.17
248.115	159.23
248.332	30.21
248.549	91.65
248.766	138.75
248.983	130.56
249.2	54.78
249.417	77.31
249.633	9.73
249.85	38.4
250.067	62.98
250.284	62.98
250.501	77.31
250.717	116.22
250.934	-10.75
251.151	48.64
251.368	24.06
251.585	9.73
251.801	103.93
252.018	-41.47
252.235	87.55
252.451	13.82
252.668	38.4
252.885	112.13
253.102	48.64
253.318	-0.51
253.535	28.16
253.752	-61.95
253.968	-23.04
254.185	-33.28
254.401	46.59
254.618	-16.9
254.835	-20.99
255.051	181.76
255.268	83.45
255.484	83.45
255.701	54.78
255.917	97.79
256.134	1.54
256.351	83.45
256.567	-53.76
256.784	-49.66
257	-57.86
257.217	105.98
257.433	95.74
257.65	138.75
257.866	124.41
258.082	-8.7
258.299	95.74
258.515	89.6
258.732	83.45
258.948	60.93
259.165	56.83
259.381	-55.81
259.597	103.93
259.814	-33.28
260.03	32.26
260.246	58.88
260.463	71.17
260.679	142.85
260.895	58.88
261.112	19.97
261.328	30.21
261.544	-6.66
261.761	165.37
261.977	42.5
262.193	7.68
262.409	48.64
262.626	58.88
262.842	-64
263.058	-14.85
263.274	48.64
263.49	77.31
263.707	71.17
263.923	169.47
264.139	-76.29
264.355	99.84
264.571	58.88
264.787	71.17
265.004	124.41
265.22	87.55
265.436	-10.75
265.652	42.5
265.868	83.45
266.084	-25.09
266.3	58.88
266.516	7.68
266.732	-14.85
266.948	34.3
267.164	-0.51
267.38	34.3
267.596	54.78
267.812	163.33
268.028	42.5
268.244	-12.8
268.46	99.84
268.676	-16.9
268.892	56.83
269.108	-27.14
269.324	15.87
269.54	-64
269.756	105.98
269.972	11.78
270.188	32.26
270.403	-117.25
270.619	42.5
270.835	108.03
271.051	67.07
271.267	54.78
271.483	13.82
271.698	122.37
271.914	83.45
272.13	42.5
272.346	71.17
272.562	85.5
272.777	148.99
272.993	19.97
273.209	36.35
273.425	83.45
273.64	-47.62
273.856	87.55
274.072	-8.7
274.287	26.11
274.503	40.45
274.719	114.17
274.934	87.55
275.15	-20.99
275.366	44.54
275.581	32.26
275.797	-16.9
276.012	108.03
276.228	75.26
276.444	103.93
276.659	163.33
276.875	-10.75
277.09	26.11
277.306	17.92
277.521	50.69
277.737	69.12
277.952	122.37
278.168	75.26
278.383	103.93
278.599	26.11
278.814	81.41
279.03	44.54
279.245	189.95
279.461	99.84
279.676	134.65
279.892	-107.01
280.107	75.26
280.322	-31.23
280.538	108.03
280.753	38.4
280.969	24.06
281.184	54.78
281.399	136.7
281.615	13.82
281.83	65.02
282.045	-68.09
282.26	26.11
282.476	28.16
282.691	167.42
282.906	130.56
283.122	15.87
283.337	3.58
283.552	32.26
283.767	-10.75
283.983	155.13
284.198	34.3
284.413	101.89
284.628	-66.05
284.843	24.06
285.058	116.22
285.274	32.26
285.489	11.78
285.704	124.41
285.919	-2.56
286.134	13.82
286.349	58.88
286.564	60.93
286.779	118.27
286.995	11.78
287.21	-98.81
287.425	9.73
287.64	-6.66
287.855	32.26
288.07	-25.09
288.285	73.21
288.5	112.13
288.715	65.02
288.93	79.36
289.145	36.35
289.36	79.36
289.575	34.3
289.79	153.09
290.004	-10.75
290.219	173.57
290.434	-0.51
290.649	73.21
290.864	19.97
291.079	36.35
291.294	77.31
291.509	91.65
291.724	26.11
291.938	-29.18
292.153	65.02
292.368	48.64
292.583	120.32
292.798	73.21
293.012	85.5
293.227	36.35
293.442	-37.38
293.657	120.32
293.871	153.09
294.086	69.12
294.301	169.47
294.516	192
294.73	15.87
294.945	22.02
295.16	50.69
295.374	134.65
295.589	83.45
295.804	-0.51
296.018	30.21
296.233	173.57
296.447	54.78
296.662	-2.56
296.877	216.57
297.091	97.79
297.306	87.55
297.52	83.45
297.735	77.31
297.949	71.17
298.164	126.46
298.378	60.93
298.593	48.64
298.807	52.74
299.022	32.26
299.236	181.76
299.451	-47.62
299.665	13.82
299.88	48.64
300.094	89.6
300.309	65.02
300.523	56.83
300.737	34.3
300.952	34.3
301.166	77.31
301.381	-25.09
301.595	-35.33
301.809	26.11
302.024	-2.56
302.238	-55.81
302.452	108.03
302.667	7.68
302.881	157.18
303.095	153.09
303.309	38.4
303.524	-31.23
303.738	32.26
303.952	30.21
304.166	65.02
304.381	-66.05
304.595	132.61
304.809	54.78
305.023	87.55
305.237	50.69
305.452	67.07
305.666	62.98
305.88	93.69
306.094	159.23
306.308	38.4
306.522	95.74
306.736	69.12
306.95	15.87
307.164	44.54
307.379	-18.94
307.593	192
307.807	202.24
308.021	91.65
308.235	50.69
308.449	-31.23
308.663	-43.52
308.877	226.81
309.091	79.36
309.305	116.22
309.519	-6.66
309.733	83.45
309.947	28.16
310.161	105.98
310.374	179.71
310.588	173.57
310.802	-0.51
311.016	9.73
311.23	105.98
311.444	26.11
311.658	22.02
311.872	148.99
312.085	44.54
312.299	210.43
312.513	144.89
312.727	85.5
312.941	-84.48
313.154	40.45
313.368	54.78
313.582	30.21
313.796	50.69
314.009	60.93
314.223	126.46
314.437	36.35
314.651	60.93
314.864	79.36
315.078	-74.24
315.292	-109.05
315.505	-2.56
315.719	-10.75
315.933	134.65
316.146	-25.09
316.36	7.68
316.573	112.13
316.787	62.98
317.001	54.78
317.214	-2.56
317.428	26.11
317.641	5.63
317.855	-6.66
318.068	56.83
318.282	95.74
318.495	206.33
318.709	95.74
318.922	-0.51
319.136	54.78
319.349	73.21
319.563	93.69
319.776	122.37
319.99	-18.94
320.203	103.93
320.417	73.21
320.63	146.94
320.843	159.23
321.057	77.31
321.27	7.68
321.483	112.13
321.697	163.33
321.91	120.32
322.124	69.12
322.337	93.69
322.55	40.45
322.763	105.98
322.977	-2.56
323.19	3.58
323.403	101.89
323.617	110.08
323.83	91.65
324.043	7.68
324.256	54.78
324.469	-4.61
324.683	146.94
324.896	-0.51
325.109	24.06
325.322	-14.85
325.535	87.55
325.748	161.28
325.962	42.5
326.175	130.56
326.388	97.79
326.601	85.5
326.814	46.59
327.027	34.3
327.24	165.37
327.453	-27.14
327.666	148.99
327.879	173.57
328.092	50.69
328.305	116.22
328.518	50.69
328.731	26.11
328.944	-43.52
329.157	87.55
329.37	-20.99
329.583	230.91
329.796	163.33
330.009	-23.04
330.222	105.98
330.435	-8.7
330.648	9.73
330.861	42.5
331.073	79.36
331.286	153.09
331.499	58.88
331.712	50.69
331.925	5.63
332.138	83.45
332.35	112.13
332.563	-41.47
332.776	126.46
332.989	17.92
333.202	-8.7
333.414	60.93
333.627	60.93
333.84	30.21
334.053	58.88
334.265	91.65
334.478	28.16
334.691	52.74
334.903	32.26
335.116	-23.04
335.329	46.59
335.541	114.17
335.754	130.56
335.966	-0.51
336.179	60.93
336.392	69.12
336.604	32.26
336.817	122.37
337.029	103.93
337.242	38.4
337.454	79.36
337.667	44.54
337.88	97.79
338.092	112.13
338.305	89.6
338.517	60.93
338.729	24.06
338.942	124.41
339.154	24.06
339.367	-16.9
339.579	101.89
339.792	-2.56
340.004	44.54
340.217	5.63
340.429	1.54
340.641	11.78
340.854	7.68
341.066	95.74
341.278	83.45
341.491	157.18
341.703	87.55
341.915	-23.04
342.128	105.98
342.34	71.17
342.552	1.54
342.764	65.02
342.977	-12.8
343.189	26.11
343.401	5.63
343.613	-37.38
343.826	52.74
344.038	-59.9
344.25	95.74
344.462	-2.56
344.674	48.64
344.886	13.82
345.099	32.26
345.311	97.79
345.523	-10.75
345.735	-68.09
345.947	48.64
346.159	52.74
346.371	108.03
346.583	-18.94
346.795	177.66
347.007	34.3
347.219	157.18
347.431	108.03
347.643	122.37
347.855	46.59
348.067	167.42
348.279	-8.7
348.491	-41.47
348.703	46.59
348.915	-23.04
349.127	19.97
349.339	50.69
349.551	22.02
349.763	7.68
349.975	30.21
350.187	155.13
350.399	124.41
350.61	65.02
350.822	22.02
351.034	62.98
351.246	-33.28
351.458	114.17
351.669	71.17
351.881	140.8
352.093	144.89
352.305	167.42
352.517	130.56
352.728	91.65
352.94	75.26
353.152	73.21
353.363	-47.62
353.575	65.02
353.787	155.13
353.999	7.68
354.21	95.74
354.422	-14.85
354.633	-43.52
354.845	75.26
355.057	67.07
355.268	79.36
355.48	108.03
355.692	-2.56
355.903	22.02
356.115	-55.81
356.326	-20.99
356.538	204.28
356.749	83.45
356.961	146.94
357.172	46.59
357.384	-25.09
357.595	200.19
357.807	9.73
358.018	40.45
358.23	77.31
358.441	151.04
358.653	91.65
358.864	54.78
359.075	-8.7
359.287	42.5
359.498	126.46
359.709	161.28
359.921	9.73
360.132	58.88
360.344	112.13
360.555	-10.75
360.766	42.5
360.977	17.92
361.189	126.46
361.4	1.54
361.611	144.89
361.823	130.56
362.034	15.87
362.245	-96.77
362.456	44.54
362.667	42.5
362.879	62.98
363.09	46.59
363.301	132.61
363.512	30.21
363.723	17.92
363.935	81.41
364.146	93.69
364.357	54.78
364.568	62.98
364.779	54.78
364.99	126.46
365.201	-0.51
365.412	157.18
365.623	-72.19
365.834	-2.56
366.045	142.85
366.256	67.07
366.467	169.47
366.678	120.32
366.889	13.82
367.1	19.97
367.311	58.88
367.522	34.3
367.733	140.8
367.944	105.98
368.155	77.31
368.366	73.21
368.577	122.37
368.788	34.3
368.999	34.3
369.209	34.3
369.42	105.98
369.631	257.53
369.842	69.12
370.053	65.02
370.264	95.74
370.474	5.63
370.685	50.69
370.896	65.02
371.107	210.43
371.317	130.56
371.528	87.55
371.739	175.61
371.95	138.75
372.16	101.89
372.371	-41.47
372.582	-35.33
372.792	95.74
373.003	48.64
373.214	-8.7
373.424	73.21
373.635	-35.33
373.846	187.9
374.056	112.13
374.267	24.06
374.477	87.55
374.688	-35.33
374.898	52.74
375.109	165.37
375.319	22.02
375.53	122.37
375.74	101.89
375.951	32.26
376.161	120.32
376.372	81.41
376.582	11.78
376.793	114.17
377.003	46.59
377.214	67.07
377.424	114.17
377.635	103.93
377.845	-18.94
378.055	124.41
378.266	19.97
378.476	56.83
378.686	58.88
378.897	-18.94
379.107	165.37
379.317	85.5
379.528	32.26
379.738	163.33
379.948	32.26
380.158	73.21
380.369	67.07
380.579	103.93
380.789	17.92
380.999	134.65
381.21	32.26
381.42	202.24
381.63	34.3
381.84	189.95
382.05	77.31
382.261	46.59
382.471	167.42
382.681	99.84
382.891	105.98
383.101	36.35
383.311	-35.33
383.521	34.3
383.731	153.09
383.941	142.85
384.151	97.79
384.361	54.78
384.571	15.87
384.781	48.64
384.991	212.48
385.201	169.47
385.411	99.84
385.621	77.31
385.831	13.82
386.041	7.68
386.251	46.59
386.461	151.04
386.671	38.4
386.881	44.54
387.091	19.97
387.301	146.94
387.511	52.74
387.72	79.36
387.93	24.06
388.14	-47.62
388.35	132.61
388.56	173.57
388.769	112.13
388.979	-10.75
389.189	-92.67
389.399	-12.8
389.609	91.65
389.818	114.17
390.028	67.07
390.238	130.56
390.447	-0.51
390.657	89.6
390.867	62.98
391.076	46.59
391.286	32.26
391.496	52.74
391.705	-0.51
391.915	155.13
392.125	194.05
392.334	62.98
392.544	124.41
392.753	54.78
392.963	-121.34
393.172	-29.18
393.382	19.97
393.591	192
393.801	81.41
394.01	189.95
394.22	22.02
394.429	54.78
394.639	69.12
394.848	26.11
395.058	3.58
395.267	22.02
395.477	136.7
395.686	73.21
395.895	140.8
396.105	177.66
396.314	103.93
396.524	83.45
396.733	60.93
396.942	65.02
397.152	142.85
397.361	34.3
397.57	44.54
397.78	-43.52
397.989	81.41
398.198	183.81
398.407	124.41
398.617	62.98
398.826	3.58
399.035	71.17
399.244	153.09
399.453	54.78
399.663	26.11
399.872	67.07
400.081	-23.04
400.29	192
400.499	44.54
400.708	99.84
400.917	11.78
401.127	67.07
401.336	60.93
401.545	251.39
401.754	130.56
401.963	161.28
402.172	110.08
402.381	-18.94
402.59	62.98
402.799	50.69
403.008	89.6
403.217	32.26
403.426	77.31
403.635	-51.71
403.844	32.26
404.053	75.26
404.262	9.73
404.471	220.67
404.68	95.74
404.888	38.4
405.097	-10.75
405.306	13.82
405.515	151.04
405.724	13.82
405.933	73.21
406.142	124.41
406.35	103.93
406.559	67.07
406.768	83.45
406.977	169.47
407.185	19.97
407.394	87.55
407.603	-47.62
407.812	42.5
408.02	112.13
408.229	103.93
408.438	112.13
408.646	-16.9
408.855	19.97
409.064	99.84
409.272	-2.56
409.481	85.5
409.69	-20.99
409.898	-66.05
410.107	81.41
410.315	85.5
410.524	7.68
410.733	175.61
410.941	99.84
411.15	85.5
411.358	136.7
411.567	165.37
411.775	81.41
411.984	44.54
412.192	120.32
412.401	44.54
412.609	148.99
412.818	161.28
413.026	128.51
413.234	48.64
413.443	79.36
413.651	19.97
413.86	38.4
414.068	103.93
414.276	159.23
414.485	19.97
414.693	161.28
414.901	208.38
415.11	120.32
415.318	101.89
415.526	130.56
415.734	128.51
415.943	9.73
416.151	138.75
416.359	17.92
416.567	114.17
416.776	116.22
416.984	134.65
417.192	148.99
417.4	-23.04
417.608	58.88
417.817	85.5
418.025	157.18
418.233	179.71
418.441	42.5
418.649	-53.76
418.857	114.17
419.065	173.57
419.273	42.5
419.481	36.35
419.689	87.55
419.897	54.78
420.105	-20.99
420.313	157.18
420.521	151.04
420.729	181.76
420.937	28.16
421.145	30.21
421.353	138.75
421.561	112.13
421.769	81.41
421.977	83.45
422.185	124.41
422.393	124.41
422.601	112.13
422.809	122.37
423.017	99.84
423.224	48.64
423.432	200.19
423.64	77.31
423.848	108.03
424.056	38.4
424.263	161.28
424.471	89.6
424.679	151.04
424.887	-4.61
425.094	79.36
425.302	118.27
425.51	-6.66
425.718	171.52
425.925	52.74
426.133	105.98
426.341	155.13
426.548	122.37
426.756	85.5
426.964	87.55
427.171	58.88
427.379	136.7
427.586	93.69
427.794	198.14
428.001	175.61
428.209	52.74
428.417	181.76
428.624	167.42
428.832	54.78
429.039	153.09
429.247	116.22
429.454	146.94
429.662	212.48
429.869	124.41
430.076	120.32
430.284	235
430.491	194.05
430.699	196.09
430.906	194.05
431.114	155.13
431.321	167.42
431.528	116.22
431.736	198.14
431.943	241.15
432.15	198.14
432.358	230.91
432.565	230.91
432.772	3.58
432.979	230.91
433.187	192
433.394	224.76
433.601	198.14
433.808	267.77
434.016	212.48
434.223	206.33
434.43	230.91
434.637	278.01
434.844	337.4
435.052	306.68
435.259	273.92
435.466	267.77
435.673	243.2
435.88	235
436.087	351.74
436.294	333.31
436.501	361.98
436.708	351.74
436.915	312.83
437.122	318.97
437.329	224.76
437.537	300.54
437.743	355.83
437.95	478.71
438.157	382.46
438.364	259.58
438.571	364.03
438.778	447.99
438.985	470.52
439.192	509.43
439.399	388.6
439.606	435.71
439.813	538.1
440.02	605.69
440.227	652.79
440.433	525.82
440.64	568.82
440.847	527.86
441.054	566.78
441.261	665.08
441.467	681.46
441.674	579.06
441.881	773.62
442.088	665.08
442.294	759.28
442.501	902.64
442.708	867.83
442.914	771.57
443.121	841.2
443.328	931.31
443.534	962.03
443.741	1015.28
443.948	894.45
444.154	1033.71
444.361	1226.22
444.568	1099.25
444.774	1093.1
444.981	1015.28
445.187	1289.71
445.394	1189.36
445.6	1242.61
445.807	1404.39
446.013	1357.29
446.22	1265.13
446.426	1467.88
446.633	1541.61
446.839	1689.06
447.046	1494.51
447.252	1730.02
447.459	1680.87
447.665	1652.2
447.871	1893.86
448.078	2020.83
448.284	1965.54
448.491	2153.95
448.697	2366.94
448.903	2268.64
449.11	2377.18
449.316	2362.84
449.522	2491.87
449.728	2680.28
449.935	2799.06
450.141	2756.05
450.347	2928.08
450.553	2878.93
450.76	2983.38
450.966	3126.74
451.172	3239.37
451.378	3399.12
451.584	3446.22
451.791	3775.94
451.997	3849.67
452.203	3886.53
452.409	4019.65
452.615	4150.72
452.821	4134.34
453.027	4300.22
453.233	4748.73
453.44	4464.06
453.646	4933.04
453.852	4933.04
454.058	5186.99
454.264	5356.97
454.47	5637.55
454.676	5655.98
454.882	6147.49
455.088	6000.04
455.294	6231.46
455.5	6790.55
455.705	7011.73
455.911	7212.43
456.117	7159.19
456.323	7456.14
456.529	7542.16
456.735	8125.83
456.941	8525.18
457.147	8889.72
457.352	9211.25
457.558	9389.42
457.764	9729.39
457.97	9913.7
458.176	10450.27
458.381	10919.26
458.587	11251.03
458.793	11521.36
458.999	11677.01
459.204	13212.98
459.41	13815.09
459.616	13602.1
459.821	14200.1
460.027	15045.91
460.233	15480.08
460.438	15658.26
460.644	16790.78
460.85	16821.5
461.055	17478.9
461.261	18576.61
461.466	17908.97
461.672	18062.57
461.878	20200.65
462.083	20112.59
462.289	20683.97
462.494	21472.44
462.7	21431.48
462.905	21736.63
463.111	23499.93
463.316	24552.59
463.522	25142.4
463.727	25767.03
463.932	26852.45
464.138	27466.84
464.343	28888.14
464.549	28759.11
464.754	31048.74
464.959	31491.1
465.165	32652.3
465.37	32359.44
465.575	32271.38
465.781	34620.4
465.986	35419.11
466.191	35118.06
466.397	35181.54
466.602	34440.18
466.807	36525.01
467.012	37225.42
467.218	37440.45
467.423	37671.87
467.628	38536.12
467.833	40729.49
468.038	40006.56
468.244	39254.95
468.449	41687.94
468.654	40489.88
