Data from USB4F104151__40__10-24-55-936.txt Node

Date: Wed Feb 26 10:24:55 EST 2025
User: louis
Spectrometer: USB4F10415
Trigger mode: 4
Integration Time (sec): 1.000000E-1
Scans to average: 1
Electric dark correction enabled: true
Nonlinearity correction enabled: false
Boxcar width: 0
XAxis mode: Wavelengths
Number of Pixels in Spectrum: 3648
>>>>>Begin Spectral Data<<<<<
178.204	-373.92
178.424	-373.92
178.644	-373.92
178.864	-416.93
179.084	-343.21
179.304	56.15
179.524	39.76
179.744	-64.68
179.964	-31.91
180.184	-33.96
180.404	107.35
180.624	-9.39
180.844	-31.91
181.064	-17.58
181.283	72.53
181.503	-74.92
181.723	-11.43
181.943	-93.35
182.163	117.59
182.383	39.76
182.602	-5.29
182.822	146.26
183.042	64.34
183.262	-52.39
183.482	-17.58
183.701	23.38
183.921	17.24
184.141	-58.54
184.361	127.83
184.58	21.33
184.8	52.05
185.02	13.14
185.239	103.25
185.459	25.43
185.679	95.06
185.898	-38.06
186.118	21.33
186.338	9.05
186.557	99.16
186.777	33.62
186.997	68.44
187.216	2.9
187.436	240.47
187.655	95.06
187.875	136.02
188.095	37.72
188.314	156.5
188.534	138.07
188.753	-76.97
188.973	164.69
189.192	217.94
189.412	82.77
189.631	93.01
189.851	41.81
190.07	119.64
190.29	-74.92
190.509	-31.91
190.729	62.29
190.948	62.29
191.168	226.13
191.387	99.16
191.607	4.95
191.826	39.76
192.045	2.9
192.265	88.92
192.484	54.1
192.704	56.15
192.923	-79.02
193.142	174.93
193.362	131.92
193.581	199.51
193.8	19.29
194.02	90.96
194.239	86.87
194.458	74.58
194.678	64.34
194.897	19.29
195.116	66.39
195.335	101.2
195.555	101.2
195.774	-33.96
195.993	115.54
196.212	-11.43
196.432	13.14
196.651	29.52
196.87	2.9
197.089	176.98
197.308	76.63
197.528	47.96
197.747	62.29
197.966	43.86
198.185	148.31
198.404	-66.73
198.623	95.06
198.842	99.16
199.062	105.3
199.281	97.11
199.5	68.44
199.719	82.77
199.938	17.24
200.157	101.2
200.376	47.96
200.595	129.88
200.814	82.77
201.033	-29.87
201.252	111.44
201.471	90.96
201.69	74.58
201.909	76.63
202.128	64.34
202.347	127.83
202.566	43.86
202.785	-83.11
203.004	-70.83
203.223	238.42
203.442	19.29
203.661	-76.97
203.879	-5.29
204.098	99.16
204.317	25.43
204.536	52.05
204.755	125.78
204.974	13.14
205.193	19.29
205.411	86.87
205.63	103.25
205.849	9.05
206.068	-11.43
206.287	74.58
206.505	127.83
206.724	115.54
206.943	39.76
207.162	78.68
207.381	78.68
207.599	-7.34
207.818	39.76
208.037	-64.68
208.255	29.52
208.474	41.81
208.693	17.24
208.911	-21.67
209.13	76.63
209.349	117.59
209.567	31.57
209.786	37.72
210.005	166.74
210.223	86.87
210.442	-111.78
210.661	35.67
210.879	107.35
211.098	29.52
211.316	21.33
211.535	119.64
211.753	21.33
211.972	35.67
212.191	2.9
212.409	7
212.628	35.67
212.846	-13.48
213.065	113.49
213.283	105.3
213.502	58.2
213.72	68.44
213.938	33.62
214.157	19.29
214.375	15.19
214.594	7
214.812	29.52
215.031	-5.29
215.249	45.91
215.467	47.96
215.686	52.05
215.904	58.2
216.122	45.91
216.341	99.16
216.559	31.57
216.778	33.62
216.996	199.51
217.214	27.48
217.432	86.87
217.651	-38.06
217.869	35.67
218.087	-27.82
218.306	60.24
218.524	0.85
218.742	-25.77
218.96	129.88
219.179	29.52
219.397	19.29
219.615	277.33
219.833	103.25
220.051	31.57
220.27	140.12
220.488	119.64
220.706	64.34
220.924	2.9
221.142	64.34
221.36	50
221.578	127.83
221.796	37.72
222.015	21.33
222.233	78.68
222.451	125.78
222.669	-17.58
222.887	93.01
223.105	66.39
223.323	-52.39
223.541	-7.34
223.759	47.96
223.977	80.72
224.195	162.64
224.413	45.91
224.631	52.05
224.849	158.55
225.067	271.19
225.285	33.62
225.503	35.67
225.721	-99.5
225.939	19.29
226.157	39.76
226.375	234.32
226.592	23.38
226.81	43.86
227.028	107.35
227.246	119.64
227.464	74.58
227.682	66.39
227.9	97.11
228.117	103.25
228.335	111.44
228.553	27.48
228.771	-54.44
228.989	54.1
229.206	105.3
229.424	-50.35
229.642	11.09
229.86	19.29
230.077	41.81
230.295	-1.19
230.513	95.06
230.731	45.91
230.948	197.46
231.166	181.07
231.384	-46.25
231.601	0.85
231.819	172.88
232.037	0.85
232.254	-81.07
232.472	41.81
232.689	-7.34
232.907	115.54
233.125	45.91
233.342	15.19
233.56	-27.82
233.777	45.91
233.995	60.24
234.213	162.64
234.43	43.86
234.648	119.64
234.865	-95.4
235.083	50
235.3	107.35
235.518	82.77
235.735	162.64
235.953	66.39
236.17	47.96
236.388	-60.59
236.605	80.72
236.822	131.92
237.04	109.4
237.257	-50.35
237.475	2.9
237.692	56.15
237.909	25.43
238.127	82.77
238.344	115.54
238.562	78.68
238.779	-52.39
238.996	11.09
239.214	-38.06
239.431	43.86
239.648	-15.53
239.865	121.68
240.083	60.24
240.3	27.48
240.517	-7.34
240.735	47.96
240.952	109.4
241.169	90.96
241.386	45.91
241.603	62.29
241.821	-31.91
242.038	127.83
242.255	86.87
242.472	80.72
242.689	127.83
242.907	127.83
243.124	62.29
243.341	119.64
243.558	37.72
243.775	-64.68
243.992	9.05
244.209	105.3
244.426	150.36
244.643	105.3
244.86	-13.48
245.078	74.58
245.295	90.96
245.512	-46.25
245.729	-95.4
245.946	138.07
246.163	-19.63
246.38	-7.34
246.597	148.31
246.814	45.91
247.031	76.63
247.248	50
247.464	47.96
247.681	133.97
247.898	7
248.115	84.82
248.332	-46.25
248.549	207.7
248.766	144.21
248.983	197.46
249.2	-21.67
249.417	103.25
249.633	-1.19
249.85	33.62
250.067	84.82
250.284	84.82
250.501	88.92
250.717	62.29
250.934	-81.07
251.151	19.29
251.368	33.62
251.585	31.57
251.801	19.29
252.018	-42.15
252.235	129.88
252.451	-54.44
252.668	111.44
252.885	105.3
253.102	131.92
253.318	41.81
253.535	-9.39
253.752	0.85
253.968	54.1
254.185	-81.07
254.401	54.1
254.618	-19.63
254.835	31.57
255.051	68.44
255.268	70.48
255.484	-52.39
255.701	-29.87
255.917	156.5
256.134	19.29
256.351	-5.29
256.567	33.62
256.784	56.15
257	-1.19
257.217	62.29
257.433	41.81
257.65	179.03
257.866	156.5
258.082	23.38
258.299	-9.39
258.515	109.4
258.732	-23.72
258.948	-119.98
259.165	52.05
259.381	-15.53
259.597	25.43
259.814	66.39
260.03	11.09
260.246	19.29
260.463	166.74
260.679	166.74
260.895	93.01
261.112	37.72
261.328	78.68
261.544	90.96
261.761	209.75
261.977	11.09
262.193	-29.87
262.409	68.44
262.626	103.25
262.842	-105.64
263.058	23.38
263.274	176.98
263.49	78.68
263.707	105.3
263.923	9.05
264.139	-15.53
264.355	66.39
264.571	86.87
264.787	129.88
265.004	164.69
265.22	93.01
265.436	-1.19
265.652	13.14
265.868	13.14
266.084	-70.83
266.3	68.44
266.516	-23.72
266.732	19.29
266.948	41.81
267.164	11.09
267.38	78.68
267.596	47.96
267.812	232.27
268.028	74.58
268.244	31.57
268.46	50
268.676	56.15
268.892	88.92
269.108	-81.07
269.324	62.29
269.54	62.29
269.756	97.11
269.972	-5.29
270.188	-11.43
270.403	-36.01
270.619	15.19
270.835	58.2
271.051	99.16
271.267	-27.82
271.483	-15.53
271.698	64.34
271.914	50
272.13	58.2
272.346	-15.53
272.562	-3.24
272.777	148.31
272.993	9.05
273.209	27.48
273.425	117.59
273.64	17.24
273.856	125.78
274.072	0.85
274.287	-29.87
274.503	47.96
274.719	113.49
274.934	-56.49
275.15	-23.72
275.366	60.24
275.581	-111.78
275.797	52.05
276.012	17.24
276.228	19.29
276.444	97.11
276.659	105.3
276.875	21.33
277.09	-50.35
277.306	17.24
277.521	68.44
277.737	21.33
277.952	107.35
278.168	74.58
278.383	66.39
278.599	35.67
278.814	125.78
279.03	52.05
279.245	183.12
279.461	60.24
279.676	179.03
279.892	35.67
280.107	37.72
280.322	-25.77
280.538	113.49
280.753	-42.15
280.969	35.67
281.184	45.91
281.399	150.36
281.615	19.29
281.83	58.2
282.045	-109.74
282.26	-70.83
282.476	78.68
282.691	80.72
282.906	45.91
283.122	35.67
283.337	-103.59
283.552	33.62
283.767	33.62
283.983	76.63
284.198	15.19
284.413	66.39
284.628	-79.02
284.843	119.64
285.058	29.52
285.274	35.67
285.489	9.05
285.704	115.54
285.919	-40.11
286.134	31.57
286.349	97.11
286.564	47.96
286.779	125.78
286.995	37.72
287.21	-38.06
287.425	119.64
287.64	41.81
287.855	-29.87
288.07	-62.63
288.285	123.73
288.5	133.97
288.715	121.68
288.93	35.67
289.145	41.81
289.36	117.59
289.575	17.24
289.79	99.16
290.004	60.24
290.219	93.01
290.434	0.85
290.649	-1.19
290.864	-89.26
291.079	43.86
291.294	-13.48
291.509	54.1
291.724	72.53
291.938	23.38
292.153	76.63
292.368	54.1
292.583	19.29
292.798	88.92
293.012	47.96
293.227	39.76
293.442	-17.58
293.657	82.77
293.871	52.05
294.086	74.58
294.301	197.46
294.516	150.36
294.73	64.34
294.945	0.85
295.16	2.9
295.374	181.07
295.589	35.67
295.804	25.43
296.018	56.15
296.233	154.45
296.447	47.96
296.662	9.05
296.877	111.44
297.091	70.48
297.306	45.91
297.52	13.14
297.735	37.72
297.949	4.95
298.164	82.77
298.378	56.15
298.593	-76.97
298.807	-40.11
299.022	13.14
299.236	136.02
299.451	-40.11
299.665	27.48
299.88	23.38
300.094	64.34
300.309	15.19
300.523	70.48
300.737	33.62
300.952	54.1
301.166	54.1
301.381	47.96
301.595	58.2
301.809	-1.19
302.024	-70.83
302.238	-54.44
302.452	111.44
302.667	66.39
302.881	183.12
303.095	90.96
303.309	95.06
303.524	23.38
303.738	60.24
303.952	-21.67
304.166	37.72
304.381	-107.69
304.595	164.69
304.809	43.86
305.023	21.33
305.237	19.29
305.452	-7.34
305.666	76.63
305.88	82.77
306.094	29.52
306.308	47.96
306.522	70.48
306.736	29.52
306.95	29.52
307.164	62.29
307.379	-15.53
307.593	121.68
307.807	115.54
308.021	-3.24
308.235	117.59
308.449	-19.63
308.663	29.52
308.877	240.47
309.091	31.57
309.305	56.15
309.519	-91.31
309.733	189.27
309.947	-52.39
310.161	84.82
310.374	131.92
310.588	70.48
310.802	9.05
311.016	56.15
311.23	27.48
311.444	-9.39
311.658	41.81
311.872	107.35
312.085	140.12
312.299	179.03
312.513	170.83
312.727	86.87
312.941	-54.44
313.154	121.68
313.368	47.96
313.582	68.44
313.796	74.58
314.009	-25.77
314.223	68.44
314.437	21.33
314.651	142.16
314.864	-15.53
315.078	101.2
315.292	-40.11
315.505	0.85
315.719	97.11
315.933	123.73
316.146	-15.53
316.36	19.29
316.573	136.02
316.787	82.77
317.001	52.05
317.214	9.05
317.428	31.57
317.641	64.34
317.855	-1.19
318.068	7
318.282	27.48
318.495	195.41
318.709	39.76
318.922	9.05
319.136	127.83
319.349	140.12
319.563	-3.24
319.776	121.68
319.99	-126.12
320.203	2.9
320.417	-23.72
320.63	78.68
320.843	172.88
321.057	80.72
321.27	33.62
321.483	45.91
321.697	201.55
321.91	103.25
322.124	72.53
322.337	107.35
322.55	-5.29
322.763	95.06
322.977	-5.29
323.19	21.33
323.403	33.62
323.617	95.06
323.83	66.39
324.043	62.29
324.256	45.91
324.469	-42.15
324.683	60.24
324.896	29.52
325.109	78.68
325.322	-31.91
325.535	39.76
325.748	56.15
325.962	-25.77
326.175	56.15
326.388	13.14
326.601	138.07
326.814	15.19
327.027	58.2
327.24	113.49
327.453	-66.73
327.666	166.74
327.879	129.88
328.092	86.87
328.305	-3.24
328.518	-3.24
328.731	-17.58
328.944	7
329.157	41.81
329.37	-23.72
329.583	203.6
329.796	121.68
330.009	-31.91
330.222	158.55
330.435	146.26
330.648	52.05
330.861	78.68
331.073	127.83
331.286	140.12
331.499	52.05
331.712	-19.63
331.925	37.72
332.138	0.85
332.35	111.44
332.563	-7.34
332.776	111.44
332.989	7
333.202	-44.2
333.414	-5.29
333.627	70.48
333.84	41.81
334.053	95.06
334.265	90.96
334.478	13.14
334.691	68.44
334.903	52.05
335.116	11.09
335.329	54.1
335.541	31.57
335.754	109.4
335.966	-33.96
336.179	-19.63
336.392	-23.72
336.604	39.76
336.817	107.35
337.029	23.38
337.242	37.72
337.454	97.11
337.667	70.48
337.88	217.94
338.092	109.4
338.305	45.91
338.517	47.96
338.729	113.49
338.942	127.83
339.154	-7.34
339.367	-5.29
339.579	101.2
339.792	2.9
340.004	70.48
340.217	-17.58
340.429	95.06
340.641	-19.63
340.854	-15.53
341.066	45.91
341.278	136.02
341.491	205.65
341.703	50
341.915	-23.72
342.128	-46.25
342.34	86.87
342.552	9.05
342.764	0.85
342.977	45.91
343.189	50
343.401	99.16
343.613	4.95
343.826	-11.43
344.038	-60.59
344.25	39.76
344.462	-1.19
344.674	17.24
344.886	43.86
345.099	17.24
345.311	78.68
345.523	-23.72
345.735	-46.25
345.947	29.52
346.159	66.39
346.371	35.67
346.583	-54.44
346.795	219.99
347.007	11.09
347.219	129.88
347.431	33.62
347.643	119.64
347.855	72.53
348.067	78.68
348.279	7
348.491	4.95
348.703	121.68
348.915	-1.19
349.127	7
349.339	66.39
349.551	9.05
349.763	43.86
349.975	25.43
350.187	97.11
350.399	199.51
350.61	127.83
350.822	17.24
351.034	62.29
351.246	39.76
351.458	45.91
351.669	138.07
351.881	101.2
352.093	86.87
352.305	107.35
352.517	50
352.728	168.79
352.94	33.62
353.152	25.43
353.363	-64.68
353.575	41.81
353.787	144.21
353.999	39.76
354.21	179.03
354.422	-21.67
354.633	41.81
354.845	17.24
355.057	68.44
355.268	19.29
355.48	50
355.692	-29.87
355.903	21.33
356.115	-7.34
356.326	-97.45
356.538	166.74
356.749	93.01
356.961	140.12
357.172	4.95
357.384	27.48
357.595	226.13
357.807	35.67
358.018	-60.59
358.23	-1.19
358.441	144.21
358.653	54.1
358.864	-36.01
359.075	-5.29
359.287	47.96
359.498	123.73
359.709	76.63
359.921	72.53
360.132	68.44
360.344	117.59
360.555	13.14
360.766	33.62
360.977	-23.72
361.189	119.64
361.4	13.14
361.611	93.01
361.823	152.4
362.034	76.63
362.245	-50.35
362.456	-21.67
362.667	86.87
362.879	-19.63
363.09	84.82
363.301	39.76
363.512	90.96
363.723	-60.59
363.935	27.48
364.146	109.4
364.357	-33.96
364.568	76.63
364.779	-62.63
364.99	152.4
365.201	-46.25
365.412	150.36
365.623	-36.01
365.834	62.29
366.045	52.05
366.256	27.48
366.467	62.29
366.678	7
366.889	29.52
367.1	-1.19
367.311	23.38
367.522	72.53
367.733	33.62
367.944	29.52
368.155	15.19
368.366	54.1
368.577	152.4
368.788	176.98
368.999	-36.01
369.209	52.05
369.42	203.6
369.631	262.99
369.842	50
370.053	31.57
370.264	103.25
370.474	15.19
370.685	23.38
370.896	0.85
371.107	162.64
371.317	50
371.528	29.52
371.739	136.02
371.95	62.29
372.16	185.17
372.371	31.57
372.582	25.43
372.792	84.82
373.003	47.96
373.214	13.14
373.424	41.81
373.635	-38.06
373.846	176.98
374.056	50
374.267	86.87
374.477	115.54
374.688	-19.63
374.898	68.44
375.109	107.35
375.319	25.43
375.53	35.67
375.74	33.62
375.951	19.29
376.161	68.44
376.372	119.64
376.582	45.91
376.793	97.11
377.003	64.34
377.214	21.33
377.424	111.44
377.635	84.82
377.845	21.33
378.055	129.88
378.266	-31.91
378.476	80.72
378.686	33.62
378.897	21.33
379.107	60.24
379.317	68.44
379.528	-44.2
379.738	127.83
379.948	-29.87
380.158	144.21
380.369	-1.19
380.579	68.44
380.789	13.14
380.999	88.92
381.21	154.45
381.42	203.6
381.63	76.63
381.84	80.72
382.05	37.72
382.261	97.11
382.471	109.4
382.681	56.15
382.891	123.73
383.101	109.4
383.311	13.14
383.521	39.76
383.731	43.86
383.941	191.31
384.151	29.52
384.361	78.68
384.571	58.2
384.781	88.92
384.991	136.02
385.201	271.19
385.411	133.97
385.621	62.29
385.831	37.72
386.041	93.01
386.251	29.52
386.461	138.07
386.671	2.9
386.881	99.16
387.091	60.24
387.301	90.96
387.511	56.15
387.72	33.62
387.93	74.58
388.14	0.85
388.35	-17.58
388.56	52.05
388.769	138.07
388.979	47.96
389.189	-23.72
389.399	-5.29
389.609	99.16
389.818	131.92
390.028	68.44
390.238	129.88
390.447	-33.96
390.657	101.2
390.867	60.24
391.076	-76.97
391.286	25.43
391.496	13.14
391.705	74.58
391.915	191.31
392.125	115.54
392.334	60.24
392.544	82.77
392.753	90.96
392.963	-36.01
393.172	119.64
393.382	27.48
393.591	172.88
393.801	-1.19
394.01	170.83
394.22	29.52
394.429	-25.77
394.639	68.44
394.848	80.72
395.058	15.19
395.267	-19.63
395.477	54.1
395.686	138.07
395.895	211.79
396.105	211.79
396.314	39.76
396.524	39.76
396.733	25.43
396.942	121.68
397.152	43.86
397.361	74.58
397.57	15.19
397.78	41.81
397.989	66.39
398.198	107.35
398.407	76.63
398.617	25.43
398.826	125.78
399.035	23.38
399.244	129.88
399.453	105.3
399.663	13.14
399.872	136.02
400.081	7
400.29	117.59
400.499	29.52
400.708	174.93
400.917	-31.91
401.127	64.34
401.336	33.62
401.545	185.17
401.754	154.45
401.963	88.92
402.172	64.34
402.381	-33.96
402.59	60.24
402.799	11.09
403.008	31.57
403.217	144.21
403.426	64.34
403.635	-31.91
403.844	72.53
404.053	41.81
404.262	103.25
404.471	107.35
404.68	54.1
404.888	209.75
405.097	50
405.306	41.81
405.515	166.74
405.724	39.76
405.933	80.72
406.142	54.1
406.35	142.16
406.559	-42.15
406.768	29.52
406.977	166.74
407.185	152.4
407.394	115.54
407.603	-40.11
407.812	62.29
408.02	140.12
408.229	52.05
408.438	41.81
408.646	-25.77
408.855	-38.06
409.064	27.48
409.272	86.87
409.481	41.81
409.69	113.49
409.898	9.05
410.107	31.57
410.315	150.36
410.524	58.2
410.733	25.43
410.941	68.44
411.15	72.53
411.358	154.45
411.567	187.22
411.775	60.24
411.984	129.88
412.192	88.92
412.401	15.19
412.609	189.27
412.818	154.45
413.026	142.16
413.234	-15.53
413.443	23.38
413.651	-19.63
413.86	27.48
414.068	160.59
414.276	140.12
414.485	-50.35
414.693	146.26
414.901	162.64
415.11	113.49
415.318	76.63
415.526	45.91
415.734	168.79
415.943	50
416.151	105.3
416.359	41.81
416.567	72.53
416.776	35.67
416.984	56.15
417.192	138.07
417.4	39.76
417.608	41.81
417.817	21.33
418.025	189.27
418.233	183.12
418.441	23.38
418.649	-64.68
418.857	111.44
419.065	136.02
419.273	21.33
419.481	84.82
419.689	82.77
419.897	90.96
420.105	-23.72
420.313	103.25
420.521	97.11
420.729	86.87
420.937	0.85
421.145	21.33
421.353	129.88
421.561	125.78
421.769	86.87
421.977	-17.58
422.185	58.2
422.393	68.44
422.601	146.26
422.809	21.33
423.017	68.44
423.224	52.05
423.432	131.92
423.64	23.38
423.848	156.5
424.056	-23.72
424.263	207.7
424.471	27.48
424.679	117.59
424.887	-85.16
425.094	121.68
425.302	123.73
425.51	27.48
425.718	78.68
425.925	70.48
426.133	43.86
426.341	105.3
426.548	74.58
426.756	70.48
426.964	103.25
427.171	52.05
427.379	119.64
427.586	64.34
427.794	127.83
428.001	105.3
428.209	129.88
428.417	179.03
428.624	160.59
428.832	123.73
429.039	72.53
429.247	68.44
429.454	95.06
429.662	205.65
429.869	125.78
430.076	150.36
430.284	148.31
430.491	162.64
430.699	117.59
430.906	234.32
431.114	119.64
431.321	82.77
431.528	142.16
431.736	129.88
431.943	148.31
432.15	254.8
432.358	209.75
432.565	228.18
432.772	47.96
432.979	176.98
433.187	129.88
433.394	271.19
433.601	82.77
433.808	246.61
434.016	224.08
434.223	238.42
434.43	90.96
434.637	215.89
434.844	244.56
435.052	164.69
435.259	316.24
435.466	211.79
435.673	215.89
435.88	299.86
436.087	215.89
436.294	322.38
436.501	283.47
436.708	226.13
436.915	215.89
437.122	367.44
437.329	254.8
437.537	250.71
437.743	303.95
437.95	414.54
438.157	326.48
438.364	361.3
438.571	299.86
438.778	328.53
438.985	426.83
439.192	461.65
439.399	385.87
439.606	353.1
439.813	588.62
440.02	670.54
440.227	629.58
440.433	553.8
440.64	475.98
440.847	488.27
441.054	480.08
441.261	504.65
441.467	494.41
441.674	486.22
441.881	641.87
442.088	586.57
442.294	729.93
442.501	684.87
442.708	764.75
442.914	688.97
443.121	740.17
443.328	740.17
443.534	906.06
443.741	811.85
443.948	764.75
444.154	832.33
444.361	1043.27
444.568	861
444.774	910.15
444.981	854.86
445.187	1135.43
445.394	1108.8
445.6	1020.74
445.807	1153.86
446.013	1094.47
446.22	1119.04
446.426	1166.15
446.633	1276.74
446.839	1497.92
447.046	1266.5
447.252	1426.24
447.459	1413.95
447.665	1489.73
447.871	1610.56
448.078	1708.86
448.284	1698.62
448.491	1884.98
448.697	1905.46
448.903	1942.33
449.11	1944.38
449.316	2007.86
449.522	2104.12
449.728	2188.08
449.935	2151.22
450.141	2278.19
450.347	2421.55
450.553	2378.55
450.76	2497.33
450.966	2491.18
451.172	2579.25
451.378	2757.42
451.584	2743.08
451.791	3115.81
451.997	3183.4
452.203	3242.79
452.409	3312.42
452.615	3498.78
452.821	3400.48
453.027	3466.02
453.233	3922.71
453.44	3679.01
453.646	4002.58
453.852	4133.65
454.058	4197.14
454.264	4250.39
454.47	4629.26
454.676	4645.65
454.882	5163.78
455.088	4680.46
455.294	5184.26
455.5	5374.72
455.705	5651.2
455.911	5726.97
456.117	5839.61
456.323	6183.67
456.529	6081.27
456.735	6693.62
456.941	6666.99
457.147	7047.91
457.352	7254.76
457.558	7502.56
457.764	7877.34
457.97	8096.47
458.176	8463.06
458.381	9081.55
458.587	8897.23
458.793	9401.03
458.999	9460.42
459.204	10611.38
459.41	11115.18
459.616	10769.07
459.821	11522.73
460.027	12141.21
460.233	12440.22
460.438	12710.55
460.644	13365.9
460.85	13482.63
461.055	13957.76
461.261	14764.66
461.466	14377.59
461.672	14674.55
461.878	16538.2
462.083	16040.54
462.289	16706.13
462.494	17246.8
462.7	17472.07
462.905	17652.3
463.111	19077.68
463.316	19790.38
463.522	19788.33
463.727	20933.14
463.932	21711.37
464.138	22356.48
464.343	23382.51
464.549	23566.83
464.754	25197.01
464.959	25917.9
465.165	26132.93
465.37	26038.73
465.575	26108.36
465.781	27871.66
465.986	28451.24
466.191	28340.64
466.397	28488.1
466.602	28086.7
466.807	29637.01
467.012	29907.34
467.218	30245.26
467.423	30462.34
467.628	31467.89
467.833	33016.16
468.038	32500.07
468.244	31951.21
468.449	33292.63
468.654	32854.37
468.859	33100.12
469.064	32911.71
469.269	31996.27
