Data from USB4F104151__19__11-24-34-207.txt Node

Date: Wed Feb 26 11:24:34 EST 2025
User: louis
Spectrometer: USB4F10415
Trigger mode: 4
Integration Time (sec): 1.000000E-1
Scans to average: 1
Electric dark correction enabled: true
Nonlinearity correction enabled: false
Boxcar width: 0
XAxis mode: Wavelengths
Number of Pixels in Spectrum: 3648
>>>>>Begin Spectral Data<<<<<
178.204	-409.25
178.424	-409.25
178.644	-409.25
178.864	-437.92
179.084	-384.68
179.304	6.49
179.524	-50.86
179.744	-1.71
179.964	61.78
180.184	26.96
180.404	57.68
180.624	41.3
180.844	-13.99
181.064	-147.11
181.283	24.92
181.503	-28.33
181.723	22.87
181.943	-102.06
182.163	168.27
182.383	-9.9
182.602	29.01
182.822	158.03
183.042	16.73
183.262	-57
183.482	-3.75
183.701	-5.8
183.921	33.11
184.141	-89.77
184.361	14.68
184.58	61.78
184.8	6.49
185.02	-59.05
185.239	88.4
185.459	-34.47
185.679	119.12
185.898	-59.05
186.118	115.03
186.338	72.02
186.557	49.49
186.777	-73.39
186.997	-116.39
187.216	45.4
187.436	252.24
187.655	-16.04
187.875	78.16
188.095	-1.71
188.314	35.16
188.534	63.83
188.753	-87.72
188.973	135.51
189.192	31.06
189.412	41.3
189.631	18.77
189.851	45.4
190.07	166.23
190.29	-63.15
190.509	22.87
190.729	41.3
190.948	78.16
191.168	158.03
191.387	53.59
191.607	-38.57
191.826	10.58
192.045	-1.71
192.265	-3.75
192.484	22.87
192.704	-32.43
192.923	-30.38
193.142	196.95
193.362	119.12
193.581	88.4
193.8	82.26
194.02	57.68
194.239	8.53
194.458	72.02
194.678	6.49
194.897	-73.39
195.116	90.45
195.335	39.25
195.555	31.06
195.774	-36.52
195.993	51.54
196.212	-40.62
196.432	-34.47
196.651	43.35
196.87	-13.99
197.089	190.8
197.308	55.64
197.528	76.12
197.747	-112.3
197.966	35.16
198.185	74.07
198.404	-59.05
198.623	69.97
198.842	90.45
199.062	90.45
199.281	76.12
199.5	35.16
199.719	96.6
199.938	-9.9
200.157	78.16
200.376	69.97
200.595	207.19
200.814	6.49
201.033	-75.43
201.252	155.99
201.471	104.79
201.69	24.92
201.909	63.83
202.128	63.83
202.347	4.44
202.566	-30.38
202.785	-54.95
203.004	8.53
203.223	250.19
203.442	59.73
203.661	2.39
203.879	55.64
204.098	59.73
204.317	-75.43
204.536	127.32
204.755	117.08
204.974	69.97
205.193	31.06
205.411	108.88
205.63	121.17
205.849	49.49
206.068	-1.71
206.287	-18.09
206.505	84.31
206.724	10.58
206.943	-59.05
207.162	16.73
207.381	41.3
207.599	-40.62
207.818	29.01
208.037	-18.09
208.255	4.44
208.474	-1.71
208.693	35.16
208.911	41.3
209.13	117.08
209.349	-1.71
209.567	-30.38
209.786	53.59
210.005	98.64
210.223	45.4
210.442	-83.63
210.661	6.49
210.879	106.84
211.098	55.64
211.316	0.34
211.535	47.44
211.753	-24.23
211.972	12.63
212.191	-83.63
212.409	121.17
212.628	35.16
212.846	-5.8
213.065	16.73
213.283	131.41
213.502	18.77
213.72	74.07
213.938	63.83
214.157	-32.43
214.375	59.73
214.594	-20.14
214.812	39.25
215.031	-46.76
215.249	76.12
215.467	-5.8
215.686	33.11
215.904	47.44
216.122	65.88
216.341	137.56
216.559	-18.09
216.778	104.79
216.996	92.5
217.214	-50.86
217.432	57.68
217.651	-59.05
217.869	31.06
218.087	65.88
218.306	-16.04
218.524	35.16
218.742	18.77
218.96	162.13
219.179	-11.95
219.397	72.02
219.615	188.75
219.833	198.99
220.051	37.2
220.27	104.79
220.488	92.5
220.706	72.02
220.924	-52.91
221.142	-48.81
221.36	26.96
221.578	96.6
221.796	12.63
222.015	86.36
222.233	33.11
222.451	170.32
222.669	10.58
222.887	59.73
223.105	-20.14
223.323	6.49
223.541	-147.11
223.759	76.12
223.977	-11.95
224.195	96.6
224.413	-7.85
224.631	-26.28
224.849	18.77
225.067	182.61
225.285	-57
225.503	-28.33
225.721	-122.54
225.939	-13.99
226.157	26.96
226.375	145.75
226.592	-26.28
226.81	-7.85
227.028	108.88
227.246	129.36
227.464	-24.23
227.682	10.58
227.9	63.83
228.117	6.49
228.335	55.64
228.553	98.64
228.771	41.3
228.989	33.11
229.206	84.31
229.424	31.06
229.642	-54.95
229.86	-5.8
230.077	112.98
230.295	2.39
230.513	108.88
230.731	117.08
230.948	133.46
231.166	82.26
231.384	18.77
231.601	-77.48
231.819	125.27
232.037	-87.72
232.254	-71.34
232.472	14.68
232.689	0.34
232.907	80.21
233.125	22.87
233.342	-26.28
233.56	-75.43
233.777	-42.67
233.995	-50.86
234.213	49.49
234.43	35.16
234.648	39.25
234.865	35.16
235.083	-5.8
235.3	22.87
235.518	-3.75
235.735	61.78
235.953	90.45
236.17	-13.99
236.388	67.92
236.605	39.25
236.822	82.26
237.04	100.69
237.257	-3.75
237.475	-48.81
237.692	63.83
237.909	51.54
238.127	-3.75
238.344	102.74
238.562	18.77
238.779	-85.67
238.996	-63.15
239.214	16.73
239.431	92.5
239.648	2.39
239.865	29.01
240.083	47.44
240.3	-61.1
240.517	-20.14
240.735	-16.04
240.952	131.41
241.169	63.83
241.386	82.26
241.603	55.64
241.821	-38.57
242.038	125.27
242.255	37.2
242.472	-9.9
242.689	65.88
242.907	29.01
243.124	76.12
243.341	39.25
243.558	8.53
243.775	-3.75
243.992	-112.3
244.209	74.07
244.426	186.71
244.643	29.01
244.86	53.59
245.078	61.78
245.295	26.96
245.512	-36.52
245.729	-59.05
245.946	74.07
246.163	-7.85
246.38	20.82
246.597	41.3
246.814	22.87
247.031	-48.81
247.248	-7.85
247.464	39.25
247.681	-34.47
247.898	84.31
248.115	16.73
248.332	-71.34
248.549	112.98
248.766	205.14
248.983	80.21
249.2	31.06
249.417	53.59
249.633	-42.67
249.85	63.83
250.067	12.63
250.284	-32.43
250.501	57.68
250.717	41.3
250.934	-42.67
251.151	-26.28
251.368	57.68
251.585	135.51
251.801	78.16
252.018	-44.71
252.235	106.84
252.451	-95.91
252.668	39.25
252.885	102.74
253.102	80.21
253.318	-5.8
253.535	-85.67
253.752	-44.71
253.968	-116.39
254.185	-79.53
254.401	-104.11
254.618	16.73
254.835	10.58
255.051	98.64
255.268	106.84
255.484	86.36
255.701	-7.85
255.917	4.44
256.134	-83.63
256.351	69.97
256.567	-38.57
256.784	-46.76
257	-52.91
257.217	45.4
257.433	63.83
257.65	-7.85
257.866	84.31
258.082	-71.34
258.299	-59.05
258.515	26.96
258.732	-20.14
258.948	-59.05
259.165	-3.75
259.381	-59.05
259.597	26.96
259.814	-11.95
260.03	-13.99
260.246	-26.28
260.463	112.98
260.679	119.12
260.895	49.49
261.112	100.69
261.328	10.58
261.544	-40.62
261.761	61.78
261.977	4.44
262.193	-91.82
262.409	45.4
262.626	22.87
262.842	104.79
263.058	57.68
263.274	112.98
263.49	12.63
263.707	102.74
263.923	80.21
264.139	-89.77
264.355	57.68
264.571	131.41
264.787	-46.76
265.004	43.35
265.22	35.16
265.436	-83.63
265.652	-22.19
265.868	53.59
266.084	-118.44
266.3	6.49
266.516	-5.8
266.732	55.64
266.948	67.92
267.164	22.87
267.38	33.11
267.596	8.53
267.812	45.4
268.028	-36.52
268.244	-13.99
268.46	131.41
268.676	31.06
268.892	82.26
269.108	33.11
269.324	-71.34
269.54	2.39
269.756	69.97
269.972	-106.15
270.188	4.44
270.403	-100.01
270.619	10.58
270.835	76.12
271.051	86.36
271.267	6.49
271.483	-42.67
271.698	82.26
271.914	57.68
272.13	-11.95
272.346	-1.71
272.562	-5.8
272.777	147.8
272.993	-36.52
273.209	-34.47
273.425	45.4
273.64	-97.96
273.856	57.68
274.072	-97.96
274.287	-26.28
274.503	63.83
274.719	80.21
274.934	-38.57
275.15	-26.28
275.366	12.63
275.581	-67.24
275.797	0.34
276.012	0.34
276.228	-20.14
276.444	20.82
276.659	125.27
276.875	-112.3
277.09	26.96
277.306	53.59
277.521	90.45
277.737	-5.8
277.952	51.54
278.168	-30.38
278.383	16.73
278.599	53.59
278.814	41.3
279.03	-34.47
279.245	110.93
279.461	-30.38
279.676	115.03
279.892	-32.43
280.107	-48.81
280.322	-91.82
280.538	63.83
280.753	10.58
280.969	-1.71
281.184	76.12
281.399	72.02
281.615	16.73
281.83	37.2
282.045	-28.33
282.26	-11.95
282.476	-1.71
282.691	51.54
282.906	18.77
283.122	-83.63
283.337	-13.99
283.552	47.44
283.767	-34.47
283.983	123.22
284.198	80.21
284.413	33.11
284.628	-77.48
284.843	-1.71
285.058	61.78
285.274	0.34
285.489	-89.77
285.704	84.31
285.919	49.49
286.134	12.63
286.349	-30.38
286.564	-54.95
286.779	207.19
286.995	41.3
287.21	-93.87
287.425	98.64
287.64	18.77
287.855	49.49
288.07	29.01
288.285	121.17
288.5	147.8
288.715	41.3
288.93	-3.75
289.145	-120.49
289.36	63.83
289.575	8.53
289.79	76.12
290.004	-110.25
290.219	37.2
290.434	6.49
290.649	-79.53
290.864	-77.48
291.079	0.34
291.294	26.96
291.509	43.35
291.724	2.39
291.938	-42.67
292.153	45.4
292.368	-18.09
292.583	72.02
292.798	-52.91
293.012	80.21
293.227	90.45
293.442	22.87
293.657	59.73
293.871	141.65
294.086	16.73
294.301	131.41
294.516	37.2
294.73	26.96
294.945	-104.11
295.16	2.39
295.374	176.47
295.589	20.82
295.804	14.68
296.018	102.74
296.233	133.46
296.447	31.06
296.662	8.53
296.877	108.88
297.091	74.07
297.306	59.73
297.52	-28.33
297.735	47.44
297.949	43.35
298.164	26.96
298.378	88.4
298.593	-44.71
298.807	-28.33
299.022	18.77
299.236	65.88
299.451	22.87
299.665	115.03
299.88	-24.23
300.094	-18.09
300.309	-28.33
300.523	10.58
300.737	-1.71
300.952	108.88
301.166	-13.99
301.381	-89.77
301.595	-50.86
301.809	-44.71
302.024	-65.19
302.238	-87.72
302.452	90.45
302.667	-63.15
302.881	94.55
303.095	104.79
303.309	-26.28
303.524	24.92
303.738	29.01
303.952	-18.09
304.166	102.74
304.381	-108.2
304.595	90.45
304.809	-5.8
305.023	20.82
305.237	-42.67
305.452	-42.67
305.666	65.88
305.88	84.31
306.094	31.06
306.308	24.92
306.522	90.45
306.736	10.58
306.95	8.53
307.164	63.83
307.379	-97.96
307.593	112.98
307.807	80.21
308.021	26.96
308.235	55.64
308.449	-61.1
308.663	76.12
308.877	282.96
309.091	-18.09
309.305	49.49
309.519	-116.39
309.733	115.03
309.947	-102.06
310.161	-1.71
310.374	84.31
310.588	82.26
310.802	-81.58
311.016	-3.75
311.23	-5.8
311.444	-77.48
311.658	-81.58
311.872	96.6
312.085	104.79
312.299	106.84
312.513	26.96
312.727	51.54
312.941	51.54
313.154	4.44
313.368	53.59
313.582	51.54
313.796	94.55
314.009	-36.52
314.223	74.07
314.437	49.49
314.651	110.93
314.864	117.08
315.078	33.11
315.292	-28.33
315.505	-48.81
315.719	43.35
315.933	31.06
316.146	-42.67
316.36	-97.96
316.573	162.13
316.787	33.11
317.001	45.4
317.214	-42.67
317.428	10.58
317.641	-28.33
317.855	-28.33
318.068	14.68
318.282	20.82
318.495	170.32
318.709	78.16
318.922	29.01
319.136	98.64
319.349	129.36
319.563	-13.99
319.776	90.45
319.99	-110.25
320.203	84.31
320.417	63.83
320.63	145.75
320.843	69.97
321.057	37.2
321.27	20.82
321.483	-5.8
321.697	129.36
321.91	76.12
322.124	26.96
322.337	33.11
322.55	26.96
322.763	12.63
322.977	55.64
323.19	-1.71
323.403	29.01
323.617	45.4
323.83	78.16
324.043	14.68
324.256	12.63
324.469	-61.1
324.683	57.68
324.896	-81.58
325.109	41.3
325.322	-100.01
325.535	53.59
325.748	106.84
325.962	-26.28
326.175	31.06
326.388	65.88
326.601	80.21
326.814	-7.85
327.027	45.4
327.24	145.75
327.453	-71.34
327.666	59.73
327.879	143.7
328.092	129.36
328.305	8.53
328.518	-50.86
328.731	55.64
328.944	2.39
329.157	10.58
329.37	61.78
329.583	94.55
329.796	94.55
330.009	-38.57
330.222	51.54
330.435	78.16
330.648	26.96
330.861	43.35
331.073	63.83
331.286	59.73
331.499	74.07
331.712	-63.15
331.925	-1.71
332.138	37.2
332.35	115.03
332.563	6.49
332.776	53.59
332.989	-36.52
333.202	-73.39
333.414	53.59
333.627	59.73
333.84	16.73
334.053	49.49
334.265	-16.04
334.478	-13.99
334.691	-38.57
334.903	-22.19
335.116	-24.23
335.329	0.34
335.541	14.68
335.754	98.64
335.966	-13.99
336.179	-11.95
336.392	4.44
336.604	-42.67
336.817	57.68
337.029	108.88
337.242	41.3
337.454	51.54
337.667	63.83
337.88	119.12
338.092	63.83
338.305	104.79
338.517	-36.52
338.729	147.8
338.942	168.27
339.154	-42.67
339.367	-50.86
339.579	63.83
339.792	-20.14
340.004	49.49
340.217	35.16
340.429	24.92
340.641	-63.15
340.854	-73.39
341.066	33.11
341.278	160.08
341.491	127.32
341.703	4.44
341.915	-5.8
342.128	125.27
342.34	-11.95
342.552	-61.1
342.764	-95.91
342.977	-57
343.189	24.92
343.401	-42.67
343.613	-97.96
343.826	57.68
344.038	-89.77
344.25	35.16
344.462	29.01
344.674	84.31
344.886	6.49
345.099	39.25
345.311	-22.19
345.523	-11.95
345.735	-104.11
345.947	69.97
346.159	24.92
346.371	12.63
346.583	-9.9
346.795	172.37
347.007	-48.81
347.219	39.25
347.431	-1.71
347.643	119.12
347.855	-46.76
348.067	115.03
348.279	-54.95
348.491	-22.19
348.703	158.03
348.915	-7.85
349.127	41.3
349.339	129.36
349.551	45.4
349.763	20.82
349.975	-63.15
350.187	61.78
350.399	84.31
350.61	41.3
350.822	-7.85
351.034	-24.23
351.246	31.06
351.458	96.6
351.669	121.17
351.881	78.16
352.093	106.84
352.305	127.32
352.517	6.49
352.728	37.2
352.94	92.5
353.152	72.02
353.363	0.34
353.575	29.01
353.787	117.08
353.999	90.45
354.21	65.88
354.422	-65.19
354.633	-79.53
354.845	-7.85
355.057	39.25
355.268	-9.9
355.48	84.31
355.692	-40.62
355.903	-42.67
356.115	-120.49
356.326	-108.2
356.538	119.12
356.749	47.44
356.961	72.02
357.172	49.49
357.384	-71.34
357.595	182.61
357.807	-89.77
358.018	-13.99
358.23	112.98
358.441	164.18
358.653	129.36
358.864	2.39
359.075	-44.71
359.287	14.68
359.498	86.36
359.709	53.59
359.921	-7.85
360.132	47.44
360.344	0.34
360.555	-59.05
360.766	-40.62
360.977	67.92
361.189	29.01
361.4	0.34
361.611	39.25
361.823	88.4
362.034	-1.71
362.245	-57
362.456	104.79
362.667	49.49
362.879	-95.91
363.09	98.64
363.301	39.25
363.512	-24.23
363.723	37.2
363.935	20.82
364.146	119.12
364.357	0.34
364.568	61.78
364.779	-69.29
364.99	127.32
365.201	-28.33
365.412	51.54
365.623	-114.34
365.834	-7.85
366.045	-24.23
366.256	67.92
366.467	22.87
366.678	14.68
366.889	112.98
367.1	20.82
367.311	90.45
367.522	-22.19
367.733	94.55
367.944	112.98
368.155	-28.33
368.366	53.59
368.577	100.69
368.788	106.84
368.999	-77.48
369.209	-7.85
369.42	133.46
369.631	217.43
369.842	94.55
370.053	-11.95
370.264	20.82
370.474	-34.47
370.685	35.16
370.896	10.58
371.107	51.54
371.317	51.54
371.528	61.78
371.739	63.83
371.95	43.35
372.16	26.96
372.371	-61.1
372.582	45.4
372.792	47.44
373.003	-36.52
373.214	72.02
373.424	63.83
373.635	-18.09
373.846	106.84
374.056	108.88
374.267	119.12
374.477	12.63
374.688	-11.95
374.898	31.06
375.109	-46.76
375.319	76.12
375.53	39.25
375.74	59.73
375.951	-40.62
376.161	78.16
376.372	35.16
376.582	-63.15
376.793	61.78
377.003	8.53
377.214	-28.33
377.424	-7.85
377.635	24.92
377.845	-81.58
378.055	24.92
378.266	-48.81
378.476	16.73
378.686	53.59
378.897	-26.28
379.107	72.02
379.317	80.21
379.528	-54.95
379.738	100.69
379.948	10.58
380.158	143.7
380.369	49.49
380.579	47.44
380.789	102.74
380.999	6.49
381.21	72.02
381.42	125.27
381.63	2.39
381.84	78.16
382.05	49.49
382.261	96.6
382.471	143.7
382.681	-5.8
382.891	149.84
383.101	26.96
383.311	-79.53
383.521	-18.09
383.731	24.92
383.941	80.21
384.151	51.54
384.361	-28.33
384.571	20.82
384.781	-9.9
384.991	137.56
385.201	133.46
385.411	149.84
385.621	-73.39
385.831	37.2
386.041	51.54
386.251	29.01
386.461	170.32
386.671	-59.05
386.881	63.83
387.091	31.06
387.301	119.12
387.511	26.96
387.72	63.83
387.93	102.74
388.14	-57
388.35	24.92
388.56	45.4
388.769	133.46
388.979	-18.09
389.189	-54.95
389.399	-20.14
389.609	20.82
389.818	106.84
390.028	43.35
390.238	100.69
390.447	-11.95
390.657	35.16
390.867	26.96
391.076	-87.72
391.286	2.39
391.496	31.06
391.705	-128.68
391.915	72.02
392.125	108.88
392.334	22.87
392.544	198.99
392.753	-48.81
392.963	-1.71
393.172	29.01
393.382	-20.14
393.591	201.04
393.801	20.82
394.01	137.56
394.22	90.45
394.429	45.4
394.639	-5.8
394.848	61.78
395.058	61.78
395.267	39.25
395.477	90.45
395.686	133.46
395.895	184.66
396.105	123.22
396.314	61.78
396.524	-3.75
396.733	12.63
396.942	127.32
397.152	119.12
397.361	80.21
397.57	94.55
397.78	96.6
397.989	86.36
398.198	131.41
398.407	2.39
398.617	8.53
398.826	63.83
399.035	14.68
399.244	-13.99
399.453	86.36
399.663	-32.43
399.872	149.84
400.081	-22.19
400.29	84.31
400.499	-34.47
400.708	59.73
400.917	-28.33
401.127	67.92
401.336	-13.99
401.545	164.18
401.754	33.11
401.963	57.68
402.172	20.82
402.381	-112.3
402.59	-79.53
402.799	8.53
403.008	94.55
403.217	4.44
403.426	41.3
403.635	-91.82
403.844	67.92
404.053	-9.9
404.262	-77.48
404.471	133.46
404.68	47.44
404.888	-5.8
405.097	47.44
405.306	65.88
405.515	78.16
405.724	-18.09
405.933	72.02
406.142	33.11
406.35	78.16
406.559	29.01
406.768	8.53
406.977	180.56
407.185	0.34
407.394	125.27
407.603	-34.47
407.812	-11.95
408.02	98.64
408.229	94.55
408.438	74.07
408.646	-22.19
408.855	47.44
409.064	-1.71
409.272	-18.09
409.481	106.84
409.69	-28.33
409.898	-13.99
410.107	100.69
410.315	92.5
410.524	-46.76
410.733	100.69
410.941	47.44
411.15	135.51
411.358	18.77
411.567	72.02
411.775	69.97
411.984	24.92
412.192	59.73
412.401	-46.76
412.609	153.94
412.818	61.78
413.026	82.26
413.234	49.49
413.443	12.63
413.651	-83.63
413.86	76.12
414.068	102.74
414.276	168.27
414.485	-48.81
414.693	184.66
414.901	182.61
415.11	57.68
415.318	37.2
415.526	-1.71
415.734	78.16
415.943	80.21
416.151	153.94
416.359	39.25
416.567	-26.28
416.776	137.56
416.984	92.5
417.192	145.75
417.4	80.21
417.608	2.39
417.817	-38.57
418.025	61.78
418.233	86.36
418.441	-50.86
418.649	-20.14
418.857	41.3
419.065	176.47
419.273	-11.95
419.481	8.53
419.689	24.92
419.897	0.34
420.105	-63.15
420.313	90.45
420.521	65.88
420.729	147.8
420.937	-50.86
421.145	-32.43
421.353	80.21
421.561	129.36
421.769	47.44
421.977	-48.81
422.185	94.55
422.393	117.08
422.601	112.98
422.809	61.78
423.017	16.73
423.224	86.36
423.432	72.02
423.64	-42.67
423.848	162.13
424.056	-40.62
424.263	102.74
424.471	12.63
424.679	162.13
424.887	-110.25
425.094	110.93
425.302	96.6
425.51	-16.04
425.718	41.3
425.925	29.01
426.133	6.49
426.341	268.63
426.548	86.36
426.756	-7.85
426.964	67.92
427.171	-52.91
427.379	67.92
427.586	14.68
427.794	26.96
428.001	76.12
428.209	43.35
428.417	72.02
428.624	100.69
428.832	74.07
429.039	31.06
429.247	78.16
429.454	96.6
429.662	86.36
429.869	110.93
430.076	106.84
430.284	104.79
430.491	149.84
430.699	155.99
430.906	180.56
431.114	41.3
431.321	104.79
431.528	106.84
431.736	139.6
431.943	115.03
432.15	96.6
432.358	39.25
432.565	137.56
432.772	-48.81
432.979	115.03
433.187	82.26
433.394	106.84
433.601	6.49
433.808	207.19
434.016	153.94
434.223	164.18
434.43	139.6
434.637	209.23
434.844	209.23
435.052	147.8
435.259	166.23
435.466	194.9
435.673	223.57
435.88	227.67
436.087	196.95
436.294	237.91
436.501	164.18
436.708	121.17
436.915	231.76
437.122	315.73
437.329	186.71
437.537	213.33
437.743	252.24
437.95	317.78
438.157	258.39
438.364	235.86
438.571	266.58
438.778	346.45
438.985	242
439.192	313.68
439.399	244.05
439.606	350.54
439.813	364.88
440.02	387.41
440.227	452.94
440.433	457.04
440.64	356.69
440.847	342.35
441.054	360.78
441.261	424.27
441.467	399.7
441.674	418.13
441.881	405.84
442.088	436.56
442.294	491.85
442.501	510.29
442.708	516.43
442.914	512.33
443.121	569.68
443.328	627.02
443.534	647.5
443.741	547.15
443.948	518.48
444.154	575.82
444.361	657.74
444.568	676.17
444.774	825.67
444.981	629.07
445.187	797
445.394	743.75
445.6	674.12
445.807	840.01
446.013	801.1
446.22	747.85
446.426	1007.94
446.633	1012.04
446.839	1124.68
447.046	919.88
447.252	1128.77
447.459	1122.63
447.665	1124.68
447.871	1155.4
448.078	1259.84
448.284	1337.66
448.491	1360.19
448.697	1407.3
448.903	1497.41
449.11	1413.44
449.316	1540.41
449.522	1597.76
449.728	1640.76
449.935	1771.83
450.141	1651
450.347	1915.19
450.553	1712.44
450.76	1939.77
450.966	1970.49
451.172	2060.6
451.378	2064.69
451.584	2246.96
451.791	2267.44
451.997	2365.75
452.203	2418.99
452.409	2541.87
452.615	2625.84
452.821	2679.08
453.027	2613.55
453.233	2963.75
453.44	2875.69
453.646	3006.76
453.852	3021.1
454.058	3137.83
454.264	3324.19
454.47	3377.44
454.676	3522.85
454.882	3883.29
455.088	3688.73
455.294	3897.63
455.5	4200.73
455.705	4374.8
455.911	4307.22
456.117	4653.33
456.323	4688.14
456.529	4712.72
456.735	5183.75
456.941	5198.09
457.147	5490.95
457.352	5548.29
457.558	5765.37
457.764	6209.78
457.97	6050.04
458.176	6463.73
458.381	6648.05
458.587	6871.28
458.793	7315.69
458.999	7211.24
459.204	8208.6
459.41	8380.63
459.616	8341.72
459.821	8956.11
460.027	9203.91
460.233	9656.51
460.438	9791.68
460.644	10188.99
460.85	10275
461.055	10750.13
461.261	11172.01
461.466	10959.02
461.672	11098.28
461.878	12435.61
462.083	12251.29
462.289	12718.23
462.494	13179.02
462.7	13156.49
462.905	13197.45
463.111	14575.73
463.316	15362.15
463.522	15571.05
463.727	15822.95
463.932	16470.11
464.138	17315.92
464.343	17825.86
464.549	17969.22
464.754	19370.03
464.959	20011.04
465.165	20068.39
465.37	20017.19
465.575	19877.93
465.781	21280.78
465.986	21948.42
466.191	21483.53
466.397	21893.13
466.602	21211.15
466.807	22433.79
467.012	22890.49
467.218	23377.9
467.423	23183.35
467.628	23779.31
467.833	25212.88
468.038	24920.03
468.244	24322.02
468.449	25485.26
468.654	25198.55
