Data from USB4F104151__9__09-24-53-324.txt Node

Date: Wed Feb 26 09:24:53 EST 2025
User: louis
Spectrometer: USB4F10415
Trigger mode: 4
Integration Time (sec): 1.000000E-1
Scans to average: 1
Electric dark correction enabled: true
Nonlinearity correction enabled: false
Boxcar width: 0
XAxis mode: Wavelengths
Number of Pixels in Spectrum: 3648
>>>>>Begin Spectral Data<<<<<
178.204	-343.55
178.424	-343.55
178.644	-343.55
178.864	-351.74
179.084	-327.16
179.304	76.29
179.524	33.28
179.744	-3.58
179.964	55.81
180.184	8.7
180.404	41.47
180.624	-40.45
180.844	-7.68
181.064	-81.41
181.283	35.33
181.503	-93.69
181.723	-24.06
181.943	-124.41
182.163	156.16
182.383	-1.54
182.602	94.72
182.822	180.73
183.042	94.72
183.262	6.66
183.482	18.94
183.701	68.09
183.921	33.28
184.141	-101.89
184.361	70.14
184.58	25.09
184.8	45.57
185.02	-15.87
185.239	145.92
185.459	20.99
185.679	78.33
185.898	-155.13
186.118	39.42
186.338	-17.92
186.557	123.39
186.777	-73.21
186.997	4.61
187.216	12.8
187.436	135.68
187.655	86.53
187.875	119.29
188.095	6.66
188.314	49.66
188.534	84.48
188.753	-58.88
188.973	16.9
189.192	107.01
189.412	-11.78
189.631	25.09
189.851	82.43
190.07	143.87
190.29	-58.88
190.509	23.04
190.729	39.42
190.948	98.81
191.168	193.02
191.387	4.61
191.607	80.38
191.826	41.47
192.045	-24.06
192.265	33.28
192.484	78.33
192.704	23.04
192.923	-24.06
193.142	147.97
193.362	12.8
193.581	170.49
193.8	20.99
194.02	64
194.239	-5.63
194.458	8.7
194.678	-15.87
194.897	49.66
195.116	-26.11
195.335	-7.68
195.555	123.39
195.774	16.9
195.993	41.47
196.212	-24.06
196.432	-22.02
196.651	-19.97
196.87	-38.4
197.089	131.58
197.308	82.43
197.528	61.95
197.747	-28.16
197.966	45.57
198.185	82.43
198.404	-24.06
198.623	72.19
198.842	51.71
199.062	98.81
199.281	150.01
199.5	31.23
199.719	8.7
199.938	18.94
200.157	27.14
200.376	8.7
200.595	66.05
200.814	2.56
201.033	41.47
201.252	152.06
201.471	51.71
201.69	109.05
201.909	25.09
202.128	41.47
202.347	31.23
202.566	33.28
202.785	-32.26
203.004	-3.58
203.223	184.83
203.442	49.66
203.661	-103.93
203.879	55.81
204.098	129.53
204.317	4.61
204.536	78.33
204.755	86.53
204.974	78.33
205.193	29.18
205.411	154.11
205.63	117.25
205.849	-28.16
206.068	-3.58
206.287	70.14
206.505	139.77
206.724	8.7
206.943	31.23
207.162	33.28
207.381	70.14
207.599	25.09
207.818	82.43
208.037	39.42
208.255	76.29
208.474	41.47
208.693	2.56
208.911	27.14
209.13	72.19
209.349	20.99
209.567	23.04
209.786	121.34
210.005	121.34
210.223	121.34
210.442	-40.45
210.661	14.85
210.879	90.62
211.098	12.8
211.316	141.82
211.535	102.91
211.753	6.66
211.972	68.09
212.191	25.09
212.409	6.66
212.628	53.76
212.846	-24.06
213.065	-5.63
213.283	100.86
213.502	39.42
213.72	53.76
213.938	0.51
214.157	25.09
214.375	64
214.594	31.23
214.812	84.48
215.031	41.47
215.249	27.14
215.467	4.61
215.686	-1.54
215.904	29.18
216.122	-40.45
216.341	80.38
216.559	29.18
216.778	8.7
216.996	107.01
217.214	10.75
217.432	-42.5
217.651	23.04
217.869	57.86
218.087	45.57
218.306	4.61
218.524	47.62
218.742	-62.98
218.96	90.62
219.179	57.86
219.397	43.52
219.615	197.12
219.833	43.52
220.051	-34.3
220.27	111.1
220.488	131.58
220.706	25.09
220.924	-19.97
221.142	-19.97
221.36	33.28
221.578	0.51
221.796	55.81
222.015	-24.06
222.233	-13.82
222.451	86.53
222.669	-58.88
222.887	57.86
223.105	-40.45
223.323	29.18
223.541	-9.73
223.759	72.19
223.977	-22.02
224.195	137.73
224.413	-15.87
224.631	39.42
224.849	94.72
225.067	184.83
225.285	16.9
225.503	-36.35
225.721	-89.6
225.939	57.86
226.157	-22.02
226.375	156.16
226.592	-62.98
226.81	10.75
227.028	16.9
227.246	94.72
227.464	90.62
227.682	92.67
227.9	104.96
228.117	86.53
228.335	20.99
228.553	90.62
228.771	-17.92
228.989	72.19
229.206	-26.11
229.424	-42.5
229.642	29.18
229.86	-38.4
230.077	72.19
230.295	66.05
230.513	94.72
230.731	6.66
230.948	98.81
231.166	115.2
231.384	0.51
231.601	-3.58
231.819	82.43
232.037	8.7
232.254	-58.88
232.472	57.86
232.689	-24.06
232.907	137.73
233.125	2.56
233.342	-32.26
233.56	0.51
233.777	66.05
233.995	88.57
234.213	129.53
234.43	49.66
234.648	-17.92
234.865	-26.11
235.083	-7.68
235.3	12.8
235.518	96.77
235.735	80.38
235.953	61.95
236.17	-19.97
236.388	25.09
236.605	-52.74
236.822	61.95
237.04	51.71
237.257	0.51
237.475	-56.83
237.692	-15.87
237.909	90.62
238.127	59.9
238.344	94.72
238.562	39.42
238.779	-19.97
238.996	-24.06
239.214	-91.65
239.431	84.48
239.648	-7.68
239.865	0.51
240.083	74.24
240.3	37.38
240.517	20.99
240.735	8.7
240.952	115.2
241.169	59.9
241.386	74.24
241.603	14.85
241.821	-36.35
242.038	64
242.255	86.53
242.472	-40.45
242.689	20.99
242.907	86.53
243.124	16.9
243.341	-28.16
243.558	51.71
243.775	8.7
243.992	-56.83
244.209	86.53
244.426	100.86
244.643	104.96
244.86	39.42
245.078	41.47
245.295	76.29
245.512	66.05
245.729	-48.64
245.946	39.42
246.163	14.85
246.38	-54.78
246.597	16.9
246.814	39.42
247.031	-19.97
247.248	31.23
247.464	102.91
247.681	59.9
247.898	20.99
248.115	14.85
248.332	-13.82
248.549	152.06
248.766	127.49
248.983	45.57
249.2	90.62
249.417	-38.4
249.633	16.9
249.85	84.48
250.067	39.42
250.284	33.28
250.501	53.76
250.717	113.15
250.934	-30.21
251.151	16.9
251.368	66.05
251.585	80.38
251.801	-9.73
252.018	-58.88
252.235	86.53
252.451	-24.06
252.668	41.47
252.885	74.24
253.102	-42.5
253.318	53.76
253.535	-22.02
253.752	-9.73
253.968	-7.68
254.185	-40.45
254.401	-15.87
254.618	117.25
254.835	-50.69
255.051	57.86
255.268	41.47
255.484	20.99
255.701	51.71
255.917	115.2
256.134	20.99
256.351	-56.83
256.567	-46.59
256.784	25.09
257	-114.17
257.217	92.67
257.433	8.7
257.65	51.71
257.866	115.2
258.082	-60.93
258.299	-46.59
258.515	12.8
258.732	64
258.948	-50.69
259.165	29.18
259.381	-1.54
259.597	6.66
259.814	4.61
260.03	-30.21
260.246	23.04
260.463	74.24
260.679	49.66
260.895	20.99
261.112	45.57
261.328	10.75
261.544	-40.45
261.761	154.11
261.977	47.62
262.193	-42.5
262.409	55.81
262.626	12.8
262.842	43.52
263.058	-7.68
263.274	100.86
263.49	0.51
263.707	123.39
263.923	8.7
264.139	-50.69
264.355	-13.82
264.571	61.95
264.787	104.96
265.004	121.34
265.22	8.7
265.436	-52.74
265.652	-13.82
265.868	12.8
266.084	-22.02
266.3	-44.54
266.516	-124.41
266.732	45.57
266.948	29.18
267.164	-28.16
267.38	25.09
267.596	53.76
267.812	96.77
268.028	16.9
268.244	29.18
268.46	-40.45
268.676	14.85
268.892	37.38
269.108	-26.11
269.324	-24.06
269.54	-34.3
269.756	104.96
269.972	-73.21
270.188	55.81
270.403	-79.36
270.619	57.86
270.835	88.57
271.051	-13.82
271.267	29.18
271.483	-60.93
271.698	137.73
271.914	43.52
272.13	12.8
272.346	4.61
272.562	-54.78
272.777	135.68
272.993	29.18
273.209	74.24
273.425	33.28
273.64	-79.36
273.856	107.01
274.072	-54.78
274.287	-114.17
274.503	51.71
274.719	78.33
274.934	-9.73
275.15	-24.06
275.366	72.19
275.581	-48.64
275.797	51.71
276.012	-54.78
276.228	49.66
276.444	27.14
276.659	43.52
276.875	-26.11
277.09	-36.35
277.306	-26.11
277.521	-5.63
277.737	-15.87
277.952	82.43
278.168	25.09
278.383	-40.45
278.599	78.33
278.814	55.81
279.03	82.43
279.245	127.49
279.461	66.05
279.676	82.43
279.892	-65.02
280.107	-44.54
280.322	-15.87
280.538	31.23
280.753	-40.45
280.969	123.39
281.184	-54.78
281.399	127.49
281.615	8.7
281.83	-24.06
282.045	-52.74
282.26	37.38
282.476	82.43
282.691	37.38
282.906	53.76
283.122	98.81
283.337	33.28
283.552	104.96
283.767	-105.98
283.983	160.25
284.198	-5.63
284.413	90.62
284.628	-65.02
284.843	47.62
285.058	-24.06
285.274	-17.92
285.489	16.9
285.704	66.05
285.919	-22.02
286.134	61.95
286.349	-17.92
286.564	-26.11
286.779	139.77
286.995	49.66
287.21	-50.69
287.425	-40.45
287.64	18.94
287.855	-24.06
288.07	23.04
288.285	37.38
288.5	70.14
288.715	49.66
288.93	64
289.145	-32.26
289.36	90.62
289.575	-32.26
289.79	94.72
290.004	119.29
290.219	102.91
290.434	-22.02
290.649	18.94
290.864	0.51
291.079	-22.02
291.294	104.96
291.509	55.81
291.724	12.8
291.938	-19.97
292.153	6.66
292.368	-9.73
292.583	80.38
292.798	39.42
293.012	39.42
293.227	68.09
293.442	-44.54
293.657	123.39
293.871	119.29
294.086	33.28
294.301	168.45
294.516	109.05
294.73	88.57
294.945	-24.06
295.16	4.61
295.374	127.49
295.589	59.9
295.804	94.72
296.018	72.19
296.233	160.25
296.447	82.43
296.662	-22.02
296.877	111.1
297.091	45.57
297.306	-11.78
297.52	45.57
297.735	76.29
297.949	12.8
298.164	78.33
298.378	64
298.593	-28.16
298.807	-89.6
299.022	25.09
299.236	90.62
299.451	20.99
299.665	-9.73
299.88	98.81
300.094	23.04
300.309	8.7
300.523	117.25
300.737	33.28
300.952	29.18
301.166	12.8
301.381	-65.02
301.595	27.14
301.809	10.75
302.024	61.95
302.238	-97.79
302.452	88.57
302.667	14.85
302.881	68.09
303.095	156.16
303.309	64
303.524	-46.59
303.738	57.86
303.952	-22.02
304.166	39.42
304.381	-71.17
304.595	123.39
304.809	53.76
305.023	33.28
305.237	-26.11
305.452	57.86
305.666	119.29
305.88	-1.54
306.094	-32.26
306.308	57.86
306.522	129.53
306.736	25.09
306.95	119.29
307.164	74.24
307.379	61.95
307.593	150.01
307.807	37.38
308.021	125.44
308.235	23.04
308.449	-81.41
308.663	-22.02
308.877	111.1
309.091	-46.59
309.305	6.66
309.519	-110.08
309.733	109.05
309.947	47.62
310.161	74.24
310.374	119.29
310.588	98.81
310.802	-40.45
311.016	-7.68
311.23	31.23
311.444	10.75
311.658	27.14
311.872	59.9
312.085	88.57
312.299	129.53
312.513	53.76
312.727	66.05
312.941	-28.16
313.154	23.04
313.368	-3.58
313.582	-11.78
313.796	18.94
314.009	23.04
314.223	115.2
314.437	43.52
314.651	66.05
314.864	2.56
315.078	-46.59
315.292	-34.3
315.505	-15.87
315.719	86.53
315.933	16.9
316.146	-19.97
316.36	12.8
316.573	41.47
316.787	23.04
317.001	57.86
317.214	25.09
317.428	66.05
317.641	-50.69
317.855	-34.3
318.068	41.47
318.282	96.77
318.495	180.73
318.709	78.33
318.922	-73.21
319.136	162.3
319.349	104.96
319.563	-1.54
319.776	72.19
319.99	-95.74
320.203	96.77
320.417	43.52
320.63	8.7
320.843	123.39
321.057	-46.59
321.27	16.9
321.483	23.04
321.697	66.05
321.91	16.9
322.124	135.68
322.337	33.28
322.55	-5.63
322.763	25.09
322.977	47.62
323.19	-15.87
323.403	4.61
323.617	45.57
323.83	35.33
324.043	-9.73
324.256	16.9
324.469	-24.06
324.683	49.66
324.896	-7.68
325.109	8.7
325.322	-97.79
325.535	70.14
325.748	4.61
325.962	37.38
326.175	20.99
326.388	43.52
326.601	102.91
326.814	-22.02
327.027	70.14
327.24	154.11
327.453	-62.98
327.666	20.99
327.879	66.05
328.092	37.38
328.305	49.66
328.518	-50.69
328.731	-9.73
328.944	86.53
329.157	74.24
329.37	-36.35
329.583	100.86
329.796	78.33
330.009	-69.12
330.222	76.29
330.435	76.29
330.648	47.62
330.861	0.51
331.073	35.33
331.286	104.96
331.499	37.38
331.712	-36.35
331.925	41.47
332.138	-32.26
332.35	80.38
332.563	-101.89
332.776	119.29
332.989	-7.68
333.202	-22.02
333.414	33.28
333.627	-36.35
333.84	125.44
334.053	-9.73
334.265	-58.88
334.478	78.33
334.691	-13.82
334.903	68.09
335.116	-7.68
335.329	-7.68
335.541	88.57
335.754	172.54
335.966	20.99
336.179	88.57
336.392	-28.16
336.604	8.7
336.817	104.96
337.029	68.09
337.242	23.04
337.454	-1.54
337.667	35.33
337.88	160.25
338.092	29.18
338.305	29.18
338.517	6.66
338.729	78.33
338.942	131.58
339.154	51.71
339.367	-7.68
339.579	-3.58
339.792	14.85
340.004	70.14
340.217	78.33
340.429	98.81
340.641	0.51
340.854	-17.92
341.066	-48.64
341.278	125.44
341.491	154.11
341.703	33.28
341.915	14.85
342.128	98.81
342.34	45.57
342.552	8.7
342.764	39.42
342.977	12.8
343.189	47.62
343.401	16.9
343.613	-44.54
343.826	23.04
344.038	35.33
344.25	64
344.462	-34.3
344.674	29.18
344.886	-44.54
345.099	33.28
345.311	25.09
345.523	27.14
345.735	-97.79
345.947	127.49
346.159	78.33
346.371	10.75
346.583	49.66
346.795	207.36
347.007	49.66
347.219	-7.68
347.431	-56.83
347.643	-19.97
347.855	45.57
348.067	119.29
348.279	-110.08
348.491	-1.54
348.703	127.49
348.915	-44.54
349.127	59.9
349.339	41.47
349.551	18.94
349.763	53.76
349.975	74.24
350.187	78.33
350.399	115.2
350.61	86.53
350.822	102.91
351.034	84.48
351.246	20.99
351.458	113.15
351.669	41.47
351.881	45.57
352.093	53.76
352.305	102.91
352.517	64
352.728	31.23
352.94	29.18
353.152	111.1
353.363	-75.26
353.575	25.09
353.787	74.24
353.999	41.47
354.21	98.81
354.422	43.52
354.633	14.85
354.845	6.66
355.057	41.47
355.268	72.19
355.48	35.33
355.692	-11.78
355.903	-11.78
356.115	-40.45
356.326	14.85
356.538	104.96
356.749	12.8
356.961	111.1
357.172	-32.26
357.384	-26.11
357.595	131.58
357.807	-36.35
358.018	-34.3
358.23	29.18
358.441	135.68
358.653	78.33
358.864	72.19
359.075	43.52
359.287	47.62
359.498	100.86
359.709	78.33
359.921	72.19
360.132	49.66
360.344	12.8
360.555	0.51
360.766	66.05
360.977	8.7
361.189	119.29
361.4	-7.68
361.611	104.96
361.823	86.53
362.034	0.51
362.245	-65.02
362.456	-36.35
362.667	35.33
362.879	-40.45
363.09	53.76
363.301	18.94
363.512	-3.58
363.723	-79.36
363.935	-24.06
364.146	66.05
364.357	23.04
364.568	47.62
364.779	-65.02
364.99	82.43
365.201	23.04
365.412	86.53
365.623	-26.11
365.834	78.33
366.045	72.19
366.256	70.14
366.467	-26.11
366.678	-7.68
366.889	66.05
367.1	35.33
367.311	72.19
367.522	-7.68
367.733	82.43
367.944	41.47
368.155	-15.87
368.366	20.99
368.577	82.43
368.788	88.57
368.999	35.33
369.209	-5.63
369.42	139.77
369.631	219.64
369.842	94.72
370.053	-34.3
370.264	111.1
370.474	-19.97
370.685	-15.87
370.896	0.51
371.107	139.77
371.317	20.99
371.528	-1.54
371.739	107.01
371.95	74.24
372.16	18.94
372.371	14.85
372.582	-3.58
372.792	100.86
373.003	70.14
373.214	41.47
373.424	80.38
373.635	25.09
373.846	127.49
374.056	0.51
374.267	27.14
374.477	-5.63
374.688	8.7
374.898	98.81
375.109	68.09
375.319	0.51
375.53	61.95
375.74	47.62
375.951	4.61
376.161	102.91
376.372	98.81
376.582	39.42
376.793	53.76
377.003	16.9
377.214	31.23
377.424	88.57
377.635	0.51
377.845	-15.87
378.055	115.2
378.266	-52.74
378.476	12.8
378.686	23.04
378.897	86.53
379.107	127.49
379.317	61.95
379.528	78.33
379.738	57.86
379.948	14.85
380.158	176.64
380.369	49.66
380.579	104.96
380.789	-9.73
380.999	82.43
381.21	117.25
381.42	227.84
381.63	-32.26
381.84	31.23
382.05	86.53
382.261	64
382.471	78.33
382.681	16.9
382.891	195.07
383.101	64
383.311	80.38
383.521	61.95
383.731	102.91
383.941	12.8
384.151	-7.68
384.361	57.86
384.571	53.76
384.781	25.09
384.991	139.77
385.201	170.49
385.411	115.2
385.621	55.81
385.831	41.47
386.041	45.57
386.251	4.61
386.461	88.57
386.671	12.8
386.881	66.05
387.091	-24.06
387.301	82.43
387.511	33.28
387.72	49.66
387.93	51.71
388.14	-7.68
388.35	45.57
388.56	111.1
388.769	96.77
388.979	41.47
389.189	39.42
389.399	-7.68
389.609	127.49
389.818	98.81
390.028	57.86
390.238	55.81
390.447	45.57
390.657	123.39
390.867	86.53
391.076	-71.17
391.286	55.81
391.496	8.7
391.705	-42.5
391.915	190.97
392.125	80.38
392.334	-56.83
392.544	129.53
392.753	80.38
392.963	-67.07
393.172	12.8
393.382	-15.87
393.591	205.31
393.801	39.42
394.01	137.73
394.22	113.15
394.429	55.81
394.639	-75.26
394.848	39.42
395.058	135.68
395.267	-13.82
395.477	119.29
395.686	135.68
395.895	162.3
396.105	193.02
396.314	78.33
396.524	96.77
396.733	4.61
396.942	102.91
397.152	127.49
397.361	78.33
397.57	82.43
397.78	-28.16
397.989	66.05
398.198	168.45
398.407	86.53
398.617	51.71
398.826	64
399.035	33.28
399.244	102.91
399.453	72.19
399.663	90.62
399.872	49.66
400.081	-28.16
400.29	121.34
400.499	-15.87
400.708	94.72
400.917	0.51
401.127	-48.64
401.336	41.47
401.545	129.53
401.754	94.72
401.963	98.81
402.172	10.75
402.381	-97.79
402.59	41.47
402.799	45.57
403.008	80.38
403.217	104.96
403.426	92.67
403.635	-13.82
403.844	45.57
404.053	84.48
404.262	8.7
404.471	131.58
404.68	41.47
404.888	-9.73
405.097	-3.58
405.306	61.95
405.515	107.01
405.724	64
405.933	139.77
406.142	0.51
406.35	14.85
406.559	74.24
406.768	-9.73
406.977	102.91
407.185	154.11
407.394	49.66
407.603	0.51
407.812	115.2
408.02	123.39
408.229	72.19
408.438	104.96
408.646	-32.26
408.855	-1.54
409.064	20.99
409.272	6.66
409.481	100.86
409.69	-65.02
409.898	4.61
410.107	33.28
410.315	76.29
410.524	-69.12
410.733	45.57
410.941	-15.87
411.15	57.86
411.358	113.15
411.567	143.87
411.775	41.47
411.984	66.05
412.192	16.9
412.401	-22.02
412.609	172.54
412.818	107.01
413.026	102.91
413.234	25.09
413.443	47.62
413.651	-1.54
413.86	6.66
414.068	102.91
414.276	203.26
414.485	-48.64
414.693	135.68
414.901	129.53
415.11	31.23
415.318	61.95
415.526	55.81
415.734	49.66
415.943	-9.73
416.151	98.81
416.359	82.43
416.567	72.19
416.776	31.23
416.984	80.38
417.192	172.54
417.4	49.66
417.608	37.38
417.817	-52.74
418.025	96.77
418.233	111.1
418.441	-32.26
418.649	-48.64
418.857	76.29
419.065	156.16
419.273	-17.92
419.481	16.9
419.689	88.57
419.897	66.05
420.105	-9.73
420.313	141.82
420.521	164.35
420.729	154.11
420.937	16.9
421.145	33.28
421.353	182.78
421.561	145.92
421.769	184.83
421.977	61.95
422.185	137.73
422.393	-1.54
422.601	180.73
422.809	61.95
423.017	20.99
423.224	2.56
423.432	61.95
423.64	41.47
423.848	57.86
424.056	-26.11
424.263	102.91
424.471	33.28
424.679	115.2
424.887	-15.87
425.094	115.2
425.302	78.33
425.51	31.23
425.718	135.68
425.925	88.57
426.133	16.9
426.341	238.08
426.548	31.23
426.756	70.14
426.964	90.62
427.171	2.56
427.379	96.77
427.586	66.05
427.794	176.64
428.001	158.21
428.209	74.24
428.417	168.45
428.624	102.91
428.832	131.58
429.039	107.01
429.247	82.43
429.454	57.86
429.662	274.94
429.869	160.25
430.076	143.87
430.284	94.72
430.491	250.36
430.699	119.29
430.906	133.63
431.114	104.96
431.321	139.77
431.528	107.01
431.736	219.64
431.943	178.69
432.15	170.49
432.358	213.5
432.565	195.07
432.772	61.95
432.979	135.68
433.187	193.02
433.394	254.46
433.601	70.14
433.808	219.64
434.016	242.17
434.223	203.26
434.43	254.46
434.637	293.37
434.844	301.56
435.052	303.61
435.259	143.87
435.466	285.18
435.673	250.36
435.88	195.07
436.087	287.23
436.294	311.8
436.501	360.95
436.708	315.9
436.915	303.61
437.122	360.95
437.329	371.19
437.537	385.53
437.743	326.14
437.95	426.49
438.157	401.91
438.364	342.52
438.571	426.49
438.778	418.3
438.985	512.5
439.192	397.82
439.399	463.35
439.606	455.16
439.813	524.79
440.02	561.66
440.227	651.77
440.433	569.85
440.64	635.38
440.847	481.78
441.054	668.15
441.261	684.53
441.467	657.91
441.674	766.45
441.881	778.74
442.088	743.92
442.294	813.56
442.501	758.26
442.708	870.9
442.914	872.95
443.121	893.43
443.328	975.35
443.534	999.92
443.741	979.44
443.948	965.11
444.154	1090.03
444.361	1294.83
444.568	1151.47
444.774	1184.24
444.981	1008.11
445.187	1346.03
445.394	1247.72
445.6	1255.92
445.807	1489.39
446.013	1315.31
446.22	1362.41
446.426	1507.82
446.633	1661.41
446.839	1798.63
447.046	1571.3
447.252	1780.2
447.459	1849.83
447.665	1815.01
447.871	1997.28
448.078	2187.74
448.284	2064.86
448.491	2165.21
448.697	2425.31
448.903	2394.59
449.11	2470.36
449.316	2445.79
449.522	2585.05
449.728	2644.44
449.935	2785.75
450.141	2816.47
450.347	3076.56
450.553	3043.79
450.76	3236.3
450.966	3310.03
451.172	3369.42
451.378	3426.76
451.584	3465.68
451.791	3891.65
451.997	3983.81
452.203	4018.63
452.409	4217.28
452.615	4342.21
452.821	4133.31
453.027	4350.4
453.233	4934.07
453.44	4647.35
453.646	5020.08
453.852	5247.41
454.058	5398.96
454.264	5515.69
454.47	5978.53
454.676	5865.89
454.882	6289.82
455.088	6056.36
455.294	6629.79
455.5	7061.91
455.705	7307.66
455.911	7344.53
456.117	7498.13
456.323	7793.03
456.529	8044.93
456.735	8583.55
456.941	8878.46
457.147	9159.03
457.352	9447.79
457.558	9662.83
457.764	10355.04
457.97	10641.76
458.176	10768.73
458.381	11440.47
458.587	11583.82
458.793	12142.92
458.999	12194.12
459.204	13791.53
459.41	14422.31
459.616	13762.86
459.821	14883.1
460.027	15563.03
460.233	16175.37
460.438	16206.09
460.644	17449.21
460.85	17281.27
461.055	18217.19
461.261	18907.36
461.466	18254.06
461.672	18909.41
461.878	21209.28
462.083	20994.24
462.289	21534.9
462.494	22341.8
462.7	22347.95
462.905	22673.57
463.111	24580.23
463.316	25600.12
463.522	25981.04
463.727	27285.6
463.932	27928.66
464.138	28743.75
464.343	30287.92
464.549	30107.7
464.754	32579.6
464.959	33331.2
465.165	33667.07
465.37	33593.34
465.575	33923.07
465.781	35952.6
465.986	36796.37
466.191	36378.58
466.397	36917.2
466.602	35768.29
466.807	37912.51
467.012	38434.74
467.218	39471.01
467.423	39325.61
467.628	40433.56
467.833	42588.02
468.038	41301.9
468.244	40458.13
468.449	43040.62
468.654	41883.52
468.859	42033.02
469.064	42045.31
469.269	40511.38
469.474	41107.34
