Data from USB4F104151__46__09-27-59-405.txt Node

Date: Wed Feb 26 09:27:59 EST 2025
User: louis
Spectrometer: USB4F10415
Trigger mode: 4
Integration Time (sec): 1.000000E-1
Scans to average: 1
Electric dark correction enabled: true
Nonlinearity correction enabled: false
Boxcar width: 0
XAxis mode: Wavelengths
Number of Pixels in Spectrum: 3648
>>>>>Begin Spectral Data<<<<<
178.204	-342.69
178.424	-342.69
178.644	-342.69
178.864	-340.65
179.084	-326.31
179.304	-62.12
179.524	1.37
179.744	109.91
179.964	85.33
180.184	-8.87
180.404	9.56
180.624	25.94
180.844	-17.07
181.064	-21.16
181.283	-53.93
181.503	-62.12
181.723	-6.83
181.943	-72.36
182.163	173.39
182.383	-31.4
182.602	36.18
182.822	107.86
183.042	64.85
183.262	44.37
183.482	66.9
183.701	73.04
183.921	142.68
184.141	-51.88
184.361	81.24
184.58	128.34
184.8	44.37
185.02	66.9
185.239	122.2
185.459	52.56
185.679	142.68
185.898	-62.12
186.118	32.08
186.338	73.04
186.557	130.39
186.777	-15.02
186.997	11.61
187.216	81.24
187.436	185.68
187.655	68.95
187.875	105.81
188.095	42.32
188.314	138.58
188.534	50.52
188.753	52.56
188.973	42.32
189.192	206.16
189.412	44.37
189.631	17.75
189.851	154.96
190.07	267.6
190.29	-19.11
190.509	23.89
190.729	118.1
190.948	118.1
191.168	255.31
191.387	105.81
191.607	101.72
191.826	85.33
192.045	85.33
192.265	60.76
192.484	-0.68
192.704	89.43
192.923	23.89
193.142	175.44
193.362	118.1
193.581	118.1
193.8	111.96
194.02	56.66
194.239	91.48
194.458	165.2
194.678	30.04
194.897	48.47
195.116	138.58
195.335	64.85
195.555	85.33
195.774	81.24
195.993	107.86
196.212	60.76
196.432	38.23
196.651	36.18
196.87	25.94
197.089	232.79
197.308	116.05
197.528	48.47
197.747	38.23
197.966	81.24
198.185	240.98
198.404	-0.68
198.623	91.48
198.842	130.39
199.062	132.44
199.281	159.06
199.5	42.32
199.719	13.65
199.938	56.66
200.157	114
200.376	157.01
200.595	128.34
200.814	48.47
201.033	21.84
201.252	118.1
201.471	126.29
201.69	144.72
201.909	19.8
202.128	179.54
202.347	101.72
202.566	40.28
202.785	7.51
203.004	1.37
203.223	204.11
203.442	11.61
203.661	9.56
203.879	95.57
204.098	122.2
204.317	3.41
204.536	130.39
204.755	44.37
204.974	140.63
205.193	23.89
205.411	134.48
205.63	120.15
205.849	126.29
206.068	36.18
206.287	60.76
206.505	134.48
206.724	81.24
206.943	-0.68
207.162	-10.92
207.381	128.34
207.599	7.51
207.818	11.61
208.037	23.89
208.255	64.85
208.474	46.42
208.693	120.15
208.911	27.99
209.13	101.72
209.349	87.38
209.567	77.14
209.786	171.35
210.005	91.48
210.223	52.56
210.442	1.37
210.661	77.14
210.879	83.28
211.098	-27.31
211.316	105.81
211.535	64.85
211.753	36.18
211.972	56.66
212.191	66.9
212.409	-0.68
212.628	97.62
212.846	-17.07
213.065	81.24
213.283	171.35
213.502	77.14
213.72	73.04
213.938	62.8
214.157	25.94
214.375	107.86
214.594	32.08
214.812	11.61
215.031	105.81
215.249	52.56
215.467	71
215.686	32.08
215.904	89.43
216.122	60.76
216.341	118.1
216.559	97.62
216.778	167.25
216.996	177.49
217.214	89.43
217.432	-4.78
217.651	44.37
217.869	71
218.087	-8.87
218.306	30.04
218.524	64.85
218.742	81.24
218.96	97.62
219.179	25.94
219.397	32.08
219.615	224.59
219.833	116.05
220.051	-47.79
220.27	85.33
220.488	154.96
220.706	126.29
220.924	66.9
221.142	32.08
221.36	34.13
221.578	122.2
221.796	79.19
222.015	109.91
222.233	91.48
222.451	152.91
222.669	17.75
222.887	87.38
223.105	109.91
223.323	-8.87
223.541	-2.73
223.759	71
223.977	52.56
224.195	118.1
224.413	97.62
224.631	118.1
224.849	77.14
225.067	200.02
225.285	52.56
225.503	-0.68
225.721	-12.97
225.939	68.95
226.157	126.29
226.375	208.21
226.592	-8.87
226.81	68.95
227.028	132.44
227.246	134.48
227.464	132.44
227.682	179.54
227.9	38.23
228.117	79.19
228.335	138.58
228.553	77.14
228.771	89.43
228.989	71
229.206	157.01
229.424	-19.11
229.642	11.61
229.86	-49.83
230.077	-4.78
230.295	-12.97
230.513	68.95
230.731	81.24
230.948	144.72
231.166	75.09
231.384	25.94
231.601	-21.16
231.819	169.3
232.037	50.52
232.254	9.56
232.472	99.67
232.689	52.56
232.907	111.96
233.125	50.52
233.342	-70.31
233.56	19.8
233.777	21.84
233.995	40.28
234.213	200.02
234.43	32.08
234.648	3.41
234.865	71
235.083	-0.68
235.3	105.81
235.518	97.62
235.735	177.49
235.953	46.42
236.17	56.66
236.388	38.23
236.605	27.99
236.822	134.48
237.04	142.68
237.257	36.18
237.475	-17.07
237.692	81.24
237.909	103.76
238.127	23.89
238.344	99.67
238.562	48.47
238.779	-41.64
238.996	21.84
239.214	62.8
239.431	75.09
239.648	36.18
239.865	97.62
240.083	77.14
240.3	-29.35
240.517	34.13
240.735	99.67
240.952	126.29
241.169	71
241.386	48.47
241.603	38.23
241.821	-0.68
242.038	83.28
242.255	79.19
242.472	21.84
242.689	81.24
242.907	114
243.124	77.14
243.341	-49.83
243.558	32.08
243.775	58.71
243.992	-21.16
244.209	126.29
244.426	142.68
244.643	111.96
244.86	68.95
245.078	93.52
245.295	93.52
245.512	97.62
245.729	13.65
245.946	30.04
246.163	44.37
246.38	42.32
246.597	89.43
246.814	122.2
247.031	105.81
247.248	58.71
247.464	114
247.681	68.95
247.898	58.71
248.115	73.04
248.332	58.71
248.549	163.15
248.766	148.82
248.983	54.61
249.2	50.52
249.417	101.72
249.633	66.9
249.85	95.57
250.067	77.14
250.284	40.28
250.501	56.66
250.717	93.52
250.934	-12.97
251.151	-4.78
251.368	48.47
251.585	36.18
251.801	83.28
252.018	23.89
252.235	185.68
252.451	-4.78
252.668	64.85
252.885	97.62
253.102	77.14
253.318	34.13
253.535	66.9
253.752	15.7
253.968	-21.16
254.185	44.37
254.401	103.76
254.618	73.04
254.835	54.61
255.051	142.68
255.268	75.09
255.484	58.71
255.701	42.32
255.917	93.52
256.134	48.47
256.351	97.62
256.567	44.37
256.784	85.33
257	25.94
257.217	107.86
257.433	56.66
257.65	107.86
257.866	146.77
258.082	-41.64
258.299	-6.83
258.515	93.52
258.732	52.56
258.948	21.84
259.165	64.85
259.381	87.38
259.597	101.72
259.814	-6.83
260.03	83.28
260.246	-4.78
260.463	171.35
260.679	167.25
260.895	79.19
261.112	114
261.328	19.8
261.544	118.1
261.761	206.16
261.977	-39.59
262.193	-6.83
262.409	111.96
262.626	134.48
262.842	68.95
263.058	-15.02
263.274	75.09
263.49	101.72
263.707	56.66
263.923	107.86
264.139	-84.65
264.355	50.52
264.571	85.33
264.787	68.95
265.004	159.06
265.22	68.95
265.436	-6.83
265.652	13.65
265.868	97.62
266.084	-62.12
266.3	-0.68
266.516	103.76
266.732	42.32
266.948	-2.73
267.164	42.32
267.38	116.05
267.596	44.37
267.812	126.29
268.028	42.32
268.244	-21.16
268.46	60.76
268.676	21.84
268.892	124.24
269.108	1.37
269.324	38.23
269.54	-49.83
269.756	107.86
269.972	75.09
270.188	75.09
270.403	62.8
270.619	19.8
270.835	66.9
271.051	1.37
271.267	34.13
271.483	64.85
271.698	89.43
271.914	116.05
272.13	25.94
272.346	9.56
272.562	93.52
272.777	124.24
272.993	52.56
273.209	-35.5
273.425	87.38
273.64	-96.94
273.856	23.89
274.072	9.56
274.287	46.42
274.503	77.14
274.719	83.28
274.934	66.9
275.15	-62.12
275.366	60.76
275.581	21.84
275.797	21.84
276.012	25.94
276.228	36.18
276.444	64.85
276.659	142.68
276.875	-78.51
277.09	105.81
277.306	99.67
277.521	48.47
277.737	75.09
277.952	54.61
278.168	60.76
278.383	85.33
278.599	85.33
278.814	128.34
279.03	101.72
279.245	142.68
279.461	130.39
279.676	87.38
279.892	-10.92
280.107	-35.5
280.322	25.94
280.538	68.95
280.753	-25.26
280.969	75.09
281.184	27.99
281.399	87.38
281.615	42.32
281.83	144.72
282.045	1.37
282.26	56.66
282.476	77.14
282.691	140.63
282.906	132.44
283.122	85.33
283.337	-4.78
283.552	118.1
283.767	-8.87
283.983	97.62
284.198	-41.64
284.413	105.81
284.628	-31.4
284.843	-45.74
285.058	109.91
285.274	36.18
285.489	-58.03
285.704	3.41
285.919	42.32
286.134	7.51
286.349	50.52
286.564	62.8
286.779	138.58
286.995	75.09
287.21	-53.93
287.425	91.48
287.64	11.61
287.855	73.04
288.07	-53.93
288.285	89.43
288.5	126.29
288.715	58.71
288.93	48.47
289.145	19.8
289.36	109.91
289.575	21.84
289.79	148.82
290.004	34.13
290.219	118.1
290.434	44.37
290.649	44.37
290.864	27.99
291.079	89.43
291.294	58.71
291.509	111.96
291.724	-33.45
291.938	54.61
292.153	130.39
292.368	17.75
292.583	124.24
292.798	75.09
293.012	60.76
293.227	87.38
293.442	-4.78
293.657	124.24
293.871	152.91
294.086	38.23
294.301	230.74
294.516	146.77
294.73	64.85
294.945	-62.12
295.16	30.04
295.374	167.25
295.589	81.24
295.804	50.52
296.018	101.72
296.233	191.83
296.447	44.37
296.662	56.66
296.877	132.44
297.091	89.43
297.306	126.29
297.52	77.14
297.735	89.43
297.949	159.06
298.164	17.75
298.378	79.19
298.593	60.76
298.807	-41.64
299.022	48.47
299.236	177.49
299.451	40.28
299.665	-0.68
299.88	32.08
300.094	134.48
300.309	64.85
300.523	54.61
300.737	9.56
300.952	81.24
301.166	83.28
301.381	-60.07
301.595	-58.03
301.809	32.08
302.024	66.9
302.238	30.04
302.452	111.96
302.667	101.72
302.881	175.44
303.095	101.72
303.309	91.48
303.524	81.24
303.738	105.81
303.952	9.56
304.166	13.65
304.381	-55.98
304.595	177.49
304.809	25.94
305.023	25.94
305.237	21.84
305.452	101.72
305.666	109.91
305.88	132.44
306.094	30.04
306.308	58.71
306.522	138.58
306.736	128.34
306.95	79.19
307.164	40.28
307.379	-47.79
307.593	93.52
307.807	157.01
308.021	109.91
308.235	42.32
308.449	-98.99
308.663	107.86
308.877	157.01
309.091	-21.16
309.305	-12.97
309.519	-55.98
309.733	193.87
309.947	-4.78
310.161	118.1
310.374	60.76
310.588	40.28
310.802	32.08
311.016	-29.35
311.23	-4.78
311.444	-12.97
311.658	48.47
311.872	95.57
312.085	99.67
312.299	122.2
312.513	181.59
312.727	128.34
312.941	85.33
313.154	93.52
313.368	66.9
313.582	-82.6
313.796	154.96
314.009	40.28
314.223	109.91
314.437	44.37
314.651	75.09
314.864	30.04
315.078	134.48
315.292	30.04
315.505	23.89
315.719	107.86
315.933	9.56
316.146	32.08
316.36	-0.68
316.573	134.48
316.787	32.08
317.001	116.05
317.214	3.41
317.428	73.04
317.641	-8.87
317.855	-33.45
318.068	21.84
318.282	75.09
318.495	173.39
318.709	109.91
318.922	83.28
319.136	97.62
319.349	152.91
319.563	9.56
319.776	46.42
319.99	-25.26
320.203	122.2
320.417	79.19
320.63	118.1
320.843	150.87
321.057	101.72
321.27	77.14
321.483	118.1
321.697	136.53
321.91	56.66
322.124	68.95
322.337	52.56
322.55	58.71
322.763	52.56
322.977	87.38
323.19	-6.83
323.403	30.04
323.617	75.09
323.83	200.02
324.043	15.7
324.256	46.42
324.469	-23.21
324.683	114
324.896	126.29
325.109	91.48
325.322	-21.16
325.535	81.24
325.748	138.58
325.962	38.23
326.175	64.85
326.388	52.56
326.601	48.47
326.814	-15.02
327.027	-12.97
327.24	195.92
327.453	-4.78
327.666	150.87
327.879	118.1
328.092	11.61
328.305	103.76
328.518	99.67
328.731	56.66
328.944	9.56
329.157	134.48
329.37	62.8
329.583	140.63
329.796	142.68
330.009	-45.74
330.222	144.72
330.435	105.81
330.648	83.28
330.861	77.14
331.073	36.18
331.286	85.33
331.499	91.48
331.712	42.32
331.925	79.19
332.138	130.39
332.35	122.2
332.563	-12.97
332.776	144.72
332.989	21.84
333.202	64.85
333.414	81.24
333.627	44.37
333.84	-53.93
334.053	42.32
334.265	19.8
334.478	36.18
334.691	64.85
334.903	83.28
335.116	9.56
335.329	9.56
335.541	81.24
335.754	126.29
335.966	32.08
336.179	17.75
336.392	118.1
336.604	79.19
336.817	171.35
337.029	71
337.242	58.71
337.454	-10.92
337.667	27.99
337.88	171.35
338.092	64.85
338.305	30.04
338.517	-10.92
338.729	165.2
338.942	159.06
339.154	-82.6
339.367	-58.03
339.579	68.95
339.792	-43.69
340.004	103.76
340.217	89.43
340.429	58.71
340.641	27.99
340.854	-6.83
341.066	68.95
341.278	167.25
341.491	210.26
341.703	93.52
341.915	42.32
342.128	85.33
342.34	15.7
342.552	38.23
342.764	5.46
342.977	79.19
343.189	114
343.401	103.76
343.613	-21.16
343.826	27.99
344.038	19.8
344.25	71
344.462	19.8
344.674	91.48
344.886	77.14
345.099	114
345.311	126.29
345.523	27.99
345.735	-74.41
345.947	17.75
346.159	13.65
346.371	157.01
346.583	48.47
346.795	150.87
347.007	-4.78
347.219	42.32
347.431	44.37
347.643	154.96
347.855	44.37
348.067	142.68
348.279	-25.26
348.491	81.24
348.703	140.63
348.915	-78.51
349.127	56.66
349.339	109.91
349.551	50.52
349.763	146.77
349.975	73.04
350.187	77.14
350.399	122.2
350.61	-21.16
350.822	-15.02
351.034	79.19
351.246	99.67
351.458	101.72
351.669	89.43
351.881	169.3
352.093	157.01
352.305	103.76
352.517	197.97
352.728	142.68
352.94	17.75
353.152	122.2
353.363	15.7
353.575	154.96
353.787	238.93
353.999	120.15
354.21	122.2
354.422	-21.16
354.633	11.61
354.845	73.04
355.057	17.75
355.268	93.52
355.48	142.68
355.692	34.13
355.903	13.65
356.115	83.28
356.326	-43.69
356.538	154.96
356.749	101.72
356.961	81.24
357.172	97.62
357.384	38.23
357.595	202.07
357.807	-2.73
358.018	75.09
358.23	68.95
358.441	101.72
358.653	60.76
358.864	1.37
359.075	-23.21
359.287	19.8
359.498	169.3
359.709	111.96
359.921	-41.64
360.132	89.43
360.344	11.61
360.555	9.56
360.766	66.9
360.977	64.85
361.189	130.39
361.4	19.8
361.611	171.35
361.823	118.1
362.034	83.28
362.245	-121.51
362.456	-19.11
362.667	165.2
362.879	-12.97
363.09	116.05
363.301	136.53
363.512	15.7
363.723	132.44
363.935	52.56
364.146	48.47
364.357	44.37
364.568	111.96
364.779	-8.87
364.99	124.24
365.201	81.24
365.412	91.48
365.623	-23.21
365.834	5.46
366.045	75.09
366.256	79.19
366.467	68.95
366.678	-6.83
366.889	36.18
367.1	-25.26
367.311	216.4
367.522	46.42
367.733	81.24
367.944	97.62
368.155	34.13
368.366	81.24
368.577	99.67
368.788	103.76
368.999	64.85
369.209	81.24
369.42	177.49
369.631	197.97
369.842	87.38
370.053	9.56
370.264	191.83
370.474	-39.59
370.685	97.62
370.896	11.61
371.107	185.68
371.317	142.68
371.528	-25.26
371.739	128.34
371.95	73.04
372.16	126.29
372.371	-23.21
372.582	15.7
372.792	46.42
373.003	77.14
373.214	54.61
373.424	27.99
373.635	91.48
373.846	171.35
374.056	109.91
374.267	64.85
374.477	77.14
374.688	27.99
374.898	97.62
375.109	66.9
375.319	19.8
375.53	124.24
375.74	87.38
375.951	118.1
376.161	83.28
376.372	148.82
376.582	-8.87
376.793	109.91
377.003	91.48
377.214	83.28
377.424	130.39
377.635	62.8
377.845	34.13
378.055	177.49
378.266	23.89
378.476	40.28
378.686	44.37
378.897	109.91
379.107	46.42
379.317	68.95
379.528	36.18
379.738	99.67
379.948	3.41
380.158	60.76
380.369	118.1
380.579	93.52
380.789	71
380.999	19.8
381.21	105.81
381.42	187.73
381.63	7.51
381.84	169.3
382.05	148.82
382.261	105.81
382.471	150.87
382.681	-6.83
382.891	126.29
383.101	146.77
383.311	-41.64
383.521	-4.78
383.731	167.25
383.941	101.72
384.151	44.37
384.361	60.76
384.571	97.62
384.781	34.13
384.991	148.82
385.201	247.12
385.411	99.67
385.621	79.19
385.831	81.24
386.041	58.71
386.251	38.23
386.461	144.72
386.671	21.84
386.881	118.1
387.091	44.37
387.301	116.05
387.511	36.18
387.72	171.35
387.93	146.77
388.14	-23.21
388.35	32.08
388.56	134.48
388.769	99.67
388.979	38.23
389.189	107.86
389.399	-6.83
389.609	122.2
389.818	101.72
390.028	-15.02
390.238	50.52
390.447	-15.02
390.657	81.24
390.867	-60.07
391.076	-17.07
391.286	46.42
391.496	42.32
391.705	-8.87
391.915	132.44
392.125	103.76
392.334	15.7
392.544	54.61
392.753	54.61
392.963	34.13
393.172	38.23
393.382	-2.73
393.591	167.25
393.801	60.76
394.01	142.68
394.22	52.56
394.429	58.71
394.639	85.33
394.848	81.24
395.058	44.37
395.267	73.04
395.477	122.2
395.686	68.95
395.895	142.68
396.105	210.26
396.314	150.87
396.524	-45.74
396.733	64.85
396.942	85.33
397.152	79.19
397.361	81.24
397.57	114
397.78	91.48
397.989	97.62
398.198	200.02
398.407	71
398.617	50.52
398.826	91.48
399.035	50.52
399.244	161.11
399.453	64.85
399.663	34.13
399.872	136.53
400.081	-64.17
400.29	134.48
400.499	-45.74
400.708	91.48
400.917	7.51
401.127	89.43
401.336	-45.74
401.545	189.78
401.754	193.87
401.963	79.19
402.172	-31.4
402.381	11.61
402.59	114
402.799	79.19
403.008	148.82
403.217	101.72
403.426	97.62
403.635	-39.59
403.844	-43.69
404.053	101.72
404.262	-4.78
404.471	181.59
404.68	52.56
404.888	50.52
405.097	73.04
405.306	52.56
405.515	116.05
405.724	77.14
405.933	93.52
406.142	105.81
406.35	146.77
406.559	75.09
406.768	27.99
406.977	154.96
407.185	62.8
407.394	91.48
407.603	44.37
407.812	118.1
408.02	167.25
408.229	68.95
408.438	25.94
408.646	64.85
408.855	66.9
409.064	109.91
409.272	101.72
409.481	32.08
409.69	-51.88
409.898	89.43
410.107	52.56
410.315	159.06
410.524	-60.07
410.733	52.56
410.941	85.33
411.15	36.18
411.358	118.1
411.567	179.54
411.775	81.24
411.984	48.47
412.192	134.48
412.401	66.9
412.609	138.58
412.818	175.44
413.026	136.53
413.234	-27.31
413.443	60.76
413.651	50.52
413.86	9.56
414.068	165.2
414.276	154.96
414.485	81.24
414.693	148.82
414.901	161.11
415.11	126.29
415.318	68.95
415.526	27.99
415.734	103.76
415.943	107.86
416.151	134.48
416.359	9.56
416.567	167.25
416.776	173.39
416.984	81.24
417.192	163.15
417.4	101.72
417.608	77.14
417.817	-23.21
418.025	109.91
418.233	114
418.441	73.04
418.649	116.05
418.857	83.28
419.065	173.39
419.273	-21.16
419.481	54.61
419.689	13.65
419.897	48.47
420.105	32.08
420.313	204.11
420.521	169.3
420.729	103.76
420.937	19.8
421.145	-4.78
421.353	208.21
421.561	99.67
421.769	122.2
421.977	34.13
422.185	60.76
422.393	15.7
422.601	130.39
422.809	89.43
423.017	21.84
423.224	32.08
423.432	105.81
423.64	56.66
423.848	126.29
424.056	60.76
424.263	200.02
424.471	52.56
424.679	179.54
424.887	32.08
425.094	142.68
425.302	50.52
425.51	62.8
425.718	93.52
425.925	56.66
426.133	85.33
426.341	195.92
426.548	103.76
426.756	19.8
426.964	50.52
427.171	-25.26
427.379	118.1
427.586	68.95
427.794	130.39
428.001	187.73
428.209	124.24
428.417	232.79
428.624	150.87
428.832	154.96
429.039	206.16
429.247	77.14
429.454	183.63
429.662	204.11
429.869	95.57
430.076	150.87
430.284	179.54
430.491	238.93
430.699	150.87
430.906	202.07
431.114	152.91
431.321	173.39
431.528	105.81
431.736	81.24
431.943	169.3
432.15	68.95
432.358	216.4
432.565	286.03
432.772	52.56
432.979	273.75
433.187	97.62
433.394	208.21
433.601	157.01
433.808	216.4
434.016	257.36
434.223	177.49
434.43	157.01
434.637	208.21
434.844	310.61
435.052	200.02
435.259	288.08
435.466	224.59
435.673	302.42
435.88	290.13
436.087	345.42
436.294	388.43
436.501	349.52
436.708	298.32
436.915	302.42
437.122	304.46
437.329	277.84
437.537	374.1
437.743	286.03
437.95	408.91
438.157	433.49
438.364	349.52
438.571	374.1
438.778	404.82
438.985	449.87
439.192	503.12
439.399	468.3
439.606	509.26
439.813	535.89
440.02	593.23
440.227	771.4
440.433	556.36
440.64	519.5
440.847	503.12
441.054	529.74
441.261	634.19
441.467	558.41
441.674	585.04
441.881	752.97
442.088	626
442.294	683.34
442.501	748.87
442.708	847.18
442.914	712.01
443.121	798.03
443.328	826.7
443.534	974.15
443.741	902.47
443.948	857.42
444.154	951.62
444.361	1107.27
444.568	1056.07
444.774	965.96
444.981	1011.01
445.187	1191.24
445.394	1135.94
445.6	1109.32
445.807	1316.16
446.013	1285.44
446.22	1195.33
446.426	1428.8
446.633	1477.95
446.839	1629.5
447.046	1379.65
447.252	1682.75
447.459	1668.41
447.665	1674.56
447.871	1799.48
448.078	1908.02
448.284	1883.45
448.491	2000.18
448.697	2057.53
448.903	2198.84
449.11	2098.49
449.316	2202.93
449.522	2288.95
449.728	2407.73
449.935	2501.94
450.141	2417.97
450.347	2735.4
450.553	2600.24
450.76	2645.29
450.966	2878.76
451.172	2891.05
451.378	3015.98
451.584	3151.14
451.791	3370.27
451.997	3511.58
452.203	3505.44
452.409	3665.18
452.615	3792.16
452.821	3738.91
453.027	3716.38
453.233	4379.92
453.44	4158.74
453.646	4361.49
453.852	4525.33
454.058	4640.01
454.264	4861.2
454.47	5238.02
454.676	5164.29
454.882	5592.32
455.088	5377.28
455.294	5735.68
455.5	6126.84
455.705	6481.14
455.911	6493.43
456.117	6825.2
456.323	6814.96
456.529	6755.57
456.735	7386.34
456.941	7623.9
457.147	7855.33
457.352	7976.16
457.558	8258.78
457.764	8781.01
457.97	8944.84
458.176	9551.04
458.381	10040.51
458.587	10200.25
458.793	10570.93
458.999	10556.6
459.204	11955.36
459.41	12168.35
459.616	11959.45
459.821	13040.78
460.027	13321.35
460.233	14040.19
460.438	13972.61
460.644	14597.24
460.85	14720.12
461.055	15557.74
461.261	16235.61
461.466	15793.25
461.672	16254.05
461.878	18041.92
462.083	18078.79
462.289	18285.63
462.494	19078.19
462.7	19239.98
462.905	19434.54
463.111	20802.58
463.316	21863.43
463.522	22574.08
463.727	23239.67
463.932	24091.62
464.138	24808.41
464.343	25822.16
464.549	26123.21
464.754	28007.34
464.959	28494.75
465.165	28908.44
465.37	28771.23
465.575	28599.2
465.781	30665.6
465.986	31941.49
466.191	31052.67
466.397	31611.76
466.602	30788.48
466.807	32668.51
467.012	33178.46
467.218	33960.78
467.423	33506.13
467.628	34593.61
467.833	36188.97
468.038	35793.72
468.244	34790.21
468.449	37047.07
468.654	36043.57
468.859	36170.54
