Data from USB4F104151__26__11-24-50-105.txt Node

Date: Wed Feb 26 11:24:50 EST 2025
User: louis
Spectrometer: USB4F10415
Trigger mode: 4
Integration Time (sec): 1.000000E-1
Scans to average: 1
Electric dark correction enabled: true
Nonlinearity correction enabled: false
Boxcar width: 0
XAxis mode: Wavelengths
Number of Pixels in Spectrum: 3648
>>>>>Begin Spectral Data<<<<<
178.204	-377.34
178.424	-377.34
178.644	-377.34
178.864	-346.62
179.084	-369.15
179.304	-2.56
179.524	-2.56
179.744	38.4
179.964	65.02
180.184	46.59
180.404	26.11
180.624	-10.75
180.844	-115.2
181.064	-90.62
181.283	38.4
181.503	-43.52
181.723	50.69
181.943	-61.95
182.163	153.09
182.383	-55.81
182.602	75.26
182.822	142.85
183.042	52.74
183.262	3.58
183.482	-12.8
183.701	32.26
183.921	101.89
184.141	30.21
184.361	69.12
184.58	69.12
184.8	-8.7
185.02	30.21
185.239	99.84
185.459	79.36
185.679	189.95
185.898	-90.62
186.118	71.17
186.338	99.84
186.557	73.21
186.777	-12.8
186.997	71.17
187.216	60.93
187.436	116.22
187.655	44.54
187.875	28.16
188.095	38.4
188.314	97.79
188.534	146.94
188.753	3.58
188.973	161.28
189.192	173.57
189.412	38.4
189.631	5.63
189.851	38.4
190.07	140.8
190.29	-18.94
190.509	5.63
190.729	-29.18
190.948	87.55
191.168	275.96
191.387	103.93
191.607	5.63
191.826	95.74
192.045	11.78
192.265	42.5
192.484	-2.56
192.704	-4.61
192.923	-59.9
193.142	126.46
193.362	73.21
193.581	112.13
193.8	159.23
194.02	79.36
194.239	58.88
194.458	46.59
194.678	3.58
194.897	-74.24
195.116	-14.85
195.335	79.36
195.555	46.59
195.774	-41.47
195.993	163.33
196.212	9.73
196.432	-0.51
196.651	3.58
196.87	83.45
197.089	161.28
197.308	73.21
197.528	67.07
197.747	-23.04
197.966	-12.8
198.185	95.74
198.404	-53.76
198.623	181.76
198.842	134.65
199.062	142.85
199.281	73.21
199.5	-27.14
199.719	9.73
199.938	67.07
200.157	73.21
200.376	99.84
200.595	138.75
200.814	112.13
201.033	-31.23
201.252	81.41
201.471	58.88
201.69	17.92
201.909	26.11
202.128	87.55
202.347	97.79
202.566	75.26
202.785	-92.67
203.004	11.78
203.223	192
203.442	-8.7
203.661	-29.18
203.879	144.89
204.098	99.84
204.317	-66.05
204.536	146.94
204.755	7.68
204.974	116.22
205.193	58.88
205.411	132.61
205.63	112.13
205.849	138.75
206.068	-14.85
206.287	-68.09
206.505	153.09
206.724	9.73
206.943	-68.09
207.162	-53.76
207.381	58.88
207.599	71.17
207.818	93.69
208.037	22.02
208.255	22.02
208.474	112.13
208.693	73.21
208.911	73.21
209.13	112.13
209.349	81.41
209.567	60.93
209.786	87.55
210.005	91.65
210.223	75.26
210.442	-82.43
210.661	17.92
210.879	81.41
211.098	11.78
211.316	-25.09
211.535	17.92
211.753	42.5
211.972	89.6
212.191	-33.28
212.409	11.78
212.628	69.12
212.846	38.4
213.065	71.17
213.283	124.41
213.502	-6.66
213.72	52.74
213.938	48.64
214.157	58.88
214.375	44.54
214.594	48.64
214.812	83.45
215.031	-31.23
215.249	54.78
215.467	44.54
215.686	134.65
215.904	108.03
216.122	85.5
216.341	144.89
216.559	48.64
216.778	105.98
216.996	85.5
217.214	34.3
217.432	-59.9
217.651	-59.9
217.869	112.13
218.087	28.16
218.306	5.63
218.524	17.92
218.742	13.82
218.96	87.55
219.179	1.54
219.397	17.92
219.615	261.63
219.833	62.98
220.051	13.82
220.27	130.56
220.488	108.03
220.706	44.54
220.924	-86.53
221.142	9.73
221.36	99.84
221.578	83.45
221.796	89.6
222.015	-25.09
222.233	42.5
222.451	175.61
222.669	-20.99
222.887	91.65
223.105	-2.56
223.323	46.59
223.541	-68.09
223.759	110.08
223.977	13.82
224.195	116.22
224.413	38.4
224.631	62.98
224.849	87.55
225.067	153.09
225.285	-6.66
225.503	7.68
225.721	-23.04
225.939	65.02
226.157	81.41
226.375	243.2
226.592	22.02
226.81	-47.62
227.028	83.45
227.246	91.65
227.464	93.69
227.682	128.51
227.9	75.26
228.117	28.16
228.335	46.59
228.553	28.16
228.771	-29.18
228.989	71.17
229.206	44.54
229.424	-33.28
229.642	-53.76
229.86	-29.18
230.077	130.56
230.295	-16.9
230.513	89.6
230.731	67.07
230.948	118.27
231.166	140.8
231.384	1.54
231.601	38.4
231.819	183.81
232.037	-29.18
232.254	-49.66
232.472	54.78
232.689	-14.85
232.907	116.22
233.125	-29.18
233.342	7.68
233.56	24.06
233.777	-18.94
233.995	-18.94
234.213	69.12
234.43	105.98
234.648	-41.47
234.865	-6.66
235.083	93.69
235.3	81.41
235.518	79.36
235.735	105.98
235.953	60.93
236.17	69.12
236.388	44.54
236.605	46.59
236.822	67.07
237.04	77.31
237.257	24.06
237.475	-35.33
237.692	17.92
237.909	79.36
238.127	50.69
238.344	42.5
238.562	9.73
238.779	-82.43
238.996	-18.94
239.214	11.78
239.431	42.5
239.648	28.16
239.865	13.82
240.083	1.54
240.3	-2.56
240.517	-86.53
240.735	101.89
240.952	105.98
241.169	101.89
241.386	103.93
241.603	13.82
241.821	-43.52
242.038	3.58
242.255	85.5
242.472	19.97
242.689	81.41
242.907	73.21
243.124	75.26
243.341	26.11
243.558	3.58
243.775	-53.76
243.992	22.02
244.209	89.6
244.426	192
244.643	75.26
244.86	-16.9
245.078	103.93
245.295	95.74
245.512	-20.99
245.729	-6.66
245.946	52.74
246.163	32.26
246.38	-10.75
246.597	97.79
246.814	3.58
247.031	52.74
247.248	38.4
247.464	54.78
247.681	71.17
247.898	85.5
248.115	81.41
248.332	-0.51
248.549	71.17
248.766	173.57
248.983	97.79
249.2	54.78
249.417	120.32
249.633	97.79
249.85	116.22
250.067	26.11
250.284	9.73
250.501	144.89
250.717	79.36
250.934	-2.56
251.151	67.07
251.368	22.02
251.585	79.36
251.801	77.31
252.018	24.06
252.235	87.55
252.451	-139.77
252.668	26.11
252.885	54.78
253.102	32.26
253.318	75.26
253.535	-45.57
253.752	26.11
253.968	-47.62
254.185	-37.38
254.401	75.26
254.618	3.58
254.835	-59.9
255.051	153.09
255.268	17.92
255.484	95.74
255.701	60.93
255.917	142.85
256.134	-35.33
256.351	-2.56
256.567	1.54
256.784	67.07
257	-104.96
257.217	44.54
257.433	42.5
257.65	46.59
257.866	185.85
258.082	-78.33
258.299	-51.71
258.515	-12.8
258.732	5.63
258.948	36.35
259.165	38.4
259.381	-131.58
259.597	101.89
259.814	62.98
260.03	28.16
260.246	34.3
260.463	87.55
260.679	71.17
260.895	-2.56
261.112	138.75
261.328	-12.8
261.544	9.73
261.761	132.61
261.977	-10.75
262.193	-43.52
262.409	54.78
262.626	34.3
262.842	-18.94
263.058	-33.28
263.274	85.5
263.49	81.41
263.707	54.78
263.923	89.6
264.139	-82.43
264.355	-6.66
264.571	85.5
264.787	30.21
265.004	185.85
265.22	56.83
265.436	15.87
265.652	56.83
265.868	38.4
266.084	-59.9
266.3	-12.8
266.516	-14.85
266.732	-8.7
266.948	32.26
267.164	-10.75
267.38	146.94
267.596	79.36
267.812	200.19
268.028	71.17
268.244	42.5
268.46	91.65
268.676	5.63
268.892	85.5
269.108	-35.33
269.324	-41.47
269.54	-25.09
269.756	79.36
269.972	-53.76
270.188	-59.9
270.403	-41.47
270.619	24.06
270.835	71.17
271.051	40.45
271.267	30.21
271.483	-4.61
271.698	194.05
271.914	79.36
272.13	-2.56
272.346	-8.7
272.562	108.03
272.777	52.74
272.993	50.69
273.209	-37.38
273.425	75.26
273.64	-137.73
273.856	65.02
274.072	-16.9
274.287	-4.61
274.503	144.89
274.719	97.79
274.934	34.3
275.15	-27.14
275.366	97.79
275.581	-82.43
275.797	7.68
276.012	75.26
276.228	15.87
276.444	56.83
276.659	159.23
276.875	-39.42
277.09	46.59
277.306	3.58
277.521	58.88
277.737	36.35
277.952	146.94
278.168	58.88
278.383	52.74
278.599	144.89
278.814	95.74
279.03	46.59
279.245	167.42
279.461	73.21
279.676	50.69
279.892	-47.62
280.107	-4.61
280.322	-66.05
280.538	62.98
280.753	-2.56
280.969	75.26
281.184	11.78
281.399	151.04
281.615	85.5
281.83	-43.52
282.045	-70.14
282.26	-84.48
282.476	79.36
282.691	83.45
282.906	32.26
283.122	65.02
283.337	46.59
283.552	13.82
283.767	22.02
283.983	42.5
284.198	5.63
284.413	71.17
284.628	-84.48
284.843	5.63
285.058	48.64
285.274	-43.52
285.489	-27.14
285.704	112.13
285.919	62.98
286.134	34.3
286.349	-12.8
286.564	1.54
286.779	108.03
286.995	15.87
287.21	-16.9
287.425	28.16
287.64	-33.28
287.855	-0.51
288.07	-104.96
288.285	105.98
288.5	194.05
288.715	46.59
288.93	-12.8
289.145	-8.7
289.36	122.37
289.575	-57.86
289.79	218.62
290.004	19.97
290.219	138.75
290.434	38.4
290.649	-25.09
290.864	-12.8
291.079	110.08
291.294	83.45
291.509	89.6
291.724	3.58
291.938	62.98
292.153	69.12
292.368	-4.61
292.583	58.88
292.798	110.08
293.012	73.21
293.227	30.21
293.442	22.02
293.657	71.17
293.871	155.13
294.086	85.5
294.301	220.67
294.516	50.69
294.73	7.68
294.945	-72.19
295.16	7.68
295.374	159.23
295.589	75.26
295.804	81.41
296.018	46.59
296.233	93.69
296.447	36.35
296.662	32.26
296.877	56.83
297.091	101.89
297.306	-18.94
297.52	7.68
297.735	103.93
297.949	-20.99
298.164	3.58
298.378	108.03
298.593	-4.61
298.807	11.78
299.022	46.59
299.236	185.85
299.451	15.87
299.665	36.35
299.88	-41.47
300.094	62.98
300.309	58.88
300.523	7.68
300.737	-16.9
300.952	54.78
301.166	46.59
301.381	-10.75
301.595	13.82
301.809	83.45
302.024	-68.09
302.238	-57.86
302.452	136.7
302.667	56.83
302.881	122.37
303.095	77.31
303.309	58.88
303.524	-27.14
303.738	-33.28
303.952	-12.8
304.166	28.16
304.381	-55.81
304.595	192
304.809	-6.66
305.023	3.58
305.237	58.88
305.452	54.78
305.666	52.74
305.88	75.26
306.094	73.21
306.308	75.26
306.522	54.78
306.736	93.69
306.95	110.08
307.164	5.63
307.379	24.06
307.593	163.33
307.807	103.93
308.021	114.17
308.235	75.26
308.449	-20.99
308.663	87.55
308.877	194.05
309.091	105.98
309.305	50.69
309.519	-104.96
309.733	85.5
309.947	-33.28
310.161	46.59
310.374	5.63
310.588	114.17
310.802	-14.85
311.016	-47.62
311.23	26.11
311.444	56.83
311.658	48.64
311.872	122.37
312.085	114.17
312.299	134.65
312.513	75.26
312.727	38.4
312.941	3.58
313.154	-0.51
313.368	-12.8
313.582	97.79
313.796	38.4
314.009	58.88
314.223	144.89
314.437	95.74
314.651	99.84
314.864	3.58
315.078	-74.24
315.292	-64
315.505	-25.09
315.719	62.98
315.933	122.37
316.146	-29.18
316.36	50.69
316.573	85.5
316.787	48.64
317.001	79.36
317.214	-53.76
317.428	9.73
317.641	-23.04
317.855	-2.56
318.068	99.84
318.282	52.74
318.495	142.85
318.709	60.93
318.922	13.82
319.136	54.78
319.349	118.27
319.563	-51.71
319.776	65.02
319.99	-80.38
320.203	118.27
320.417	-6.66
320.63	155.13
320.843	224.76
321.057	77.31
321.27	56.83
321.483	173.57
321.697	89.6
321.91	79.36
322.124	11.78
322.337	101.89
322.55	-0.51
322.763	75.26
322.977	48.64
323.19	-18.94
323.403	50.69
323.617	62.98
323.83	122.37
324.043	36.35
324.256	120.32
324.469	22.02
324.683	134.65
324.896	85.5
325.109	56.83
325.322	-68.09
325.535	91.65
325.748	58.88
325.962	-29.18
326.175	11.78
326.388	81.41
326.601	138.75
326.814	-37.38
327.027	71.17
327.24	138.75
327.453	-43.52
327.666	62.98
327.879	148.99
328.092	75.26
328.305	87.55
328.518	-12.8
328.731	-16.9
328.944	24.06
329.157	81.41
329.37	-45.57
329.583	153.09
329.796	218.62
330.009	-27.14
330.222	69.12
330.435	120.32
330.648	69.12
330.861	77.31
331.073	77.31
331.286	75.26
331.499	52.74
331.712	36.35
331.925	67.07
332.138	71.17
332.35	116.22
332.563	60.93
332.776	95.74
332.989	-59.9
333.202	-25.09
333.414	1.54
333.627	28.16
333.84	-20.99
334.053	71.17
334.265	-23.04
334.478	-23.04
334.691	-20.99
334.903	9.73
335.116	-59.9
335.329	13.82
335.541	103.93
335.754	177.66
335.966	26.11
336.179	19.97
336.392	69.12
336.604	-41.47
336.817	120.32
337.029	-6.66
337.242	-68.09
337.454	65.02
337.667	-66.05
337.88	151.04
338.092	83.45
338.305	118.27
338.517	36.35
338.729	103.93
338.942	114.17
339.154	9.73
339.367	-8.7
339.579	40.45
339.792	-53.76
340.004	157.18
340.217	-6.66
340.429	26.11
340.641	-39.42
340.854	-10.75
341.066	38.4
341.278	136.7
341.491	148.99
341.703	-61.95
341.915	42.5
342.128	103.93
342.34	89.6
342.552	40.45
342.764	26.11
342.977	42.5
343.189	67.07
343.401	22.02
343.613	-41.47
343.826	42.5
344.038	-47.62
344.25	77.31
344.462	34.3
344.674	83.45
344.886	-2.56
345.099	24.06
345.311	81.41
345.523	36.35
345.735	-61.95
345.947	124.41
346.159	19.97
346.371	67.07
346.583	42.5
346.795	181.76
347.007	26.11
347.219	120.32
347.431	-2.56
347.643	62.98
347.855	-90.62
348.067	153.09
348.279	1.54
348.491	-4.61
348.703	136.7
348.915	81.41
349.127	-0.51
349.339	46.59
349.551	-64
349.763	50.69
349.975	44.54
350.187	124.41
350.399	87.55
350.61	42.5
350.822	71.17
351.034	85.5
351.246	54.78
351.458	67.07
351.669	75.26
351.881	79.36
352.093	122.37
352.305	108.03
352.517	99.84
352.728	210.43
352.94	9.73
353.152	52.74
353.363	-104.96
353.575	34.3
353.787	165.37
353.999	-6.66
354.21	163.33
354.422	56.83
354.633	-18.94
354.845	22.02
355.057	40.45
355.268	79.36
355.48	128.51
355.692	-37.38
355.903	3.58
356.115	-18.94
356.326	-102.91
356.538	95.74
356.749	142.85
356.961	103.93
357.172	15.87
357.384	-51.71
357.595	181.76
357.807	-25.09
358.018	-12.8
358.23	-23.04
358.441	144.89
358.653	56.83
358.864	75.26
359.075	30.21
359.287	26.11
359.498	87.55
359.709	89.6
359.921	11.78
360.132	62.98
360.344	-41.47
360.555	-6.66
360.766	38.4
360.977	-39.42
361.189	83.45
361.4	60.93
361.611	114.17
361.823	118.27
362.034	30.21
362.245	-80.38
362.456	3.58
362.667	52.74
362.879	13.82
363.09	54.78
363.301	15.87
363.512	17.92
363.723	22.02
363.935	-45.57
364.146	40.45
364.357	75.26
364.568	73.21
364.779	17.92
364.99	192
365.201	1.54
365.412	120.32
365.623	-82.43
365.834	-18.94
366.045	65.02
366.256	108.03
366.467	114.17
366.678	13.82
366.889	56.83
367.1	95.74
367.311	42.5
367.522	-8.7
367.733	9.73
367.944	97.79
368.155	-49.66
368.366	46.59
368.577	95.74
368.788	91.65
368.999	1.54
369.209	-10.75
369.42	132.61
369.631	192
369.842	97.79
370.053	26.11
370.264	126.46
370.474	5.63
370.685	69.12
370.896	22.02
371.107	138.75
371.317	46.59
371.528	48.64
371.739	144.89
371.95	97.79
372.16	62.98
372.371	-25.09
372.582	-6.66
372.792	58.88
373.003	42.5
373.214	75.26
373.424	44.54
373.635	22.02
373.846	157.18
374.056	28.16
374.267	42.5
374.477	73.21
374.688	-4.61
374.898	99.84
375.109	101.89
375.319	81.41
375.53	112.13
375.74	73.21
375.951	40.45
376.161	-0.51
376.372	142.85
376.582	-12.8
376.793	108.03
377.003	-8.7
377.214	-64
377.424	48.64
377.635	-6.66
377.845	-20.99
378.055	93.69
378.266	-43.52
378.476	-4.61
378.686	58.88
378.897	-4.61
379.107	177.66
379.317	75.26
379.528	-55.81
379.738	58.88
379.948	-53.76
380.158	83.45
380.369	-16.9
380.579	108.03
380.789	13.82
380.999	83.45
381.21	60.93
381.42	259.58
381.63	54.78
381.84	85.5
382.05	52.74
382.261	77.31
382.471	114.17
382.681	-8.7
382.891	151.04
383.101	77.31
383.311	-64
383.521	52.74
383.731	62.98
383.941	36.35
384.151	32.26
384.361	34.3
384.571	48.64
384.781	69.12
384.991	226.81
385.201	136.7
385.411	75.26
385.621	140.8
385.831	71.17
386.041	85.5
386.251	15.87
386.461	91.65
386.671	136.7
386.881	44.54
387.091	28.16
387.301	85.5
387.511	9.73
387.72	153.09
387.93	69.12
388.14	-35.33
388.35	32.26
388.56	116.22
388.769	77.31
388.979	48.64
389.189	-16.9
389.399	40.45
389.609	50.69
389.818	159.23
390.028	38.4
390.238	44.54
390.447	17.92
390.657	73.21
390.867	-51.71
391.076	-29.18
391.286	95.74
391.496	-37.38
391.705	79.36
391.915	126.46
392.125	148.99
392.334	69.12
392.544	120.32
392.753	48.64
392.963	-8.7
393.172	40.45
393.382	-49.66
393.591	171.52
393.801	-20.99
394.01	128.51
394.22	112.13
394.429	-8.7
394.639	17.92
394.848	28.16
395.058	83.45
395.267	54.78
395.477	128.51
395.686	71.17
395.895	218.62
396.105	177.66
396.314	79.36
396.524	-27.14
396.733	71.17
396.942	155.13
397.152	101.89
397.361	71.17
397.57	34.3
397.78	56.83
397.989	62.98
398.198	151.04
398.407	75.26
398.617	-20.99
398.826	7.68
399.035	-35.33
399.244	91.65
399.453	95.74
399.663	89.6
399.872	52.74
400.081	-2.56
400.29	136.7
400.499	-31.23
400.708	101.89
400.917	56.83
401.127	65.02
401.336	-29.18
401.545	103.93
401.754	110.08
401.963	140.8
402.172	-2.56
402.381	-41.47
402.59	32.26
402.799	-2.56
403.008	126.46
403.217	36.35
403.426	40.45
403.635	-18.94
403.844	28.16
404.053	13.82
404.262	-18.94
404.471	173.57
404.68	-6.66
404.888	-6.66
405.097	67.07
405.306	34.3
405.515	95.74
405.724	7.68
405.933	77.31
406.142	140.8
406.35	77.31
406.559	40.45
406.768	24.06
406.977	71.17
407.185	58.88
407.394	62.98
407.603	9.73
407.812	75.26
408.02	257.53
408.229	54.78
408.438	116.22
408.646	-31.23
408.855	62.98
409.064	136.7
409.272	-61.95
409.481	62.98
409.69	22.02
409.898	3.58
410.107	52.74
410.315	165.37
410.524	-29.18
410.733	30.21
410.941	101.89
411.15	192
411.358	52.74
411.567	138.75
411.775	124.41
411.984	9.73
412.192	138.75
412.401	1.54
412.609	177.66
412.818	142.85
413.026	101.89
413.234	11.78
413.443	9.73
413.651	62.98
413.86	34.3
414.068	148.99
414.276	163.33
414.485	22.02
414.693	118.27
414.901	192
415.11	112.13
415.318	40.45
415.526	19.97
415.734	144.89
415.943	79.36
416.151	228.86
416.359	-2.56
416.567	75.26
416.776	103.93
416.984	69.12
417.192	194.05
417.4	65.02
417.608	7.68
417.817	-72.19
418.025	122.37
418.233	144.89
418.441	15.87
418.649	-12.8
418.857	108.03
419.065	114.17
419.273	19.97
419.481	128.51
419.689	73.21
419.897	19.97
420.105	7.68
420.313	118.27
420.521	97.79
420.729	114.17
420.937	40.45
421.145	-16.9
421.353	144.89
421.561	173.57
421.769	87.55
421.977	56.83
422.185	77.31
422.393	50.69
422.601	67.07
422.809	73.21
423.017	91.65
423.224	40.45
423.432	122.37
423.64	48.64
423.848	38.4
424.056	-2.56
424.263	85.5
424.471	46.59
424.679	120.32
424.887	-12.8
425.094	52.74
425.302	101.89
425.51	60.93
425.718	153.09
425.925	112.13
426.133	22.02
426.341	214.52
426.548	83.45
426.756	-2.56
426.964	71.17
427.171	-68.09
427.379	81.41
427.586	126.46
427.794	65.02
428.001	146.94
428.209	50.69
428.417	134.65
428.624	81.41
428.832	101.89
429.039	118.27
429.247	28.16
429.454	108.03
429.662	159.23
429.869	120.32
430.076	65.02
430.284	171.52
430.491	136.7
430.699	173.57
430.906	146.94
431.114	95.74
431.321	126.46
431.528	126.46
431.736	62.98
431.943	161.28
432.15	155.13
432.358	140.8
432.565	288.25
432.772	42.5
432.979	187.9
433.187	140.8
433.394	196.09
433.601	148.99
433.808	237.05
434.016	220.67
434.223	228.86
434.43	175.61
434.637	226.81
434.844	183.81
435.052	216.57
435.259	235
435.466	275.96
435.673	271.87
435.88	200.19
436.087	325.12
436.294	312.83
436.501	210.43
436.708	230.91
436.915	280.06
437.122	314.88
437.329	247.29
437.537	294.4
437.743	216.57
437.95	372.22
438.157	292.35
438.364	206.33
438.571	263.68
438.778	380.41
438.985	376.31
439.192	368.12
439.399	376.31
439.606	355.83
439.813	525.82
440.02	572.92
440.227	542.2
440.433	491
440.64	439.8
440.847	529.91
441.054	574.97
441.261	620.02
441.467	544.25
441.674	441.85
441.881	654.84
442.088	488.95
442.294	724.47
442.501	667.13
442.708	685.56
442.914	617.97
443.121	669.17
443.328	769.52
443.534	871.92
443.741	851.44
443.948	742.9
444.154	853.49
444.361	1002.99
444.568	929.27
444.774	916.98
444.981	908.79
445.187	1148.4
445.394	1078.77
445.6	941.55
445.807	1215.98
446.013	988.66
446.22	1111.54
446.426	1269.23
446.633	1306.09
446.839	1437.16
447.046	1195.5
447.252	1388.01
447.459	1529.32
447.665	1431.02
447.871	1639.91
448.078	1752.55
448.284	1609.19
448.491	1777.12
448.697	1799.65
448.903	1793.51
449.11	1981.92
449.316	1883.62
449.522	2133.47
449.728	2112.99
449.935	2217.44
450.141	2289.12
450.347	2407.9
450.553	2450.91
450.76	2477.53
450.966	2426.33
451.172	2614.74
451.378	2803.16
451.584	2815.45
451.791	2964.95
451.997	2993.62
452.203	3159.5
452.409	3167.7
452.615	3481.03
452.821	3241.42
453.027	3356.11
453.233	3808.71
453.44	3663.3
453.646	3823.05
453.852	4115.91
454.058	4257.22
454.264	4384.19
454.47	4570.55
454.676	4650.43
454.882	5012.92
455.088	4695.48
455.294	5049.78
455.5	5250.48
455.705	5580.2
455.911	5637.55
456.117	5858.73
456.323	6098.34
456.529	6026.66
456.735	6589.85
456.941	6788.5
457.147	6970.77
457.352	7308.69
457.558	7290.26
457.764	7908.74
457.97	8084.87
458.176	8398.21
458.381	8641.92
458.587	9022.84
458.793	9254.26
458.999	9336.18
459.204	10411.36
459.41	11009.37
459.616	10677.6
459.821	11468.11
460.027	11695.44
460.233	12469.57
460.438	12526.91
460.644	13217.08
460.85	13315.38
461.055	13909.29
461.261	14423.33
461.466	14198.06
461.672	14282.02
461.878	16153.87
462.083	15959.31
462.289	16403.72
462.494	17046.78
462.7	17200.38
462.905	17239.29
463.111	18816.22
463.316	19582.17
463.522	20110.54
463.727	20700.36
463.932	21576.89
464.138	22131.89
464.343	23055.52
464.549	23174.3
464.754	24769.67
464.959	25644.15
465.165	26035.31
465.37	25975.92
465.575	25826.42
465.781	27505.76
465.986	28499.02
466.191	28220.5
466.397	28167.25
466.602	27552.86
466.807	29248.58
467.012	29658.17
467.218	29985.85
467.423	30231.6
467.628	31081.51
467.833	32398.35
468.038	32125.97
468.244	31386.66
468.449	33156.1
468.654	32545.81
468.859	32304.15
469.064	32646.16
469.269	31767.58
469.474	32007.19
469.679	33577.98
