Data from USB4F104151__78__09-30-18-889.txt Node

Date: Wed Feb 26 09:30:18 EST 2025
User: louis
Spectrometer: USB4F10415
Trigger mode: 4
Integration Time (sec): 1.000000E-1
Scans to average: 1
Electric dark correction enabled: true
Nonlinearity correction enabled: false
Boxcar width: 0
XAxis mode: Wavelengths
Number of Pixels in Spectrum: 3648
>>>>>Begin Spectral Data<<<<<
178.204	-337.57
178.424	-337.57
178.644	-337.57
178.864	-366.25
179.084	-327.33
179.304	-40.62
179.524	-44.71
179.744	-3.75
179.964	22.87
180.184	57.68
180.404	98.64
180.624	-46.76
180.844	-32.43
181.064	-34.47
181.283	35.16
181.503	-44.71
181.723	33.11
181.943	-20.14
182.163	160.08
182.383	-11.95
182.602	-20.14
182.822	160.08
183.042	76.12
183.262	-22.19
183.482	-5.8
183.701	41.3
183.921	78.16
184.141	18.77
184.361	43.35
184.58	84.31
184.8	26.96
185.02	82.26
185.239	135.51
185.459	26.96
185.679	72.02
185.898	-95.91
186.118	125.27
186.338	8.53
186.557	78.16
186.777	-38.57
186.997	22.87
187.216	26.96
187.436	180.56
187.655	59.73
187.875	117.08
188.095	141.65
188.314	117.08
188.534	182.61
188.753	59.73
188.973	125.27
189.192	110.93
189.412	43.35
189.631	65.88
189.851	119.12
190.07	139.6
190.29	-87.72
190.509	106.84
190.729	67.92
190.948	106.84
191.168	319.82
191.387	82.26
191.607	41.3
191.826	74.07
192.045	37.2
192.265	26.96
192.484	59.73
192.704	33.11
192.923	-16.04
193.142	135.51
193.362	160.08
193.581	172.37
193.8	-13.99
194.02	98.64
194.239	55.64
194.458	86.36
194.678	51.54
194.897	-5.8
195.116	94.55
195.335	65.88
195.555	41.3
195.774	51.54
195.993	78.16
196.212	33.11
196.432	29.01
196.651	10.58
196.87	29.01
197.089	176.47
197.308	137.56
197.528	82.26
197.747	22.87
197.966	47.44
198.185	102.74
198.404	49.49
198.623	86.36
198.842	121.17
199.062	115.03
199.281	86.36
199.5	43.35
199.719	67.92
199.938	67.92
200.157	90.45
200.376	170.32
200.595	162.13
200.814	78.16
201.033	-40.62
201.252	139.6
201.471	-5.8
201.69	106.84
201.909	57.68
202.128	98.64
202.347	176.47
202.566	98.64
202.785	-16.04
203.004	-34.47
203.223	246.1
203.442	20.82
203.661	-100.01
203.879	67.92
204.098	80.21
204.317	-28.33
204.536	41.3
204.755	67.92
204.974	121.17
205.193	45.4
205.411	133.46
205.63	92.5
205.849	92.5
206.068	47.44
206.287	20.82
206.505	188.75
206.724	35.16
206.943	24.92
207.162	-40.62
207.381	96.6
207.599	121.17
207.818	53.59
208.037	119.12
208.255	59.73
208.474	35.16
208.693	59.73
208.911	-32.43
209.13	153.94
209.349	53.59
209.567	65.88
209.786	78.16
210.005	131.41
210.223	55.64
210.442	-93.87
210.661	78.16
210.879	18.77
211.098	12.63
211.316	35.16
211.535	90.45
211.753	51.54
211.972	121.17
212.191	2.39
212.409	-9.9
212.628	125.27
212.846	2.39
213.065	24.92
213.283	115.03
213.502	76.12
213.72	55.64
213.938	-7.85
214.157	22.87
214.375	129.36
214.594	41.3
214.812	88.4
215.031	41.3
215.249	6.49
215.467	37.2
215.686	4.44
215.904	115.03
216.122	-11.95
216.341	147.8
216.559	-22.19
216.778	82.26
216.996	110.93
217.214	37.2
217.432	0.34
217.651	-7.85
217.869	67.92
218.087	102.74
218.306	20.82
218.524	10.58
218.742	-11.95
218.96	90.45
219.179	-7.85
219.397	57.68
219.615	205.14
219.833	35.16
220.051	-63.15
220.27	90.45
220.488	51.54
220.706	43.35
220.924	-40.62
221.142	-18.09
221.36	108.88
221.578	-57
221.796	-24.23
222.015	26.96
222.233	90.45
222.451	127.32
222.669	-44.71
222.887	168.27
223.105	12.63
223.323	59.73
223.541	-65.19
223.759	92.5
223.977	51.54
224.195	201.04
224.413	92.5
224.631	115.03
224.849	90.45
225.067	180.56
225.285	-20.14
225.503	35.16
225.721	-40.62
225.939	104.79
226.157	55.64
226.375	172.37
226.592	-32.43
226.81	31.06
227.028	61.78
227.246	119.12
227.464	61.78
227.682	168.27
227.9	86.36
228.117	96.6
228.335	2.39
228.553	41.3
228.771	61.78
228.989	41.3
229.206	51.54
229.424	-9.9
229.642	-7.85
229.86	-48.81
230.077	94.55
230.295	10.58
230.513	84.31
230.731	12.63
230.948	133.46
231.166	184.66
231.384	-73.39
231.601	12.63
231.819	160.08
232.037	39.25
232.254	-11.95
232.472	-24.23
232.689	61.78
232.907	86.36
233.125	-28.33
233.342	-20.14
233.56	-65.19
233.777	-65.19
233.995	76.12
234.213	108.88
234.43	67.92
234.648	16.73
234.865	4.44
235.083	117.08
235.3	82.26
235.518	63.83
235.735	108.88
235.953	115.03
236.17	20.82
236.388	16.73
236.605	61.78
236.822	115.03
237.04	106.84
237.257	82.26
237.475	33.11
237.692	63.83
237.909	61.78
238.127	22.87
238.344	129.36
238.562	74.07
238.779	-11.95
238.996	-13.99
239.214	82.26
239.431	96.6
239.648	-5.8
239.865	84.31
240.083	74.07
240.3	-36.52
240.517	-61.1
240.735	100.69
240.952	153.94
241.169	86.36
241.386	74.07
241.603	47.44
241.821	-36.52
242.038	104.79
242.255	92.5
242.472	-7.85
242.689	127.32
242.907	61.78
243.124	35.16
243.341	8.53
243.558	14.68
243.775	-57
243.992	-44.71
244.209	29.01
244.426	76.12
244.643	112.98
244.86	-16.04
245.078	22.87
245.295	76.12
245.512	69.97
245.729	-13.99
245.946	74.07
246.163	69.97
246.38	20.82
246.597	45.4
246.814	74.07
247.031	-5.8
247.248	-1.71
247.464	57.68
247.681	69.97
247.898	57.68
248.115	88.4
248.332	49.49
248.549	49.49
248.766	125.27
248.983	65.88
249.2	55.64
249.417	61.78
249.633	51.54
249.85	74.07
250.067	78.16
250.284	141.65
250.501	45.4
250.717	98.64
250.934	-122.54
251.151	-28.33
251.368	41.3
251.585	53.59
251.801	12.63
252.018	0.34
252.235	92.5
252.451	-36.52
252.668	29.01
252.885	158.03
253.102	45.4
253.318	12.63
253.535	10.58
253.752	49.49
253.968	-18.09
254.185	0.34
254.401	51.54
254.618	41.3
254.835	8.53
255.051	108.88
255.268	49.49
255.484	24.92
255.701	18.77
255.917	61.78
256.134	-46.76
256.351	-22.19
256.567	4.44
256.784	-24.23
257	49.49
257.217	162.13
257.433	2.39
257.65	12.63
257.866	106.84
258.082	80.21
258.299	18.77
258.515	39.25
258.732	108.88
258.948	-20.14
259.165	143.7
259.381	-28.33
259.597	129.36
259.814	37.2
260.03	133.46
260.246	74.07
260.463	104.79
260.679	69.97
260.895	49.49
261.112	41.3
261.328	37.2
261.544	16.73
261.761	153.94
261.977	10.58
262.193	4.44
262.409	14.68
262.626	123.22
262.842	98.64
263.058	4.44
263.274	74.07
263.49	100.69
263.707	102.74
263.923	39.25
264.139	-57
264.355	4.44
264.571	57.68
264.787	96.6
265.004	127.32
265.22	49.49
265.436	-28.33
265.652	108.88
265.868	80.21
266.084	43.35
266.3	69.97
266.516	-46.76
266.732	63.83
266.948	-13.99
267.164	-30.38
267.38	88.4
267.596	123.22
267.812	215.38
268.028	4.44
268.244	53.59
268.46	96.6
268.676	67.92
268.892	41.3
269.108	-40.62
269.324	-3.75
269.54	10.58
269.756	131.41
269.972	-48.81
270.188	82.26
270.403	-16.04
270.619	96.6
270.835	59.73
271.051	22.87
271.267	4.44
271.483	33.11
271.698	63.83
271.914	24.92
272.13	20.82
272.346	-48.81
272.562	65.88
272.777	133.46
272.993	69.97
273.209	-36.52
273.425	69.97
273.64	-5.8
273.856	59.73
274.072	-42.67
274.287	-11.95
274.503	78.16
274.719	59.73
274.934	24.92
275.15	-73.39
275.366	14.68
275.581	-112.3
275.797	-7.85
276.012	18.77
276.228	-7.85
276.444	65.88
276.659	78.16
276.875	-110.25
277.09	-85.67
277.306	12.63
277.521	96.6
277.737	78.16
277.952	151.89
278.168	45.4
278.383	84.31
278.599	37.2
278.814	78.16
279.03	45.4
279.245	121.17
279.461	18.77
279.676	61.78
279.892	12.63
280.107	-69.29
280.322	-5.8
280.538	37.2
280.753	51.54
280.969	100.69
281.184	67.92
281.399	131.41
281.615	2.39
281.83	51.54
282.045	-13.99
282.26	-38.57
282.476	-11.95
282.691	20.82
282.906	43.35
283.122	-44.71
283.337	76.12
283.552	53.59
283.767	43.35
283.983	53.59
284.198	92.5
284.413	106.84
284.628	-34.47
284.843	18.77
285.058	65.88
285.274	-38.57
285.489	37.2
285.704	104.79
285.919	26.96
286.134	90.45
286.349	2.39
286.564	43.35
286.779	151.89
286.995	-1.71
287.21	-71.34
287.425	55.64
287.64	-9.9
287.855	51.54
288.07	-65.19
288.285	88.4
288.5	147.8
288.715	102.74
288.93	33.11
289.145	-24.23
289.36	8.53
289.575	-63.15
289.79	53.59
290.004	-22.19
290.219	49.49
290.434	33.11
290.649	57.68
290.864	-7.85
291.079	31.06
291.294	35.16
291.509	86.36
291.724	12.63
291.938	-67.24
292.153	43.35
292.368	20.82
292.583	74.07
292.798	127.32
293.012	45.4
293.227	24.92
293.442	-11.95
293.657	127.32
293.871	147.8
294.086	61.78
294.301	235.86
294.516	86.36
294.73	43.35
294.945	41.3
295.16	-38.57
295.374	86.36
295.589	35.16
295.804	-42.67
296.018	141.65
296.233	135.51
296.447	43.35
296.662	6.49
296.877	115.03
297.091	24.92
297.306	18.77
297.52	33.11
297.735	16.73
297.949	139.6
298.164	82.26
298.378	45.4
298.593	57.68
298.807	-20.14
299.022	53.59
299.236	162.13
299.451	-52.91
299.665	8.53
299.88	35.16
300.094	119.12
300.309	57.68
300.523	-11.95
300.737	0.34
300.952	65.88
301.166	18.77
301.381	-36.52
301.595	29.01
301.809	55.64
302.024	12.63
302.238	-36.52
302.452	31.06
302.667	4.44
302.881	119.12
303.095	155.99
303.309	92.5
303.524	33.11
303.738	26.96
303.952	8.53
304.166	37.2
304.381	0.34
304.595	47.44
304.809	-36.52
305.023	57.68
305.237	-32.43
305.452	18.77
305.666	94.55
305.88	22.87
306.094	112.98
306.308	49.49
306.522	41.3
306.736	49.49
306.95	108.88
307.164	10.58
307.379	0.34
307.593	61.78
307.807	178.51
308.021	80.21
308.235	76.12
308.449	-44.71
308.663	41.3
308.877	217.43
309.091	0.34
309.305	184.66
309.519	-46.76
309.733	125.27
309.947	-85.67
310.161	119.12
310.374	88.4
310.588	194.9
310.802	43.35
311.016	-11.95
311.23	49.49
311.444	-24.23
311.658	33.11
311.872	133.46
312.085	29.01
312.299	123.22
312.513	82.26
312.727	55.64
312.941	-13.99
313.154	82.26
313.368	12.63
313.582	26.96
313.796	72.02
314.009	53.59
314.223	123.22
314.437	39.25
314.651	37.2
314.864	12.63
315.078	117.08
315.292	-75.43
315.505	-18.09
315.719	37.2
315.933	47.44
316.146	45.4
316.36	-1.71
316.573	139.6
316.787	82.26
317.001	37.2
317.214	-16.04
317.428	53.59
317.641	-83.63
317.855	31.06
318.068	35.16
318.282	69.97
318.495	129.36
318.709	18.77
318.922	2.39
319.136	88.4
319.349	90.45
319.563	78.16
319.776	76.12
319.99	-87.72
320.203	155.99
320.417	45.4
320.63	125.27
320.843	184.66
321.057	29.01
321.27	6.49
321.483	149.84
321.697	106.84
321.91	33.11
322.124	14.68
322.337	61.78
322.55	12.63
322.763	37.2
322.977	-7.85
323.19	-24.23
323.403	57.68
323.617	84.31
323.83	143.7
324.043	78.16
324.256	82.26
324.469	-67.24
324.683	168.27
324.896	-9.9
325.109	31.06
325.322	-63.15
325.535	74.07
325.748	151.89
325.962	43.35
326.175	26.96
326.388	84.31
326.601	98.64
326.814	-63.15
327.027	-11.95
327.24	176.47
327.453	-61.1
327.666	45.4
327.879	110.93
328.092	143.7
328.305	0.34
328.518	-11.95
328.731	-30.38
328.944	29.01
329.157	78.16
329.37	12.63
329.583	119.12
329.796	166.23
330.009	-85.67
330.222	90.45
330.435	86.36
330.648	35.16
330.861	33.11
331.073	-3.75
331.286	174.42
331.499	98.64
331.712	0.34
331.925	115.03
332.138	108.88
332.35	0.34
332.563	-63.15
332.776	98.64
332.989	-1.71
333.202	-3.75
333.414	22.87
333.627	96.6
333.84	-16.04
334.053	86.36
334.265	10.58
334.478	-26.28
334.691	104.79
334.903	-34.47
335.116	67.92
335.329	80.21
335.541	69.97
335.754	102.74
335.966	18.77
336.179	53.59
336.392	31.06
336.604	43.35
336.817	26.96
337.029	35.16
337.242	29.01
337.454	90.45
337.667	-11.95
337.88	108.88
338.092	127.32
338.305	63.83
338.517	29.01
338.729	106.84
338.942	76.12
339.154	59.73
339.367	-67.24
339.579	35.16
339.792	-5.8
340.004	22.87
340.217	67.92
340.429	106.84
340.641	-69.29
340.854	-7.85
341.066	49.49
341.278	45.4
341.491	155.99
341.703	65.88
341.915	22.87
342.128	135.51
342.34	18.77
342.552	0.34
342.764	82.26
342.977	-36.52
343.189	10.58
343.401	63.83
343.613	-28.33
343.826	26.96
344.038	-20.14
344.25	-22.19
344.462	-93.87
344.674	88.4
344.886	6.49
345.099	63.83
345.311	59.73
345.523	-28.33
345.735	-54.95
345.947	49.49
346.159	37.2
346.371	35.16
346.583	22.87
346.795	158.03
347.007	6.49
347.219	90.45
347.431	12.63
347.643	63.83
347.855	4.44
348.067	45.4
348.279	6.49
348.491	78.16
348.703	117.08
348.915	33.11
349.127	-13.99
349.339	65.88
349.551	41.3
349.763	53.59
349.975	14.68
350.187	20.82
350.399	115.03
350.61	110.93
350.822	29.01
351.034	14.68
351.246	37.2
351.458	94.55
351.669	29.01
351.881	74.07
352.093	108.88
352.305	61.78
352.517	49.49
352.728	94.55
352.94	59.73
353.152	61.78
353.363	47.44
353.575	82.26
353.787	194.9
353.999	-5.8
354.21	184.66
354.422	6.49
354.633	53.59
354.845	18.77
355.057	49.49
355.268	-1.71
355.48	57.68
355.692	-89.77
355.903	4.44
356.115	-44.71
356.326	-116.39
356.538	160.08
356.749	135.51
356.961	133.46
357.172	69.97
357.384	33.11
357.595	94.55
357.807	43.35
358.018	86.36
358.23	106.84
358.441	104.79
358.653	102.74
358.864	20.82
359.075	-44.71
359.287	4.44
359.498	112.98
359.709	69.97
359.921	43.35
360.132	100.69
360.344	10.58
360.555	41.3
360.766	35.16
360.977	94.55
361.189	115.03
361.4	41.3
361.611	92.5
361.823	86.36
362.034	0.34
362.245	-77.48
362.456	20.82
362.667	121.17
362.879	-59.05
363.09	47.44
363.301	20.82
363.512	59.73
363.723	69.97
363.935	4.44
364.146	94.55
364.357	-3.75
364.568	24.92
364.779	-34.47
364.99	65.88
365.201	-36.52
365.412	92.5
365.623	-28.33
365.834	45.4
366.045	53.59
366.256	135.51
366.467	80.21
366.678	43.35
366.889	108.88
367.1	37.2
367.311	110.93
367.522	-61.1
367.733	-1.71
367.944	26.96
368.155	-26.28
368.366	61.78
368.577	139.6
368.788	86.36
368.999	-57
369.209	110.93
369.42	164.18
369.631	192.85
369.842	65.88
370.053	0.34
370.264	125.27
370.474	-36.52
370.685	-11.95
370.896	2.39
371.107	155.99
371.317	92.5
371.528	100.69
371.739	147.8
371.95	90.45
372.16	135.51
372.371	-34.47
372.582	0.34
372.792	96.6
373.003	29.01
373.214	53.59
373.424	92.5
373.635	-54.95
373.846	49.49
374.056	125.27
374.267	65.88
374.477	20.82
374.688	67.92
374.898	24.92
375.109	65.88
375.319	14.68
375.53	137.56
375.74	96.6
375.951	0.34
376.161	65.88
376.372	55.64
376.582	4.44
376.793	53.59
377.003	-36.52
377.214	-22.19
377.424	153.94
377.635	72.02
377.845	-44.71
378.055	100.69
378.266	-11.95
378.476	37.2
378.686	-11.95
378.897	65.88
379.107	78.16
379.317	14.68
379.528	86.36
379.738	47.44
379.948	-63.15
380.158	53.59
380.369	-22.19
380.579	80.21
380.789	16.73
380.999	123.22
381.21	74.07
381.42	176.47
381.63	16.73
381.84	0.34
382.05	92.5
382.261	35.16
382.471	96.6
382.681	8.53
382.891	119.12
383.101	74.07
383.311	33.11
383.521	-11.95
383.731	141.65
383.941	119.12
384.151	33.11
384.361	67.92
384.571	80.21
384.781	141.65
384.991	151.89
385.201	143.7
385.411	182.61
385.621	74.07
385.831	90.45
386.041	65.88
386.251	61.78
386.461	84.31
386.671	43.35
386.881	74.07
387.091	-5.8
387.301	98.64
387.511	6.49
387.72	49.49
387.93	72.02
388.14	-32.43
388.35	-50.86
388.56	102.74
388.769	61.78
388.979	35.16
389.189	82.26
389.399	69.97
389.609	86.36
389.818	29.01
390.028	100.69
390.238	55.64
390.447	-16.04
390.657	74.07
390.867	-1.71
391.076	12.63
391.286	41.3
391.496	6.49
391.705	78.16
391.915	110.93
392.125	110.93
392.334	20.82
392.544	192.85
392.753	117.08
392.963	0.34
393.172	-7.85
393.382	-44.71
393.591	192.85
393.801	67.92
394.01	119.12
394.22	104.79
394.429	8.53
394.639	61.78
394.848	143.7
395.058	16.73
395.267	53.59
395.477	96.6
395.686	-13.99
395.895	135.51
396.105	158.03
396.314	22.87
396.524	80.21
396.733	-16.04
396.942	96.6
397.152	61.78
397.361	102.74
397.57	-7.85
397.78	53.59
397.989	61.78
398.198	176.47
398.407	-3.75
398.617	24.92
398.826	74.07
399.035	24.92
399.244	143.7
399.453	63.83
399.663	-71.34
399.872	10.58
400.081	-36.52
400.29	127.32
400.499	10.58
400.708	78.16
400.917	104.79
401.127	31.06
401.336	-7.85
401.545	104.79
401.754	135.51
401.963	119.12
402.172	59.73
402.381	-116.39
402.59	-97.96
402.799	29.01
403.008	131.41
403.217	102.74
403.426	94.55
403.635	-81.58
403.844	59.73
404.053	69.97
404.262	45.4
404.471	158.03
404.68	43.35
404.888	-16.04
405.097	20.82
405.306	65.88
405.515	74.07
405.724	-16.04
405.933	127.32
406.142	31.06
406.35	76.12
406.559	-61.1
406.768	12.63
406.977	115.03
407.185	45.4
407.394	80.21
407.603	8.53
407.812	12.63
408.02	135.51
408.229	61.78
408.438	84.31
408.646	45.4
408.855	20.82
409.064	69.97
409.272	43.35
409.481	123.22
409.69	24.92
409.898	16.73
410.107	96.6
410.315	86.36
410.524	-57
410.733	16.73
410.941	-26.28
411.15	141.65
411.358	90.45
411.567	139.6
411.775	53.59
411.984	8.53
412.192	47.44
412.401	-44.71
412.609	112.98
412.818	94.55
413.026	131.41
413.234	4.44
413.443	4.44
413.651	-7.85
413.86	-63.15
414.068	158.03
414.276	174.42
414.485	51.54
414.693	131.41
414.901	143.7
415.11	18.77
415.318	43.35
415.526	-54.95
415.734	123.22
415.943	26.96
416.151	129.36
416.359	112.98
416.567	20.82
416.776	102.74
416.984	82.26
417.192	137.56
417.4	12.63
417.608	6.49
417.817	-59.05
418.025	94.55
418.233	215.38
418.441	33.11
418.649	31.06
418.857	96.6
419.065	90.45
419.273	41.3
419.481	33.11
419.689	20.82
419.897	4.44
420.105	4.44
420.313	115.03
420.521	225.62
420.729	106.84
420.937	33.11
421.145	8.53
421.353	112.98
421.561	127.32
421.769	129.36
421.977	-24.23
422.185	35.16
422.393	57.68
422.601	31.06
422.809	53.59
423.017	76.12
423.224	45.4
423.432	86.36
423.64	141.65
423.848	86.36
424.056	20.82
424.263	104.79
424.471	4.44
424.679	123.22
424.887	22.87
425.094	94.55
425.302	55.64
425.51	-7.85
425.718	55.64
425.925	29.01
426.133	84.31
426.341	166.23
426.548	35.16
426.756	18.77
426.964	141.65
427.171	0.34
427.379	41.3
427.586	86.36
427.794	49.49
428.001	155.99
428.209	63.83
428.417	108.88
428.624	108.88
428.832	67.92
429.039	67.92
429.247	45.4
429.454	180.56
429.662	213.33
429.869	65.88
430.076	110.93
430.284	98.64
430.491	211.28
430.699	133.46
430.906	155.99
431.114	121.17
431.321	84.31
431.528	72.02
431.736	127.32
431.943	92.5
432.15	151.89
432.358	184.66
432.565	203.09
432.772	-28.33
432.979	127.32
433.187	55.64
433.394	141.65
433.601	117.08
433.808	172.37
434.016	266.58
434.223	131.41
434.43	137.56
434.637	188.75
434.844	239.95
435.052	201.04
435.259	227.67
435.466	198.99
435.673	223.57
435.88	180.56
436.087	299.34
436.294	276.82
436.501	323.92
436.708	237.91
436.915	215.38
437.122	313.68
437.329	123.22
437.537	282.96
437.743	256.34
437.95	348.5
438.157	289.1
438.364	237.91
438.571	266.58
438.778	336.21
438.985	354.64
439.192	356.69
439.399	364.88
439.606	301.39
439.813	332.11
440.02	479.57
440.227	444.75
440.433	403.79
440.64	397.65
440.847	321.87
441.054	461.13
441.261	520.53
441.467	446.8
441.674	379.22
441.881	534.86
442.088	487.76
442.294	567.63
442.501	725.32
442.708	670.03
442.914	549.2
443.121	667.98
443.328	672.08
443.534	723.27
443.741	665.93
443.948	541.01
444.154	753.99
444.361	885.06
444.568	618.83
444.774	794.95
444.981	696.65
445.187	899.4
445.394	868.68
445.6	878.92
445.807	950.6
446.013	895.3
446.22	946.5
446.426	946.5
446.633	1182.02
446.839	1253.7
447.046	997.7
447.252	1177.92
447.459	1161.54
447.665	1237.31
447.871	1284.42
448.078	1438.02
448.284	1376.58
448.491	1495.36
448.697	1542.46
448.903	1612.09
449.11	1597.76
449.316	1632.57
449.522	1759.55
449.728	1782.07
449.935	1798.46
450.141	1829.18
450.347	1976.63
450.553	2019.64
450.76	1990.97
450.966	2074.93
451.172	2138.42
451.378	2330.93
451.584	2359.6
451.791	2576.69
451.997	2498.86
452.203	2607.41
452.409	2785.58
452.615	2756.91
452.821	2748.72
453.027	2793.77
453.233	3172.64
453.44	3004.71
453.646	3100.97
453.852	3260.71
454.058	3549.47
454.264	3399.97
454.47	3961.11
454.676	3834.14
454.882	4114.71
455.088	3983.64
455.294	4202.77
455.5	4534.54
455.705	4868.36
455.911	4825.36
456.117	4780.3
456.323	5013.77
456.529	5099.78
456.735	5538.05
456.941	5640.45
457.147	5904.64
457.352	5955.83
457.558	6168.82
457.764	6537.46
457.97	6795.5
458.176	7078.12
458.381	7350.5
458.587	7401.7
458.793	8007.9
458.999	7801.05
459.204	8937.68
459.41	8962.25
459.616	8902.86
459.821	9511.11
460.027	9955.52
460.233	10295.48
460.438	10444.98
460.644	10993.84
460.85	11141.29
461.055	11522.21
461.261	11993.25
461.466	11931.81
461.672	12093.6
461.878	13326.47
462.083	13467.78
462.289	13535.37
462.494	14141.57
462.7	14336.12
462.905	14594.17
463.111	15876.2
463.316	16371.8
463.522	16660.57
463.727	17166.42
463.932	17741.89
464.138	18614.33
464.343	19476.52
464.549	19353.65
464.754	20797.46
464.959	21235.73
465.165	21678.09
465.37	21796.87
465.575	21563.4
465.781	22913.02
465.986	23779.31
466.191	23207.92
466.397	23576.56
466.602	23158.77
466.807	24053.73
467.012	24891.35
467.218	25415.63
467.423	24960.98
467.628	25925.58
467.833	27375.54
468.038	26644.41
468.244	26429.38
468.449	27928.49
468.654	26988.47
468.859	26888.12
469.064	26974.14
469.269	26593.22
469.474	27011
469.679	27359.16
469.885	26568.64
470.09	27183.03
