Data from USB4F104151__64__10-26-53-124.txt Node

Date: Wed Feb 26 10:26:53 EST 2025
User: louis
Spectrometer: USB4F10415
Trigger mode: 4
Integration Time (sec): 1.000000E-1
Scans to average: 1
Electric dark correction enabled: true
Nonlinearity correction enabled: false
Boxcar width: 0
XAxis mode: Wavelengths
Number of Pixels in Spectrum: 3648
>>>>>Begin Spectral Data<<<<<
178.204	-374.27
178.424	-374.27
178.644	-374.27
178.864	-445.95
179.084	-402.94
179.304	16.9
179.524	-17.92
179.744	64
179.964	35.33
180.184	-32.26
180.404	31.23
180.624	-13.82
180.844	-19.97
181.064	-58.88
181.283	10.75
181.503	-73.21
181.723	57.86
181.943	-103.93
182.163	107.01
182.383	-62.98
182.602	74.24
182.822	84.48
183.042	43.52
183.262	-69.12
183.482	51.71
183.701	41.47
183.921	20.99
184.141	-5.63
184.361	107.01
184.58	68.09
184.8	59.9
185.02	16.9
185.239	70.14
185.459	80.38
185.679	109.05
185.898	-101.89
186.118	53.76
186.338	29.18
186.557	104.96
186.777	-3.58
186.997	-32.26
187.216	14.85
187.436	164.35
187.655	86.53
187.875	64
188.095	25.09
188.314	84.48
188.534	37.38
188.753	-75.26
188.973	107.01
189.192	217.6
189.412	16.9
189.631	-50.69
189.851	14.85
190.07	186.88
190.29	-110.08
190.509	-32.26
190.729	-22.02
190.948	147.97
191.168	215.55
191.387	-9.73
191.607	72.19
191.826	64
192.045	-30.21
192.265	12.8
192.484	-9.73
192.704	61.95
192.923	-52.74
193.142	141.82
193.362	96.77
193.581	102.91
193.8	39.42
194.02	119.29
194.239	-11.78
194.458	72.19
194.678	-24.06
194.897	-40.45
195.116	39.42
195.335	41.47
195.555	111.1
195.774	-17.92
195.993	90.62
196.212	-3.58
196.432	-28.16
196.651	4.61
196.87	18.94
197.089	190.97
197.308	-15.87
197.528	8.7
197.747	-167.42
197.966	45.57
198.185	111.1
198.404	-28.16
198.623	123.39
198.842	37.38
199.062	-3.58
199.281	109.05
199.5	47.62
199.719	80.38
199.938	78.33
200.157	107.01
200.376	133.63
200.595	49.66
200.814	33.28
201.033	-40.45
201.252	172.54
201.471	20.99
201.69	41.47
201.909	109.05
202.128	12.8
202.347	55.81
202.566	39.42
202.785	-108.03
203.004	-26.11
203.223	229.88
203.442	-24.06
203.661	-95.74
203.879	72.19
204.098	80.38
204.317	-60.93
204.536	102.91
204.755	4.61
204.974	88.57
205.193	18.94
205.411	119.29
205.63	88.57
205.849	8.7
206.068	41.47
206.287	-52.74
206.505	90.62
206.724	12.8
206.943	53.76
207.162	-62.98
207.381	10.75
207.599	4.61
207.818	86.53
208.037	-28.16
208.255	47.62
208.474	47.62
208.693	61.95
208.911	74.24
209.13	76.29
209.349	51.71
209.567	-15.87
209.786	53.76
210.005	186.88
210.223	35.33
210.442	-163.33
210.661	8.7
210.879	59.9
211.098	23.04
211.316	96.77
211.535	100.86
211.753	45.57
211.972	100.86
212.191	-38.4
212.409	33.28
212.628	33.28
212.846	-13.82
213.065	76.29
213.283	133.63
213.502	100.86
213.72	-7.68
213.938	0.51
214.157	-3.58
214.375	70.14
214.594	61.95
214.812	0.51
215.031	6.66
215.249	-56.83
215.467	12.8
215.686	37.38
215.904	117.25
216.122	55.81
216.341	156.16
216.559	53.76
216.778	121.34
216.996	119.29
217.214	-22.02
217.432	-5.63
217.651	-87.55
217.869	0.51
218.087	92.67
218.306	20.99
218.524	-1.54
218.742	14.85
218.96	76.29
219.179	33.28
219.397	-32.26
219.615	209.4
219.833	39.42
220.051	-1.54
220.27	20.99
220.488	133.63
220.706	12.8
220.924	-17.92
221.142	-17.92
221.36	37.38
221.578	72.19
221.796	31.23
222.015	78.33
222.233	80.38
222.451	150.01
222.669	-30.21
222.887	49.66
223.105	37.38
223.323	-13.82
223.541	-46.59
223.759	37.38
223.977	-48.64
224.195	98.81
224.413	78.33
224.631	14.85
224.849	6.66
225.067	172.54
225.285	10.75
225.503	2.56
225.721	-122.37
225.939	45.57
226.157	45.57
226.375	166.4
226.592	18.94
226.81	31.23
227.028	94.72
227.246	70.14
227.464	35.33
227.682	82.43
227.9	27.14
228.117	35.33
228.335	66.05
228.553	43.52
228.771	35.33
228.989	4.61
229.206	66.05
229.424	23.04
229.642	-22.02
229.86	-1.54
230.077	107.01
230.295	86.53
230.513	94.72
230.731	150.01
230.948	29.18
231.166	123.39
231.384	-101.89
231.601	-17.92
231.819	172.54
232.037	-38.4
232.254	-77.31
232.472	10.75
232.689	-44.54
232.907	164.35
233.125	-36.35
233.342	-11.78
233.56	-44.54
233.777	31.23
233.995	-19.97
234.213	61.95
234.43	123.39
234.648	16.9
234.865	57.86
235.083	70.14
235.3	41.47
235.518	25.09
235.735	70.14
235.953	125.44
236.17	64
236.388	14.85
236.605	29.18
236.822	82.43
237.04	133.63
237.257	18.94
237.475	-50.69
237.692	61.95
237.909	51.71
238.127	-24.06
238.344	76.29
238.562	64
238.779	-69.12
238.996	-126.46
239.214	-19.97
239.431	43.52
239.648	-71.17
239.865	86.53
240.083	98.81
240.3	31.23
240.517	10.75
240.735	-7.68
240.952	135.68
241.169	61.95
241.386	37.38
241.603	-50.69
241.821	-24.06
242.038	117.25
242.255	117.25
242.472	-85.5
242.689	74.24
242.907	111.1
243.124	12.8
243.341	37.38
243.558	-75.26
243.775	-17.92
243.992	-65.02
244.209	86.53
244.426	172.54
244.643	35.33
244.86	8.7
245.078	82.43
245.295	39.42
245.512	-13.82
245.729	-73.21
245.946	59.9
246.163	4.61
246.38	-38.4
246.597	10.75
246.814	29.18
247.031	29.18
247.248	27.14
247.464	51.71
247.681	14.85
247.898	72.19
248.115	70.14
248.332	8.7
248.549	96.77
248.766	166.4
248.983	61.95
249.2	-5.63
249.417	61.95
249.633	-11.78
249.85	72.19
250.067	64
250.284	35.33
250.501	64
250.717	68.09
250.934	-89.6
251.151	57.86
251.368	-24.06
251.585	-34.3
251.801	0.51
252.018	-62.98
252.235	55.81
252.451	-17.92
252.668	-15.87
252.885	33.28
253.102	64
253.318	-7.68
253.535	-62.98
253.752	20.99
253.968	-28.16
254.185	-48.64
254.401	66.05
254.618	4.61
254.835	-71.17
255.051	123.39
255.268	68.09
255.484	27.14
255.701	0.51
255.917	20.99
256.134	-77.31
256.351	-15.87
256.567	23.04
256.784	-48.64
257	-114.17
257.217	55.81
257.433	127.49
257.65	-24.06
257.866	111.1
258.082	-77.31
258.299	-40.45
258.515	94.72
258.732	23.04
258.948	31.23
259.165	-9.73
259.381	-48.64
259.597	33.28
259.814	49.66
260.03	-65.02
260.246	-58.88
260.463	90.62
260.679	139.77
260.895	-19.97
261.112	12.8
261.328	94.72
261.544	-52.74
261.761	94.72
261.977	-81.41
262.193	-19.97
262.409	72.19
262.626	-5.63
262.842	10.75
263.058	-58.88
263.274	84.48
263.49	100.86
263.707	-7.68
263.923	96.77
264.139	-60.93
264.355	96.77
264.571	27.14
264.787	68.09
265.004	86.53
265.22	53.76
265.436	-28.16
265.652	-7.68
265.868	78.33
266.084	14.85
266.3	-28.16
266.516	35.33
266.732	55.81
266.948	64
267.164	27.14
267.38	64
267.596	-42.5
267.812	102.91
268.028	55.81
268.244	25.09
268.46	-3.58
268.676	-73.21
268.892	18.94
269.108	-58.88
269.324	-42.5
269.54	-28.16
269.756	0.51
269.972	-50.69
270.188	-7.68
270.403	-19.97
270.619	-7.68
270.835	100.86
271.051	14.85
271.267	-46.59
271.483	53.76
271.698	-40.45
271.914	10.75
272.13	66.05
272.346	-65.02
272.562	20.99
272.777	94.72
272.993	6.66
273.209	-38.4
273.425	25.09
273.64	-30.21
273.856	119.29
274.072	-120.32
274.287	-69.12
274.503	43.52
274.719	68.09
274.934	-46.59
275.15	-155.13
275.366	45.57
275.581	-44.54
275.797	109.05
276.012	18.94
276.228	-24.06
276.444	-5.63
276.659	127.49
276.875	35.33
277.09	23.04
277.306	-28.16
277.521	80.38
277.737	59.9
277.952	31.23
278.168	-13.82
278.383	-19.97
278.599	2.56
278.814	92.67
279.03	51.71
279.245	121.34
279.461	-3.58
279.676	123.39
279.892	-105.98
280.107	-40.45
280.322	-26.11
280.538	6.66
280.753	4.61
280.969	66.05
281.184	12.8
281.399	178.69
281.615	31.23
281.83	31.23
282.045	-81.41
282.26	-65.02
282.476	4.61
282.691	61.95
282.906	43.52
283.122	-32.26
283.337	8.7
283.552	55.81
283.767	-13.82
283.983	78.33
284.198	78.33
284.413	94.72
284.628	-122.37
284.843	-15.87
285.058	39.42
285.274	-22.02
285.489	16.9
285.704	84.48
285.919	-17.92
286.134	-28.16
286.349	72.19
286.564	20.99
286.779	80.38
286.995	-24.06
287.21	-89.6
287.425	102.91
287.64	-52.74
287.855	-5.63
288.07	-122.37
288.285	111.1
288.5	66.05
288.715	10.75
288.93	-77.31
289.145	-30.21
289.36	88.57
289.575	-17.92
289.79	66.05
290.004	74.24
290.219	82.43
290.434	-1.54
290.649	-46.59
290.864	18.94
291.079	-9.73
291.294	37.38
291.509	-7.68
291.724	23.04
291.938	31.23
292.153	-28.16
292.368	16.9
292.583	88.57
292.798	27.14
293.012	43.52
293.227	12.8
293.442	-71.17
293.657	49.66
293.871	86.53
294.086	43.52
294.301	205.31
294.516	49.66
294.73	33.28
294.945	-77.31
295.16	12.8
295.374	74.24
295.589	74.24
295.804	-85.5
296.018	-5.63
296.233	137.73
296.447	33.28
296.662	29.18
296.877	109.05
297.091	45.57
297.306	4.61
297.52	8.7
297.735	-17.92
297.949	68.09
298.164	31.23
298.378	14.85
298.593	4.61
298.807	-40.45
299.022	-15.87
299.236	152.06
299.451	0.51
299.665	14.85
299.88	37.38
300.094	57.86
300.309	-114.17
300.523	57.86
300.737	-24.06
300.952	55.81
301.166	35.33
301.381	8.7
301.595	-62.98
301.809	8.7
302.024	-42.5
302.238	-15.87
302.452	70.14
302.667	-7.68
302.881	96.77
303.095	135.68
303.309	117.25
303.524	-67.07
303.738	-26.11
303.952	-32.26
304.166	107.01
304.381	-105.98
304.595	150.01
304.809	35.33
305.023	-9.73
305.237	20.99
305.452	-22.02
305.666	117.25
305.88	39.42
306.094	98.81
306.308	72.19
306.522	133.63
306.736	20.99
306.95	49.66
307.164	53.76
307.379	51.71
307.593	84.48
307.807	125.44
308.021	125.44
308.235	33.28
308.449	-65.02
308.663	12.8
308.877	248.32
309.091	90.62
309.305	70.14
309.519	-79.36
309.733	158.21
309.947	-52.74
310.161	127.49
310.374	8.7
310.588	18.94
310.802	-42.5
311.016	-9.73
311.23	2.56
311.444	-40.45
311.658	90.62
311.872	84.48
312.085	94.72
312.299	96.77
312.513	107.01
312.727	131.58
312.941	-71.17
313.154	64
313.368	70.14
313.582	-17.92
313.796	31.23
314.009	66.05
314.223	90.62
314.437	61.95
314.651	57.86
314.864	6.66
315.078	33.28
315.292	2.56
315.505	64
315.719	41.47
315.933	-11.78
316.146	-77.31
316.36	-26.11
316.573	184.83
316.787	102.91
317.001	59.9
317.214	-42.5
317.428	78.33
317.641	-103.93
317.855	-11.78
318.068	-22.02
318.282	20.99
318.495	147.97
318.709	2.56
318.922	-19.97
319.136	139.77
319.349	88.57
319.563	-24.06
319.776	88.57
319.99	-136.7
320.203	45.57
320.417	6.66
320.63	104.96
320.843	133.63
321.057	-22.02
321.27	-62.98
321.483	113.15
321.697	104.96
321.91	96.77
322.124	61.95
322.337	47.62
322.55	-112.13
322.763	29.18
322.977	-22.02
323.19	31.23
323.403	70.14
323.617	66.05
323.83	111.1
324.043	-44.54
324.256	98.81
324.469	-99.84
324.683	64
324.896	-28.16
325.109	74.24
325.322	-132.61
325.535	102.91
325.748	94.72
325.962	2.56
326.175	-1.54
326.388	29.18
326.601	61.95
326.814	35.33
327.027	88.57
327.24	74.24
327.453	-48.64
327.666	82.43
327.879	113.15
328.092	84.48
328.305	-28.16
328.518	-58.88
328.731	-13.82
328.944	-9.73
329.157	27.14
329.37	-48.64
329.583	158.21
329.796	111.1
330.009	-99.84
330.222	96.77
330.435	123.39
330.648	31.23
330.861	-26.11
331.073	-1.54
331.286	29.18
331.499	-11.78
331.712	-9.73
331.925	39.42
332.138	47.62
332.35	158.21
332.563	-17.92
332.776	152.06
332.989	-79.36
333.202	61.95
333.414	-58.88
333.627	2.56
333.84	6.66
334.053	4.61
334.265	-48.64
334.478	-46.59
334.691	27.14
334.903	43.52
335.116	-15.87
335.329	-17.92
335.541	39.42
335.754	127.49
335.966	-22.02
336.179	-15.87
336.392	-9.73
336.604	-32.26
336.817	25.09
337.029	10.75
337.242	-22.02
337.454	76.29
337.667	20.99
337.88	117.25
338.092	64
338.305	0.51
338.517	2.56
338.729	88.57
338.942	147.97
339.154	-65.02
339.367	-69.12
339.579	49.66
339.792	-19.97
340.004	86.53
340.217	-26.11
340.429	-5.63
340.641	-65.02
340.854	25.09
341.066	18.94
341.278	72.19
341.491	123.39
341.703	-24.06
341.915	-22.02
342.128	8.7
342.34	76.29
342.552	12.8
342.764	66.05
342.977	-9.73
343.189	41.47
343.401	33.28
343.613	-60.93
343.826	61.95
344.038	-85.5
344.25	57.86
344.462	-13.82
344.674	-3.58
344.886	53.76
345.099	76.29
345.311	76.29
345.523	8.7
345.735	-89.6
345.947	33.28
346.159	49.66
346.371	66.05
346.583	-40.45
346.795	174.59
347.007	-5.63
347.219	53.76
347.431	-1.54
347.643	104.96
347.855	66.05
348.067	84.48
348.279	-56.83
348.491	-9.73
348.703	68.09
348.915	70.14
349.127	-24.06
349.339	107.01
349.551	-5.63
349.763	129.53
349.975	61.95
350.187	90.62
350.399	102.91
350.61	70.14
350.822	-9.73
351.034	0.51
351.246	109.05
351.458	53.76
351.669	70.14
351.881	29.18
352.093	129.53
352.305	76.29
352.517	39.42
352.728	166.4
352.94	27.14
353.152	6.66
353.363	-38.4
353.575	29.18
353.787	98.81
353.999	143.87
354.21	158.21
354.422	-52.74
354.633	-73.21
354.845	27.14
355.057	35.33
355.268	33.28
355.48	96.77
355.692	-38.4
355.903	2.56
356.115	-32.26
356.326	-122.37
356.538	150.01
356.749	94.72
356.961	145.92
357.172	33.28
357.384	-54.78
357.595	168.45
357.807	-62.98
358.018	6.66
358.23	76.29
358.441	70.14
358.653	66.05
358.864	31.23
359.075	-65.02
359.287	41.47
359.498	68.09
359.709	147.97
359.921	51.71
360.132	39.42
360.344	-32.26
360.555	-19.97
360.766	45.57
360.977	-19.97
361.189	29.18
361.4	43.52
361.611	107.01
361.823	121.34
362.034	25.09
362.245	-26.11
362.456	23.04
362.667	88.57
362.879	-11.78
363.09	-58.88
363.301	37.38
363.512	37.38
363.723	-44.54
363.935	-58.88
364.146	18.94
364.357	23.04
364.568	39.42
364.779	-62.98
364.99	127.49
365.201	-165.37
365.412	92.67
365.623	-69.12
365.834	25.09
366.045	-7.68
366.256	6.66
366.467	51.71
366.678	-34.3
366.889	39.42
367.1	-52.74
367.311	72.19
367.522	4.61
367.733	35.33
367.944	98.81
368.155	61.95
368.366	61.95
368.577	111.1
368.788	117.25
368.999	-75.26
369.209	107.01
369.42	168.45
369.631	162.3
369.842	64
370.053	-1.54
370.264	39.42
370.474	-7.68
370.685	86.53
370.896	-9.73
371.107	37.38
371.317	37.38
371.528	4.61
371.739	88.57
371.95	51.71
372.16	156.16
372.371	-32.26
372.582	25.09
372.792	59.9
373.003	51.71
373.214	78.33
373.424	61.95
373.635	-15.87
373.846	109.05
374.056	-32.26
374.267	16.9
374.477	64
374.688	-97.79
374.898	37.38
375.109	51.71
375.319	-15.87
375.53	139.77
375.74	98.81
375.951	41.47
376.161	53.76
376.372	147.97
376.582	-7.68
376.793	-22.02
377.003	-13.82
377.214	-11.78
377.424	57.86
377.635	10.75
377.845	-24.06
378.055	119.29
378.266	-30.21
378.476	43.52
378.686	20.99
378.897	27.14
379.107	72.19
379.317	64
379.528	-89.6
379.738	135.68
379.948	-128.51
380.158	72.19
380.369	61.95
380.579	84.48
380.789	-26.11
380.999	12.8
381.21	53.76
381.42	150.01
381.63	-40.45
381.84	35.33
382.05	16.9
382.261	137.73
382.471	53.76
382.681	-83.45
382.891	186.88
383.101	-36.35
383.311	-58.88
383.521	-24.06
383.731	25.09
383.941	53.76
384.151	90.62
384.361	-19.97
384.571	18.94
384.781	23.04
384.991	115.2
385.201	117.25
385.411	14.85
385.621	66.05
385.831	14.85
386.041	-46.59
386.251	102.91
386.461	90.62
386.671	64
386.881	111.1
387.091	31.23
387.301	47.62
387.511	-7.68
387.72	53.76
387.93	74.24
388.14	-54.78
388.35	57.86
388.56	78.33
388.769	64
388.979	86.53
389.189	14.85
389.399	41.47
389.609	-36.35
389.818	133.63
390.028	14.85
390.238	59.9
390.447	2.56
390.657	125.44
390.867	88.57
391.076	-11.78
391.286	49.66
391.496	31.23
391.705	80.38
391.915	90.62
392.125	90.62
392.334	25.09
392.544	117.25
392.753	27.14
392.963	-56.83
393.172	33.28
393.382	20.99
393.591	154.11
393.801	20.99
394.01	197.12
394.22	78.33
394.429	-83.45
394.639	-13.82
394.848	90.62
395.058	70.14
395.267	18.94
395.477	53.76
395.686	59.9
395.895	223.74
396.105	211.45
396.314	61.95
396.524	-42.5
396.733	12.8
396.942	33.28
397.152	88.57
397.361	129.53
397.57	-19.97
397.78	-32.26
397.989	35.33
398.198	154.11
398.407	-9.73
398.617	-24.06
398.826	29.18
399.035	61.95
399.244	160.25
399.453	25.09
399.663	57.86
399.872	31.23
400.081	-99.84
400.29	125.44
400.499	-7.68
400.708	143.87
400.917	-40.45
401.127	70.14
401.336	39.42
401.545	127.49
401.754	104.96
401.963	88.57
402.172	25.09
402.381	-40.45
402.59	29.18
402.799	25.09
403.008	145.92
403.217	-19.97
403.426	109.05
403.635	-91.65
403.844	39.42
404.053	-79.36
404.262	20.99
404.471	203.26
404.68	20.99
404.888	-24.06
405.097	20.99
405.306	113.15
405.515	-9.73
405.724	39.42
405.933	104.96
406.142	39.42
406.35	59.9
406.559	-34.3
406.768	41.47
406.977	104.96
407.185	-9.73
407.394	111.1
407.603	-9.73
407.812	20.99
408.02	135.68
408.229	47.62
408.438	64
408.646	-34.3
408.855	-7.68
409.064	80.38
409.272	-1.54
409.481	37.38
409.69	-46.59
409.898	-89.6
410.107	-36.35
410.315	98.81
410.524	-22.02
410.733	14.85
410.941	27.14
411.15	51.71
411.358	-13.82
411.567	150.01
411.775	27.14
411.984	72.19
412.192	39.42
412.401	-1.54
412.609	127.49
412.818	37.38
413.026	72.19
413.234	51.71
413.443	70.14
413.651	-22.02
413.86	39.42
414.068	102.91
414.276	141.82
414.485	-42.5
414.693	102.91
414.901	211.45
415.11	27.14
415.318	33.28
415.526	-44.54
415.734	78.33
415.943	4.61
416.151	109.05
416.359	49.66
416.567	20.99
416.776	72.19
416.984	47.62
417.192	227.84
417.4	47.62
417.608	-40.45
417.817	-22.02
418.025	55.81
418.233	170.49
418.441	-85.5
418.649	-22.02
418.857	6.66
419.065	88.57
419.273	39.42
419.481	39.42
419.689	-15.87
419.897	8.7
420.105	-56.83
420.313	143.87
420.521	139.77
420.729	111.1
420.937	-112.13
421.145	-54.78
421.353	178.69
421.561	152.06
421.769	68.09
421.977	-46.59
422.185	53.76
422.393	96.77
422.601	100.86
422.809	125.44
423.017	10.75
423.224	20.99
423.432	-62.98
423.64	18.94
423.848	162.3
424.056	27.14
424.263	162.3
424.471	-19.97
424.679	68.09
424.887	0.51
425.094	82.43
425.302	45.57
425.51	33.28
425.718	4.61
425.925	59.9
426.133	-13.82
426.341	172.54
426.548	64
426.756	-26.11
426.964	70.14
427.171	-56.83
427.379	37.38
427.586	-30.21
427.794	147.97
428.001	86.53
428.209	111.1
428.417	123.39
428.624	117.25
428.832	76.29
429.039	74.24
429.247	61.95
429.454	64
429.662	213.5
429.869	111.1
430.076	55.81
430.284	107.01
430.491	111.1
430.699	158.21
430.906	145.92
431.114	143.87
431.321	66.05
431.528	78.33
431.736	143.87
431.943	66.05
432.15	190.97
432.358	186.88
432.565	231.93
432.772	-19.97
432.979	147.97
433.187	68.09
433.394	223.74
433.601	-1.54
433.808	127.49
434.016	291.32
434.223	256.51
434.43	141.82
434.637	219.64
434.844	211.45
435.052	164.35
435.259	205.31
435.466	195.07
435.673	195.07
435.88	303.61
436.087	305.66
436.294	246.27
436.501	195.07
436.708	180.73
436.915	272.89
437.122	305.66
437.329	190.97
437.537	186.88
437.743	215.55
437.95	385.53
438.157	197.12
438.364	250.36
438.571	342.52
438.778	227.84
438.985	264.7
439.192	426.49
439.399	266.75
439.606	313.85
439.813	530.94
440.02	446.97
440.227	522.74
440.433	403.96
440.64	461.3
440.847	377.34
441.054	412.15
441.261	666.1
441.467	479.74
441.674	492.02
441.881	582.14
442.088	475.64
442.294	489.98
442.501	594.42
442.708	598.52
442.914	567.8
443.121	629.24
443.328	700.92
443.534	768.5
443.741	659.96
443.948	645.62
444.154	868.85
444.361	809.46
444.568	860.66
444.774	864.75
444.981	725.49
445.187	885.23
445.394	889.33
445.6	854.51
445.807	967.15
446.013	965.11
446.22	1014.26
446.426	1044.98
446.633	1186.29
446.839	1276.4
447.046	1110.51
447.252	1245.68
447.459	1294.83
447.665	1296.88
447.871	1427.95
448.078	1585.64
448.284	1532.39
448.491	1567.21
448.697	1710.57
448.903	1794.53
449.11	1671.65
449.316	1739.24
449.522	1815.01
449.728	1905.12
449.935	1905.12
450.141	1919.46
450.347	2093.54
450.553	2122.21
450.76	2122.21
450.966	2226.65
451.172	2347.48
451.378	2302.43
451.584	2550.23
451.791	2656.73
451.997	2740.69
452.203	2724.31
452.409	2855.38
452.615	3129.81
452.821	3011.03
453.027	2978.26
453.233	3381.71
453.44	3219.92
453.646	3432.91
453.852	3613.13
454.058	3707.34
454.264	3895.75
454.47	4143.55
454.676	4327.87
454.882	4528.57
455.088	4295.1
455.294	4587.96
455.5	4807.09
455.705	5110.19
455.911	5122.48
456.117	5120.43
456.323	5439.92
456.529	5472.68
456.735	5847.46
456.941	6013.35
457.147	6322.59
457.352	6355.36
457.558	6506.91
457.764	7031.19
457.97	7377.3
458.176	7616.91
458.381	7639.44
458.587	7934.34
458.793	8376.7
458.999	8335.74
459.204	9439.6
459.41	9857.39
459.616	9724.27
459.821	10258.79
460.027	10660.19
460.233	11037.02
460.438	11192.66
460.644	11862.35
460.85	12032.33
461.055	12464.45
461.261	12927.29
461.466	12587.33
461.672	12835.13
461.878	14410.02
462.083	14266.66
462.289	14670.11
462.494	15094.04
462.7	15343.89
462.905	15544.59
463.111	16656.64
463.316	17631.47
463.522	17606.9
463.727	18555.11
463.932	18946.27
464.138	19740.88
464.343	20476.1
464.549	20631.75
464.754	22511.78
464.959	22851.75
465.165	22984.87
465.37	22753.44
465.575	22534.31
465.781	24365.2
465.986	25387.13
466.191	24662.15
466.397	24819.85
466.602	24418.44
466.807	26085.49
467.012	26484.84
467.218	26646.63
467.423	26650.73
467.628	27183.2
467.833	29151.3
468.038	28563.53
468.244	27701.34
468.449	29642.81
468.654	28964.93
468.859	28835.91
469.064	28960.84
