Data from USB4F104151__53__10-25-57-430.txt Node

Date: Wed Feb 26 10:25:57 EST 2025
User: louis
Spectrometer: USB4F10415
Trigger mode: 4
Integration Time (sec): 1.000000E-1
Scans to average: 1
Electric dark correction enabled: true
Nonlinearity correction enabled: false
Boxcar width: 0
XAxis mode: Wavelengths
Number of Pixels in Spectrum: 3648
>>>>>Begin Spectral Data<<<<<
178.204	-441.34
178.424	-441.34
178.644	-441.34
178.864	-451.58
179.084	-406.52
179.304	44.03
179.524	50.18
179.744	5.12
179.964	37.89
180.184	1.02
180.404	11.26
180.624	-39.94
180.844	-68.61
181.064	-37.89
181.283	-11.26
181.503	-23.55
181.723	31.74
181.943	-70.65
182.163	189.44
182.383	48.13
182.602	74.75
182.822	107.52
183.042	91.13
183.262	62.46
183.482	44.03
183.701	72.7
183.921	46.08
184.141	-68.61
184.361	87.04
184.58	156.67
184.8	107.52
185.02	37.89
185.239	76.8
185.459	11.26
185.679	111.61
185.898	-21.5
186.118	91.13
186.338	64.51
186.557	84.99
186.777	-117.76
186.997	37.89
187.216	37.89
187.436	283.64
187.655	54.27
187.875	125.95
188.095	41.98
188.314	117.76
188.534	175.1
188.753	-15.36
188.973	70.65
189.192	205.82
189.412	9.22
189.631	48.13
189.851	136.19
190.07	179.2
190.29	-84.99
190.509	-44.03
190.729	21.5
190.948	218.11
191.168	263.16
191.387	58.37
191.607	21.5
191.826	44.03
192.045	119.81
192.265	-19.46
192.484	41.98
192.704	21.5
192.923	-3.07
193.142	173.05
193.362	82.94
193.581	146.43
193.8	9.22
194.02	171.01
194.239	97.28
194.458	66.56
194.678	41.98
194.897	44.03
195.116	29.7
195.335	33.79
195.555	66.56
195.774	7.17
195.993	95.23
196.212	35.84
196.432	62.46
196.651	5.12
196.87	9.22
197.089	281.6
197.308	99.33
197.528	62.46
197.747	-15.36
197.966	70.65
198.185	185.34
198.404	46.08
198.623	177.15
198.842	111.61
199.062	150.53
199.281	101.37
199.5	97.28
199.719	99.33
199.938	76.8
200.157	132.09
200.376	187.39
200.595	91.13
200.814	21.5
201.033	-56.32
201.252	228.35
201.471	82.94
201.69	144.38
201.909	48.13
202.128	160.77
202.347	21.5
202.566	66.56
202.785	-21.5
203.004	-17.41
203.223	297.98
203.442	39.94
203.661	9.22
203.879	60.42
204.098	48.13
204.317	-17.41
204.536	87.04
204.755	119.81
204.974	156.67
205.193	-70.65
205.411	181.25
205.63	99.33
205.849	119.81
206.068	87.04
206.287	-5.12
206.505	140.29
206.724	44.03
206.943	-58.37
207.162	-58.37
207.381	68.61
207.599	37.89
207.818	-1.02
208.037	-25.6
208.255	33.79
208.474	89.09
208.693	80.89
208.911	17.41
209.13	99.33
209.349	87.04
209.567	87.04
209.786	109.57
210.005	93.18
210.223	44.03
210.442	-82.94
210.661	-7.17
210.879	119.81
211.098	-3.07
211.316	58.37
211.535	87.04
211.753	105.47
211.972	41.98
212.191	52.22
212.409	39.94
212.628	134.14
212.846	-41.98
213.065	91.13
213.283	148.48
213.502	115.71
213.72	54.27
213.938	33.79
214.157	-37.89
214.375	103.42
214.594	33.79
214.812	140.29
215.031	89.09
215.249	15.36
215.467	84.99
215.686	58.37
215.904	46.08
216.122	3.07
216.341	117.76
216.559	89.09
216.778	117.76
216.996	115.71
217.214	25.6
217.432	-27.65
217.651	-23.55
217.869	58.37
218.087	15.36
218.306	-3.07
218.524	17.41
218.742	-27.65
218.96	89.09
219.179	15.36
219.397	46.08
219.615	316.41
219.833	60.42
220.051	17.41
220.27	50.18
220.488	125.95
220.706	142.33
220.924	-31.74
221.142	-46.08
221.36	35.84
221.578	56.32
221.796	5.12
222.015	11.26
222.233	17.41
222.451	183.29
222.669	-70.65
222.887	136.19
223.105	74.75
223.323	68.61
223.541	17.41
223.759	103.42
223.977	58.37
224.195	107.52
224.413	99.33
224.631	7.17
224.849	115.71
225.067	230.4
225.285	5.12
225.503	-9.22
225.721	-54.27
225.939	111.61
226.157	68.61
226.375	207.87
226.592	9.22
226.81	54.27
227.028	87.04
227.246	121.85
227.464	80.89
227.682	162.81
227.9	68.61
228.117	19.46
228.335	87.04
228.553	3.07
228.771	-23.55
228.989	80.89
229.206	125.95
229.424	23.55
229.642	-5.12
229.86	-19.46
230.077	107.52
230.295	76.8
230.513	121.85
230.731	74.75
230.948	101.37
231.166	248.83
231.384	50.18
231.601	60.42
231.819	189.44
232.037	19.46
232.254	-44.03
232.472	-3.07
232.689	54.27
232.907	113.66
233.125	-74.75
233.342	-37.89
233.56	111.61
233.777	-11.26
233.995	58.37
234.213	84.99
234.43	48.13
234.648	60.42
234.865	3.07
235.083	103.42
235.3	87.04
235.518	152.57
235.735	128
235.953	84.99
236.17	5.12
236.388	78.85
236.605	48.13
236.822	162.81
237.04	103.42
237.257	-3.07
237.475	-58.37
237.692	58.37
237.909	115.71
238.127	-50.18
238.344	87.04
238.562	64.51
238.779	-37.89
238.996	-9.22
239.214	107.52
239.431	60.42
239.648	-35.84
239.865	25.6
240.083	128
240.3	54.27
240.517	39.94
240.735	44.03
240.952	140.29
241.169	50.18
241.386	113.66
241.603	44.03
241.821	-3.07
242.038	70.65
242.255	130.05
242.472	3.07
242.689	125.95
242.907	41.98
243.124	44.03
243.341	41.98
243.558	33.79
243.775	-35.84
243.992	-41.98
244.209	109.57
244.426	134.14
244.643	50.18
244.86	29.7
245.078	103.42
245.295	119.81
245.512	35.84
245.729	35.84
245.946	78.85
246.163	44.03
246.38	19.46
246.597	142.33
246.814	46.08
247.031	37.89
247.248	29.7
247.464	107.52
247.681	62.46
247.898	128
248.115	91.13
248.332	-17.41
248.549	138.24
248.766	132.09
248.983	107.52
249.2	46.08
249.417	138.24
249.633	15.36
249.85	89.09
250.067	87.04
250.284	54.27
250.501	58.37
250.717	62.46
250.934	-31.74
251.151	80.89
251.368	-17.41
251.585	13.31
251.801	58.37
252.018	-82.94
252.235	46.08
252.451	-13.31
252.668	-33.79
252.885	80.89
253.102	140.29
253.318	62.46
253.535	-31.74
253.752	9.22
253.968	21.5
254.185	-13.31
254.401	91.13
254.618	46.08
254.835	11.26
255.051	76.8
255.268	76.8
255.484	50.18
255.701	31.74
255.917	97.28
256.134	-7.17
256.351	9.22
256.567	-56.32
256.784	93.18
257	9.22
257.217	113.66
257.433	107.52
257.65	54.27
257.866	160.77
258.082	-46.08
258.299	31.74
258.515	87.04
258.732	31.74
258.948	13.31
259.165	64.51
259.381	-52.22
259.597	44.03
259.814	33.79
260.03	46.08
260.246	13.31
260.463	234.49
260.679	130.05
260.895	68.61
261.112	44.03
261.328	41.98
261.544	-7.17
261.761	228.35
261.977	-11.26
262.193	-82.94
262.409	46.08
262.626	140.29
262.842	84.99
263.058	-70.65
263.274	105.47
263.49	-35.84
263.707	166.91
263.923	140.29
264.139	5.12
264.355	62.46
264.571	74.75
264.787	95.23
265.004	48.13
265.22	-19.46
265.436	-31.74
265.652	-7.17
265.868	72.7
266.084	-50.18
266.3	56.32
266.516	-19.46
266.732	29.7
266.948	3.07
267.164	-1.02
267.38	140.29
267.596	119.81
267.812	123.9
268.028	-7.17
268.244	78.85
268.46	54.27
268.676	-3.07
268.892	64.51
269.108	23.55
269.324	-17.41
269.54	-7.17
269.756	154.62
269.972	-68.61
270.188	41.98
270.403	-5.12
270.619	19.46
270.835	99.33
271.051	62.46
271.267	33.79
271.483	60.42
271.698	146.43
271.914	103.42
272.13	35.84
272.346	-11.26
272.562	62.46
272.777	25.6
272.993	-5.12
273.209	29.7
273.425	52.22
273.64	-76.8
273.856	60.42
274.072	-87.04
274.287	-3.07
274.503	70.65
274.719	78.85
274.934	13.31
275.15	-56.32
275.366	101.37
275.581	5.12
275.797	68.61
276.012	39.94
276.228	-5.12
276.444	62.46
276.659	160.77
276.875	97.28
277.09	-33.79
277.306	-9.22
277.521	111.61
277.737	82.94
277.952	95.23
278.168	31.74
278.383	97.28
278.599	111.61
278.814	128
279.03	37.89
279.245	193.53
279.461	58.37
279.676	95.23
279.892	-7.17
280.107	-33.79
280.322	-64.51
280.538	142.33
280.753	-9.22
280.969	62.46
281.184	15.36
281.399	142.33
281.615	76.8
281.83	25.6
282.045	-72.7
282.26	-29.7
282.476	115.71
282.691	89.09
282.906	33.79
283.122	46.08
283.337	76.8
283.552	89.09
283.767	-35.84
283.983	111.61
284.198	3.07
284.413	50.18
284.628	-101.37
284.843	130.05
285.058	72.7
285.274	33.79
285.489	-15.36
285.704	44.03
285.919	-1.02
286.134	101.37
286.349	17.41
286.564	29.7
286.779	128
286.995	-21.5
287.21	-31.74
287.425	113.66
287.64	25.6
287.855	56.32
288.07	-41.98
288.285	107.52
288.5	78.85
288.715	103.42
288.93	-1.02
289.145	29.7
289.36	44.03
289.575	-5.12
289.79	78.85
290.004	72.7
290.219	91.13
290.434	-7.17
290.649	-11.26
290.864	-7.17
291.079	-19.46
291.294	56.32
291.509	46.08
291.724	11.26
291.938	17.41
292.153	46.08
292.368	19.46
292.583	13.31
292.798	111.61
293.012	60.42
293.227	44.03
293.442	1.02
293.657	136.19
293.871	164.86
294.086	93.18
294.301	160.77
294.516	146.43
294.73	84.99
294.945	-31.74
295.16	50.18
295.374	66.56
295.589	87.04
295.804	-33.79
296.018	50.18
296.233	138.24
296.447	35.84
296.662	-9.22
296.877	109.57
297.091	31.74
297.306	56.32
297.52	9.22
297.735	15.36
297.949	1.02
298.164	31.74
298.378	99.33
298.593	-72.7
298.807	15.36
299.022	68.61
299.236	191.49
299.451	33.79
299.665	68.61
299.88	37.89
300.094	115.71
300.309	23.55
300.523	74.75
300.737	-103.42
300.952	31.74
301.166	1.02
301.381	-39.94
301.595	7.17
301.809	48.13
302.024	17.41
302.238	-29.7
302.452	111.61
302.667	70.65
302.881	209.92
303.095	70.65
303.309	11.26
303.524	-7.17
303.738	72.7
303.952	3.07
304.166	130.05
304.381	-115.71
304.595	101.37
304.809	11.26
305.023	-31.74
305.237	-58.37
305.452	39.94
305.666	70.65
305.88	166.91
306.094	87.04
306.308	87.04
306.522	87.04
306.736	58.37
306.95	91.13
307.164	27.65
307.379	21.5
307.593	150.53
307.807	66.56
308.021	78.85
308.235	7.17
308.449	-41.98
308.663	-15.36
308.877	177.15
309.091	21.5
309.305	64.51
309.519	-95.23
309.733	148.48
309.947	23.55
310.161	27.65
310.374	130.05
310.588	113.66
310.802	82.94
311.016	-11.26
311.23	46.08
311.444	17.41
311.658	-17.41
311.872	74.75
312.085	111.61
312.299	142.33
312.513	148.48
312.727	58.37
312.941	-21.5
313.154	60.42
313.368	-1.02
313.582	1.02
313.796	140.29
314.009	13.31
314.223	130.05
314.437	3.07
314.651	23.55
314.864	50.18
315.078	-48.13
315.292	-70.65
315.505	37.89
315.719	66.56
315.933	72.7
316.146	84.99
316.36	1.02
316.573	146.43
316.787	113.66
317.001	82.94
317.214	27.65
317.428	44.03
317.641	-17.41
317.855	1.02
318.068	35.84
318.282	97.28
318.495	168.96
318.709	84.99
318.922	-50.18
319.136	146.43
319.349	91.13
319.563	7.17
319.776	-5.12
319.99	-33.79
320.203	119.81
320.417	74.75
320.63	121.85
320.843	199.68
321.057	7.17
321.27	37.89
321.483	29.7
321.697	146.43
321.91	74.75
322.124	37.89
322.337	72.7
322.55	19.46
322.763	76.8
322.977	-11.26
323.19	-7.17
323.403	35.84
323.617	130.05
323.83	78.85
324.043	13.31
324.256	46.08
324.469	-33.79
324.683	80.89
324.896	33.79
325.109	23.55
325.322	-64.51
325.535	91.13
325.748	95.23
325.962	70.65
326.175	58.37
326.388	27.65
326.601	193.53
326.814	25.6
327.027	48.13
327.24	193.53
327.453	-46.08
327.666	109.57
327.879	211.96
328.092	187.39
328.305	97.28
328.518	41.98
328.731	23.55
328.944	19.46
329.157	82.94
329.37	-25.6
329.583	134.14
329.796	207.87
330.009	-31.74
330.222	113.66
330.435	97.28
330.648	68.61
330.861	74.75
331.073	78.85
331.286	136.19
331.499	21.5
331.712	60.42
331.925	21.5
332.138	-11.26
332.35	154.62
332.563	11.26
332.776	150.53
332.989	-64.51
333.202	150.53
333.414	95.23
333.627	21.5
333.84	15.36
334.053	58.37
334.265	29.7
334.478	76.8
334.691	50.18
334.903	128
335.116	-68.61
335.329	35.84
335.541	117.76
335.754	152.57
335.966	-7.17
336.179	29.7
336.392	74.75
336.604	21.5
336.817	93.18
337.029	82.94
337.242	121.85
337.454	128
337.667	105.47
337.88	134.14
338.092	54.27
338.305	37.89
338.517	-7.17
338.729	101.37
338.942	132.09
339.154	-62.46
339.367	-15.36
339.579	123.9
339.792	25.6
340.004	111.61
340.217	31.74
340.429	68.61
340.641	-35.84
340.854	-109.57
341.066	25.6
341.278	189.44
341.491	181.25
341.703	37.89
341.915	-33.79
342.128	60.42
342.34	46.08
342.552	-27.65
342.764	68.61
342.977	21.5
343.189	111.61
343.401	60.42
343.613	-11.26
343.826	68.61
344.038	1.02
344.25	113.66
344.462	-29.7
344.674	76.8
344.886	15.36
345.099	29.7
345.311	44.03
345.523	-13.31
345.735	-19.46
345.947	99.33
346.159	62.46
346.371	117.76
346.583	27.65
346.795	228.35
347.007	64.51
347.219	74.75
347.431	-25.6
347.643	84.99
347.855	-27.65
348.067	152.57
348.279	-31.74
348.491	46.08
348.703	134.14
348.915	27.65
349.127	9.22
349.339	37.89
349.551	46.08
349.763	150.53
349.975	5.12
350.187	103.42
350.399	101.37
350.61	113.66
350.822	-1.02
351.034	50.18
351.246	70.65
351.458	15.36
351.669	107.52
351.881	-3.07
352.093	117.76
352.305	105.47
352.517	80.89
352.728	99.33
352.94	89.09
353.152	95.23
353.363	-11.26
353.575	113.66
353.787	173.05
353.999	60.42
354.21	154.62
354.422	-64.51
354.633	68.61
354.845	-3.07
355.057	7.17
355.268	-27.65
355.48	25.6
355.692	-91.13
355.903	58.37
356.115	1.02
356.326	-11.26
356.538	119.81
356.749	41.98
356.961	209.92
357.172	95.23
357.384	-27.65
357.595	211.96
357.807	-56.32
358.018	15.36
358.23	70.65
358.441	205.82
358.653	60.42
358.864	23.55
359.075	-54.27
359.287	29.7
359.498	117.76
359.709	97.28
359.921	80.89
360.132	113.66
360.344	5.12
360.555	11.26
360.766	74.75
360.977	29.7
361.189	103.42
361.4	35.84
361.611	140.29
361.823	154.62
362.034	23.55
362.245	-72.7
362.456	109.57
362.667	66.56
362.879	54.27
363.09	99.33
363.301	91.13
363.512	152.57
363.723	-9.22
363.935	60.42
364.146	58.37
364.357	7.17
364.568	15.36
364.779	-72.7
364.99	171.01
365.201	21.5
365.412	136.19
365.623	-76.8
365.834	58.37
366.045	46.08
366.256	121.85
366.467	31.74
366.678	-23.55
366.889	60.42
367.1	-46.08
367.311	74.75
367.522	15.36
367.733	76.8
367.944	41.98
368.155	-1.02
368.366	66.56
368.577	105.47
368.788	35.84
368.999	-25.6
369.209	80.89
369.42	218.11
369.631	162.81
369.842	37.89
370.053	-35.84
370.264	76.8
370.474	-7.17
370.685	84.99
370.896	89.09
371.107	207.87
371.317	-1.02
371.528	9.22
371.739	144.38
371.95	70.65
372.16	74.75
372.371	-11.26
372.582	-3.07
372.792	97.28
373.003	113.66
373.214	171.01
373.424	117.76
373.635	-31.74
373.846	74.75
374.056	15.36
374.267	84.99
374.477	87.04
374.688	-41.98
374.898	64.51
375.109	35.84
375.319	78.85
375.53	128
375.74	56.32
375.951	15.36
376.161	54.27
376.372	103.42
376.582	33.79
376.793	50.18
377.003	31.74
377.214	-9.22
377.424	52.22
377.635	46.08
377.845	7.17
378.055	121.85
378.266	-74.75
378.476	64.51
378.686	89.09
378.897	33.79
379.107	140.29
379.317	11.26
379.528	29.7
379.738	87.04
379.948	39.94
380.158	68.61
380.369	11.26
380.579	103.42
380.789	25.6
380.999	132.09
381.21	152.57
381.42	199.68
381.63	84.99
381.84	93.18
382.05	60.42
382.261	87.04
382.471	89.09
382.681	50.18
382.891	175.1
383.101	84.99
383.311	-19.46
383.521	17.41
383.731	140.29
383.941	89.09
384.151	52.22
384.361	31.74
384.571	111.61
384.781	39.94
384.991	207.87
385.201	166.91
385.411	111.61
385.621	93.18
385.831	41.98
386.041	107.52
386.251	3.07
386.461	142.33
386.671	27.65
386.881	62.46
387.091	29.7
387.301	87.04
387.511	25.6
387.72	136.19
387.93	111.61
388.14	-33.79
388.35	-21.5
388.56	166.91
388.769	64.51
388.979	35.84
389.189	87.04
389.399	37.89
389.609	15.36
389.818	97.28
390.028	93.18
390.238	138.24
390.447	54.27
390.657	27.65
390.867	62.46
391.076	-68.61
391.286	27.65
391.496	78.85
391.705	58.37
391.915	183.29
392.125	80.89
392.334	91.13
392.544	99.33
392.753	-15.36
392.963	17.41
393.172	56.32
393.382	21.5
393.591	148.48
393.801	58.37
394.01	144.38
394.22	91.13
394.429	37.89
394.639	82.94
394.848	111.61
395.058	62.46
395.267	5.12
395.477	113.66
395.686	68.61
395.895	166.91
396.105	209.92
396.314	115.71
396.524	99.33
396.733	74.75
396.942	125.95
397.152	191.49
397.361	132.09
397.57	37.89
397.78	21.5
397.989	54.27
398.198	166.91
398.407	37.89
398.617	41.98
398.826	58.37
399.035	48.13
399.244	78.85
399.453	144.38
399.663	44.03
399.872	37.89
400.081	-19.46
400.29	160.77
400.499	23.55
400.708	150.53
400.917	37.89
401.127	46.08
401.336	15.36
401.545	162.81
401.754	144.38
401.963	146.43
402.172	15.36
402.381	37.89
402.59	-23.55
402.799	103.42
403.008	103.42
403.217	111.61
403.426	134.14
403.635	35.84
403.844	39.94
404.053	46.08
404.262	-39.94
404.471	138.24
404.68	76.8
404.888	80.89
405.097	27.65
405.306	117.76
405.515	35.84
405.724	46.08
405.933	105.47
406.142	101.37
406.35	154.62
406.559	5.12
406.768	105.47
406.977	156.67
407.185	119.81
407.394	52.22
407.603	-76.8
407.812	29.7
408.02	58.37
408.229	76.8
408.438	-13.31
408.646	-19.46
408.855	33.79
409.064	46.08
409.272	3.07
409.481	80.89
409.69	-1.02
409.898	-91.13
410.107	91.13
410.315	132.09
410.524	7.17
410.733	29.7
410.941	117.76
411.15	56.32
411.358	99.33
411.567	76.8
411.775	25.6
411.984	62.46
412.192	107.52
412.401	-44.03
412.609	99.33
412.818	111.61
413.026	64.51
413.234	76.8
413.443	91.13
413.651	3.07
413.86	-13.31
414.068	156.67
414.276	128
414.485	-11.26
414.693	191.49
414.901	295.93
415.11	54.27
415.318	99.33
415.526	60.42
415.734	173.05
415.943	80.89
416.151	138.24
416.359	58.37
416.567	91.13
416.776	76.8
416.984	105.47
417.192	160.77
417.4	60.42
417.608	35.84
417.817	1.02
418.025	99.33
418.233	136.19
418.441	-62.46
418.649	-7.17
418.857	105.47
419.065	181.25
419.273	15.36
419.481	136.19
419.689	-21.5
419.897	64.51
420.105	-44.03
420.313	128
420.521	87.04
420.729	144.38
420.937	15.36
421.145	-46.08
421.353	171.01
421.561	158.72
421.769	130.05
421.977	9.22
422.185	39.94
422.393	39.94
422.601	121.85
422.809	99.33
423.017	97.28
423.224	54.27
423.432	238.59
423.64	66.56
423.848	140.29
424.056	-50.18
424.263	97.28
424.471	52.22
424.679	146.43
424.887	1.02
425.094	132.09
425.302	105.47
425.51	82.94
425.718	136.19
425.925	111.61
426.133	68.61
426.341	222.2
426.548	64.51
426.756	58.37
426.964	84.99
427.171	25.6
427.379	171.01
427.586	89.09
427.794	162.81
428.001	123.9
428.209	56.32
428.417	115.71
428.624	177.15
428.832	62.46
429.039	115.71
429.247	171.01
429.454	111.61
429.662	297.98
429.869	183.29
430.076	41.98
430.284	121.85
430.491	250.88
430.699	117.76
430.906	232.44
431.114	168.96
431.321	185.34
431.528	138.24
431.736	189.44
431.943	181.25
432.15	222.2
432.358	242.68
432.565	355.32
432.772	-7.17
432.979	205.82
433.187	168.96
433.394	175.1
433.601	117.76
433.808	220.16
434.016	281.6
434.223	177.15
434.43	269.31
434.637	271.36
434.844	351.23
435.052	228.35
435.259	254.97
435.466	334.84
435.673	310.27
435.88	297.98
436.087	349.18
436.294	420.86
436.501	332.79
436.708	338.94
436.915	291.84
437.122	394.23
437.329	267.26
437.537	304.12
437.743	412.67
437.95	480.25
438.157	371.71
438.364	394.23
438.571	406.52
438.778	484.34
438.985	447.48
439.192	564.22
439.399	484.34
439.606	457.72
439.813	621.56
440.02	594.93
440.227	740.34
440.433	650.23
440.64	564.22
440.847	547.83
441.054	646.13
441.261	676.85
441.467	656.37
441.674	615.41
441.881	781.3
442.088	672.76
442.294	830.45
442.501	891.89
442.708	754.68
442.914	814.07
443.121	932.85
443.328	934.9
443.534	1065.97
443.741	984.05
443.948	855.03
444.154	1043.44
444.361	1264.62
444.568	1100.78
444.774	1119.21
444.981	949.23
445.187	1414.12
445.394	1301.48
445.6	1145.84
445.807	1504.23
446.013	1430.51
446.22	1326.06
446.426	1393.64
446.633	1661.93
446.839	1819.62
447.046	1518.57
447.252	1696.74
447.459	1688.55
447.665	1743.85
447.871	1938.4
448.078	2130.91
448.284	1991.65
448.491	2040.8
448.697	2274.27
448.903	2315.23
449.11	2317.28
449.316	2323.42
449.522	2497.5
449.728	2614.23
449.935	2849.75
450.141	2659.29
450.347	2917.33
450.553	2878.42
450.76	3009.49
450.966	3126.22
451.172	3199.95
451.378	3296.21
451.584	3521.48
451.791	3797.96
451.997	3802.05
452.203	3679.18
452.409	4064.19
452.615	4152.26
452.821	3974.08
453.027	4041.67
453.233	4760.5
453.44	4561.85
453.646	4856.76
453.852	5018.55
454.058	5174.19
454.264	5368.75
454.47	5761.96
454.676	5604.27
454.882	6175.65
455.088	5979.04
455.294	6464.41
455.5	6693.79
455.705	6962.07
455.911	7093.14
456.117	7289.74
456.323	7324.56
456.529	7426.96
456.735	8160.13
456.941	8295.3
457.147	8582.01
457.352	9044.85
457.558	9036.66
457.764	9749.36
457.97	9874.28
458.176	10242.92
458.381	10759
458.587	11000.66
458.793	11717.45
458.999	11797.32
459.204	12870.46
459.41	13566.77
459.616	13529.91
459.821	14289.7
460.027	14926.62
460.233	15399.7
460.438	15348.5
460.644	16284.42
460.85	16317.19
461.055	17281.78
461.261	17769.2
461.466	17560.31
461.672	18006.77
461.878	20161.23
462.083	19677.91
462.289	20064.97
462.494	21136.06
462.7	21093.05
462.905	21465.78
463.111	23323.29
463.316	24527.5
463.522	25004.67
463.727	25404.03
463.932	26573.42
464.138	27327.07
464.343	28242.51
464.549	28676.68
464.754	30585.39
464.959	31699.48
465.165	32051.73
465.37	31547.93
465.575	32143.89
465.781	33960.44
465.986	34900.46
466.191	34488.82
466.397	34724.33
466.602	34269.69
466.807	36170.2
467.012	36297.17
467.218	37159.37
467.423	37306.82
467.628	38500.79
467.833	40429.98
468.038	39731.62
468.244	39172.52
468.449	40114.59
468.654	39926.17
468.859	40114.59
