Data from USB4F104151__87__11-31-36-560.txt Node

Date: Wed Feb 26 11:31:36 EST 2025
User: louis
Spectrometer: USB4F10415
Trigger mode: 4
Integration Time (sec): 1.000000E-1
Scans to average: 1
Electric dark correction enabled: true
Nonlinearity correction enabled: false
Boxcar width: 0
XAxis mode: Wavelengths
Number of Pixels in Spectrum: 3648
>>>>>Begin Spectral Data<<<<<
178.204	-396.45
178.424	-396.45
178.644	-396.45
178.864	-421.03
179.084	-285.86
179.304	15.19
179.524	11.09
179.744	-25.77
179.964	35.67
180.184	-9.39
180.404	43.86
180.624	-23.72
180.844	7
181.064	-146.6
181.283	50
181.503	0.85
181.723	41.81
181.943	-152.74
182.163	150.36
182.383	-48.3
182.602	58.2
182.822	150.36
183.042	35.67
183.262	7
183.482	-31.91
183.701	13.14
183.921	60.24
184.141	-97.45
184.361	45.91
184.58	21.33
184.8	78.68
185.02	11.09
185.239	17.24
185.459	168.79
185.679	95.06
185.898	-83.11
186.118	54.1
186.338	19.29
186.557	99.16
186.777	-1.19
186.997	2.9
187.216	54.1
187.436	170.83
187.655	35.67
187.875	27.48
188.095	17.24
188.314	127.83
188.534	121.68
188.753	-27.82
188.973	123.73
189.192	148.31
189.412	66.39
189.631	68.44
189.851	-25.77
190.07	162.64
190.29	-52.39
190.509	-62.63
190.729	66.39
190.948	181.07
191.168	232.27
191.387	-15.53
191.607	35.67
191.826	84.82
192.045	-60.59
192.265	62.29
192.484	41.81
192.704	117.59
192.923	-109.74
193.142	209.75
193.362	140.12
193.581	109.4
193.8	39.76
194.02	9.05
194.239	56.15
194.458	45.91
194.678	-19.63
194.897	-109.74
195.116	0.85
195.335	84.82
195.555	66.39
195.774	-38.06
195.993	115.54
196.212	-5.29
196.432	-23.72
196.651	-7.34
196.87	9.05
197.089	207.7
197.308	82.77
197.528	41.81
197.747	-83.11
197.966	-1.19
198.185	136.02
198.404	-11.43
198.623	115.54
198.842	144.21
199.062	187.22
199.281	88.92
199.5	66.39
199.719	-60.59
199.938	95.06
200.157	56.15
200.376	111.44
200.595	111.44
200.814	21.33
201.033	23.38
201.252	121.68
201.471	125.78
201.69	93.01
201.909	88.92
202.128	25.43
202.347	117.59
202.566	56.15
202.785	-70.83
203.004	-87.21
203.223	199.51
203.442	54.1
203.661	-109.74
203.879	43.86
204.098	160.59
204.317	-46.25
204.536	160.59
204.755	62.29
204.974	101.2
205.193	-27.82
205.411	217.94
205.63	111.44
205.849	103.25
206.068	-21.67
206.287	-50.35
206.505	97.11
206.724	-5.29
206.943	-1.19
207.162	-11.43
207.381	95.06
207.599	33.62
207.818	-17.58
208.037	-11.43
208.255	64.34
208.474	76.63
208.693	23.38
208.911	37.72
209.13	136.02
209.349	2.9
209.567	47.96
209.786	25.43
210.005	121.68
210.223	82.77
210.442	-103.59
210.661	29.52
210.879	80.72
211.098	33.62
211.316	66.39
211.535	82.77
211.753	119.64
211.972	111.44
212.191	25.43
212.409	54.1
212.628	64.34
212.846	50
213.065	29.52
213.283	136.02
213.502	13.14
213.72	-29.87
213.938	80.72
214.157	-99.5
214.375	162.64
214.594	-64.68
214.812	76.63
215.031	66.39
215.249	43.86
215.467	131.92
215.686	33.62
215.904	43.86
216.122	-54.44
216.341	105.3
216.559	0.85
216.778	158.55
216.996	29.52
217.214	-56.49
217.432	13.14
217.651	-23.72
217.869	-1.19
218.087	-15.53
218.306	45.91
218.524	68.44
218.742	86.87
218.96	101.2
219.179	37.72
219.397	64.34
219.615	273.23
219.833	45.91
220.051	54.1
220.27	138.07
220.488	121.68
220.706	52.05
220.924	-31.91
221.142	70.48
221.36	-1.19
221.578	52.05
221.796	70.48
222.015	19.29
222.233	11.09
222.451	168.79
222.669	-38.06
222.887	54.1
223.105	11.09
223.323	4.95
223.541	-97.45
223.759	-23.72
223.977	78.68
224.195	129.88
224.413	54.1
224.631	76.63
224.849	-19.63
225.067	179.03
225.285	25.43
225.503	35.67
225.721	-136.36
225.939	19.29
226.157	29.52
226.375	287.57
226.592	-60.59
226.81	-33.96
227.028	101.2
227.246	127.83
227.464	80.72
227.682	56.15
227.9	105.3
228.117	19.29
228.335	25.43
228.553	62.29
228.771	35.67
228.989	125.78
229.206	127.83
229.424	52.05
229.642	-3.24
229.86	-17.58
230.077	99.16
230.295	70.48
230.513	97.11
230.731	127.83
230.948	52.05
231.166	88.92
231.384	-3.24
231.601	-58.54
231.819	203.6
232.037	4.95
232.254	-44.2
232.472	52.05
232.689	2.9
232.907	160.59
233.125	19.29
233.342	27.48
233.56	-27.82
233.777	-25.77
233.995	-7.34
234.213	70.48
234.43	21.33
234.648	54.1
234.865	39.76
235.083	80.72
235.3	88.92
235.518	68.44
235.735	66.39
235.953	121.68
236.17	88.92
236.388	7
236.605	0.85
236.822	74.58
237.04	117.59
237.257	95.06
237.475	23.38
237.692	103.25
237.909	70.48
238.127	-1.19
238.344	29.52
238.562	52.05
238.779	-95.4
238.996	-25.77
239.214	90.96
239.431	17.24
239.648	-5.29
239.865	97.11
240.083	39.76
240.3	-11.43
240.517	60.24
240.735	2.9
240.952	86.87
241.169	84.82
241.386	47.96
241.603	66.39
241.821	-31.91
242.038	115.54
242.255	84.82
242.472	-70.83
242.689	88.92
242.907	13.14
243.124	56.15
243.341	-7.34
243.558	7
243.775	-21.67
243.992	-44.2
244.209	111.44
244.426	256.85
244.643	103.25
244.86	23.38
245.078	105.3
245.295	15.19
245.512	101.2
245.729	-15.53
245.946	15.19
246.163	-1.19
246.38	0.85
246.597	52.05
246.814	80.72
247.031	-13.48
247.248	-3.24
247.464	97.11
247.681	56.15
247.898	62.29
248.115	78.68
248.332	-5.29
248.549	86.87
248.766	111.44
248.983	21.33
249.2	27.48
249.417	2.9
249.633	7
249.85	64.34
250.067	21.33
250.284	68.44
250.501	11.09
250.717	78.68
250.934	-48.3
251.151	54.1
251.368	9.05
251.585	7
251.801	9.05
252.018	-5.29
252.235	113.49
252.451	-60.59
252.668	-38.06
252.885	99.16
253.102	45.91
253.318	35.67
253.535	19.29
253.752	-9.39
253.968	-5.29
254.185	-48.3
254.401	43.86
254.618	60.24
254.835	11.09
255.051	158.55
255.268	93.01
255.484	23.38
255.701	23.38
255.917	21.33
256.134	43.86
256.351	90.96
256.567	-95.4
256.784	2.9
257	-64.68
257.217	37.72
257.433	99.16
257.65	62.29
257.866	103.25
258.082	-70.83
258.299	62.29
258.515	17.24
258.732	-3.24
258.948	37.72
259.165	-9.39
259.381	-50.35
259.597	76.63
259.814	25.43
260.03	136.02
260.246	-13.48
260.463	115.54
260.679	80.72
260.895	9.05
261.112	52.05
261.328	0.85
261.544	25.43
261.761	154.45
261.977	-52.39
262.193	-31.91
262.409	76.63
262.626	115.54
262.842	35.67
263.058	-70.83
263.274	76.63
263.49	58.2
263.707	82.77
263.923	127.83
264.139	19.29
264.355	2.9
264.571	66.39
264.787	17.24
265.004	70.48
265.22	93.01
265.436	-64.68
265.652	13.14
265.868	45.91
266.084	-27.82
266.3	23.38
266.516	-31.91
266.732	27.48
266.948	107.35
267.164	58.2
267.38	113.49
267.596	123.73
267.812	156.5
268.028	78.68
268.244	0.85
268.46	90.96
268.676	35.67
268.892	-38.06
269.108	41.81
269.324	-13.48
269.54	29.52
269.756	74.58
269.972	9.05
270.188	-42.15
270.403	-60.59
270.619	-3.24
270.835	80.72
271.051	84.82
271.267	2.9
271.483	-44.2
271.698	76.63
271.914	54.1
272.13	23.38
272.346	17.24
272.562	84.82
272.777	52.05
272.993	-42.15
273.209	56.15
273.425	82.77
273.64	-19.63
273.856	64.34
274.072	-17.58
274.287	-25.77
274.503	99.16
274.719	105.3
274.934	-11.43
275.15	-58.54
275.366	-27.82
275.581	-25.77
275.797	27.48
276.012	54.1
276.228	41.81
276.444	25.43
276.659	76.63
276.875	9.05
277.09	35.67
277.306	-15.53
277.521	-5.29
277.737	107.35
277.952	115.54
278.168	43.86
278.383	109.4
278.599	62.29
278.814	115.54
279.03	-11.43
279.245	183.12
279.461	21.33
279.676	95.06
279.892	-36.01
280.107	82.77
280.322	4.95
280.538	82.77
280.753	-70.83
280.969	29.52
281.184	37.72
281.399	90.96
281.615	15.19
281.83	23.38
282.045	-40.11
282.26	-15.53
282.476	-23.72
282.691	88.92
282.906	99.16
283.122	78.68
283.337	-64.68
283.552	56.15
283.767	-48.3
283.983	150.36
284.198	19.29
284.413	144.21
284.628	-19.63
284.843	23.38
285.058	119.64
285.274	21.33
285.489	50
285.704	121.68
285.919	-79.02
286.134	4.95
286.349	-17.58
286.564	-5.29
286.779	136.02
286.995	27.48
287.21	-54.44
287.425	7
287.64	27.48
287.855	29.52
288.07	-64.68
288.285	127.83
288.5	129.88
288.715	50
288.93	70.48
289.145	41.81
289.36	115.54
289.575	136.02
289.79	107.35
290.004	-70.83
290.219	123.73
290.434	-62.63
290.649	-29.87
290.864	-3.24
291.079	-29.87
291.294	35.67
291.509	13.14
291.724	0.85
291.938	-38.06
292.153	76.63
292.368	19.29
292.583	-66.73
292.798	117.59
293.012	127.83
293.227	86.87
293.442	52.05
293.657	45.91
293.871	164.69
294.086	82.77
294.301	111.44
294.516	95.06
294.73	70.48
294.945	-15.53
295.16	-44.2
295.374	72.53
295.589	74.58
295.804	-54.44
296.018	66.39
296.233	70.48
296.447	43.86
296.662	41.81
296.877	82.77
297.091	86.87
297.306	23.38
297.52	52.05
297.735	78.68
297.949	131.92
298.164	76.63
298.378	119.64
298.593	11.09
298.807	-15.53
299.022	21.33
299.236	109.4
299.451	-44.2
299.665	13.14
299.88	-5.29
300.094	93.01
300.309	56.15
300.523	119.64
300.737	0.85
300.952	74.58
301.166	62.29
301.381	-21.67
301.595	-36.01
301.809	21.33
302.024	-5.29
302.238	-3.24
302.452	4.95
302.667	111.44
302.881	123.73
303.095	95.06
303.309	76.63
303.524	-33.96
303.738	-1.19
303.952	21.33
304.166	138.07
304.381	-74.92
304.595	76.63
304.809	-72.87
305.023	29.52
305.237	-1.19
305.452	99.16
305.666	95.06
305.88	80.72
306.094	95.06
306.308	52.05
306.522	99.16
306.736	41.81
306.95	86.87
307.164	95.06
307.379	21.33
307.593	74.58
307.807	52.05
308.021	21.33
308.235	23.38
308.449	-64.68
308.663	66.39
308.877	293.71
309.091	103.25
309.305	99.16
309.519	-68.78
309.733	181.07
309.947	-11.43
310.161	78.68
310.374	82.77
310.588	78.68
310.802	-21.67
311.016	-13.48
311.23	58.2
311.444	-19.63
311.658	39.76
311.872	117.59
312.085	185.17
312.299	54.1
312.513	90.96
312.727	31.57
312.941	7
313.154	90.96
313.368	35.67
313.582	-9.39
313.796	11.09
314.009	66.39
314.223	164.69
314.437	97.11
314.651	84.82
314.864	2.9
315.078	23.38
315.292	-13.48
315.505	29.52
315.719	64.34
315.933	52.05
316.146	-60.59
316.36	13.14
316.573	230.23
316.787	103.25
317.001	21.33
317.214	-38.06
317.428	21.33
317.641	-76.97
317.855	13.14
318.068	84.82
318.282	-17.58
318.495	232.27
318.709	64.34
318.922	-46.25
319.136	136.02
319.349	162.64
319.563	41.81
319.776	78.68
319.99	-93.35
320.203	99.16
320.417	72.53
320.63	88.92
320.843	199.51
321.057	109.4
321.27	60.24
321.483	119.64
321.697	113.49
321.91	33.62
322.124	56.15
322.337	72.53
322.55	-58.54
322.763	74.58
322.977	-3.24
323.19	-9.39
323.403	47.96
323.617	45.91
323.83	88.92
324.043	-68.78
324.256	43.86
324.469	-109.74
324.683	66.39
324.896	-15.53
325.109	52.05
325.322	-50.35
325.535	74.58
325.748	39.76
325.962	-11.43
326.175	68.44
326.388	58.2
326.601	127.83
326.814	41.81
327.027	17.24
327.24	133.97
327.453	-83.11
327.666	52.05
327.879	56.15
328.092	39.76
328.305	43.86
328.518	-27.82
328.731	-13.48
328.944	-33.96
329.157	-1.19
329.37	-11.43
329.583	179.03
329.796	125.78
330.009	-70.83
330.222	74.58
330.435	174.93
330.648	93.01
330.861	70.48
331.073	9.05
331.286	84.82
331.499	29.52
331.712	-52.39
331.925	95.06
332.138	-1.19
332.35	62.29
332.563	-15.53
332.776	152.4
332.989	-48.3
333.202	11.09
333.414	50
333.627	56.15
333.84	-48.3
334.053	80.72
334.265	-13.48
334.478	27.48
334.691	54.1
334.903	23.38
335.116	-40.11
335.329	2.9
335.541	111.44
335.754	76.63
335.966	-1.19
336.179	4.95
336.392	37.72
336.604	50
336.817	111.44
337.029	33.62
337.242	90.96
337.454	78.68
337.667	-23.72
337.88	154.45
338.092	88.92
338.305	97.11
338.517	13.14
338.729	52.05
338.942	142.16
339.154	-42.15
339.367	-33.96
339.579	-40.11
339.792	-21.67
340.004	107.35
340.217	4.95
340.429	113.49
340.641	-62.63
340.854	-7.34
341.066	15.19
341.278	78.68
341.491	181.07
341.703	54.1
341.915	56.15
342.128	187.22
342.34	27.48
342.552	-54.44
342.764	29.52
342.977	7
343.189	84.82
343.401	72.53
343.613	-23.72
343.826	15.19
344.038	47.96
344.25	35.67
344.462	-7.34
344.674	43.86
344.886	-1.19
345.099	58.2
345.311	31.57
345.523	70.48
345.735	-107.69
345.947	76.63
346.159	54.1
346.371	97.11
346.583	-3.24
346.795	172.88
347.007	35.67
347.219	47.96
347.431	11.09
347.643	172.88
347.855	4.95
348.067	95.06
348.279	-29.87
348.491	29.52
348.703	41.81
348.915	47.96
349.127	2.9
349.339	68.44
349.551	-72.87
349.763	60.24
349.975	47.96
350.187	41.81
350.399	195.41
350.61	70.48
350.822	11.09
351.034	45.91
351.246	21.33
351.458	109.4
351.669	117.59
351.881	103.25
352.093	37.72
352.305	119.64
352.517	82.77
352.728	154.45
352.94	52.05
353.152	86.87
353.363	2.9
353.575	72.53
353.787	183.12
353.999	78.68
354.21	160.59
354.422	-72.87
354.633	45.91
354.845	25.43
355.057	70.48
355.268	25.43
355.48	168.79
355.692	-7.34
355.903	58.2
356.115	-29.87
356.326	-93.35
356.538	121.68
356.749	58.2
356.961	60.24
357.172	33.62
357.384	-56.49
357.595	181.07
357.807	-21.67
358.018	-3.24
358.23	-11.43
358.441	119.64
358.653	115.54
358.864	47.96
359.075	-85.16
359.287	62.29
359.498	125.78
359.709	127.83
359.921	-31.91
360.132	74.58
360.344	-25.77
360.555	21.33
360.766	172.88
360.977	-36.01
361.189	86.87
361.4	25.43
361.611	72.53
361.823	154.45
362.034	64.34
362.245	-54.44
362.456	-21.67
362.667	74.58
362.879	-27.82
363.09	64.34
363.301	80.72
363.512	-60.59
363.723	-76.97
363.935	-115.88
364.146	99.16
364.357	17.24
364.568	-13.48
364.779	-11.43
364.99	174.93
365.201	41.81
365.412	136.02
365.623	-93.35
365.834	121.68
366.045	41.81
366.256	29.52
366.467	56.15
366.678	25.43
366.889	64.34
367.1	-13.48
367.311	103.25
367.522	-60.59
367.733	43.86
367.944	45.91
368.155	-9.39
368.366	107.35
368.577	72.53
368.788	129.88
368.999	-19.63
369.209	97.11
369.42	252.75
369.631	209.75
369.842	140.12
370.053	4.95
370.264	95.06
370.474	31.57
370.685	-7.34
370.896	15.19
371.107	47.96
371.317	-60.59
371.528	47.96
371.739	93.01
371.95	105.3
372.16	90.96
372.371	-29.87
372.582	23.38
372.792	13.14
373.003	-17.58
373.214	-33.96
373.424	82.77
373.635	-48.3
373.846	86.87
374.056	-40.11
374.267	183.12
374.477	27.48
374.688	-13.48
374.898	-38.06
375.109	-3.24
375.319	-13.48
375.53	136.02
375.74	113.49
375.951	39.76
376.161	97.11
376.372	152.4
376.582	39.76
376.793	127.83
377.003	19.29
377.214	-97.45
377.424	107.35
377.635	80.72
377.845	47.96
378.055	103.25
378.266	11.09
378.476	52.05
378.686	72.53
378.897	80.72
379.107	109.4
379.317	43.86
379.528	-44.2
379.738	101.2
379.948	-31.91
380.158	144.21
380.369	-1.19
380.579	76.63
380.789	60.24
380.999	93.01
381.21	54.1
381.42	203.6
381.63	23.38
381.84	127.83
382.05	158.55
382.261	117.59
382.471	76.63
382.681	27.48
382.891	125.78
383.101	68.44
383.311	-36.01
383.521	-13.48
383.731	154.45
383.941	107.35
384.151	101.2
384.361	52.05
384.571	78.68
384.781	-1.19
384.991	228.18
385.201	164.69
385.411	133.97
385.621	103.25
385.831	31.57
386.041	23.38
386.251	25.43
386.461	62.29
386.671	52.05
386.881	33.62
387.091	11.09
387.301	78.68
387.511	60.24
387.72	99.16
387.93	23.38
388.14	-52.39
388.35	39.76
388.56	103.25
388.769	119.64
388.979	-19.63
389.189	15.19
389.399	21.33
389.609	90.96
389.818	152.4
390.028	105.3
390.238	68.44
390.447	54.1
390.657	33.62
390.867	0.85
391.076	-62.63
391.286	68.44
391.496	25.43
391.705	-76.97
391.915	117.59
392.125	170.83
392.334	9.05
392.544	95.06
392.753	86.87
392.963	-44.2
393.172	37.72
393.382	19.29
393.591	189.27
393.801	31.57
394.01	121.68
394.22	107.35
394.429	60.24
394.639	68.44
394.848	76.63
395.058	4.95
395.267	66.39
395.477	88.92
395.686	70.48
395.895	234.32
396.105	193.36
396.314	60.24
396.524	13.14
396.733	41.81
396.942	123.73
397.152	15.19
397.361	101.2
397.57	47.96
397.78	7
397.989	54.1
398.198	176.98
398.407	50
398.617	-81.07
398.826	90.96
399.035	-27.82
399.244	109.4
399.453	99.16
399.663	21.33
399.872	17.24
400.081	-5.29
400.29	193.36
400.499	-7.34
400.708	105.3
400.917	13.14
401.127	86.87
401.336	82.77
401.545	168.79
401.754	140.12
401.963	140.12
402.172	-27.82
402.381	-21.67
402.59	74.58
402.799	-1.19
403.008	123.73
403.217	90.96
403.426	99.16
403.635	-17.58
403.844	62.29
404.053	13.14
404.262	-15.53
404.471	131.92
404.68	47.96
404.888	80.72
405.097	19.29
405.306	13.14
405.515	23.38
405.724	31.57
405.933	93.01
406.142	66.39
406.35	93.01
406.559	37.72
406.768	58.2
406.977	185.17
407.185	62.29
407.394	45.91
407.603	-29.87
407.812	78.68
408.02	148.31
408.229	7
408.438	52.05
408.646	-58.54
408.855	54.1
409.064	113.49
409.272	-15.53
409.481	115.54
409.69	-40.11
409.898	-36.01
410.107	68.44
410.315	123.73
410.524	82.77
410.733	47.96
410.941	23.38
411.15	60.24
411.358	25.43
411.567	113.49
411.775	52.05
411.984	82.77
412.192	54.1
412.401	-5.29
412.609	174.93
412.818	205.65
413.026	62.29
413.234	29.52
413.443	64.34
413.651	-72.87
413.86	88.92
414.068	133.97
414.276	70.48
414.485	-27.82
414.693	152.4
414.901	209.75
415.11	97.11
415.318	-7.34
415.526	80.72
415.734	105.3
415.943	54.1
416.151	119.64
416.359	97.11
416.567	52.05
416.776	80.72
416.984	140.12
417.192	189.27
417.4	62.29
417.608	-15.53
417.817	-1.19
418.025	56.15
418.233	185.17
418.441	-33.96
418.649	-1.19
418.857	11.09
419.065	170.83
419.273	-38.06
419.481	29.52
419.689	39.76
419.897	13.14
420.105	-1.19
420.313	213.84
420.521	146.26
420.729	101.2
420.937	15.19
421.145	-9.39
421.353	66.39
421.561	52.05
421.769	99.16
421.977	-68.78
422.185	72.53
422.393	72.53
422.601	164.69
422.809	66.39
423.017	-19.63
423.224	-11.43
423.432	136.02
423.64	43.86
423.848	119.64
424.056	-83.11
424.263	154.45
424.471	109.4
424.679	138.07
424.887	-58.54
425.094	109.4
425.302	70.48
425.51	70.48
425.718	230.23
425.925	121.68
426.133	27.48
426.341	138.07
426.548	-7.34
426.756	33.62
426.964	15.19
427.171	43.86
427.379	86.87
427.586	66.39
427.794	54.1
428.001	181.07
428.209	168.79
428.417	170.83
428.624	158.55
428.832	127.83
429.039	15.19
429.247	29.52
429.454	45.91
429.662	181.07
429.869	115.54
430.076	84.82
430.284	170.83
430.491	193.36
430.699	70.48
430.906	224.08
431.114	25.43
431.321	152.4
431.528	64.34
431.736	109.4
431.943	172.88
432.15	99.16
432.358	174.93
432.565	203.6
432.772	41.81
432.979	189.27
433.187	68.44
433.394	176.98
433.601	111.44
433.808	250.71
434.016	166.74
434.223	154.45
434.43	258.9
434.637	230.23
434.844	179.03
435.052	285.52
435.259	291.66
435.466	330.58
435.673	232.27
435.88	185.17
436.087	361.3
436.294	279.38
436.501	258.9
436.708	236.37
436.915	326.48
437.122	363.34
437.329	283.47
437.537	267.09
437.743	312.14
437.95	365.39
438.157	340.82
438.364	293.71
438.571	357.2
438.778	398.16
438.985	373.58
439.192	357.2
439.399	385.87
439.606	410.45
439.813	518.99
440.02	516.94
440.227	518.99
440.433	551.76
440.64	457.55
440.847	494.41
441.054	551.76
441.261	617.29
441.467	586.57
441.674	631.63
441.881	678.73
442.088	580.43
442.294	703.31
442.501	742.22
442.708	744.27
442.914	742.22
443.121	705.35
443.328	809.8
443.534	920.39
443.741	824.14
443.948	584.52
444.154	869.19
444.361	1067.85
444.568	1000.26
444.774	983.88
444.981	799.56
445.187	1057.61
445.394	1061.7
445.6	1014.6
445.807	1235.78
446.013	1090.37
446.22	1174.34
446.426	1284.93
446.633	1340.22
446.839	1577.79
447.046	1321.79
447.252	1428.29
447.459	1495.87
447.665	1395.52
447.871	1573.69
448.078	1760.06
448.284	1784.63
448.491	1805.11
448.697	1889.08
448.903	2009.91
449.11	2124.6
449.316	2050.87
449.522	2239.28
449.728	2259.76
449.935	2435.89
450.141	2347.83
450.347	2607.92
450.553	2495.28
450.76	2636.59
450.966	2714.41
451.172	2859.82
451.378	2972.46
451.584	2992.94
451.791	3226.4
451.997	3232.55
452.203	3263.27
452.409	3408.67
452.615	3568.41
452.821	3537.7
453.027	3515.17
453.233	3914.52
453.44	3984.15
453.646	4010.78
453.852	4174.61
454.058	4457.23
454.264	4565.78
454.47	4850.44
454.676	4862.73
454.882	5427.97
455.088	5090.06
455.294	5489.41
455.5	5653.25
455.705	5919.48
455.911	6066.94
456.117	6310.65
456.323	6318.84
456.529	6556.4
456.735	6990.57
456.941	7160.55
457.147	7578.34
457.352	7652.06
457.558	7940.83
457.764	8454.87
457.97	8520.4
458.176	8815.31
458.381	9294.54
458.587	9558.72
458.793	9976.51
458.999	10080.96
459.204	11240.11
459.41	11451.05
459.616	11453.09
459.821	12288.67
460.027	12786.32
460.233	13234.83
460.438	13269.64
460.644	14070.4
460.85	14322.3
461.055	14852.72
461.261	15542.89
461.466	15123.05
461.672	15403.63
461.878	17019.47
462.083	17025.62
462.289	17427.02
462.494	18238.02
462.7	18195.01
462.905	18655.8
463.111	20029.99
463.316	21013.01
463.522	21584.4
463.727	22080
463.932	23157.24
464.138	23710.19
464.343	24752.6
464.549	24783.32
464.754	26575.3
464.959	27314.61
465.165	27912.62
465.37	27390.39
465.575	27816.36
465.781	29356.44
465.986	29821.33
466.191	29802.89
466.397	30419.33
466.602	29438.36
466.807	31168.89
467.012	31654.26
467.218	32215.4
467.423	32004.46
467.628	33411.42
467.833	34636.1
468.038	34212.17
468.244	33270.11
468.449	35031.36
468.654	34498.89
468.859	34470.22
469.064	34441.54
469.269	33372.5
