Data from USB4F104151__41__11-26-38-392.txt Node

Date: Wed Feb 26 11:26:38 EST 2025
User: louis
Spectrometer: USB4F10415
Trigger mode: 4
Integration Time (sec): 1.000000E-1
Scans to average: 1
Electric dark correction enabled: true
Nonlinearity correction enabled: false
Boxcar width: 0
XAxis mode: Wavelengths
Number of Pixels in Spectrum: 3648
>>>>>Begin Spectral Data<<<<<
178.204	-383.65
178.424	-383.65
178.644	-383.65
178.864	-418.47
179.084	-385.7
179.304	60.76
179.524	42.32
179.744	13.65
179.964	23.89
180.184	-17.07
180.404	99.67
180.624	1.37
180.844	-58.03
181.064	-125.61
181.283	-4.78
181.503	-21.16
181.723	-15.02
181.943	-74.41
182.163	165.2
182.383	-41.64
182.602	32.08
182.822	191.83
183.042	56.66
183.262	-47.79
183.482	5.46
183.701	21.85
183.921	36.18
184.141	-21.16
184.361	93.52
184.58	103.76
184.8	95.57
185.02	-17.07
185.239	56.66
185.459	116.05
185.679	91.48
185.898	-86.7
186.118	46.42
186.338	23.89
186.557	111.96
186.777	-19.11
186.997	34.13
187.216	19.8
187.436	214.35
187.655	54.61
187.875	161.11
188.095	-25.26
188.314	169.3
188.534	99.67
188.753	-66.22
188.973	161.11
189.192	89.43
189.412	56.66
189.631	64.85
189.851	36.18
190.07	218.45
190.29	-125.61
190.509	23.89
190.729	-0.68
190.948	85.33
191.168	249.17
191.387	79.19
191.607	54.61
191.826	95.57
192.045	97.62
192.265	-17.07
192.484	11.61
192.704	-8.87
192.923	-19.11
193.142	179.54
193.362	159.06
193.581	132.44
193.8	85.33
194.02	56.66
194.239	77.14
194.458	81.24
194.678	9.56
194.897	56.66
195.116	58.71
195.335	60.76
195.555	7.51
195.774	-39.59
195.993	50.52
196.212	1.37
196.432	-37.55
196.651	-62.12
196.87	81.24
197.089	187.73
197.308	13.65
197.528	116.05
197.747	30.04
197.966	36.18
198.185	146.77
198.404	-58.03
198.623	142.68
198.842	114
199.062	126.29
199.281	44.37
199.5	-8.87
199.719	111.96
199.938	68.95
200.157	150.87
200.376	81.24
200.595	95.57
200.814	71
201.033	-84.65
201.252	97.62
201.471	23.89
201.69	93.52
201.909	95.57
202.128	116.05
202.347	81.24
202.566	64.85
202.785	48.47
203.004	5.46
203.223	251.22
203.442	-31.4
203.661	19.8
203.879	13.65
204.098	204.11
204.317	9.56
204.536	138.58
204.755	161.11
204.974	95.57
205.193	-2.73
205.411	89.43
205.63	91.48
205.849	-53.93
206.068	-10.92
206.287	-0.68
206.505	73.04
206.724	34.13
206.943	-51.88
207.162	-17.07
207.381	73.04
207.599	42.32
207.818	7.51
208.037	32.08
208.255	99.67
208.474	99.67
208.693	105.81
208.911	-25.26
209.13	97.62
209.349	68.95
209.567	85.33
209.786	54.61
210.005	130.39
210.223	13.65
210.442	-133.8
210.661	-0.68
210.879	64.85
211.098	-53.93
211.316	73.04
211.535	124.24
211.753	77.14
211.972	-2.73
212.191	-78.51
212.409	48.47
212.628	58.71
212.846	5.46
213.065	101.72
213.283	130.39
213.502	25.94
213.72	50.52
213.938	93.52
214.157	-33.45
214.375	64.85
214.594	3.41
214.812	21.85
215.031	-21.16
215.249	48.47
215.467	71
215.686	-27.31
215.904	107.86
216.122	-8.87
216.341	218.45
216.559	81.24
216.778	185.68
216.996	136.53
217.214	71
217.432	50.52
217.651	38.23
217.869	30.04
218.087	62.8
218.306	-41.64
218.524	93.52
218.742	-23.21
218.96	204.11
219.179	7.51
219.397	38.23
219.615	169.3
219.833	136.53
220.051	-64.17
220.27	64.85
220.488	99.67
220.706	62.8
220.924	40.28
221.142	-4.78
221.36	81.24
221.578	48.47
221.796	40.28
222.015	-12.97
222.233	13.65
222.451	175.44
222.669	-31.4
222.887	128.34
223.105	-17.07
223.323	46.42
223.541	-17.07
223.759	44.37
223.977	13.65
224.195	157.01
224.413	30.04
224.631	56.66
224.849	38.23
225.067	200.02
225.285	17.75
225.503	79.19
225.721	-66.22
225.939	-35.5
226.157	64.85
226.375	183.63
226.592	-12.97
226.81	9.56
227.028	101.72
227.246	181.59
227.464	87.38
227.682	66.9
227.9	60.76
228.117	79.19
228.335	165.2
228.553	17.75
228.771	42.32
228.989	73.04
229.206	130.39
229.424	68.95
229.642	62.8
229.86	9.56
230.077	124.24
230.295	54.61
230.513	60.76
230.731	142.68
230.948	222.55
231.166	144.72
231.384	83.28
231.601	21.85
231.819	183.63
232.037	-94.89
232.254	3.41
232.472	89.43
232.689	103.76
232.907	128.34
233.125	-58.03
233.342	9.56
233.56	25.94
233.777	-39.59
233.995	64.85
234.213	173.39
234.43	81.24
234.648	138.58
234.865	23.89
235.083	25.94
235.3	91.48
235.518	134.48
235.735	68.95
235.953	109.91
236.17	3.41
236.388	23.89
236.605	62.8
236.822	171.35
237.04	161.11
237.257	15.7
237.475	-60.07
237.692	-4.78
237.909	144.72
238.127	-45.74
238.344	32.08
238.562	79.19
238.779	-43.69
238.996	1.37
239.214	17.75
239.431	97.62
239.648	44.37
239.865	132.44
240.083	116.05
240.3	-8.87
240.517	-2.73
240.735	126.29
240.952	165.2
241.169	81.24
241.386	101.72
241.603	46.42
241.821	1.37
242.038	36.18
242.255	114
242.472	36.18
242.689	142.68
242.907	11.61
243.124	97.62
243.341	48.47
243.558	-49.83
243.775	-12.97
243.992	-31.4
244.209	68.95
244.426	226.64
244.643	36.18
244.86	19.8
245.078	161.11
245.295	81.24
245.512	60.76
245.729	-27.31
245.946	122.2
246.163	44.37
246.38	54.61
246.597	66.9
246.814	40.28
247.031	48.47
247.248	27.99
247.464	95.57
247.681	83.28
247.898	42.32
248.115	136.53
248.332	32.08
248.549	79.19
248.766	183.63
248.983	66.9
249.2	64.85
249.417	130.39
249.633	-25.26
249.85	111.96
250.067	97.62
250.284	77.14
250.501	50.52
250.717	116.05
250.934	3.41
251.151	66.9
251.368	95.57
251.585	64.85
251.801	-33.45
252.018	-4.78
252.235	128.34
252.451	25.94
252.668	32.08
252.885	171.35
253.102	52.56
253.318	38.23
253.535	-25.26
253.752	77.14
253.968	-0.68
254.185	-27.31
254.401	73.04
254.618	83.28
254.835	60.76
255.051	202.07
255.268	62.8
255.484	109.91
255.701	32.08
255.917	165.2
256.134	-29.35
256.351	87.38
256.567	64.85
256.784	75.09
257	-109.22
257.217	77.14
257.433	105.81
257.65	66.9
257.866	48.47
258.082	-41.64
258.299	-39.59
258.515	21.85
258.732	99.67
258.948	15.7
259.165	42.32
259.381	40.28
259.597	58.71
259.814	46.42
260.03	75.09
260.246	19.8
260.463	101.72
260.679	136.53
260.895	83.28
261.112	62.8
261.328	13.65
261.544	56.66
261.761	181.59
261.977	60.76
262.193	-21.16
262.409	103.76
262.626	85.33
262.842	56.66
263.058	-12.97
263.274	73.04
263.49	56.66
263.707	85.33
263.923	56.66
264.139	-29.35
264.355	56.66
264.571	152.91
264.787	148.82
265.004	130.39
265.22	48.47
265.436	-17.07
265.652	13.65
265.868	54.61
266.084	-68.27
266.3	38.23
266.516	-6.83
266.732	91.48
266.948	75.09
267.164	15.7
267.38	114
267.596	107.86
267.812	167.25
268.028	-37.55
268.244	19.8
268.46	97.62
268.676	87.38
268.892	36.18
269.108	-15.02
269.324	1.37
269.54	3.41
269.756	89.43
269.972	-23.21
270.188	-2.73
270.403	-68.27
270.619	-19.11
270.835	157.01
271.051	118.1
271.267	7.51
271.483	30.04
271.698	103.76
271.914	71
272.13	32.08
272.346	44.37
272.562	89.43
272.777	152.91
272.993	-41.64
273.209	-25.26
273.425	64.85
273.64	-55.98
273.856	81.24
274.072	-6.83
274.287	-29.35
274.503	60.76
274.719	60.76
274.934	-19.11
275.15	-8.87
275.366	1.37
275.581	15.7
275.797	1.37
276.012	42.32
276.228	60.76
276.444	64.85
276.659	91.48
276.875	-49.83
277.09	68.95
277.306	3.41
277.521	-17.07
277.737	44.37
277.952	148.82
278.168	40.28
278.383	64.85
278.599	42.32
278.814	107.86
279.03	34.13
279.245	114
279.461	44.37
279.676	71
279.892	-76.46
280.107	-33.45
280.322	30.04
280.538	89.43
280.753	-29.35
280.969	64.85
281.184	-80.55
281.399	165.2
281.615	7.51
281.83	107.86
282.045	7.51
282.26	-17.07
282.476	40.28
282.691	56.66
282.906	81.24
283.122	50.52
283.337	-29.35
283.552	36.18
283.767	-66.22
283.983	54.61
284.198	21.85
284.413	54.61
284.628	-92.84
284.843	-43.69
285.058	15.7
285.274	34.13
285.489	-17.07
285.704	83.28
285.919	15.7
286.134	58.71
286.349	44.37
286.564	-2.73
286.779	105.81
286.995	109.91
287.21	-53.93
287.425	25.94
287.64	62.8
287.855	46.42
288.07	-31.4
288.285	107.86
288.5	114
288.715	146.77
288.93	27.99
289.145	15.7
289.36	46.42
289.575	15.7
289.79	159.06
290.004	-8.87
290.219	138.58
290.434	13.65
290.649	21.85
290.864	-23.21
291.079	-2.73
291.294	130.39
291.509	50.52
291.724	79.19
291.938	52.56
292.153	5.46
292.368	-80.55
292.583	58.71
292.798	128.34
293.012	152.91
293.227	58.71
293.442	-12.97
293.657	89.43
293.871	130.39
294.086	52.56
294.301	118.1
294.516	183.63
294.73	11.61
294.945	-98.99
295.16	-15.02
295.374	173.39
295.589	91.48
295.804	42.32
296.018	95.57
296.233	154.96
296.447	48.47
296.662	9.56
296.877	50.52
297.091	101.72
297.306	36.18
297.52	36.18
297.735	38.23
297.949	-4.78
298.164	114
298.378	114
298.593	3.41
298.807	-2.73
299.022	109.91
299.236	144.72
299.451	30.04
299.665	52.56
299.88	-25.26
300.094	50.52
300.309	56.66
300.523	44.37
300.737	27.99
300.952	136.53
301.166	15.7
301.381	30.04
301.595	89.43
301.809	66.9
302.024	17.75
302.238	-25.26
302.452	169.3
302.667	81.24
302.881	83.28
303.095	95.57
303.309	32.08
303.524	-25.26
303.738	-2.73
303.952	-51.88
304.166	23.89
304.381	-49.83
304.595	220.5
304.809	34.13
305.023	-15.02
305.237	48.47
305.452	9.56
305.666	44.37
305.88	64.85
306.094	146.77
306.308	128.34
306.522	163.15
306.736	71
306.95	105.81
307.164	-66.22
307.379	-39.59
307.593	208.21
307.807	167.25
308.021	114
308.235	163.15
308.449	-0.68
308.663	27.99
308.877	214.35
309.091	13.65
309.305	87.38
309.519	-41.64
309.733	126.29
309.947	-55.98
310.161	122.2
310.374	118.1
310.588	120.15
310.802	11.61
311.016	-72.36
311.23	32.08
311.444	21.85
311.658	62.8
311.872	171.35
312.085	148.82
312.299	200.02
312.513	154.96
312.727	-4.78
312.941	-86.7
313.154	62.8
313.368	30.04
313.582	83.28
313.796	17.75
314.009	-2.73
314.223	183.63
314.437	107.86
314.651	71
314.864	42.32
315.078	7.51
315.292	-86.7
315.505	23.89
315.719	97.62
315.933	58.71
316.146	-4.78
316.36	-10.92
316.573	128.34
316.787	77.14
317.001	120.15
317.214	-123.56
317.428	15.7
317.641	89.43
317.855	42.32
318.068	81.24
318.282	40.28
318.495	142.68
318.709	64.85
318.922	25.94
319.136	152.91
319.349	105.81
319.563	91.48
319.776	85.33
319.99	-107.18
320.203	130.39
320.417	58.71
320.63	93.52
320.843	195.92
321.057	-0.68
321.27	19.8
321.483	85.33
321.697	144.72
321.91	-4.78
322.124	52.56
322.337	68.95
322.55	42.32
322.763	97.62
322.977	9.56
323.19	-6.83
323.403	60.76
323.617	93.52
323.83	171.35
324.043	13.65
324.256	34.13
324.469	-23.21
324.683	91.48
324.896	-15.02
325.109	71
325.322	-17.07
325.535	118.1
325.748	118.1
325.962	54.61
326.175	9.56
326.388	60.76
326.601	118.1
326.814	52.56
327.027	85.33
327.24	189.78
327.453	-70.31
327.666	134.48
327.879	163.15
328.092	89.43
328.305	87.38
328.518	40.28
328.731	-55.98
328.944	32.08
329.157	71
329.37	34.13
329.583	189.78
329.796	191.83
330.009	-4.78
330.222	25.94
330.435	142.68
330.648	138.58
330.861	124.24
331.073	58.71
331.286	132.44
331.499	44.37
331.712	-10.92
331.925	44.37
332.138	32.08
332.35	124.24
332.563	-37.55
332.776	140.63
332.989	-51.88
333.202	52.56
333.414	52.56
333.627	66.9
333.84	114
334.053	146.77
334.265	-6.83
334.478	-27.31
334.691	64.85
334.903	81.24
335.116	9.56
335.329	7.51
335.541	21.85
335.754	243.03
335.966	-10.92
336.179	66.9
336.392	-19.11
336.604	54.61
336.817	87.38
337.029	27.99
337.242	32.08
337.454	83.28
337.667	75.09
337.88	144.72
338.092	95.57
338.305	50.52
338.517	-29.35
338.729	32.08
338.942	134.48
339.154	-45.74
339.367	-58.03
339.579	38.23
339.792	5.46
340.004	87.38
340.217	21.85
340.429	19.8
340.641	25.94
340.854	-55.98
341.066	85.33
341.278	132.44
341.491	195.92
341.703	44.37
341.915	21.85
342.128	79.19
342.34	48.47
342.552	-4.78
342.764	66.9
342.977	85.33
343.189	54.61
343.401	89.43
343.613	3.41
343.826	-2.73
344.038	-17.07
344.25	-4.78
344.462	-53.93
344.674	54.61
344.886	62.8
345.099	40.28
345.311	97.62
345.523	109.91
345.735	-8.87
345.947	19.8
346.159	77.14
346.371	44.37
346.583	-41.64
346.795	154.96
347.007	-12.97
347.219	91.48
347.431	-19.11
347.643	128.34
347.855	25.94
348.067	114
348.279	-70.31
348.491	66.9
348.703	32.08
348.915	27.99
349.127	-2.73
349.339	11.61
349.551	-35.5
349.763	99.67
349.975	56.66
350.187	132.44
350.399	99.67
350.61	79.19
350.822	1.37
351.034	42.32
351.246	32.08
351.458	5.46
351.669	124.24
351.881	83.28
352.093	122.2
352.305	175.44
352.517	-25.26
352.728	134.48
352.94	48.47
353.152	38.23
353.363	32.08
353.575	48.47
353.787	81.24
353.999	62.8
354.21	116.05
354.422	-31.4
354.633	85.33
354.845	-12.97
355.057	27.99
355.268	99.67
355.48	83.28
355.692	-4.78
355.903	60.76
356.115	-2.73
356.326	-29.35
356.538	111.96
356.749	71
356.961	181.59
357.172	21.85
357.384	11.61
357.595	177.49
357.807	79.19
358.018	42.32
358.23	23.89
358.441	189.78
358.653	42.32
358.864	68.95
359.075	-0.68
359.287	136.53
359.498	85.33
359.709	95.57
359.921	79.19
360.132	68.95
360.344	58.71
360.555	13.65
360.766	-10.92
360.977	77.14
361.189	216.4
361.4	3.41
361.611	118.1
361.823	206.16
362.034	30.04
362.245	-39.59
362.456	77.14
362.667	97.62
362.879	-70.31
363.09	5.46
363.301	73.04
363.512	163.15
363.723	48.47
363.935	3.41
364.146	146.77
364.357	40.28
364.568	118.1
364.779	62.8
364.99	81.24
365.201	1.37
365.412	114
365.623	-53.93
365.834	52.56
366.045	17.75
366.256	83.28
366.467	87.38
366.678	-2.73
366.889	118.1
367.1	-0.68
367.311	68.95
367.522	44.37
367.733	87.38
367.944	109.91
368.155	-6.83
368.366	120.15
368.577	97.62
368.788	126.29
368.999	-62.12
369.209	34.13
369.42	247.12
369.631	251.22
369.842	68.95
370.053	-8.87
370.264	107.86
370.474	11.61
370.685	17.75
370.896	42.32
371.107	109.91
371.317	105.81
371.528	25.94
371.739	122.2
371.95	62.8
372.16	81.24
372.371	-35.5
372.582	38.23
372.792	167.25
373.003	89.43
373.214	71
373.424	107.86
373.635	13.65
373.846	111.96
374.056	87.38
374.267	75.09
374.477	87.38
374.688	21.85
374.898	66.9
375.109	36.18
375.319	1.37
375.53	93.52
375.74	154.96
375.951	64.85
376.161	163.15
376.372	169.3
376.582	34.13
376.793	97.62
377.003	-6.83
377.214	79.19
377.424	40.28
377.635	66.9
377.845	-33.45
378.055	154.96
378.266	-82.6
378.476	77.14
378.686	77.14
378.897	97.62
379.107	66.9
379.317	62.8
379.528	-37.55
379.738	93.52
379.948	9.56
380.158	62.8
380.369	40.28
380.579	85.33
380.789	81.24
380.999	81.24
381.21	89.43
381.42	175.44
381.63	-66.22
381.84	81.24
382.05	44.37
382.261	83.28
382.471	116.05
382.681	25.94
382.891	150.87
383.101	44.37
383.311	-68.27
383.521	-49.83
383.731	148.82
383.941	17.75
384.151	60.76
384.361	-2.73
384.571	97.62
384.781	30.04
384.991	163.15
385.201	181.59
385.411	148.82
385.621	40.28
385.831	44.37
386.041	66.9
386.251	107.86
386.461	66.9
386.671	27.99
386.881	32.08
387.091	111.96
387.301	15.7
387.511	95.57
387.72	87.38
387.93	66.9
388.14	-111.27
388.35	56.66
388.56	109.91
388.769	85.33
388.979	64.85
389.189	52.56
389.399	-35.5
389.609	109.91
389.818	124.24
390.028	32.08
390.238	91.48
390.447	50.52
390.657	77.14
390.867	-53.93
391.076	-49.83
391.286	71
391.496	40.28
391.705	87.38
391.915	58.71
392.125	99.67
392.334	19.8
392.544	144.72
392.753	44.37
392.963	-12.97
393.172	111.96
393.382	21.85
393.591	191.83
393.801	48.47
394.01	109.91
394.22	97.62
394.429	54.61
394.639	101.72
394.848	128.34
395.058	48.47
395.267	42.32
395.477	9.56
395.686	52.56
395.895	212.31
396.105	251.22
396.314	89.43
396.524	-31.4
396.733	50.52
396.942	142.68
397.152	195.92
397.361	64.85
397.57	81.24
397.78	30.04
397.989	81.24
398.198	144.72
398.407	73.04
398.617	62.8
398.826	77.14
399.035	58.71
399.244	77.14
399.453	157.01
399.663	89.43
399.872	81.24
400.081	-39.59
400.29	118.1
400.499	17.75
400.708	210.26
400.917	62.8
401.127	7.51
401.336	46.42
401.545	177.49
401.754	77.14
401.963	71
402.172	30.04
402.381	52.56
402.59	32.08
402.799	7.51
403.008	64.85
403.217	62.8
403.426	68.95
403.635	-0.68
403.844	36.18
404.053	56.66
404.262	116.05
404.471	206.16
404.68	21.85
404.888	30.04
405.097	-21.16
405.306	83.28
405.515	64.85
405.724	27.99
405.933	85.33
406.142	42.32
406.35	120.15
406.559	7.51
406.768	56.66
406.977	136.53
407.185	91.48
407.394	81.24
407.603	-55.98
407.812	128.34
408.02	99.67
408.229	23.89
408.438	91.48
408.646	-78.51
408.855	25.94
409.064	48.47
409.272	15.7
409.481	187.73
409.69	13.65
409.898	-88.75
410.107	81.24
410.315	85.33
410.524	21.85
410.733	118.1
410.941	42.32
411.15	93.52
411.358	40.28
411.567	138.58
411.775	116.05
411.984	75.09
412.192	134.48
412.401	19.8
412.609	189.78
412.818	130.39
413.026	81.24
413.234	52.56
413.443	60.76
413.651	44.37
413.86	-6.83
414.068	142.68
414.276	130.39
414.485	27.99
414.693	56.66
414.901	197.97
415.11	32.08
415.318	56.66
415.526	56.66
415.734	81.24
415.943	56.66
416.151	120.15
416.359	9.56
416.567	73.04
416.776	103.76
416.984	95.57
417.192	154.96
417.4	-2.73
417.608	40.28
417.817	-21.16
418.025	134.48
418.233	132.44
418.441	-51.88
418.649	-49.83
418.857	50.52
419.065	107.86
419.273	-17.07
419.481	114
419.689	25.94
419.897	89.43
420.105	21.85
420.313	132.44
420.521	187.73
420.729	193.87
420.937	-35.5
421.145	-37.55
421.353	128.34
421.561	185.68
421.769	52.56
421.977	44.37
422.185	183.63
422.393	48.47
422.601	87.38
422.809	79.19
423.017	54.61
423.224	32.08
423.432	159.06
423.64	66.9
423.848	154.96
424.056	52.56
424.263	95.57
424.471	50.52
424.679	183.63
424.887	11.61
425.094	204.11
425.302	85.33
425.51	9.56
425.718	132.44
425.925	152.91
426.133	-47.79
426.341	163.15
426.548	75.09
426.756	87.38
426.964	95.57
427.171	21.85
427.379	122.2
427.586	97.62
427.794	99.67
428.001	148.82
428.209	64.85
428.417	177.49
428.624	161.11
428.832	161.11
429.039	46.42
429.247	122.2
429.454	136.53
429.662	150.87
429.869	81.24
430.076	79.19
430.284	75.09
430.491	212.31
430.699	142.68
430.906	148.82
431.114	140.63
431.321	58.71
431.528	128.34
431.736	132.44
431.943	140.63
432.15	136.53
432.358	210.26
432.565	277.84
432.772	34.13
432.979	206.16
433.187	134.48
433.394	116.05
433.601	150.87
433.808	267.6
434.016	247.12
434.223	257.36
434.43	230.74
434.637	286.03
434.844	257.36
435.052	240.98
435.259	281.94
435.466	314.7
435.673	202.07
435.88	290.13
436.087	337.23
436.294	267.6
436.501	316.75
436.708	245.07
436.915	326.99
437.122	329.04
437.329	220.5
437.537	249.17
437.743	343.38
437.95	466.25
438.157	355.66
438.364	359.76
438.571	374.1
438.778	494.93
438.985	474.45
439.192	410.96
439.399	384.34
439.606	417.1
439.813	390.48
440.02	621.9
440.227	587.08
440.433	515.41
440.64	443.73
440.847	523.6
441.054	535.89
441.261	619.85
441.467	533.84
441.674	486.73
441.881	613.71
442.088	578.89
442.294	654.67
442.501	734.54
442.708	685.39
442.914	679.24
443.121	832.84
443.328	724.3
443.534	845.13
443.741	785.74
443.948	574.8
444.154	855.37
444.361	990.53
444.568	945.48
444.774	968.01
444.981	828.74
445.187	1021.25
445.394	1004.87
445.6	1060.17
445.807	1131.84
446.013	1154.37
446.22	1049.93
446.426	1156.42
446.633	1224
446.839	1363.26
447.046	1287.49
447.252	1443.14
447.459	1404.22
447.665	1457.47
447.871	1680.7
448.078	1641.79
448.284	1656.12
448.491	1871.16
448.697	1899.83
448.903	2018.61
449.11	1983.8
449.316	2014.52
449.522	2166.07
449.728	2108.73
449.935	2344.24
450.141	2223.41
450.347	2372.91
450.553	2471.22
450.76	2469.17
450.966	2659.63
451.172	2637.1
451.378	2757.93
451.584	2899.24
451.791	3095.85
451.997	3065.13
452.203	3167.53
452.409	3335.46
452.615	3585.31
452.821	3333.41
453.027	3331.36
453.233	3863.83
453.44	3593.5
453.646	3925.27
453.852	4183.32
454.058	4314.39
454.264	4435.22
454.47	4685.07
454.676	4674.83
454.882	5016.84
455.088	4887.82
455.294	5082.38
455.5	5561.6
455.705	5850.36
455.911	5782.78
456.117	6075.64
456.323	6024.44
456.529	6202.61
456.735	6823.15
456.941	6765.81
457.147	7259.37
457.352	7392.48
457.558	7269.61
457.764	8158.42
457.97	8221.91
458.176	8641.75
458.381	8916.17
458.587	9084.11
458.793	9741.5
458.999	9417.93
459.204	10904.75
459.41	11033.77
459.616	11091.12
459.821	11867.3
460.027	12197.02
460.233	12713.11
460.438	12858.51
460.644	13407.37
460.85	13845.63
461.055	14218.36
461.261	14591.09
461.466	14623.86
461.672	14871.67
461.878	16628.82
462.083	16290.91
462.289	16632.92
462.494	17249.36
462.7	17556.55
462.905	17699.91
463.111	19143.73
463.316	20208.67
463.522	20657.18
463.727	21191.7
463.932	21955.59
464.138	22883.32
464.343	23671.79
464.549	23514.09
464.754	25588.69
464.959	26368.96
465.165	26506.18
465.37	26336.2
465.575	26614.72
465.781	28275.62
465.986	28894.11
466.191	28531.62
466.397	29049.75
466.602	28169.13
466.807	29772.69
467.012	30450.56
467.218	31239.03
467.423	31050.62
467.628	31834.99
467.833	33491.8
468.038	33172.32
468.244	32461.67
468.449	33913.68
468.654	33383.26
468.859	33096.54
469.064	33117.02
469.269	32422.76
469.474	32953.18
469.679	33647.44
