Data from USB4F104151__67__10-31-44-753.txt Node

Date: Wed Feb 26 10:31:44 EST 2025
User: louis
Spectrometer: USB4F10415
Trigger mode: 4
Integration Time (sec): 1.000000E-1
Scans to average: 1
Electric dark correction enabled: true
Nonlinearity correction enabled: false
Boxcar width: 0
XAxis mode: Wavelengths
Number of Pixels in Spectrum: 3648
>>>>>Begin Spectral Data<<<<<
178.204	-379.9
178.424	-379.9
178.644	-379.9
178.864	-424.95
179.084	-377.85
179.304	-9.22
179.524	33.79
179.744	-39.94
179.964	66.56
180.184	-35.84
180.404	-41.98
180.624	19.46
180.844	50.18
181.064	-33.79
181.283	39.94
181.503	-44.03
181.723	-5.12
181.943	-138.24
182.163	242.68
182.383	66.56
182.602	44.03
182.822	181.25
183.042	46.08
183.262	-23.55
183.482	-33.79
183.701	95.23
183.921	37.89
184.141	-56.32
184.361	68.61
184.58	80.89
184.8	64.51
185.02	37.89
185.239	209.92
185.459	93.18
185.679	185.34
185.898	-72.7
186.118	52.22
186.338	48.13
186.557	56.32
186.777	-56.32
186.997	44.03
187.216	56.32
187.436	171.01
187.655	5.12
187.875	146.43
188.095	54.27
188.314	164.86
188.534	146.43
188.753	-27.65
188.973	128
189.192	181.25
189.412	121.85
189.631	-13.31
189.851	99.33
190.07	113.66
190.29	-33.79
190.509	13.31
190.729	15.36
190.948	173.05
191.168	236.54
191.387	130.05
191.607	-35.84
191.826	-9.22
192.045	54.27
192.265	44.03
192.484	23.55
192.704	17.41
192.923	-74.75
193.142	209.92
193.362	76.8
193.581	128
193.8	74.75
194.02	54.27
194.239	29.7
194.458	62.46
194.678	66.56
194.897	11.26
195.116	37.89
195.335	105.47
195.555	23.55
195.774	23.55
195.993	111.61
196.212	46.08
196.432	19.46
196.651	-3.07
196.87	99.33
197.089	271.36
197.308	70.65
197.528	37.89
197.747	-17.41
197.966	13.31
198.185	191.49
198.404	50.18
198.623	119.81
198.842	111.61
199.062	52.22
199.281	164.86
199.5	91.13
199.719	41.98
199.938	142.33
200.157	19.46
200.376	52.22
200.595	119.81
200.814	119.81
201.033	-13.31
201.252	164.86
201.471	87.04
201.69	80.89
201.909	66.56
202.128	156.67
202.347	95.23
202.566	80.89
202.785	-56.32
203.004	-11.26
203.223	263.16
203.442	76.8
203.661	-29.7
203.879	111.61
204.098	117.76
204.317	5.12
204.536	109.57
204.755	128
204.974	52.22
205.193	5.12
205.411	152.57
205.63	119.81
205.849	48.13
206.068	62.46
206.287	66.56
206.505	111.61
206.724	3.07
206.943	-15.36
207.162	-23.55
207.381	41.98
207.599	25.6
207.818	23.55
208.037	-35.84
208.255	29.7
208.474	5.12
208.693	56.32
208.911	7.17
209.13	107.52
209.349	91.13
209.567	91.13
209.786	115.71
210.005	142.33
210.223	93.18
210.442	-60.42
210.661	9.22
210.879	74.75
211.098	82.94
211.316	-23.55
211.535	99.33
211.753	41.98
211.972	25.6
212.191	87.04
212.409	99.33
212.628	62.46
212.846	15.36
213.065	60.42
213.283	134.14
213.502	-1.02
213.72	37.89
213.938	64.51
214.157	5.12
214.375	123.9
214.594	15.36
214.812	111.61
215.031	1.02
215.249	76.8
215.467	15.36
215.686	41.98
215.904	64.51
216.122	44.03
216.341	205.82
216.559	154.62
216.778	164.86
216.996	175.1
217.214	7.17
217.432	25.6
217.651	-17.41
217.869	105.47
218.087	9.22
218.306	27.65
218.524	33.79
218.742	15.36
218.96	107.52
219.179	23.55
219.397	134.14
219.615	246.78
219.833	64.51
220.051	-13.31
220.27	134.14
220.488	50.18
220.706	78.85
220.924	-91.13
221.142	-11.26
221.36	93.18
221.578	193.53
221.796	21.5
222.015	76.8
222.233	70.65
222.451	150.53
222.669	9.22
222.887	95.23
223.105	-23.55
223.323	52.22
223.541	48.13
223.759	-11.26
223.977	74.75
224.195	140.29
224.413	91.13
224.631	41.98
224.849	37.89
225.067	240.64
225.285	93.18
225.503	-29.7
225.721	-58.37
225.939	87.04
226.157	78.85
226.375	236.54
226.592	-89.09
226.81	58.37
227.028	101.37
227.246	130.05
227.464	9.22
227.682	148.48
227.9	33.79
228.117	60.42
228.335	189.44
228.553	37.89
228.771	58.37
228.989	95.23
229.206	91.13
229.424	-13.31
229.642	50.18
229.86	-27.65
230.077	154.62
230.295	64.51
230.513	50.18
230.731	101.37
230.948	189.44
231.166	224.25
231.384	-39.94
231.601	7.17
231.819	207.87
232.037	21.5
232.254	11.26
232.472	74.75
232.689	-1.02
232.907	80.89
233.125	21.5
233.342	11.26
233.56	-54.27
233.777	21.5
233.995	74.75
234.213	115.71
234.43	78.85
234.648	41.98
234.865	5.12
235.083	109.57
235.3	58.37
235.518	136.19
235.735	123.9
235.953	99.33
236.17	62.46
236.388	54.27
236.605	93.18
236.822	103.42
237.04	154.62
237.257	-13.31
237.475	-7.17
237.692	111.61
237.909	74.75
238.127	1.02
238.344	87.04
238.562	31.74
238.779	17.41
238.996	-21.5
239.214	48.13
239.431	125.95
239.648	54.27
239.865	64.51
240.083	87.04
240.3	39.94
240.517	29.7
240.735	13.31
240.952	152.57
241.169	144.38
241.386	9.22
241.603	-17.41
241.821	23.55
242.038	87.04
242.255	97.28
242.472	-25.6
242.689	41.98
242.907	37.89
243.124	76.8
243.341	66.56
243.558	-27.65
243.775	-27.65
243.992	21.5
244.209	68.61
244.426	187.39
244.643	35.84
244.86	33.79
245.078	17.41
245.295	93.18
245.512	25.6
245.729	-21.5
245.946	91.13
246.163	37.89
246.38	23.55
246.597	78.85
246.814	64.51
247.031	103.42
247.248	9.22
247.464	107.52
247.681	74.75
247.898	72.7
248.115	72.7
248.332	25.6
248.549	183.29
248.766	175.1
248.983	46.08
249.2	72.7
249.417	142.33
249.633	48.13
249.85	115.71
250.067	31.74
250.284	64.51
250.501	3.07
250.717	105.47
250.934	50.18
251.151	-56.32
251.368	70.65
251.585	19.46
251.801	78.85
252.018	-29.7
252.235	128
252.451	3.07
252.668	-70.65
252.885	89.09
253.102	11.26
253.318	-9.22
253.535	82.94
253.752	17.41
253.968	23.55
254.185	-107.52
254.401	19.46
254.618	56.32
254.835	25.6
255.051	132.09
255.268	128
255.484	82.94
255.701	23.55
255.917	91.13
256.134	19.46
256.351	91.13
256.567	1.02
256.784	-13.31
257	-115.71
257.217	125.95
257.433	148.48
257.65	5.12
257.866	117.76
258.082	-46.08
258.299	-27.65
258.515	25.6
258.732	-7.17
258.948	-1.02
259.165	91.13
259.381	-78.85
259.597	125.95
259.814	87.04
260.03	58.37
260.246	-7.17
260.463	136.19
260.679	138.24
260.895	91.13
261.112	97.28
261.328	13.31
261.544	-7.17
261.761	185.34
261.977	-62.46
262.193	-27.65
262.409	107.52
262.626	-46.08
262.842	54.27
263.058	-41.98
263.274	46.08
263.49	48.13
263.707	97.28
263.923	48.13
264.139	-23.55
264.355	58.37
264.571	87.04
264.787	62.46
265.004	164.86
265.22	29.7
265.436	-11.26
265.652	1.02
265.868	121.85
266.084	-50.18
266.3	13.31
266.516	3.07
266.732	134.14
266.948	91.13
267.164	-9.22
267.38	138.24
267.596	66.56
267.812	222.2
268.028	29.7
268.244	-1.02
268.46	144.38
268.676	-13.31
268.892	21.5
269.108	-3.07
269.324	-9.22
269.54	-17.41
269.756	70.65
269.972	19.46
270.188	103.42
270.403	-19.46
270.619	70.65
270.835	41.98
271.051	74.75
271.267	58.37
271.483	-27.65
271.698	125.95
271.914	64.51
272.13	33.79
272.346	17.41
272.562	-13.31
272.777	148.48
272.993	-3.07
273.209	33.79
273.425	140.29
273.64	-31.74
273.856	74.75
274.072	9.22
274.287	31.74
274.503	136.19
274.719	68.61
274.934	54.27
275.15	9.22
275.366	68.61
275.581	19.46
275.797	15.36
276.012	89.09
276.228	15.36
276.444	-13.31
276.659	189.44
276.875	-19.46
277.09	15.36
277.306	52.22
277.521	148.48
277.737	68.61
277.952	150.53
278.168	39.94
278.383	64.51
278.599	87.04
278.814	87.04
279.03	74.75
279.245	189.44
279.461	99.33
279.676	74.75
279.892	-11.26
280.107	19.46
280.322	-68.61
280.538	125.95
280.753	46.08
280.969	3.07
281.184	74.75
281.399	158.72
281.615	31.74
281.83	101.37
282.045	-39.94
282.26	17.41
282.476	99.33
282.691	60.42
282.906	46.08
283.122	68.61
283.337	-33.79
283.552	66.56
283.767	1.02
283.983	140.29
284.198	70.65
284.413	101.37
284.628	-9.22
284.843	46.08
285.058	97.28
285.274	19.46
285.489	46.08
285.704	113.66
285.919	7.17
286.134	-62.46
286.349	125.95
286.564	11.26
286.779	99.33
286.995	7.17
287.21	-76.8
287.425	15.36
287.64	-27.65
287.855	76.8
288.07	-78.85
288.285	232.44
288.5	91.13
288.715	119.81
288.93	70.65
289.145	56.32
289.36	93.18
289.575	39.94
289.79	171.01
290.004	78.85
290.219	160.77
290.434	39.94
290.649	3.07
290.864	82.94
291.079	27.65
291.294	111.61
291.509	72.7
291.724	50.18
291.938	3.07
292.153	52.22
292.368	39.94
292.583	41.98
292.798	119.81
293.012	128
293.227	115.71
293.442	17.41
293.657	93.18
293.871	162.81
294.086	50.18
294.301	152.57
294.516	128
294.73	19.46
294.945	-3.07
295.16	1.02
295.374	103.42
295.589	113.66
295.804	11.26
296.018	109.57
296.233	111.61
296.447	39.94
296.662	31.74
296.877	80.89
297.091	23.55
297.306	-1.02
297.52	29.7
297.735	119.81
297.949	29.7
298.164	11.26
298.378	97.28
298.593	25.6
298.807	-11.26
299.022	46.08
299.236	138.24
299.451	-21.5
299.665	93.18
299.88	46.08
300.094	68.61
300.309	58.37
300.523	64.51
300.737	35.84
300.952	111.61
301.166	56.32
301.381	13.31
301.595	15.36
301.809	19.46
302.024	29.7
302.238	41.98
302.452	101.37
302.667	13.31
302.881	54.27
303.095	132.09
303.309	15.36
303.524	50.18
303.738	-3.07
303.952	66.56
304.166	50.18
304.381	-33.79
304.595	201.72
304.809	23.55
305.023	46.08
305.237	7.17
305.452	66.56
305.666	109.57
305.88	105.47
306.094	91.13
306.308	168.96
306.522	91.13
306.736	146.43
306.95	60.42
307.164	-17.41
307.379	23.55
307.593	136.19
307.807	31.74
308.021	21.5
308.235	93.18
308.449	1.02
308.663	27.65
308.877	238.59
309.091	105.47
309.305	25.6
309.519	-84.99
309.733	156.67
309.947	-74.75
310.161	41.98
310.374	136.19
310.588	74.75
310.802	21.5
311.016	48.13
311.23	82.94
311.444	-7.17
311.658	99.33
311.872	197.63
312.085	89.09
312.299	160.77
312.513	123.9
312.727	89.09
312.941	3.07
313.154	27.65
313.368	29.7
313.582	70.65
313.796	29.7
314.009	111.61
314.223	146.43
314.437	78.85
314.651	152.57
314.864	58.37
315.078	-11.26
315.292	-46.08
315.505	44.03
315.719	82.94
315.933	107.52
316.146	-44.03
316.36	9.22
316.573	146.43
316.787	64.51
317.001	60.42
317.214	-68.61
317.428	144.38
317.641	-97.28
317.855	21.5
318.068	48.13
318.282	48.13
318.495	238.59
318.709	115.71
318.922	44.03
319.136	119.81
319.349	111.61
319.563	25.6
319.776	74.75
319.99	-56.32
320.203	136.19
320.417	46.08
320.63	82.94
320.843	193.53
321.057	62.46
321.27	21.5
321.483	46.08
321.697	121.85
321.91	41.98
322.124	82.94
322.337	76.8
322.55	5.12
322.763	-3.07
322.977	93.18
323.19	1.02
323.403	68.61
323.617	78.85
323.83	87.04
324.043	41.98
324.256	56.32
324.469	-5.12
324.683	138.24
324.896	101.37
325.109	-25.6
325.322	-70.65
325.535	144.38
325.748	70.65
325.962	33.79
326.175	128
326.388	35.84
326.601	158.72
326.814	-37.89
327.027	25.6
327.24	119.81
327.453	-17.41
327.666	82.94
327.879	76.8
328.092	156.67
328.305	89.09
328.518	19.46
328.731	31.74
328.944	33.79
329.157	66.56
329.37	31.74
329.583	220.16
329.796	193.53
330.009	3.07
330.222	93.18
330.435	138.24
330.648	60.42
330.861	37.89
331.073	68.61
331.286	58.37
331.499	3.07
331.712	-11.26
331.925	15.36
332.138	25.6
332.35	168.96
332.563	-7.17
332.776	134.14
332.989	-52.22
333.202	74.75
333.414	50.18
333.627	50.18
333.84	19.46
334.053	74.75
334.265	37.89
334.478	56.32
334.691	17.41
334.903	107.52
335.116	15.36
335.329	-5.12
335.541	64.51
335.754	191.49
335.966	13.31
336.179	95.23
336.392	80.89
336.604	21.5
336.817	48.13
337.029	91.13
337.242	78.85
337.454	89.09
337.667	121.85
337.88	160.77
338.092	50.18
338.305	15.36
338.517	-50.18
338.729	134.14
338.942	156.67
339.154	-39.94
339.367	-19.46
339.579	101.37
339.792	54.27
340.004	121.85
340.217	-19.46
340.429	78.85
340.641	-25.6
340.854	13.31
341.066	60.42
341.278	103.42
341.491	205.82
341.703	11.26
341.915	19.46
342.128	87.04
342.34	101.37
342.552	-58.37
342.764	29.7
342.977	60.42
343.189	105.47
343.401	113.66
343.613	-9.22
343.826	-17.41
344.038	25.6
344.25	68.61
344.462	82.94
344.674	39.94
344.886	-11.26
345.099	29.7
345.311	132.09
345.523	7.17
345.735	-56.32
345.947	89.09
346.159	-39.94
346.371	146.43
346.583	31.74
346.795	277.5
347.007	13.31
347.219	95.23
347.431	103.42
347.643	142.33
347.855	-17.41
348.067	150.53
348.279	-91.13
348.491	37.89
348.703	128
348.915	58.37
349.127	48.13
349.339	41.98
349.551	-19.46
349.763	76.8
349.975	76.8
350.187	82.94
350.399	72.7
350.61	50.18
350.822	58.37
351.034	17.41
351.246	29.7
351.458	105.47
351.669	164.86
351.881	99.33
352.093	160.77
352.305	87.04
352.517	33.79
352.728	91.13
352.94	109.57
353.152	87.04
353.363	-9.22
353.575	21.5
353.787	144.38
353.999	168.96
354.21	150.53
354.422	17.41
354.633	39.94
354.845	50.18
355.057	33.79
355.268	134.14
355.48	111.61
355.692	39.94
355.903	-9.22
356.115	-93.18
356.326	-84.99
356.538	183.29
356.749	68.61
356.961	138.24
357.172	13.31
357.384	33.79
357.595	271.36
357.807	-29.7
358.018	62.46
358.23	87.04
358.441	197.63
358.653	89.09
358.864	15.36
359.075	15.36
359.287	21.5
359.498	64.51
359.709	78.85
359.921	-31.74
360.132	70.65
360.344	37.89
360.555	-27.65
360.766	146.43
360.977	72.7
361.189	130.05
361.4	52.22
361.611	156.67
361.823	70.65
362.034	15.36
362.245	5.12
362.456	78.85
362.667	103.42
362.879	15.36
363.09	48.13
363.301	101.37
363.512	76.8
363.723	29.7
363.935	64.51
364.146	82.94
364.357	17.41
364.568	70.65
364.779	-17.41
364.99	48.13
365.201	-15.36
365.412	68.61
365.623	-17.41
365.834	52.22
366.045	19.46
366.256	162.81
366.467	136.19
366.678	56.32
366.889	56.32
367.1	-19.46
367.311	54.27
367.522	-7.17
367.733	87.04
367.944	168.96
368.155	17.41
368.366	9.22
368.577	107.52
368.788	62.46
368.999	-25.6
369.209	68.61
369.42	209.92
369.631	211.96
369.842	3.07
370.053	80.89
370.264	117.76
370.474	70.65
370.685	48.13
370.896	39.94
371.107	148.48
371.317	74.75
371.528	29.7
371.739	211.96
371.95	109.57
372.16	68.61
372.371	11.26
372.582	11.26
372.792	52.22
373.003	105.47
373.214	64.51
373.424	103.42
373.635	-25.6
373.846	228.35
374.056	11.26
374.267	107.52
374.477	76.8
374.688	15.36
374.898	97.28
375.109	46.08
375.319	164.86
375.53	162.81
375.74	156.67
375.951	54.27
376.161	13.31
376.372	113.66
376.582	13.31
376.793	70.65
377.003	-29.7
377.214	76.8
377.424	136.19
377.635	74.75
377.845	21.5
378.055	142.33
378.266	80.89
378.476	48.13
378.686	80.89
378.897	80.89
379.107	109.57
379.317	130.05
379.528	52.22
379.738	117.76
379.948	-107.52
380.158	156.67
380.369	56.32
380.579	58.37
380.789	35.84
380.999	93.18
381.21	154.62
381.42	218.11
381.63	11.26
381.84	119.81
382.05	76.8
382.261	144.38
382.471	134.14
382.681	17.41
382.891	103.42
383.101	111.61
383.311	13.31
383.521	-70.65
383.731	50.18
383.941	56.32
384.151	70.65
384.361	50.18
384.571	78.85
384.781	48.13
384.991	281.6
385.201	183.29
385.411	142.33
385.621	52.22
385.831	68.61
386.041	62.46
386.251	58.37
386.461	177.15
386.671	37.89
386.881	87.04
387.091	48.13
387.301	177.15
387.511	15.36
387.72	64.51
387.93	87.04
388.14	-66.56
388.35	29.7
388.56	82.94
388.769	144.38
388.979	66.56
389.189	-7.17
389.399	68.61
389.609	107.52
389.818	84.99
390.028	101.37
390.238	138.24
390.447	-35.84
390.657	80.89
390.867	58.37
391.076	-13.31
391.286	25.6
391.496	48.13
391.705	58.37
391.915	84.99
392.125	125.95
392.334	-41.98
392.544	218.11
392.753	29.7
392.963	74.75
393.172	-7.17
393.382	25.6
393.591	164.86
393.801	123.9
394.01	128
394.22	103.42
394.429	48.13
394.639	33.79
394.848	162.81
395.058	58.37
395.267	117.76
395.477	113.66
395.686	91.13
395.895	267.26
396.105	232.44
396.314	-3.07
396.524	78.85
396.733	95.23
396.942	134.14
397.152	74.75
397.361	144.38
397.57	64.51
397.78	-11.26
397.989	111.61
398.198	240.64
398.407	140.29
398.617	41.98
398.826	70.65
399.035	50.18
399.244	87.04
399.453	84.99
399.663	91.13
399.872	35.84
400.081	17.41
400.29	140.29
400.499	84.99
400.708	144.38
400.917	33.79
401.127	41.98
401.336	44.03
401.545	238.59
401.754	121.85
401.963	168.96
402.172	-3.07
402.381	-3.07
402.59	87.04
402.799	93.18
403.008	179.2
403.217	154.62
403.426	123.9
403.635	-17.41
403.844	35.84
404.053	58.37
404.262	119.81
404.471	189.44
404.68	99.33
404.888	91.13
405.097	91.13
405.306	103.42
405.515	142.33
405.724	56.32
405.933	179.2
406.142	89.09
406.35	87.04
406.559	25.6
406.768	25.6
406.977	158.72
407.185	87.04
407.394	44.03
407.603	-7.17
407.812	41.98
408.02	44.03
408.229	-3.07
408.438	97.28
408.646	-13.31
408.855	105.47
409.064	103.42
409.272	31.74
409.481	164.86
409.69	-37.89
409.898	19.46
410.107	95.23
410.315	89.09
410.524	60.42
410.733	17.41
410.941	68.61
411.15	29.7
411.358	130.05
411.567	128
411.775	99.33
411.984	72.7
412.192	113.66
412.401	7.17
412.609	105.47
412.818	164.86
413.026	121.85
413.234	72.7
413.443	91.13
413.651	41.98
413.86	54.27
414.068	119.81
414.276	152.57
414.485	21.5
414.693	156.67
414.901	132.09
415.11	103.42
415.318	35.84
415.526	107.52
415.734	144.38
415.943	136.19
416.151	142.33
416.359	78.85
416.567	80.89
416.776	111.61
416.984	138.24
417.192	119.81
417.4	78.85
417.608	39.94
417.817	-105.47
418.025	107.52
418.233	193.53
418.441	13.31
418.649	39.94
418.857	95.23
419.065	191.49
419.273	89.09
419.481	142.33
419.689	105.47
419.897	54.27
420.105	-21.5
420.313	187.39
420.521	148.48
420.729	218.11
420.937	-3.07
421.145	-27.65
421.353	80.89
421.561	91.13
421.769	82.94
421.977	25.6
422.185	136.19
422.393	33.79
422.601	21.5
422.809	5.12
423.017	62.46
423.224	48.13
423.432	189.44
423.64	148.48
423.848	113.66
424.056	39.94
424.263	171.01
424.471	70.65
424.679	175.1
424.887	44.03
425.094	162.81
425.302	148.48
425.51	-9.22
425.718	164.86
425.925	128
426.133	66.56
426.341	275.45
426.548	52.22
426.756	87.04
426.964	123.9
427.171	52.22
427.379	193.53
427.586	109.57
427.794	80.89
428.001	177.15
428.209	140.29
428.417	199.68
428.624	152.57
428.832	113.66
429.039	123.9
429.247	142.33
429.454	91.13
429.662	171.01
429.869	177.15
430.076	187.39
430.284	183.29
430.491	203.77
430.699	171.01
430.906	254.97
431.114	171.01
431.321	173.05
431.528	144.38
431.736	150.53
431.943	199.68
432.15	207.87
432.358	248.83
432.565	304.12
432.772	35.84
432.979	230.4
433.187	201.72
433.394	244.73
433.601	158.72
433.808	281.6
434.016	273.4
434.223	359.42
434.43	300.03
434.637	257.02
434.844	357.37
435.052	246.78
435.259	293.88
435.466	275.45
435.673	193.53
435.88	326.65
436.087	377.85
436.294	369.66
436.501	320.51
436.708	328.7
436.915	410.62
437.122	308.22
437.329	297.98
437.537	379.9
437.743	355.32
437.95	480.25
438.157	365.56
438.364	394.23
438.571	367.61
438.778	492.54
438.985	461.82
439.192	523.26
439.399	531.45
439.606	510.97
439.813	527.35
440.02	701.43
440.227	783.35
440.433	596.98
440.64	529.4
440.847	582.65
441.054	748.53
441.261	736.24
441.467	701.43
441.674	699.38
441.881	766.96
442.088	662.52
442.294	809.97
442.501	861.17
442.708	818.16
442.914	848.88
443.121	922.61
443.328	951.28
443.534	992.24
443.741	936.95
443.948	965.62
444.154	992.24
444.361	1076.21
444.568	1135.6
444.774	1176.56
444.981	969.71
445.187	1309.68
445.394	1262.57
445.6	1135.6
445.807	1418.22
446.013	1512.42
446.22	1399.79
446.426	1467.37
446.633	1612.78
446.839	1788.9
447.046	1588.2
447.252	1766.37
447.459	1700.84
447.665	1737.7
447.871	1876.96
448.078	2120.67
448.284	1995.75
448.491	2135.01
448.697	2202.59
448.903	2239.45
449.11	2411.48
449.316	2413.53
449.522	2679.77
449.728	2724.82
449.935	2710.49
450.141	2735.06
450.347	2849.75
450.553	2935.76
450.76	2946
450.966	3245.01
451.172	3353.55
451.378	3464.14
451.584	3529.67
451.791	3681.22
451.997	3699.66
452.203	3914.69
452.409	3972.04
452.615	4195.26
452.821	4094.91
453.027	4322.24
453.233	4623.29
453.44	4512.7
453.646	4858.81
453.852	4905.91
454.058	5108.66
454.264	5354.41
454.47	5735.34
454.676	5577.64
454.882	6255.52
455.088	5954.47
455.294	6226.85
455.5	6650.78
455.705	6988.69
455.911	6941.59
456.117	7209.87
456.323	7310.22
456.529	7424.91
456.735	8113.03
456.941	8383.36
457.147	8641.4
457.352	8854.39
457.558	9161.59
457.764	9890.67
457.97	9911.14
458.176	10392.42
458.381	10883.93
458.587	11150.17
458.793	11649.87
458.999	11717.45
459.204	13181.75
459.41	13476.66
459.616	13417.27
459.821	14146.34
460.027	14799.65
460.233	15293.21
460.438	15500.05
460.644	16423.69
460.85	16311.05
461.055	17011.45
461.261	18279.15
461.466	17656.56
461.672	17916.65
461.878	19989.2
462.083	19653.33
462.289	20333.26
462.494	20957.89
462.7	21410.49
462.905	21373.63
463.111	23198.37
463.316	24351.37
463.522	24609.42
463.727	25279.1
463.932	26831.46
464.138	27288.16
464.343	28537.42
464.549	28727.88
464.754	30601.77
464.959	31269.41
465.165	32018.97
465.37	31636
465.575	31676.96
465.781	33835.52
465.986	35080.68
466.191	34521.59
466.397	35027.43
466.602	34028.02
466.807	35441.12
467.012	36274.65
467.218	36891.09
467.423	37038.54
467.628	38083
467.833	40067.48
468.038	39201.19
468.244	38418.87
468.449	40655.25
468.654	39627.17
468.859	39940.51
469.064	39946.65
