Data from USB4F104151__110__10-36-18-610.txt Node

Date: Wed Feb 26 10:36:18 EST 2025
User: louis
Spectrometer: USB4F10415
Trigger mode: 4
Integration Time (sec): 1.000000E-1
Scans to average: 1
Electric dark correction enabled: true
Nonlinearity correction enabled: false
Boxcar width: 0
XAxis mode: Wavelengths
Number of Pixels in Spectrum: 3648
>>>>>Begin Spectral Data<<<<<
178.204	-374.1
178.424	-374.1
178.644	-374.1
178.864	-351.57
179.084	-451.92
179.304	-68.95
179.524	4.78
179.744	21.16
179.964	76.46
180.184	43.69
180.404	-17.75
180.624	15.02
180.844	12.97
181.064	-105.81
181.283	12.97
181.503	-38.23
181.723	43.69
181.943	-73.04
182.163	225.96
182.383	23.21
182.602	82.6
182.822	170.66
183.042	111.27
183.262	4.78
183.482	23.21
183.701	-13.65
183.921	101.03
184.141	-5.46
184.361	55.98
184.58	150.18
184.8	37.55
185.02	-11.61
185.239	47.79
185.459	119.46
185.679	146.09
185.898	8.87
186.118	70.31
186.338	45.74
186.557	96.94
186.777	12.97
186.997	-3.41
187.216	131.75
187.436	242.34
187.655	105.13
187.875	168.62
188.095	49.83
188.314	141.99
188.534	117.42
188.753	0.68
188.973	156.33
189.192	133.8
189.412	39.59
189.631	8.87
189.851	43.69
190.07	94.89
190.29	15.02
190.509	37.55
190.729	31.4
190.948	230.06
191.168	225.96
191.387	109.22
191.607	-19.8
191.826	94.89
192.045	82.6
192.265	29.35
192.484	70.31
192.704	4.78
192.923	-17.75
193.142	201.38
193.362	176.81
193.581	195.24
193.8	88.75
194.02	168.62
194.239	76.46
194.458	131.75
194.678	64.17
194.897	-15.7
195.116	29.35
195.335	19.11
195.555	35.5
195.774	51.88
195.993	137.9
196.212	19.11
196.432	-5.46
196.651	15.02
196.87	51.88
197.089	273.06
197.308	39.59
197.528	98.99
197.747	27.31
197.966	-42.32
198.185	117.42
198.404	8.87
198.623	111.27
198.842	37.55
199.062	117.42
199.281	139.94
199.5	37.55
199.719	33.45
199.938	51.88
200.157	88.75
200.376	88.75
200.595	164.52
200.814	72.36
201.033	-40.28
201.252	199.34
201.471	103.08
201.69	68.27
201.909	0.68
202.128	90.79
202.347	68.27
202.566	0.68
202.785	-17.75
203.004	47.79
203.223	238.25
203.442	111.27
203.661	35.5
203.879	47.79
204.098	201.38
204.317	12.97
204.536	70.31
204.755	127.66
204.974	105.13
205.193	10.92
205.411	193.19
205.63	160.42
205.849	66.22
206.068	25.26
206.287	-9.56
206.505	205.48
206.724	39.59
206.943	19.11
207.162	-60.76
207.381	139.94
207.599	17.07
207.818	-17.75
208.037	8.87
208.255	82.6
208.474	27.31
208.693	21.16
208.911	4.78
209.13	90.79
209.349	43.69
209.567	131.75
209.786	127.66
210.005	156.33
210.223	19.11
210.442	-3.41
210.661	-36.18
210.879	45.74
211.098	94.89
211.316	129.7
211.535	60.07
211.753	-9.56
211.972	131.75
212.191	62.12
212.409	98.99
212.628	158.38
212.846	8.87
213.065	86.7
213.283	125.61
213.502	96.94
213.72	88.75
213.938	103.08
214.157	-1.37
214.375	47.79
214.594	-27.99
214.812	90.79
215.031	-40.28
215.249	78.51
215.467	47.79
215.686	-3.41
215.904	35.5
216.122	-5.46
216.341	144.04
216.559	127.66
216.778	111.27
216.996	131.75
217.214	27.31
217.432	74.41
217.651	-34.13
217.869	27.31
218.087	94.89
218.306	-11.61
218.524	101.03
218.742	70.31
218.96	94.89
219.179	-11.61
219.397	29.35
219.615	254.63
219.833	141.99
220.051	6.83
220.27	215.72
220.488	148.14
220.706	105.13
220.924	-54.61
221.142	58.03
221.36	90.79
221.578	96.94
221.796	43.69
222.015	-9.56
222.233	37.55
222.451	215.72
222.669	0.68
222.887	88.75
223.105	64.17
223.323	-27.99
223.541	-34.13
223.759	78.51
223.977	17.07
224.195	154.28
224.413	205.48
224.631	58.03
224.849	53.93
225.067	287.4
225.285	41.64
225.503	86.7
225.721	-34.13
225.939	103.08
226.157	37.55
226.375	209.58
226.592	-27.99
226.81	92.84
227.028	113.32
227.246	154.28
227.464	8.87
227.682	139.94
227.9	82.6
228.117	115.37
228.335	135.85
228.553	55.98
228.771	117.42
228.989	70.31
229.206	68.27
229.424	41.64
229.642	-9.56
229.86	-34.13
230.077	144.04
230.295	8.87
230.513	86.7
230.731	131.75
230.948	176.81
231.166	182.95
231.384	37.55
231.601	-44.37
231.819	250.53
232.037	-27.99
232.254	39.59
232.472	39.59
232.689	25.26
232.907	189.1
233.125	29.35
233.342	19.11
233.56	55.98
233.777	-21.85
233.995	43.69
234.213	119.46
234.43	84.65
234.648	58.03
234.865	-75.09
235.083	17.07
235.3	33.45
235.518	146.09
235.735	117.42
235.953	92.84
236.17	84.65
236.388	0.68
236.605	8.87
236.822	33.45
237.04	139.94
237.257	62.12
237.475	49.83
237.692	60.07
237.909	88.75
238.127	29.35
238.344	105.13
238.562	133.8
238.779	8.87
238.996	-46.42
239.214	82.6
239.431	37.55
239.648	39.59
239.865	146.09
240.083	66.22
240.3	15.02
240.517	21.16
240.735	27.31
240.952	170.66
241.169	88.75
241.386	168.62
241.603	51.88
241.821	-27.99
242.038	64.17
242.255	119.46
242.472	17.07
242.689	107.18
242.907	53.93
243.124	94.89
243.341	23.21
243.558	-1.37
243.775	-95.57
243.992	-50.52
244.209	103.08
244.426	195.24
244.643	94.89
244.86	51.88
245.078	109.22
245.295	72.36
245.512	17.07
245.729	51.88
245.946	35.5
246.163	53.93
246.38	-36.18
246.597	41.64
246.814	58.03
247.031	33.45
247.248	58.03
247.464	135.85
247.681	78.51
247.898	144.04
248.115	103.08
248.332	-7.51
248.549	123.56
248.766	152.23
248.983	74.41
249.2	160.42
249.417	174.76
249.633	19.11
249.85	58.03
250.067	25.26
250.284	135.85
250.501	96.94
250.717	139.94
250.934	-32.08
251.151	10.92
251.368	148.14
251.585	-1.37
251.801	137.9
252.018	12.97
252.235	123.56
252.451	-40.28
252.668	49.83
252.885	148.14
253.102	150.18
253.318	58.03
253.535	29.35
253.752	21.16
253.968	-15.7
254.185	-32.08
254.401	70.31
254.618	74.41
254.835	53.93
255.051	137.9
255.268	31.4
255.484	115.37
255.701	68.27
255.917	111.27
256.134	-89.43
256.351	-9.56
256.567	47.79
256.784	60.07
257	-52.56
257.217	139.94
257.433	127.66
257.65	119.46
257.866	158.38
258.082	-23.89
258.299	12.97
258.515	60.07
258.732	49.83
258.948	92.84
259.165	68.27
259.381	2.73
259.597	74.41
259.814	35.5
260.03	64.17
260.246	66.22
260.463	154.28
260.679	127.66
260.895	129.7
261.112	78.51
261.328	19.11
261.544	-44.37
261.761	176.81
261.977	10.92
262.193	-23.89
262.409	92.84
262.626	37.55
262.842	-32.08
263.058	70.31
263.274	103.08
263.49	8.87
263.707	111.27
263.923	131.75
264.139	-38.23
264.355	17.07
264.571	211.62
264.787	47.79
265.004	115.37
265.22	109.22
265.436	68.27
265.652	6.83
265.868	80.55
266.084	41.64
266.3	58.03
266.516	-46.42
266.732	90.79
266.948	35.5
267.164	33.45
267.38	109.22
267.596	107.18
267.812	150.18
268.028	15.02
268.244	35.5
268.46	92.84
268.676	103.08
268.892	88.75
269.108	8.87
269.324	-21.85
269.54	-66.9
269.756	84.65
269.972	135.85
270.188	53.93
270.403	-56.66
270.619	2.73
270.835	152.23
271.051	27.31
271.267	98.99
271.483	-42.32
271.698	80.55
271.914	53.93
272.13	21.16
272.346	25.26
272.562	17.07
272.777	129.7
272.993	76.46
273.209	10.92
273.425	74.41
273.64	-32.08
273.856	148.14
274.072	-38.23
274.287	4.78
274.503	166.57
274.719	135.85
274.934	29.35
275.15	-71
275.366	-36.18
275.581	0.68
275.797	-21.85
276.012	15.02
276.228	37.55
276.444	86.7
276.659	76.46
276.875	12.97
277.09	41.64
277.306	21.16
277.521	39.59
277.737	6.83
277.952	105.13
278.168	90.79
278.383	19.11
278.599	60.07
278.814	158.38
279.03	47.79
279.245	74.41
279.461	4.78
279.676	160.42
279.892	37.55
280.107	-27.99
280.322	-9.56
280.538	15.02
280.753	-21.85
280.969	90.79
281.184	58.03
281.399	160.42
281.615	103.08
281.83	80.55
282.045	-13.65
282.26	-7.51
282.476	111.27
282.691	156.33
282.906	8.87
283.122	-5.46
283.337	39.59
283.552	68.27
283.767	41.64
283.983	127.66
284.198	-3.41
284.413	23.21
284.628	-79.19
284.843	-9.56
285.058	98.99
285.274	-34.13
285.489	62.12
285.704	105.13
285.919	121.51
286.134	4.78
286.349	96.94
286.564	23.21
286.779	180.9
286.995	29.35
287.21	-107.86
287.425	41.64
287.64	51.88
287.855	53.93
288.07	-68.95
288.285	98.99
288.5	127.66
288.715	2.73
288.93	72.36
289.145	-71
289.36	94.89
289.575	-38.23
289.79	39.59
290.004	-50.52
290.219	123.56
290.434	-19.8
290.649	17.07
290.864	86.7
291.079	39.59
291.294	152.23
291.509	127.66
291.724	-36.18
291.938	-7.51
292.153	182.95
292.368	43.69
292.583	92.84
292.798	-21.85
293.012	0.68
293.227	68.27
293.442	53.93
293.657	23.21
293.871	115.37
294.086	84.65
294.301	199.34
294.516	148.14
294.73	70.31
294.945	4.78
295.16	80.55
295.374	86.7
295.589	103.08
295.804	92.84
296.018	121.51
296.233	160.42
296.447	174.76
296.662	4.78
296.877	78.51
297.091	84.65
297.306	66.22
297.52	82.6
297.735	107.18
297.949	109.22
298.164	43.69
298.378	156.33
298.593	72.36
298.807	6.83
299.022	103.08
299.236	217.77
299.451	86.7
299.665	23.21
299.88	98.99
300.094	72.36
300.309	51.88
300.523	70.31
300.737	-21.85
300.952	58.03
301.166	129.7
301.381	37.55
301.595	27.31
301.809	117.42
302.024	17.07
302.238	-15.7
302.452	119.46
302.667	12.97
302.881	154.28
303.095	76.46
303.309	53.93
303.524	19.11
303.738	12.97
303.952	103.08
304.166	103.08
304.381	-73.04
304.595	228.01
304.809	23.21
305.023	76.46
305.237	6.83
305.452	23.21
305.666	53.93
305.88	115.37
306.094	164.52
306.308	123.56
306.522	158.38
306.736	152.23
306.95	-9.56
307.164	111.27
307.379	8.87
307.593	123.56
307.807	148.14
308.021	90.79
308.235	168.62
308.449	-25.94
308.663	6.83
308.877	215.72
309.091	41.64
309.305	45.74
309.519	-40.28
309.733	96.94
309.947	-58.71
310.161	113.32
310.374	197.29
310.588	125.61
310.802	-3.41
311.016	4.78
311.23	107.18
311.444	10.92
311.658	96.94
311.872	101.03
312.085	217.77
312.299	166.57
312.513	88.75
312.727	47.79
312.941	-11.61
313.154	43.69
313.368	33.45
313.582	51.88
313.796	105.13
314.009	49.83
314.223	90.79
314.437	33.45
314.651	131.75
314.864	53.93
315.078	90.79
315.292	-36.18
315.505	8.87
315.719	60.07
315.933	88.75
316.146	4.78
316.36	-25.94
316.573	125.61
316.787	96.94
317.001	70.31
317.214	15.02
317.428	-23.89
317.641	2.73
317.855	58.03
318.068	78.51
318.282	64.17
318.495	164.52
318.709	72.36
318.922	15.02
319.136	78.51
319.349	113.32
319.563	-36.18
319.776	84.65
319.99	-62.8
320.203	47.79
320.417	4.78
320.63	121.51
320.843	230.06
321.057	127.66
321.27	19.11
321.483	47.79
321.697	135.85
321.91	119.46
322.124	25.26
322.337	117.42
322.55	33.45
322.763	131.75
322.977	60.07
323.19	6.83
323.403	76.46
323.617	74.41
323.83	103.08
324.043	146.09
324.256	135.85
324.469	-58.71
324.683	164.52
324.896	21.16
325.109	70.31
325.322	-105.81
325.535	199.34
325.748	94.89
325.962	78.51
326.175	47.79
326.388	53.93
326.601	182.95
326.814	-1.37
327.027	17.07
327.24	164.52
327.453	-52.56
327.666	82.6
327.879	172.71
328.092	125.61
328.305	45.74
328.518	15.02
328.731	111.27
328.944	51.88
329.157	66.22
329.37	86.7
329.583	211.62
329.796	152.23
330.009	17.07
330.222	53.93
330.435	174.76
330.648	78.51
330.861	-9.56
331.073	78.51
331.286	70.31
331.499	39.59
331.712	6.83
331.925	23.21
332.138	70.31
332.35	133.8
332.563	29.35
332.776	133.8
332.989	-21.85
333.202	60.07
333.414	90.79
333.627	103.08
333.84	41.64
334.053	66.22
334.265	-64.85
334.478	72.36
334.691	55.98
334.903	17.07
335.116	-17.75
335.329	58.03
335.541	37.55
335.754	129.7
335.966	-56.66
336.179	35.5
336.392	41.64
336.604	82.6
336.817	70.31
337.029	86.7
337.242	43.69
337.454	51.88
337.667	107.18
337.88	176.81
338.092	47.79
338.305	117.42
338.517	29.35
338.729	68.27
338.942	113.32
339.154	-21.85
339.367	-34.13
339.579	60.07
339.792	64.17
340.004	125.61
340.217	23.21
340.429	37.55
340.641	-48.47
340.854	15.02
341.066	98.99
341.278	123.56
341.491	248.49
341.703	74.41
341.915	60.07
342.128	72.36
342.34	139.94
342.552	27.31
342.764	84.65
342.977	-60.76
343.189	47.79
343.401	119.46
343.613	-15.7
343.826	0.68
344.038	55.98
344.25	113.32
344.462	76.46
344.674	94.89
344.886	35.5
345.099	90.79
345.311	125.61
345.523	-15.7
345.735	-13.65
345.947	129.7
346.159	94.89
346.371	49.83
346.583	84.65
346.795	176.81
347.007	103.08
347.219	98.99
347.431	0.68
347.643	58.03
347.855	10.92
348.067	144.04
348.279	-60.76
348.491	19.11
348.703	109.22
348.915	72.36
349.127	-25.94
349.339	109.22
349.551	45.74
349.763	115.37
349.975	68.27
350.187	84.65
350.399	162.47
350.61	113.32
350.822	53.93
351.034	109.22
351.246	125.61
351.458	82.6
351.669	35.5
351.881	219.82
352.093	131.75
352.305	70.31
352.517	64.17
352.728	135.85
352.94	80.55
353.152	123.56
353.363	47.79
353.575	82.6
353.787	166.57
353.999	101.03
354.21	193.19
354.422	-11.61
354.633	21.16
354.845	141.99
355.057	51.88
355.268	121.51
355.48	144.04
355.692	-44.37
355.903	129.7
356.115	-25.94
356.326	2.73
356.538	144.04
356.749	101.03
356.961	160.42
357.172	82.6
357.384	23.21
357.595	209.58
357.807	64.17
358.018	31.4
358.23	117.42
358.441	240.29
358.653	125.61
358.864	80.55
359.075	51.88
359.287	113.32
359.498	101.03
359.709	92.84
359.921	10.92
360.132	90.79
360.344	76.46
360.555	53.93
360.766	94.89
360.977	23.21
361.189	137.9
361.4	55.98
361.611	55.98
361.823	211.62
362.034	49.83
362.245	-44.37
362.456	125.61
362.667	80.55
362.879	-42.32
363.09	51.88
363.301	78.51
363.512	51.88
363.723	-15.7
363.935	60.07
364.146	103.08
364.357	2.73
364.568	72.36
364.779	-60.76
364.99	172.71
365.201	10.92
365.412	55.98
365.623	-103.76
365.834	55.98
366.045	29.35
366.256	133.8
366.467	154.28
366.678	98.99
366.889	105.13
367.1	53.93
367.311	113.32
367.522	43.69
367.733	154.28
367.944	180.9
368.155	105.13
368.366	101.03
368.577	172.71
368.788	109.22
368.999	-32.08
369.209	74.41
369.42	217.77
369.631	273.06
369.842	78.51
370.053	60.07
370.264	76.46
370.474	27.31
370.685	2.73
370.896	107.18
371.107	84.65
371.317	78.51
371.528	80.55
371.739	113.32
371.95	88.75
372.16	82.6
372.371	19.11
372.582	-1.37
372.792	68.27
373.003	80.55
373.214	195.24
373.424	111.27
373.635	43.69
373.846	182.95
374.056	62.12
374.267	86.7
374.477	111.27
374.688	4.78
374.898	74.41
375.109	74.41
375.319	107.18
375.53	60.07
375.74	131.75
375.951	35.5
376.161	90.79
376.372	88.75
376.582	113.32
376.793	141.99
377.003	29.35
377.214	-9.56
377.424	144.04
377.635	66.22
377.845	-81.24
378.055	109.22
378.266	45.74
378.476	58.03
378.686	152.23
378.897	70.31
379.107	107.18
379.317	103.08
379.528	-9.56
379.738	107.18
379.948	49.83
380.158	152.23
380.369	109.22
380.579	107.18
380.789	31.4
380.999	111.27
381.21	113.32
381.42	254.63
381.63	92.84
381.84	121.51
382.05	185
382.261	98.99
382.471	148.14
382.681	-27.99
382.891	197.29
383.101	-5.46
383.311	-15.7
383.521	31.4
383.731	111.27
383.941	133.8
384.151	41.64
384.361	86.7
384.571	98.99
384.781	92.84
384.991	178.86
385.201	189.1
385.411	144.04
385.621	107.18
385.831	154.28
386.041	6.83
386.251	33.45
386.461	207.53
386.671	74.41
386.881	0.68
387.091	80.55
387.301	135.85
387.511	86.7
387.72	129.7
387.93	203.43
388.14	-19.8
388.35	117.42
388.56	135.85
388.769	170.66
388.979	37.55
389.189	-7.51
389.399	37.55
389.609	31.4
389.818	137.9
390.028	37.55
390.238	49.83
390.447	19.11
390.657	129.7
390.867	111.27
391.076	-40.28
391.286	176.81
391.496	-36.18
391.705	125.61
391.915	160.42
392.125	103.08
392.334	27.31
392.544	191.14
392.753	125.61
392.963	23.21
393.172	-13.65
393.382	25.26
393.591	225.96
393.801	51.88
394.01	213.67
394.22	86.7
394.429	-1.37
394.639	19.11
394.848	45.74
395.058	92.84
395.267	84.65
395.477	180.9
395.686	41.64
395.895	207.53
396.105	166.57
396.314	66.22
396.524	33.45
396.733	123.56
396.942	168.62
397.152	131.75
397.361	92.84
397.57	58.03
397.78	135.85
397.989	70.31
398.198	197.29
398.407	4.78
398.617	35.5
398.826	66.22
399.035	92.84
399.244	170.66
399.453	131.75
399.663	62.12
399.872	92.84
400.081	55.98
400.29	111.27
400.499	27.31
400.708	137.9
400.917	84.65
401.127	80.55
401.336	84.65
401.545	185
401.754	146.09
401.963	148.14
402.172	-34.13
402.381	-48.47
402.59	66.22
402.799	37.55
403.008	150.18
403.217	133.8
403.426	156.33
403.635	-11.61
403.844	-11.61
404.053	27.31
404.262	55.98
404.471	162.47
404.68	72.36
404.888	139.94
405.097	58.03
405.306	86.7
405.515	137.9
405.724	27.31
405.933	80.55
406.142	154.28
406.35	101.03
406.559	35.5
406.768	88.75
406.977	139.94
407.185	111.27
407.394	68.27
407.603	33.45
407.812	115.37
408.02	141.99
408.229	-15.7
408.438	139.94
408.646	-21.85
408.855	6.83
409.064	25.26
409.272	98.99
409.481	107.18
409.69	49.83
409.898	21.16
410.107	76.46
410.315	141.99
410.524	-40.28
410.733	35.5
410.941	84.65
411.15	105.13
411.358	90.79
411.567	195.24
411.775	35.5
411.984	129.7
412.192	115.37
412.401	55.98
412.609	193.19
412.818	101.03
413.026	174.76
413.234	8.87
413.443	29.35
413.651	8.87
413.86	62.12
414.068	164.52
414.276	195.24
414.485	103.08
414.693	201.38
414.901	217.77
415.11	82.6
415.318	23.21
415.526	86.7
415.734	94.89
415.943	121.51
416.151	144.04
416.359	78.51
416.567	168.62
416.776	98.99
416.984	103.08
417.192	162.47
417.4	15.02
417.608	41.64
417.817	4.78
418.025	94.89
418.233	197.29
418.441	17.07
418.649	-15.7
418.857	92.84
419.065	119.46
419.273	49.83
419.481	127.66
419.689	80.55
419.897	35.5
420.105	4.78
420.313	150.18
420.521	172.71
420.729	174.76
420.937	10.92
421.145	72.36
421.353	139.94
421.561	228.01
421.769	86.7
421.977	78.51
422.185	195.24
422.393	21.16
422.601	180.9
422.809	88.75
423.017	47.79
423.224	84.65
423.432	127.66
423.64	53.93
423.848	176.81
424.056	72.36
424.263	68.27
424.471	66.22
424.679	180.9
424.887	51.88
425.094	135.85
425.302	94.89
425.51	33.45
425.718	141.99
425.925	90.79
426.133	76.46
426.341	215.72
426.548	90.79
426.756	49.83
426.964	137.9
427.171	64.17
427.379	123.56
427.586	92.84
427.794	117.42
428.001	141.99
428.209	60.07
428.417	187.05
428.624	158.38
428.832	152.23
429.039	176.81
429.247	88.75
429.454	150.18
429.662	187.05
429.869	135.85
430.076	211.62
430.284	117.42
430.491	268.97
430.699	176.81
430.906	256.68
431.114	103.08
431.321	193.19
431.528	94.89
431.736	168.62
431.943	139.94
432.15	164.52
432.358	199.34
432.565	299.69
432.772	82.6
432.979	258.73
433.187	123.56
433.394	285.35
433.601	223.91
433.808	264.87
434.016	285.35
434.223	303.78
434.43	219.82
434.637	307.88
434.844	344.74
435.052	225.96
435.259	221.86
435.466	336.55
435.673	264.87
435.88	283.3
436.087	410.28
436.294	371.37
436.501	354.98
436.708	295.59
436.915	408.23
437.122	344.74
437.329	291.49
437.537	451.24
437.743	295.59
437.95	463.52
438.157	436.9
438.364	369.32
438.571	484
438.778	414.37
438.985	510.63
439.192	506.53
439.399	588.45
439.606	527.01
439.813	658.08
440.02	537.25
440.227	785.05
440.433	592.55
440.64	680.61
440.847	592.55
441.054	647.84
441.261	813.73
441.467	684.7
441.674	610.98
441.881	762.53
442.088	735.9
442.294	735.9
442.501	770.72
442.708	942.75
442.914	840.35
443.121	914.08
443.328	946.84
443.534	1067.67
443.741	996
443.948	934.56
444.154	1129.11
444.361	1327.77
444.568	1096.35
444.774	1137.31
444.981	1055.39
445.187	1282.71
445.394	1297.05
445.6	1321.62
445.807	1471.12
446.013	1374.87
446.22	1393.3
446.426	1417.88
446.633	1637.01
446.839	1858.19
447.046	1540.76
447.252	1819.28
447.459	1716.88
447.665	1901.2
447.871	2007.69
448.078	2153.1
448.284	2056.84
448.491	2232.97
448.697	2368.13
448.903	2468.48
449.11	2466.44
449.316	2306.7
449.522	2589.32
449.728	2579.08
449.935	2777.73
450.141	2689.67
450.347	2953.85
450.553	2984.57
450.76	3003
450.966	3015.29
451.172	3146.36
451.378	3379.83
451.584	3691.12
451.791	3717.75
451.997	4000.37
452.203	3963.5
452.409	4192.87
452.615	4301.42
452.821	4178.54
453.027	4055.66
453.233	4751.97
453.44	4567.65
453.646	4926.05
453.852	5077.6
454.058	5421.66
454.264	5374.55
454.47	5755.47
454.676	5800.53
454.882	6212.17
455.088	6054.48
455.294	6400.58
455.5	6730.31
455.705	7160.38
455.911	7230.01
456.117	7238.2
456.323	7512.63
456.529	7789.11
456.735	8131.12
456.941	8436.27
457.147	9116.19
457.352	8995.36
457.558	9179.68
457.764	9929.24
457.97	10252.81
458.176	10367.5
458.381	11244.03
458.587	11328
458.793	12022.26
458.999	11762.17
459.204	13259.23
459.41	13687.26
459.616	13660.63
459.821	14428.62
460.027	15147.46
460.233	15552.96
460.438	15698.36
460.644	16744.88
460.85	17064.36
461.055	17547.68
461.261	18237.84
461.466	17912.22
461.672	18205.08
461.878	20623.73
462.083	20287.86
462.289	20722.03
462.494	21395.81
462.7	21717.34
462.905	22118.75
463.111	23718.21
463.316	24824.11
463.522	25073.96
463.727	26040.61
463.932	27142.41
464.138	27953.41
464.343	29061.36
464.549	29243.63
464.754	31678.66
464.959	32489.66
465.165	32843.96
465.37	32547
465.575	32610.49
465.781	34676.89
465.986	35639.43
466.191	35354.77
466.397	35633.29
466.602	34576.54
466.807	36325.5
467.012	37640.3
467.218	38002.79
467.423	38373.47
467.628	39313.49
467.833	41105.46
468.038	40560.7
468.244	39776.33
