Data from USB4F104151__75__10-33-04-444.txt Node

Date: Wed Feb 26 10:33:04 EST 2025
User: louis
Spectrometer: USB4F10415
Trigger mode: 4
Integration Time (sec): 1.000000E-1
Scans to average: 1
Electric dark correction enabled: true
Nonlinearity correction enabled: false
Boxcar width: 0
XAxis mode: Wavelengths
Number of Pixels in Spectrum: 3648
>>>>>Begin Spectral Data<<<<<
178.204	-417.79
178.424	-417.79
178.644	-417.79
178.864	-389.11
179.084	-428.03
179.304	61.44
179.524	-104.45
179.744	-2.05
179.964	12.29
180.184	57.34
180.404	20.48
180.624	-38.91
180.844	36.86
181.064	-75.77
181.283	-8.19
181.503	6.14
181.723	34.82
181.943	-75.77
182.163	182.27
182.383	12.29
182.602	73.73
182.822	151.55
183.042	47.1
183.262	-18.43
183.482	57.34
183.701	59.39
183.921	55.3
184.141	-122.88
184.361	139.26
184.58	77.82
184.8	157.69
185.02	-38.91
185.239	155.65
185.459	88.06
185.679	96.25
185.898	-30.72
186.118	83.97
186.338	108.54
186.557	94.21
186.777	-59.39
186.997	47.1
187.216	26.62
187.436	163.84
187.655	10.24
187.875	67.58
188.095	77.82
188.314	108.54
188.534	153.6
188.753	24.58
188.973	77.82
189.192	174.08
189.412	73.73
189.631	40.96
189.851	98.3
190.07	186.37
190.29	4.1
190.509	-24.58
190.729	108.54
190.948	167.93
191.168	192.51
191.387	110.59
191.607	-16.38
191.826	116.73
192.045	6.14
192.265	63.49
192.484	59.39
192.704	61.44
192.923	-45.06
193.142	174.08
193.362	133.12
193.581	145.41
193.8	108.54
194.02	139.26
194.239	100.35
194.458	135.17
194.678	73.73
194.897	18.43
195.116	159.74
195.335	77.82
195.555	124.93
195.774	47.1
195.993	75.77
196.212	69.63
196.432	16.38
196.651	36.86
196.87	55.3
197.089	227.32
197.308	73.73
197.528	34.82
197.747	-22.53
197.966	34.82
198.185	174.08
198.404	-20.48
198.623	192.51
198.842	124.93
199.062	126.97
199.281	61.44
199.5	22.53
199.719	98.3
199.938	106.49
200.157	77.82
200.376	151.55
200.595	112.64
200.814	108.54
201.033	108.54
201.252	223.23
201.471	124.93
201.69	6.14
201.909	141.31
202.128	118.78
202.347	131.07
202.566	47.1
202.785	-2.05
203.004	51.2
203.223	288.76
203.442	71.68
203.661	16.38
203.879	102.4
204.098	184.32
204.317	-18.43
204.536	116.73
204.755	71.68
204.974	149.5
205.193	22.53
205.411	149.5
205.63	104.45
205.849	22.53
206.068	96.25
206.287	-32.77
206.505	110.59
206.724	59.39
206.943	8.19
207.162	53.25
207.381	63.49
207.599	22.53
207.818	63.49
208.037	-34.82
208.255	30.72
208.474	92.16
208.693	53.25
208.911	6.14
209.13	133.12
209.349	83.97
209.567	92.16
209.786	108.54
210.005	190.46
210.223	51.2
210.442	-53.25
210.661	-24.58
210.879	77.82
211.098	139.26
211.316	20.48
211.535	65.54
211.753	112.64
211.972	96.25
212.191	16.38
212.409	30.72
212.628	75.77
212.846	98.3
213.065	26.62
213.283	139.26
213.502	153.6
213.72	22.53
213.938	77.82
214.157	51.2
214.375	114.69
214.594	102.4
214.812	137.21
215.031	-4.1
215.249	61.44
215.467	20.48
215.686	71.68
215.904	53.25
216.122	137.21
216.341	169.98
216.559	43.01
216.778	98.3
216.996	114.69
217.214	47.1
217.432	55.3
217.651	-14.34
217.869	69.63
218.087	38.91
218.306	6.14
218.524	61.44
218.742	-22.53
218.96	153.6
219.179	47.1
219.397	-14.34
219.615	239.61
219.833	161.79
220.051	-30.72
220.27	208.89
220.488	116.73
220.706	49.15
220.924	14.34
221.142	-6.14
221.36	63.49
221.578	122.88
221.796	36.86
222.015	65.54
222.233	83.97
222.451	208.89
222.669	-8.19
222.887	116.73
223.105	-14.34
223.323	57.34
223.541	4.1
223.759	157.69
223.977	47.1
224.195	167.93
224.413	65.54
224.631	96.25
224.849	71.68
225.067	227.32
225.285	8.19
225.503	45.06
225.721	-133.12
225.939	26.62
226.157	34.82
226.375	262.14
226.592	47.1
226.81	63.49
227.028	141.31
227.246	159.74
227.464	96.25
227.682	49.15
227.9	174.08
228.117	18.43
228.335	22.53
228.553	57.34
228.771	65.54
228.989	34.82
229.206	83.97
229.424	100.35
229.642	28.67
229.86	-12.29
230.077	163.84
230.295	20.48
230.513	137.21
230.731	96.25
230.948	219.13
231.166	165.89
231.384	-55.3
231.601	-63.49
231.819	221.18
232.037	-14.34
232.254	-24.58
232.472	49.15
232.689	43.01
232.907	98.3
233.125	59.39
233.342	-2.05
233.56	20.48
233.777	73.73
233.995	73.73
234.213	135.17
234.43	26.62
234.648	30.72
234.865	51.2
235.083	184.32
235.3	61.44
235.518	145.41
235.735	231.42
235.953	100.35
236.17	108.54
236.388	43.01
236.605	49.15
236.822	96.25
237.04	34.82
237.257	106.49
237.475	-65.53
237.692	55.3
237.909	75.77
238.127	36.86
238.344	45.06
238.562	83.97
238.779	-32.77
238.996	-40.96
239.214	-12.29
239.431	75.77
239.648	63.49
239.865	100.35
240.083	40.96
240.3	47.1
240.517	55.3
240.735	69.63
240.952	114.69
241.169	110.59
241.386	59.39
241.603	18.43
241.821	-55.3
242.038	38.91
242.255	114.69
242.472	-100.35
242.689	133.12
242.907	79.87
243.124	73.73
243.341	69.63
243.558	-30.72
243.775	-12.29
243.992	4.1
244.209	139.26
244.426	180.22
244.643	86.01
244.86	34.82
245.078	98.3
245.295	71.68
245.512	65.54
245.729	2.05
245.946	165.89
246.163	106.49
246.38	81.92
246.597	184.32
246.814	83.97
247.031	61.44
247.248	86.01
247.464	57.34
247.681	28.67
247.898	65.54
248.115	40.96
248.332	55.3
248.549	198.65
248.766	163.84
248.983	131.07
249.2	141.31
249.417	104.45
249.633	10.24
249.85	124.93
250.067	22.53
250.284	83.97
250.501	20.48
250.717	92.16
250.934	-32.77
251.151	4.1
251.368	0
251.585	106.49
251.801	63.49
252.018	47.1
252.235	69.63
252.451	14.34
252.668	34.82
252.885	106.49
253.102	57.34
253.318	57.34
253.535	-10.24
253.752	55.3
253.968	-28.67
254.185	-24.58
254.401	38.91
254.618	69.63
254.835	14.34
255.051	157.69
255.268	118.78
255.484	120.83
255.701	10.24
255.917	8.19
256.134	28.67
256.351	47.1
256.567	53.25
256.784	-16.38
257	-51.2
257.217	122.88
257.433	104.45
257.65	53.25
257.866	196.61
258.082	12.29
258.299	12.29
258.515	145.41
258.732	108.54
258.948	0
259.165	67.58
259.381	-22.53
259.597	83.97
259.814	43.01
260.03	-14.34
260.246	59.39
260.463	157.69
260.679	139.26
260.895	51.2
261.112	71.68
261.328	49.15
261.544	88.06
261.761	202.75
261.977	28.67
262.193	-45.06
262.409	96.25
262.626	43.01
262.842	61.44
263.058	-18.43
263.274	65.54
263.49	69.63
263.707	79.87
263.923	77.82
264.139	-71.68
264.355	71.68
264.571	100.35
264.787	81.92
265.004	131.07
265.22	57.34
265.436	12.29
265.652	77.82
265.868	106.49
266.084	-30.72
266.3	40.96
266.516	-43.01
266.732	135.17
266.948	18.43
267.164	49.15
267.38	57.34
267.596	73.73
267.812	186.37
268.028	94.21
268.244	20.48
268.46	96.25
268.676	57.34
268.892	114.69
269.108	-36.86
269.324	43.01
269.54	4.1
269.756	100.35
269.972	-40.96
270.188	14.34
270.403	0
270.619	20.48
270.835	86.01
271.051	67.58
271.267	-51.2
271.483	53.25
271.698	151.55
271.914	137.21
272.13	116.73
272.346	16.38
272.562	55.3
272.777	129.02
272.993	30.72
273.209	-28.67
273.425	100.35
273.64	-4.1
273.856	65.54
274.072	-36.86
274.287	30.72
274.503	67.58
274.719	116.73
274.934	36.86
275.15	-57.34
275.366	40.96
275.581	53.25
275.797	18.43
276.012	24.58
276.228	26.62
276.444	57.34
276.659	163.84
276.875	-28.67
277.09	36.86
277.306	22.53
277.521	96.25
277.737	59.39
277.952	118.78
278.168	28.67
278.383	36.86
278.599	32.77
278.814	151.55
279.03	45.06
279.245	167.93
279.461	126.97
279.676	106.49
279.892	-47.1
280.107	-2.05
280.322	-43.01
280.538	79.87
280.753	47.1
280.969	61.44
281.184	71.68
281.399	34.82
281.615	49.15
281.83	122.88
282.045	-53.25
282.26	34.82
282.476	2.05
282.691	137.21
282.906	14.34
283.122	90.11
283.337	-59.39
283.552	30.72
283.767	28.67
283.983	71.68
284.198	96.25
284.413	32.77
284.628	-116.73
284.843	55.3
285.058	122.88
285.274	32.77
285.489	22.53
285.704	190.46
285.919	-14.34
286.134	-4.1
286.349	75.77
286.564	75.77
286.779	124.93
286.995	0
287.21	10.24
287.425	100.35
287.64	69.63
287.855	53.25
288.07	-30.72
288.285	196.61
288.5	163.84
288.715	90.11
288.93	133.12
289.145	-18.43
289.36	141.31
289.575	18.43
289.79	192.51
290.004	28.67
290.219	94.21
290.434	26.62
290.649	38.91
290.864	65.54
291.079	49.15
291.294	73.73
291.509	71.68
291.724	75.77
291.938	2.05
292.153	104.45
292.368	79.87
292.583	94.21
292.798	135.17
293.012	24.58
293.227	86.01
293.442	6.14
293.657	79.87
293.871	69.63
294.086	30.72
294.301	172.03
294.516	190.46
294.73	24.58
294.945	47.1
295.16	47.1
295.374	126.97
295.589	139.26
295.804	-20.48
296.018	-2.05
296.233	145.41
296.447	63.49
296.662	71.68
296.877	65.54
297.091	92.16
297.306	63.49
297.52	75.77
297.735	65.54
297.949	59.39
298.164	86.01
298.378	77.82
298.593	-10.24
298.807	-32.77
299.022	51.2
299.236	182.27
299.451	34.82
299.665	79.87
299.88	51.2
300.094	36.86
300.309	18.43
300.523	34.82
300.737	65.54
300.952	75.77
301.166	32.77
301.381	-10.24
301.595	-16.38
301.809	114.69
302.024	38.91
302.238	-55.3
302.452	178.17
302.667	100.35
302.881	180.22
303.095	100.35
303.309	-14.34
303.524	51.2
303.738	2.05
303.952	-6.14
304.166	53.25
304.381	-28.67
304.595	96.25
304.809	12.29
305.023	63.49
305.237	-6.14
305.452	67.58
305.666	114.69
305.88	120.83
306.094	63.49
306.308	51.2
306.522	120.83
306.736	98.3
306.95	61.44
307.164	55.3
307.379	47.1
307.593	98.3
307.807	129.02
308.021	141.31
308.235	96.25
308.449	-47.1
308.663	30.72
308.877	245.76
309.091	57.34
309.305	98.3
309.519	-71.68
309.733	149.5
309.947	-8.19
310.161	116.73
310.374	88.06
310.588	202.75
310.802	61.44
311.016	43.01
311.23	94.21
311.444	14.34
311.658	8.19
311.872	92.16
312.085	124.93
312.299	153.6
312.513	94.21
312.727	65.54
312.941	49.15
313.154	100.35
313.368	65.54
313.582	94.21
313.796	14.34
314.009	34.82
314.223	182.27
314.437	77.82
314.651	75.77
314.864	-10.24
315.078	18.43
315.292	-18.43
315.505	-34.82
315.719	94.21
315.933	75.77
316.146	57.34
316.36	-92.16
316.573	161.79
316.787	92.16
317.001	77.82
317.214	6.14
317.428	32.77
317.641	16.38
317.855	-14.34
318.068	88.06
318.282	43.01
318.495	184.32
318.709	116.73
318.922	51.2
319.136	186.37
319.349	155.65
319.563	28.67
319.776	118.78
319.99	-116.73
320.203	116.73
320.417	83.97
320.63	114.69
320.843	190.46
321.057	172.03
321.27	16.38
321.483	71.68
321.697	122.88
321.91	133.12
322.124	133.12
322.337	79.87
322.55	-10.24
322.763	40.96
322.977	83.97
323.19	67.58
323.403	32.77
323.617	112.64
323.83	81.92
324.043	92.16
324.256	61.44
324.469	30.72
324.683	174.08
324.896	-10.24
325.109	55.3
325.322	12.29
325.535	129.02
325.748	75.77
325.962	94.21
326.175	38.91
326.388	120.83
326.601	77.82
326.814	61.44
327.027	45.06
327.24	149.5
327.453	-12.29
327.666	59.39
327.879	102.4
328.092	77.82
328.305	38.91
328.518	-8.19
328.731	-36.86
328.944	18.43
329.157	94.21
329.37	36.86
329.583	186.37
329.796	186.37
330.009	-104.45
330.222	86.01
330.435	208.89
330.648	102.4
330.861	0
331.073	-10.24
331.286	137.21
331.499	24.58
331.712	61.44
331.925	28.67
332.138	83.97
332.35	147.45
332.563	51.2
332.776	131.07
332.989	-4.1
333.202	71.68
333.414	28.67
333.627	16.38
333.84	14.34
334.053	79.87
334.265	118.78
334.478	61.44
334.691	61.44
334.903	43.01
335.116	43.01
335.329	28.67
335.541	73.73
335.754	167.93
335.966	14.34
336.179	71.68
336.392	0
336.604	75.77
336.817	137.21
337.029	147.45
337.242	67.58
337.454	69.63
337.667	43.01
337.88	126.97
338.092	65.54
338.305	79.87
338.517	-51.2
338.729	57.34
338.942	178.17
339.154	26.62
339.367	-45.06
339.579	43.01
339.792	45.06
340.004	-14.34
340.217	90.11
340.429	59.39
340.641	71.68
340.854	0
341.066	133.12
341.278	108.54
341.491	65.54
341.703	81.92
341.915	-49.15
342.128	65.54
342.34	55.3
342.552	-26.62
342.764	-26.62
342.977	43.01
343.189	45.06
343.401	34.82
343.613	-116.73
343.826	94.21
344.038	-38.91
344.25	104.45
344.462	38.91
344.674	153.6
344.886	73.73
345.099	51.2
345.311	28.67
345.523	-53.25
345.735	-20.48
345.947	100.35
346.159	120.83
346.371	20.48
346.583	28.67
346.795	241.66
347.007	-12.29
347.219	139.26
347.431	24.58
347.643	129.02
347.855	-53.25
348.067	106.49
348.279	-4.1
348.491	122.88
348.703	137.21
348.915	106.49
349.127	20.48
349.339	129.02
349.551	22.53
349.763	63.49
349.975	-18.43
350.187	94.21
350.399	182.27
350.61	79.87
350.822	16.38
351.034	47.1
351.246	69.63
351.458	65.54
351.669	98.3
351.881	34.82
352.093	122.88
352.305	112.64
352.517	165.89
352.728	116.73
352.94	71.68
353.152	112.64
353.363	53.25
353.575	112.64
353.787	176.13
353.999	96.25
354.21	184.32
354.422	-51.2
354.633	108.54
354.845	55.3
355.057	34.82
355.268	0
355.48	155.65
355.692	63.49
355.903	43.01
356.115	26.62
356.326	63.49
356.538	161.79
356.749	30.72
356.961	120.83
357.172	100.35
357.384	24.58
357.595	219.13
357.807	81.92
358.018	65.54
358.23	-34.82
358.441	112.64
358.653	118.78
358.864	69.63
359.075	-12.29
359.287	61.44
359.498	126.97
359.709	161.79
359.921	-12.29
360.132	155.65
360.344	79.87
360.555	24.58
360.766	86.01
360.977	2.05
361.189	77.82
361.4	63.49
361.611	67.58
361.823	69.63
362.034	32.77
362.245	-30.72
362.456	67.58
362.667	124.93
362.879	-26.62
363.09	73.73
363.301	57.34
363.512	151.55
363.723	53.25
363.935	45.06
364.146	126.97
364.357	108.54
364.568	26.62
364.779	-55.3
364.99	116.73
365.201	59.39
365.412	196.61
365.623	-59.39
365.834	53.25
366.045	38.91
366.256	32.77
366.467	88.06
366.678	92.16
366.889	96.25
367.1	55.3
367.311	116.73
367.522	10.24
367.733	94.21
367.944	124.93
368.155	124.93
368.366	149.5
368.577	212.99
368.788	51.2
368.999	38.91
369.209	47.1
369.42	174.08
369.631	190.46
369.842	133.12
370.053	10.24
370.264	151.55
370.474	-28.67
370.685	43.01
370.896	108.54
371.107	167.93
371.317	49.15
371.528	102.4
371.739	18.43
371.95	77.82
372.16	98.3
372.371	-55.3
372.582	14.34
372.792	100.35
373.003	12.29
373.214	98.3
373.424	151.55
373.635	63.49
373.846	178.17
374.056	75.77
374.267	73.73
374.477	51.2
374.688	6.14
374.898	40.96
375.109	92.16
375.319	86.01
375.53	153.6
375.74	149.5
375.951	32.77
376.161	129.02
376.372	75.77
376.582	36.86
376.793	51.2
377.003	43.01
377.214	75.77
377.424	81.92
377.635	69.63
377.845	55.3
378.055	112.64
378.266	59.39
378.476	-47.1
378.686	67.58
378.897	36.86
379.107	165.89
379.317	108.54
379.528	-65.53
379.738	155.65
379.948	-30.72
380.158	92.16
380.369	-6.14
380.579	83.97
380.789	-16.38
380.999	172.03
381.21	129.02
381.42	151.55
381.63	-2.05
381.84	139.26
382.05	114.69
382.261	149.5
382.471	102.4
382.681	6.14
382.891	141.31
383.101	38.91
383.311	-8.19
383.521	-12.29
383.731	55.3
383.941	55.3
384.151	141.31
384.361	45.06
384.571	124.93
384.781	96.25
384.991	192.51
385.201	155.65
385.411	26.62
385.621	18.43
385.831	98.3
386.041	20.48
386.251	73.73
386.461	73.73
386.671	55.3
386.881	40.96
387.091	65.54
387.301	133.12
387.511	6.14
387.72	81.92
387.93	135.17
388.14	-108.54
388.35	129.02
388.56	167.93
388.769	100.35
388.979	-4.1
389.189	20.48
389.399	118.78
389.609	90.11
389.818	71.68
390.028	30.72
390.238	149.5
390.447	92.16
390.657	-6.14
390.867	75.77
391.076	-14.34
391.286	141.31
391.496	40.96
391.705	-16.38
391.915	219.13
392.125	116.73
392.334	57.34
392.544	204.8
392.753	79.87
392.963	14.34
393.172	40.96
393.382	18.43
393.591	180.22
393.801	12.29
394.01	92.16
394.22	81.92
394.429	26.62
394.639	32.77
394.848	157.69
395.058	49.15
395.267	20.48
395.477	73.73
395.686	63.49
395.895	198.65
396.105	194.56
396.314	169.98
396.524	57.34
396.733	43.01
396.942	212.99
397.152	120.83
397.361	133.12
397.57	96.25
397.78	110.59
397.989	108.54
398.198	202.75
398.407	190.46
398.617	129.02
398.826	57.34
399.035	-47.1
399.244	129.02
399.453	73.73
399.663	47.1
399.872	12.29
400.081	-69.63
400.29	200.7
400.499	-6.14
400.708	86.01
400.917	-10.24
401.127	67.58
401.336	-53.25
401.545	260.09
401.754	90.11
401.963	61.44
402.172	43.01
402.381	6.14
402.59	45.06
402.799	92.16
403.008	141.31
403.217	88.06
403.426	73.73
403.635	-32.77
403.844	98.3
404.053	26.62
404.262	57.34
404.471	137.21
404.68	135.17
404.888	55.3
405.097	57.34
405.306	135.17
405.515	77.82
405.724	-2.05
405.933	120.83
406.142	86.01
406.35	122.88
406.559	-40.96
406.768	114.69
406.977	169.98
407.185	0
407.394	100.35
407.603	26.62
407.812	59.39
408.02	129.02
408.229	30.72
408.438	34.82
408.646	-77.82
408.855	131.07
409.064	86.01
409.272	59.39
409.481	147.45
409.69	-14.34
409.898	-63.49
410.107	20.48
410.315	129.02
410.524	24.58
410.733	45.06
410.941	32.77
411.15	94.21
411.358	67.58
411.567	145.41
411.775	88.06
411.984	126.97
412.192	174.08
412.401	36.86
412.609	86.01
412.818	190.46
413.026	196.61
413.234	-55.3
413.443	47.1
413.651	102.4
413.86	53.25
414.068	55.3
414.276	182.27
414.485	-20.48
414.693	178.17
414.901	182.27
415.11	92.16
415.318	36.86
415.526	90.11
415.734	161.79
415.943	79.87
416.151	92.16
416.359	69.63
416.567	77.82
416.776	104.45
416.984	182.27
417.192	217.08
417.4	-2.05
417.608	20.48
417.817	38.91
418.025	131.07
418.233	124.93
418.441	-4.1
418.649	34.82
418.857	79.87
419.065	122.88
419.273	34.82
419.481	51.2
419.689	104.45
419.897	38.91
420.105	-18.43
420.313	167.93
420.521	178.17
420.729	92.16
420.937	36.86
421.145	-38.91
421.353	102.4
421.561	206.84
421.769	-12.29
421.977	-32.77
422.185	73.73
422.393	106.49
422.601	110.59
422.809	18.43
423.017	63.49
423.224	71.68
423.432	194.56
423.64	43.01
423.848	151.55
424.056	36.86
424.263	143.36
424.471	53.25
424.679	172.03
424.887	4.1
425.094	122.88
425.302	114.69
425.51	-10.24
425.718	161.79
425.925	79.87
426.133	4.1
426.341	106.49
426.548	61.44
426.756	0
426.964	100.35
427.171	18.43
427.379	151.55
427.586	65.54
427.794	165.89
428.001	165.89
428.209	96.25
428.417	163.84
428.624	223.23
428.832	206.84
429.039	57.34
429.247	65.54
429.454	149.5
429.662	143.36
429.869	174.08
430.076	88.06
430.284	137.21
430.491	219.13
430.699	92.16
430.906	204.8
431.114	83.97
431.321	231.42
431.528	106.49
431.736	155.65
431.943	131.07
432.15	131.07
432.358	235.52
432.565	159.74
432.772	-4.1
432.979	163.84
433.187	10.24
433.394	241.66
433.601	79.87
433.808	190.46
434.016	227.32
434.223	296.96
434.43	137.21
434.637	219.13
434.844	149.5
435.052	186.37
435.259	174.08
435.466	176.13
435.673	204.8
435.88	188.41
436.087	264.19
436.294	223.23
436.501	245.76
436.708	282.62
436.915	237.56
437.122	260.09
437.329	206.84
437.537	159.74
437.743	225.28
437.95	333.82
438.157	256
438.364	307.2
438.571	284.67
438.778	385.02
438.985	329.72
439.192	372.73
439.399	309.24
439.606	370.68
439.813	428.03
440.02	565.24
440.227	520.18
440.433	485.37
440.64	518.14
440.847	282.62
441.054	481.27
441.261	520.18
441.467	417.79
441.674	382.97
441.881	544.76
442.088	563.19
442.294	548.86
442.501	643.06
442.708	618.49
442.914	563.19
443.121	704.5
443.328	645.11
443.534	874.48
443.741	731.12
443.948	581.62
444.154	745.46
444.361	841.72
444.568	813.04
444.774	817.14
444.981	694.26
445.187	950.26
445.394	892.91
445.6	817.14
445.807	1009.65
446.013	1034.22
446.22	997.36
446.426	1048.56
446.633	1159.15
446.839	1210.35
447.046	1136.62
447.252	1308.65
447.459	1249.26
447.665	1200.11
447.871	1400.81
448.078	1447.91
448.284	1413.1
448.491	1597.42
448.697	1531.88
448.903	1677.29
449.11	1665
449.316	1525.74
449.522	1736.68
449.728	1927.14
449.935	1939.43
450.141	1994.72
450.347	2179.04
450.553	2013.15
450.76	2056.16
450.966	2179.04
451.172	2324.44
451.378	2381.79
451.584	2435.03
451.791	2594.78
451.997	2756.57
452.203	2572.25
452.409	2977.75
452.615	2957.27
452.821	2832.34
453.027	2899.92
453.233	3295.18
453.44	3080.14
453.646	3348.43
453.852	3485.64
454.058	3448.78
454.264	3708.87
454.47	4040.64
454.676	3987.4
454.882	4157.38
455.088	4216.77
455.294	4409.28
455.5	4546.49
455.705	4962.23
455.911	4810.68
456.117	5076.91
456.323	5228.46
456.529	5189.55
456.735	5601.19
456.941	5828.52
457.147	5963.68
457.352	6176.67
457.558	6272.93
457.764	6938.52
457.97	7108.5
458.176	7090.07
458.381	7550.86
458.587	7632.78
458.793	8220.55
458.999	8103.81
459.204	9185.14
459.41	9389.94
459.616	9420.66
459.821	9854.83
460.027	10217.32
460.233	10829.66
460.438	10651.49
460.644	11220.82
460.85	11431.76
461.055	12009.29
461.261	12490.56
461.466	12457.79
461.672	12408.64
461.878	13979.43
462.083	13643.57
462.289	13985.58
462.494	14503.71
462.7	14477.09
462.905	14929.69
463.111	16340.74
463.316	16948.99
463.522	17116.92
463.727	17467.13
463.932	18376.42
464.138	18904.8
464.343	19711.7
464.549	19580.63
464.754	21315.26
464.959	21796.53
465.165	22202.03
465.37	22148.78
465.575	22085.29
465.781	23469.72
465.986	24012.43
466.191	23971.47
466.397	24250
466.602	23588.5
466.807	24927.88
467.012	25155.2
467.218	25689.72
467.423	25710.2
467.628	26334.83
467.833	27602.52
468.038	27373.15
468.244	26533.48
468.449	28032.6
468.654	27156.07
468.859	27428.45
