Data from USB4F104151__93__10-35-17-430.txt Node

Date: Wed Feb 26 10:35:17 EST 2025
User: louis
Spectrometer: USB4F10415
Trigger mode: 4
Integration Time (sec): 1.000000E-1
Scans to average: 1
Electric dark correction enabled: true
Nonlinearity correction enabled: false
Boxcar width: 0
XAxis mode: Wavelengths
Number of Pixels in Spectrum: 3648
>>>>>Begin Spectral Data<<<<<
178.204	-429.22
178.424	-429.22
178.644	-429.22
178.864	-414.88
179.084	-365.73
179.304	52.05
179.524	-29.87
179.744	80.72
179.964	-25.77
180.184	-27.82
180.404	25.43
180.624	-21.67
180.844	-23.72
181.064	-60.59
181.283	56.15
181.503	-25.77
181.723	0.85
181.943	-60.59
182.163	174.93
182.383	4.95
182.602	58.2
182.822	119.64
183.042	109.4
183.262	23.38
183.482	27.48
183.701	47.96
183.921	93.01
184.141	-29.87
184.361	50
184.58	82.77
184.8	37.72
185.02	45.91
185.239	80.72
185.459	70.48
185.679	117.59
185.898	-105.64
186.118	109.4
186.338	99.16
186.557	86.87
186.777	-79.02
186.997	72.53
187.216	86.87
187.436	156.5
187.655	25.43
187.875	166.74
188.095	60.24
188.314	72.53
188.534	88.92
188.753	-72.87
188.973	103.25
189.192	119.64
189.412	80.72
189.631	37.72
189.851	21.33
190.07	238.42
190.29	-79.02
190.509	17.24
190.729	-33.96
190.948	95.06
191.168	213.84
191.387	99.16
191.607	0.85
191.826	-17.58
192.045	21.33
192.265	-25.77
192.484	82.77
192.704	29.52
192.923	-44.2
193.142	148.31
193.362	148.31
193.581	136.02
193.8	-17.58
194.02	21.33
194.239	47.96
194.458	82.77
194.678	58.2
194.897	17.24
195.116	78.68
195.335	103.25
195.555	39.76
195.774	-13.48
195.993	107.35
196.212	31.57
196.432	-13.48
196.651	-40.11
196.87	13.14
197.089	303.95
197.308	29.52
197.528	84.82
197.747	-21.67
197.966	56.15
198.185	152.4
198.404	7
198.623	168.79
198.842	78.68
199.062	60.24
199.281	138.07
199.5	109.4
199.719	125.78
199.938	58.2
200.157	164.69
200.376	113.49
200.595	117.59
200.814	115.54
201.033	-89.26
201.252	93.01
201.471	11.09
201.69	86.87
201.909	27.48
202.128	105.3
202.347	17.24
202.566	27.48
202.785	-42.15
203.004	9.05
203.223	246.61
203.442	-3.24
203.661	-56.49
203.879	78.68
204.098	152.4
204.317	-9.39
204.536	84.82
204.755	31.57
204.974	189.27
205.193	-13.48
205.411	136.02
205.63	43.86
205.849	58.2
206.068	4.95
206.287	-33.96
206.505	162.64
206.724	25.43
206.943	-33.96
207.162	21.33
207.381	33.62
207.599	74.58
207.818	50
208.037	-9.39
208.255	-11.43
208.474	109.4
208.693	72.53
208.911	-21.67
209.13	107.35
209.349	33.62
209.567	111.44
209.786	144.21
210.005	95.06
210.223	88.92
210.442	-107.69
210.661	31.57
210.879	64.34
211.098	111.44
211.316	-3.24
211.535	136.02
211.753	80.72
211.972	97.11
212.191	70.48
212.409	-9.39
212.628	121.68
212.846	33.62
213.065	13.14
213.283	113.49
213.502	-7.34
213.72	58.2
213.938	70.48
214.157	-33.96
214.375	111.44
214.594	43.86
214.812	86.87
215.031	-50.35
215.249	-9.39
215.467	-25.77
215.686	58.2
215.904	52.05
216.122	33.62
216.341	154.45
216.559	43.86
216.778	95.06
216.996	166.74
217.214	58.2
217.432	41.81
217.651	-46.25
217.869	43.86
218.087	-27.82
218.306	-9.39
218.524	33.62
218.742	7
218.96	27.48
219.179	62.29
219.397	-52.39
219.615	265.04
219.833	78.68
220.051	-23.72
220.27	99.16
220.488	64.34
220.706	162.64
220.924	25.43
221.142	-76.97
221.36	86.87
221.578	41.81
221.796	45.91
222.015	93.01
222.233	9.05
222.451	181.07
222.669	-58.54
222.887	103.25
223.105	21.33
223.323	64.34
223.541	-95.4
223.759	54.1
223.977	80.72
224.195	181.07
224.413	97.11
224.631	39.76
224.849	29.52
225.067	187.22
225.285	-7.34
225.503	66.39
225.721	-42.15
225.939	86.87
226.157	37.72
226.375	308.05
226.592	33.62
226.81	66.39
227.028	152.4
227.246	166.74
227.464	68.44
227.682	99.16
227.9	2.9
228.117	97.11
228.335	119.64
228.553	62.29
228.771	47.96
228.989	2.9
229.206	86.87
229.424	9.05
229.642	-7.34
229.86	-13.48
230.077	209.75
230.295	76.63
230.513	156.5
230.731	82.77
230.948	148.31
231.166	213.84
231.384	-21.67
231.601	4.95
231.819	215.89
232.037	11.09
232.254	23.38
232.472	2.9
232.689	58.2
232.907	125.78
233.125	45.91
233.342	-27.82
233.56	17.24
233.777	62.29
233.995	-3.24
234.213	78.68
234.43	15.19
234.648	-3.24
234.865	15.19
235.083	76.63
235.3	107.35
235.518	72.53
235.735	185.17
235.953	33.62
236.17	-15.53
236.388	-9.39
236.605	13.14
236.822	131.92
237.04	101.2
237.257	152.4
237.475	-103.59
237.692	58.2
237.909	62.29
238.127	-27.82
238.344	56.15
238.562	131.92
238.779	-42.15
238.996	-103.59
239.214	62.29
239.431	90.96
239.648	17.24
239.865	105.3
240.083	140.12
240.3	-81.07
240.517	50
240.735	56.15
240.952	60.24
241.169	78.68
241.386	90.96
241.603	39.76
241.821	-1.19
242.038	156.5
242.255	84.82
242.472	-21.67
242.689	76.63
242.907	121.68
243.124	74.58
243.341	-42.15
243.558	64.34
243.775	-97.45
243.992	-11.43
244.209	154.45
244.426	133.97
244.643	93.01
244.86	9.05
245.078	45.91
245.295	113.49
245.512	25.43
245.729	-1.19
245.946	31.57
246.163	82.77
246.38	27.48
246.597	45.91
246.814	123.73
247.031	68.44
247.248	-5.29
247.464	84.82
247.681	70.48
247.898	39.76
248.115	121.68
248.332	-13.48
248.549	136.02
248.766	133.97
248.983	50
249.2	80.72
249.417	107.35
249.633	35.67
249.85	111.44
250.067	47.96
250.284	39.76
250.501	78.68
250.717	29.52
250.934	-44.2
251.151	9.05
251.368	41.81
251.585	47.96
251.801	52.05
252.018	13.14
252.235	201.55
252.451	19.29
252.668	-19.63
252.885	90.96
253.102	68.44
253.318	35.67
253.535	4.95
253.752	99.16
253.968	-38.06
254.185	-31.91
254.401	115.54
254.618	97.11
254.835	93.01
255.051	158.55
255.268	23.38
255.484	27.48
255.701	-3.24
255.917	33.62
256.134	-38.06
256.351	64.34
256.567	11.09
256.784	66.39
257	-42.15
257.217	88.92
257.433	37.72
257.65	111.44
257.866	156.5
258.082	11.09
258.299	-52.39
258.515	41.81
258.732	-42.15
258.948	-40.11
259.165	88.92
259.381	35.67
259.597	82.77
259.814	72.53
260.03	70.48
260.246	97.11
260.463	107.35
260.679	195.41
260.895	37.72
261.112	105.3
261.328	82.77
261.544	7
261.761	162.64
261.977	62.29
262.193	13.14
262.409	107.35
262.626	-19.63
262.842	-40.11
263.058	-46.25
263.274	84.82
263.49	76.63
263.707	86.87
263.923	107.35
264.139	-81.07
264.355	-15.53
264.571	97.11
264.787	78.68
265.004	125.78
265.22	41.81
265.436	82.77
265.652	15.19
265.868	52.05
266.084	-36.01
266.3	62.29
266.516	37.72
266.732	78.68
266.948	33.62
267.164	15.19
267.38	68.44
267.596	111.44
267.812	191.31
268.028	50
268.244	17.24
268.46	23.38
268.676	97.11
268.892	90.96
269.108	33.62
269.324	45.91
269.54	-29.87
269.756	50
269.972	13.14
270.188	-9.39
270.403	-3.24
270.619	-11.43
270.835	82.77
271.051	-1.19
271.267	52.05
271.483	54.1
271.698	99.16
271.914	93.01
272.13	41.81
272.346	-9.39
272.562	109.4
272.777	140.12
272.993	19.29
273.209	58.2
273.425	37.72
273.64	-23.72
273.856	7
274.072	-9.39
274.287	-7.34
274.503	66.39
274.719	21.33
274.934	-54.44
275.15	-23.72
275.366	35.67
275.581	62.29
275.797	2.9
276.012	39.76
276.228	-21.67
276.444	-7.34
276.659	222.03
276.875	-42.15
277.09	105.3
277.306	-9.39
277.521	82.77
277.737	90.96
277.952	17.24
278.168	70.48
278.383	70.48
278.599	113.49
278.814	115.54
279.03	115.54
279.245	138.07
279.461	-5.29
279.676	160.59
279.892	-36.01
280.107	-33.96
280.322	29.52
280.538	129.88
280.753	41.81
280.969	35.67
281.184	45.91
281.399	158.55
281.615	13.14
281.83	88.92
282.045	-97.45
282.26	-46.25
282.476	78.68
282.691	56.15
282.906	39.76
283.122	43.86
283.337	15.19
283.552	95.06
283.767	86.87
283.983	82.77
284.198	35.67
284.413	93.01
284.628	-42.15
284.843	9.05
285.058	19.29
285.274	27.48
285.489	68.44
285.704	97.11
285.919	-13.48
286.134	-5.29
286.349	45.91
286.564	-11.43
286.779	170.83
286.995	19.29
287.21	-70.83
287.425	58.2
287.64	113.49
287.855	25.43
288.07	-48.3
288.285	148.31
288.5	99.16
288.715	52.05
288.93	97.11
289.145	-36.01
289.36	39.76
289.575	19.29
289.79	107.35
290.004	-48.3
290.219	113.49
290.434	99.16
290.649	-7.34
290.864	4.95
291.079	88.92
291.294	54.1
291.509	80.72
291.724	-27.82
291.938	-9.39
292.153	119.64
292.368	-19.63
292.583	62.29
292.798	113.49
293.012	78.68
293.227	117.59
293.442	13.14
293.657	160.59
293.871	117.59
294.086	41.81
294.301	125.78
294.516	148.31
294.73	54.1
294.945	-5.29
295.16	-3.24
295.374	113.49
295.589	119.64
295.804	-7.34
296.018	84.82
296.233	80.72
296.447	7
296.662	17.24
296.877	125.78
297.091	80.72
297.306	-66.73
297.52	-27.82
297.735	97.11
297.949	31.57
298.164	127.83
298.378	19.29
298.593	-62.63
298.807	13.14
299.022	-25.77
299.236	117.59
299.451	72.53
299.665	35.67
299.88	-15.53
300.094	31.57
300.309	11.09
300.523	19.29
300.737	50
300.952	136.02
301.166	58.2
301.381	13.14
301.595	58.2
301.809	84.82
302.024	50
302.238	-42.15
302.452	101.2
302.667	4.95
302.881	109.4
303.095	117.59
303.309	74.58
303.524	25.43
303.738	-44.2
303.952	-33.96
304.166	123.73
304.381	-5.29
304.595	121.68
304.809	43.86
305.023	27.48
305.237	52.05
305.452	70.48
305.666	43.86
305.88	105.3
306.094	31.57
306.308	103.25
306.522	172.88
306.736	66.39
306.95	103.25
307.164	-5.29
307.379	64.34
307.593	133.97
307.807	160.59
308.021	31.57
308.235	56.15
308.449	-58.54
308.663	68.44
308.877	275.28
309.091	37.72
309.305	33.62
309.519	-33.96
309.733	119.64
309.947	-74.92
310.161	60.24
310.374	90.96
310.588	183.12
310.802	-62.63
311.016	27.48
311.23	35.67
311.444	-25.77
311.658	72.53
311.872	146.26
312.085	131.92
312.299	142.16
312.513	131.92
312.727	19.29
312.941	-72.87
313.154	47.96
313.368	95.06
313.582	2.9
313.796	103.25
314.009	50
314.223	78.68
314.437	-38.06
314.651	101.2
314.864	45.91
315.078	101.2
315.292	11.09
315.505	-33.96
315.719	138.07
315.933	54.1
316.146	23.38
316.36	4.95
316.573	146.26
316.787	97.11
317.001	123.73
317.214	-1.19
317.428	39.76
317.641	-68.78
317.855	2.9
318.068	90.96
318.282	-9.39
318.495	101.2
318.709	156.5
318.922	29.52
319.136	88.92
319.349	66.39
319.563	-33.96
319.776	74.58
319.99	-36.01
320.203	82.77
320.417	113.49
320.63	99.16
320.843	201.55
321.057	97.11
321.27	41.81
321.483	84.82
321.697	95.06
321.91	82.77
322.124	-42.15
322.337	156.5
322.55	-1.19
322.763	27.48
322.977	13.14
323.19	52.05
323.403	17.24
323.617	52.05
323.83	88.92
324.043	93.01
324.256	107.35
324.469	-60.59
324.683	113.49
324.896	-13.48
325.109	41.81
325.322	-101.55
325.535	84.82
325.748	90.96
325.962	62.29
326.175	25.43
326.388	142.16
326.601	45.91
326.814	39.76
327.027	15.19
327.24	142.16
327.453	-33.96
327.666	60.24
327.879	207.7
328.092	129.88
328.305	97.11
328.518	68.44
328.731	21.33
328.944	82.77
329.157	74.58
329.37	43.86
329.583	146.26
329.796	162.64
330.009	-101.55
330.222	82.77
330.435	54.1
330.648	66.39
330.861	-23.72
331.073	58.2
331.286	70.48
331.499	103.25
331.712	-9.39
331.925	62.29
332.138	33.62
332.35	103.25
332.563	-64.68
332.776	101.2
332.989	-19.63
333.202	-3.24
333.414	41.81
333.627	21.33
333.84	29.52
334.053	72.53
334.265	2.9
334.478	-21.67
334.691	82.77
334.903	52.05
335.116	25.43
335.329	4.95
335.541	119.64
335.754	162.64
335.966	66.39
336.179	47.96
336.392	72.53
336.604	29.52
336.817	95.06
337.029	113.49
337.242	58.2
337.454	148.31
337.667	45.91
337.88	101.2
338.092	74.58
338.305	74.58
338.517	-36.01
338.729	107.35
338.942	148.31
339.154	-5.29
339.367	-50.35
339.579	21.33
339.792	-7.34
340.004	88.92
340.217	43.86
340.429	121.68
340.641	-60.59
340.854	-25.77
341.066	66.39
341.278	60.24
341.491	127.83
341.703	21.33
341.915	-21.67
342.128	88.92
342.34	50
342.552	-21.67
342.764	50
342.977	-1.19
343.189	93.01
343.401	113.49
343.613	-36.01
343.826	35.67
344.038	-27.82
344.25	76.63
344.462	-72.87
344.674	54.1
344.886	43.86
345.099	52.05
345.311	117.59
345.523	2.9
345.735	-62.63
345.947	62.29
346.159	68.44
346.371	47.96
346.583	-9.39
346.795	197.46
347.007	84.82
347.219	33.62
347.431	21.33
347.643	99.16
347.855	23.38
348.067	158.55
348.279	78.68
348.491	107.35
348.703	115.54
348.915	50
349.127	11.09
349.339	103.25
349.551	11.09
349.763	144.21
349.975	31.57
350.187	131.92
350.399	174.93
350.61	54.1
350.822	-17.58
351.034	70.48
351.246	86.87
351.458	88.92
351.669	160.59
351.881	140.12
352.093	127.83
352.305	125.78
352.517	58.2
352.728	97.11
352.94	35.67
353.152	68.44
353.363	-48.3
353.575	64.34
353.787	152.4
353.999	86.87
354.21	142.16
354.422	-11.43
354.633	13.14
354.845	31.57
355.057	60.24
355.268	2.9
355.48	66.39
355.692	-38.06
355.903	37.72
356.115	-27.82
356.326	-29.87
356.538	209.75
356.749	7
356.961	152.4
357.172	64.34
357.384	-11.43
357.595	236.37
357.807	76.63
358.018	-15.53
358.23	7
358.441	195.41
358.653	99.16
358.864	25.43
359.075	-33.96
359.287	58.2
359.498	54.1
359.709	129.88
359.921	11.09
360.132	95.06
360.344	17.24
360.555	21.33
360.766	133.97
360.977	-11.43
361.189	123.73
361.4	54.1
361.611	74.58
361.823	183.12
362.034	33.62
362.245	-62.63
362.456	33.62
362.667	52.05
362.879	21.33
363.09	50
363.301	54.1
363.512	129.88
363.723	7
363.935	78.68
364.146	107.35
364.357	-23.72
364.568	19.29
364.779	-97.45
364.99	117.59
365.201	-5.29
365.412	72.53
365.623	-48.3
365.834	70.48
366.045	72.53
366.256	117.59
366.467	107.35
366.678	64.34
366.889	125.78
367.1	54.1
367.311	101.2
367.522	27.48
367.733	70.48
367.944	105.3
368.155	7
368.366	74.58
368.577	207.7
368.788	74.58
368.999	31.57
369.209	72.53
369.42	267.09
369.631	144.21
369.842	119.64
370.053	13.14
370.264	105.3
370.474	-9.39
370.685	47.96
370.896	52.05
371.107	140.12
371.317	78.68
371.528	47.96
371.739	131.92
371.95	119.64
372.16	76.63
372.371	-117.93
372.582	78.68
372.792	78.68
373.003	74.58
373.214	58.2
373.424	117.59
373.635	-54.44
373.846	105.3
374.056	27.48
374.267	103.25
374.477	103.25
374.688	37.72
374.898	25.43
375.109	66.39
375.319	168.79
375.53	187.22
375.74	195.41
375.951	-7.34
376.161	101.2
376.372	64.34
376.582	9.05
376.793	140.12
377.003	58.2
377.214	-25.77
377.424	37.72
377.635	31.57
377.845	-9.39
378.055	123.73
378.266	-62.63
378.476	15.19
378.686	45.91
378.897	58.2
379.107	156.5
379.317	66.39
379.528	-42.15
379.738	138.07
379.948	-76.97
380.158	123.73
380.369	54.1
380.579	47.96
380.789	43.86
380.999	76.63
381.21	172.88
381.42	158.55
381.63	17.24
381.84	172.88
382.05	45.91
382.261	105.3
382.471	125.78
382.681	-48.3
382.891	119.64
383.101	62.29
383.311	27.48
383.521	-40.11
383.731	80.72
383.941	138.07
384.151	90.96
384.361	11.09
384.571	68.44
384.781	119.64
384.991	179.03
385.201	222.03
385.411	140.12
385.621	97.11
385.831	66.39
386.041	-23.72
386.251	74.58
386.461	138.07
386.671	2.9
386.881	101.2
387.091	25.43
387.301	207.7
387.511	78.68
387.72	86.87
387.93	129.88
388.14	-50.35
388.35	74.58
388.56	136.02
388.769	78.68
388.979	72.53
389.189	-3.24
389.399	47.96
389.609	78.68
389.818	129.88
390.028	47.96
390.238	105.3
390.447	-54.44
390.657	52.05
390.867	47.96
391.076	0.85
391.286	86.87
391.496	17.24
391.705	2.9
391.915	174.93
392.125	84.82
392.334	7
392.544	146.26
392.753	121.68
392.963	-33.96
393.172	54.1
393.382	21.33
393.591	166.74
393.801	-21.67
394.01	193.36
394.22	125.78
394.429	109.4
394.639	70.48
394.848	88.92
395.058	43.86
395.267	-50.35
395.477	86.87
395.686	43.86
395.895	217.94
396.105	176.98
396.314	52.05
396.524	68.44
396.733	97.11
396.942	123.73
397.152	90.96
397.361	170.83
397.57	80.72
397.78	25.43
397.989	136.02
398.198	240.47
398.407	-19.63
398.617	-21.67
398.826	64.34
399.035	90.96
399.244	193.36
399.453	56.15
399.663	29.52
399.872	58.2
400.081	-40.11
400.29	166.74
400.499	62.29
400.708	99.16
400.917	41.81
401.127	58.2
401.336	-5.29
401.545	215.89
401.754	111.44
401.963	103.25
402.172	11.09
402.381	37.72
402.59	64.34
402.799	-19.63
403.008	119.64
403.217	90.96
403.426	62.29
403.635	-93.35
403.844	68.44
404.053	66.39
404.262	9.05
404.471	254.8
404.68	15.19
404.888	-5.29
405.097	11.09
405.306	37.72
405.515	117.59
405.724	50
405.933	203.6
406.142	107.35
406.35	142.16
406.559	113.49
406.768	99.16
406.977	187.22
407.185	115.54
407.394	103.25
407.603	-3.24
407.812	9.05
408.02	76.63
408.229	78.68
408.438	129.88
408.646	-7.34
408.855	90.96
409.064	54.1
409.272	84.82
409.481	156.5
409.69	25.43
409.898	-23.72
410.107	82.77
410.315	35.67
410.524	31.57
410.733	138.07
410.941	56.15
411.15	88.92
411.358	136.02
411.567	107.35
411.775	23.38
411.984	43.86
412.192	113.49
412.401	29.52
412.609	181.07
412.818	138.07
413.026	170.83
413.234	62.29
413.443	54.1
413.651	41.81
413.86	80.72
414.068	125.78
414.276	183.12
414.485	62.29
414.693	244.56
414.901	209.75
415.11	33.62
415.318	19.29
415.526	33.62
415.734	123.73
415.943	115.54
416.151	60.24
416.359	43.86
416.567	76.63
416.776	162.64
416.984	191.31
417.192	168.79
417.4	29.52
417.608	27.48
417.817	21.33
418.025	189.27
418.233	197.46
418.441	-5.29
418.649	-1.19
418.857	0.85
419.065	156.5
419.273	-31.91
419.481	80.72
419.689	-36.01
419.897	17.24
420.105	-27.82
420.313	80.72
420.521	185.17
420.729	88.92
420.937	23.38
421.145	23.38
421.353	150.36
421.561	179.03
421.769	152.4
421.977	131.92
422.185	131.92
422.393	62.29
422.601	142.16
422.809	121.68
423.017	133.97
423.224	23.38
423.432	56.15
423.64	54.1
423.848	66.39
424.056	39.76
424.263	144.21
424.471	47.96
424.679	154.45
424.887	-101.55
425.094	101.2
425.302	68.44
425.51	25.43
425.718	164.69
425.925	193.36
426.133	23.38
426.341	133.97
426.548	129.88
426.756	9.05
426.964	47.96
427.171	43.86
427.379	154.45
427.586	29.52
427.794	119.64
428.001	119.64
428.209	103.25
428.417	215.89
428.624	88.92
428.832	101.2
429.039	138.07
429.247	74.58
429.454	172.88
429.662	213.84
429.869	72.53
430.076	37.72
430.284	201.55
430.491	232.27
430.699	179.03
430.906	267.09
431.114	181.07
431.321	136.02
431.528	166.74
431.736	95.06
431.943	230.23
432.15	189.27
432.358	189.27
432.565	289.62
432.772	19.29
432.979	181.07
433.187	142.16
433.394	226.13
433.601	181.07
433.808	256.85
434.016	222.03
434.223	242.51
434.43	248.66
434.637	224.08
434.844	324.43
435.052	232.27
435.259	262.99
435.466	299.86
435.673	351.06
435.88	306
436.087	375.63
436.294	318.29
436.501	394.06
436.708	232.27
436.915	355.15
437.122	400.21
437.329	217.94
437.537	332.62
437.743	412.5
437.95	486.22
438.157	269.14
438.364	416.59
438.571	432.97
438.778	420.69
438.985	461.65
439.192	492.37
439.399	508.75
439.606	441.17
439.813	518.99
440.02	611.15
440.227	723.79
440.433	562
440.64	494.41
440.847	486.22
441.054	670.54
441.261	750.41
441.467	754.51
441.674	658.25
441.881	795.47
442.088	680.78
442.294	693.07
442.501	891.72
442.708	893.77
442.914	772.94
443.121	916.3
443.328	879.43
443.534	944.97
443.741	840.52
443.948	858.95
444.154	1006.41
444.361	1217.35
444.568	1020.74
444.774	1033.03
444.981	947.01
445.187	1258.31
445.394	1219.39
445.6	1178.44
445.807	1352.51
446.013	1307.46
446.22	1162.05
446.426	1526.59
446.633	1604.41
446.839	1653.56
447.046	1446.72
447.252	1647.42
447.459	1712.96
447.665	1747.77
447.871	1854.27
448.078	1962.81
448.284	1999.67
448.491	2077.49
448.697	2132.79
448.903	2294.58
449.11	2267.95
449.316	2220.85
449.522	2505.52
449.728	2493.23
449.935	2665.26
450.141	2601.77
450.347	2974.5
450.553	2792.23
450.76	2833.19
450.966	3081
451.172	3146.53
451.378	3408.67
451.584	3341.09
451.791	3681.05
451.997	3642.14
452.203	3740.44
452.409	3930.91
452.615	4162.33
452.821	4008.73
453.027	4057.88
453.233	4483.86
453.44	4358.93
453.646	4518.67
453.852	4954.89
454.058	5083.91
454.264	5145.35
454.47	5503.75
454.676	5518.08
454.882	5839.61
455.088	5792.51
455.294	6007.55
455.5	6587.12
455.705	6775.53
455.911	6879.98
456.117	7142.12
456.323	7230.18
456.529	7242.47
456.735	7916.25
456.941	8229.59
457.147	8528.6
457.352	8659.67
457.558	8930
457.764	9425.61
457.97	9728.7
458.176	9953.98
458.381	10449.59
458.587	10750.64
458.793	11219.63
458.999	11240.11
459.204	12735.12
459.41	13089.42
459.616	13144.72
459.821	13482.63
460.027	14312.06
460.233	14801.52
460.438	15039.09
460.644	15942.24
460.85	15944.29
461.055	16321.12
461.261	17556.04
461.466	17089.1
461.672	17451.6
461.878	19634.73
462.083	19321.39
462.289	19528.24
462.494	20359.71
462.7	20404.77
462.905	20793.88
463.111	22454.78
463.316	23730.67
463.522	24033.77
463.727	24910.3
463.932	25862.6
464.138	26579.39
464.343	27566.51
464.549	27761.07
464.754	29604.24
464.959	30669.19
465.165	30960
465.37	30726.53
465.575	30828.93
465.781	33407.32
465.986	34095.44
466.191	33474.9
466.397	33845.58
466.602	33077.6
466.807	35060.03
467.012	35592.5
467.218	36053.3
467.423	36145.45
467.628	37163.29
467.833	38709.51
468.038	38289.68
468.244	37468.44
468.449	39303.42
468.654	38242.57
468.859	38811.91
469.064	38779.14
469.269	37585.18
