Data from USB4F104151__27__10-24-08-843.txt Node

Date: Wed Feb 26 10:24:08 EST 2025
User: louis
Spectrometer: USB4F10415
Trigger mode: 4
Integration Time (sec): 1.000000E-1
Scans to average: 1
Electric dark correction enabled: true
Nonlinearity correction enabled: false
Boxcar width: 0
XAxis mode: Wavelengths
Number of Pixels in Spectrum: 3648
>>>>>Begin Spectral Data<<<<<
178.204	-381.09
178.424	-381.09
178.644	-381.09
178.864	-374.95
179.084	-356.52
179.304	36.69
179.524	14.17
179.744	-22.7
179.964	22.36
180.184	16.21
180.404	14.17
180.624	1.88
180.844	-41.13
181.064	-63.66
181.283	-53.42
181.503	-82.09
181.723	157.52
181.943	-96.43
182.163	196.43
182.383	-28.84
182.602	48.98
182.822	83.8
183.042	73.56
183.262	-6.31
183.482	67.41
183.701	44.88
183.921	100.18
184.141	-57.51
184.361	61.27
184.58	83.8
184.8	65.36
185.02	-10.41
185.239	130.9
185.459	34.64
185.679	77.65
185.898	-112.81
186.118	26.45
186.338	96.08
186.557	149.33
186.777	-53.42
186.997	-49.32
187.216	91.99
187.436	169.81
187.655	42.84
187.875	116.56
188.095	63.32
188.314	149.33
188.534	5.97
188.753	-6.31
188.973	67.41
189.192	210.77
189.412	51.03
189.631	26.45
189.851	53.08
190.07	149.33
190.29	-61.61
190.509	-32.94
190.729	77.65
190.948	139.09
191.168	208.72
191.387	89.94
191.607	20.31
191.826	22.36
192.045	34.64
192.265	12.12
192.484	96.08
192.704	46.93
192.923	-55.47
193.142	204.63
193.362	143.19
193.581	120.66
193.8	104.28
194.02	104.28
194.239	69.46
194.458	141.14
194.678	-6.31
194.897	28.5
195.116	-34.99
195.335	-0.17
195.555	-67.75
195.774	-43.18
195.993	120.66
196.212	98.13
196.432	-2.22
196.651	-26.79
196.87	38.74
197.089	247.63
197.308	120.66
197.528	139.09
197.747	-39.08
197.966	89.94
198.185	75.6
198.404	-26.79
198.623	116.56
198.842	173.91
199.062	-4.27
199.281	120.66
199.5	55.12
199.719	71.51
199.938	26.45
200.157	1.88
200.376	67.41
200.595	77.65
200.814	24.4
201.033	-53.42
201.252	89.94
201.471	55.12
201.69	55.12
201.909	57.17
202.128	149.33
202.347	55.12
202.566	-71.85
202.785	-51.37
203.004	-43.18
203.223	214.87
203.442	20.31
203.661	-10.41
203.879	128.85
204.098	186.19
204.317	-18.6
204.536	112.47
204.755	44.88
204.974	81.75
205.193	18.26
205.411	157.52
205.63	141.14
205.849	3.93
206.068	12.12
206.287	-26.79
206.505	139.09
206.724	16.21
206.943	38.74
207.162	10.07
207.381	112.47
207.599	46.93
207.818	44.88
208.037	26.45
208.255	14.17
208.474	94.04
208.693	-41.13
208.911	-51.37
209.13	87.89
209.349	135
209.567	69.46
209.786	61.27
210.005	114.52
210.223	-0.17
210.442	-110.76
210.661	34.64
210.879	57.17
211.098	69.46
211.316	18.26
211.535	169.81
211.753	71.51
211.972	63.32
212.191	-67.75
212.409	14.17
212.628	75.6
212.846	5.97
213.065	143.19
213.283	42.84
213.502	73.56
213.72	61.27
213.938	96.08
214.157	79.7
214.375	91.99
214.594	-20.65
214.812	24.4
215.031	55.12
215.249	96.08
215.467	18.26
215.686	16.21
215.904	100.18
216.122	30.55
216.341	124.76
216.559	38.74
216.778	77.65
216.996	98.13
217.214	42.84
217.432	10.07
217.651	-22.7
217.869	108.37
218.087	40.79
218.306	40.79
218.524	73.56
218.742	22.36
218.96	120.66
219.179	16.21
219.397	53.08
219.615	227.15
219.833	48.98
220.051	-41.13
220.27	163.67
220.488	94.04
220.706	79.7
220.924	-18.6
221.142	-20.65
221.36	81.75
221.578	94.04
221.796	18.26
222.015	-30.89
222.233	53.08
222.451	178
222.669	-84.14
222.887	106.32
223.105	-16.55
223.323	-24.75
223.541	16.21
223.759	14.17
223.977	59.22
224.195	118.61
224.413	147.28
224.631	71.51
224.849	22.36
225.067	350.03
225.285	3.93
225.503	18.26
225.721	-75.95
225.939	36.69
226.157	20.31
226.375	216.91
226.592	-28.84
226.81	102.23
227.028	118.61
227.246	139.09
227.464	114.52
227.682	96.08
227.9	71.51
228.117	59.22
228.335	83.8
228.553	30.55
228.771	18.26
228.989	100.18
229.206	98.13
229.424	83.8
229.642	3.93
229.86	-16.55
230.077	135
230.295	130.9
230.513	79.7
230.731	36.69
230.948	169.81
231.166	161.62
231.384	75.6
231.601	69.46
231.819	202.58
232.037	-24.75
232.254	-22.7
232.472	12.12
232.689	22.36
232.907	171.86
233.125	1.88
233.342	18.26
233.56	-43.18
233.777	5.97
233.995	-69.8
234.213	141.14
234.43	151.38
234.648	69.46
234.865	-30.89
235.083	73.56
235.3	48.98
235.518	116.56
235.735	159.57
235.953	79.7
236.17	10.07
236.388	-24.75
236.605	83.8
236.822	126.8
237.04	167.76
237.257	18.26
237.475	10.07
237.692	79.7
237.909	149.33
238.127	-24.75
238.344	79.7
238.562	71.51
238.779	-45.23
238.996	5.97
239.214	61.27
239.431	69.46
239.648	12.12
239.865	120.66
240.083	59.22
240.3	51.03
240.517	-30.89
240.735	14.17
240.952	202.58
241.169	122.71
241.386	114.52
241.603	-12.46
241.821	-77.99
242.038	42.84
242.255	110.42
242.472	5.97
242.689	73.56
242.907	116.56
243.124	53.08
243.341	28.5
243.558	79.7
243.775	-96.43
243.992	-22.7
244.209	87.89
244.426	190.29
244.643	104.28
244.86	36.69
245.078	126.8
245.295	139.09
245.512	36.69
245.729	-6.31
245.946	112.47
246.163	73.56
246.38	59.22
246.597	100.18
246.814	81.75
247.031	71.51
247.248	34.64
247.464	104.28
247.681	-45.23
247.898	57.17
248.115	63.32
248.332	16.21
248.549	157.52
248.766	214.87
248.983	59.22
249.2	57.17
249.417	141.14
249.633	-43.18
249.85	59.22
250.067	30.55
250.284	14.17
250.501	118.61
250.717	89.94
250.934	-6.31
251.151	69.46
251.368	40.79
251.585	98.13
251.801	137.04
252.018	-75.95
252.235	155.47
252.451	-88.23
252.668	-14.51
252.885	38.74
253.102	118.61
253.318	89.94
253.535	32.6
253.752	20.31
253.968	-43.18
254.185	-104.62
254.401	26.45
254.618	112.47
254.835	-12.46
255.051	173.91
255.268	100.18
255.484	30.55
255.701	67.41
255.917	67.41
256.134	-0.17
256.351	48.98
256.567	-22.7
256.784	44.88
257	-32.94
257.217	59.22
257.433	175.95
257.65	132.95
257.866	89.94
258.082	-8.36
258.299	-24.75
258.515	79.7
258.732	22.36
258.948	-49.32
259.165	135
259.381	12.12
259.597	135
259.814	48.98
260.03	-37.03
260.246	51.03
260.463	135
260.679	184.15
260.895	26.45
261.112	135
261.328	30.55
261.544	3.93
261.761	132.95
261.977	36.69
262.193	-67.75
262.409	112.47
262.626	63.32
262.842	-2.22
263.058	75.6
263.274	94.04
263.49	89.94
263.707	112.47
263.923	91.99
264.139	-69.8
264.355	145.24
264.571	91.99
264.787	98.13
265.004	171.86
265.22	24.4
265.436	-30.89
265.652	10.07
265.868	16.21
266.084	-39.08
266.3	-55.47
266.516	12.12
266.732	71.51
266.948	-0.17
267.164	57.17
267.38	44.88
267.596	44.88
267.812	190.29
268.028	32.6
268.244	-75.95
268.46	57.17
268.676	-37.03
268.892	16.21
269.108	-2.22
269.324	-6.31
269.54	38.74
269.756	98.13
269.972	-4.27
270.188	18.26
270.403	-65.71
270.619	71.51
270.835	34.64
271.051	3.93
271.267	26.45
271.483	63.32
271.698	46.93
271.914	55.12
272.13	73.56
272.346	30.55
272.562	28.5
272.777	173.91
272.993	-28.84
273.209	16.21
273.425	94.04
273.64	-12.46
273.856	143.19
274.072	-4.27
274.287	12.12
274.503	53.08
274.719	83.8
274.934	32.6
275.15	-43.18
275.366	71.51
275.581	-59.56
275.797	65.36
276.012	-8.36
276.228	-12.46
276.444	24.4
276.659	122.71
276.875	-12.46
277.09	-39.08
277.306	-53.42
277.521	42.84
277.737	73.56
277.952	167.76
278.168	112.47
278.383	-4.27
278.599	32.6
278.814	40.79
279.03	36.69
279.245	89.94
279.461	87.89
279.676	132.95
279.892	14.17
280.107	12.12
280.322	-49.32
280.538	71.51
280.753	-45.23
280.969	114.52
281.184	-18.6
281.399	112.47
281.615	59.22
281.83	137.04
282.045	-14.51
282.26	-43.18
282.476	36.69
282.691	83.8
282.906	-2.22
283.122	128.85
283.337	51.03
283.552	89.94
283.767	-14.51
283.983	24.4
284.198	3.93
284.413	110.42
284.628	-18.6
284.843	79.7
285.058	79.7
285.274	55.12
285.489	-4.27
285.704	137.04
285.919	40.79
286.134	8.02
286.349	26.45
286.564	96.08
286.779	173.91
286.995	-26.79
287.21	-24.75
287.425	42.84
287.64	48.98
287.855	46.93
288.07	-80.04
288.285	126.8
288.5	128.85
288.715	69.46
288.93	3.93
289.145	38.74
289.36	79.7
289.575	-41.13
289.79	137.04
290.004	-18.6
290.219	155.47
290.434	-0.17
290.649	-18.6
290.864	79.7
291.079	89.94
291.294	16.21
291.509	126.8
291.724	48.98
291.938	36.69
292.153	67.41
292.368	34.64
292.583	59.22
292.798	104.28
293.012	96.08
293.227	14.17
293.442	38.74
293.657	106.32
293.871	161.62
294.086	59.22
294.301	192.34
294.516	79.7
294.73	-14.51
294.945	-51.37
295.16	67.41
295.374	112.47
295.589	79.7
295.804	-14.51
296.018	46.93
296.233	157.52
296.447	-2.22
296.662	42.84
296.877	180.05
297.091	91.99
297.306	34.64
297.52	-10.41
297.735	81.75
297.949	36.69
298.164	46.93
298.378	26.45
298.593	69.46
298.807	12.12
299.022	-28.84
299.236	96.08
299.451	-4.27
299.665	-20.65
299.88	83.8
300.094	63.32
300.309	116.56
300.523	-20.65
300.737	12.12
300.952	145.24
301.166	51.03
301.381	-22.7
301.595	26.45
301.809	96.08
302.024	14.17
302.238	-0.17
302.452	132.95
302.667	120.66
302.881	257.87
303.095	100.18
303.309	85.84
303.524	85.84
303.738	22.36
303.952	34.64
304.166	14.17
304.381	-186.54
304.595	157.52
304.809	40.79
305.023	75.6
305.237	26.45
305.452	24.4
305.666	46.93
305.88	67.41
306.094	157.52
306.308	79.7
306.522	12.12
306.736	91.99
306.95	108.37
307.164	53.08
307.379	38.74
307.593	118.61
307.807	163.67
308.021	124.76
308.235	89.94
308.449	-55.47
308.663	32.6
308.877	225.11
309.091	46.93
309.305	91.99
309.519	-10.41
309.733	120.66
309.947	-39.08
310.161	75.6
310.374	106.32
310.588	77.65
310.802	-10.41
311.016	-2.22
311.23	106.32
311.444	30.55
311.658	89.94
311.872	141.14
312.085	130.9
312.299	147.28
312.513	137.04
312.727	67.41
312.941	32.6
313.154	61.27
313.368	55.12
313.582	104.28
313.796	-39.08
314.009	126.8
314.223	32.6
314.437	16.21
314.651	42.84
314.864	14.17
315.078	46.93
315.292	-18.6
315.505	55.12
315.719	46.93
315.933	75.6
316.146	-20.65
316.36	-14.51
316.573	98.13
316.787	32.6
317.001	81.75
317.214	12.12
317.428	-12.46
317.641	55.12
317.855	-63.66
318.068	108.37
318.282	104.28
318.495	145.24
318.709	71.51
318.922	96.08
319.136	155.47
319.349	122.71
319.563	-98.47
319.776	81.75
319.99	-41.13
320.203	151.38
320.417	57.17
320.63	118.61
320.843	178
321.057	120.66
321.27	71.51
321.483	3.93
321.697	118.61
321.91	-22.7
322.124	34.64
322.337	-12.46
322.55	24.4
322.763	40.79
322.977	-16.55
323.19	10.07
323.403	81.75
323.617	73.56
323.83	102.23
324.043	69.46
324.256	63.32
324.469	-65.71
324.683	94.04
324.896	-12.46
325.109	98.13
325.322	-75.95
325.535	87.89
325.748	112.47
325.962	104.28
326.175	8.02
326.388	71.51
326.601	141.14
326.814	42.84
327.027	48.98
327.24	175.95
327.453	-24.75
327.666	51.03
327.879	167.76
328.092	94.04
328.305	38.74
328.518	-43.18
328.731	44.88
328.944	53.08
329.157	91.99
329.37	40.79
329.583	169.81
329.796	100.18
330.009	-10.41
330.222	149.33
330.435	167.76
330.648	48.98
330.861	-2.22
331.073	-0.17
331.286	98.13
331.499	63.32
331.712	-75.95
331.925	22.36
332.138	106.32
332.35	91.99
332.563	8.02
332.776	204.63
332.989	-37.03
333.202	16.21
333.414	-30.89
333.627	71.51
333.84	36.69
334.053	81.75
334.265	8.02
334.478	-14.51
334.691	51.03
334.903	48.98
335.116	20.31
335.329	75.6
335.541	124.76
335.754	192.34
335.966	32.6
336.179	100.18
336.392	53.08
336.604	28.5
336.817	87.89
337.029	108.37
337.242	59.22
337.454	83.8
337.667	-8.36
337.88	137.04
338.092	36.69
338.305	67.41
338.517	-18.6
338.729	169.81
338.942	83.8
339.154	-39.08
339.367	-16.55
339.579	69.46
339.792	-22.7
340.004	46.93
340.217	59.22
340.429	100.18
340.641	-51.37
340.854	-45.23
341.066	-0.17
341.278	147.28
341.491	159.57
341.703	12.12
341.915	14.17
342.128	75.6
342.34	30.55
342.552	36.69
342.764	28.5
342.977	-16.55
343.189	59.22
343.401	69.46
343.613	18.26
343.826	26.45
344.038	-45.23
344.25	16.21
344.462	51.03
344.674	75.6
344.886	-14.51
345.099	34.64
345.311	38.74
345.523	-28.84
345.735	-67.75
345.947	8.02
346.159	85.84
346.371	55.12
346.583	-12.46
346.795	239.44
347.007	55.12
347.219	3.93
347.431	63.32
347.643	149.33
347.855	55.12
348.067	157.52
348.279	-8.36
348.491	42.84
348.703	102.23
348.915	98.13
349.127	53.08
349.339	46.93
349.551	8.02
349.763	147.28
349.975	75.6
350.187	71.51
350.399	149.33
350.61	34.64
350.822	55.12
351.034	85.84
351.246	77.65
351.458	77.65
351.669	38.74
351.881	1.88
352.093	141.14
352.305	128.85
352.517	20.31
352.728	124.76
352.94	89.94
353.152	67.41
353.363	71.51
353.575	53.08
353.787	184.15
353.999	63.32
354.21	91.99
354.422	34.64
354.633	-10.41
354.845	34.64
355.057	155.47
355.268	59.22
355.48	132.95
355.692	16.21
355.903	46.93
356.115	8.02
356.326	-32.94
356.538	116.56
356.749	65.36
356.961	42.84
357.172	-2.22
357.384	30.55
357.595	161.62
357.807	-41.13
358.018	59.22
358.23	61.27
358.441	102.23
358.653	48.98
358.864	-30.89
359.075	22.36
359.287	53.08
359.498	186.19
359.709	53.08
359.921	-12.46
360.132	87.89
360.344	81.75
360.555	59.22
360.766	83.8
360.977	114.52
361.189	75.6
361.4	83.8
361.611	63.32
361.823	96.08
362.034	20.31
362.245	-16.55
362.456	-22.7
362.667	141.14
362.879	-16.55
363.09	51.03
363.301	32.6
363.512	32.6
363.723	18.26
363.935	137.04
364.146	135
364.357	139.09
364.568	67.41
364.779	-69.8
364.99	157.52
365.201	81.75
365.412	147.28
365.623	-22.7
365.834	89.94
366.045	12.12
366.256	59.22
366.467	165.71
366.678	16.21
366.889	14.17
367.1	28.5
367.311	155.47
367.522	-10.41
367.733	46.93
367.944	106.32
368.155	16.21
368.366	122.71
368.577	175.95
368.788	116.56
368.999	-47.27
369.209	55.12
369.42	264.02
369.631	208.72
369.842	126.8
370.053	98.13
370.264	73.56
370.474	-6.31
370.685	63.32
370.896	42.84
371.107	161.62
371.317	59.22
371.528	98.13
371.739	81.75
371.95	55.12
372.16	114.52
372.371	-32.94
372.582	-4.27
372.792	22.36
373.003	137.04
373.214	83.8
373.424	186.19
373.635	-41.13
373.846	116.56
374.056	100.18
374.267	91.99
374.477	24.4
374.688	20.31
374.898	59.22
375.109	83.8
375.319	55.12
375.53	130.9
375.74	55.12
375.951	22.36
376.161	26.45
376.372	137.04
376.582	-26.79
376.793	180.05
377.003	28.5
377.214	36.69
377.424	63.32
377.635	63.32
377.845	40.79
378.055	71.51
378.266	-57.51
378.476	110.42
378.686	120.66
378.897	77.65
379.107	89.94
379.317	100.18
379.528	14.17
379.738	96.08
379.948	-30.89
380.158	112.47
380.369	116.56
380.579	24.4
380.789	3.93
380.999	94.04
381.21	139.09
381.42	223.06
381.63	83.8
381.84	40.79
382.05	63.32
382.261	108.37
382.471	36.69
382.681	42.84
382.891	214.87
383.101	106.32
383.311	-16.55
383.521	-67.75
383.731	163.67
383.941	102.23
384.151	75.6
384.361	57.17
384.571	30.55
384.781	118.61
384.991	155.47
385.201	167.76
385.411	180.05
385.621	120.66
385.831	81.75
386.041	-47.27
386.251	69.46
386.461	118.61
386.671	3.93
386.881	69.46
387.091	10.07
387.301	87.89
387.511	104.28
387.72	-10.41
387.93	120.66
388.14	-41.13
388.35	167.76
388.56	59.22
388.769	122.71
388.979	-14.51
389.189	48.98
389.399	-32.94
389.609	77.65
389.818	114.52
390.028	98.13
390.238	89.94
390.447	-12.46
390.657	44.88
390.867	5.97
391.076	-63.66
391.286	81.75
391.496	116.56
391.705	77.65
391.915	169.81
392.125	159.57
392.334	14.17
392.544	126.8
392.753	59.22
392.963	-55.47
393.172	106.32
393.382	22.36
393.591	175.95
393.801	104.28
394.01	124.76
394.22	110.42
394.429	40.79
394.639	8.02
394.848	186.19
395.058	165.71
395.267	81.75
395.477	128.85
395.686	126.8
395.895	173.91
396.105	210.77
396.314	110.42
396.524	57.17
396.733	28.5
396.942	153.43
397.152	83.8
397.361	149.33
397.57	-20.65
397.78	53.08
397.989	98.13
398.198	200.53
398.407	61.27
398.617	67.41
398.826	65.36
399.035	75.6
399.244	171.86
399.453	22.36
399.663	75.6
399.872	71.51
400.081	-10.41
400.29	126.8
400.499	28.5
400.708	184.15
400.917	40.79
401.127	46.93
401.336	-22.7
401.545	165.71
401.754	204.63
401.963	22.36
402.172	8.02
402.381	-43.18
402.59	46.93
402.799	98.13
403.008	75.6
403.217	-2.22
403.426	89.94
403.635	-39.08
403.844	106.32
404.053	-22.7
404.262	-4.27
404.471	171.86
404.68	149.33
404.888	57.17
405.097	73.56
405.306	67.41
405.515	110.42
405.724	38.74
405.933	63.32
406.142	120.66
406.35	128.85
406.559	10.07
406.768	69.46
406.977	182.1
407.185	116.56
407.394	161.62
407.603	-55.47
407.812	63.32
408.02	12.12
408.229	130.9
408.438	71.51
408.646	-34.99
408.855	55.12
409.064	79.7
409.272	-51.37
409.481	139.09
409.69	36.69
409.898	-49.32
410.107	135
410.315	155.47
410.524	-14.51
410.733	120.66
410.941	55.12
411.15	153.43
411.358	69.46
411.567	85.84
411.775	110.42
411.984	22.36
412.192	53.08
412.401	57.17
412.609	227.15
412.818	161.62
413.026	126.8
413.234	32.6
413.443	30.55
413.651	26.45
413.86	91.99
414.068	173.91
414.276	102.23
414.485	-0.17
414.693	163.67
414.901	190.29
415.11	48.98
415.318	26.45
415.526	51.03
415.734	83.8
415.943	79.7
416.151	98.13
416.359	-10.41
416.567	69.46
416.776	178
416.984	141.14
417.192	184.15
417.4	5.97
417.608	1.88
417.817	5.97
418.025	141.14
418.233	204.63
418.441	-2.22
418.649	-20.65
418.857	98.13
419.065	112.47
419.273	-43.18
419.481	118.61
419.689	161.62
419.897	26.45
420.105	-47.27
420.313	96.08
420.521	137.04
420.729	165.71
420.937	18.26
421.145	79.7
421.353	89.94
421.561	157.52
421.769	61.27
421.977	-24.75
422.185	184.15
422.393	98.13
422.601	96.08
422.809	98.13
423.017	42.84
423.224	42.84
423.432	163.67
423.64	104.28
423.848	118.61
424.056	5.97
424.263	40.79
424.471	24.4
424.679	137.04
424.887	14.17
425.094	169.81
425.302	91.99
425.51	38.74
425.718	221.01
425.925	98.13
426.133	-14.51
426.341	204.63
426.548	24.4
426.756	28.5
426.964	200.53
427.171	79.7
427.379	87.89
427.586	98.13
427.794	126.8
428.001	206.67
428.209	190.29
428.417	202.58
428.624	165.71
428.832	59.22
429.039	128.85
429.247	85.84
429.454	81.75
429.662	171.86
429.869	208.72
430.076	110.42
430.284	124.76
430.491	194.39
430.699	186.19
430.906	161.62
431.114	122.71
431.321	112.47
431.528	198.48
431.736	231.25
431.943	173.91
432.15	202.58
432.358	233.3
432.565	225.11
432.772	75.6
432.979	257.87
433.187	106.32
433.394	200.53
433.601	204.63
433.808	239.44
434.016	399.18
434.223	347.98
434.43	288.59
434.637	304.98
434.844	354.13
435.052	264.02
435.259	294.74
435.466	321.36
435.673	315.22
435.88	436.05
436.087	350.03
436.294	354.13
436.501	401.23
436.708	364.37
436.915	411.47
437.122	462.67
437.329	311.12
437.537	425.81
437.743	425.81
437.95	470.86
438.157	454.48
438.364	472.91
438.571	511.82
438.778	470.86
438.985	550.73
439.192	536.4
439.399	583.5
439.606	587.6
439.813	583.5
440.02	694.09
440.227	788.3
440.433	681.8
440.64	583.5
440.847	558.92
441.054	692.04
441.261	776.01
441.467	796.49
441.674	737.1
441.881	911.18
442.088	757.58
442.294	888.65
442.501	888.65
442.708	993.09
442.914	892.74
443.121	1036.1
443.328	968.52
443.534	1083.2
443.741	1079.11
443.948	913.22
444.154	1281.86
444.361	1195.84
444.568	1240.9
444.774	1251.14
444.981	1226.56
445.187	1349.44
445.394	1398.59
445.6	1380.16
445.807	1691.45
446.013	1546.05
446.22	1421.12
446.426	1668.92
446.633	1771.32
446.839	2019.13
447.046	1777.47
447.252	1949.5
447.459	2010.93
447.665	1933.11
447.871	2185.01
448.078	2322.23
448.284	2207.54
448.491	2359.09
448.697	2582.32
448.903	2705.2
449.11	2518.83
449.316	2674.48
449.522	2883.37
449.728	2785.07
449.935	3100.45
450.141	3188.52
450.347	3278.63
450.553	3159.85
450.76	3370.79
450.966	3581.73
451.172	3792.67
451.378	3815.2
451.584	3766.04
451.791	4159.25
451.997	4138.77
452.203	4278.04
452.409	4560.66
452.615	4665.1
452.821	4531.98
453.027	4646.67
453.233	5013.26
453.44	5064.46
453.646	5439.23
453.852	5580.54
454.058	5875.45
454.264	6051.58
454.47	6309.62
454.676	6358.77
454.882	6919.92
455.088	6831.85
455.294	6977.26
455.5	7640.8
455.705	7907.04
455.911	7800.54
456.117	7964.38
456.323	8414.93
456.529	8351.45
456.735	9227.98
456.941	9580.23
457.147	9678.53
457.352	9893.57
457.558	10153.66
457.764	11118.25
457.97	11327.14
458.176	11628.2
458.381	12269.21
458.587	12361.37
458.793	13065.87
458.999	12965.52
459.204	14597.75
459.41	15382.12
459.616	14943.86
459.821	15670.89
460.027	16543.32
460.233	17024.59
460.438	17126.99
460.644	18529.85
460.85	18259.52
461.055	19277.36
461.261	20147.75
461.466	19770.92
461.672	20061.73
461.878	22590.97
462.083	22281.73
462.289	22470.14
462.494	23643.63
462.7	23768.55
462.905	24061.41
463.111	25886.15
463.316	27291.06
463.522	27813.29
463.727	28589.47
463.932	29867.41
464.138	30610.82
464.343	31837.55
464.549	32085.36
464.754	34475.34
464.959	35235.13
465.165	35788.08
465.37	35874.1
465.575	35562.81
465.781	37973.27
465.986	38944
466.191	38331.66
466.397	38843.65
466.602	37915.92
466.807	39920.88
467.012	40873.19
467.218	41450.72
467.423	41532.64
467.628	42536.14
467.833	44453.04
468.038	43916.47
468.244	43168.96
468.449	45227.17
