Data from USB4F104151__67__11-30-57-664.txt Node

Date: Wed Feb 26 11:30:57 EST 2025
User: louis
Spectrometer: USB4F10415
Trigger mode: 4
Integration Time (sec): 1.000000E-1
Scans to average: 1
Electric dark correction enabled: true
Nonlinearity correction enabled: false
Boxcar width: 0
XAxis mode: Wavelengths
Number of Pixels in Spectrum: 3648
>>>>>Begin Spectral Data<<<<<
178.204	-454.82
178.424	-454.82
178.644	-454.82
178.864	-438.44
179.084	-409.76
179.304	22.36
179.524	-8.36
179.744	-90.28
179.964	44.88
180.184	-4.27
180.404	57.17
180.624	-51.37
180.844	8.02
181.064	-73.9
181.283	81.75
181.503	-30.89
181.723	44.88
181.943	-157.86
182.163	161.62
182.383	-30.89
182.602	63.32
182.822	161.62
183.042	53.08
183.262	-86.19
183.482	-24.75
183.701	8.02
183.921	14.17
184.141	-63.66
184.361	28.5
184.58	81.75
184.8	57.17
185.02	-14.51
185.239	120.66
185.459	59.22
185.679	112.47
185.898	-18.6
186.118	44.88
186.338	77.65
186.557	89.94
186.777	-114.86
186.997	10.07
187.216	94.04
187.436	157.52
187.655	10.07
187.875	114.52
188.095	38.74
188.314	81.75
188.534	42.84
188.753	-69.8
188.973	200.53
189.192	87.89
189.412	5.97
189.631	32.6
189.851	24.4
190.07	104.28
190.29	-14.51
190.509	-4.27
190.729	32.6
190.948	83.8
191.168	247.63
191.387	75.6
191.607	-12.46
191.826	8.02
192.045	-8.36
192.265	-32.94
192.484	51.03
192.704	77.65
192.923	-24.75
193.142	184.15
193.362	71.51
193.581	94.04
193.8	126.8
194.02	163.67
194.239	67.41
194.458	63.32
194.678	69.46
194.897	-14.51
195.116	94.04
195.335	106.32
195.555	51.03
195.774	-90.28
195.993	87.89
196.212	-14.51
196.432	-53.42
196.651	1.88
196.87	-16.55
197.089	235.35
197.308	59.22
197.528	65.36
197.747	-59.56
197.966	12.12
198.185	163.67
198.404	-14.51
198.623	132.95
198.842	89.94
199.062	130.9
199.281	96.08
199.5	71.51
199.719	69.46
199.938	65.36
200.157	36.69
200.376	159.57
200.595	135
200.814	59.22
201.033	-4.27
201.252	110.42
201.471	59.22
201.69	57.17
201.909	104.28
202.128	104.28
202.347	167.76
202.566	71.51
202.785	-71.85
203.004	1.88
203.223	206.67
203.442	-16.55
203.661	-69.8
203.879	128.85
204.098	145.24
204.317	46.93
204.536	18.26
204.755	22.36
204.974	91.99
205.193	40.79
205.411	186.19
205.63	59.22
205.849	73.56
206.068	42.84
206.287	63.32
206.505	108.37
206.724	36.69
206.943	34.64
207.162	5.97
207.381	-14.51
207.599	-16.55
207.818	85.84
208.037	-75.95
208.255	59.22
208.474	32.6
208.693	36.69
208.911	40.79
209.13	83.8
209.349	51.03
209.567	12.12
209.786	3.93
210.005	137.04
210.223	5.97
210.442	-100.52
210.661	32.6
210.879	42.84
211.098	-80.04
211.316	-20.65
211.535	16.21
211.753	5.97
211.972	46.93
212.191	-104.62
212.409	8.02
212.628	59.22
212.846	20.31
213.065	57.17
213.283	57.17
213.502	67.41
213.72	63.32
213.938	46.93
214.157	5.97
214.375	94.04
214.594	-37.03
214.812	69.46
215.031	-0.17
215.249	75.6
215.467	48.98
215.686	75.6
215.904	65.36
216.122	22.36
216.341	116.56
216.559	34.64
216.778	147.28
216.996	18.26
217.214	26.45
217.432	-10.41
217.651	-98.47
217.869	63.32
218.087	79.7
218.306	-75.95
218.524	89.94
218.742	69.46
218.96	40.79
219.179	20.31
219.397	-16.55
219.615	175.95
219.833	20.31
220.051	-12.46
220.27	112.47
220.488	145.24
220.706	165.71
220.924	-22.7
221.142	-12.46
221.36	48.98
221.578	34.64
221.796	24.4
222.015	63.32
222.233	57.17
222.451	89.94
222.669	-37.03
222.887	40.79
223.105	-47.27
223.323	22.36
223.541	38.74
223.759	42.84
223.977	18.26
224.195	108.37
224.413	77.65
224.631	18.26
224.849	157.52
225.067	198.48
225.285	16.21
225.503	16.21
225.721	-71.85
225.939	57.17
226.157	55.12
226.375	227.15
226.592	-75.95
226.81	-59.56
227.028	38.74
227.246	161.62
227.464	71.51
227.682	57.17
227.9	48.98
228.117	12.12
228.335	14.17
228.553	32.6
228.771	-12.46
228.989	100.18
229.206	28.5
229.424	-4.27
229.642	53.08
229.86	-26.79
230.077	12.12
230.295	94.04
230.513	122.71
230.731	120.66
230.948	229.2
231.166	94.04
231.384	55.12
231.601	-32.94
231.819	184.15
232.037	14.17
232.254	-24.75
232.472	-30.89
232.689	-16.55
232.907	124.76
233.125	46.93
233.342	16.21
233.56	-2.22
233.777	-14.51
233.995	53.08
234.213	91.99
234.43	98.13
234.648	46.93
234.865	-32.94
235.083	57.17
235.3	53.08
235.518	120.66
235.735	118.61
235.953	98.13
236.17	44.88
236.388	-34.99
236.605	118.61
236.822	53.08
237.04	108.37
237.257	73.56
237.475	-4.27
237.692	5.97
237.909	89.94
238.127	-20.65
238.344	-0.17
238.562	102.23
238.779	-49.32
238.996	-118.95
239.214	20.31
239.431	91.99
239.648	1.88
239.865	180.05
240.083	75.6
240.3	5.97
240.517	-30.89
240.735	71.51
240.952	96.08
241.169	14.17
241.386	118.61
241.603	26.45
241.821	-34.99
242.038	14.17
242.255	61.27
242.472	-65.71
242.689	110.42
242.907	91.99
243.124	124.76
243.341	46.93
243.558	28.5
243.775	-32.94
243.992	-12.46
244.209	112.47
244.426	135
244.643	104.28
244.86	96.08
245.078	77.65
245.295	85.84
245.512	51.03
245.729	24.4
245.946	73.56
246.163	61.27
246.38	-82.09
246.597	55.12
246.814	-4.27
247.031	63.32
247.248	-30.89
247.464	112.47
247.681	-24.75
247.898	83.8
248.115	135
248.332	-10.41
248.549	192.34
248.766	175.95
248.983	106.32
249.2	110.42
249.417	104.28
249.633	-2.22
249.85	87.89
250.067	5.97
250.284	75.6
250.501	46.93
250.717	48.98
250.934	-32.94
251.151	63.32
251.368	20.31
251.585	20.31
251.801	8.02
252.018	-18.6
252.235	65.36
252.451	-65.71
252.668	48.98
252.885	110.42
253.102	34.64
253.318	5.97
253.535	100.18
253.752	32.6
253.968	-71.85
254.185	-75.95
254.401	30.55
254.618	87.89
254.835	8.02
255.051	120.66
255.268	81.75
255.484	63.32
255.701	36.69
255.917	16.21
256.134	22.36
256.351	-0.17
256.567	-77.99
256.784	16.21
257	-114.86
257.217	46.93
257.433	69.46
257.65	22.36
257.866	122.71
258.082	-24.75
258.299	-24.75
258.515	91.99
258.732	-26.79
258.948	8.02
259.165	40.79
259.381	-41.13
259.597	87.89
259.814	20.31
260.03	89.94
260.246	12.12
260.463	122.71
260.679	163.67
260.895	83.8
261.112	116.56
261.328	-20.65
261.544	-10.41
261.761	139.09
261.977	-10.41
262.193	-12.46
262.409	161.62
262.626	-28.84
262.842	-94.38
263.058	-12.46
263.274	65.36
263.49	59.22
263.707	112.47
263.923	69.46
264.139	-49.32
264.355	5.97
264.571	132.95
264.787	65.36
265.004	79.7
265.22	18.26
265.436	36.69
265.652	-0.17
265.868	51.03
266.084	-73.9
266.3	79.7
266.516	-67.75
266.732	53.08
266.948	61.27
267.164	-8.36
267.38	75.6
267.596	81.75
267.812	184.15
268.028	59.22
268.244	38.74
268.46	16.21
268.676	1.88
268.892	69.46
269.108	18.26
269.324	-28.84
269.54	18.26
269.756	71.51
269.972	3.93
270.188	-37.03
270.403	-82.09
270.619	61.27
270.835	53.08
271.051	8.02
271.267	-63.66
271.483	34.64
271.698	104.28
271.914	77.65
272.13	55.12
272.346	73.56
272.562	69.46
272.777	139.09
272.993	28.5
273.209	-10.41
273.425	81.75
273.64	-51.37
273.856	44.88
274.072	-8.36
274.287	20.31
274.503	155.47
274.719	71.51
274.934	-49.32
275.15	-131.24
275.366	-18.6
275.581	-49.32
275.797	16.21
276.012	65.36
276.228	-20.65
276.444	51.03
276.659	77.65
276.875	-18.6
277.09	14.17
277.306	-28.84
277.521	16.21
277.737	20.31
277.952	67.41
278.168	34.64
278.383	-0.17
278.599	-6.31
278.814	116.56
279.03	75.6
279.245	151.38
279.461	65.36
279.676	71.51
279.892	-98.47
280.107	-8.36
280.322	10.07
280.538	5.97
280.753	26.45
280.969	51.03
281.184	30.55
281.399	94.04
281.615	32.6
281.83	14.17
282.045	-65.71
282.26	-0.17
282.476	24.4
282.691	51.03
282.906	57.17
283.122	36.69
283.337	-61.61
283.552	38.74
283.767	-22.7
283.983	38.74
284.198	5.97
284.413	79.7
284.628	-96.43
284.843	-53.42
285.058	147.28
285.274	-12.46
285.489	1.88
285.704	91.99
285.919	-8.36
286.134	-32.94
286.349	40.79
286.564	38.74
286.779	120.66
286.995	32.6
287.21	-41.13
287.425	96.08
287.64	16.21
287.855	46.93
288.07	-61.61
288.285	141.14
288.5	159.57
288.715	130.9
288.93	-0.17
289.145	-22.7
289.36	73.56
289.575	8.02
289.79	151.38
290.004	38.74
290.219	28.5
290.434	-41.13
290.649	-67.75
290.864	-10.41
291.079	-39.08
291.294	96.08
291.509	-43.18
291.724	30.55
291.938	38.74
292.153	53.08
292.368	-24.75
292.583	104.28
292.798	14.17
293.012	57.17
293.227	40.79
293.442	-32.94
293.657	120.66
293.871	91.99
294.086	63.32
294.301	147.28
294.516	118.61
294.73	-49.32
294.945	-65.71
295.16	-14.51
295.374	61.27
295.589	118.61
295.804	46.93
296.018	-2.22
296.233	73.56
296.447	14.17
296.662	-32.94
296.877	104.28
297.091	102.23
297.306	22.36
297.52	61.27
297.735	42.84
297.949	20.31
298.164	79.7
298.378	24.4
298.593	3.93
298.807	-26.79
299.022	94.04
299.236	151.38
299.451	-2.22
299.665	14.17
299.88	16.21
300.094	-20.65
300.309	-26.79
300.523	-12.46
300.737	-4.27
300.952	5.97
301.166	-10.41
301.381	83.8
301.595	-0.17
301.809	85.84
302.024	-8.36
302.238	-24.75
302.452	143.19
302.667	55.12
302.881	112.47
303.095	20.31
303.309	106.32
303.524	-80.04
303.738	22.36
303.952	-49.32
304.166	73.56
304.381	-65.71
304.595	165.71
304.809	22.36
305.023	81.75
305.237	-2.22
305.452	-0.17
305.666	46.93
305.88	55.12
306.094	104.28
306.308	67.41
306.522	75.6
306.736	67.41
306.95	118.61
307.164	51.03
307.379	36.69
307.593	163.67
307.807	151.38
308.021	81.75
308.235	132.95
308.449	-59.56
308.663	42.84
308.877	229.2
309.091	-28.84
309.305	149.33
309.519	-82.09
309.733	102.23
309.947	-104.62
310.161	42.84
310.374	118.61
310.588	130.9
310.802	-6.31
311.016	75.6
311.23	44.88
311.444	12.12
311.658	-4.27
311.872	171.86
312.085	98.13
312.299	77.65
312.513	161.62
312.727	124.76
312.941	51.03
313.154	22.36
313.368	38.74
313.582	26.45
313.796	71.51
314.009	30.55
314.223	130.9
314.437	96.08
314.651	100.18
314.864	8.02
315.078	53.08
315.292	-8.36
315.505	36.69
315.719	71.51
315.933	65.36
316.146	1.88
316.36	-98.47
316.573	96.08
316.787	42.84
317.001	77.65
317.214	-80.04
317.428	-6.31
317.641	-51.37
317.855	-41.13
318.068	-2.22
318.282	1.88
318.495	151.38
318.709	46.93
318.922	12.12
319.136	124.76
319.349	89.94
319.563	34.64
319.776	83.8
319.99	-75.95
320.203	110.42
320.417	77.65
320.63	122.71
320.843	167.76
321.057	48.98
321.27	26.45
321.483	65.36
321.697	116.56
321.91	24.4
322.124	65.36
322.337	22.36
322.55	-32.94
322.763	65.36
322.977	22.36
323.19	59.22
323.403	89.94
323.617	79.7
323.83	106.32
324.043	26.45
324.256	120.66
324.469	-41.13
324.683	69.46
324.896	61.27
325.109	151.38
325.322	-84.14
325.535	100.18
325.748	122.71
325.962	-0.17
326.175	65.36
326.388	8.02
326.601	77.65
326.814	-57.51
327.027	28.5
327.24	161.62
327.453	-88.23
327.666	69.46
327.879	116.56
328.092	71.51
328.305	-10.41
328.518	-69.8
328.731	-20.65
328.944	-30.89
329.157	108.37
329.37	-10.41
329.583	116.56
329.796	151.38
330.009	-108.71
330.222	28.5
330.435	100.18
330.648	106.32
330.861	71.51
331.073	53.08
331.286	79.7
331.499	57.17
331.712	12.12
331.925	-20.65
332.138	122.71
332.35	143.19
332.563	40.79
332.776	96.08
332.989	-55.47
333.202	-34.99
333.414	44.88
333.627	-6.31
333.84	51.03
334.053	73.56
334.265	14.17
334.478	-22.7
334.691	-24.75
334.903	10.07
335.116	-16.55
335.329	24.4
335.541	108.37
335.754	151.38
335.966	-43.18
336.179	91.99
336.392	26.45
336.604	-67.75
336.817	83.8
337.029	48.98
337.242	-41.13
337.454	36.69
337.667	3.93
337.88	98.13
338.092	18.26
338.305	98.13
338.517	12.12
338.729	75.6
338.942	114.52
339.154	-51.37
339.367	5.97
339.579	98.13
339.792	-24.75
340.004	51.03
340.217	46.93
340.429	-32.94
340.641	-30.89
340.854	-57.51
341.066	-4.27
341.278	91.99
341.491	173.91
341.703	40.79
341.915	-61.61
342.128	71.51
342.34	46.93
342.552	-18.6
342.764	20.31
342.977	-28.84
343.189	10.07
343.401	16.21
343.613	-10.41
343.826	-16.55
344.038	-24.75
344.25	34.64
344.462	-22.7
344.674	44.88
344.886	94.04
345.099	-12.46
345.311	73.56
345.523	-0.17
345.735	-59.56
345.947	112.47
346.159	53.08
346.371	104.28
346.583	-30.89
346.795	112.47
347.007	46.93
347.219	42.84
347.431	36.69
347.643	104.28
347.855	22.36
348.067	169.81
348.279	-80.04
348.491	16.21
348.703	51.03
348.915	-65.71
349.127	-92.33
349.339	114.52
349.551	-0.17
349.763	51.03
349.975	30.55
350.187	83.8
350.399	106.32
350.61	79.7
350.822	22.36
351.034	48.98
351.246	24.4
351.458	18.26
351.669	122.71
351.881	85.84
352.093	51.03
352.305	75.6
352.517	12.12
352.728	81.75
352.94	-43.18
353.152	128.85
353.363	5.97
353.575	40.79
353.787	145.24
353.999	79.7
354.21	147.28
354.422	-2.22
354.633	12.12
354.845	48.98
355.057	-10.41
355.268	79.7
355.48	71.51
355.692	3.93
355.903	63.32
356.115	12.12
356.326	-100.52
356.538	108.37
356.749	91.99
356.961	143.19
357.172	-2.22
357.384	-65.71
357.595	126.8
357.807	-10.41
358.018	-24.75
358.23	-34.99
358.441	157.52
358.653	5.97
358.864	8.02
359.075	-82.09
359.287	24.4
359.498	96.08
359.709	87.89
359.921	40.79
360.132	44.88
360.344	-39.08
360.555	-0.17
360.766	18.26
360.977	-32.94
361.189	75.6
361.4	171.86
361.611	114.52
361.823	110.42
362.034	-6.31
362.245	-118.95
362.456	10.07
362.667	87.89
362.879	-125.1
363.09	75.6
363.301	73.56
363.512	65.36
363.723	-26.79
363.935	-69.8
364.146	55.12
364.357	28.5
364.568	112.47
364.779	16.21
364.99	169.81
365.201	-28.84
365.412	40.79
365.623	-47.27
365.834	53.08
366.045	14.17
366.256	42.84
366.467	34.64
366.678	-49.32
366.889	61.27
367.1	28.5
367.311	112.47
367.522	57.17
367.733	100.18
367.944	26.45
368.155	38.74
368.366	36.69
368.577	118.61
368.788	98.13
368.999	20.31
369.209	-30.89
369.42	214.87
369.631	190.29
369.842	128.85
370.053	-51.37
370.264	108.37
370.474	-57.51
370.685	83.8
370.896	-6.31
371.107	57.17
371.317	94.04
371.528	71.51
371.739	110.42
371.95	-28.84
372.16	116.56
372.371	-110.76
372.582	-34.99
372.792	44.88
373.003	-20.65
373.214	59.22
373.424	104.28
373.635	-39.08
373.846	137.04
374.056	69.46
374.267	-14.51
374.477	67.41
374.688	-59.56
374.898	120.66
375.109	16.21
375.319	102.23
375.53	91.99
375.74	44.88
375.951	-10.41
376.161	81.75
376.372	163.67
376.582	-30.89
376.793	110.42
377.003	32.6
377.214	108.37
377.424	98.13
377.635	-26.79
377.845	-43.18
378.055	186.19
378.266	-24.75
378.476	28.5
378.686	59.22
378.897	-67.75
379.107	96.08
379.317	81.75
379.528	-4.27
379.738	55.12
379.948	34.64
380.158	51.03
380.369	1.88
380.579	-2.22
380.789	48.98
380.999	79.7
381.21	110.42
381.42	139.09
381.63	55.12
381.84	30.55
382.05	36.69
382.261	114.52
382.471	153.43
382.681	-57.51
382.891	190.29
383.101	98.13
383.311	-24.75
383.521	-28.84
383.731	61.27
383.941	16.21
384.151	-2.22
384.361	30.55
384.571	34.64
384.781	16.21
384.991	153.43
385.201	143.19
385.411	122.71
385.621	81.75
385.831	-6.31
386.041	44.88
386.251	3.93
386.461	85.84
386.671	32.6
386.881	-18.6
387.091	-0.17
387.301	94.04
387.511	75.6
387.72	141.14
387.93	55.12
388.14	-135.34
388.35	32.6
388.56	65.36
388.769	145.24
388.979	63.32
389.189	-16.55
389.399	16.21
389.609	51.03
389.818	71.51
390.028	46.93
390.238	94.04
390.447	8.02
390.657	96.08
390.867	-10.41
391.076	-8.36
391.286	28.5
391.496	61.27
391.705	108.37
391.915	81.75
392.125	120.66
392.334	10.07
392.544	126.8
392.753	3.93
392.963	16.21
393.172	-10.41
393.382	14.17
393.591	198.48
393.801	5.97
394.01	114.52
394.22	91.99
394.429	53.08
394.639	53.08
394.848	112.47
395.058	83.8
395.267	-57.51
395.477	53.08
395.686	65.36
395.895	227.15
396.105	221.01
396.314	-16.55
396.524	-20.65
396.733	67.41
396.942	96.08
397.152	161.62
397.361	102.23
397.57	48.98
397.78	42.84
397.989	147.28
398.198	169.81
398.407	130.9
398.617	48.98
398.826	53.08
399.035	-2.22
399.244	145.24
399.453	65.36
399.663	-30.89
399.872	71.51
400.081	-55.47
400.29	141.14
400.499	-32.94
400.708	65.36
400.917	24.4
401.127	-2.22
401.336	-16.55
401.545	163.67
401.754	71.51
401.963	85.84
402.172	61.27
402.381	14.17
402.59	44.88
402.799	79.7
403.008	59.22
403.217	36.69
403.426	-45.23
403.635	-98.47
403.844	-34.99
404.053	71.51
404.262	-55.47
404.471	196.43
404.68	91.99
404.888	44.88
405.097	-39.08
405.306	102.23
405.515	108.37
405.724	61.27
405.933	71.51
406.142	89.94
406.35	137.04
406.559	85.84
406.768	89.94
406.977	89.94
407.185	73.56
407.394	147.28
407.603	-104.62
407.812	75.6
408.02	200.53
408.229	65.36
408.438	81.75
408.646	-71.85
408.855	12.12
409.064	44.88
409.272	55.12
409.481	114.52
409.69	-61.61
409.898	-28.84
410.107	77.65
410.315	85.84
410.524	5.97
410.733	69.46
410.941	104.28
411.15	77.65
411.358	132.95
411.567	77.65
411.775	83.8
411.984	71.51
412.192	126.8
412.401	26.45
412.609	161.62
412.818	130.9
413.026	40.79
413.234	12.12
413.443	22.36
413.651	46.93
413.86	-18.6
414.068	124.76
414.276	130.9
414.485	-8.36
414.693	149.33
414.901	114.52
415.11	106.32
415.318	42.84
415.526	75.6
415.734	73.56
415.943	81.75
416.151	83.8
416.359	44.88
416.567	98.13
416.776	94.04
416.984	159.57
417.192	147.28
417.4	8.02
417.608	42.84
417.817	-32.94
418.025	81.75
418.233	198.48
418.441	-32.94
418.649	-88.23
418.857	65.36
419.065	155.47
419.273	20.31
419.481	61.27
419.689	53.08
419.897	5.97
420.105	16.21
420.313	110.42
420.521	128.85
420.729	151.38
420.937	14.17
421.145	-0.17
421.353	94.04
421.561	206.67
421.769	63.32
421.977	16.21
422.185	137.04
422.393	3.93
422.601	102.23
422.809	96.08
423.017	75.6
423.224	73.56
423.432	124.76
423.64	112.47
423.848	77.65
424.056	5.97
424.263	106.32
424.471	26.45
424.679	130.9
424.887	-45.23
425.094	94.04
425.302	32.6
425.51	48.98
425.718	137.04
425.925	59.22
426.133	65.36
426.341	163.67
426.548	46.93
426.756	-16.55
426.964	61.27
427.171	-2.22
427.379	143.19
427.586	102.23
427.794	120.66
428.001	167.76
428.209	77.65
428.417	184.15
428.624	128.85
428.832	108.37
429.039	94.04
429.247	55.12
429.454	128.85
429.662	212.82
429.869	89.94
430.076	190.29
430.284	194.39
430.491	202.58
430.699	163.67
430.906	175.95
431.114	163.67
431.321	157.52
431.528	118.61
431.736	180.05
431.943	171.86
432.15	81.75
432.358	128.85
432.565	337.74
432.772	63.32
432.979	245.59
433.187	102.23
433.394	243.54
433.601	155.47
433.808	253.78
434.016	278.35
434.223	315.22
434.43	163.67
434.637	276.31
434.844	329.55
435.052	208.72
435.259	282.45
435.466	239.44
435.673	245.59
435.88	296.78
436.087	372.56
436.294	364.37
436.501	333.65
436.708	266.07
436.915	261.97
437.122	368.46
437.329	302.93
437.537	274.26
437.743	380.75
437.95	474.96
438.157	380.75
438.364	317.26
438.571	415.57
438.778	440.14
438.985	528.21
439.192	499.53
439.399	436.05
439.606	462.67
439.813	587.6
440.02	630.6
440.227	749.39
440.433	565.07
440.64	515.92
440.847	569.16
441.054	628.56
441.261	792.39
441.467	745.29
441.674	714.57
441.881	800.59
442.088	710.47
442.294	866.12
442.501	843.59
442.708	864.07
442.914	819.02
443.121	931.66
443.328	862.02
443.534	991.05
443.741	923.46
443.948	876.36
444.154	956.23
444.361	1181.51
444.568	1181.51
444.774	1206.08
444.981	1042.25
445.187	1269.57
445.394	1232.71
445.6	1187.65
445.807	1367.87
446.013	1337.15
446.22	1283.91
446.426	1511.23
446.633	1670.97
446.839	1834.81
447.046	1439.55
447.252	1812.28
447.459	1814.33
447.665	1797.95
447.871	1881.91
448.078	2109.24
448.284	2019.13
448.491	2275.12
448.697	2199.35
448.903	2277.17
449.11	2395.95
449.316	2381.62
449.522	2621.23
449.728	2651.95
449.935	2680.62
450.141	2895.66
450.347	2928.42
450.553	2873.13
450.76	3067.69
450.966	3069.73
451.172	3190.56
451.378	3415.84
451.584	3473.18
451.791	3768.09
451.997	3876.63
452.203	3794.72
452.409	4054.81
452.615	4259.6
452.821	4077.34
453.027	4222.74
453.233	4886.28
453.44	4546.32
453.646	4869.9
453.852	5140.23
454.058	5132.04
454.264	5254.92
454.47	5785.34
454.676	5566.21
454.882	6311.67
455.088	6012.67
455.294	6313.72
455.5	6809.33
455.705	7022.31
455.911	7171.82
456.117	7411.43
456.323	7583.46
456.529	7583.46
456.735	8226.52
456.941	8666.83
457.147	8812.24
457.352	9113.29
457.558	9334.47
457.764	9987.77
457.97	10473.14
458.176	10702.51
458.381	11058.86
458.587	11296.42
458.793	11773.6
458.999	11990.69
459.204	13356.68
459.41	13969.02
459.616	13670.02
459.821	14388.86
460.027	15093.36
460.233	16115.3
460.438	16031.33
460.644	16739.93
460.85	17010.26
461.055	17415.76
461.261	18495.04
461.466	18060.87
461.672	18468.41
461.878	21007.89
462.083	20260.38
462.289	20971.03
462.494	21415.44
462.7	22124.04
462.905	22373.89
463.111	23905.77
463.316	24946.14
463.522	25523.66
463.727	26492.35
463.932	27573.68
464.138	28200.36
464.343	29447.57
464.549	29758.86
464.754	31442.29
464.959	32251.24
465.165	33258.84
465.37	32910.69
465.575	32886.11
465.781	34858.31
465.986	35919.15
466.191	35489.08
466.397	35929.39
466.602	35091.77
466.807	36846.88
467.012	37365.02
467.218	38210.83
467.423	37987.6
467.628	39998.71
467.833	41379.04
468.038	40668.39
468.244	39826.68
