Data from USB4F104151__36__10-24-41-237.txt Node

Date: Wed Feb 26 10:24:41 EST 2025
User: louis
Spectrometer: USB4F10415
Trigger mode: 4
Integration Time (sec): 1.000000E-1
Scans to average: 1
Electric dark correction enabled: true
Nonlinearity correction enabled: false
Boxcar width: 0
XAxis mode: Wavelengths
Number of Pixels in Spectrum: 3648
>>>>>Begin Spectral Data<<<<<
178.204	-430.93
178.424	-430.93
178.644	-430.93
178.864	-420.69
179.084	-361.3
179.304	27.82
179.524	36.01
179.744	54.44
179.964	54.44
180.184	25.77
180.404	-7
180.624	-37.72
180.844	-90.96
181.064	-74.58
181.283	21.67
181.503	-95.06
181.723	85.16
181.943	-29.52
182.163	251.05
182.383	-56.15
182.602	74.92
182.822	208.04
183.042	5.29
183.262	19.63
183.482	25.77
183.701	124.07
183.921	-0.85
184.141	-82.77
184.361	-7
184.58	-2.9
184.8	33.96
185.02	1.19
185.239	72.87
185.459	60.59
185.679	40.11
185.898	-68.44
186.118	64.68
186.338	128.17
186.557	146.6
186.777	-142.16
186.997	5.29
187.216	-15.19
187.436	173.22
187.655	70.83
187.875	158.89
188.095	13.48
188.314	103.59
188.534	117.93
188.753	-4.95
188.973	115.88
189.192	144.55
189.412	-60.24
189.631	3.24
189.851	148.65
190.07	173.22
190.29	-54.1
190.509	60.59
190.729	56.49
190.948	167.08
191.168	281.77
191.387	54.44
191.607	29.87
191.826	54.44
192.045	25.77
192.265	29.87
192.484	72.87
192.704	79.02
192.923	25.77
193.142	187.56
193.362	70.83
193.581	128.17
193.8	101.55
194.02	113.83
194.239	95.4
194.458	107.69
194.678	-19.29
194.897	3.24
195.116	81.07
195.335	52.39
195.555	66.73
195.774	23.72
195.993	103.59
196.212	93.35
196.432	-11.09
196.651	-23.38
196.87	21.67
197.089	191.66
197.308	58.54
197.528	85.16
197.747	-19.29
197.966	117.93
198.185	144.55
198.404	-93.01
198.623	72.87
198.842	150.7
199.062	52.39
199.281	81.07
199.5	-17.24
199.719	91.31
199.938	23.72
200.157	48.3
200.376	132.26
200.595	79.02
200.814	70.83
201.033	40.11
201.252	107.69
201.471	62.63
201.69	62.63
201.909	13.48
202.128	119.98
202.347	38.06
202.566	5.29
202.785	25.77
203.004	-43.86
203.223	289.96
203.442	38.06
203.661	-11.09
203.879	111.78
204.098	175.27
204.317	-35.67
204.536	113.83
204.755	48.3
204.974	109.74
205.193	70.83
205.411	181.42
205.63	199.85
205.849	-2.9
206.068	93.35
206.287	-29.52
206.505	193.7
206.724	81.07
206.943	5.29
207.162	17.58
207.381	89.26
207.599	19.63
207.818	68.78
208.037	-0.85
208.255	38.06
208.474	83.11
208.693	17.58
208.911	-50
209.13	64.68
209.349	140.46
209.567	113.83
209.786	33.96
210.005	140.46
210.223	62.63
210.442	-103.25
210.661	60.59
210.879	46.25
211.098	165.03
211.316	56.49
211.535	62.63
211.753	97.45
211.972	76.97
212.191	-39.76
212.409	66.73
212.628	128.17
212.846	9.39
213.065	68.78
213.283	42.15
213.502	46.25
213.72	91.31
213.938	83.11
214.157	11.43
214.375	97.45
214.594	-21.33
214.812	36.01
215.031	74.92
215.249	93.35
215.467	-7
215.686	5.29
215.904	58.54
216.122	42.15
216.341	101.55
216.559	83.11
216.778	62.63
216.996	195.75
217.214	50.35
217.432	25.77
217.651	-39.76
217.869	101.55
218.087	99.5
218.306	-17.24
218.524	54.44
218.742	-23.38
218.96	132.26
219.179	3.24
219.397	-29.52
219.615	222.38
219.833	158.89
220.051	1.19
220.27	76.97
220.488	66.73
220.706	83.11
220.924	33.96
221.142	-45.91
221.36	38.06
221.578	54.44
221.796	-19.29
222.015	-0.85
222.233	99.5
222.451	222.38
222.669	-31.57
222.887	62.63
223.105	5.29
223.323	83.11
223.541	3.24
223.759	48.3
223.977	42.15
224.195	162.98
224.413	72.87
224.631	23.72
224.849	-17.24
225.067	193.7
225.285	1.19
225.503	-4.95
225.721	-39.76
225.939	89.26
226.157	158.89
226.375	210.09
226.592	58.54
226.81	40.11
227.028	64.68
227.246	214.18
227.464	29.87
227.682	132.26
227.9	97.45
228.117	40.11
228.335	130.22
228.553	17.58
228.771	33.96
228.989	9.39
229.206	72.87
229.424	7.34
229.642	3.24
229.86	-52.05
230.077	134.31
230.295	13.48
230.513	42.15
230.731	128.17
230.948	234.66
231.166	156.84
231.384	13.48
231.601	-17.24
231.819	171.18
232.037	-82.77
232.254	36.01
232.472	-9.05
232.689	101.55
232.907	109.74
233.125	13.48
233.342	19.63
233.56	-2.9
233.777	54.44
233.995	-41.81
234.213	64.68
234.43	97.45
234.648	17.58
234.865	-56.15
235.083	140.46
235.3	50.35
235.518	97.45
235.735	95.4
235.953	122.02
236.17	36.01
236.388	40.11
236.605	36.01
236.822	138.41
237.04	134.31
237.257	-19.29
237.475	-62.29
237.692	48.3
237.909	29.87
238.127	40.11
238.344	42.15
238.562	62.63
238.779	-50
238.996	-21.33
239.214	11.43
239.431	58.54
239.648	50.35
239.865	105.64
240.083	70.83
240.3	-2.9
240.517	-19.29
240.735	7.34
240.952	117.93
241.169	85.16
241.386	36.01
241.603	15.53
241.821	-15.19
242.038	99.5
242.255	81.07
242.472	-37.72
242.689	101.55
242.907	44.2
243.124	-4.95
243.341	81.07
243.558	-58.2
243.775	-9.05
243.992	21.67
244.209	91.31
244.426	208.04
244.643	-37.72
244.86	-7
245.078	95.4
245.295	-54.1
245.512	-33.62
245.729	13.48
245.946	44.2
246.163	119.98
246.38	-21.33
246.597	134.31
246.814	25.77
247.031	95.4
247.248	-23.38
247.464	124.07
247.681	-2.9
247.898	130.22
248.115	25.77
248.332	-29.52
248.549	208.04
248.766	197.8
248.983	56.49
249.2	91.31
249.417	58.54
249.633	3.24
249.85	126.12
250.067	27.82
250.284	58.54
250.501	87.21
250.717	58.54
250.934	-29.52
251.151	-7
251.368	66.73
251.585	42.15
251.801	9.39
252.018	44.2
252.235	97.45
252.451	-107.35
252.668	29.87
252.885	101.55
253.102	38.06
253.318	-31.57
253.535	70.83
253.752	-19.29
253.968	23.72
254.185	13.48
254.401	36.01
254.618	136.36
254.835	-27.48
255.051	160.94
255.268	115.88
255.484	107.69
255.701	42.15
255.917	31.91
256.134	-107.35
256.351	52.39
256.567	-68.44
256.784	-23.38
257	-43.86
257.217	132.26
257.433	150.7
257.65	107.69
257.866	107.69
258.082	-45.91
258.299	58.54
258.515	70.83
258.732	13.48
258.948	13.48
259.165	52.39
259.381	33.96
259.597	103.59
259.814	87.21
260.03	42.15
260.246	105.64
260.463	56.49
260.679	111.78
260.895	50.35
261.112	58.54
261.328	50.35
261.544	-23.38
261.761	150.7
261.977	-25.43
262.193	-4.95
262.409	48.3
262.626	-7
262.842	58.54
263.058	-27.48
263.274	113.83
263.49	23.72
263.707	83.11
263.923	140.46
264.139	-56.15
264.355	25.77
264.571	173.22
264.787	109.74
265.004	165.03
265.22	-13.14
265.436	36.01
265.652	-15.19
265.868	70.83
266.084	-74.58
266.3	-19.29
266.516	-50
266.732	81.07
266.948	109.74
267.164	23.72
267.38	97.45
267.596	76.97
267.812	173.22
268.028	46.25
268.244	62.63
268.46	23.72
268.676	46.25
268.892	13.48
269.108	-99.16
269.324	33.96
269.54	-27.48
269.756	76.97
269.972	-76.63
270.188	-17.24
270.403	42.15
270.619	1.19
270.835	109.74
271.051	-11.09
271.267	89.26
271.483	15.53
271.698	91.31
271.914	138.41
272.13	85.16
272.346	-41.81
272.562	83.11
272.777	85.16
272.993	-23.38
273.209	-25.43
273.425	91.31
273.64	-41.81
273.856	54.44
274.072	-19.29
274.287	-25.43
274.503	42.15
274.719	115.88
274.934	-11.09
275.15	-45.91
275.366	3.24
275.581	-19.29
275.797	29.87
276.012	-37.72
276.228	1.19
276.444	38.06
276.659	105.64
276.875	-4.95
277.09	-9.05
277.306	-9.05
277.521	42.15
277.737	33.96
277.952	162.98
278.168	46.25
278.383	70.83
278.599	97.45
278.814	93.35
279.03	38.06
279.245	87.21
279.461	-2.9
279.676	109.74
279.892	-68.44
280.107	1.19
280.322	-25.43
280.538	85.16
280.753	-25.43
280.969	52.39
281.184	46.25
281.399	111.78
281.615	85.16
281.83	31.91
282.045	-123.73
282.26	36.01
282.476	-11.09
282.691	173.22
282.906	156.84
283.122	72.87
283.337	21.67
283.552	66.73
283.767	40.11
283.983	62.63
284.198	70.83
284.413	81.07
284.628	-95.06
284.843	105.64
285.058	64.68
285.274	-9.05
285.489	-113.49
285.704	165.03
285.919	-31.57
286.134	-11.09
286.349	-13.14
286.564	-19.29
286.779	38.06
286.995	9.39
287.21	-101.2
287.425	72.87
287.64	23.72
287.855	27.82
288.07	-76.63
288.285	109.74
288.5	83.11
288.715	48.3
288.93	25.77
289.145	-21.33
289.36	81.07
289.575	-23.38
289.79	189.61
290.004	9.39
290.219	103.59
290.434	15.53
290.649	-50
290.864	17.58
291.079	-0.85
291.294	17.58
291.509	89.26
291.724	-11.09
291.938	-13.14
292.153	72.87
292.368	21.67
292.583	81.07
292.798	44.2
293.012	97.45
293.227	85.16
293.442	11.43
293.657	76.97
293.871	134.31
294.086	50.35
294.301	148.65
294.516	93.35
294.73	21.67
294.945	-111.44
295.16	-25.43
295.374	138.41
295.589	124.07
295.804	91.31
296.018	54.44
296.233	87.21
296.447	87.21
296.662	40.11
296.877	99.5
297.091	113.83
297.306	79.02
297.52	13.48
297.735	113.83
297.949	64.68
298.164	83.11
298.378	54.44
298.593	-11.09
298.807	-50
299.022	79.02
299.236	230.57
299.451	-17.24
299.665	-15.19
299.88	31.91
300.094	85.16
300.309	72.87
300.523	74.92
300.737	44.2
300.952	85.16
301.166	134.31
301.381	-2.9
301.595	-21.33
301.809	36.01
302.024	-37.72
302.238	42.15
302.452	165.03
302.667	103.59
302.881	156.84
303.095	169.13
303.309	62.63
303.524	3.24
303.738	38.06
303.952	95.4
304.166	91.31
304.381	-54.1
304.595	189.61
304.809	-17.24
305.023	126.12
305.237	68.78
305.452	83.11
305.666	85.16
305.88	66.73
306.094	173.22
306.308	109.74
306.522	177.32
306.736	-15.19
306.95	23.72
307.164	11.43
307.379	17.58
307.593	91.31
307.807	103.59
308.021	150.7
308.235	48.3
308.449	-37.72
308.663	38.06
308.877	208.04
309.091	81.07
309.305	99.5
309.519	-17.24
309.733	132.26
309.947	-64.34
310.161	85.16
310.374	56.49
310.588	173.22
310.802	-72.53
311.016	60.59
311.23	81.07
311.444	-31.57
311.658	93.35
311.872	230.57
312.085	183.46
312.299	146.6
312.513	146.6
312.727	21.67
312.941	-35.67
313.154	101.55
313.368	117.93
313.582	-15.19
313.796	40.11
314.009	91.31
314.223	132.26
314.437	38.06
314.651	87.21
314.864	36.01
315.078	13.48
315.292	7.34
315.505	68.78
315.719	31.91
315.933	3.24
316.146	17.58
316.36	62.63
316.573	142.5
316.787	52.39
317.001	128.17
317.214	-29.52
317.428	54.44
317.641	-25.43
317.855	9.39
318.068	62.63
318.282	58.54
318.495	238.76
318.709	62.63
318.922	-7
319.136	124.07
319.349	144.55
319.563	-60.24
319.776	62.63
319.99	-127.83
320.203	130.22
320.417	31.91
320.63	31.91
320.843	160.94
321.057	72.87
321.27	99.5
321.483	36.01
321.697	195.75
321.91	83.11
322.124	46.25
322.337	144.55
322.55	-62.29
322.763	29.87
322.977	-7
323.19	27.82
323.403	68.78
323.617	21.67
323.83	160.94
324.043	-31.57
324.256	87.21
324.469	-13.14
324.683	128.17
324.896	3.24
325.109	40.11
325.322	-23.38
325.535	119.98
325.748	79.02
325.962	-23.38
326.175	38.06
326.388	48.3
326.601	54.44
326.814	97.45
327.027	165.03
327.24	31.91
327.453	-78.68
327.666	33.96
327.879	105.64
328.092	177.32
328.305	115.88
328.518	-33.62
328.731	15.53
328.944	-23.38
329.157	64.68
329.37	17.58
329.583	185.51
329.796	128.17
330.009	19.63
330.222	105.64
330.435	83.11
330.648	5.29
330.861	19.63
331.073	36.01
331.286	83.11
331.499	19.63
331.712	-0.85
331.925	-9.05
332.138	11.43
332.35	119.98
332.563	11.43
332.776	124.07
332.989	31.91
333.202	3.24
333.414	13.48
333.627	3.24
333.84	33.96
334.053	68.78
334.265	-47.96
334.478	11.43
334.691	122.02
334.903	105.64
335.116	42.15
335.329	3.24
335.541	81.07
335.754	171.18
335.966	-19.29
336.179	46.25
336.392	-2.9
336.604	60.59
336.817	134.31
337.029	36.01
337.242	-19.29
337.454	17.58
337.667	87.21
337.88	138.41
338.092	44.2
338.305	93.35
338.517	-15.19
338.729	103.59
338.942	103.59
339.154	-17.24
339.367	33.96
339.579	156.84
339.792	60.59
340.004	146.6
340.217	36.01
340.429	136.36
340.641	17.58
340.854	-19.29
341.066	-19.29
341.278	85.16
341.491	119.98
341.703	-2.9
341.915	79.02
342.128	95.4
342.34	9.39
342.552	11.43
342.764	62.63
342.977	23.72
343.189	144.55
343.401	19.63
343.613	-54.1
343.826	64.68
344.038	-4.95
344.25	140.46
344.462	-62.29
344.674	58.54
344.886	48.3
345.099	64.68
345.311	58.54
345.523	91.31
345.735	-33.62
345.947	72.87
346.159	46.25
346.371	111.78
346.583	-2.9
346.795	138.41
347.007	5.29
347.219	119.98
347.431	38.06
347.643	173.22
347.855	-7
348.067	105.64
348.279	-33.62
348.491	-62.29
348.703	93.35
348.915	17.58
349.127	11.43
349.339	54.44
349.551	11.43
349.763	117.93
349.975	-15.19
350.187	68.78
350.399	74.92
350.61	111.78
350.822	46.25
351.034	64.68
351.246	122.02
351.458	81.07
351.669	15.53
351.881	25.77
352.093	177.32
352.305	154.79
352.517	89.26
352.728	144.55
352.94	115.88
353.152	38.06
353.363	5.29
353.575	64.68
353.787	132.26
353.999	52.39
354.21	162.98
354.422	36.01
354.633	81.07
354.845	3.24
355.057	5.29
355.268	97.45
355.48	119.98
355.692	-138.07
355.903	-13.14
356.115	33.96
356.326	-84.82
356.538	119.98
356.749	87.21
356.961	144.55
357.172	60.59
357.384	56.49
357.595	253.09
357.807	31.91
358.018	52.39
358.23	5.29
358.441	50.35
358.653	97.45
358.864	68.78
359.075	15.53
359.287	29.87
359.498	54.44
359.709	103.59
359.921	42.15
360.132	81.07
360.344	79.02
360.555	1.19
360.766	-47.96
360.977	56.49
361.189	124.07
361.4	-2.9
361.611	165.03
361.823	113.83
362.034	76.97
362.245	-41.81
362.456	66.73
362.667	101.55
362.879	-33.62
363.09	44.2
363.301	72.87
363.512	15.53
363.723	15.53
363.935	5.29
364.146	58.54
364.357	46.25
364.568	46.25
364.779	-105.3
364.99	173.22
365.201	-7
365.412	109.74
365.623	-31.57
365.834	148.65
366.045	-15.19
366.256	48.3
366.467	64.68
366.678	31.91
366.889	38.06
367.1	36.01
367.311	48.3
367.522	38.06
367.733	74.92
367.944	103.59
368.155	-29.52
368.366	142.5
368.577	117.93
368.788	91.31
368.999	36.01
369.209	72.87
369.42	177.32
369.631	210.09
369.842	87.21
370.053	7.34
370.264	132.26
370.474	-27.48
370.685	72.87
370.896	74.92
371.107	105.64
371.317	48.3
371.528	3.24
371.739	122.02
371.95	42.15
372.16	54.44
372.371	-17.24
372.582	-9.05
372.792	25.77
373.003	83.11
373.214	111.78
373.424	79.02
373.635	-54.1
373.846	58.54
374.056	13.48
374.267	74.92
374.477	29.87
374.688	7.34
374.898	85.16
375.109	52.39
375.319	48.3
375.53	167.08
375.74	156.84
375.951	13.48
376.161	70.83
376.372	103.59
376.582	-37.72
376.793	95.4
377.003	64.68
377.214	-21.33
377.424	119.98
377.635	66.73
377.845	-7
378.055	150.7
378.266	29.87
378.476	42.15
378.686	13.48
378.897	52.39
379.107	138.41
379.317	25.77
379.528	50.35
379.738	107.69
379.948	-115.54
380.158	66.73
380.369	101.55
380.579	64.68
380.789	-19.29
380.999	191.66
381.21	83.11
381.42	242.85
381.63	60.59
381.84	79.02
382.05	113.83
382.261	111.78
382.471	122.02
382.681	-86.87
382.891	212.14
383.101	97.45
383.311	-15.19
383.521	25.77
383.731	165.03
383.941	87.21
384.151	60.59
384.361	91.31
384.571	91.31
384.781	132.26
384.991	183.46
385.201	130.22
385.411	124.07
385.621	46.25
385.831	38.06
386.041	62.63
386.251	13.48
386.461	66.73
386.671	101.55
386.881	72.87
387.091	52.39
387.301	113.83
387.511	79.02
387.72	58.54
387.93	83.11
388.14	-47.96
388.35	31.91
388.56	83.11
388.769	113.83
388.979	111.78
389.189	7.34
389.399	54.44
389.609	111.78
389.818	154.79
390.028	105.64
390.238	126.12
390.447	31.91
390.657	70.83
390.867	44.2
391.076	31.91
391.286	97.45
391.496	48.3
391.705	70.83
391.915	144.55
392.125	134.31
392.334	-56.15
392.544	122.02
392.753	44.2
392.963	-25.43
393.172	60.59
393.382	70.83
393.591	208.04
393.801	38.06
394.01	179.37
394.22	111.78
394.429	79.02
394.639	50.35
394.848	148.65
395.058	62.63
395.267	101.55
395.477	93.35
395.686	115.88
395.895	228.52
396.105	251.05
396.314	87.21
396.524	103.59
396.733	33.96
396.942	117.93
397.152	162.98
397.361	154.79
397.57	171.18
397.78	81.07
397.989	113.83
398.198	259.24
398.407	162.98
398.617	101.55
398.826	99.5
399.035	89.26
399.244	115.88
399.453	-27.48
399.663	126.12
399.872	38.06
400.081	-82.77
400.29	105.64
400.499	64.68
400.708	122.02
400.917	38.06
401.127	105.64
401.336	-37.72
401.545	156.84
401.754	132.26
401.963	83.11
402.172	29.87
402.381	-58.2
402.59	31.91
402.799	-2.9
403.008	99.5
403.217	68.78
403.426	99.5
403.635	-15.19
403.844	79.02
404.053	52.39
404.262	-29.52
404.471	109.74
404.68	70.83
404.888	79.02
405.097	38.06
405.306	85.16
405.515	62.63
405.724	13.48
405.933	62.63
406.142	42.15
406.35	66.73
406.559	58.54
406.768	62.63
406.977	150.7
407.185	83.11
407.394	52.39
407.603	-9.05
407.812	105.64
408.02	142.5
408.229	-4.95
408.438	36.01
408.646	-97.11
408.855	93.35
409.064	124.07
409.272	56.49
409.481	87.21
409.69	-9.05
409.898	-15.19
410.107	74.92
410.315	126.12
410.524	-21.33
410.733	101.55
410.941	72.87
411.15	111.78
411.358	93.35
411.567	167.08
411.775	11.43
411.984	169.13
412.192	119.98
412.401	126.12
412.609	214.18
412.818	33.96
413.026	62.63
413.234	60.59
413.443	111.78
413.651	-66.39
413.86	79.02
414.068	150.7
414.276	208.04
414.485	13.48
414.693	134.31
414.901	175.27
415.11	50.35
415.318	81.07
415.526	109.74
415.734	68.78
415.943	111.78
416.151	119.98
416.359	48.3
416.567	36.01
416.776	42.15
416.984	99.5
417.192	187.56
417.4	56.49
417.608	7.34
417.817	-27.48
418.025	130.22
418.233	167.08
418.441	15.53
418.649	-2.9
418.857	115.88
419.065	54.44
419.273	1.19
419.481	9.39
419.689	83.11
419.897	-39.76
420.105	-31.57
420.313	117.93
420.521	175.27
420.729	117.93
420.937	-35.67
421.145	-60.24
421.353	185.51
421.561	160.94
421.769	56.49
421.977	15.53
422.185	158.89
422.393	72.87
422.601	95.4
422.809	29.87
423.017	38.06
423.224	11.43
423.432	197.8
423.64	105.64
423.848	132.26
424.056	76.97
424.263	152.74
424.471	72.87
424.679	220.33
424.887	68.78
425.094	162.98
425.302	101.55
425.51	23.72
425.718	152.74
425.925	79.02
426.133	-19.29
426.341	222.38
426.548	-0.85
426.756	138.41
426.964	122.02
427.171	21.67
427.379	134.31
427.586	103.59
427.794	126.12
428.001	109.74
428.209	109.74
428.417	185.51
428.624	89.26
428.832	33.96
429.039	64.68
429.247	64.68
429.454	109.74
429.662	249
429.869	89.26
430.076	97.45
430.284	191.66
430.491	201.9
430.699	154.79
430.906	193.7
431.114	122.02
431.321	95.4
431.528	89.26
431.736	177.32
431.943	158.89
432.15	175.27
432.358	218.28
432.565	205.99
432.772	15.53
432.979	126.12
433.187	148.65
433.394	246.95
433.601	146.6
433.808	249
434.016	228.52
434.223	300.2
434.43	242.85
434.637	320.68
434.844	218.28
435.052	302.25
435.259	265.38
435.466	240.81
435.673	328.87
435.88	251.05
436.087	371.88
436.294	378.02
436.501	308.39
436.708	363.69
436.915	390.31
437.122	345.25
437.329	253.09
437.537	287.91
437.743	361.64
437.95	459.94
438.157	353.45
438.364	298.15
438.571	470.18
438.778	386.21
438.985	396.45
439.192	558.24
439.399	517.28
439.606	502.95
439.813	527.52
440.02	593.06
440.227	689.31
440.433	601.25
440.64	650.4
440.847	552.1
441.054	648.35
441.261	781.47
441.467	717.98
441.674	515.23
441.881	756.9
442.088	644.26
442.294	795.81
442.501	861.34
442.708	834.72
442.914	820.38
443.121	871.58
443.328	883.87
443.534	892.06
443.741	926.88
443.948	914.59
444.154	1019.04
444.361	1291.41
444.568	1119.39
444.774	1201.3
444.981	1086.62
445.187	1291.41
445.394	1242.26
445.6	1205.4
445.807	1381.53
446.013	1399.96
446.22	1268.89
446.426	1473.68
446.633	1543.32
446.839	1721.49
447.046	1533.08
447.252	1733.78
447.459	1655.95
447.665	1807.5
447.871	1901.71
448.078	2053.26
448.284	1983.63
448.491	2131.08
448.697	2213
448.903	2256.01
449.11	2370.69
449.316	2260.1
449.522	2481.28
449.728	2587.78
449.935	2696.32
450.141	2733.18
450.347	2888.83
450.553	2856.06
450.76	2997.37
450.966	3187.83
451.172	3128.44
451.378	3454.07
451.584	3507.32
451.791	3615.86
451.997	3769.46
452.203	3849.33
452.409	3984.49
452.615	4220.01
452.821	4185.19
453.027	4023.41
453.233	4787.3
453.44	4553.83
453.646	4586.6
453.852	4963.42
454.058	5092.44
454.264	5170.27
454.47	5583.96
454.676	5618.77
454.882	6206.54
455.088	5891.15
455.294	6294.6
455.5	6478.92
455.705	6919.23
455.911	6960.19
456.117	7121.98
456.323	7431.23
456.529	7267.39
456.735	8053.81
456.941	8221.74
457.147	8612.9
457.352	8834.08
457.558	9057.31
457.764	9536.54
457.97	9788.44
458.176	10255.37
458.381	10814.47
458.587	11031.55
458.793	11561.98
458.999	11527.16
459.204	12946.41
459.41	13388.77
459.616	13300.7
459.821	14050.26
460.027	14451.66
460.233	15369.15
460.438	15203.27
460.644	16044.98
460.85	16174
461.055	16980.9
461.261	17904.54
461.466	17550.24
461.672	17834.91
461.878	20044.66
462.083	19454.85
462.289	19798.91
462.494	21111.66
462.7	21091.18
462.905	21500.77
463.111	23010.12
463.316	23780.16
463.522	24462.13
463.727	25283.37
463.932	26407.7
464.138	26862.35
464.343	28078.85
464.549	28326.65
464.754	30788.31
464.959	31197.9
465.165	31969.99
465.37	31539.91
465.575	31365.84
465.781	33667.75
465.986	35070.61
466.191	34585.24
466.397	34333.34
466.602	33686.18
466.807	35392.14
467.012	36242.05
467.218	36766.33
467.423	36465.28
467.628	38285.92
467.833	40000.07
468.038	39279.19
468.244	38349.41
468.449	40311.36
