Data from USB4F104151__4__09-24-24-428.txt Node

Date: Wed Feb 26 09:24:24 EST 2025
User: louis
Spectrometer: USB4F10415
Trigger mode: 4
Integration Time (sec): 1.000000E-1
Scans to average: 1
Electric dark correction enabled: true
Nonlinearity correction enabled: false
Boxcar width: 0
XAxis mode: Wavelengths
Number of Pixels in Spectrum: 3648
>>>>>Begin Spectral Data<<<<<
178.204	-329.55
178.424	-329.55
178.644	-329.55
178.864	-356.18
179.084	-341.84
179.304	32.94
179.524	2.22
179.744	51.37
179.964	24.75
180.184	59.56
180.404	-59.22
180.624	-53.08
180.844	-14.17
181.064	-83.8
181.283	53.42
181.503	-30.55
181.723	16.55
181.943	-116.56
182.163	118.95
182.383	-55.12
182.602	20.65
182.822	159.91
183.042	41.13
183.262	-18.26
183.482	-1.88
183.701	-38.74
183.921	12.46
184.141	-46.93
184.361	174.25
184.58	55.47
184.8	59.56
185.02	-36.69
185.239	39.08
185.459	26.79
185.679	110.76
185.898	-110.42
186.118	22.7
186.338	28.84
186.557	84.14
186.777	-38.74
186.997	-22.36
187.216	-16.21
187.436	116.9
187.655	53.42
187.875	57.51
188.095	-30.55
188.314	86.19
188.534	96.43
188.753	-3.93
188.973	123.05
189.192	34.99
189.412	34.99
189.631	-14.17
189.851	71.85
190.07	43.18
190.29	-59.22
190.509	39.08
190.729	-3.93
190.948	22.7
191.168	161.96
191.387	24.75
191.607	6.31
191.826	30.89
192.045	-38.74
192.265	63.66
192.484	55.47
192.704	41.13
192.923	-28.5
193.142	202.92
193.362	63.66
193.581	75.95
193.8	30.89
194.02	75.95
194.239	-5.97
194.458	10.41
194.678	30.89
194.897	30.89
195.116	51.37
195.335	39.08
195.555	71.85
195.774	10.41
195.993	180.39
196.212	-42.84
196.432	-1.88
196.651	22.7
196.87	-3.93
197.089	209.06
197.308	43.18
197.528	14.51
197.747	-79.7
197.966	63.66
198.185	39.08
198.404	-38.74
198.623	112.81
198.842	141.48
199.062	137.38
199.281	80.04
199.5	-10.07
199.719	80.04
199.938	90.28
200.157	178.34
200.376	75.95
200.595	77.99
200.814	67.75
201.033	6.31
201.252	194.73
201.471	20.65
201.69	51.37
201.909	80.04
202.128	102.57
202.347	12.46
202.566	34.99
202.785	-34.64
203.004	-108.37
203.223	159.91
203.442	26.79
203.661	-55.12
203.879	8.36
204.098	63.66
204.317	-34.64
204.536	10.41
204.755	77.99
204.974	39.08
205.193	-55.12
205.411	121
205.63	39.08
205.849	-32.6
206.068	63.66
206.287	-28.5
206.505	86.19
206.724	-55.12
206.943	34.99
207.162	4.27
207.381	30.89
207.599	41.13
207.818	30.89
208.037	-12.12
208.255	-36.69
208.474	2.22
208.693	137.38
208.911	-61.27
209.13	71.85
209.349	-10.07
209.567	28.84
209.786	59.56
210.005	-10.07
210.223	108.71
210.442	-108.37
210.661	14.51
210.879	10.41
211.098	37.03
211.316	20.65
211.535	16.55
211.753	6.31
211.972	4.27
212.191	6.31
212.409	10.41
212.628	67.75
212.846	2.22
213.065	24.75
213.283	88.23
213.502	22.7
213.72	18.6
213.938	22.7
214.157	-44.88
214.375	55.47
214.594	10.41
214.812	63.66
215.031	22.7
215.249	14.51
215.467	47.27
215.686	-34.64
215.904	65.71
216.122	-42.84
216.341	153.77
216.559	-30.55
216.778	47.27
216.996	133.29
217.214	0.17
217.432	22.7
217.651	59.56
217.869	57.51
218.087	18.6
218.306	-26.45
218.524	47.27
218.742	-1.88
218.96	77.99
219.179	-14.17
219.397	32.94
219.615	202.92
219.833	49.32
220.051	-40.79
220.27	55.47
220.488	53.42
220.706	98.47
220.924	-100.18
221.142	-18.26
221.36	32.94
221.578	57.51
221.796	47.27
222.015	-28.5
222.233	61.61
222.451	106.67
222.669	-34.64
222.887	32.94
223.105	-87.89
223.323	20.65
223.541	-63.32
223.759	53.42
223.977	4.27
224.195	155.82
224.413	6.31
224.631	59.56
224.849	51.37
225.067	225.45
225.285	-30.55
225.503	30.89
225.721	-137.04
225.939	4.27
226.157	22.7
226.375	147.62
226.592	-20.31
226.81	63.66
227.028	94.38
227.246	121
227.464	-18.26
227.682	69.8
227.9	6.31
228.117	51.37
228.335	80.04
228.553	4.27
228.771	53.42
228.989	37.03
229.206	65.71
229.424	-26.45
229.642	-65.36
229.86	-26.45
230.077	51.37
230.295	55.47
230.513	96.43
230.731	22.7
230.948	86.19
231.166	94.38
231.384	30.89
231.601	-3.93
231.819	118.95
232.037	0.17
232.254	18.6
232.472	22.7
232.689	32.94
232.907	92.33
233.125	-10.07
233.342	4.27
233.56	-34.64
233.777	-18.26
233.995	55.47
234.213	22.7
234.43	14.51
234.648	-3.93
234.865	-20.31
235.083	77.99
235.3	-18.26
235.518	98.47
235.735	155.82
235.953	43.18
236.17	32.94
236.388	2.22
236.605	-14.17
236.822	77.99
237.04	80.04
237.257	63.66
237.475	-116.56
237.692	92.33
237.909	45.23
238.127	-1.88
238.344	71.85
238.562	-8.02
238.779	-32.6
238.996	-20.31
239.214	-46.93
239.431	59.56
239.648	-46.93
239.865	55.47
240.083	59.56
240.3	18.6
240.517	-51.03
240.735	20.65
240.952	108.71
241.169	28.84
241.386	24.75
241.603	22.7
241.821	-28.5
242.038	98.47
242.255	37.03
242.472	-14.17
242.689	-24.4
242.907	135.34
243.124	28.84
243.341	-38.74
243.558	-71.51
243.775	4.27
243.992	-94.04
244.209	39.08
244.426	164.01
244.643	63.66
244.86	18.6
245.078	59.56
245.295	22.7
245.512	32.94
245.729	-30.55
245.946	-46.93
246.163	47.27
246.38	22.7
246.597	63.66
246.814	32.94
247.031	-3.93
247.248	49.32
247.464	104.62
247.681	4.27
247.898	61.61
248.115	100.52
248.332	-32.6
248.549	88.23
248.766	114.86
248.983	92.33
249.2	125.1
249.417	100.52
249.633	-51.03
249.85	-3.93
250.067	10.41
250.284	-20.31
250.501	26.79
250.717	34.99
250.934	-69.46
251.151	-32.6
251.368	10.41
251.585	49.32
251.801	59.56
252.018	-26.45
252.235	75.95
252.451	51.37
252.668	67.75
252.885	61.61
253.102	51.37
253.318	-108.37
253.535	-16.21
253.752	6.31
253.968	-26.45
254.185	-61.27
254.401	28.84
254.618	10.41
254.835	-3.93
255.051	174.25
255.268	20.65
255.484	71.85
255.701	34.99
255.917	43.18
256.134	-85.84
256.351	-30.55
256.567	-42.84
256.784	10.41
257	-26.45
257.217	73.9
257.433	32.94
257.65	-10.07
257.866	110.76
258.082	-102.23
258.299	-20.31
258.515	2.22
258.732	-34.64
258.948	-22.36
259.165	-10.07
259.381	-55.12
259.597	57.51
259.814	24.75
260.03	53.42
260.246	28.84
260.463	63.66
260.679	73.9
260.895	75.95
261.112	80.04
261.328	-59.22
261.544	-10.07
261.761	215.21
261.977	39.08
262.193	-59.22
262.409	84.14
262.626	10.41
262.842	28.84
263.058	-36.69
263.274	28.84
263.49	59.56
263.707	18.6
263.923	104.62
264.139	-124.76
264.355	55.47
264.571	100.52
264.787	67.75
265.004	114.86
265.22	-46.93
265.436	-26.45
265.652	-34.64
265.868	73.9
266.084	-83.8
266.3	39.08
266.516	-20.31
266.732	-100.18
266.948	10.41
267.164	0.17
267.38	90.28
267.596	53.42
267.812	80.04
268.028	30.89
268.244	-20.31
268.46	-12.12
268.676	-75.6
268.892	6.31
269.108	-81.75
269.324	-71.51
269.54	-36.69
269.756	6.31
269.972	-34.64
270.188	6.31
270.403	-53.08
270.619	-40.79
270.835	30.89
271.051	-96.08
271.267	30.89
271.483	-30.55
271.698	47.27
271.914	59.56
272.13	-10.07
272.346	-83.8
272.562	26.79
272.777	125.1
272.993	-59.22
273.209	24.75
273.425	39.08
273.64	-77.65
273.856	59.56
274.072	0.17
274.287	77.99
274.503	94.38
274.719	32.94
274.934	-38.74
275.15	-46.93
275.366	49.32
275.581	-59.22
275.797	-28.5
276.012	102.57
276.228	63.66
276.444	30.89
276.659	123.05
276.875	-79.7
277.09	-12.12
277.306	-63.32
277.521	6.31
277.737	30.89
277.952	116.9
278.168	18.6
278.383	14.51
278.599	26.79
278.814	37.03
279.03	4.27
279.245	84.14
279.461	75.95
279.676	26.79
279.892	55.47
280.107	-108.37
280.322	-18.26
280.538	4.27
280.753	6.31
280.969	-51.03
281.184	-22.36
281.399	71.85
281.615	-3.93
281.83	82.09
282.045	-53.08
282.26	-38.74
282.476	47.27
282.691	20.65
282.906	71.85
283.122	88.23
283.337	75.95
283.552	-1.88
283.767	-10.07
283.983	10.41
284.198	4.27
284.413	47.27
284.628	-18.26
284.843	75.95
285.058	49.32
285.274	-18.26
285.489	-26.45
285.704	-77.65
285.919	2.22
286.134	14.51
286.349	57.51
286.564	55.47
286.779	137.38
286.995	-36.69
287.21	-124.76
287.425	69.8
287.64	-69.46
287.855	16.55
288.07	-32.6
288.285	12.46
288.5	92.33
288.715	55.47
288.93	32.94
289.145	-30.55
289.36	92.33
289.575	16.55
289.79	65.71
290.004	-89.94
290.219	157.86
290.434	4.27
290.649	-65.36
290.864	-51.03
291.079	6.31
291.294	34.99
291.509	-20.31
291.724	12.46
291.938	4.27
292.153	69.8
292.368	-8.02
292.583	28.84
292.798	80.04
293.012	43.18
293.227	30.89
293.442	-34.64
293.657	69.8
293.871	94.38
294.086	59.56
294.301	127.14
294.516	84.14
294.73	71.85
294.945	2.22
295.16	-34.64
295.374	102.57
295.589	110.76
295.804	-24.4
296.018	-51.03
296.233	98.47
296.447	-8.02
296.662	30.89
296.877	-30.55
297.091	14.51
297.306	-5.97
297.52	14.51
297.735	22.7
297.949	-12.12
298.164	-30.55
298.378	-38.74
298.593	-89.94
298.807	-55.12
299.022	53.42
299.236	121
299.451	30.89
299.665	-71.51
299.88	86.19
300.094	125.1
300.309	-10.07
300.523	47.27
300.737	-14.17
300.952	53.42
301.166	4.27
301.381	-42.84
301.595	30.89
301.809	-18.26
302.024	6.31
302.238	-55.12
302.452	96.43
302.667	-1.88
302.881	41.13
303.095	30.89
303.309	57.51
303.524	-59.22
303.738	73.9
303.952	-34.64
304.166	51.37
304.381	-116.56
304.595	100.52
304.809	-34.64
305.023	-112.47
305.237	-53.08
305.452	14.51
305.666	129.19
305.88	67.75
306.094	80.04
306.308	18.6
306.522	102.57
306.736	80.04
306.95	12.46
307.164	20.65
307.379	-5.97
307.593	131.24
307.807	37.03
308.021	61.61
308.235	12.46
308.449	-94.04
308.663	55.47
308.877	172.2
309.091	-91.99
309.305	106.67
309.519	-132.95
309.733	125.1
309.947	-44.88
310.161	82.09
310.374	55.47
310.588	26.79
310.802	-14.17
311.016	18.6
311.23	4.27
311.444	-20.31
311.658	-1.88
311.872	69.8
312.085	47.27
312.299	133.29
312.513	166.06
312.727	22.7
312.941	-10.07
313.154	69.8
313.368	61.61
313.582	-1.88
313.796	32.94
314.009	12.46
314.223	61.61
314.437	-53.08
314.651	-1.88
314.864	-34.64
315.078	-53.08
315.292	-48.98
315.505	55.47
315.719	28.84
315.933	28.84
316.146	0.17
316.36	28.84
316.573	133.29
316.787	8.36
317.001	80.04
317.214	-104.28
317.428	55.47
317.641	4.27
317.855	14.51
318.068	-10.07
318.282	37.03
318.495	147.62
318.709	34.99
318.922	8.36
319.136	63.66
319.349	127.14
319.563	-42.84
319.776	-53.08
319.99	-120.66
320.203	43.18
320.417	0.17
320.63	153.77
320.843	190.63
321.057	-65.36
321.27	-53.08
321.483	8.36
321.697	26.79
321.91	49.32
322.124	-51.03
322.337	61.61
322.55	-38.74
322.763	-48.98
322.977	92.33
323.19	12.46
323.403	-20.31
323.617	75.95
323.83	39.08
324.043	-22.36
324.256	63.66
324.469	-100.18
324.683	96.43
324.896	12.46
325.109	47.27
325.322	-91.99
325.535	6.31
325.748	43.18
325.962	-18.26
326.175	-42.84
326.388	2.22
326.601	63.66
326.814	63.66
327.027	26.79
327.24	22.7
327.453	-112.47
327.666	123.05
327.879	153.77
328.092	53.42
328.305	-24.4
328.518	28.84
328.731	53.42
328.944	12.46
329.157	-8.02
329.37	-34.64
329.583	147.62
329.796	121
330.009	-100.18
330.222	71.85
330.435	110.76
330.648	-59.22
330.861	84.14
331.073	69.8
331.286	59.56
331.499	75.95
331.712	-57.17
331.925	20.65
332.138	-75.6
332.35	75.95
332.563	-18.26
332.776	61.61
332.989	-14.17
333.202	-20.31
333.414	-3.93
333.627	-24.4
333.84	2.22
334.053	-1.88
334.265	63.66
334.478	14.51
334.691	2.22
334.903	39.08
335.116	-32.6
335.329	-24.4
335.541	112.81
335.754	84.14
335.966	-8.02
336.179	-10.07
336.392	57.51
336.604	-63.32
336.817	34.99
337.029	82.09
337.242	77.99
337.454	-1.88
337.667	-12.12
337.88	73.9
338.092	75.95
338.305	123.05
338.517	112.81
338.729	86.19
338.942	57.51
339.154	-20.31
339.367	-48.98
339.579	69.8
339.792	-102.23
340.004	-1.88
340.217	-38.74
340.429	-26.45
340.641	14.51
340.854	-42.84
341.066	57.51
341.278	61.61
341.491	151.72
341.703	53.42
341.915	20.65
342.128	98.47
342.34	32.94
342.552	-30.55
342.764	71.85
342.977	0.17
343.189	10.41
343.401	22.7
343.613	-51.03
343.826	-28.5
344.038	-30.55
344.25	-22.36
344.462	12.46
344.674	34.99
344.886	-34.64
345.099	34.99
345.311	-67.41
345.523	53.42
345.735	-128.85
345.947	131.24
346.159	24.75
346.371	8.36
346.583	71.85
346.795	145.58
347.007	10.41
347.219	45.23
347.431	-1.88
347.643	67.75
347.855	14.51
348.067	108.71
348.279	-100.18
348.491	104.62
348.703	4.27
348.915	57.51
349.127	30.89
349.339	-16.21
349.551	-18.26
349.763	28.84
349.975	22.7
350.187	55.47
350.399	63.66
350.61	65.71
350.822	14.51
351.034	-1.88
351.246	67.75
351.458	94.38
351.669	20.65
351.881	96.43
352.093	104.62
352.305	88.23
352.517	102.57
352.728	82.09
352.94	104.62
353.152	22.7
353.363	-38.74
353.575	45.23
353.787	73.9
353.999	22.7
354.21	96.43
354.422	-91.99
354.633	45.23
354.845	63.66
355.057	28.84
355.268	6.31
355.48	94.38
355.692	-22.36
355.903	-1.88
356.115	-38.74
356.326	-91.99
356.538	82.09
356.749	26.79
356.961	133.29
357.172	-30.55
357.384	16.55
357.595	141.48
357.807	-75.6
358.018	2.22
358.23	-1.88
358.441	153.77
358.653	41.13
358.864	4.27
359.075	-32.6
359.287	80.04
359.498	2.22
359.709	65.71
359.921	-42.84
360.132	65.71
360.344	-3.93
360.555	-77.65
360.766	59.56
360.977	45.23
361.189	110.76
361.4	-10.07
361.611	121
361.823	59.56
362.034	34.99
362.245	-104.28
362.456	-30.55
362.667	28.84
362.879	24.75
363.09	-38.74
363.301	69.8
363.512	41.13
363.723	-40.79
363.935	-5.97
364.146	102.57
364.357	-1.88
364.568	28.84
364.779	-91.99
364.99	90.28
365.201	-38.74
365.412	110.76
365.623	-30.55
365.834	16.55
366.045	0.17
366.256	114.86
366.467	133.29
366.678	-65.36
366.889	59.56
367.1	-16.21
367.311	53.42
367.522	-40.79
367.733	39.08
367.944	80.04
368.155	14.51
368.366	32.94
368.577	34.99
368.788	80.04
368.999	-22.36
369.209	77.99
369.42	129.19
369.631	174.25
369.842	20.65
370.053	-42.84
370.264	127.14
370.474	-96.08
370.685	80.04
370.896	10.41
371.107	137.38
371.317	88.23
371.528	22.7
371.739	55.47
371.95	34.99
372.16	100.52
372.371	14.51
372.582	-10.07
372.792	43.18
373.003	22.7
373.214	30.89
373.424	39.08
373.635	-1.88
373.846	96.43
374.056	12.46
374.267	63.66
374.477	18.6
374.688	51.37
374.898	53.42
375.109	102.57
375.319	-5.97
375.53	12.46
375.74	18.6
375.951	-12.12
376.161	39.08
376.372	104.62
376.582	51.37
376.793	34.99
377.003	37.03
377.214	-36.69
377.424	-12.12
377.635	0.17
377.845	-1.88
378.055	174.25
378.266	-14.17
378.476	53.42
378.686	14.51
378.897	-53.08
379.107	67.75
379.317	96.43
379.528	49.32
379.738	57.51
379.948	-81.75
380.158	77.99
380.369	-57.17
380.579	59.56
380.789	-1.88
380.999	-18.26
381.21	116.9
381.42	149.67
381.63	2.22
381.84	100.52
382.05	67.75
382.261	84.14
382.471	104.62
382.681	-14.17
382.891	55.47
383.101	121
383.311	-38.74
383.521	67.75
383.731	26.79
383.941	26.79
384.151	-10.07
384.361	-16.21
384.571	32.94
384.781	108.71
384.991	137.38
385.201	153.77
385.411	20.65
385.621	90.28
385.831	0.17
386.041	-36.69
386.251	6.31
386.461	71.85
386.671	88.23
386.881	59.56
387.091	-20.31
387.301	61.61
387.511	20.65
387.72	37.03
387.93	47.27
388.14	-96.08
388.35	45.23
388.56	69.8
388.769	69.8
388.979	-28.5
389.189	-51.03
389.399	6.31
389.609	53.42
389.818	125.1
390.028	77.99
390.238	82.09
390.447	-61.27
390.657	45.23
390.867	-20.31
391.076	-100.18
391.286	16.55
391.496	-14.17
391.705	-12.12
391.915	114.86
392.125	149.67
392.334	-34.64
392.544	133.29
392.753	43.18
392.963	-3.93
393.172	-28.5
393.382	-51.03
393.591	153.77
393.801	28.84
394.01	125.1
394.22	69.8
394.429	18.6
394.639	18.6
394.848	75.95
395.058	41.13
395.267	32.94
395.477	-5.97
395.686	55.47
395.895	180.39
396.105	166.06
396.314	6.31
396.524	-44.88
396.733	41.13
396.942	73.9
397.152	12.46
397.361	137.38
397.57	59.56
397.78	-16.21
397.989	12.46
398.198	112.81
398.407	73.9
398.617	34.99
398.826	71.85
399.035	-5.97
399.244	16.55
399.453	67.75
399.663	-51.03
399.872	73.9
400.081	-22.36
400.29	141.48
400.499	-28.5
400.708	80.04
400.917	18.6
401.127	30.89
401.336	18.6
401.545	180.39
401.754	110.76
401.963	96.43
402.172	12.46
402.381	30.89
402.59	6.31
402.799	-24.4
403.008	104.62
403.217	26.79
403.426	73.9
403.635	-20.31
403.844	-104.28
404.053	67.75
404.262	-100.18
404.471	102.57
404.68	8.36
404.888	-1.88
405.097	-10.07
405.306	-16.21
405.515	84.14
405.724	-14.17
405.933	30.89
406.142	47.27
406.35	157.86
406.559	88.23
406.768	-46.93
406.977	59.56
407.185	129.19
407.394	12.46
407.603	-87.89
407.812	86.19
408.02	131.24
408.229	77.99
408.438	37.03
408.646	-79.7
408.855	51.37
409.064	80.04
409.272	45.23
409.481	59.56
409.69	14.51
409.898	-67.41
410.107	65.71
410.315	131.24
410.524	-28.5
410.733	-24.4
410.941	-22.36
411.15	129.19
411.358	127.14
411.567	135.34
411.775	22.7
411.984	-48.98
412.192	34.99
412.401	2.22
412.609	178.34
412.818	137.38
413.026	55.47
413.234	6.31
413.443	110.76
413.651	-67.41
413.86	-38.74
414.068	55.47
414.276	116.9
414.485	-28.5
414.693	102.57
414.901	137.38
415.11	53.42
415.318	104.62
415.526	49.32
415.734	43.18
415.943	63.66
416.151	53.42
416.359	12.46
416.567	100.52
416.776	100.52
416.984	133.29
417.192	178.34
417.4	63.66
417.608	-20.31
417.817	-61.27
418.025	53.42
418.233	139.43
418.441	-61.27
418.649	-73.56
418.857	67.75
419.065	207.02
419.273	-5.97
419.481	67.75
419.689	34.99
419.897	14.51
420.105	-34.64
420.313	30.89
420.521	153.77
420.729	161.96
420.937	6.31
421.145	-36.69
421.353	118.95
421.561	129.19
421.769	96.43
421.977	-10.07
422.185	77.99
422.393	-18.26
422.601	139.43
422.809	0.17
423.017	73.9
423.224	67.75
423.432	149.67
423.64	-59.22
423.848	112.81
424.056	73.9
424.263	28.84
424.471	4.27
424.679	166.06
424.887	-51.03
425.094	112.81
425.302	129.19
425.51	104.62
425.718	121
425.925	63.66
426.133	37.03
426.341	161.96
426.548	96.43
426.756	-42.84
426.964	108.71
427.171	-10.07
427.379	96.43
427.586	53.42
427.794	53.42
428.001	94.38
428.209	37.03
428.417	145.58
428.624	98.47
428.832	32.94
429.039	43.18
429.247	37.03
429.454	157.86
429.662	90.28
429.869	61.61
430.076	18.6
430.284	102.57
430.491	116.9
430.699	194.73
430.906	159.91
431.114	125.1
431.321	139.43
431.528	86.19
431.736	131.24
431.943	198.82
432.15	153.77
432.358	143.53
432.565	233.64
432.772	22.7
432.979	151.72
433.187	65.71
433.394	166.06
433.601	86.19
433.808	231.59
434.016	223.4
434.223	188.58
434.43	170.15
434.637	209.06
434.844	198.82
435.052	227.5
435.259	194.73
435.466	231.59
435.673	241.83
435.88	282.79
436.087	350.37
436.294	317.61
436.501	333.99
436.708	307.37
436.915	301.22
437.122	366.76
437.329	235.69
437.537	374.95
437.743	303.27
437.95	401.57
438.157	315.56
438.364	397.48
438.571	354.47
438.778	383.14
438.985	503.97
439.192	403.62
439.399	372.9
439.606	501.92
439.813	497.83
440.02	497.83
440.227	600.23
440.433	579.75
440.64	522.4
440.847	456.87
441.054	616.61
441.261	635.04
441.467	528.55
441.674	559.27
441.881	708.77
442.088	637.09
442.294	708.77
442.501	686.24
442.708	673.95
442.914	628.9
443.121	866.46
443.328	815.26
443.534	866.46
443.741	915.61
443.948	671.9
444.154	1022.11
444.361	1134.75
444.568	878.75
444.774	948.38
444.981	1054.87
445.187	1183.9
445.394	1104.03
445.6	1048.73
445.807	1271.96
446.013	1253.53
446.22	1149.08
446.426	1415.32
446.633	1439.89
446.839	1644.69
447.046	1398.93
447.252	1562.77
447.459	1538.2
447.665	1538.2
447.871	1806.48
448.078	1906.83
448.284	1675.41
448.491	1878.16
448.697	2107.53
448.903	2019.47
449.11	2199.69
449.316	2156.68
449.522	2242.7
449.728	2275.46
449.935	2539.65
450.141	2390.15
450.347	2631.81
450.553	2670.72
450.76	2619.52
450.966	2705.54
451.172	2977.92
451.378	3117.18
451.584	3004.54
451.791	3352.7
451.997	3311.74
452.203	3414.13
452.409	3612.79
452.615	3797.1
452.821	3629.17
453.027	3723.38
453.233	4184.17
453.44	4079.72
453.646	4356.2
453.852	4575.33
454.058	4583.52
454.264	4880.48
454.47	5193.82
454.676	5122.14
454.882	5568.6
455.088	5355.61
455.294	5740.63
455.5	5937.23
455.705	6453.32
455.911	6301.77
456.117	6539.33
456.323	6862.91
456.529	6838.34
456.735	7510.07
456.941	7690.29
457.147	7966.77
457.352	8042.54
457.558	8329.26
457.764	8947.75
457.97	9087.01
458.176	9424.92
458.381	9811.99
458.587	10184.72
458.793	10717.19
458.999	10549.26
459.204	11880.44
459.41	12359.66
459.616	12290.03
459.821	12857.32
460.027	13445.09
460.233	14143.44
460.438	14227.41
460.644	15005.64
460.85	15155.14
461.055	15693.76
461.261	16590.77
461.466	15959.99
461.672	16396.21
461.878	18423.7
462.083	18257.81
462.289	18366.35
462.494	19210.12
462.7	19470.21
462.905	19812.22
463.111	20965.23
463.316	22253.4
463.522	22480.72
463.727	23273.29
463.932	24225.59
464.138	25147.18
464.343	26119.96
464.549	26425.11
464.754	28182.27
464.959	28751.6
465.165	29388.52
465.37	29196.01
465.575	28946.16
465.781	31307.47
465.986	31968.96
466.191	31313.61
466.397	32104.13
466.602	31094.48
466.807	32624.31
467.012	33562.28
467.218	33672.87
467.423	34104.99
467.628	35427.98
467.833	36703.87
468.038	36015.75
468.244	35546.76
468.449	37197.43
468.654	36193.92
468.859	36722.3
