Data from USB4F104151__17__09-25-24-222.txt Node

Date: Wed Feb 26 09:25:24 EST 2025
User: louis
Spectrometer: USB4F10415
Trigger mode: 4
Integration Time (sec): 1.000000E-1
Scans to average: 1
Electric dark correction enabled: true
Nonlinearity correction enabled: false
Boxcar width: 0
XAxis mode: Wavelengths
Number of Pixels in Spectrum: 3648
>>>>>Begin Spectral Data<<<<<
178.204	-422.91
178.424	-422.91
178.644	-422.91
178.864	-361.47
179.084	-373.75
179.304	-3.07
179.524	-76.8
179.744	-76.8
179.964	41.98
180.184	-3.07
180.404	-3.07
180.624	-48.13
180.844	5.12
181.064	27.65
181.283	37.89
181.503	17.41
181.723	80.89
181.943	-93.18
182.163	177.15
182.383	-25.6
182.602	74.75
182.822	148.48
183.042	115.71
183.262	-56.32
183.482	3.07
183.701	25.6
183.921	21.5
184.141	-89.09
184.361	115.71
184.58	7.17
184.8	111.61
185.02	-56.32
185.239	101.37
185.459	9.22
185.679	74.75
185.898	-62.46
186.118	105.47
186.338	107.52
186.557	39.94
186.777	-48.13
186.997	27.65
187.216	-13.31
187.436	154.62
187.655	142.33
187.875	60.42
188.095	9.22
188.314	89.09
188.534	101.37
188.753	-41.98
188.973	101.37
189.192	17.41
189.412	17.41
189.631	31.74
189.851	128
190.07	140.29
190.29	-7.17
190.509	1.02
190.729	37.89
190.948	74.75
191.168	246.78
191.387	62.46
191.607	15.36
191.826	119.81
192.045	37.89
192.265	70.65
192.484	54.27
192.704	-52.22
192.923	-15.36
193.142	111.61
193.362	58.37
193.581	89.09
193.8	136.19
194.02	103.42
194.239	1.02
194.458	48.13
194.678	52.22
194.897	111.61
195.116	105.47
195.335	56.32
195.555	50.18
195.774	-44.03
195.993	60.42
196.212	125.95
196.432	-87.04
196.651	-3.07
196.87	41.98
197.089	222.2
197.308	99.33
197.528	50.18
197.747	-89.09
197.966	54.27
198.185	142.33
198.404	-15.36
198.623	113.66
198.842	76.8
199.062	130.05
199.281	134.14
199.5	70.65
199.719	78.85
199.938	5.12
200.157	-1.02
200.376	62.46
200.595	107.52
200.814	39.94
201.033	-15.36
201.252	121.85
201.471	33.79
201.69	144.38
201.909	23.55
202.128	140.29
202.347	70.65
202.566	41.98
202.785	-50.18
203.004	-19.46
203.223	201.72
203.442	9.22
203.661	-31.74
203.879	29.7
204.098	93.18
204.317	33.79
204.536	39.94
204.755	87.04
204.974	41.98
205.193	17.41
205.411	101.37
205.63	89.09
205.849	48.13
206.068	21.5
206.287	62.46
206.505	119.81
206.724	11.26
206.943	13.31
207.162	-33.79
207.381	-41.98
207.599	-9.22
207.818	-23.55
208.037	-19.46
208.255	33.79
208.474	72.7
208.693	62.46
208.911	1.02
209.13	97.28
209.349	15.36
209.567	58.37
209.786	60.42
210.005	97.28
210.223	156.67
210.442	-74.75
210.661	74.75
210.879	74.75
211.098	-5.12
211.316	50.18
211.535	37.89
211.753	17.41
211.972	29.7
212.191	25.6
212.409	3.07
212.628	60.42
212.846	-15.36
213.065	56.32
213.283	121.85
213.502	82.94
213.72	50.18
213.938	-13.31
214.157	17.41
214.375	130.05
214.594	60.42
214.812	50.18
215.031	41.98
215.249	97.28
215.467	9.22
215.686	27.65
215.904	107.52
216.122	13.31
216.341	123.9
216.559	91.13
216.778	82.94
216.996	62.46
217.214	1.02
217.432	25.6
217.651	-60.42
217.869	68.61
218.087	-29.7
218.306	-27.65
218.524	52.22
218.742	52.22
218.96	5.12
219.179	17.41
219.397	78.85
219.615	181.25
219.833	123.9
220.051	-25.6
220.27	119.81
220.488	41.98
220.706	39.94
220.924	70.65
221.142	58.37
221.36	82.94
221.578	-7.17
221.796	41.98
222.015	25.6
222.233	9.22
222.451	121.85
222.669	-74.75
222.887	50.18
223.105	-31.74
223.323	19.46
223.541	9.22
223.759	60.42
223.977	-7.17
224.195	84.99
224.413	91.13
224.631	130.05
224.849	84.99
225.067	123.9
225.285	19.46
225.503	33.79
225.721	-68.61
225.939	-37.89
226.157	111.61
226.375	179.2
226.592	-17.41
226.81	35.84
227.028	37.89
227.246	160.77
227.464	58.37
227.682	144.38
227.9	60.42
228.117	-11.26
228.335	60.42
228.553	-15.36
228.771	-7.17
228.989	117.76
229.206	193.53
229.424	27.65
229.642	-31.74
229.86	3.07
230.077	72.7
230.295	56.32
230.513	80.89
230.731	41.98
230.948	150.53
231.166	156.67
231.384	46.08
231.601	11.26
231.819	214.01
232.037	-1.02
232.254	-33.79
232.472	21.5
232.689	19.46
232.907	125.95
233.125	7.17
233.342	-13.31
233.56	-29.7
233.777	1.02
233.995	-15.36
234.213	48.13
234.43	58.37
234.648	31.74
234.865	-15.36
235.083	173.05
235.3	66.56
235.518	21.5
235.735	50.18
235.953	84.99
236.17	25.6
236.388	-23.55
236.605	33.79
236.822	91.13
237.04	72.7
237.257	48.13
237.475	-89.09
237.692	37.89
237.909	93.18
238.127	-11.26
238.344	48.13
238.562	17.41
238.779	-35.84
238.996	-97.28
239.214	27.65
239.431	5.12
239.648	-39.94
239.865	74.75
240.083	21.5
240.3	66.56
240.517	-9.22
240.735	70.65
240.952	146.43
241.169	19.46
241.386	95.23
241.603	-39.94
241.821	-89.09
242.038	115.71
242.255	50.18
242.472	-15.36
242.689	101.37
242.907	89.09
243.124	60.42
243.341	-21.5
243.558	-9.22
243.775	-29.7
243.992	15.36
244.209	44.03
244.426	197.63
244.643	103.42
244.86	9.22
245.078	37.89
245.295	17.41
245.512	-5.12
245.729	17.41
245.946	60.42
246.163	15.36
246.38	-9.22
246.597	78.85
246.814	25.6
247.031	39.94
247.248	58.37
247.464	60.42
247.681	-23.55
247.898	-9.22
248.115	93.18
248.332	-48.13
248.549	41.98
248.766	144.38
248.983	50.18
249.2	41.98
249.417	41.98
249.633	72.7
249.85	58.37
250.067	25.6
250.284	54.27
250.501	95.23
250.717	91.13
250.934	-5.12
251.151	9.22
251.368	-56.32
251.585	41.98
251.801	31.74
252.018	-62.46
252.235	107.52
252.451	13.31
252.668	7.17
252.885	56.32
253.102	-5.12
253.318	7.17
253.535	-3.07
253.752	46.08
253.968	46.08
254.185	-35.84
254.401	-46.08
254.618	107.52
254.835	46.08
255.051	150.53
255.268	91.13
255.484	66.56
255.701	-17.41
255.917	52.22
256.134	-52.22
256.351	23.55
256.567	-9.22
256.784	1.02
257	33.79
257.217	70.65
257.433	72.7
257.65	56.32
257.866	134.14
258.082	-60.42
258.299	-50.18
258.515	25.6
258.732	9.22
258.948	1.02
259.165	111.61
259.381	-17.41
259.597	70.65
259.814	-37.89
260.03	78.85
260.246	19.46
260.463	70.65
260.679	128
260.895	74.75
261.112	66.56
261.328	7.17
261.544	35.84
261.761	162.81
261.977	27.65
262.193	-60.42
262.409	74.75
262.626	1.02
262.842	39.94
263.058	3.07
263.274	21.5
263.49	23.55
263.707	5.12
263.923	125.95
264.139	-39.94
264.355	46.08
264.571	113.66
264.787	46.08
265.004	168.96
265.22	39.94
265.436	-35.84
265.652	3.07
265.868	72.7
266.084	52.22
266.3	58.37
266.516	-113.66
266.732	13.31
266.948	5.12
267.164	64.51
267.38	54.27
267.596	23.55
267.812	72.7
268.028	25.6
268.244	-48.13
268.46	35.84
268.676	-39.94
268.892	52.22
269.108	-72.7
269.324	41.98
269.54	-44.03
269.756	99.33
269.972	-93.18
270.188	-7.17
270.403	25.6
270.619	31.74
270.835	25.6
271.051	1.02
271.267	-9.22
271.483	33.79
271.698	29.7
271.914	27.65
272.13	-3.07
272.346	9.22
272.562	15.36
272.777	19.46
272.993	1.02
273.209	13.31
273.425	15.36
273.64	-76.8
273.856	91.13
274.072	13.31
274.287	7.17
274.503	64.51
274.719	82.94
274.934	39.94
275.15	-7.17
275.366	27.65
275.581	-5.12
275.797	64.51
276.012	-3.07
276.228	60.42
276.444	-21.5
276.659	130.05
276.875	33.79
277.09	13.31
277.306	50.18
277.521	97.28
277.737	66.56
277.952	74.75
278.168	27.65
278.383	11.26
278.599	68.61
278.814	70.65
279.03	54.27
279.245	171.01
279.461	-23.55
279.676	66.56
279.892	-39.94
280.107	7.17
280.322	13.31
280.538	15.36
280.753	-44.03
280.969	11.26
281.184	39.94
281.399	99.33
281.615	39.94
281.83	29.7
282.045	-48.13
282.26	-7.17
282.476	78.85
282.691	115.71
282.906	27.65
283.122	111.61
283.337	-13.31
283.552	105.47
283.767	-9.22
283.983	72.7
284.198	35.84
284.413	74.75
284.628	-25.6
284.843	52.22
285.058	66.56
285.274	-41.98
285.489	52.22
285.704	72.7
285.919	-7.17
286.134	41.98
286.349	50.18
286.564	-3.07
286.779	72.7
286.995	5.12
287.21	3.07
287.425	23.55
287.64	7.17
287.855	-23.55
288.07	-111.61
288.285	181.25
288.5	41.98
288.715	-9.22
288.93	1.02
289.145	-46.08
289.36	64.51
289.575	-39.94
289.79	41.98
290.004	39.94
290.219	99.33
290.434	-25.6
290.649	-89.09
290.864	74.75
291.079	1.02
291.294	78.85
291.509	74.75
291.724	17.41
291.938	3.07
292.153	54.27
292.368	50.18
292.583	-50.18
292.798	107.52
293.012	89.09
293.227	46.08
293.442	-27.65
293.657	99.33
293.871	111.61
294.086	70.65
294.301	140.29
294.516	128
294.73	72.7
294.945	58.37
295.16	19.46
295.374	107.52
295.589	107.52
295.804	-23.55
296.018	62.46
296.233	35.84
296.447	54.27
296.662	-17.41
296.877	99.33
297.091	72.7
297.306	74.75
297.52	46.08
297.735	50.18
297.949	-17.41
298.164	46.08
298.378	-3.07
298.593	46.08
298.807	9.22
299.022	33.79
299.236	148.48
299.451	-44.03
299.665	48.13
299.88	39.94
300.094	33.79
300.309	84.99
300.523	74.75
300.737	50.18
300.952	64.51
301.166	48.13
301.381	-3.07
301.595	15.36
301.809	-21.5
302.024	9.22
302.238	-31.74
302.452	62.46
302.667	68.61
302.881	130.05
303.095	68.61
303.309	78.85
303.524	-21.5
303.738	21.5
303.952	-7.17
304.166	97.28
304.381	-117.76
304.595	142.33
304.809	-17.41
305.023	-3.07
305.237	-23.55
305.452	9.22
305.666	105.47
305.88	70.65
306.094	150.53
306.308	27.65
306.522	76.8
306.736	29.7
306.95	89.09
307.164	48.13
307.379	11.26
307.593	142.33
307.807	48.13
308.021	44.03
308.235	121.85
308.449	-7.17
308.663	-3.07
308.877	162.81
309.091	56.32
309.305	60.42
309.519	-158.72
309.733	107.52
309.947	-60.42
310.161	70.65
310.374	48.13
310.588	123.9
310.802	15.36
311.016	-7.17
311.23	91.13
311.444	-29.7
311.658	82.94
311.872	74.75
312.085	152.57
312.299	82.94
312.513	136.19
312.727	17.41
312.941	-5.12
313.154	21.5
313.368	29.7
313.582	-1.02
313.796	27.65
314.009	33.79
314.223	87.04
314.437	41.98
314.651	117.76
314.864	64.51
315.078	1.02
315.292	5.12
315.505	-48.13
315.719	58.37
315.933	82.94
316.146	-35.84
316.36	-48.13
316.573	214.01
316.787	132.09
317.001	48.13
317.214	-89.09
317.428	1.02
317.641	31.74
317.855	23.55
318.068	72.7
318.282	54.27
318.495	218.11
318.709	29.7
318.922	41.98
319.136	144.38
319.349	91.13
319.563	9.22
319.776	50.18
319.99	-21.5
320.203	27.65
320.417	23.55
320.63	140.29
320.843	121.85
321.057	64.51
321.27	70.65
321.483	27.65
321.697	115.71
321.91	17.41
322.124	72.7
322.337	74.75
322.55	-19.46
322.763	-5.12
322.977	15.36
323.19	-27.65
323.403	37.89
323.617	87.04
323.83	29.7
324.043	-60.42
324.256	74.75
324.469	5.12
324.683	103.42
324.896	1.02
325.109	62.46
325.322	-48.13
325.535	37.89
325.748	123.9
325.962	29.7
326.175	123.9
326.388	7.17
326.601	119.81
326.814	-1.02
327.027	60.42
327.24	111.61
327.453	-132.09
327.666	21.5
327.879	91.13
328.092	72.7
328.305	58.37
328.518	1.02
328.731	23.55
328.944	15.36
329.157	23.55
329.37	-1.02
329.583	107.52
329.796	148.48
330.009	1.02
330.222	82.94
330.435	101.37
330.648	39.94
330.861	25.6
331.073	7.17
331.286	74.75
331.499	64.51
331.712	-3.07
331.925	-35.84
332.138	58.37
332.35	58.37
332.563	9.22
332.776	146.43
332.989	1.02
333.202	76.8
333.414	-1.02
333.627	21.5
333.84	31.74
334.053	64.51
334.265	68.61
334.478	33.79
334.691	-31.74
334.903	41.98
335.116	-23.55
335.329	-29.7
335.541	-13.31
335.754	117.76
335.966	9.22
336.179	84.99
336.392	-9.22
336.604	-9.22
336.817	70.65
337.029	33.79
337.242	25.6
337.454	115.71
337.667	-3.07
337.88	58.37
338.092	41.98
338.305	41.98
338.517	3.07
338.729	29.7
338.942	66.56
339.154	23.55
339.367	-9.22
339.579	1.02
339.792	-7.17
340.004	41.98
340.217	66.56
340.429	-1.02
340.641	50.18
340.854	15.36
341.066	-15.36
341.278	66.56
341.491	146.43
341.703	68.61
341.915	-31.74
342.128	58.37
342.34	56.32
342.552	13.31
342.764	-50.18
342.977	13.31
343.189	76.8
343.401	33.79
343.613	-41.98
343.826	80.89
344.038	-62.46
344.25	-1.02
344.462	-27.65
344.674	17.41
344.886	74.75
345.099	46.08
345.311	41.98
345.523	25.6
345.735	-80.89
345.947	21.5
346.159	1.02
346.371	17.41
346.583	23.55
346.795	105.47
347.007	62.46
347.219	-27.65
347.431	144.38
347.643	76.8
347.855	11.26
348.067	115.71
348.279	5.12
348.491	27.65
348.703	105.47
348.915	7.17
349.127	-66.56
349.339	66.56
349.551	33.79
349.763	23.55
349.975	80.89
350.187	1.02
350.399	132.09
350.61	1.02
350.822	52.22
351.034	70.65
351.246	37.89
351.458	46.08
351.669	105.47
351.881	93.18
352.093	78.85
352.305	121.85
352.517	82.94
352.728	62.46
352.94	48.13
353.152	39.94
353.363	19.46
353.575	87.04
353.787	136.19
353.999	66.56
354.21	74.75
354.422	-101.37
354.633	107.52
354.845	60.42
355.057	31.74
355.268	11.26
355.48	66.56
355.692	-23.55
355.903	-68.61
356.115	23.55
356.326	-72.7
356.538	68.61
356.749	62.46
356.961	123.9
357.172	66.56
357.384	-48.13
357.595	164.86
357.807	70.65
358.018	37.89
358.23	-7.17
358.441	82.94
358.653	173.05
358.864	-5.12
359.075	58.37
359.287	-7.17
359.498	70.65
359.709	87.04
359.921	84.99
360.132	23.55
360.344	1.02
360.555	-84.99
360.766	-9.22
360.977	37.89
361.189	156.67
361.4	-23.55
361.611	95.23
361.823	82.94
362.034	107.52
362.245	-25.6
362.456	23.55
362.667	39.94
362.879	41.98
363.09	7.17
363.301	13.31
363.512	3.07
363.723	-23.55
363.935	-7.17
364.146	111.61
364.357	-25.6
364.568	64.51
364.779	-130.05
364.99	37.89
365.201	64.51
365.412	154.62
365.623	-33.79
365.834	78.85
366.045	82.94
366.256	33.79
366.467	66.56
366.678	-27.65
366.889	95.23
367.1	56.32
367.311	128
367.522	-93.18
367.733	21.5
367.944	74.75
368.155	48.13
368.366	9.22
368.577	89.09
368.788	52.22
368.999	-3.07
369.209	-27.65
369.42	205.82
369.631	211.96
369.842	93.18
370.053	76.8
370.264	52.22
370.474	70.65
370.685	58.37
370.896	54.27
371.107	58.37
371.317	70.65
371.528	-48.13
371.739	156.67
371.95	25.6
372.16	35.84
372.371	-19.46
372.582	-60.42
372.792	56.32
373.003	113.66
373.214	37.89
373.424	31.74
373.635	-91.13
373.846	119.81
374.056	82.94
374.267	68.61
374.477	87.04
374.688	5.12
374.898	62.46
375.109	66.56
375.319	117.76
375.53	74.75
375.74	119.81
375.951	-19.46
376.161	105.47
376.372	109.57
376.582	-1.02
376.793	103.42
377.003	9.22
377.214	-35.84
377.424	52.22
377.635	66.56
377.845	-31.74
378.055	9.22
378.266	-23.55
378.476	-15.36
378.686	160.77
378.897	64.51
379.107	44.03
379.317	46.08
379.528	-3.07
379.738	87.04
379.948	-25.6
380.158	80.89
380.369	37.89
380.579	82.94
380.789	91.13
380.999	138.24
381.21	154.62
381.42	168.96
381.63	29.7
381.84	66.56
382.05	72.7
382.261	134.14
382.471	115.71
382.681	-68.61
382.891	138.24
383.101	46.08
383.311	1.02
383.521	11.26
383.731	128
383.941	132.09
384.151	48.13
384.361	25.6
384.571	107.52
384.781	3.07
384.991	138.24
385.201	181.25
385.411	148.48
385.621	89.09
385.831	78.85
386.041	33.79
386.251	1.02
386.461	119.81
386.671	-17.41
386.881	74.75
387.091	31.74
387.301	103.42
387.511	-11.26
387.72	58.37
387.93	128
388.14	-44.03
388.35	78.85
388.56	82.94
388.769	60.42
388.979	9.22
389.189	-52.22
389.399	-19.46
389.609	52.22
389.818	31.74
390.028	13.31
390.238	21.5
390.447	-35.84
390.657	123.9
390.867	39.94
391.076	-35.84
391.286	13.31
391.496	58.37
391.705	41.98
391.915	181.25
392.125	70.65
392.334	21.5
392.544	175.1
392.753	46.08
392.963	-19.46
393.172	-3.07
393.382	9.22
393.591	171.01
393.801	64.51
394.01	181.25
394.22	72.7
394.429	-31.74
394.639	41.98
394.848	99.33
395.058	64.51
395.267	23.55
395.477	64.51
395.686	25.6
395.895	162.81
396.105	158.72
396.314	41.98
396.524	103.42
396.733	97.28
396.942	109.57
397.152	87.04
397.361	121.85
397.57	64.51
397.78	-9.22
397.989	64.51
398.198	148.48
398.407	9.22
398.617	41.98
398.826	39.94
399.035	-7.17
399.244	128
399.453	11.26
399.663	87.04
399.872	15.36
400.081	5.12
400.29	103.42
400.499	-39.94
400.708	130.05
400.917	37.89
401.127	23.55
401.336	-37.89
401.545	146.43
401.754	160.77
401.963	91.13
402.172	31.74
402.381	-31.74
402.59	-7.17
402.799	-27.65
403.008	115.71
403.217	72.7
403.426	37.89
403.635	-41.98
403.844	-17.41
404.053	80.89
404.262	48.13
404.471	175.1
404.68	17.41
404.888	9.22
405.097	41.98
405.306	58.37
405.515	62.46
405.724	82.94
405.933	91.13
406.142	-3.07
406.35	107.52
406.559	84.99
406.768	15.36
406.977	39.94
407.185	74.75
407.394	9.22
407.603	-89.09
407.812	74.75
408.02	128
408.229	31.74
408.438	-11.26
408.646	-76.8
408.855	58.37
409.064	72.7
409.272	62.46
409.481	121.85
409.69	-15.36
409.898	1.02
410.107	25.6
410.315	99.33
410.524	82.94
410.733	140.29
410.941	84.99
411.15	113.66
411.358	31.74
411.567	121.85
411.775	44.03
411.984	66.56
412.192	82.94
412.401	89.09
412.609	140.29
412.818	19.46
413.026	105.47
413.234	-23.55
413.443	39.94
413.651	-23.55
413.86	13.31
414.068	82.94
414.276	144.38
414.485	-50.18
414.693	138.24
414.901	113.66
415.11	-11.26
415.318	84.99
415.526	7.17
415.734	66.56
415.943	46.08
416.151	179.2
416.359	39.94
416.567	50.18
416.776	46.08
416.984	58.37
417.192	187.39
417.4	-44.03
417.608	-7.17
417.817	-41.98
418.025	211.96
418.233	121.85
418.441	-3.07
418.649	3.07
418.857	-7.17
419.065	48.13
419.273	-9.22
419.481	3.07
419.689	27.65
419.897	50.18
420.105	17.41
420.313	175.1
420.521	146.43
420.729	113.66
420.937	17.41
421.145	13.31
421.353	74.75
421.561	152.57
421.769	95.23
421.977	54.27
422.185	113.66
422.393	52.22
422.601	123.9
422.809	46.08
423.017	62.46
423.224	41.98
423.432	68.61
423.64	17.41
423.848	29.7
424.056	25.6
424.263	29.7
424.471	35.84
424.679	193.53
424.887	-50.18
425.094	107.52
425.302	111.61
425.51	1.02
425.718	107.52
425.925	80.89
426.133	62.46
426.341	203.77
426.548	101.37
426.756	-68.61
426.964	121.85
427.171	15.36
427.379	52.22
427.586	21.5
427.794	78.85
428.001	74.75
428.209	46.08
428.417	226.3
428.624	50.18
428.832	35.84
429.039	46.08
429.247	46.08
429.454	136.19
429.662	152.57
429.869	95.23
430.076	101.37
430.284	101.37
430.491	197.63
430.699	181.25
430.906	242.68
431.114	125.95
431.321	70.65
431.528	138.24
431.736	150.53
431.943	109.57
432.15	246.78
432.358	99.33
432.565	293.88
432.772	-39.94
432.979	195.58
433.187	113.66
433.394	193.53
433.601	48.13
433.808	197.63
434.016	146.43
434.223	199.68
434.43	181.25
434.637	246.78
434.844	244.73
435.052	306.17
435.259	168.96
435.466	197.63
435.673	121.85
435.88	246.78
436.087	285.69
436.294	316.41
436.501	295.93
436.708	195.58
436.915	254.97
437.122	369.66
437.329	230.4
437.537	244.73
437.743	343.03
437.95	359.42
438.157	363.51
438.364	365.56
438.571	293.88
438.778	381.95
438.985	441.34
439.192	353.27
439.399	394.23
439.606	369.66
439.813	506.87
440.02	535.54
440.227	529.4
440.433	510.97
440.64	529.4
440.847	441.34
441.054	508.92
441.261	623.61
441.467	545.78
441.674	529.4
441.881	572.41
442.088	582.65
442.294	705.53
442.501	664.57
442.708	639.99
442.914	656.37
443.121	672.76
443.328	795.64
443.534	803.83
443.741	803.83
443.948	668.66
444.154	779.25
444.361	973.81
444.568	947.19
444.774	861.17
444.981	881.65
445.187	1065.97
445.394	1000.43
445.6	889.84
445.807	1139.69
446.013	1180.65
446.22	1137.65
446.426	1180.65
446.633	1332.2
446.839	1545.19
447.046	1250.28
447.252	1436.65
447.459	1512.42
447.665	1407.98
447.871	1608.68
448.078	1743.85
448.284	1600.49
448.491	1858.53
448.697	1899.49
448.903	1879.01
449.11	1999.84
449.316	1958.88
449.522	1999.84
449.728	2149.34
449.935	2264.03
450.141	2227.17
450.347	2442.2
450.553	2413.53
450.76	2270.17
450.966	2503.64
451.172	2622.42
451.378	2735.06
451.584	2833.36
451.791	3021.78
451.997	3138.51
452.203	3087.31
452.409	3408.84
452.615	3554.25
452.821	3374.03
453.027	3480.52
453.233	4029.38
453.44	3716.04
453.646	3881.92
453.852	4174.78
454.058	4285.37
454.264	4240.32
454.47	4596.67
454.676	4686.78
454.882	5166
455.088	4991.92
455.294	5340.08
455.5	5571.5
455.705	5747.62
455.911	5710.76
456.117	5929.89
456.323	6192.03
456.529	6155.17
456.735	6861.72
456.941	6982.55
457.147	7304.08
457.352	7404.43
457.558	7633.8
457.764	8004.49
457.97	8119.17
458.176	8541.05
458.381	9024.37
458.587	9151.35
458.793	9606
458.999	9597.81
459.204	10812.25
459.41	11131.73
459.616	10910.55
459.821	11653.97
460.027	12276.55
460.233	12849.98
460.438	12852.03
460.644	13574.96
460.85	13611.82
461.055	14361.38
461.261	14803.74
461.466	14607.14
461.672	14891.8
461.878	16673.54
462.083	16175.88
462.289	16812.8
462.494	17638.13
462.7	17423.09
462.905	17738.48
463.111	19264.22
463.316	20253.39
463.522	20775.62
463.727	21342.91
463.932	22129.33
464.138	22543.02
464.343	23691.93
464.549	23837.33
464.754	25320.06
464.959	26346.09
465.165	26597.99
465.37	26356.33
465.575	26526.32
465.781	28326.48
465.986	29250.11
466.191	28570.19
466.397	28576.33
466.602	28156.5
466.807	29653.56
467.012	30511.66
467.218	31085.09
467.423	30779.95
467.628	31537.69
467.833	33376.77
468.038	32586.25
468.244	32279.06
468.449	33968.63
468.654	33288.71
468.859	33118.73
469.064	33309.19
469.269	32408.08
469.474	32664.08
469.679	33749.5
469.885	32131.61
470.09	33307.14
470.295	33485.31
