Data from USB4F104151__58__11-30-49-165.txt Node

Date: Wed Feb 26 11:30:49 EST 2025
User: louis
Spectrometer: USB4F10415
Trigger mode: 4
Integration Time (sec): 1.000000E-1
Scans to average: 1
Electric dark correction enabled: true
Nonlinearity correction enabled: false
Boxcar width: 0
XAxis mode: Wavelengths
Number of Pixels in Spectrum: 3648
>>>>>Begin Spectral Data<<<<<
178.204	-333.48
178.424	-333.48
178.644	-333.48
178.864	-351.91
179.084	-435.88
179.304	-22.19
179.524	-28.33
179.744	39.25
179.964	24.92
180.184	26.96
180.404	31.06
180.624	8.53
180.844	41.3
181.064	-143.02
181.283	18.77
181.503	-38.57
181.723	41.3
181.943	-126.63
182.163	143.7
182.383	-36.52
182.602	43.35
182.822	137.56
183.042	37.2
183.262	33.11
183.482	-26.28
183.701	96.6
183.921	61.78
184.141	-77.48
184.361	110.93
184.58	72.02
184.8	-3.75
185.02	-40.62
185.239	112.98
185.459	4.44
185.679	51.54
185.898	-120.49
186.118	47.44
186.338	-54.95
186.557	39.25
186.777	-18.09
186.997	-50.86
187.216	-3.75
187.436	178.51
187.655	20.82
187.875	80.21
188.095	31.06
188.314	135.51
188.534	96.6
188.753	8.53
188.973	133.46
189.192	135.51
189.412	133.46
189.631	43.35
189.851	-11.95
190.07	151.89
190.29	-52.91
190.509	51.54
190.729	20.82
190.948	112.98
191.168	250.19
191.387	129.36
191.607	-1.71
191.826	-18.09
192.045	-71.34
192.265	-83.63
192.484	37.2
192.704	-11.95
192.923	-36.52
193.142	155.99
193.362	121.17
193.581	110.93
193.8	67.92
194.02	129.36
194.239	61.78
194.458	72.02
194.678	41.3
194.897	63.83
195.116	78.16
195.335	72.02
195.555	67.92
195.774	-22.19
195.993	100.69
196.212	20.82
196.432	67.92
196.651	39.25
196.87	31.06
197.089	131.41
197.308	108.88
197.528	43.35
197.747	-61.1
197.966	-24.23
198.185	127.32
198.404	-57
198.623	100.69
198.842	92.5
199.062	55.64
199.281	92.5
199.5	22.87
199.719	31.06
199.938	63.83
200.157	112.98
200.376	90.45
200.595	176.47
200.814	61.78
201.033	-9.9
201.252	164.18
201.471	149.84
201.69	47.44
201.909	69.97
202.128	80.21
202.347	119.12
202.566	22.87
202.785	-24.23
203.004	-5.8
203.223	225.62
203.442	4.44
203.661	-50.86
203.879	20.82
204.098	125.27
204.317	-20.14
204.536	35.16
204.755	133.46
204.974	78.16
205.193	-7.85
205.411	67.92
205.63	82.26
205.849	49.49
206.068	12.63
206.287	-44.71
206.505	176.47
206.724	43.35
206.943	-91.82
207.162	-13.99
207.381	-7.85
207.599	18.77
207.818	51.54
208.037	37.2
208.255	-28.33
208.474	112.98
208.693	106.84
208.911	-50.86
209.13	127.32
209.349	31.06
209.567	92.5
209.786	96.6
210.005	45.4
210.223	51.54
210.442	-54.95
210.661	22.87
210.879	63.83
211.098	41.3
211.316	90.45
211.535	108.88
211.753	84.31
211.972	115.03
212.191	31.06
212.409	39.25
212.628	47.44
212.846	-91.82
213.065	18.77
213.283	82.26
213.502	57.68
213.72	37.2
213.938	-9.9
214.157	-5.8
214.375	10.58
214.594	-36.52
214.812	115.03
215.031	22.87
215.249	-30.38
215.467	41.3
215.686	12.63
215.904	59.73
216.122	121.17
216.341	139.6
216.559	57.68
216.778	196.95
216.996	115.03
217.214	49.49
217.432	-50.86
217.651	-91.82
217.869	22.87
218.087	-9.9
218.306	26.96
218.524	16.73
218.742	-26.28
218.96	98.64
219.179	6.49
219.397	-7.85
219.615	231.76
219.833	145.75
220.051	-1.71
220.27	47.44
220.488	43.35
220.706	33.11
220.924	-34.47
221.142	-44.71
221.36	61.78
221.578	90.45
221.796	-9.9
222.015	69.97
222.233	67.92
222.451	86.36
222.669	-118.44
222.887	88.4
223.105	8.53
223.323	4.44
223.541	-26.28
223.759	61.78
223.977	-9.9
224.195	125.27
224.413	100.69
224.631	47.44
224.849	145.75
225.067	160.08
225.285	-26.28
225.503	2.39
225.721	-116.39
225.939	55.64
226.157	16.73
226.375	201.04
226.592	0.34
226.81	33.11
227.028	102.74
227.246	112.98
227.464	86.36
227.682	49.49
227.9	115.03
228.117	55.64
228.335	65.88
228.553	61.78
228.771	29.01
228.989	18.77
229.206	37.2
229.424	-24.23
229.642	6.49
229.86	-22.19
230.077	203.09
230.295	18.77
230.513	168.27
230.731	4.44
230.948	135.51
231.166	168.27
231.384	59.73
231.601	-75.43
231.819	178.51
232.037	-28.33
232.254	-42.67
232.472	16.73
232.689	41.3
232.907	180.56
233.125	43.35
233.342	-9.9
233.56	31.06
233.777	-40.62
233.995	16.73
234.213	80.21
234.43	160.08
234.648	108.88
234.865	-46.76
235.083	98.64
235.3	69.97
235.518	65.88
235.735	133.46
235.953	86.36
236.17	20.82
236.388	16.73
236.605	16.73
236.822	125.27
237.04	170.32
237.257	12.63
237.475	14.68
237.692	39.25
237.909	106.84
238.127	-3.75
238.344	65.88
238.562	59.73
238.779	-40.62
238.996	-9.9
239.214	61.78
239.431	96.6
239.648	-30.38
239.865	74.07
240.083	72.02
240.3	31.06
240.517	67.92
240.735	59.73
240.952	112.98
241.169	0.34
241.386	57.68
241.603	61.78
241.821	-114.34
242.038	45.4
242.255	78.16
242.472	-18.09
242.689	31.06
242.907	65.88
243.124	143.7
243.341	-30.38
243.558	-42.67
243.775	-44.71
243.992	-46.76
244.209	67.92
244.426	170.32
244.643	43.35
244.86	45.4
245.078	61.78
245.295	86.36
245.512	41.3
245.729	98.64
245.946	59.73
246.163	39.25
246.38	61.78
246.597	74.07
246.814	18.77
247.031	-38.57
247.248	-20.14
247.464	115.03
247.681	-69.29
247.898	-22.19
248.115	63.83
248.332	-1.71
248.549	110.93
248.766	168.27
248.983	106.84
249.2	80.21
249.417	149.84
249.633	33.11
249.85	14.68
250.067	98.64
250.284	26.96
250.501	65.88
250.717	76.12
250.934	2.39
251.151	26.96
251.368	65.88
251.585	33.11
251.801	88.4
252.018	-104.11
252.235	96.6
252.451	-138.92
252.668	10.58
252.885	127.32
253.102	90.45
253.318	-75.43
253.535	0.34
253.752	-28.33
253.968	35.16
254.185	-100.01
254.401	8.53
254.618	53.59
254.835	-18.09
255.051	198.99
255.268	69.97
255.484	76.12
255.701	26.96
255.917	96.6
256.134	10.58
256.351	35.16
256.567	-16.04
256.784	74.07
257	-67.24
257.217	221.52
257.433	65.88
257.65	10.58
257.866	106.84
258.082	24.92
258.299	65.88
258.515	55.64
258.732	31.06
258.948	-38.57
259.165	119.12
259.381	-22.19
259.597	108.88
259.814	20.82
260.03	-34.47
260.246	-65.19
260.463	139.6
260.679	129.36
260.895	59.73
261.112	65.88
261.328	-1.71
261.544	-73.39
261.761	112.98
261.977	8.53
262.193	-40.62
262.409	119.12
262.626	22.87
262.842	69.97
263.058	-18.09
263.274	67.92
263.49	80.21
263.707	59.73
263.923	112.98
264.139	-52.91
264.355	98.64
264.571	53.59
264.787	0.34
265.004	168.27
265.22	31.06
265.436	0.34
265.652	51.54
265.868	6.49
266.084	-75.43
266.3	-34.47
266.516	-52.91
266.732	-20.14
266.948	-1.71
267.164	20.82
267.38	160.08
267.596	98.64
267.812	135.51
268.028	51.54
268.244	20.82
268.46	-7.85
268.676	-32.43
268.892	-3.75
269.108	-9.9
269.324	-46.76
269.54	-5.8
269.756	96.6
269.972	-116.39
270.188	45.4
270.403	-22.19
270.619	-54.95
270.835	96.6
271.051	0.34
271.267	2.39
271.483	49.49
271.698	104.79
271.914	53.59
272.13	57.68
272.346	10.58
272.562	33.11
272.777	102.74
272.993	33.11
273.209	6.49
273.425	90.45
273.64	-48.81
273.856	82.26
274.072	14.68
274.287	14.68
274.503	47.44
274.719	129.36
274.934	49.49
275.15	-85.67
275.366	16.73
275.581	-54.95
275.797	26.96
276.012	41.3
276.228	6.49
276.444	4.44
276.659	125.27
276.875	-28.33
277.09	49.49
277.306	-5.8
277.521	12.63
277.737	76.12
277.952	106.84
278.168	39.25
278.383	37.2
278.599	55.64
278.814	84.31
279.03	45.4
279.245	127.32
279.461	55.64
279.676	121.17
279.892	-13.99
280.107	-52.91
280.322	-28.33
280.538	86.36
280.753	-63.15
280.969	29.01
281.184	43.35
281.399	127.32
281.615	43.35
281.83	123.22
282.045	-3.75
282.26	-42.67
282.476	-9.9
282.691	74.07
282.906	72.02
283.122	14.68
283.337	-44.71
283.552	100.69
283.767	2.39
283.983	127.32
284.198	-28.33
284.413	26.96
284.628	-65.19
284.843	55.64
285.058	84.31
285.274	55.64
285.489	37.2
285.704	55.64
285.919	-5.8
286.134	29.01
286.349	-20.14
286.564	55.64
286.779	98.64
286.995	-97.96
287.21	-32.43
287.425	57.68
287.64	-24.23
287.855	112.98
288.07	-79.53
288.285	65.88
288.5	121.17
288.715	102.74
288.93	-1.71
289.145	-3.75
289.36	90.45
289.575	-32.43
289.79	139.6
290.004	4.44
290.219	166.23
290.434	-32.43
290.649	-36.52
290.864	-7.85
291.079	33.11
291.294	88.4
291.509	24.92
291.724	12.63
291.938	102.74
292.153	49.49
292.368	-22.19
292.583	65.88
292.798	84.31
293.012	88.4
293.227	65.88
293.442	80.21
293.657	41.3
293.871	96.6
294.086	4.44
294.301	219.47
294.516	-9.9
294.73	-46.76
294.945	16.73
295.16	-3.75
295.374	117.08
295.589	65.88
295.804	-11.95
296.018	10.58
296.233	129.36
296.447	86.36
296.662	-40.62
296.877	86.36
297.091	72.02
297.306	-1.71
297.52	98.64
297.735	74.07
297.949	-5.8
298.164	26.96
298.378	20.82
298.593	-22.19
298.807	37.2
299.022	16.73
299.236	151.89
299.451	12.63
299.665	67.92
299.88	8.53
300.094	14.68
300.309	69.97
300.523	41.3
300.737	-65.19
300.952	86.36
301.166	2.39
301.381	29.01
301.595	-3.75
301.809	39.25
302.024	26.96
302.238	-38.57
302.452	143.7
302.667	33.11
302.881	184.66
303.095	78.16
303.309	53.59
303.524	-26.28
303.738	-28.33
303.952	-18.09
304.166	110.93
304.381	-87.72
304.595	78.16
304.809	47.44
305.023	92.5
305.237	37.2
305.452	-11.95
305.666	49.49
305.88	80.21
306.094	88.4
306.308	18.77
306.522	61.78
306.736	26.96
306.95	82.26
307.164	55.64
307.379	-1.71
307.593	135.51
307.807	172.37
308.021	137.56
308.235	57.68
308.449	-50.86
308.663	8.53
308.877	192.85
309.091	-24.23
309.305	59.73
309.519	-106.15
309.733	153.94
309.947	-44.71
310.161	117.08
310.374	112.98
310.588	96.6
310.802	-11.95
311.016	-73.39
311.23	-7.85
311.444	4.44
311.658	123.22
311.872	121.17
312.085	151.89
312.299	133.46
312.513	205.14
312.727	10.58
312.941	-57
313.154	155.99
313.368	31.06
313.582	31.06
313.796	33.11
314.009	31.06
314.223	168.27
314.437	74.07
314.651	145.75
314.864	-13.99
315.078	6.49
315.292	-52.91
315.505	117.08
315.719	22.87
315.933	63.83
316.146	45.4
316.36	-36.52
316.573	184.66
316.787	141.65
317.001	33.11
317.214	-13.99
317.428	-13.99
317.641	-22.19
317.855	8.53
318.068	72.02
318.282	61.78
318.495	164.18
318.709	-46.76
318.922	26.96
319.136	186.71
319.349	143.7
319.563	-30.38
319.776	55.64
319.99	-30.38
320.203	76.12
320.417	2.39
320.63	55.64
320.843	182.61
321.057	45.4
321.27	-5.8
321.483	41.3
321.697	72.02
321.91	86.36
322.124	82.26
322.337	69.97
322.55	-5.8
322.763	6.49
322.977	-11.95
323.19	26.96
323.403	-20.14
323.617	158.03
323.83	98.64
324.043	-5.8
324.256	72.02
324.469	-50.86
324.683	53.59
324.896	16.73
325.109	-38.57
325.322	20.82
325.535	168.27
325.748	123.22
325.962	14.68
326.175	31.06
326.388	82.26
326.601	155.99
326.814	14.68
327.027	20.82
327.24	137.56
327.453	-38.57
327.666	18.77
327.879	168.27
328.092	53.59
328.305	43.35
328.518	-18.09
328.731	-32.43
328.944	55.64
329.157	69.97
329.37	-16.04
329.583	123.22
329.796	108.88
330.009	-95.91
330.222	47.44
330.435	100.69
330.648	-22.19
330.861	26.96
331.073	29.01
331.286	178.51
331.499	98.64
331.712	-40.62
331.925	65.88
332.138	35.16
332.35	162.13
332.563	-18.09
332.776	213.33
332.989	-73.39
333.202	47.44
333.414	43.35
333.627	18.77
333.84	39.25
334.053	63.83
334.265	-67.24
334.478	-13.99
334.691	14.68
334.903	137.56
335.116	-7.85
335.329	16.73
335.541	104.79
335.754	131.41
335.966	35.16
336.179	61.78
336.392	115.03
336.604	-28.33
336.817	67.92
337.029	96.6
337.242	80.21
337.454	94.55
337.667	24.92
337.88	110.93
338.092	112.98
338.305	94.55
338.517	-1.71
338.729	63.83
338.942	115.03
339.154	-9.9
339.367	-57
339.579	24.92
339.792	-38.57
340.004	72.02
340.217	108.88
340.429	59.73
340.641	-36.52
340.854	-11.95
341.066	-16.04
341.278	143.7
341.491	127.32
341.703	69.97
341.915	-73.39
342.128	127.32
342.34	18.77
342.552	-85.67
342.764	65.88
342.977	41.3
343.189	104.79
343.401	-24.23
343.613	-87.72
343.826	92.5
344.038	-57
344.25	59.73
344.462	-81.58
344.674	84.31
344.886	-3.75
345.099	39.25
345.311	80.21
345.523	26.96
345.735	-83.63
345.947	55.64
346.159	121.17
346.371	61.78
346.583	-32.43
346.795	225.62
347.007	-42.67
347.219	29.01
347.431	10.58
347.643	74.07
347.855	16.73
348.067	88.4
348.279	-42.67
348.491	10.58
348.703	112.98
348.915	33.11
349.127	31.06
349.339	18.77
349.551	-34.47
349.763	166.23
349.975	10.58
350.187	98.64
350.399	121.17
350.61	100.69
350.822	0.34
351.034	110.93
351.246	82.26
351.458	39.25
351.669	76.12
351.881	201.04
352.093	108.88
352.305	31.06
352.517	-42.67
352.728	133.46
352.94	20.82
353.152	160.08
353.363	-24.23
353.575	82.26
353.787	131.41
353.999	47.44
354.21	229.71
354.422	-24.23
354.633	41.3
354.845	37.2
355.057	53.59
355.268	55.64
355.48	41.3
355.692	-44.71
355.903	6.49
356.115	-87.72
356.326	-79.53
356.538	115.03
356.749	86.36
356.961	117.08
357.172	-1.71
357.384	29.01
357.595	244.05
357.807	16.73
358.018	41.3
358.23	-1.71
358.441	192.85
358.653	92.5
358.864	49.49
359.075	-65.19
359.287	-30.38
359.498	98.64
359.709	98.64
359.921	37.2
360.132	6.49
360.344	18.77
360.555	35.16
360.766	31.06
360.977	0.34
361.189	131.41
361.4	-9.9
361.611	72.02
361.823	108.88
362.034	67.92
362.245	35.16
362.456	76.12
362.667	69.97
362.879	72.02
363.09	29.01
363.301	108.88
363.512	86.36
363.723	-65.19
363.935	14.68
364.146	80.21
364.357	33.11
364.568	12.63
364.779	-18.09
364.99	178.51
365.201	-18.09
365.412	117.08
365.623	-22.19
365.834	112.98
366.045	33.11
366.256	98.64
366.467	139.6
366.678	41.3
366.889	33.11
367.1	4.44
367.311	115.03
367.522	43.35
367.733	45.4
367.944	14.68
368.155	-40.62
368.366	143.7
368.577	102.74
368.788	49.49
368.999	8.53
369.209	26.96
369.42	172.37
369.631	182.61
369.842	55.64
370.053	43.35
370.264	112.98
370.474	24.92
370.685	65.88
370.896	-20.14
371.107	176.47
371.317	8.53
371.528	43.35
371.739	39.25
371.95	65.88
372.16	61.78
372.371	-71.34
372.582	10.58
372.792	67.92
373.003	33.11
373.214	18.77
373.424	88.4
373.635	-81.58
373.846	102.74
374.056	-32.43
374.267	31.06
374.477	55.64
374.688	12.63
374.898	65.88
375.109	31.06
375.319	59.73
375.53	112.98
375.74	106.84
375.951	16.73
376.161	67.92
376.372	168.27
376.582	-20.14
376.793	112.98
377.003	-1.71
377.214	-9.9
377.424	43.35
377.635	33.11
377.845	-69.29
378.055	112.98
378.266	-18.09
378.476	22.87
378.686	131.41
378.897	94.55
379.107	96.6
379.317	22.87
379.528	4.44
379.738	67.92
379.948	-48.81
380.158	80.21
380.369	55.64
380.579	80.21
380.789	80.21
380.999	155.99
381.21	102.74
381.42	162.13
381.63	0.34
381.84	102.74
382.05	80.21
382.261	82.26
382.471	151.89
382.681	-75.43
382.891	151.89
383.101	-24.23
383.311	-61.1
383.521	22.87
383.731	135.51
383.941	98.64
384.151	69.97
384.361	31.06
384.571	90.45
384.781	110.93
384.991	151.89
385.201	262.48
385.411	55.64
385.621	47.44
385.831	67.92
386.041	131.41
386.251	41.3
386.461	125.27
386.671	35.16
386.881	139.6
387.091	-22.19
387.301	104.79
387.511	12.63
387.72	84.31
387.93	110.93
388.14	33.11
388.35	72.02
388.56	139.6
388.769	94.55
388.979	-28.33
389.189	-59.05
389.399	29.01
389.609	102.74
389.818	110.93
390.028	-59.05
390.238	88.4
390.447	33.11
390.657	35.16
390.867	86.36
391.076	-89.77
391.286	67.92
391.496	-38.57
391.705	59.73
391.915	139.6
392.125	63.83
392.334	-48.81
392.544	135.51
392.753	78.16
392.963	2.39
393.172	-34.47
393.382	-3.75
393.591	123.22
393.801	69.97
394.01	137.56
394.22	57.68
394.429	41.3
394.639	100.69
394.848	26.96
395.058	78.16
395.267	57.68
395.477	41.3
395.686	35.16
395.895	164.18
396.105	186.71
396.314	117.08
396.524	31.06
396.733	35.16
396.942	151.89
397.152	82.26
397.361	149.84
397.57	47.44
397.78	10.58
397.989	153.94
398.198	160.08
398.407	14.68
398.617	74.07
398.826	-1.71
399.035	51.54
399.244	45.4
399.453	-46.76
399.663	31.06
399.872	12.63
400.081	53.59
400.29	149.84
400.499	39.25
400.708	178.51
400.917	69.97
401.127	47.44
401.336	61.78
401.545	119.12
401.754	115.03
401.963	131.41
402.172	33.11
402.381	-18.09
402.59	53.59
402.799	57.68
403.008	139.6
403.217	78.16
403.426	37.2
403.635	-69.29
403.844	-20.14
404.053	18.77
404.262	61.78
404.471	139.6
404.68	74.07
404.888	18.77
405.097	98.64
405.306	65.88
405.515	55.64
405.724	-1.71
405.933	110.93
406.142	72.02
406.35	112.98
406.559	-5.8
406.768	82.26
406.977	137.56
407.185	65.88
407.394	20.82
407.603	6.49
407.812	33.11
408.02	129.36
408.229	4.44
408.438	127.32
408.646	-36.52
408.855	10.58
409.064	41.3
409.272	26.96
409.481	125.27
409.69	-32.43
409.898	57.68
410.107	145.75
410.315	102.74
410.524	-13.99
410.733	78.16
410.941	90.45
411.15	106.84
411.358	80.21
411.567	237.91
411.775	-11.95
411.984	45.4
412.192	139.6
412.401	82.26
412.609	153.94
412.818	88.4
413.026	129.36
413.234	14.68
413.443	69.97
413.651	69.97
413.86	20.82
414.068	102.74
414.276	211.28
414.485	59.73
414.693	115.03
414.901	164.18
415.11	94.55
415.318	59.73
415.526	43.35
415.734	63.83
415.943	127.32
416.151	84.31
416.359	57.68
416.567	51.54
416.776	207.19
416.984	65.88
417.192	182.61
417.4	-67.24
417.608	4.44
417.817	59.73
418.025	162.13
418.233	149.84
418.441	8.53
418.649	-7.85
418.857	102.74
419.065	188.75
419.273	29.01
419.481	37.2
419.689	57.68
419.897	61.78
420.105	8.53
420.313	84.31
420.521	160.08
420.729	137.56
420.937	37.2
421.145	-13.99
421.353	84.31
421.561	186.71
421.769	90.45
421.977	-5.8
422.185	78.16
422.393	45.4
422.601	174.42
422.809	90.45
423.017	57.68
423.224	88.4
423.432	108.88
423.64	35.16
423.848	188.75
424.056	-11.95
424.263	110.93
424.471	-11.95
424.679	166.23
424.887	41.3
425.094	149.84
425.302	18.77
425.51	90.45
425.718	76.12
425.925	131.41
426.133	20.82
426.341	147.8
426.548	37.2
426.756	18.77
426.964	94.55
427.171	8.53
427.379	110.93
427.586	-7.85
427.794	59.73
428.001	209.23
428.209	102.74
428.417	256.34
428.624	164.18
428.832	100.69
429.039	80.21
429.247	143.7
429.454	160.08
429.662	190.8
429.869	166.23
430.076	86.36
430.284	139.6
430.491	170.32
430.699	162.13
430.906	149.84
431.114	151.89
431.321	186.71
431.528	74.07
431.736	168.27
431.943	233.81
432.15	98.64
432.358	221.52
432.565	282.96
432.772	49.49
432.979	203.09
433.187	92.5
433.394	219.47
433.601	76.12
433.808	268.63
434.016	256.34
434.223	330.06
434.43	164.18
434.637	328.02
434.844	223.57
435.052	323.92
435.259	323.92
435.466	317.78
435.673	299.34
435.88	373.07
436.087	387.41
436.294	338.26
436.501	364.88
436.708	342.35
436.915	379.22
437.122	432.46
437.329	235.86
437.537	416.08
437.743	420.17
437.95	541.01
438.157	473.42
438.364	371.02
438.571	479.57
438.778	475.47
438.985	534.86
439.192	594.25
439.399	532.81
439.606	528.72
439.813	571.72
440.02	729.42
440.227	692.55
440.433	579.92
440.64	624.97
440.847	663.88
441.054	735.56
441.261	870.73
441.467	739.66
441.674	686.41
441.881	846.15
442.088	799.05
442.294	864.58
442.501	860.49
442.708	901.45
442.914	973.13
443.121	1020.23
443.328	987.46
443.534	1075.52
443.741	1100.1
443.948	1024.33
444.154	1177.92
444.361	1419.58
444.568	1198.4
444.774	1239.36
444.981	1245.51
445.187	1478.97
445.394	1524.03
445.6	1356.1
445.807	1507.65
446.013	1435.97
446.22	1536.32
446.426	1651
446.633	1767.74
446.839	1904.95
447.046	1724.73
447.252	2040.12
447.459	2042.17
447.665	1990.97
447.871	2203.96
448.078	2281.78
448.284	2238.77
448.491	2502.96
448.697	2527.53
448.903	2601.26
449.11	2646.32
449.316	2701.61
449.522	2900.27
449.728	3084.58
449.935	3068.2
450.141	3160.36
450.347	3348.77
450.553	3289.38
450.76	3416.35
450.966	3680.54
451.172	3717.4
451.378	3946.78
451.584	3885.34
451.791	4366.61
451.997	4280.6
452.203	4337.94
452.409	4632.85
452.615	4792.59
452.821	4708.62
453.027	4686.09
453.233	5388.55
453.44	5243.14
453.646	5529.86
453.852	5792
454.058	6015.23
454.264	6189.3
454.47	6461.68
454.676	6650.1
454.882	7110.89
455.088	6957.29
455.294	7268.58
455.5	7657.7
455.705	8093.91
455.911	8294.61
456.117	8311
456.323	8683.73
456.529	8710.35
456.735	9509.06
456.941	9810.11
457.147	10217.66
457.352	10354.87
457.558	10793.14
457.764	11360.42
457.97	11743.39
458.176	12173.47
458.381	12785.81
458.587	13107.34
458.793	13731.97
458.999	13717.64
459.204	15190.13
459.41	15925.35
459.616	15503.46
459.821	16296.03
460.027	17193.04
460.233	18169.92
460.438	18110.53
460.644	19073.07
460.85	19337.26
461.055	20164.64
461.261	21587.98
461.466	20817.94
461.672	21037.08
461.878	23896.04
462.083	23320.56
462.289	23943.14
462.494	25227.22
462.7	25040.86
462.905	25239.51
463.111	27537.33
463.316	28686.24
463.522	29071.26
463.727	30250.89
463.932	31801.2
464.138	32319.34
464.343	33584.98
464.549	33654.61
464.754	36046.64
464.959	36794.15
465.165	37398.3
465.37	37441.31
465.575	37422.87
465.781	40453.87
465.986	40896.23
466.191	40863.46
466.397	40707.82
466.602	39814.9
466.807	42092.24
467.012	43241.15
467.218	43634.36
467.423	43835.06
467.628	44869.29
467.833	47244.93
468.038	46098.07
468.244	45516.45
468.449	47537.79
