Data from USB4F104151__3__09-24-20-729.txt Node

Date: Wed Feb 26 09:24:20 EST 2025
User: louis
Spectrometer: USB4F10415
Trigger mode: 4
Integration Time (sec): 1.000000E-1
Scans to average: 1
Electric dark correction enabled: true
Nonlinearity correction enabled: false
Boxcar width: 0
XAxis mode: Wavelengths
Number of Pixels in Spectrum: 3648
>>>>>Begin Spectral Data<<<<<
178.204	-335.35
178.424	-335.35
178.644	-335.35
178.864	-302.59
179.084	-361.98
179.304	-5.63
179.524	51.71
179.744	-15.87
179.964	-15.87
180.184	14.85
180.404	14.85
180.624	-34.3
180.844	0.51
181.064	18.94
181.283	-5.63
181.503	-17.92
181.723	-5.63
181.943	-65.02
182.163	158.21
182.383	-19.97
182.602	66.05
182.822	123.39
183.042	45.57
183.262	-34.3
183.482	64
183.701	6.66
183.921	80.38
184.141	-17.92
184.361	86.53
184.58	-7.68
184.8	2.56
185.02	-5.63
185.239	39.42
185.459	4.61
185.679	102.91
185.898	-42.5
186.118	29.18
186.338	4.61
186.557	113.15
186.777	-30.21
186.997	-1.54
187.216	45.57
187.436	129.53
187.655	6.66
187.875	88.57
188.095	68.09
188.314	123.39
188.534	74.24
188.753	39.42
188.973	31.23
189.192	217.6
189.412	39.42
189.631	-19.97
189.851	92.67
190.07	64
190.29	-13.82
190.509	-1.54
190.729	-28.16
190.948	80.38
191.168	238.08
191.387	68.09
191.607	66.05
191.826	82.43
192.045	-26.11
192.265	-46.59
192.484	16.9
192.704	14.85
192.923	-32.26
193.142	141.82
193.362	80.38
193.581	78.33
193.8	133.63
194.02	80.38
194.239	18.94
194.458	39.42
194.678	-44.54
194.897	23.04
195.116	-30.21
195.335	147.97
195.555	72.19
195.774	-17.92
195.993	64
196.212	31.23
196.432	-3.58
196.651	-7.68
196.87	-60.93
197.089	162.3
197.308	96.77
197.528	-1.54
197.747	-60.93
197.966	86.53
198.185	104.96
198.404	-62.98
198.623	68.09
198.842	55.81
199.062	51.71
199.281	121.34
199.5	47.62
199.719	64
199.938	125.44
200.157	92.67
200.376	166.4
200.595	100.86
200.814	14.85
201.033	-22.02
201.252	102.91
201.471	12.8
201.69	35.33
201.909	-3.58
202.128	59.9
202.347	68.09
202.566	43.52
202.785	43.52
203.004	45.57
203.223	96.77
203.442	72.19
203.661	2.56
203.879	27.14
204.098	131.58
204.317	-9.73
204.536	176.64
204.755	53.76
204.974	43.52
205.193	57.86
205.411	160.25
205.63	2.56
205.849	16.9
206.068	12.8
206.287	33.28
206.505	129.53
206.724	-24.06
206.943	-1.54
207.162	2.56
207.381	33.28
207.599	-62.98
207.818	-13.82
208.037	59.9
208.255	45.57
208.474	51.71
208.693	14.85
208.911	47.62
209.13	72.19
209.349	-5.63
209.567	104.96
209.786	55.81
210.005	39.42
210.223	92.67
210.442	-50.69
210.661	18.94
210.879	61.95
211.098	55.81
211.316	37.38
211.535	31.23
211.753	70.14
211.972	10.75
212.191	-9.73
212.409	16.9
212.628	51.71
212.846	-44.54
213.065	16.9
213.283	76.29
213.502	55.81
213.72	31.23
213.938	27.14
214.157	27.14
214.375	90.62
214.594	-46.59
214.812	61.95
215.031	18.94
215.249	35.33
215.467	45.57
215.686	70.14
215.904	64
216.122	100.86
216.341	76.29
216.559	14.85
216.778	80.38
216.996	72.19
217.214	31.23
217.432	-28.16
217.651	-36.35
217.869	-42.5
218.087	-50.69
218.306	-22.02
218.524	2.56
218.742	-15.87
218.96	92.67
219.179	45.57
219.397	-38.4
219.615	193.02
219.833	104.96
220.051	-52.74
220.27	57.86
220.488	162.3
220.706	-11.78
220.924	-48.64
221.142	-36.35
221.36	-7.68
221.578	43.52
221.796	6.66
222.015	10.75
222.233	45.57
222.451	137.73
222.669	-112.13
222.887	64
223.105	23.04
223.323	41.47
223.541	-67.07
223.759	47.62
223.977	64
224.195	195.07
224.413	27.14
224.631	53.76
224.849	6.66
225.067	186.88
225.285	-58.88
225.503	-50.69
225.721	-11.78
225.939	27.14
226.157	6.66
226.375	285.18
226.592	4.61
226.81	84.48
227.028	104.96
227.246	129.53
227.464	78.33
227.682	133.63
227.9	78.33
228.117	96.77
228.335	57.86
228.553	6.66
228.771	47.62
228.989	154.11
229.206	59.9
229.424	4.61
229.642	-38.4
229.86	-48.64
230.077	92.67
230.295	47.62
230.513	156.16
230.731	61.95
230.948	147.97
231.166	53.76
231.384	10.75
231.601	-13.82
231.819	88.57
232.037	41.47
232.254	-50.69
232.472	107.01
232.689	31.23
232.907	119.29
233.125	-42.5
233.342	-1.54
233.56	70.14
233.777	-54.78
233.995	59.9
234.213	90.62
234.43	25.09
234.648	107.01
234.865	64
235.083	-22.02
235.3	59.9
235.518	66.05
235.735	96.77
235.953	113.15
236.17	-5.63
236.388	-38.4
236.605	2.56
236.822	96.77
237.04	20.99
237.257	102.91
237.475	-32.26
237.692	76.29
237.909	27.14
238.127	-3.58
238.344	33.28
238.562	70.14
238.779	-19.97
238.996	-44.54
239.214	68.09
239.431	39.42
239.648	20.99
239.865	43.52
240.083	88.57
240.3	20.99
240.517	4.61
240.735	-17.92
240.952	143.87
241.169	104.96
241.386	94.72
241.603	-1.54
241.821	-36.35
242.038	88.57
242.255	117.25
242.472	-5.63
242.689	84.48
242.907	33.28
243.124	47.62
243.341	35.33
243.558	-34.3
243.775	31.23
243.992	-91.65
244.209	74.24
244.426	152.06
244.643	78.33
244.86	-15.87
245.078	47.62
245.295	72.19
245.512	20.99
245.729	-89.6
245.946	109.05
246.163	12.8
246.38	-17.92
246.597	-38.4
246.814	-7.68
247.031	68.09
247.248	20.99
247.464	92.67
247.681	64
247.898	29.18
248.115	-30.21
248.332	-30.21
248.549	90.62
248.766	104.96
248.983	96.77
249.2	53.76
249.417	27.14
249.633	25.09
249.85	10.75
250.067	55.81
250.284	66.05
250.501	-11.78
250.717	27.14
250.934	-99.84
251.151	37.38
251.368	100.86
251.585	70.14
251.801	-22.02
252.018	-30.21
252.235	55.81
252.451	-54.78
252.668	-40.45
252.885	100.86
253.102	10.75
253.318	-26.11
253.535	2.56
253.752	-30.21
253.968	18.94
254.185	-11.78
254.401	-9.73
254.618	-9.73
254.835	-50.69
255.051	37.38
255.268	104.96
255.484	2.56
255.701	31.23
255.917	80.38
256.134	-65.02
256.351	18.94
256.567	12.8
256.784	-26.11
257	-99.84
257.217	45.57
257.433	125.44
257.65	41.47
257.866	154.11
258.082	-3.58
258.299	-1.54
258.515	68.09
258.732	37.38
258.948	-50.69
259.165	27.14
259.381	-75.26
259.597	49.66
259.814	-26.11
260.03	-58.88
260.246	14.85
260.463	12.8
260.679	59.9
260.895	23.04
261.112	37.38
261.328	-48.64
261.544	-17.92
261.761	184.83
261.977	-32.26
262.193	-11.78
262.409	100.86
262.626	25.09
262.842	27.14
263.058	-17.92
263.274	-9.73
263.49	23.04
263.707	143.87
263.923	66.05
264.139	-75.26
264.355	41.47
264.571	45.57
264.787	4.61
265.004	64
265.22	55.81
265.436	-22.02
265.652	-38.4
265.868	72.19
266.084	-15.87
266.3	20.99
266.516	-71.17
266.732	37.38
266.948	104.96
267.164	4.61
267.38	59.9
267.596	39.42
267.812	129.53
268.028	74.24
268.244	14.85
268.46	-17.92
268.676	80.38
268.892	-5.63
269.108	27.14
269.324	12.8
269.54	-44.54
269.756	92.67
269.972	-38.4
270.188	-17.92
270.403	-44.54
270.619	-58.88
270.835	129.53
271.051	37.38
271.267	12.8
271.483	-9.73
271.698	86.53
271.914	66.05
272.13	31.23
272.346	14.85
272.562	25.09
272.777	127.49
272.993	45.57
273.209	-79.36
273.425	145.92
273.64	-67.07
273.856	27.14
274.072	-3.58
274.287	14.85
274.503	57.86
274.719	102.91
274.934	100.86
275.15	12.8
275.366	18.94
275.581	-52.74
275.797	86.53
276.012	68.09
276.228	-30.21
276.444	37.38
276.659	141.82
276.875	-19.97
277.09	51.71
277.306	-28.16
277.521	84.48
277.737	-58.88
277.952	-13.82
278.168	31.23
278.383	0.51
278.599	53.76
278.814	111.1
279.03	53.76
279.245	137.73
279.461	64
279.676	29.18
279.892	31.23
280.107	-15.87
280.322	-34.3
280.538	51.71
280.753	-19.97
280.969	59.9
281.184	37.38
281.399	135.68
281.615	55.81
281.83	47.62
282.045	-1.54
282.26	-50.69
282.476	123.39
282.691	20.99
282.906	-28.16
283.122	23.04
283.337	14.85
283.552	2.56
283.767	37.38
283.983	29.18
284.198	-19.97
284.413	18.94
284.628	-50.69
284.843	74.24
285.058	39.42
285.274	76.29
285.489	12.8
285.704	76.29
285.919	12.8
286.134	12.8
286.349	47.62
286.564	12.8
286.779	111.1
286.995	111.1
287.21	-34.3
287.425	76.29
287.64	-69.12
287.855	72.19
288.07	4.61
288.285	100.86
288.5	102.91
288.715	-11.78
288.93	-36.35
289.145	2.56
289.36	102.91
289.575	16.9
289.79	43.52
290.004	-22.02
290.219	57.86
290.434	0.51
290.649	-3.58
290.864	64
291.079	-48.64
291.294	37.38
291.509	55.81
291.724	-1.54
291.938	-15.87
292.153	125.44
292.368	68.09
292.583	64
292.798	68.09
293.012	47.62
293.227	70.14
293.442	-24.06
293.657	57.86
293.871	111.1
294.086	23.04
294.301	127.49
294.516	94.72
294.73	23.04
294.945	-101.89
295.16	-60.93
295.374	76.29
295.589	86.53
295.804	-9.73
296.018	-1.54
296.233	45.57
296.447	45.57
296.662	-79.36
296.877	74.24
297.091	20.99
297.306	8.7
297.52	23.04
297.735	-11.78
297.949	39.42
298.164	45.57
298.378	61.95
298.593	-1.54
298.807	0.51
299.022	64
299.236	145.92
299.451	-62.98
299.665	10.75
299.88	-60.93
300.094	35.33
300.309	14.85
300.523	45.57
300.737	16.9
300.952	41.47
301.166	31.23
301.381	-48.64
301.595	53.76
301.809	80.38
302.024	92.67
302.238	-32.26
302.452	152.06
302.667	41.47
302.881	158.21
303.095	39.42
303.309	82.43
303.524	39.42
303.738	-3.58
303.952	4.61
304.166	72.19
304.381	-81.41
304.595	156.16
304.809	-103.93
305.023	64
305.237	10.75
305.452	-28.16
305.666	16.9
305.88	10.75
306.094	102.91
306.308	23.04
306.522	68.09
306.736	53.76
306.95	76.29
307.164	53.76
307.379	55.81
307.593	117.25
307.807	78.33
308.021	16.9
308.235	31.23
308.449	2.56
308.663	18.94
308.877	176.64
309.091	14.85
309.305	59.9
309.519	-75.26
309.733	107.01
309.947	-89.6
310.161	102.91
310.374	35.33
310.588	84.48
310.802	-62.98
311.016	-9.73
311.23	68.09
311.444	-26.11
311.658	43.52
311.872	68.09
312.085	35.33
312.299	172.54
312.513	113.15
312.727	61.95
312.941	80.38
313.154	10.75
313.368	14.85
313.582	45.57
313.796	82.43
314.009	-22.02
314.223	158.21
314.437	78.33
314.651	111.1
314.864	2.56
315.078	25.09
315.292	-34.3
315.505	-69.12
315.719	55.81
315.933	-9.73
316.146	-9.73
316.36	14.85
316.573	92.67
316.787	111.1
317.001	111.1
317.214	-42.5
317.428	64
317.641	18.94
317.855	72.19
318.068	39.42
318.282	33.28
318.495	133.63
318.709	86.53
318.922	68.09
319.136	113.15
319.349	68.09
319.563	-9.73
319.776	55.81
319.99	-67.07
320.203	43.52
320.417	-11.78
320.63	35.33
320.843	125.44
321.057	27.14
321.27	27.14
321.483	53.76
321.697	190.97
321.91	104.96
322.124	23.04
322.337	172.54
322.55	29.18
322.763	55.81
322.977	37.38
323.19	37.38
323.403	-30.21
323.617	141.82
323.83	61.95
324.043	47.62
324.256	-17.92
324.469	-34.3
324.683	66.05
324.896	31.23
325.109	-26.11
325.322	-28.16
325.535	109.05
325.748	145.92
325.962	92.67
326.175	49.66
326.388	51.71
326.601	14.85
326.814	0.51
327.027	10.75
327.24	104.96
327.453	-60.93
327.666	4.61
327.879	98.81
328.092	53.76
328.305	2.56
328.518	31.23
328.731	27.14
328.944	61.95
329.157	2.56
329.37	-34.3
329.583	143.87
329.796	76.29
330.009	-30.21
330.222	147.97
330.435	111.1
330.648	88.57
330.861	2.56
331.073	35.33
331.286	145.92
331.499	59.9
331.712	-50.69
331.925	37.38
332.138	8.7
332.35	117.25
332.563	-38.4
332.776	129.53
332.989	-13.82
333.202	29.18
333.414	39.42
333.627	45.57
333.84	6.66
334.053	-3.58
334.265	-19.97
334.478	14.85
334.691	96.77
334.903	104.96
335.116	-30.21
335.329	68.09
335.541	104.96
335.754	162.3
335.966	-22.02
336.179	92.67
336.392	55.81
336.604	-44.54
336.817	121.34
337.029	100.86
337.242	78.33
337.454	-1.54
337.667	53.76
337.88	94.72
338.092	37.38
338.305	64
338.517	88.57
338.729	133.63
338.942	57.86
339.154	-48.64
339.367	-26.11
339.579	20.99
339.792	-34.3
340.004	96.77
340.217	-5.63
340.429	47.62
340.641	23.04
340.854	-93.69
341.066	-1.54
341.278	107.01
341.491	51.71
341.703	2.56
341.915	0.51
342.128	78.33
342.34	55.81
342.552	80.38
342.764	14.85
342.977	2.56
343.189	80.38
343.401	-17.92
343.613	-26.11
343.826	14.85
344.038	-19.97
344.25	61.95
344.462	-38.4
344.674	14.85
344.886	12.8
345.099	51.71
345.311	76.29
345.523	-54.78
345.735	-87.55
345.947	6.66
346.159	117.25
346.371	29.18
346.583	35.33
346.795	211.45
347.007	27.14
347.219	64
347.431	39.42
347.643	176.64
347.855	8.7
348.067	66.05
348.279	-67.07
348.491	8.7
348.703	-9.73
348.915	-9.73
349.127	-62.98
349.339	70.14
349.551	29.18
349.763	14.85
349.975	-34.3
350.187	51.71
350.399	119.29
350.61	127.49
350.822	-17.92
351.034	113.15
351.246	-38.4
351.458	49.66
351.669	55.81
351.881	111.1
352.093	78.33
352.305	86.53
352.517	113.15
352.728	152.06
352.94	-9.73
353.152	88.57
353.363	-75.26
353.575	64
353.787	137.73
353.999	31.23
354.21	137.73
354.422	-34.3
354.633	25.09
354.845	72.19
355.057	53.76
355.268	76.29
355.48	43.52
355.692	-40.45
355.903	29.18
356.115	27.14
356.326	-87.55
356.538	88.57
356.749	64
356.961	96.77
357.172	68.09
357.384	-42.5
357.595	88.57
357.807	-32.26
358.018	6.66
358.23	-11.78
358.441	143.87
358.653	96.77
358.864	53.76
359.075	-54.78
359.287	66.05
359.498	172.54
359.709	12.8
359.921	88.57
360.132	100.86
360.344	86.53
360.555	43.52
360.766	111.1
360.977	18.94
361.189	100.86
361.4	6.66
361.611	49.66
361.823	61.95
362.034	68.09
362.245	-52.74
362.456	68.09
362.667	35.33
362.879	-5.63
363.09	-9.73
363.301	84.48
363.512	31.23
363.723	-15.87
363.935	4.61
364.146	70.14
364.357	-54.78
364.568	-7.68
364.779	-69.12
364.99	113.15
365.201	14.85
365.412	107.01
365.623	-28.16
365.834	35.33
366.045	-13.82
366.256	47.62
366.467	43.52
366.678	16.9
366.889	25.09
367.1	-13.82
367.311	174.59
367.522	-52.74
367.733	125.44
367.944	59.9
368.155	14.85
368.366	119.29
368.577	168.45
368.788	12.8
368.999	-42.5
369.209	92.67
369.42	186.88
369.631	182.78
369.842	125.44
370.053	49.66
370.264	86.53
370.474	55.81
370.685	37.38
370.896	76.29
371.107	178.69
371.317	66.05
371.528	117.25
371.739	184.83
371.95	35.33
372.16	111.1
372.371	-26.11
372.582	-1.54
372.792	86.53
373.003	45.57
373.214	129.53
373.424	53.76
373.635	-38.4
373.846	131.58
374.056	-5.63
374.267	100.86
374.477	55.81
374.688	-108.03
374.898	-1.54
375.109	64
375.319	-9.73
375.53	111.1
375.74	168.45
375.951	-1.54
376.161	70.14
376.372	88.57
376.582	18.94
376.793	14.85
377.003	92.67
377.214	-11.78
377.424	68.09
377.635	-48.64
377.845	8.7
378.055	102.91
378.266	31.23
378.476	27.14
378.686	45.57
378.897	49.66
379.107	119.29
379.317	35.33
379.528	96.77
379.738	51.71
379.948	-26.11
380.158	92.67
380.369	-9.73
380.579	154.11
380.789	33.28
380.999	66.05
381.21	160.25
381.42	180.73
381.63	41.47
381.84	137.73
382.05	150.01
382.261	76.29
382.471	174.59
382.681	-108.03
382.891	154.11
383.101	80.38
383.311	-3.58
383.521	-26.11
383.731	119.29
383.941	64
384.151	57.86
384.361	4.61
384.571	86.53
384.781	96.77
384.991	86.53
385.201	164.35
385.411	68.09
385.621	145.92
385.831	33.28
386.041	127.49
386.251	-26.11
386.461	88.57
386.671	6.66
386.881	64
387.091	92.67
387.301	27.14
387.511	-9.73
387.72	27.14
387.93	100.86
388.14	-67.07
388.35	55.81
388.56	31.23
388.769	102.91
388.979	12.8
389.189	6.66
389.399	-1.54
389.609	102.91
389.818	150.01
390.028	31.23
390.238	6.66
390.447	23.04
390.657	86.53
390.867	55.81
391.076	-54.78
391.286	45.57
391.496	-28.16
391.705	18.94
391.915	84.48
392.125	178.69
392.334	80.38
392.544	193.02
392.753	-24.06
392.963	-62.98
393.172	96.77
393.382	-17.92
393.591	225.79
393.801	45.57
394.01	170.49
394.22	72.19
394.429	-1.54
394.639	72.19
394.848	14.85
395.058	86.53
395.267	6.66
395.477	90.62
395.686	-17.92
395.895	162.3
396.105	238.08
396.314	139.77
396.524	4.61
396.733	78.33
396.942	147.97
397.152	74.24
397.361	64
397.57	14.85
397.78	12.8
397.989	88.57
398.198	102.91
398.407	82.43
398.617	31.23
398.826	47.62
399.035	8.7
399.244	115.2
399.453	14.85
399.663	-7.68
399.872	6.66
400.081	23.04
400.29	98.81
400.499	23.04
400.708	96.77
400.917	41.47
401.127	31.23
401.336	-17.92
401.545	213.5
401.754	94.72
401.963	96.77
402.172	57.86
402.381	-11.78
402.59	66.05
402.799	82.43
403.008	104.96
403.217	55.81
403.426	31.23
403.635	45.57
403.844	8.7
404.053	-34.3
404.262	39.42
404.471	180.73
404.68	10.75
404.888	29.18
405.097	47.62
405.306	53.76
405.515	104.96
405.724	14.85
405.933	121.34
406.142	102.91
406.35	117.25
406.559	49.66
406.768	84.48
406.977	143.87
407.185	92.67
407.394	104.96
407.603	-58.88
407.812	104.96
408.02	119.29
408.229	35.33
408.438	143.87
408.646	-42.5
408.855	-5.63
409.064	78.33
409.272	88.57
409.481	70.14
409.69	-54.78
409.898	-65.02
410.107	29.18
410.315	82.43
410.524	-28.16
410.733	113.15
410.941	-13.82
411.15	64
411.358	92.67
411.567	154.11
411.775	-1.54
411.984	18.94
412.192	61.95
412.401	88.57
412.609	131.58
412.818	121.34
413.026	41.47
413.234	6.66
413.443	90.62
413.651	-62.98
413.86	-26.11
414.068	90.62
414.276	119.29
414.485	14.85
414.693	178.69
414.901	150.01
415.11	137.73
415.318	10.75
415.526	31.23
415.734	84.48
415.943	78.33
416.151	160.25
416.359	92.67
416.567	121.34
416.776	84.48
416.984	72.19
417.192	170.49
417.4	6.66
417.608	23.04
417.817	2.56
418.025	80.38
418.233	131.58
418.441	-52.74
418.649	-34.3
418.857	80.38
419.065	154.11
419.273	51.71
419.481	86.53
419.689	25.09
419.897	55.81
420.105	-5.63
420.313	137.73
420.521	133.63
420.729	135.68
420.937	43.52
421.145	25.09
421.353	129.53
421.561	143.87
421.769	2.56
421.977	-34.3
422.185	96.77
422.393	18.94
422.601	98.81
422.809	23.04
423.017	-17.92
423.224	100.86
423.432	111.1
423.64	64
423.848	96.77
424.056	8.7
424.263	154.11
424.471	59.9
424.679	164.35
424.887	-24.06
425.094	96.77
425.302	180.73
425.51	-19.97
425.718	127.49
425.925	76.29
426.133	59.9
426.341	211.45
426.548	61.95
426.756	55.81
426.964	72.19
427.171	64
427.379	139.77
427.586	121.34
427.794	45.57
428.001	137.73
428.209	96.77
428.417	135.68
428.624	164.35
428.832	127.49
429.039	113.15
429.247	111.1
429.454	139.77
429.662	219.64
429.869	227.84
430.076	186.88
430.284	178.69
430.491	162.3
430.699	190.97
430.906	203.26
431.114	152.06
431.321	203.26
431.528	195.07
431.736	168.45
431.943	233.98
432.15	227.84
432.358	166.4
432.565	276.99
432.772	57.86
432.979	248.32
433.187	162.3
433.394	256.51
433.601	160.25
433.808	272.89
434.016	289.28
434.223	246.27
434.43	244.22
434.637	264.7
434.844	322.04
435.052	307.71
435.259	424.44
435.466	342.52
435.673	293.37
435.88	395.77
436.087	299.52
436.294	317.95
436.501	393.72
436.708	408.06
436.915	358.91
437.122	467.45
437.329	299.52
437.537	367.1
437.743	442.87
437.95	549.37
438.157	403.96
438.364	436.73
438.571	457.21
438.778	428.54
438.985	612.85
439.192	575.99
439.399	539.13
439.606	512.5
439.813	616.95
440.02	778.74
440.227	743.92
440.433	672.25
440.64	625.14
440.847	598.52
441.054	662.01
441.261	840.18
441.467	639.48
441.674	776.69
441.881	801.27
442.088	829.94
442.294	897.52
442.501	918
442.708	940.53
442.914	1014.26
443.121	1104.37
443.328	1073.65
443.534	1268.2
443.741	1169.9
443.948	989.68
444.154	1239.53
444.361	1407.47
444.568	1325.55
444.774	1300.97
444.981	1245.68
445.187	1489.39
445.394	1489.39
445.6	1458.67
445.807	1634.79
446.013	1628.65
446.22	1694.18
446.426	1685.99
446.633	1825.25
446.839	2091.49
447.046	1898.98
447.252	2167.26
447.459	1997.28
447.665	2044.38
447.871	2181.6
448.078	2419.16
448.284	2478.55
448.491	2388.44
448.697	2558.42
448.903	2705.88
449.11	2755.03
449.316	2660.82
449.522	2968.02
449.728	3013.07
449.935	3138
450.141	3217.87
450.347	3508.68
450.553	3162.58
450.76	3590.6
450.966	3717.58
451.172	3871.17
451.378	3963.33
451.584	4116.93
451.791	4276.67
451.997	4526.52
452.203	4471.23
452.409	4852.15
452.615	4831.67
452.821	4798.9
453.027	5124.53
453.233	5593.51
453.44	5433.77
453.646	5646.76
453.852	5937.57
454.058	5994.92
454.264	6222.24
454.47	6515.1
454.676	6959.51
454.882	7436.69
455.088	6803.86
455.294	7414.16
455.5	7985.54
455.705	8432
455.911	8522.11
456.117	8413.57
456.323	8980.85
456.529	8935.8
456.735	9595.25
456.941	9896.3
457.147	10381.67
457.352	10684.76
457.558	10975.58
457.764	11563.34
457.97	11895.11
458.176	12380.48
458.381	13224.25
458.587	13257.01
458.793	13895.98
458.999	13525.3
459.204	15644.95
459.41	16212.23
459.616	16163.08
459.821	16900.35
460.027	17742.07
460.233	18622.69
460.438	18428.13
460.644	19685.59
460.85	19812.56
461.055	20504.78
461.261	21418.17
461.466	21303.48
461.672	21498.04
461.878	24189.07
462.083	23636.12
462.289	24361.1
462.494	25251.97
462.7	25342.08
462.905	25899.12
463.111	28043.35
463.316	28889.16
463.522	29827.13
463.727	30756.91
463.932	32120.85
464.138	33138.69
464.343	34113.53
464.549	34271.22
464.754	36751.31
464.959	37849.02
465.165	38410.17
465.37	37996.48
465.575	38131.64
465.781	40693.65
465.986	41953.15
466.191	41185.16
466.397	41641.86
466.602	40871.82
466.807	42923.89
467.012	43525.99
467.218	44304.22
467.423	44334.94
467.628	45684.55
467.833	47798.05
468.038	47169.33
468.244	46239.55
468.449	48703.26
468.654	47443.76
468.859	47085.36
469.064	47302.45
469.269	46210.88
469.474	46704.44
469.679	48037.67
469.885	46538.55
