Data from USB4F104151__93__11-31-42-460.txt Node

Date: Wed Feb 26 11:31:42 EST 2025
User: louis
Spectrometer: USB4F10415
Trigger mode: 4
Integration Time (sec): 1.000000E-1
Scans to average: 1
Electric dark correction enabled: true
Nonlinearity correction enabled: false
Boxcar width: 0
XAxis mode: Wavelengths
Number of Pixels in Spectrum: 3648
>>>>>Begin Spectral Data<<<<<
178.204	-363.69
178.424	-363.69
178.644	-363.69
178.864	-380.07
179.084	-326.82
179.304	-5.29
179.524	11.09
179.744	31.57
179.964	50
180.184	-9.39
180.404	25.43
180.624	-5.29
180.844	-72.87
181.064	-42.15
181.283	23.38
181.503	-66.73
181.723	60.24
181.943	-132.26
182.163	187.22
182.383	-17.58
182.602	82.77
182.822	162.64
183.042	-21.67
183.262	-70.83
183.482	50
183.701	-15.53
183.921	74.58
184.141	-74.92
184.361	117.59
184.58	-9.39
184.8	25.43
185.02	-36.01
185.239	58.2
185.459	95.06
185.679	82.77
185.898	-54.44
186.118	43.86
186.338	56.15
186.557	189.27
186.777	-58.54
186.997	-3.24
187.216	76.63
187.436	285.52
187.655	52.05
187.875	109.4
188.095	-17.58
188.314	121.68
188.534	88.92
188.753	-38.06
188.973	97.11
189.192	133.97
189.412	0.85
189.631	-9.39
189.851	140.12
190.07	86.87
190.29	-64.68
190.509	-42.15
190.729	80.72
190.948	205.65
191.168	199.51
191.387	107.35
191.607	54.1
191.826	97.11
192.045	25.43
192.265	-9.39
192.484	146.26
192.704	39.76
192.923	-31.91
193.142	140.12
193.362	131.92
193.581	111.44
193.8	43.86
194.02	93.01
194.239	103.25
194.458	105.3
194.678	-19.63
194.897	47.96
195.116	70.48
195.335	2.9
195.555	64.34
195.774	-27.82
195.993	60.24
196.212	95.06
196.432	-7.34
196.651	-1.19
196.87	-7.34
197.089	289.62
197.308	56.15
197.528	56.15
197.747	-79.02
197.966	174.93
198.185	103.25
198.404	-38.06
198.623	199.51
198.842	119.64
199.062	133.97
199.281	84.82
199.5	84.82
199.719	68.44
199.938	84.82
200.157	0.85
200.376	60.24
200.595	95.06
200.814	76.63
201.033	-21.67
201.252	181.07
201.471	45.91
201.69	76.63
201.909	41.81
202.128	148.31
202.347	101.2
202.566	31.57
202.785	-97.45
203.004	-81.07
203.223	301.9
203.442	0.85
203.661	-25.77
203.879	39.76
204.098	133.97
204.317	-21.67
204.536	146.26
204.755	93.01
204.974	144.21
205.193	-7.34
205.411	80.72
205.63	70.48
205.849	72.53
206.068	23.38
206.287	45.91
206.505	179.03
206.724	21.33
206.943	-31.91
207.162	-23.72
207.381	76.63
207.599	60.24
207.818	2.9
208.037	-7.34
208.255	58.2
208.474	76.63
208.693	68.44
208.911	9.05
209.13	66.39
209.349	60.24
209.567	41.81
209.786	70.48
210.005	148.31
210.223	15.19
210.442	-97.45
210.661	35.67
210.879	101.2
211.098	60.24
211.316	-13.48
211.535	109.4
211.753	64.34
211.972	103.25
212.191	-46.25
212.409	-5.29
212.628	162.64
212.846	13.14
213.065	25.43
213.283	72.53
213.502	-1.19
213.72	15.19
213.938	64.34
214.157	-52.39
214.375	64.34
214.594	-66.73
214.812	47.96
215.031	15.19
215.249	90.96
215.467	-27.82
215.686	-13.48
215.904	43.86
216.122	45.91
216.341	125.78
216.559	25.43
216.778	66.39
216.996	158.55
217.214	-11.43
217.432	33.62
217.651	23.38
217.869	60.24
218.087	54.1
218.306	19.29
218.524	27.48
218.742	68.44
218.96	156.5
219.179	50
219.397	13.14
219.615	174.93
219.833	97.11
220.051	-15.53
220.27	90.96
220.488	156.5
220.706	37.72
220.924	-25.77
221.142	17.24
221.36	45.91
221.578	72.53
221.796	-42.15
222.015	17.24
222.233	41.81
222.451	226.13
222.669	-111.78
222.887	60.24
223.105	9.05
223.323	15.19
223.541	-11.43
223.759	70.48
223.977	25.43
224.195	58.2
224.413	148.31
224.631	9.05
224.849	58.2
225.067	156.5
225.285	-5.29
225.503	-56.49
225.721	-25.77
225.939	88.92
226.157	60.24
226.375	166.74
226.592	-29.87
226.81	39.76
227.028	64.34
227.246	232.27
227.464	27.48
227.682	119.64
227.9	25.43
228.117	80.72
228.335	7
228.553	82.77
228.771	9.05
228.989	99.16
229.206	80.72
229.424	29.52
229.642	-25.77
229.86	13.14
230.077	131.92
230.295	29.52
230.513	148.31
230.731	127.83
230.948	156.5
231.166	197.46
231.384	-11.43
231.601	50
231.819	209.75
232.037	-36.01
232.254	47.96
232.472	37.72
232.689	39.76
232.907	142.16
233.125	-17.58
233.342	-29.87
233.56	-33.96
233.777	-23.72
233.995	-3.24
234.213	129.88
234.43	70.48
234.648	35.67
234.865	19.29
235.083	37.72
235.3	-5.29
235.518	64.34
235.735	117.59
235.953	115.54
236.17	17.24
236.388	45.91
236.605	90.96
236.822	107.35
237.04	74.58
237.257	74.58
237.475	-93.35
237.692	70.48
237.909	78.68
238.127	29.52
238.344	66.39
238.562	-3.24
238.779	-27.82
238.996	-3.24
239.214	35.67
239.431	127.83
239.648	13.14
239.865	43.86
240.083	86.87
240.3	-17.58
240.517	-5.29
240.735	31.57
240.952	90.96
241.169	41.81
241.386	88.92
241.603	70.48
241.821	-5.29
242.038	93.01
242.255	119.64
242.472	-56.49
242.689	156.5
242.907	64.34
243.124	105.3
243.341	72.53
243.558	27.48
243.775	-107.69
243.992	-9.39
244.209	39.76
244.426	215.89
244.643	101.2
244.86	41.81
245.078	156.5
245.295	47.96
245.512	66.39
245.729	9.05
245.946	117.59
246.163	80.72
246.38	-11.43
246.597	41.81
246.814	56.15
247.031	-11.43
247.248	72.53
247.464	68.44
247.681	17.24
247.898	70.48
248.115	101.2
248.332	-56.49
248.549	88.92
248.766	148.31
248.983	142.16
249.2	29.52
249.417	111.44
249.633	33.62
249.85	82.77
250.067	86.87
250.284	-13.48
250.501	74.58
250.717	23.38
250.934	-36.01
251.151	-15.53
251.368	109.4
251.585	-21.67
251.801	-21.67
252.018	-87.21
252.235	66.39
252.451	-46.25
252.668	-40.11
252.885	93.01
253.102	76.63
253.318	-9.39
253.535	-23.72
253.752	-9.39
253.968	47.96
254.185	-111.78
254.401	31.57
254.618	58.2
254.835	-17.58
255.051	199.51
255.268	78.68
255.484	11.09
255.701	-3.24
255.917	62.29
256.134	-25.77
256.351	54.1
256.567	-52.39
256.784	33.62
257	-42.15
257.217	111.44
257.433	54.1
257.65	50
257.866	267.09
258.082	-23.72
258.299	-15.53
258.515	29.52
258.732	21.33
258.948	-13.48
259.165	41.81
259.381	-1.19
259.597	17.24
259.814	-46.25
260.03	4.95
260.246	72.53
260.463	86.87
260.679	187.22
260.895	31.57
261.112	84.82
261.328	99.16
261.544	29.52
261.761	113.49
261.977	-27.82
262.193	39.76
262.409	103.25
262.626	11.09
262.842	68.44
263.058	-23.72
263.274	111.44
263.49	136.02
263.707	84.82
263.923	166.74
264.139	-40.11
264.355	25.43
264.571	50
264.787	54.1
265.004	166.74
265.22	60.24
265.436	-66.73
265.652	-25.77
265.868	64.34
266.084	-1.19
266.3	101.2
266.516	-46.25
266.732	72.53
266.948	9.05
267.164	37.72
267.38	90.96
267.596	170.83
267.812	248.66
268.028	62.29
268.244	-13.48
268.46	103.25
268.676	11.09
268.892	27.48
269.108	4.95
269.324	41.81
269.54	-5.29
269.756	64.34
269.972	2.9
270.188	-1.19
270.403	-19.63
270.619	15.19
270.835	47.96
271.051	93.01
271.267	-46.25
271.483	-5.29
271.698	115.54
271.914	101.2
272.13	60.24
272.346	76.63
272.562	13.14
272.777	119.64
272.993	47.96
273.209	37.72
273.425	82.77
273.64	13.14
273.856	142.16
274.072	-29.87
274.287	74.58
274.503	187.22
274.719	66.39
274.934	-27.82
275.15	-95.4
275.366	58.2
275.581	-46.25
275.797	52.05
276.012	31.57
276.228	39.76
276.444	68.44
276.659	119.64
276.875	23.38
277.09	76.63
277.306	72.53
277.521	64.34
277.737	133.97
277.952	41.81
278.168	-42.15
278.383	35.67
278.599	47.96
278.814	99.16
279.03	-25.77
279.245	127.83
279.461	-38.06
279.676	93.01
279.892	-62.63
280.107	-62.63
280.322	-40.11
280.538	113.49
280.753	-38.06
280.969	54.1
281.184	11.09
281.399	123.73
281.615	15.19
281.83	58.2
282.045	-36.01
282.26	11.09
282.476	45.91
282.691	37.72
282.906	97.11
283.122	70.48
283.337	-17.58
283.552	19.29
283.767	11.09
283.983	115.54
284.198	52.05
284.413	47.96
284.628	-79.02
284.843	33.62
285.058	136.02
285.274	13.14
285.489	29.52
285.704	111.44
285.919	-58.54
286.134	-38.06
286.349	33.62
286.564	31.57
286.779	86.87
286.995	-21.67
287.21	-3.24
287.425	109.4
287.64	-27.82
287.855	78.68
288.07	-68.78
288.285	103.25
288.5	136.02
288.715	97.11
288.93	74.58
289.145	31.57
289.36	95.06
289.575	4.95
289.79	86.87
290.004	19.29
290.219	168.79
290.434	-25.77
290.649	13.14
290.864	-3.24
291.079	13.14
291.294	109.4
291.509	43.86
291.724	11.09
291.938	43.86
292.153	-44.2
292.368	25.43
292.583	68.44
292.798	56.15
293.012	101.2
293.227	84.82
293.442	19.29
293.657	109.4
293.871	103.25
294.086	95.06
294.301	90.96
294.516	101.2
294.73	-15.53
294.945	-107.69
295.16	25.43
295.374	140.12
295.589	60.24
295.804	125.78
296.018	33.62
296.233	133.97
296.447	113.49
296.662	19.29
296.877	138.07
297.091	72.53
297.306	-3.24
297.52	15.19
297.735	41.81
297.949	23.38
298.164	43.86
298.378	115.54
298.593	-13.48
298.807	93.01
299.022	39.76
299.236	150.36
299.451	-15.53
299.665	54.1
299.88	-54.44
300.094	131.92
300.309	35.67
300.523	86.87
300.737	-50.35
300.952	17.24
301.166	84.82
301.381	23.38
301.595	33.62
301.809	66.39
302.024	15.19
302.238	4.95
302.452	131.92
302.667	107.35
302.881	117.59
303.095	66.39
303.309	76.63
303.524	52.05
303.738	82.77
303.952	-17.58
304.166	64.34
304.381	-56.49
304.595	103.25
304.809	7
305.023	84.82
305.237	-15.53
305.452	47.96
305.666	103.25
305.88	33.62
306.094	9.05
306.308	88.92
306.522	80.72
306.736	45.91
306.95	74.58
307.164	-1.19
307.379	33.62
307.593	99.16
307.807	142.16
308.021	111.44
308.235	121.68
308.449	-79.02
308.663	27.48
308.877	195.41
309.091	-1.19
309.305	13.14
309.519	-97.45
309.733	158.55
309.947	-17.58
310.161	39.76
310.374	138.07
310.588	101.2
310.802	-36.01
311.016	15.19
311.23	101.2
311.444	-23.72
311.658	50
311.872	127.83
312.085	166.74
312.299	140.12
312.513	111.44
312.727	84.82
312.941	41.81
313.154	103.25
313.368	50
313.582	50
313.796	41.81
314.009	-40.11
314.223	174.93
314.437	105.3
314.651	62.29
314.864	95.06
315.078	-11.43
315.292	-33.96
315.505	-9.39
315.719	101.2
315.933	62.29
316.146	-1.19
316.36	27.48
316.573	138.07
316.787	43.86
317.001	58.2
317.214	27.48
317.428	31.57
317.641	50
317.855	-9.39
318.068	54.1
318.282	93.01
318.495	250.71
318.709	113.49
318.922	-48.3
319.136	154.45
319.349	121.68
319.563	-1.19
319.776	76.63
319.99	-15.53
320.203	140.12
320.417	52.05
320.63	111.44
320.843	193.36
321.057	52.05
321.27	-33.96
321.483	84.82
321.697	144.21
321.91	52.05
322.124	109.4
322.337	37.72
322.55	-21.67
322.763	133.97
322.977	78.68
323.19	90.96
323.403	41.81
323.617	19.29
323.83	121.68
324.043	52.05
324.256	60.24
324.469	-38.06
324.683	115.54
324.896	25.43
325.109	27.48
325.322	-48.3
325.535	170.83
325.748	78.68
325.962	-31.91
326.175	50
326.388	60.24
326.601	37.72
326.814	37.72
327.027	64.34
327.24	189.27
327.453	-64.68
327.666	90.96
327.879	80.72
328.092	140.12
328.305	84.82
328.518	66.39
328.731	-58.54
328.944	88.92
329.157	88.92
329.37	43.86
329.583	181.07
329.796	156.5
330.009	-19.63
330.222	23.38
330.435	179.03
330.648	29.52
330.861	97.11
331.073	-7.34
331.286	146.26
331.499	162.64
331.712	21.33
331.925	90.96
332.138	39.76
332.35	140.12
332.563	-58.54
332.776	201.55
332.989	-64.68
333.202	74.58
333.414	33.62
333.627	62.29
333.84	31.57
334.053	39.76
334.265	41.81
334.478	58.2
334.691	25.43
334.903	41.81
335.116	-13.48
335.329	56.15
335.541	66.39
335.754	162.64
335.966	82.77
336.179	54.1
336.392	60.24
336.604	107.35
336.817	131.92
337.029	41.81
337.242	95.06
337.454	25.43
337.667	17.24
337.88	185.17
338.092	33.62
338.305	88.92
338.517	25.43
338.729	146.26
338.942	168.79
339.154	45.91
339.367	-15.53
339.579	154.45
339.792	-29.87
340.004	68.44
340.217	52.05
340.429	74.58
340.641	-40.11
340.854	25.43
341.066	43.86
341.278	160.59
341.491	170.83
341.703	0.85
341.915	-33.96
342.128	117.59
342.34	101.2
342.552	-87.21
342.764	78.68
342.977	-42.15
343.189	33.62
343.401	99.16
343.613	2.9
343.826	45.91
344.038	4.95
344.25	-3.24
344.462	7
344.674	123.73
344.886	99.16
345.099	35.67
345.311	123.73
345.523	47.96
345.735	2.9
345.947	35.67
346.159	58.2
346.371	54.1
346.583	-21.67
346.795	215.89
347.007	0.85
347.219	41.81
347.431	45.91
347.643	142.16
347.855	11.09
348.067	226.13
348.279	52.05
348.491	41.81
348.703	158.55
348.915	35.67
349.127	7
349.339	144.21
349.551	37.72
349.763	160.59
349.975	111.44
350.187	47.96
350.399	222.03
350.61	82.77
350.822	-15.53
351.034	86.87
351.246	39.76
351.458	90.96
351.669	37.72
351.881	115.54
352.093	129.88
352.305	123.73
352.517	109.4
352.728	93.01
352.94	29.52
353.152	9.05
353.363	-105.64
353.575	93.01
353.787	148.31
353.999	-54.44
354.21	123.73
354.422	64.34
354.633	84.82
354.845	33.62
355.057	-21.67
355.268	76.63
355.48	99.16
355.692	142.16
355.903	2.9
356.115	-7.34
356.326	-97.45
356.538	172.88
356.749	88.92
356.961	88.92
357.172	-25.77
357.384	-11.43
357.595	146.26
357.807	19.29
358.018	2.9
358.23	136.02
358.441	127.83
358.653	166.74
358.864	25.43
359.075	-44.2
359.287	56.15
359.498	99.16
359.709	64.34
359.921	31.57
360.132	82.77
360.344	25.43
360.555	19.29
360.766	90.96
360.977	88.92
361.189	123.73
361.4	103.25
361.611	88.92
361.823	172.88
362.034	105.3
362.245	-56.49
362.456	47.96
362.667	107.35
362.879	-56.49
363.09	109.4
363.301	80.72
363.512	25.43
363.723	-1.19
363.935	66.39
364.146	136.02
364.357	74.58
364.568	17.24
364.779	21.33
364.99	131.92
365.201	-29.87
365.412	160.59
365.623	-7.34
365.834	103.25
366.045	80.72
366.256	33.62
366.467	127.83
366.678	4.95
366.889	70.48
367.1	23.38
367.311	80.72
367.522	13.14
367.733	76.63
367.944	93.01
368.155	17.24
368.366	160.59
368.577	136.02
368.788	168.79
368.999	-1.19
369.209	15.19
369.42	181.07
369.631	168.79
369.842	60.24
370.053	-33.96
370.264	41.81
370.474	7
370.685	74.58
370.896	31.57
371.107	129.88
371.317	117.59
371.528	52.05
371.739	113.49
371.95	78.68
372.16	13.14
372.371	-38.06
372.582	37.72
372.792	109.4
373.003	111.44
373.214	90.96
373.424	101.2
373.635	-11.43
373.846	166.74
374.056	-7.34
374.267	113.49
374.477	39.76
374.688	-38.06
374.898	-1.19
375.109	35.67
375.319	84.82
375.53	164.69
375.74	80.72
375.951	88.92
376.161	7
376.372	74.58
376.582	54.1
376.793	131.92
377.003	43.86
377.214	80.72
377.424	76.63
377.635	39.76
377.845	-58.54
378.055	115.54
378.266	-31.91
378.476	33.62
378.686	62.29
378.897	56.15
379.107	74.58
379.317	88.92
379.528	33.62
379.738	152.4
379.948	19.29
380.158	166.74
380.369	31.57
380.579	97.11
380.789	31.57
380.999	146.26
381.21	160.59
381.42	93.01
381.63	-3.24
381.84	115.54
382.05	43.86
382.261	127.83
382.471	144.21
382.681	29.52
382.891	109.4
383.101	9.05
383.311	13.14
383.521	7
383.731	115.54
383.941	82.77
384.151	27.48
384.361	-27.82
384.571	-9.39
384.781	101.2
384.991	199.51
385.201	189.27
385.411	160.59
385.621	54.1
385.831	2.9
386.041	35.67
386.251	0.85
386.461	203.6
386.671	43.86
386.881	113.49
387.091	43.86
387.301	152.4
387.511	93.01
387.72	19.29
387.93	37.72
388.14	2.9
388.35	43.86
388.56	166.74
388.769	160.59
388.979	127.83
389.189	35.67
389.399	35.67
389.609	146.26
389.818	111.44
390.028	86.87
390.238	105.3
390.447	-42.15
390.657	84.82
390.867	0.85
391.076	2.9
391.286	115.54
391.496	17.24
391.705	113.49
391.915	222.03
392.125	131.92
392.334	7
392.544	246.61
392.753	52.05
392.963	17.24
393.172	2.9
393.382	17.24
393.591	193.36
393.801	-17.58
394.01	50
394.22	78.68
394.429	50
394.639	127.83
394.848	29.52
395.058	101.2
395.267	-7.34
395.477	101.2
395.686	162.64
395.895	222.03
396.105	195.41
396.314	31.57
396.524	117.59
396.733	25.43
396.942	31.57
397.152	52.05
397.361	207.7
397.57	84.82
397.78	52.05
397.989	90.96
398.198	136.02
398.407	50
398.617	86.87
398.826	80.72
399.035	9.05
399.244	115.54
399.453	144.21
399.663	86.87
399.872	39.76
400.081	-40.11
400.29	142.16
400.499	-9.39
400.708	164.69
400.917	11.09
401.127	-3.24
401.336	56.15
401.545	133.97
401.754	160.59
401.963	142.16
402.172	50
402.381	-1.19
402.59	-5.29
402.799	21.33
403.008	115.54
403.217	37.72
403.426	115.54
403.635	-25.77
403.844	-17.58
404.053	58.2
404.262	23.38
404.471	174.93
404.68	121.68
404.888	2.9
405.097	123.73
405.306	64.34
405.515	58.2
405.724	27.48
405.933	146.26
406.142	78.68
406.35	129.88
406.559	58.2
406.768	148.31
406.977	158.55
407.185	76.63
407.394	43.86
407.603	13.14
407.812	-17.58
408.02	103.25
408.229	80.72
408.438	56.15
408.646	4.95
408.855	150.36
409.064	35.67
409.272	80.72
409.481	119.64
409.69	-19.63
409.898	-74.92
410.107	17.24
410.315	95.06
410.524	-17.58
410.733	74.58
410.941	33.62
411.15	62.29
411.358	-9.39
411.567	211.79
411.775	60.24
411.984	41.81
412.192	133.97
412.401	-1.19
412.609	199.51
412.818	80.72
413.026	60.24
413.234	15.19
413.443	62.29
413.651	23.38
413.86	31.57
414.068	62.29
414.276	291.66
414.485	80.72
414.693	217.94
414.901	199.51
415.11	131.92
415.318	127.83
415.526	41.81
415.734	115.54
415.943	127.83
416.151	117.59
416.359	27.48
416.567	86.87
416.776	142.16
416.984	150.36
417.192	146.26
417.4	-68.78
417.608	-33.96
417.817	-68.78
418.025	88.92
418.233	187.22
418.441	-1.19
418.649	-60.59
418.857	21.33
419.065	125.78
419.273	-31.91
419.481	133.97
419.689	27.48
419.897	-44.2
420.105	-56.49
420.313	144.21
420.521	258.9
420.729	99.16
420.937	-31.91
421.145	-3.24
421.353	66.39
421.561	199.51
421.769	136.02
421.977	17.24
422.185	174.93
422.393	7
422.601	86.87
422.809	140.12
423.017	50
423.224	119.64
423.432	115.54
423.64	101.2
423.848	189.27
424.056	47.96
424.263	129.88
424.471	17.24
424.679	187.22
424.887	-15.53
425.094	230.23
425.302	131.92
425.51	13.14
425.718	195.41
425.925	93.01
426.133	0.85
426.341	211.79
426.548	45.91
426.756	27.48
426.964	107.35
427.171	52.05
427.379	43.86
427.586	-3.24
427.794	140.12
428.001	166.74
428.209	129.88
428.417	209.75
428.624	138.07
428.832	123.73
429.039	50
429.247	72.53
429.454	97.11
429.662	301.9
429.869	154.45
430.076	109.4
430.284	205.65
430.491	222.03
430.699	197.46
430.906	287.57
431.114	197.46
431.321	131.92
431.528	117.59
431.736	162.64
431.943	168.79
432.15	217.94
432.358	174.93
432.565	308.05
432.772	47.96
432.979	256.85
433.187	199.51
433.394	226.13
433.601	187.22
433.808	324.43
434.016	256.85
434.223	183.12
434.43	254.8
434.637	303.95
434.844	355.15
435.052	273.23
435.259	256.85
435.466	332.62
435.673	285.52
435.88	265.04
436.087	353.1
436.294	398.16
436.501	447.31
436.708	291.66
436.915	353.1
437.122	373.58
437.329	328.53
437.537	410.45
437.743	326.48
437.95	437.07
438.157	439.12
438.364	424.78
438.571	453.45
438.778	430.93
438.985	525.13
439.192	508.75
439.399	500.56
439.606	471.89
439.813	547.66
440.02	668.49
440.227	645.96
440.433	602.96
440.64	619.34
440.847	531.28
441.054	662.35
441.261	725.83
441.467	658.25
441.674	686.92
441.881	803.66
442.088	711.5
442.294	805.71
442.501	944.97
442.708	901.96
442.914	846.66
443.121	949.06
443.328	998.21
443.534	981.83
443.741	1037.13
443.948	1057.61
444.154	1106.76
444.361	1295.17
444.568	1213.25
444.774	1123.14
444.981	1223.49
445.187	1401.66
445.394	1305.41
445.6	1297.22
445.807	1436.48
446.013	1418.05
446.22	1336.13
446.426	1614.65
446.633	1725.24
446.839	1911.61
447.046	1608.51
447.252	1882.94
447.459	1813.31
447.665	1893.18
447.871	2057.01
448.078	2202.42
448.284	2151.22
448.491	2300.72
448.697	2249.52
448.903	2521.9
449.11	2474.8
449.316	2581.29
449.522	2761.52
449.728	2640.69
449.935	2878.25
450.141	2929.45
450.347	3095.33
450.553	3103.53
450.76	3214.12
450.966	3445.54
451.172	3502.88
451.378	3498.78
451.584	3554.08
451.791	4059.93
451.997	3947.29
452.203	4141.85
452.409	4205.33
452.615	4580.11
452.821	4459.28
453.027	4584.21
453.233	4936.46
453.44	4909.83
453.646	5290.76
453.852	5358.34
454.058	5571.33
454.264	5653.25
454.47	5956.35
454.676	6038.27
454.882	6734.57
455.088	6349.56
455.294	6773.49
455.5	7318.25
455.705	7488.23
455.911	7467.75
456.117	7770.85
456.323	8153.82
456.529	8108.76
456.735	8882.89
456.941	8913.61
457.147	9167.56
457.352	9482.95
457.558	9786.05
457.764	10515.12
457.97	10773.17
458.176	11289.26
458.381	11821.73
458.587	11936.42
458.793	12429.98
458.999	12475.03
459.204	14011.01
459.41	14551.67
459.616	14498.42
459.821	14981.74
460.027	15923.81
460.233	16603.74
460.438	16405.08
460.644	17463.88
460.85	17814.09
461.055	18496.06
461.261	19458.6
461.466	18879.03
461.672	19331.63
461.878	21596.68
462.083	21426.7
462.289	22120.96
462.494	22536.7
462.7	22905.34
462.905	23093.75
463.111	25268.69
463.316	26374.59
463.522	26800.57
463.727	27711.92
463.932	29055.39
464.138	29360.53
464.343	30751.1
464.549	30896.51
464.754	33032.54
464.959	34193.74
465.165	34947.39
465.37	34564.42
465.575	34705.73
465.781	36925.73
465.986	37832.98
466.191	37038.37
466.397	37265.69
466.602	36944.16
466.807	38711.56
467.012	39624.95
467.218	39897.33
467.423	40038.64
467.628	41099.49
467.833	43460.8
468.038	42445.01
468.244	41756.89
468.449	43731.13
468.654	43194.56
