Data from USB4F104151__30__09-26-46-813.txt Node

Date: Wed Feb 26 09:26:46 EST 2025
User: louis
Spectrometer: USB4F10415
Trigger mode: 4
Integration Time (sec): 1.000000E-1
Scans to average: 1
Electric dark correction enabled: true
Nonlinearity correction enabled: false
Boxcar width: 0
XAxis mode: Wavelengths
Number of Pixels in Spectrum: 3648
>>>>>Begin Spectral Data<<<<<
178.204	-354.98
178.424	-354.98
178.644	-354.98
178.864	-318.12
179.084	-418.47
179.304	-17.07
179.524	-49.83
179.744	-17.07
179.964	66.9
180.184	7.51
180.404	-15.02
180.624	25.94
180.844	21.84
181.064	-88.75
181.283	42.32
181.503	-51.88
181.723	75.09
181.943	-82.6
182.163	81.24
182.383	17.75
182.602	23.89
182.822	87.38
183.042	38.23
183.262	-115.37
183.482	-0.68
183.701	-45.74
183.921	46.42
184.141	-23.21
184.361	122.2
184.58	21.84
184.8	7.51
185.02	-60.07
185.239	50.52
185.459	7.51
185.679	109.91
185.898	-158.38
186.118	40.28
186.338	-66.22
186.557	46.42
186.777	-64.17
186.997	17.75
187.216	17.75
187.436	79.19
187.655	38.23
187.875	122.2
188.095	5.46
188.314	48.47
188.534	109.91
188.753	-19.11
188.973	83.28
189.192	111.96
189.412	19.8
189.631	-84.65
189.851	-29.35
190.07	124.24
190.29	-144.04
190.509	-49.83
190.729	40.28
190.948	105.81
191.168	177.49
191.387	48.47
191.607	5.46
191.826	-27.31
192.045	46.42
192.265	3.41
192.484	34.13
192.704	-4.78
192.923	-55.98
193.142	130.39
193.362	23.89
193.581	105.81
193.8	17.75
194.02	136.53
194.239	-6.83
194.458	25.94
194.678	34.13
194.897	32.08
195.116	17.75
195.335	-23.21
195.555	44.37
195.774	-47.79
195.993	89.43
196.212	68.95
196.432	75.09
196.651	-25.26
196.87	9.56
197.089	193.87
197.308	85.33
197.528	7.51
197.747	-41.64
197.966	-25.26
198.185	48.47
198.404	-15.02
198.623	79.19
198.842	77.14
199.062	25.94
199.281	89.43
199.5	9.56
199.719	54.61
199.938	13.65
200.157	54.61
200.376	54.61
200.595	157.01
200.814	48.47
201.033	-51.88
201.252	122.2
201.471	-31.4
201.69	46.42
201.909	-15.02
202.128	60.76
202.347	52.56
202.566	9.56
202.785	-39.59
203.004	-35.5
203.223	132.44
203.442	9.56
203.661	-0.68
203.879	73.04
204.098	89.43
204.317	-70.31
204.536	97.62
204.755	34.13
204.974	95.57
205.193	-31.4
205.411	138.58
205.63	9.56
205.849	-8.87
206.068	-6.83
206.287	-10.92
206.505	44.37
206.724	17.75
206.943	-21.16
207.162	-68.27
207.381	107.86
207.599	-15.02
207.818	23.89
208.037	32.08
208.255	91.48
208.474	30.04
208.693	7.51
208.911	5.46
209.13	77.14
209.349	71
209.567	40.28
209.786	36.18
210.005	71
210.223	13.65
210.442	-92.84
210.661	-60.07
210.879	-45.74
211.098	54.61
211.316	-0.68
211.535	62.8
211.753	15.7
211.972	136.53
212.191	-27.31
212.409	-15.02
212.628	-4.78
212.846	-84.65
213.065	118.1
213.283	58.71
213.502	68.95
213.72	71
213.938	13.65
214.157	-21.16
214.375	87.38
214.594	-43.69
214.812	36.18
215.031	-51.88
215.249	-23.21
215.467	15.7
215.686	50.52
215.904	138.58
216.122	3.41
216.341	150.87
216.559	25.94
216.778	36.18
216.996	154.96
217.214	-35.5
217.432	-49.83
217.651	-80.55
217.869	-47.79
218.087	25.94
218.306	-109.23
218.524	-23.21
218.742	15.7
218.96	9.56
219.179	-27.31
219.397	66.9
219.615	230.74
219.833	136.53
220.051	-117.42
220.27	120.15
220.488	148.82
220.706	128.34
220.924	-41.64
221.142	48.47
221.36	50.52
221.578	34.13
221.796	-47.79
222.015	-8.87
222.233	34.13
222.451	99.67
222.669	-31.4
222.887	42.32
223.105	1.37
223.323	-6.83
223.541	-12.97
223.759	13.65
223.977	17.75
224.195	89.43
224.413	95.57
224.631	56.66
224.849	17.75
225.067	97.62
225.285	-68.27
225.503	-2.73
225.721	-68.27
225.939	30.04
226.157	79.19
226.375	165.2
226.592	-115.37
226.81	-15.02
227.028	19.8
227.246	62.8
227.464	64.85
227.682	25.94
227.9	114
228.117	48.47
228.335	5.46
228.553	-25.26
228.771	-55.98
228.989	66.9
229.206	1.37
229.424	-31.4
229.642	-53.93
229.86	5.46
230.077	157.01
230.295	-66.22
230.513	99.67
230.731	46.42
230.948	101.72
231.166	79.19
231.384	-37.55
231.601	-80.55
231.819	154.96
232.037	3.41
232.254	-80.55
232.472	-35.5
232.689	-68.27
232.907	15.7
233.125	-12.97
233.342	-84.65
233.56	-39.59
233.777	-80.55
233.995	-37.55
234.213	48.47
234.43	-15.02
234.648	7.51
234.865	-53.93
235.083	73.04
235.3	9.56
235.518	34.13
235.735	73.04
235.953	146.77
236.17	52.56
236.388	-23.21
236.605	75.09
236.822	48.47
237.04	-2.73
237.257	-39.59
237.475	-80.55
237.692	68.95
237.909	40.28
238.127	-55.98
238.344	21.84
238.562	17.75
238.779	-72.36
238.996	-105.13
239.214	9.56
239.431	34.13
239.648	11.61
239.865	1.37
240.083	107.86
240.3	-51.88
240.517	-10.92
240.735	32.08
240.952	103.76
241.169	-15.02
241.386	56.66
241.603	-58.03
241.821	-17.07
242.038	56.66
242.255	124.24
242.472	-66.22
242.689	64.85
242.907	-0.68
243.124	42.32
243.341	-33.45
243.558	-35.5
243.775	-107.18
243.992	-19.11
244.209	118.1
244.426	159.06
244.643	38.23
244.86	-55.98
245.078	21.84
245.295	-43.69
245.512	42.32
245.729	-78.51
245.946	36.18
246.163	87.38
246.38	42.32
246.597	-10.92
246.814	21.84
247.031	27.99
247.248	-23.21
247.464	-19.11
247.681	42.32
247.898	54.61
248.115	1.37
248.332	-66.22
248.549	79.19
248.766	95.57
248.983	101.72
249.2	15.7
249.417	87.38
249.633	21.84
249.85	5.46
250.067	7.51
250.284	-21.16
250.501	5.46
250.717	34.13
250.934	-88.75
251.151	-39.59
251.368	25.94
251.585	9.56
251.801	-15.02
252.018	1.37
252.235	62.8
252.451	-51.88
252.668	-6.83
252.885	-0.68
253.102	79.19
253.318	-27.31
253.535	5.46
253.752	9.56
253.968	-45.74
254.185	-6.83
254.401	-6.83
254.618	-49.83
254.835	-25.26
255.051	111.96
255.268	75.09
255.484	-35.5
255.701	25.94
255.917	54.61
256.134	-68.27
256.351	46.42
256.567	-119.46
256.784	-29.35
257	-4.78
257.217	40.28
257.433	52.56
257.65	56.66
257.866	111.96
258.082	-88.75
258.299	7.51
258.515	15.7
258.732	19.8
258.948	-39.59
259.165	87.38
259.381	-98.99
259.597	13.65
259.814	-15.02
260.03	-10.92
260.246	-27.31
260.463	-8.87
260.679	140.63
260.895	42.32
261.112	17.75
261.328	-33.45
261.544	-105.13
261.761	103.76
261.977	-31.4
262.193	-25.26
262.409	58.71
262.626	-39.59
262.842	25.94
263.058	-15.02
263.274	116.05
263.49	79.19
263.707	25.94
263.923	46.42
264.139	-96.94
264.355	13.65
264.571	-19.11
264.787	58.71
265.004	34.13
265.22	-31.4
265.436	-51.88
265.652	52.56
265.868	42.32
266.084	-64.17
266.3	13.65
266.516	-96.94
266.732	-10.92
266.948	-8.87
267.164	-17.07
267.38	46.42
267.596	64.85
267.812	97.62
268.028	17.75
268.244	-51.88
268.46	32.08
268.676	-33.45
268.892	-2.73
269.108	-80.55
269.324	-12.97
269.54	-15.02
269.756	44.37
269.972	-27.31
270.188	-45.74
270.403	17.75
270.619	21.84
270.835	79.19
271.051	5.46
271.267	-98.99
271.483	-47.79
271.698	79.19
271.914	66.9
272.13	1.37
272.346	-60.07
272.562	-39.59
272.777	124.24
272.993	-10.92
273.209	-41.64
273.425	1.37
273.64	-78.51
273.856	97.62
274.072	-19.11
274.287	-90.79
274.503	77.14
274.719	75.09
274.934	17.75
275.15	-207.53
275.366	1.37
275.581	-39.59
275.797	34.13
276.012	52.56
276.228	9.56
276.444	42.32
276.659	52.56
276.875	32.08
277.09	-12.97
277.306	48.47
277.521	56.66
277.737	-2.73
277.952	83.28
278.168	27.99
278.383	25.94
278.599	17.75
278.814	13.65
279.03	27.99
279.245	114
279.461	-31.4
279.676	40.28
279.892	-45.74
280.107	-55.98
280.322	-55.98
280.538	25.94
280.753	-2.73
280.969	-31.4
281.184	3.41
281.399	114
281.615	5.46
281.83	19.8
282.045	-58.03
282.26	-64.17
282.476	-21.16
282.691	-0.68
282.906	38.23
283.122	-6.83
283.337	25.94
283.552	-15.02
283.767	-15.02
283.983	85.33
284.198	-74.41
284.413	40.28
284.628	-121.51
284.843	48.47
285.058	64.85
285.274	-8.87
285.489	-72.36
285.704	30.04
285.919	-88.75
286.134	-35.5
286.349	1.37
286.564	-19.11
286.779	114
286.995	-51.88
287.21	-90.79
287.425	77.14
287.64	9.56
287.855	25.94
288.07	-43.69
288.285	30.04
288.5	62.8
288.715	-8.87
288.93	-27.31
289.145	73.04
289.36	58.71
289.575	-27.31
289.79	118.1
290.004	-76.46
290.219	44.37
290.434	15.7
290.649	13.65
290.864	-23.21
291.079	50.52
291.294	9.56
291.509	7.51
291.724	-47.79
291.938	-55.98
292.153	58.71
292.368	11.61
292.583	73.04
292.798	124.24
293.012	56.66
293.227	60.76
293.442	-88.75
293.657	58.71
293.871	79.19
294.086	66.9
294.301	179.54
294.516	71
294.73	-72.36
294.945	-23.21
295.16	54.61
295.374	75.09
295.589	101.72
295.804	-53.93
296.018	25.94
296.233	114
296.447	-39.59
296.662	5.46
296.877	71
297.091	87.38
297.306	-51.88
297.52	7.51
297.735	-68.27
297.949	9.56
298.164	54.61
298.378	30.04
298.593	-66.22
298.807	-35.5
299.022	-0.68
299.236	85.33
299.451	15.7
299.665	75.09
299.88	1.37
300.094	7.51
300.309	-8.87
300.523	-2.73
300.737	-113.32
300.952	9.56
301.166	-29.35
301.381	-72.36
301.595	25.94
301.809	62.8
302.024	5.46
302.238	-41.64
302.452	21.84
302.667	-39.59
302.881	116.05
303.095	21.84
303.309	5.46
303.524	-35.5
303.738	-33.45
303.952	-82.6
304.166	62.8
304.381	-53.93
304.595	52.56
304.809	-25.26
305.023	-37.55
305.237	-66.22
305.452	-51.88
305.666	48.47
305.88	68.95
306.094	91.48
306.308	1.37
306.522	75.09
306.736	-51.88
306.95	44.37
307.164	50.52
307.379	11.61
307.593	64.85
307.807	154.96
308.021	95.57
308.235	30.04
308.449	-39.59
308.663	-23.21
308.877	218.45
309.091	-60.07
309.305	58.71
309.519	-150.18
309.733	107.86
309.947	-60.07
310.161	42.32
310.374	89.43
310.588	44.37
310.802	-0.68
311.016	-70.31
311.23	-19.11
311.444	-51.88
311.658	-43.69
311.872	81.24
312.085	71
312.299	126.29
312.513	62.8
312.727	66.9
312.941	-76.46
313.154	30.04
313.368	73.04
313.582	15.7
313.796	32.08
314.009	-0.68
314.223	97.62
314.437	42.32
314.651	38.23
314.864	-98.99
315.078	9.56
315.292	-119.46
315.505	-60.07
315.719	25.94
315.933	62.8
316.146	-21.16
316.36	-51.88
316.573	48.47
316.787	-6.83
317.001	-51.88
317.214	-0.68
317.428	-2.73
317.641	11.61
317.855	1.37
318.068	-33.45
318.282	-21.16
318.495	111.96
318.709	87.38
318.922	-17.07
319.136	87.38
319.349	128.34
319.563	3.41
319.776	1.37
319.99	-113.32
320.203	62.8
320.417	-47.79
320.63	38.23
320.843	124.24
321.057	68.95
321.27	56.66
321.483	62.8
321.697	75.09
321.91	34.13
322.124	-31.4
322.337	-25.26
322.55	-53.93
322.763	23.89
322.977	21.84
323.19	-35.5
323.403	-4.78
323.617	46.42
323.83	83.28
324.043	-17.07
324.256	23.89
324.469	-70.31
324.683	95.57
324.896	7.51
325.109	54.61
325.322	-21.16
325.535	13.65
325.748	68.95
325.962	34.13
326.175	66.9
326.388	-23.21
326.601	152.91
326.814	-23.21
327.027	-92.84
327.24	66.9
327.453	-127.66
327.666	62.8
327.879	77.14
328.092	3.41
328.305	87.38
328.518	-37.55
328.731	-45.74
328.944	-68.27
329.157	52.56
329.37	-115.37
329.583	136.53
329.796	64.85
330.009	-82.6
330.222	30.04
330.435	95.57
330.648	17.75
330.861	32.08
331.073	38.23
331.286	21.84
331.499	3.41
331.712	-66.22
331.925	-2.73
332.138	9.56
332.35	107.86
332.563	-41.64
332.776	66.9
332.989	-101.03
333.202	9.56
333.414	32.08
333.627	-6.83
333.84	-19.11
334.053	-39.59
334.265	-94.89
334.478	5.46
334.691	-23.21
334.903	64.85
335.116	-66.22
335.329	-4.78
335.541	99.67
335.754	58.71
335.966	-51.88
336.179	77.14
336.392	5.46
336.604	60.76
336.817	46.42
337.029	19.8
337.242	-66.22
337.454	44.37
337.667	-10.92
337.88	77.14
338.092	-15.02
338.305	1.37
338.517	-55.98
338.729	73.04
338.942	91.48
339.154	-17.07
339.367	-74.41
339.579	34.13
339.792	-51.88
340.004	-29.35
340.217	-70.31
340.429	27.99
340.641	-88.75
340.854	-64.17
341.066	-33.45
341.278	122.2
341.491	58.71
341.703	13.65
341.915	-4.78
342.128	62.8
342.34	40.28
342.552	-62.12
342.764	-39.59
342.977	21.84
343.189	-17.07
343.401	42.32
343.613	-72.36
343.826	40.28
344.038	-21.16
344.25	38.23
344.462	-23.21
344.674	-19.11
344.886	-96.94
345.099	-10.92
345.311	7.51
345.523	-49.83
345.735	-64.17
345.947	-37.55
346.159	-74.41
346.371	-27.31
346.583	-0.68
346.795	126.29
347.007	1.37
347.219	17.75
347.431	30.04
347.643	91.48
347.855	19.8
348.067	103.76
348.279	-125.61
348.491	-33.45
348.703	-33.45
348.915	-60.07
349.127	-39.59
349.339	-29.35
349.551	-2.73
349.763	-23.21
349.975	50.52
350.187	30.04
350.399	146.77
350.61	-25.26
350.822	-41.64
351.034	9.56
351.246	-6.83
351.458	13.65
351.669	17.75
351.881	64.85
352.093	85.33
352.305	17.75
352.517	34.13
352.728	68.95
352.94	77.14
353.152	-12.97
353.363	-58.03
353.575	9.56
353.787	25.94
353.999	-2.73
354.21	79.19
354.422	-21.16
354.633	-12.97
354.845	-0.68
355.057	-60.07
355.268	-31.4
355.48	21.84
355.692	13.65
355.903	-21.16
356.115	-58.03
356.326	-96.94
356.538	122.2
356.749	-2.73
356.961	159.06
357.172	-64.17
357.384	-49.83
357.595	185.68
357.807	9.56
358.018	-15.02
358.23	-2.73
358.441	42.32
358.653	75.09
358.864	-76.46
359.075	-0.68
359.287	25.94
359.498	30.04
359.709	30.04
359.921	-53.93
360.132	85.33
360.344	-51.88
360.555	1.37
360.766	62.8
360.977	-39.59
361.189	-19.11
361.4	-21.16
361.611	44.37
361.823	73.04
362.034	19.8
362.245	-80.55
362.456	-15.02
362.667	75.09
362.879	-66.22
363.09	50.52
363.301	32.08
363.512	95.57
363.723	-15.02
363.935	-70.31
364.146	79.19
364.357	27.99
364.568	50.52
364.779	-53.93
364.99	56.66
365.201	-31.4
365.412	89.43
365.623	-72.36
365.834	27.99
366.045	17.75
366.256	111.96
366.467	73.04
366.678	-25.26
366.889	5.46
367.1	-33.45
367.311	50.52
367.522	-47.79
367.733	32.08
367.944	58.71
368.155	85.33
368.366	71
368.577	89.43
368.788	109.91
368.999	-53.93
369.209	-49.83
369.42	152.91
369.631	161.11
369.842	-6.83
370.053	-62.12
370.264	116.05
370.474	-39.59
370.685	38.23
370.896	19.8
371.107	91.48
371.317	15.7
371.528	-10.92
371.739	103.76
371.95	56.66
372.16	21.84
372.371	-88.75
372.582	-68.27
372.792	48.47
373.003	38.23
373.214	17.75
373.424	75.09
373.635	-90.79
373.846	48.47
374.056	3.41
374.267	23.89
374.477	32.08
374.688	-43.69
374.898	13.65
375.109	-17.07
375.319	73.04
375.53	85.33
375.74	9.56
375.951	9.56
376.161	52.56
376.372	54.61
376.582	-68.27
376.793	-39.59
377.003	-25.26
377.214	-23.21
377.424	46.42
377.635	-10.92
377.845	-19.11
378.055	58.71
378.266	-139.94
378.476	-68.27
378.686	42.32
378.897	34.13
379.107	71
379.317	-17.07
379.528	-47.79
379.738	40.28
379.948	-58.03
380.158	114
380.369	-10.92
380.579	79.19
380.789	-0.68
380.999	11.61
381.21	48.47
381.42	140.63
381.63	-10.92
381.84	81.24
382.05	25.94
382.261	11.61
382.471	116.05
382.681	-35.5
382.891	114
383.101	38.23
383.311	-31.4
383.521	-43.69
383.731	138.58
383.941	62.8
384.151	58.71
384.361	-62.12
384.571	23.89
384.781	-17.07
384.991	208.21
385.201	191.83
385.411	19.8
385.621	-23.21
385.831	75.09
386.041	25.94
386.251	-4.78
386.461	118.1
386.671	-103.08
386.881	68.95
387.091	-109.23
387.301	79.19
387.511	-10.92
387.72	58.71
387.93	46.42
388.14	-107.18
388.35	64.85
388.56	23.89
388.769	40.28
388.979	75.09
389.189	-47.79
389.399	-0.68
389.609	-27.31
389.818	32.08
390.028	9.56
390.238	-2.73
390.447	9.56
390.657	11.61
390.867	-60.07
391.076	-90.79
391.286	46.42
391.496	21.84
391.705	-23.21
391.915	75.09
392.125	81.24
392.334	-15.02
392.544	120.15
392.753	13.65
392.963	-35.5
393.172	23.89
393.382	-92.84
393.591	128.34
393.801	-55.98
394.01	157.01
394.22	1.37
394.429	-15.02
394.639	-2.73
394.848	40.28
395.058	-15.02
395.267	-53.93
395.477	-80.55
395.686	56.66
395.895	202.07
396.105	134.48
396.314	52.56
396.524	-90.79
396.733	-29.35
396.942	71
397.152	5.46
397.361	81.24
397.57	-15.02
397.78	-86.7
397.989	58.71
398.198	173.39
398.407	17.75
398.617	-19.11
398.826	-10.92
399.035	7.51
399.244	77.14
399.453	1.37
399.663	17.75
399.872	17.75
400.081	-101.03
400.29	17.75
400.499	-35.5
400.708	101.72
400.917	-12.97
401.127	-51.88
401.336	-0.68
401.545	152.91
401.754	89.43
401.963	107.86
402.172	-25.26
402.381	1.37
402.59	-6.83
402.799	1.37
403.008	32.08
403.217	-39.59
403.426	64.85
403.635	-68.27
403.844	-43.69
404.053	-17.07
404.262	-21.16
404.471	79.19
404.68	-2.73
404.888	42.32
405.097	-2.73
405.306	17.75
405.515	64.85
405.724	56.66
405.933	58.71
406.142	-6.83
406.35	44.37
406.559	-17.07
406.768	23.89
406.977	118.1
407.185	5.46
407.394	50.52
407.603	-64.17
407.812	44.37
408.02	75.09
408.229	-27.31
408.438	-8.87
408.646	-23.21
408.855	-17.07
409.064	30.04
409.272	34.13
409.481	-21.16
409.69	-39.59
409.898	-92.84
410.107	23.89
410.315	52.56
410.524	-6.83
410.733	-6.83
410.941	40.28
411.15	38.23
411.358	42.32
411.567	118.1
411.775	-43.69
411.984	-8.87
412.192	58.71
412.401	-51.88
412.609	64.85
412.818	93.52
413.026	-6.83
413.234	-43.69
413.443	-15.02
413.651	-51.88
413.86	25.94
414.068	46.42
414.276	95.57
414.485	40.28
414.693	109.91
414.901	87.38
415.11	9.56
415.318	9.56
415.526	-2.73
415.734	30.04
415.943	9.56
416.151	-12.97
416.359	25.94
416.567	44.37
416.776	48.47
416.984	38.23
417.192	103.76
417.4	-105.13
417.608	42.32
417.817	-60.07
418.025	32.08
418.233	99.67
418.441	-64.17
418.649	-76.46
418.857	23.89
419.065	19.8
419.273	-23.21
419.481	56.66
419.689	-39.59
419.897	36.18
420.105	23.89
420.313	56.66
420.521	191.83
420.729	89.43
420.937	-62.12
421.145	-17.07
421.353	75.09
421.561	142.68
421.769	9.56
421.977	-12.97
422.185	99.67
422.393	42.32
422.601	66.9
422.809	36.18
423.017	-88.75
423.224	71
423.432	17.75
423.64	36.18
423.848	114
424.056	56.66
424.263	116.05
424.471	1.37
424.679	54.61
424.887	-113.32
425.094	138.58
425.302	21.84
425.51	-53.93
425.718	7.51
425.925	-25.26
426.133	-21.16
426.341	99.67
426.548	-8.87
426.756	-78.51
426.964	34.13
427.171	-113.32
427.379	-0.68
427.586	-33.45
427.794	44.37
428.001	44.37
428.209	40.28
428.417	38.23
428.624	-12.97
428.832	66.9
429.039	97.62
429.247	38.23
429.454	40.28
429.662	130.39
429.869	56.66
430.076	50.52
430.284	44.37
430.491	132.44
430.699	122.2
430.906	83.28
431.114	42.32
431.321	71
431.528	95.57
431.736	124.24
431.943	50.52
432.15	23.89
432.358	60.76
432.565	132.44
432.772	-62.12
432.979	165.2
433.187	91.48
433.394	95.57
433.601	17.75
433.808	154.96
434.016	226.64
434.223	181.59
434.43	56.66
434.637	109.91
434.844	179.54
435.052	85.33
435.259	187.73
435.466	73.04
435.673	130.39
435.88	107.86
436.087	114
436.294	200.02
436.501	169.3
436.708	111.96
436.915	204.11
437.122	240.98
437.329	99.67
437.537	144.72
437.743	128.34
437.95	236.88
438.157	206.16
438.364	132.44
438.571	177.49
438.778	214.35
438.985	189.78
439.192	234.83
439.399	181.59
439.606	238.93
439.813	312.66
440.02	335.18
440.227	341.33
440.433	314.7
440.64	249.17
440.847	236.88
441.054	331.09
441.261	435.53
441.467	351.57
441.674	247.12
441.881	394.58
442.088	247.12
442.294	361.81
442.501	413.01
442.708	449.87
442.914	466.25
443.121	386.38
443.328	488.78
443.534	544.08
443.741	542.03
443.948	466.25
444.154	443.73
444.361	673.1
444.568	570.7
444.774	529.74
444.981	496.97
445.187	642.38
445.394	603.47
445.6	574.8
445.807	750.92
446.013	628.04
446.22	623.95
446.426	795.98
446.633	951.62
446.839	914.76
447.046	697.67
447.252	996.68
447.459	912.71
447.665	916.81
447.871	992.58
448.078	1054.02
448.284	1127.75
448.491	1080.64
448.697	1273.15
448.903	1113.41
449.11	1230.15
449.316	1310.02
449.522	1398.08
449.728	1389.89
449.935	1406.27
450.141	1396.03
450.347	1563.97
450.553	1566.01
450.76	1527.1
450.966	1709.37
451.172	1735.99
451.378	1770.81
451.584	1776.95
451.791	2102.58
451.997	1955.13
452.203	1998.13
452.409	2237.75
452.615	2303.28
452.821	2096.44
453.027	2164.02
453.233	2573.61
453.44	2456.88
453.646	2454.83
453.852	2553.13
454.058	2678.06
454.264	2739.5
454.47	3013.93
454.676	2788.65
454.882	3347.75
455.088	3056.93
455.294	3298.59
455.5	3556.64
455.705	3755.29
455.911	3906.84
456.117	3783.96
456.323	3892.51
456.529	3999
456.735	4398.35
456.941	4441.36
457.147	4498.7
457.352	4699.41
457.558	4846.86
457.764	5207.3
457.97	5295.36
458.176	5348.61
458.381	5674.24
458.587	5852.41
458.793	6221.05
458.999	6145.27
459.204	7050.47
459.41	7202.02
459.616	7091.43
459.821	7486.69
460.027	7611.62
460.233	8187.1
460.438	8166.62
460.644	8819.92
460.85	8619.22
461.055	8946.89
461.261	9391.3
461.466	9303.24
461.672	9491.65
461.878	10699.95
462.083	10509.49
462.289	10818.74
462.494	11240.62
462.7	11252.91
462.905	11453.61
463.111	12233.88
463.316	12872.85
463.522	13014.16
463.727	13610.12
463.932	14025.86
464.138	14543.99
464.343	15371.37
464.549	15144.05
464.754	16516.19
464.959	16958.55
465.165	16831.57
465.37	16890.96
465.575	17040.47
465.781	18134.08
465.986	18736.18
466.191	18363.45
466.397	18652.22
466.602	17890.37
466.807	19407.92
467.012	19475.5
467.218	19821.61
467.423	19807.27
467.628	20458.53
467.833	21335.06
468.038	21046.29
468.244	20565.02
468.449	21783.56
468.654	21445.65
468.859	21330.96
469.064	21351.44
469.269	20882.45
