Data from USB4F104151__48__10-25-24-934.txt Node

Date: Wed Feb 26 10:25:24 EST 2025
User: louis
Spectrometer: USB4F10415
Trigger mode: 4
Integration Time (sec): 1.000000E-1
Scans to average: 1
Electric dark correction enabled: true
Nonlinearity correction enabled: false
Boxcar width: 0
XAxis mode: Wavelengths
Number of Pixels in Spectrum: 3648
>>>>>Begin Spectral Data<<<<<
178.204	-422.91
178.424	-422.91
178.644	-422.91
178.864	-392.19
179.084	-379.9
179.304	17.41
179.524	48.13
179.744	-54.27
179.964	60.42
180.184	-7.17
180.404	-13.31
180.624	48.13
180.844	60.42
181.064	-132.09
181.283	-17.41
181.503	-54.27
181.723	44.03
181.943	-76.8
182.163	179.2
182.383	15.36
182.602	11.26
182.822	187.39
183.042	68.61
183.262	23.55
183.482	3.07
183.701	-15.36
183.921	23.55
184.141	-74.75
184.361	58.37
184.58	68.61
184.8	117.76
185.02	11.26
185.239	54.27
185.459	160.77
185.679	168.96
185.898	-66.56
186.118	1.02
186.338	50.18
186.557	183.29
186.777	-17.41
186.997	7.17
187.216	35.84
187.436	183.29
187.655	115.71
187.875	78.85
188.095	56.32
188.314	99.33
188.534	111.61
188.753	-76.8
188.973	78.85
189.192	123.9
189.412	13.31
189.631	19.46
189.851	154.62
190.07	216.06
190.29	-31.74
190.509	-11.26
190.729	11.26
190.948	162.81
191.168	273.4
191.387	134.14
191.607	-31.74
191.826	35.84
192.045	89.09
192.265	44.03
192.484	23.55
192.704	68.61
192.923	-101.37
193.142	306.17
193.362	158.72
193.581	128
193.8	107.52
194.02	33.79
194.239	-13.31
194.458	128
194.678	-17.41
194.897	17.41
195.116	84.99
195.335	62.46
195.555	39.94
195.774	27.65
195.993	80.89
196.212	95.23
196.432	31.74
196.651	7.17
196.87	-19.46
197.089	209.92
197.308	23.55
197.528	78.85
197.747	-54.27
197.966	117.76
198.185	166.91
198.404	-33.79
198.623	130.05
198.842	89.09
199.062	84.99
199.281	97.28
199.5	31.74
199.719	56.32
199.938	37.89
200.157	64.51
200.376	130.05
200.595	119.81
200.814	54.27
201.033	-60.42
201.252	181.25
201.471	62.46
201.69	21.5
201.909	99.33
202.128	3.07
202.347	54.27
202.566	15.36
202.785	-58.37
203.004	31.74
203.223	263.16
203.442	109.57
203.661	-35.84
203.879	41.98
204.098	89.09
204.317	5.12
204.536	105.47
204.755	101.37
204.974	70.65
205.193	21.5
205.411	66.56
205.63	109.57
205.849	121.85
206.068	39.94
206.287	9.22
206.505	146.43
206.724	68.61
206.943	5.12
207.162	-39.94
207.381	23.55
207.599	21.5
207.818	107.52
208.037	-31.74
208.255	142.33
208.474	56.32
208.693	58.37
208.911	39.94
209.13	58.37
209.349	105.47
209.567	130.05
209.786	138.24
210.005	82.94
210.223	66.56
210.442	-46.08
210.661	-7.17
210.879	91.13
211.098	7.17
211.316	66.56
211.535	87.04
211.753	35.84
211.972	101.37
212.191	97.28
212.409	-13.31
212.628	113.66
212.846	39.94
213.065	78.85
213.283	189.44
213.502	56.32
213.72	27.65
213.938	-15.36
214.157	-9.22
214.375	93.18
214.594	37.89
214.812	54.27
215.031	66.56
215.249	-46.08
215.467	25.6
215.686	54.27
215.904	31.74
216.122	72.7
216.341	58.37
216.559	146.43
216.778	56.32
216.996	95.23
217.214	-64.51
217.432	52.22
217.651	37.89
217.869	21.5
218.087	13.31
218.306	-21.5
218.524	-17.41
218.742	3.07
218.96	158.72
219.179	-1.02
219.397	-9.22
219.615	205.82
219.833	93.18
220.051	5.12
220.27	130.05
220.488	54.27
220.706	37.89
220.924	35.84
221.142	48.13
221.36	117.76
221.578	17.41
221.796	52.22
222.015	-25.6
222.233	78.85
222.451	160.77
222.669	-84.99
222.887	140.29
223.105	64.51
223.323	27.65
223.541	15.36
223.759	3.07
223.977	39.94
224.195	130.05
224.413	156.67
224.631	113.66
224.849	60.42
225.067	128
225.285	64.51
225.503	-11.26
225.721	-29.7
225.939	56.32
226.157	46.08
226.375	265.21
226.592	-33.79
226.81	23.55
227.028	140.29
227.246	82.94
227.464	-7.17
227.682	91.13
227.9	41.98
228.117	119.81
228.335	89.09
228.553	82.94
228.771	-7.17
228.989	66.56
229.206	91.13
229.424	-25.6
229.642	11.26
229.86	23.55
230.077	136.19
230.295	19.46
230.513	50.18
230.731	35.84
230.948	252.92
231.166	136.19
231.384	13.31
231.601	9.22
231.819	164.86
232.037	13.31
232.254	39.94
232.472	60.42
232.689	-44.03
232.907	140.29
233.125	52.22
233.342	-41.98
233.56	-19.46
233.777	-60.42
233.995	44.03
234.213	87.04
234.43	82.94
234.648	27.65
234.865	17.41
235.083	64.51
235.3	109.57
235.518	107.52
235.735	115.71
235.953	80.89
236.17	70.65
236.388	-13.31
236.605	142.33
236.822	103.42
237.04	125.95
237.257	70.65
237.475	5.12
237.692	107.52
237.909	158.72
238.127	-15.36
238.344	62.46
238.562	37.89
238.779	17.41
238.996	-9.22
239.214	50.18
239.431	103.42
239.648	48.13
239.865	111.61
240.083	52.22
240.3	-64.51
240.517	9.22
240.735	35.84
240.952	84.99
241.169	60.42
241.386	60.42
241.603	5.12
241.821	15.36
242.038	148.48
242.255	189.44
242.472	-17.41
242.689	82.94
242.907	74.75
243.124	84.99
243.341	13.31
243.558	58.37
243.775	-41.98
243.992	-35.84
244.209	144.38
244.426	95.23
244.643	44.03
244.86	35.84
245.078	134.14
245.295	93.18
245.512	-48.13
245.729	-15.36
245.946	123.9
246.163	15.36
246.38	19.46
246.597	89.09
246.814	68.61
247.031	13.31
247.248	-3.07
247.464	132.09
247.681	76.8
247.898	15.36
248.115	154.62
248.332	11.26
248.549	52.22
248.766	140.29
248.983	66.56
249.2	119.81
249.417	66.56
249.633	-46.08
249.85	113.66
250.067	39.94
250.284	72.7
250.501	46.08
250.717	97.28
250.934	-11.26
251.151	37.89
251.368	66.56
251.585	93.18
251.801	29.7
252.018	-52.22
252.235	142.33
252.451	-17.41
252.668	-1.02
252.885	138.24
253.102	46.08
253.318	-11.26
253.535	21.5
253.752	50.18
253.968	107.52
254.185	-35.84
254.401	-31.74
254.618	56.32
254.835	37.89
255.051	183.29
255.268	-37.89
255.484	33.79
255.701	78.85
255.917	107.52
256.134	-9.22
256.351	-9.22
256.567	11.26
256.784	93.18
257	-39.94
257.217	70.65
257.433	72.7
257.65	54.27
257.866	158.72
258.082	-15.36
258.299	-111.61
258.515	111.61
258.732	31.74
258.948	-21.5
259.165	101.37
259.381	-27.65
259.597	21.5
259.814	23.55
260.03	52.22
260.246	95.23
260.463	113.66
260.679	138.24
260.895	48.13
261.112	97.28
261.328	37.89
261.544	17.41
261.761	107.52
261.977	-31.74
262.193	-70.65
262.409	72.7
262.626	27.65
262.842	5.12
263.058	-52.22
263.274	89.09
263.49	17.41
263.707	109.57
263.923	74.75
264.139	-13.31
264.355	60.42
264.571	95.23
264.787	50.18
265.004	130.05
265.22	74.75
265.436	9.22
265.652	78.85
265.868	128
266.084	-35.84
266.3	44.03
266.516	23.55
266.732	-5.12
266.948	68.61
267.164	35.84
267.38	130.05
267.596	62.46
267.812	138.24
268.028	60.42
268.244	66.56
268.46	60.42
268.676	56.32
268.892	33.79
269.108	64.51
269.324	-58.37
269.54	-39.94
269.756	39.94
269.972	-44.03
270.188	-5.12
270.403	-7.17
270.619	5.12
270.835	113.66
271.051	44.03
271.267	44.03
271.483	19.46
271.698	66.56
271.914	11.26
272.13	17.41
272.346	41.98
272.562	113.66
272.777	142.33
272.993	-3.07
273.209	62.46
273.425	109.57
273.64	-105.47
273.856	154.62
274.072	-31.74
274.287	39.94
274.503	60.42
274.719	1.02
274.934	31.74
275.15	-19.46
275.366	5.12
275.581	-78.85
275.797	56.32
276.012	19.46
276.228	27.65
276.444	93.18
276.659	123.9
276.875	-93.18
277.09	25.6
277.306	-23.55
277.521	119.81
277.737	7.17
277.952	209.92
278.168	44.03
278.383	66.56
278.599	21.5
278.814	91.13
279.03	19.46
279.245	150.53
279.461	138.24
279.676	115.71
279.892	-25.6
280.107	-1.02
280.322	-64.51
280.538	66.56
280.753	1.02
280.969	72.7
281.184	146.43
281.399	113.66
281.615	113.66
281.83	37.89
282.045	-66.56
282.26	25.6
282.476	17.41
282.691	121.85
282.906	44.03
283.122	25.6
283.337	56.32
283.552	50.18
283.767	66.56
283.983	44.03
284.198	44.03
284.413	52.22
284.628	-25.6
284.843	142.33
285.058	39.94
285.274	82.94
285.489	21.5
285.704	35.84
285.919	-11.26
286.134	72.7
286.349	19.46
286.564	70.65
286.779	162.81
286.995	1.02
287.21	-76.8
287.425	99.33
287.64	1.02
287.855	52.22
288.07	-41.98
288.285	179.2
288.5	99.33
288.715	95.23
288.93	-35.84
289.145	29.7
289.36	132.09
289.575	-1.02
289.79	166.91
290.004	23.55
290.219	123.9
290.434	-7.17
290.649	-27.65
290.864	1.02
291.079	48.13
291.294	19.46
291.509	74.75
291.724	48.13
291.938	17.41
292.153	99.33
292.368	109.57
292.583	156.67
292.798	138.24
293.012	50.18
293.227	84.99
293.442	80.89
293.657	11.26
293.871	111.61
294.086	80.89
294.301	228.35
294.516	214.01
294.73	76.8
294.945	-46.08
295.16	39.94
295.374	113.66
295.589	54.27
295.804	-3.07
296.018	60.42
296.233	150.53
296.447	9.22
296.662	-25.6
296.877	173.05
297.091	50.18
297.306	13.31
297.52	74.75
297.735	64.51
297.949	132.09
298.164	-11.26
298.378	97.28
298.593	-39.94
298.807	31.74
299.022	66.56
299.236	144.38
299.451	25.6
299.665	44.03
299.88	19.46
300.094	31.74
300.309	54.27
300.523	48.13
300.737	44.03
300.952	29.7
301.166	56.32
301.381	13.31
301.595	64.51
301.809	64.51
302.024	33.79
302.238	9.22
302.452	158.72
302.667	-66.56
302.881	93.18
303.095	103.42
303.309	21.5
303.524	23.55
303.738	44.03
303.952	-1.02
304.166	48.13
304.381	-66.56
304.595	132.09
304.809	21.5
305.023	97.28
305.237	80.89
305.452	-19.46
305.666	105.47
305.88	128
306.094	93.18
306.308	68.61
306.522	44.03
306.736	56.32
306.95	150.53
307.164	27.65
307.379	91.13
307.593	164.86
307.807	158.72
308.021	33.79
308.235	107.52
308.449	-74.75
308.663	-1.02
308.877	168.96
309.091	103.42
309.305	62.46
309.519	-119.81
309.733	115.71
309.947	9.22
310.161	109.57
310.374	64.51
310.588	158.72
310.802	5.12
311.016	68.61
311.23	99.33
311.444	-33.79
311.658	-1.02
311.872	50.18
312.085	111.61
312.299	123.9
312.513	115.71
312.727	21.5
312.941	-23.55
313.154	48.13
313.368	39.94
313.582	97.28
313.796	89.09
314.009	56.32
314.223	138.24
314.437	3.07
314.651	52.22
314.864	76.8
315.078	-27.65
315.292	-130.05
315.505	35.84
315.719	54.27
315.933	95.23
316.146	39.94
316.36	-66.56
316.573	168.96
316.787	54.27
317.001	134.14
317.214	-48.13
317.428	23.55
317.641	9.22
317.855	9.22
318.068	46.08
318.282	23.55
318.495	156.67
318.709	46.08
318.922	7.17
319.136	224.25
319.349	121.85
319.563	44.03
319.776	134.14
319.99	-27.65
320.203	136.19
320.417	84.99
320.63	125.95
320.843	142.33
321.057	-7.17
321.27	27.65
321.483	103.42
321.697	154.62
321.91	-15.36
322.124	105.47
322.337	62.46
322.55	7.17
322.763	50.18
322.977	99.33
323.19	95.23
323.403	-54.27
323.617	144.38
323.83	154.62
324.043	66.56
324.256	66.56
324.469	-48.13
324.683	130.05
324.896	101.37
325.109	60.42
325.322	-46.08
325.535	134.14
325.748	134.14
325.962	78.85
326.175	74.75
326.388	101.37
326.601	103.42
326.814	66.56
327.027	125.95
327.24	107.52
327.453	-11.26
327.666	70.65
327.879	220.16
328.092	134.14
328.305	-1.02
328.518	19.46
328.731	35.84
328.944	58.37
329.157	80.89
329.37	-7.17
329.583	181.25
329.796	181.25
330.009	-46.08
330.222	105.47
330.435	80.89
330.648	72.7
330.861	103.42
331.073	164.86
331.286	101.37
331.499	80.89
331.712	-19.46
331.925	37.89
332.138	19.46
332.35	119.81
332.563	19.46
332.776	109.57
332.989	-7.17
333.202	-60.42
333.414	101.37
333.627	25.6
333.84	-1.02
334.053	101.37
334.265	103.42
334.478	19.46
334.691	121.85
334.903	46.08
335.116	-7.17
335.329	54.27
335.541	99.33
335.754	226.3
335.966	44.03
336.179	62.46
336.392	23.55
336.604	-21.5
336.817	123.9
337.029	93.18
337.242	95.23
337.454	56.32
337.667	50.18
337.88	103.42
338.092	115.71
338.305	107.52
338.517	7.17
338.729	117.76
338.942	80.89
339.154	-25.6
339.367	-15.36
339.579	154.62
339.792	-48.13
340.004	103.42
340.217	50.18
340.429	107.52
340.641	-13.31
340.854	-19.46
341.066	-39.94
341.278	89.09
341.491	156.67
341.703	25.6
341.915	5.12
342.128	119.81
342.34	60.42
342.552	-5.12
342.764	-21.5
342.977	56.32
343.189	91.13
343.401	128
343.613	-41.98
343.826	37.89
344.038	-46.08
344.25	70.65
344.462	13.31
344.674	68.61
344.886	72.7
345.099	97.28
345.311	84.99
345.523	35.84
345.735	-111.61
345.947	52.22
346.159	130.05
346.371	-13.31
346.583	11.26
346.795	154.62
347.007	7.17
347.219	50.18
347.431	-15.36
347.643	109.57
347.855	89.09
348.067	128
348.279	37.89
348.491	68.61
348.703	130.05
348.915	52.22
349.127	-27.65
349.339	50.18
349.551	56.32
349.763	78.85
349.975	56.32
350.187	78.85
350.399	234.49
350.61	115.71
350.822	-9.22
351.034	64.51
351.246	29.7
351.458	56.32
351.669	66.56
351.881	150.53
352.093	152.57
352.305	123.9
352.517	76.8
352.728	156.67
352.94	89.09
353.152	91.13
353.363	-17.41
353.575	119.81
353.787	148.48
353.999	101.37
354.21	228.35
354.422	-87.04
354.633	-21.5
354.845	39.94
355.057	23.55
355.268	44.03
355.48	58.37
355.692	-13.31
355.903	52.22
356.115	-17.41
356.326	-37.89
356.538	136.19
356.749	25.6
356.961	211.96
357.172	1.02
357.384	11.26
357.595	271.36
357.807	5.12
358.018	64.51
358.23	23.55
358.441	113.66
358.653	64.51
358.864	31.74
359.075	64.51
359.287	89.09
359.498	13.31
359.709	9.22
359.921	130.05
360.132	76.8
360.344	99.33
360.555	25.6
360.766	158.72
360.977	-41.98
361.189	111.61
361.4	64.51
361.611	62.46
361.823	97.28
362.034	-9.22
362.245	-11.26
362.456	91.13
362.667	130.05
362.879	-60.42
363.09	56.32
363.301	109.57
363.512	52.22
363.723	-5.12
363.935	21.5
364.146	68.61
364.357	44.03
364.568	97.28
364.779	-7.17
364.99	179.2
365.201	-58.37
365.412	218.11
365.623	-41.98
365.834	-1.02
366.045	13.31
366.256	27.65
366.467	132.09
366.678	80.89
366.889	50.18
367.1	89.09
367.311	121.85
367.522	52.22
367.733	-7.17
367.944	44.03
368.155	58.37
368.366	119.81
368.577	121.85
368.788	101.37
368.999	-41.98
369.209	9.22
369.42	236.54
369.631	209.92
369.842	140.29
370.053	44.03
370.264	121.85
370.474	3.07
370.685	138.24
370.896	72.7
371.107	50.18
371.317	72.7
371.528	-46.08
371.739	142.33
371.95	89.09
372.16	68.61
372.371	5.12
372.582	-23.55
372.792	87.04
373.003	1.02
373.214	105.47
373.424	78.85
373.635	-21.5
373.846	144.38
374.056	152.57
374.267	13.31
374.477	-1.02
374.688	-54.27
374.898	107.52
375.109	37.89
375.319	44.03
375.53	138.24
375.74	87.04
375.951	39.94
376.161	-1.02
376.372	105.47
376.582	-39.94
376.793	113.66
377.003	58.37
377.214	44.03
377.424	50.18
377.635	66.56
377.845	-31.74
378.055	197.63
378.266	70.65
378.476	128
378.686	95.23
378.897	80.89
379.107	74.75
379.317	35.84
379.528	62.46
379.738	107.52
379.948	-70.65
380.158	144.38
380.369	80.89
380.579	64.51
380.789	39.94
380.999	115.71
381.21	64.51
381.42	173.05
381.63	56.32
381.84	80.89
382.05	80.89
382.261	52.22
382.471	134.14
382.681	-1.02
382.891	121.85
383.101	3.07
383.311	-111.61
383.521	3.07
383.731	60.42
383.941	25.6
384.151	-3.07
384.361	-23.55
384.571	193.53
384.781	78.85
384.991	220.16
385.201	150.53
385.411	113.66
385.621	95.23
385.831	84.99
386.041	72.7
386.251	46.08
386.461	72.7
386.671	27.65
386.881	107.52
387.091	37.89
387.301	54.27
387.511	31.74
387.72	54.27
387.93	99.33
388.14	-87.04
388.35	56.32
388.56	123.9
388.769	123.9
388.979	91.13
389.189	-41.98
389.399	80.89
389.609	134.14
389.818	117.76
390.028	76.8
390.238	113.66
390.447	-21.5
390.657	23.55
390.867	-13.31
391.076	-152.57
391.286	52.22
391.496	70.65
391.705	-41.98
391.915	183.29
392.125	148.48
392.334	82.94
392.544	138.24
392.753	93.18
392.963	-7.17
393.172	78.85
393.382	-54.27
393.591	216.06
393.801	-11.26
394.01	203.77
394.22	93.18
394.429	33.79
394.639	60.42
394.848	68.61
395.058	70.65
395.267	-5.12
395.477	29.7
395.686	82.94
395.895	267.26
396.105	244.73
396.314	60.42
396.524	17.41
396.733	76.8
396.942	209.92
397.152	103.42
397.361	140.29
397.57	82.94
397.78	66.56
397.989	123.9
398.198	218.11
398.407	-3.07
398.617	-13.31
398.826	101.37
399.035	52.22
399.244	128
399.453	3.07
399.663	97.28
399.872	107.52
400.081	-7.17
400.29	136.19
400.499	3.07
400.708	101.37
400.917	17.41
401.127	48.13
401.336	72.7
401.545	279.55
401.754	111.61
401.963	87.04
402.172	-21.5
402.381	-48.13
402.59	132.09
402.799	33.79
403.008	84.99
403.217	50.18
403.426	39.94
403.635	-107.52
403.844	-25.6
404.053	125.95
404.262	84.99
404.471	121.85
404.68	109.57
404.888	41.98
405.097	-1.02
405.306	72.7
405.515	66.56
405.724	48.13
405.933	142.33
406.142	23.55
406.35	224.25
406.559	29.7
406.768	37.89
406.977	142.33
407.185	52.22
407.394	158.72
407.603	-29.7
407.812	37.89
408.02	148.48
408.229	119.81
408.438	39.94
408.646	17.41
408.855	97.28
409.064	136.19
409.272	60.42
409.481	91.13
409.69	23.55
409.898	-27.65
410.107	109.57
410.315	-35.84
410.524	15.36
410.733	89.09
410.941	50.18
411.15	162.81
411.358	203.77
411.567	138.24
411.775	33.79
411.984	23.55
412.192	140.29
412.401	5.12
412.609	214.01
412.818	78.85
413.026	144.38
413.234	66.56
413.443	89.09
413.651	-41.98
413.86	93.18
414.068	117.76
414.276	183.29
414.485	37.89
414.693	150.53
414.901	158.72
415.11	138.24
415.318	39.94
415.526	56.32
415.734	154.62
415.943	125.95
416.151	162.81
416.359	15.36
416.567	140.29
416.776	93.18
416.984	99.33
417.192	234.49
417.4	-54.27
417.608	97.28
417.817	66.56
418.025	119.81
418.233	140.29
418.441	1.02
418.649	-39.94
418.857	70.65
419.065	142.33
419.273	44.03
419.481	74.75
419.689	33.79
419.897	107.52
420.105	-31.74
420.313	132.09
420.521	156.67
420.729	160.77
420.937	37.89
421.145	9.22
421.353	142.33
421.561	189.44
421.769	107.52
421.977	-23.55
422.185	93.18
422.393	-27.65
422.601	146.43
422.809	25.6
423.017	68.61
423.224	62.46
423.432	91.13
423.64	41.98
423.848	101.37
424.056	35.84
424.263	117.76
424.471	-7.17
424.679	134.14
424.887	7.17
425.094	148.48
425.302	103.42
425.51	50.18
425.718	152.57
425.925	121.85
426.133	87.04
426.341	203.77
426.548	60.42
426.756	31.74
426.964	105.47
427.171	39.94
427.379	33.79
427.586	80.89
427.794	166.91
428.001	119.81
428.209	54.27
428.417	138.24
428.624	117.76
428.832	181.25
429.039	154.62
429.247	123.9
429.454	107.52
429.662	300.03
429.869	41.98
430.076	95.23
430.284	140.29
430.491	125.95
430.699	140.29
430.906	232.44
431.114	191.49
431.321	123.9
431.528	168.96
431.736	267.26
431.943	136.19
432.15	144.38
432.358	236.54
432.565	314.36
432.772	23.55
432.979	209.92
433.187	142.33
433.394	187.39
433.601	140.29
433.808	252.92
434.016	218.11
434.223	162.81
434.43	183.29
434.637	230.4
434.844	240.64
435.052	295.93
435.259	287.74
435.466	338.94
435.673	205.82
435.88	355.32
436.087	410.62
436.294	349.18
436.501	388.09
436.708	240.64
436.915	306.17
437.122	377.85
437.329	369.66
437.537	320.51
437.743	363.51
437.95	502.78
438.157	392.19
438.364	400.38
438.571	392.19
438.778	461.82
438.985	443.39
439.192	621.56
439.399	441.34
439.606	490.49
439.813	463.86
440.02	678.9
440.227	697.33
440.433	693.24
440.64	568.31
440.847	474.1
441.054	568.31
441.261	754.68
441.467	576.5
441.674	545.78
441.881	756.72
442.088	713.72
442.294	871.41
442.501	760.82
442.708	828.4
442.914	828.4
443.121	887.79
443.328	846.84
443.534	975.86
443.741	953.33
443.948	865.27
444.154	959.47
444.361	1229.81
444.568	1149.93
444.774	1158.13
444.981	1047.54
445.187	1305.58
445.394	1283.05
445.6	1160.17
445.807	1393.64
446.013	1391.59
446.22	1283.05
446.426	1471.47
446.633	1694.69
446.839	1661.93
447.046	1510.38
447.252	1858.53
447.459	1698.79
447.665	1700.84
447.871	2024.42
448.078	2063.33
448.284	2022.37
448.491	2137.06
448.697	2229.21
448.903	2307.04
449.11	2274.27
449.316	2198.49
449.522	2587.61
449.728	2595.8
449.935	2771.93
450.141	2661.34
450.347	2993.11
450.553	2829.27
450.76	2960.34
450.966	2933.72
451.172	3120.08
451.378	3369.93
451.584	3494.86
451.791	3630.02
451.997	3767.24
452.203	3945.41
452.409	4088.77
452.615	4045.76
452.821	3998.66
453.027	4113.35
453.233	4490.17
453.44	4537.27
453.646	4762.55
453.852	4772.79
454.058	5254.06
454.264	5188.53
454.47	5645.23
454.676	5702.57
454.882	6241.18
455.088	6067.11
455.294	5974.95
455.5	6710.17
455.705	7005.08
455.911	6886.29
456.117	7207.83
456.323	7375.76
456.529	7426.96
456.735	7793.55
456.941	8348.54
457.147	8541.05
457.352	8760.19
457.558	8924.02
457.764	9696.11
457.97	9823.08
458.176	10179.43
458.381	10652.51
458.587	11152.21
458.793	11600.72
458.999	11320.15
459.204	12813.12
459.41	13249.33
459.616	13144.89
459.821	14111.53
460.027	14527.27
460.233	15346.45
460.438	15151.9
460.644	16061.19
460.85	16175.88
461.055	16986.88
461.261	17887.98
461.466	17343.22
461.672	17875.7
461.878	19550.93
462.083	19663.57
462.289	20073.17
462.494	20701.89
462.7	21164.73
462.905	21127.87
463.111	22708.9
463.316	24068.75
463.522	24599.18
463.727	25246.33
463.932	26172.02
464.138	27056.74
464.343	27920.98
464.549	28170.83
464.754	30386.74
464.959	31164.96
465.165	31441.44
465.37	31281.7
465.575	31433.25
465.781	33686.01
465.986	34540.02
466.191	34050.55
466.397	34447.86
466.602	33208.84
466.807	35676.64
467.012	35903.96
467.218	36600.27
467.423	36688.34
467.628	37939.65
467.833	39610.79
468.038	38891.95
468.244	38586.8
