Data from USB4F104151__111__10-36-20-623.txt Node

Date: Wed Feb 26 10:36:20 EST 2025
User: louis
Spectrometer: USB4F10415
Trigger mode: 4
Integration Time (sec): 1.000000E-1
Scans to average: 1
Electric dark correction enabled: true
Nonlinearity correction enabled: false
Boxcar width: 0
XAxis mode: Wavelengths
Number of Pixels in Spectrum: 3648
>>>>>Begin Spectral Data<<<<<
178.204	-392.02
178.424	-392.02
178.644	-392.02
178.864	-392.02
179.084	-410.45
179.304	-90.96
179.524	-19.29
179.744	36.01
179.964	60.59
180.184	91.31
180.404	56.49
180.624	-88.92
180.844	-43.86
181.064	-4.95
181.283	54.44
181.503	-80.72
181.723	29.87
181.943	-45.91
182.163	234.66
182.383	-17.24
182.602	7.34
182.822	226.47
183.042	52.39
183.262	-2.9
183.482	-41.81
183.701	46.25
183.921	103.59
184.141	-13.14
184.361	58.54
184.58	52.39
184.8	136.36
185.02	13.48
185.239	74.92
185.459	117.93
185.679	160.94
185.898	-84.82
186.118	15.53
186.338	-47.96
186.557	103.59
186.777	-78.68
186.997	-0.85
187.216	42.15
187.436	185.51
187.655	87.21
187.875	146.6
188.095	29.87
188.314	169.13
188.534	154.79
188.753	-82.77
188.973	154.79
189.192	119.98
189.412	42.15
189.631	-39.76
189.851	9.39
190.07	191.66
190.29	-80.72
190.509	-41.81
190.729	89.26
190.948	173.22
191.168	234.66
191.387	126.12
191.607	42.15
191.826	107.69
192.045	50.35
192.265	21.67
192.484	83.11
192.704	91.31
192.923	-64.34
193.142	152.74
193.362	42.15
193.581	136.36
193.8	128.17
194.02	156.84
194.239	64.68
194.458	38.06
194.678	126.12
194.897	-11.09
195.116	42.15
195.335	19.63
195.555	76.97
195.774	-15.19
195.993	171.18
196.212	79.02
196.432	38.06
196.651	72.87
196.87	68.78
197.089	197.8
197.308	31.91
197.528	42.15
197.747	5.29
197.966	81.07
198.185	150.7
198.404	-31.57
198.623	25.77
198.842	87.21
199.062	105.64
199.281	134.31
199.5	-19.29
199.719	46.25
199.938	64.68
200.157	95.4
200.376	105.64
200.595	64.68
200.814	7.34
201.033	-11.09
201.252	185.51
201.471	93.35
201.69	23.72
201.909	13.48
202.128	62.63
202.347	19.63
202.566	7.34
202.785	-113.49
203.004	23.72
203.223	267.43
203.442	15.53
203.661	-27.48
203.879	52.39
204.098	109.74
204.317	11.43
204.536	87.21
204.755	158.89
204.974	81.07
205.193	-9.05
205.411	132.26
205.63	54.44
205.849	23.72
206.068	-7
206.287	-21.33
206.505	85.16
206.724	44.2
206.943	-7
207.162	-4.95
207.381	115.88
207.599	40.11
207.818	1.19
208.037	15.53
208.255	50.35
208.474	38.06
208.693	25.77
208.911	40.11
209.13	76.97
209.349	1.19
209.567	74.92
209.786	29.87
210.005	87.21
210.223	33.96
210.442	-113.49
210.661	-2.9
210.879	72.87
211.098	31.91
211.316	1.19
211.535	44.2
211.753	58.54
211.972	36.01
212.191	54.44
212.409	-74.58
212.628	52.39
212.846	-25.43
213.065	72.87
213.283	109.74
213.502	-7
213.72	68.78
213.938	74.92
214.157	3.24
214.375	91.31
214.594	25.77
214.812	101.55
215.031	-50
215.249	48.3
215.467	46.25
215.686	72.87
215.904	60.59
216.122	11.43
216.341	185.51
216.559	64.68
216.778	60.59
216.996	132.26
217.214	44.2
217.432	-13.14
217.651	-54.1
217.869	81.07
218.087	76.97
218.306	-33.62
218.524	115.88
218.742	36.01
218.96	179.37
219.179	-29.52
219.397	11.43
219.615	273.57
219.833	132.26
220.051	-90.96
220.27	70.83
220.488	187.56
220.706	42.15
220.924	-78.68
221.142	42.15
221.36	70.83
221.578	74.92
221.796	-4.95
222.015	91.31
222.233	31.91
222.451	189.61
222.669	23.72
222.887	128.17
223.105	48.3
223.323	70.83
223.541	-35.67
223.759	42.15
223.977	46.25
224.195	158.89
224.413	85.16
224.631	23.72
224.849	52.39
225.067	238.76
225.285	25.77
225.503	81.07
225.721	-158.55
225.939	46.25
226.157	130.22
226.375	195.75
226.592	17.58
226.81	46.25
227.028	79.02
227.246	158.89
227.464	50.35
227.682	62.63
227.9	1.19
228.117	87.21
228.335	46.25
228.553	74.92
228.771	11.43
228.989	1.19
229.206	52.39
229.424	-17.24
229.642	-31.57
229.86	38.06
230.077	142.5
230.295	33.96
230.513	103.59
230.731	89.26
230.948	267.43
231.166	140.46
231.384	-11.09
231.601	42.15
231.819	162.98
232.037	25.77
232.254	-88.92
232.472	48.3
232.689	5.29
232.907	105.64
233.125	52.39
233.342	29.87
233.56	5.29
233.777	25.77
233.995	66.73
234.213	76.97
234.43	76.97
234.648	-0.85
234.865	36.01
235.083	66.73
235.3	81.07
235.518	97.45
235.735	66.73
235.953	89.26
236.17	113.83
236.388	15.53
236.605	15.53
236.822	74.92
237.04	70.83
237.257	27.82
237.475	-82.77
237.692	36.01
237.909	56.49
238.127	58.54
238.344	122.02
238.562	66.73
238.779	11.43
238.996	-11.09
239.214	70.83
239.431	93.35
239.648	-23.38
239.865	60.59
240.083	162.98
240.3	-41.81
240.517	54.44
240.735	-0.85
240.952	195.75
241.169	-7
241.386	66.73
241.603	19.63
241.821	-80.72
242.038	66.73
242.255	138.41
242.472	-70.48
242.689	93.35
242.907	62.63
243.124	48.3
243.341	-11.09
243.558	-45.91
243.775	-50
243.992	-58.2
244.209	115.88
244.426	95.4
244.643	79.02
244.86	-9.05
245.078	76.97
245.295	83.11
245.512	44.2
245.729	-23.38
245.946	124.07
246.163	33.96
246.38	33.96
246.597	13.48
246.814	17.58
247.031	85.16
247.248	72.87
247.464	93.35
247.681	21.67
247.898	64.68
248.115	33.96
248.332	5.29
248.549	132.26
248.766	189.61
248.983	79.02
249.2	72.87
249.417	36.01
249.633	33.96
249.85	140.46
250.067	1.19
250.284	70.83
250.501	134.31
250.717	109.74
250.934	-31.57
251.151	42.15
251.368	9.39
251.585	74.92
251.801	23.72
252.018	-29.52
252.235	52.39
252.451	-103.25
252.668	-64.34
252.885	122.02
253.102	25.77
253.318	-80.72
253.535	38.06
253.752	11.43
253.968	-78.68
254.185	-62.29
254.401	152.74
254.618	76.97
254.835	1.19
255.051	177.32
255.268	83.11
255.484	40.11
255.701	79.02
255.917	62.63
256.134	54.44
256.351	7.34
256.567	-66.39
256.784	-17.24
257	-39.76
257.217	140.46
257.433	134.31
257.65	52.39
257.866	181.42
258.082	11.43
258.299	-15.19
258.515	-21.33
258.732	99.5
258.948	1.19
259.165	52.39
259.381	-64.34
259.597	99.5
259.814	5.29
260.03	-45.91
260.246	89.26
260.463	58.54
260.679	113.83
260.895	46.25
261.112	62.63
261.328	52.39
261.544	-7
261.761	142.5
261.977	1.19
262.193	36.01
262.409	74.92
262.626	17.58
262.842	29.87
263.058	15.53
263.274	107.69
263.49	79.02
263.707	50.35
263.923	52.39
264.139	-31.57
264.355	79.02
264.571	136.36
264.787	72.87
265.004	160.94
265.22	25.77
265.436	17.58
265.652	42.15
265.868	107.69
266.084	-82.77
266.3	42.15
266.516	-23.38
266.732	81.07
266.948	83.11
267.164	36.01
267.38	87.21
267.596	115.88
267.812	162.98
268.028	40.11
268.244	85.16
268.46	64.68
268.676	-37.72
268.892	11.43
269.108	13.48
269.324	-9.05
269.54	27.82
269.756	48.3
269.972	-25.43
270.188	19.63
270.403	-7
270.619	-29.52
270.835	33.96
271.051	76.97
271.267	25.77
271.483	33.96
271.698	128.17
271.914	107.69
272.13	79.02
272.346	-0.85
272.562	60.59
272.777	130.22
272.993	83.11
273.209	-43.86
273.425	115.88
273.64	-21.33
273.856	83.11
274.072	-43.86
274.287	19.63
274.503	162.98
274.719	109.74
274.934	-37.72
275.15	-50
275.366	19.63
275.581	-27.48
275.797	40.11
276.012	79.02
276.228	40.11
276.444	29.87
276.659	128.17
276.875	17.58
277.09	-2.9
277.306	68.78
277.521	19.63
277.737	-15.19
277.952	62.63
278.168	101.55
278.383	1.19
278.599	38.06
278.814	140.46
279.03	68.78
279.245	138.41
279.461	-23.38
279.676	97.45
279.892	-86.87
280.107	-74.58
280.322	21.67
280.538	79.02
280.753	-25.43
280.969	70.83
281.184	40.11
281.399	44.2
281.615	27.82
281.83	-41.81
282.045	-33.62
282.26	-78.68
282.476	25.77
282.691	111.78
282.906	148.65
283.122	85.16
283.337	-50
283.552	60.59
283.767	7.34
283.983	38.06
284.198	1.19
284.413	97.45
284.628	-41.81
284.843	52.39
285.058	7.34
285.274	-21.33
285.489	-58.2
285.704	50.35
285.919	17.58
286.134	99.5
286.349	70.83
286.564	9.39
286.779	117.93
286.995	21.67
287.21	-11.09
287.425	89.26
287.64	-17.24
287.855	1.19
288.07	-13.14
288.285	136.36
288.5	122.02
288.715	105.64
288.93	29.87
289.145	9.39
289.36	126.12
289.575	33.96
289.79	134.31
290.004	13.48
290.219	52.39
290.434	21.67
290.649	-23.38
290.864	-15.19
291.079	38.06
291.294	38.06
291.509	44.2
291.724	-54.1
291.938	-15.19
292.153	17.58
292.368	56.49
292.583	70.83
292.798	175.27
293.012	62.63
293.227	62.63
293.442	-11.09
293.657	79.02
293.871	85.16
294.086	62.63
294.301	138.41
294.516	119.98
294.73	7.34
294.945	5.29
295.16	21.67
295.374	128.17
295.589	76.97
295.804	-19.29
296.018	62.63
296.233	115.88
296.447	66.73
296.662	13.48
296.877	167.08
297.091	-19.29
297.306	29.87
297.52	36.01
297.735	70.83
297.949	48.3
298.164	68.78
298.378	23.72
298.593	3.24
298.807	3.24
299.022	83.11
299.236	214.18
299.451	13.48
299.665	64.68
299.88	25.77
300.094	74.92
300.309	-31.57
300.523	93.35
300.737	81.07
300.952	48.3
301.166	29.87
301.381	-56.15
301.595	7.34
301.809	87.21
302.024	3.24
302.238	9.39
302.452	160.94
302.667	23.72
302.881	156.84
303.095	42.15
303.309	21.67
303.524	46.25
303.738	74.92
303.952	7.34
304.166	87.21
304.381	-19.29
304.595	128.17
304.809	-31.57
305.023	64.68
305.237	5.29
305.452	3.24
305.666	87.21
305.88	97.45
306.094	87.21
306.308	83.11
306.522	115.88
306.736	124.07
306.95	40.11
307.164	99.5
307.379	13.48
307.593	152.74
307.807	191.66
308.021	99.5
308.235	70.83
308.449	-66.39
308.663	-31.57
308.877	177.32
309.091	36.01
309.305	70.83
309.519	-142.16
309.733	107.69
309.947	3.24
310.161	113.83
310.374	81.07
310.588	126.12
310.802	-70.48
311.016	23.72
311.23	136.36
311.444	-76.63
311.658	70.83
311.872	179.37
312.085	66.73
312.299	185.51
312.513	54.44
312.727	29.87
312.941	-80.72
313.154	87.21
313.368	56.49
313.582	21.67
313.796	99.5
314.009	-45.91
314.223	111.78
314.437	15.53
314.651	173.22
314.864	79.02
315.078	54.44
315.292	-62.29
315.505	-52.05
315.719	107.69
315.933	66.73
316.146	-19.29
316.36	-25.43
316.573	109.74
316.787	128.17
317.001	103.59
317.214	11.43
317.428	21.67
317.641	-25.43
317.855	-13.14
318.068	93.35
318.282	40.11
318.495	132.26
318.709	52.39
318.922	15.53
319.136	126.12
319.349	-27.48
319.563	-43.86
319.776	42.15
319.99	-27.48
320.203	97.45
320.417	70.83
320.63	144.55
320.843	70.83
321.057	15.53
321.27	23.72
321.483	160.94
321.697	113.83
321.91	95.4
322.124	19.63
322.337	52.39
322.55	3.24
322.763	64.68
322.977	38.06
323.19	-13.14
323.403	68.78
323.617	40.11
323.83	81.07
324.043	95.4
324.256	23.72
324.469	-0.85
324.683	44.2
324.896	-19.29
325.109	23.72
325.322	-74.58
325.535	99.5
325.748	15.53
325.962	-23.38
326.175	44.2
326.388	11.43
326.601	148.65
326.814	99.5
327.027	132.26
327.24	126.12
327.453	-35.67
327.666	79.02
327.879	140.46
328.092	76.97
328.305	72.87
328.518	21.67
328.731	48.3
328.944	21.67
329.157	31.91
329.37	33.96
329.583	105.64
329.796	62.63
330.009	-15.19
330.222	117.93
330.435	128.17
330.648	36.01
330.861	76.97
331.073	85.16
331.286	79.02
331.499	91.31
331.712	-54.1
331.925	74.92
332.138	19.63
332.35	19.63
332.563	-82.77
332.776	119.98
332.989	-29.52
333.202	36.01
333.414	13.48
333.627	48.3
333.84	52.39
334.053	33.96
334.265	-2.9
334.478	17.58
334.691	11.43
334.903	93.35
335.116	-68.44
335.329	33.96
335.541	58.54
335.754	205.99
335.966	-37.72
336.179	31.91
336.392	27.82
336.604	23.72
336.817	60.59
337.029	40.11
337.242	5.29
337.454	134.31
337.667	31.91
337.88	128.17
338.092	-23.38
338.305	64.68
338.517	46.25
338.729	173.22
338.942	111.78
339.154	-25.43
339.367	-35.67
339.579	64.68
339.792	-15.19
340.004	9.39
340.217	40.11
340.429	13.48
340.641	-2.9
340.854	27.82
341.066	74.92
341.278	148.65
341.491	230.57
341.703	21.67
341.915	56.49
342.128	142.5
342.34	-2.9
342.552	-4.95
342.764	70.83
342.977	83.11
343.189	87.21
343.401	29.87
343.613	-45.91
343.826	-7
344.038	-33.62
344.25	52.39
344.462	-29.52
344.674	31.91
344.886	87.21
345.099	23.72
345.311	52.39
345.523	62.63
345.735	-17.24
345.947	31.91
346.159	-4.95
346.371	27.82
346.583	48.3
346.795	160.94
347.007	-62.29
347.219	62.63
347.431	5.29
347.643	158.89
347.855	23.72
348.067	81.07
348.279	-76.63
348.491	93.35
348.703	27.82
348.915	46.25
349.127	-56.15
349.339	33.96
349.551	38.06
349.763	103.59
349.975	48.3
350.187	70.83
350.399	107.69
350.61	109.74
350.822	-33.62
351.034	27.82
351.246	97.45
351.458	66.73
351.669	52.39
351.881	62.63
352.093	72.87
352.305	128.17
352.517	15.53
352.728	144.55
352.94	25.77
353.152	119.98
353.363	-101.2
353.575	5.29
353.787	156.84
353.999	130.22
354.21	89.26
354.422	-72.53
354.633	54.44
354.845	62.63
355.057	17.58
355.268	60.59
355.48	38.06
355.692	46.25
355.903	58.54
356.115	-35.67
356.326	15.53
356.538	99.5
356.749	54.44
356.961	128.17
357.172	40.11
357.384	23.72
357.595	273.57
357.807	-21.33
358.018	-33.62
358.23	27.82
358.441	173.22
358.653	38.06
358.864	70.83
359.075	-9.05
359.287	31.91
359.498	97.45
359.709	-19.29
359.921	25.77
360.132	115.88
360.344	19.63
360.555	66.73
360.766	44.2
360.977	87.21
361.189	138.41
361.4	-4.95
361.611	72.87
361.823	212.14
362.034	134.31
362.245	-88.92
362.456	56.49
362.667	27.82
362.879	-84.82
363.09	64.68
363.301	113.83
363.512	36.01
363.723	-35.67
363.935	21.67
364.146	99.5
364.357	38.06
364.568	103.59
364.779	-70.48
364.99	193.7
365.201	48.3
365.412	122.02
365.623	-54.1
365.834	44.2
366.045	117.93
366.256	91.31
366.467	48.3
366.678	7.34
366.889	93.35
367.1	-0.85
367.311	134.31
367.522	-50
367.733	3.24
367.944	89.26
368.155	89.26
368.366	93.35
368.577	87.21
368.788	74.92
368.999	27.82
369.209	79.02
369.42	236.71
369.631	281.77
369.842	62.63
370.053	42.15
370.264	169.13
370.474	-37.72
370.685	97.45
370.896	-19.29
371.107	193.7
371.317	33.96
371.528	-17.24
371.739	85.16
371.95	76.97
372.16	85.16
372.371	-54.1
372.582	7.34
372.792	9.39
373.003	109.74
373.214	-15.19
373.424	62.63
373.635	-72.53
373.846	109.74
374.056	74.92
374.267	11.43
374.477	83.11
374.688	-23.38
374.898	101.55
375.109	68.78
375.319	46.25
375.53	85.16
375.74	130.22
375.951	-62.29
376.161	72.87
376.372	119.98
376.582	-17.24
376.793	107.69
377.003	46.25
377.214	-50
377.424	162.98
377.635	5.29
377.845	-113.49
378.055	36.01
378.266	-47.96
378.476	7.34
378.686	54.44
378.897	44.2
379.107	122.02
379.317	83.11
379.528	38.06
379.738	91.31
379.948	-80.72
380.158	130.22
380.369	72.87
380.579	89.26
380.789	132.26
380.999	105.64
381.21	85.16
381.42	189.61
381.63	-4.95
381.84	154.79
382.05	154.79
382.261	193.7
382.471	113.83
382.681	-17.24
382.891	126.12
383.101	103.59
383.311	-93.01
383.521	29.87
383.731	130.22
383.941	93.35
384.151	38.06
384.361	38.06
384.571	107.69
384.781	95.4
384.991	183.46
385.201	185.51
385.411	140.46
385.621	81.07
385.831	33.96
386.041	25.77
386.251	52.39
386.461	173.22
386.671	38.06
386.881	54.44
387.091	-2.9
387.301	165.03
387.511	46.25
387.72	38.06
387.93	138.41
388.14	19.63
388.35	-4.95
388.56	105.64
388.769	79.02
388.979	103.59
389.189	93.35
389.399	-4.95
389.609	60.59
389.818	72.87
390.028	64.68
390.238	101.55
390.447	44.2
390.657	160.94
390.867	27.82
391.076	-60.24
391.286	93.35
391.496	46.25
391.705	83.11
391.915	148.65
392.125	58.54
392.334	-41.81
392.544	99.5
392.753	160.94
392.963	-37.72
393.172	95.4
393.382	79.02
393.591	171.18
393.801	17.58
394.01	197.8
394.22	83.11
394.429	33.96
394.639	136.36
394.848	36.01
395.058	56.49
395.267	-7
395.477	83.11
395.686	40.11
395.895	165.03
396.105	148.65
396.314	113.83
396.524	13.48
396.733	19.63
396.942	60.59
397.152	117.93
397.361	119.98
397.57	130.22
397.78	27.82
397.989	99.5
398.198	244.9
398.407	52.39
398.617	15.53
398.826	-9.05
399.035	58.54
399.244	124.07
399.453	85.16
399.663	29.87
399.872	74.92
400.081	-35.67
400.29	154.79
400.499	13.48
400.708	140.46
400.917	54.44
401.127	60.59
401.336	21.67
401.545	144.55
401.754	113.83
401.963	130.22
402.172	15.53
402.381	-35.67
402.59	42.15
402.799	19.63
403.008	1.19
403.217	97.45
403.426	122.02
403.635	-23.38
403.844	48.3
404.053	21.67
404.262	13.48
404.471	117.93
404.68	93.35
404.888	25.77
405.097	40.11
405.306	48.3
405.515	105.64
405.724	21.67
405.933	95.4
406.142	76.97
406.35	87.21
406.559	64.68
406.768	13.48
406.977	115.88
407.185	25.77
407.394	124.07
407.603	-52.05
407.812	87.21
408.02	146.6
408.229	117.93
408.438	101.55
408.646	87.21
408.855	50.35
409.064	42.15
409.272	38.06
409.481	25.77
409.69	68.78
409.898	-35.67
410.107	132.26
410.315	68.78
410.524	40.11
410.733	162.98
410.941	7.34
411.15	87.21
411.358	79.02
411.567	107.69
411.775	-13.14
411.984	50.35
412.192	79.02
412.401	42.15
412.609	124.07
412.818	83.11
413.026	54.44
413.234	-17.24
413.443	66.73
413.651	17.58
413.86	44.2
414.068	99.5
414.276	162.98
414.485	3.24
414.693	175.27
414.901	138.41
415.11	89.26
415.318	76.97
415.526	115.88
415.734	81.07
415.943	40.11
416.151	132.26
416.359	52.39
416.567	31.91
416.776	156.84
416.984	107.69
417.192	105.64
417.4	-13.14
417.608	42.15
417.817	23.72
418.025	85.16
418.233	128.17
418.441	-43.86
418.649	9.39
418.857	54.44
419.065	183.46
419.273	-66.39
419.481	79.02
419.689	27.82
419.897	23.72
420.105	-56.15
420.313	138.41
420.521	171.18
420.729	107.69
420.937	40.11
421.145	-11.09
421.353	187.56
421.561	160.94
421.769	54.44
421.977	7.34
422.185	97.45
422.393	36.01
422.601	95.4
422.809	99.5
423.017	58.54
423.224	-19.29
423.432	134.31
423.64	68.78
423.848	169.13
424.056	-11.09
424.263	132.26
424.471	36.01
424.679	113.83
424.887	-25.43
425.094	124.07
425.302	74.92
425.51	111.78
425.718	124.07
425.925	126.12
426.133	23.72
426.341	152.74
426.548	15.53
426.756	-52.05
426.964	81.07
427.171	31.91
427.379	105.64
427.586	83.11
427.794	9.39
428.001	158.89
428.209	62.63
428.417	122.02
428.624	101.55
428.832	193.7
429.039	105.64
429.247	40.11
429.454	128.17
429.662	181.42
429.869	117.93
430.076	165.03
430.284	109.74
430.491	242.85
430.699	113.83
430.906	169.13
431.114	76.97
431.321	48.3
431.528	109.74
431.736	156.84
431.943	134.31
432.15	148.65
432.358	205.99
432.565	232.62
432.772	-13.14
432.979	257.19
433.187	85.16
433.394	160.94
433.601	117.93
433.808	263.33
434.016	314.53
434.223	218.28
434.43	234.66
434.637	158.89
434.844	287.91
435.052	152.74
435.259	208.04
435.466	216.23
435.673	197.8
435.88	226.47
436.087	363.69
436.294	283.81
436.501	287.91
436.708	177.32
436.915	330.92
437.122	326.82
437.329	283.81
437.537	365.73
437.743	341.16
437.95	425.12
438.157	326.82
438.364	316.58
438.571	339.11
438.778	392.36
438.985	373.92
439.192	427.17
439.399	449.7
439.606	548
439.813	447.65
440.02	521.38
440.227	705.7
440.433	543.91
440.64	543.91
440.847	386.21
441.054	476.32
441.261	689.31
441.467	490.66
441.674	486.56
441.881	601.25
442.088	521.38
442.294	681.12
442.501	730.27
442.708	795.81
442.914	736.42
443.121	773.28
443.328	732.32
443.534	873.63
443.741	859.29
443.948	779.42
444.154	818.33
444.361	986.27
444.568	1016.99
444.774	986.27
444.981	789.66
445.187	1057.95
445.394	1021.08
445.6	1031.32
445.807	1176.73
446.013	1219.74
446.22	1094.81
446.426	1299.61
446.633	1416.34
446.839	1440.92
447.046	1295.51
447.252	1459.35
447.459	1324.18
447.665	1516.69
447.871	1582.23
448.078	1787.02
448.284	1754.26
448.491	1856.65
448.697	1819.79
448.903	1821.84
449.11	2034.83
449.316	1959.05
449.522	2178.19
449.728	2169.99
449.935	2266.25
450.141	2321.54
450.347	2438.28
450.553	2419.85
450.76	2397.32
450.966	2671.75
451.172	2647.17
451.378	2958.46
451.584	2864.25
451.791	3073.15
451.997	3120.25
452.203	3165.31
452.409	3400.82
452.615	3558.52
452.821	3329.14
453.027	3388.53
453.233	3918.96
453.44	3828.85
453.646	3824.75
453.852	4097.13
454.058	4111.47
454.264	4373.61
454.47	4793.44
454.676	4785.25
454.882	5186.65
455.088	4850.78
455.294	5272.67
455.5	5530.71
455.705	5882.96
455.911	5856.34
456.117	6184.01
456.323	6009.93
456.529	6231.12
456.735	6767.68
456.941	6974.53
457.147	7095.36
457.352	7363.64
457.558	7648.31
457.764	8057.9
457.97	8293.42
458.176	8696.87
458.381	8805.41
458.587	9212.96
458.793	9714.71
458.999	9544.73
459.204	10920.96
459.41	11461.63
459.616	11224.06
459.821	11887.61
460.027	12375.02
460.233	12674.03
460.438	12880.87
460.644	13399.01
460.85	13724.63
461.055	14326.74
461.261	14914.5
461.466	14558.16
461.672	14984.13
461.878	16774.06
462.083	16448.43
462.289	16995.24
462.494	17396.64
462.7	17673.12
462.905	18185.11
463.111	19209.09
463.316	20169.59
463.522	20632.43
463.727	21214.05
463.932	21984.09
464.138	23073.61
464.343	23780.16
464.549	24052.54
464.754	25813.79
464.959	26213.15
465.165	26655.51
465.37	26536.73
465.575	26360.6
465.781	28365.56
465.986	28949.23
466.191	28582.65
466.397	29268.72
466.602	28449.53
466.807	29805.28
467.012	30520.02
467.218	30483.16
467.423	30782.16
467.628	32017.09
467.833	33551.02
468.038	33202.86
468.244	32264.89
468.449	33974.95
468.654	33450.67
468.859	33163.95
