Data from USB4F104151__103__10-35-45-626.txt Node

Date: Wed Feb 26 10:35:45 EST 2025
User: louis
Spectrometer: USB4F10415
Trigger mode: 4
Integration Time (sec): 1.000000E-1
Scans to average: 1
Electric dark correction enabled: true
Nonlinearity correction enabled: false
Boxcar width: 0
XAxis mode: Wavelengths
Number of Pixels in Spectrum: 3648
>>>>>Begin Spectral Data<<<<<
178.204	-381.6
178.424	-381.6
178.644	-381.6
178.864	-383.65
179.084	-381.6
179.304	-19.11
179.524	-21.16
179.744	5.46
179.964	40.28
180.184	62.8
180.404	122.2
180.624	-27.31
180.844	-62.12
181.064	-84.65
181.283	-2.73
181.503	-25.26
181.723	11.61
181.943	-121.51
182.163	169.3
182.383	-0.68
182.602	38.23
182.822	214.35
183.042	77.14
183.262	-10.92
183.482	-12.97
183.701	25.94
183.921	44.37
184.141	-68.27
184.361	120.15
184.58	91.48
184.8	52.56
185.02	7.51
185.239	81.24
185.459	17.75
185.679	95.57
185.898	-156.33
186.118	38.23
186.338	62.8
186.557	93.52
186.777	-76.46
186.997	-15.02
187.216	-10.92
187.436	197.97
187.655	99.67
187.875	66.9
188.095	42.32
188.314	122.2
188.534	91.48
188.753	-27.31
188.973	118.1
189.192	126.29
189.412	-2.73
189.631	105.81
189.851	38.23
190.07	157.01
190.29	-58.03
190.509	-17.07
190.729	73.04
190.948	114
191.168	234.83
191.387	132.44
191.607	71
191.826	9.56
192.045	-6.83
192.265	-0.68
192.484	97.62
192.704	3.41
192.923	-58.03
193.142	230.74
193.362	132.44
193.581	116.05
193.8	56.66
194.02	68.95
194.239	97.62
194.458	44.37
194.678	-10.92
194.897	30.04
195.116	136.53
195.335	-17.07
195.555	15.7
195.774	-72.36
195.993	107.86
196.212	23.89
196.432	-19.11
196.651	-51.88
196.87	60.76
197.089	212.31
197.308	62.8
197.528	126.29
197.747	-55.98
197.966	75.09
198.185	140.63
198.404	17.75
198.623	30.04
198.842	118.1
199.062	34.13
199.281	85.33
199.5	32.08
199.719	142.68
199.938	-8.87
200.157	83.28
200.376	58.71
200.595	60.76
200.814	77.14
201.033	-25.26
201.252	261.46
201.471	97.62
201.69	93.52
201.909	50.52
202.128	140.63
202.347	60.76
202.566	56.66
202.785	-74.41
203.004	-6.83
203.223	243.03
203.442	105.81
203.661	-45.74
203.879	5.46
204.098	109.91
204.317	9.56
204.536	95.57
204.755	32.08
204.974	64.85
205.193	13.65
205.411	154.96
205.63	157.01
205.849	66.9
206.068	5.46
206.287	40.28
206.505	144.72
206.724	36.18
206.943	7.51
207.162	71
207.381	-2.73
207.599	-47.79
207.818	109.91
208.037	-76.46
208.255	-6.83
208.474	62.8
208.693	48.47
208.911	44.37
209.13	95.57
209.349	25.94
209.567	150.87
209.786	87.38
210.005	142.68
210.223	36.18
210.442	-148.14
210.661	7.51
210.879	-21.16
211.098	15.7
211.316	-19.11
211.535	68.95
211.753	91.48
211.972	132.44
212.191	64.85
212.409	27.99
212.628	50.52
212.846	30.04
213.065	68.95
213.283	62.8
213.502	73.04
213.72	114
213.938	34.13
214.157	81.24
214.375	36.18
214.594	46.42
214.812	56.66
215.031	27.99
215.249	58.71
215.467	15.7
215.686	60.76
215.904	81.24
216.122	128.34
216.341	87.38
216.559	42.32
216.778	52.56
216.996	93.52
217.214	-25.26
217.432	-10.92
217.651	-64.17
217.869	42.32
218.087	122.2
218.306	54.61
218.524	159.06
218.742	-49.83
218.96	87.38
219.179	30.04
219.397	30.04
219.615	214.35
219.833	202.07
220.051	-96.94
220.27	107.86
220.488	38.23
220.706	85.33
220.924	-6.83
221.142	-68.27
221.36	75.09
221.578	91.48
221.796	64.85
222.015	44.37
222.233	93.52
222.451	140.63
222.669	-51.88
222.887	27.99
223.105	44.37
223.323	81.24
223.541	11.61
223.759	79.19
223.977	46.42
224.195	189.78
224.413	91.48
224.631	73.04
224.849	66.9
225.067	267.6
225.285	-0.68
225.503	7.51
225.721	-101.03
225.939	81.24
226.157	87.38
226.375	183.63
226.592	-19.11
226.81	64.85
227.028	42.32
227.246	181.59
227.464	19.8
227.682	103.76
227.9	122.2
228.117	34.13
228.335	116.05
228.553	-35.5
228.771	118.1
228.989	56.66
229.206	109.91
229.424	13.65
229.642	30.04
229.86	-49.83
230.077	138.58
230.295	79.19
230.513	161.11
230.731	48.47
230.948	152.91
231.166	163.15
231.384	30.04
231.601	17.75
231.819	247.12
232.037	25.94
232.254	-31.4
232.472	73.04
232.689	11.61
232.907	136.53
233.125	75.09
233.342	-31.4
233.56	1.37
233.777	27.99
233.995	42.32
234.213	89.43
234.43	83.28
234.648	-49.83
234.865	19.8
235.083	71
235.3	-12.97
235.518	105.81
235.735	191.83
235.953	79.19
236.17	5.46
236.388	36.18
236.605	34.13
236.822	173.39
237.04	152.91
237.257	62.8
237.475	-86.7
237.692	66.9
237.909	79.19
238.127	27.99
238.344	34.13
238.562	-4.78
238.779	32.08
238.996	30.04
239.214	-4.78
239.431	97.62
239.648	27.99
239.865	81.24
240.083	105.81
240.3	66.9
240.517	89.43
240.735	9.56
240.952	101.72
241.169	25.94
241.386	62.8
241.603	25.94
241.821	-12.97
242.038	120.15
242.255	124.24
242.472	-17.07
242.689	103.76
242.907	142.68
243.124	118.1
243.341	118.1
243.558	75.09
243.775	-72.36
243.992	15.7
244.209	99.67
244.426	101.72
244.643	91.48
244.86	50.52
245.078	195.92
245.295	134.48
245.512	50.52
245.729	-4.78
245.946	34.13
246.163	32.08
246.38	62.8
246.597	103.76
246.814	73.04
247.031	52.56
247.248	89.43
247.464	50.52
247.681	40.28
247.898	124.24
248.115	130.39
248.332	-4.78
248.549	73.04
248.766	210.26
248.983	46.42
249.2	1.37
249.417	120.15
249.633	-29.35
249.85	83.28
250.067	30.04
250.284	68.95
250.501	81.24
250.717	120.15
250.934	56.66
251.151	-27.31
251.368	50.52
251.585	52.56
251.801	93.52
252.018	30.04
252.235	30.04
252.451	-23.21
252.668	105.81
252.885	173.39
253.102	46.42
253.318	66.9
253.535	38.23
253.752	17.75
253.968	40.28
254.185	-47.79
254.401	54.61
254.618	77.14
254.835	-82.6
255.051	60.76
255.268	132.44
255.484	15.7
255.701	87.38
255.917	95.57
256.134	-78.51
256.351	66.9
256.567	11.61
256.784	-29.35
257	21.85
257.217	93.52
257.433	62.8
257.65	83.28
257.866	142.68
258.082	64.85
258.299	56.66
258.515	44.37
258.732	48.47
258.948	3.41
259.165	52.56
259.381	21.85
259.597	91.48
259.814	95.57
260.03	64.85
260.246	-15.02
260.463	36.18
260.679	165.2
260.895	19.8
261.112	120.15
261.328	13.65
261.544	-74.41
261.761	212.31
261.977	-12.97
262.193	-43.69
262.409	214.35
262.626	107.86
262.842	-25.26
263.058	-70.31
263.274	9.56
263.49	54.61
263.707	107.86
263.923	122.2
264.139	-76.46
264.355	54.61
264.571	122.2
264.787	32.08
265.004	103.76
265.22	54.61
265.436	36.18
265.652	7.51
265.868	30.04
266.084	-74.41
266.3	27.99
266.516	-21.16
266.732	114
266.948	30.04
267.164	5.46
267.38	107.86
267.596	50.52
267.812	173.39
268.028	5.46
268.244	62.8
268.46	85.33
268.676	-8.87
268.892	128.34
269.108	-4.78
269.324	-39.59
269.54	-107.18
269.756	148.82
269.972	1.37
270.188	-23.21
270.403	62.8
270.619	-19.11
270.835	105.81
271.051	30.04
271.267	-45.74
271.483	15.7
271.698	118.1
271.914	93.52
272.13	79.19
272.346	-33.45
272.562	23.89
272.777	154.96
272.993	15.7
273.209	32.08
273.425	83.28
273.64	-47.79
273.856	13.65
274.072	17.75
274.287	1.37
274.503	97.62
274.719	138.58
274.934	50.52
275.15	52.56
275.366	25.94
275.581	-21.16
275.797	1.37
276.012	-15.02
276.228	32.08
276.444	13.65
276.659	144.72
276.875	-27.31
277.09	34.13
277.306	-35.5
277.521	23.89
277.737	27.99
277.952	148.82
278.168	62.8
278.383	99.67
278.599	42.32
278.814	124.24
279.03	1.37
279.245	107.86
279.461	71
279.676	140.63
279.892	5.46
280.107	-88.75
280.322	-8.87
280.538	97.62
280.753	9.56
280.969	44.37
281.184	107.86
281.399	101.72
281.615	-0.68
281.83	118.1
282.045	-45.74
282.26	-35.5
282.476	152.91
282.691	116.05
282.906	87.38
283.122	60.76
283.337	-10.92
283.552	54.61
283.767	-6.83
283.983	163.15
284.198	42.32
284.413	79.19
284.628	-31.4
284.843	52.56
285.058	73.04
285.274	40.28
285.489	15.7
285.704	130.39
285.919	-19.11
286.134	13.65
286.349	73.04
286.564	30.04
286.779	103.76
286.995	93.52
287.21	-66.22
287.425	52.56
287.64	1.37
287.855	-10.92
288.07	3.41
288.285	107.86
288.5	216.4
288.715	62.8
288.93	32.08
289.145	-8.87
289.36	64.85
289.575	-17.07
289.79	118.1
290.004	60.76
290.219	157.01
290.434	30.04
290.649	-64.17
290.864	97.62
291.079	58.71
291.294	85.33
291.509	34.13
291.724	97.62
291.938	-27.31
292.153	9.56
292.368	42.32
292.583	54.61
292.798	75.09
293.012	52.56
293.227	85.33
293.442	27.99
293.657	116.05
293.871	107.86
294.086	50.52
294.301	136.53
294.516	60.76
294.73	87.38
294.945	68.95
295.16	52.56
295.374	136.53
295.589	95.57
295.804	79.19
296.018	23.89
296.233	77.14
296.447	52.56
296.662	-23.21
296.877	132.44
297.091	120.15
297.306	15.7
297.52	21.85
297.735	13.65
297.949	44.37
298.164	54.61
298.378	48.47
298.593	-53.93
298.807	7.51
299.022	32.08
299.236	197.97
299.451	54.61
299.665	1.37
299.88	109.91
300.094	120.15
300.309	13.65
300.523	30.04
300.737	68.95
300.952	89.43
301.166	144.72
301.381	-53.93
301.595	13.65
301.809	93.52
302.024	34.13
302.238	-68.27
302.452	169.3
302.667	50.52
302.881	146.77
303.095	71
303.309	25.94
303.524	19.8
303.738	64.85
303.952	7.51
304.166	21.85
304.381	-178.86
304.595	128.34
304.809	75.09
305.023	23.89
305.237	23.89
305.452	21.85
305.666	68.95
305.88	91.48
306.094	101.72
306.308	134.48
306.522	71
306.736	161.11
306.95	87.38
307.164	-0.68
307.379	11.61
307.593	140.63
307.807	157.01
308.021	71
308.235	85.33
308.449	-31.4
308.663	15.7
308.877	200.02
309.091	15.7
309.305	77.14
309.519	-53.93
309.733	116.05
309.947	-103.08
310.161	91.48
310.374	19.8
310.588	118.1
310.802	-35.5
311.016	-33.45
311.23	62.8
311.444	-43.69
311.658	40.28
311.872	64.85
312.085	122.2
312.299	206.16
312.513	185.68
312.727	58.71
312.941	-21.16
313.154	52.56
313.368	11.61
313.582	-2.73
313.796	19.8
314.009	15.7
314.223	169.3
314.437	-8.87
314.651	46.42
314.864	-41.64
315.078	25.94
315.292	-144.04
315.505	-21.16
315.719	95.57
315.933	111.96
316.146	25.94
316.36	-21.16
316.573	83.28
316.787	132.44
317.001	68.95
317.214	5.46
317.428	58.71
317.641	-62.12
317.855	1.37
318.068	68.95
318.282	9.56
318.495	95.57
318.709	87.38
318.922	30.04
319.136	154.96
319.349	34.13
319.563	52.56
319.776	89.43
319.99	-41.64
320.203	105.81
320.417	32.08
320.63	161.11
320.843	159.06
321.057	101.72
321.27	48.47
321.483	81.24
321.697	165.2
321.91	60.76
322.124	77.14
322.337	-12.97
322.55	54.61
322.763	101.72
322.977	34.13
323.19	15.7
323.403	-19.11
323.617	120.15
323.83	136.53
324.043	-2.73
324.256	48.47
324.469	-55.98
324.683	116.05
324.896	9.56
325.109	75.09
325.322	-45.74
325.535	77.14
325.748	105.81
325.962	-10.92
326.175	95.57
326.388	56.66
326.601	132.44
326.814	44.37
327.027	58.71
327.24	165.2
327.453	-51.88
327.666	95.57
327.879	103.76
328.092	75.09
328.305	114
328.518	81.24
328.731	62.8
328.944	54.61
329.157	132.44
329.37	25.94
329.583	116.05
329.796	171.35
330.009	-96.94
330.222	58.71
330.435	142.68
330.648	116.05
330.861	3.41
331.073	93.52
331.286	95.57
331.499	64.85
331.712	25.94
331.925	-6.83
332.138	103.76
332.35	120.15
332.563	44.37
332.776	93.52
332.989	-12.97
333.202	75.09
333.414	-0.68
333.627	25.94
333.84	23.89
334.053	118.1
334.265	9.56
334.478	56.66
334.691	68.95
334.903	40.28
335.116	1.37
335.329	7.51
335.541	132.44
335.754	169.3
335.966	38.23
336.179	7.51
336.392	48.47
336.604	40.28
336.817	122.2
337.029	52.56
337.242	73.04
337.454	17.75
337.667	62.8
337.88	40.28
338.092	56.66
338.305	71
338.517	-6.83
338.729	79.19
338.942	181.59
339.154	-27.31
339.367	-8.87
339.579	64.85
339.792	-29.35
340.004	150.87
340.217	62.8
340.429	60.76
340.641	-35.5
340.854	-17.07
341.066	13.65
341.278	97.62
341.491	165.2
341.703	58.71
341.915	46.42
342.128	134.48
342.34	13.65
342.552	-10.92
342.764	62.8
342.977	-2.73
343.189	-58.03
343.401	68.95
343.613	-0.68
343.826	62.8
344.038	7.51
344.25	75.09
344.462	-8.87
344.674	107.86
344.886	58.71
345.099	50.52
345.311	62.8
345.523	25.94
345.735	-19.11
345.947	25.94
346.159	218.45
346.371	-15.02
346.583	-55.98
346.795	193.87
347.007	-0.68
347.219	60.76
347.431	66.9
347.643	114
347.855	46.42
348.067	130.39
348.279	-29.35
348.491	93.52
348.703	32.08
348.915	-2.73
349.127	36.18
349.339	89.43
349.551	-4.78
349.763	95.57
349.975	56.66
350.187	71
350.399	126.29
350.61	146.77
350.822	36.18
351.034	85.33
351.246	42.32
351.458	79.19
351.669	120.15
351.881	109.91
352.093	124.24
352.305	68.95
352.517	27.99
352.728	107.86
352.94	36.18
353.152	-2.73
353.363	-21.16
353.575	114
353.787	177.49
353.999	-33.45
354.21	140.63
354.422	-76.46
354.633	30.04
354.845	87.38
355.057	85.33
355.268	75.09
355.48	48.47
355.692	-33.45
355.903	11.61
356.115	-84.65
356.326	-70.31
356.538	144.72
356.749	93.52
356.961	232.79
357.172	-29.35
357.384	7.51
357.595	277.84
357.807	40.28
358.018	-72.36
358.23	68.95
358.441	218.45
358.653	52.56
358.864	-10.92
359.075	-41.64
359.287	97.62
359.498	107.86
359.709	60.76
359.921	9.56
360.132	-27.31
360.344	60.76
360.555	15.7
360.766	81.24
360.977	-15.02
361.189	120.15
361.4	-39.59
361.611	46.42
361.823	142.68
362.034	128.34
362.245	5.46
362.456	48.47
362.667	7.51
362.879	-21.16
363.09	109.91
363.301	66.9
363.512	103.76
363.723	-19.11
363.935	21.85
364.146	83.28
364.357	54.61
364.568	68.95
364.779	-6.83
364.99	154.96
365.201	-17.07
365.412	197.97
365.623	-127.66
365.834	73.04
366.045	54.61
366.256	101.72
366.467	152.91
366.678	-6.83
366.889	38.23
367.1	-43.69
367.311	136.53
367.522	-96.94
367.733	52.56
367.944	77.14
368.155	-15.02
368.366	60.76
368.577	177.49
368.788	103.76
368.999	-0.68
369.209	99.67
369.42	181.59
369.631	214.35
369.842	97.62
370.053	-19.11
370.264	173.39
370.474	54.61
370.685	25.94
370.896	1.37
371.107	107.86
371.317	97.62
371.528	36.18
371.739	77.14
371.95	140.63
372.16	136.53
372.371	40.28
372.582	-47.79
372.792	83.28
373.003	21.85
373.214	32.08
373.424	91.48
373.635	-86.7
373.846	56.66
374.056	17.75
374.267	58.71
374.477	58.71
374.688	38.23
374.898	36.18
375.109	46.42
375.319	101.72
375.53	146.77
375.74	126.29
375.951	9.56
376.161	99.67
376.372	128.34
376.582	122.2
376.793	62.8
377.003	9.56
377.214	3.41
377.424	58.71
377.635	32.08
377.845	25.94
378.055	146.77
378.266	17.75
378.476	1.37
378.686	89.43
378.897	101.72
379.107	83.28
379.317	50.52
379.528	-21.16
379.738	101.72
379.948	-23.21
380.158	68.95
380.369	40.28
380.579	71
380.789	-45.74
380.999	75.09
381.21	105.81
381.42	142.68
381.63	89.43
381.84	97.62
382.05	68.95
382.261	208.21
382.471	132.44
382.681	-29.35
382.891	138.58
383.101	60.76
383.311	-58.03
383.521	-37.55
383.731	68.95
383.941	77.14
384.151	87.38
384.361	46.42
384.571	142.68
384.781	42.32
384.991	177.49
385.201	140.63
385.411	105.81
385.621	140.63
385.831	118.1
386.041	128.34
386.251	-37.55
386.461	93.52
386.671	-2.73
386.881	25.94
387.091	64.85
387.301	109.91
387.511	83.28
387.72	134.48
387.93	116.05
388.14	30.04
388.35	95.57
388.56	142.68
388.769	146.77
388.979	19.8
389.189	56.66
389.399	17.75
389.609	50.52
389.818	114
390.028	103.76
390.238	128.34
390.447	5.46
390.657	77.14
390.867	23.89
391.076	-29.35
391.286	87.38
391.496	-6.83
391.705	46.42
391.915	179.54
392.125	165.2
392.334	85.33
392.544	222.55
392.753	44.37
392.963	-58.03
393.172	99.67
393.382	30.04
393.591	130.39
393.801	25.94
394.01	93.52
394.22	77.14
394.429	32.08
394.639	34.13
394.848	34.13
395.058	54.61
395.267	75.09
395.477	99.67
395.686	64.85
395.895	185.68
396.105	224.59
396.314	62.8
396.524	68.95
396.733	9.56
396.942	75.09
397.152	142.68
397.361	130.39
397.57	105.81
397.78	97.62
397.989	54.61
398.198	181.59
398.407	-21.16
398.617	48.47
398.826	25.94
399.035	-0.68
399.244	144.72
399.453	48.47
399.663	111.96
399.872	101.72
400.081	40.28
400.29	130.39
400.499	19.8
400.708	132.44
400.917	15.7
401.127	71
401.336	52.56
401.545	208.21
401.754	120.15
401.963	85.33
402.172	-15.02
402.381	13.65
402.59	-19.11
402.799	17.75
403.008	157.01
403.217	54.61
403.426	128.34
403.635	-33.45
403.844	66.9
404.053	-70.31
404.262	30.04
404.471	124.24
404.68	120.15
404.888	40.28
405.097	30.04
405.306	46.42
405.515	66.9
405.724	21.85
405.933	107.86
406.142	79.19
406.35	175.44
406.559	40.28
406.768	7.51
406.977	136.53
407.185	89.43
407.394	44.37
407.603	25.94
407.812	132.44
408.02	189.78
408.229	60.76
408.438	101.72
408.646	1.37
408.855	56.66
409.064	99.67
409.272	-23.21
409.481	73.04
409.69	-19.11
409.898	60.76
410.107	81.24
410.315	85.33
410.524	9.56
410.733	99.67
410.941	-15.02
411.15	142.68
411.358	134.48
411.567	167.25
411.775	5.46
411.984	87.38
412.192	89.43
412.401	48.47
412.609	230.74
412.818	132.44
413.026	124.24
413.234	-62.12
413.443	-2.73
413.651	68.95
413.86	73.04
414.068	157.01
414.276	132.44
414.485	25.94
414.693	200.02
414.901	189.78
415.11	132.44
415.318	124.24
415.526	62.8
415.734	83.28
415.943	17.75
416.151	136.53
416.359	1.37
416.567	52.56
416.776	81.24
416.984	140.63
417.192	181.59
417.4	-29.35
417.608	62.8
417.817	5.46
418.025	150.87
418.233	169.3
418.441	13.65
418.649	50.52
418.857	83.28
419.065	66.9
419.273	81.24
419.481	109.91
419.689	34.13
419.897	56.66
420.105	-0.68
420.313	89.43
420.521	130.39
420.729	167.25
420.937	73.04
421.145	71
421.353	138.58
421.561	157.01
421.769	36.18
421.977	25.94
422.185	81.24
422.393	77.14
422.601	105.81
422.809	122.2
423.017	150.87
423.224	60.76
423.432	142.68
423.64	75.09
423.848	118.1
424.056	3.41
424.263	134.48
424.471	11.61
424.679	181.59
424.887	42.32
425.094	185.68
425.302	107.86
425.51	101.72
425.718	124.24
425.925	62.8
426.133	34.13
426.341	238.93
426.548	62.8
426.756	-17.07
426.964	150.87
427.171	71
427.379	81.24
427.586	93.52
427.794	144.72
428.001	234.83
428.209	93.52
428.417	132.44
428.624	171.35
428.832	136.53
429.039	7.51
429.247	64.85
429.454	130.39
429.662	204.11
429.869	46.42
430.076	132.44
430.284	214.35
430.491	107.86
430.699	226.64
430.906	222.55
431.114	152.91
431.321	159.06
431.528	66.9
431.736	124.24
431.943	144.72
432.15	181.59
432.358	210.26
432.565	333.14
432.772	36.18
432.979	216.4
433.187	109.91
433.394	265.55
433.601	185.68
433.808	191.83
434.016	281.94
434.223	210.26
434.43	255.31
434.637	331.09
434.844	304.46
435.052	189.78
435.259	304.46
435.466	228.69
435.673	175.44
435.88	341.33
436.087	378.19
436.294	333.14
436.501	326.99
436.708	294.22
436.915	390.48
437.122	345.42
437.329	187.73
437.537	351.57
437.743	279.89
437.95	468.3
438.157	357.71
438.364	384.34
438.571	445.77
438.778	417.1
438.985	478.54
439.192	523.6
439.399	378.19
439.606	484.69
439.813	511.31
440.02	576.84
440.227	681.29
440.433	603.47
440.64	621.9
440.847	480.59
441.054	630.09
441.261	687.43
441.467	605.52
441.674	587.08
441.881	767.31
442.088	617.8
442.294	789.83
442.501	779.59
442.708	916.81
442.914	787.79
443.121	855.37
443.328	849.22
443.534	898.38
443.741	943.43
443.948	849.22
444.154	1056.07
444.361	1080.64
444.568	1039.69
444.774	1066.31
444.981	1094.98
445.187	1195.33
445.394	1250.63
445.6	1197.38
445.807	1410.37
446.013	1412.42
446.22	1221.95
446.426	1443.14
446.633	1467.71
446.839	1713.47
447.046	1434.94
447.252	1699.13
447.459	1664.32
447.665	1611.07
447.871	1920.31
448.078	1889.59
448.284	1869.11
448.491	2141.49
448.697	2018.61
448.903	2233.65
449.11	2288.95
449.316	2293.04
449.522	2286.9
449.728	2577.71
449.935	2512.18
450.141	2571.57
450.347	2706.73
450.553	2819.37
450.76	2805.03
450.966	2864.43
451.172	3048.74
451.378	3165.48
451.584	3304.74
451.791	3534.11
451.997	3525.92
452.203	3656.99
452.409	3869.98
452.615	3947.8
452.821	3859.74
453.027	3929.37
453.233	4605.2
453.44	4332.82
453.646	4556.05
453.852	4730.13
454.058	4984.07
454.264	5084.42
454.47	5416.19
454.676	5471.49
454.882	5829.88
455.088	5664
455.294	5858.56
455.5	6333.68
455.705	6790.38
455.911	6810.86
456.117	6831.34
456.323	6982.89
456.529	7085.29
456.735	7707.87
456.941	7912.67
457.147	8486.1
457.352	8537.3
457.558	8832.21
457.764	9276.62
457.97	9473.22
458.176	9886.91
458.381	10493.11
458.587	10755.25
458.793	11089.07
458.999	10941.61
459.204	12352.66
459.41	12907.66
459.616	12899.47
459.821	13565.06
460.027	13988.99
460.233	14769.27
460.438	14840.95
460.644	15647.85
460.85	15721.57
461.055	16286.81
461.261	17120.34
461.466	16520.28
461.672	17282.13
461.878	19360.81
462.083	19078.19
462.289	19553.32
462.494	20091.94
462.7	19934.25
462.905	20476.96
463.111	22363.14
463.316	23139.32
463.522	23712.75
463.727	24368.1
463.932	25529.3
464.138	26051.53
464.343	27327.41
464.549	27433.91
464.754	29277.08
464.959	30294.92
465.165	30679.94
465.37	30540.68
465.575	29954.96
465.781	32430.95
465.986	33258.33
466.191	32947.04
466.397	32797.54
466.602	32580.45
466.807	34362.18
467.012	34653
467.218	35337.02
467.423	35238.72
467.628	36182.83
467.833	38044.43
468.038	37694.23
468.244	36836.13
468.449	38718.21
468.654	38202.13
468.859	37882.64
469.064	38091.54
469.269	36688.68
