Data from USB4F104151__90__11-31-40-559.txt Node

Date: Wed Feb 26 11:31:40 EST 2025
User: louis
Spectrometer: USB4F10415
Trigger mode: 4
Integration Time (sec): 1.000000E-1
Scans to average: 1
Electric dark correction enabled: true
Nonlinearity correction enabled: false
Boxcar width: 0
XAxis mode: Wavelengths
Number of Pixels in Spectrum: 3648
>>>>>Begin Spectral Data<<<<<
178.204	-441
178.424	-441
178.644	-441
178.864	-447.14
179.084	-377.51
179.304	-0.68
179.524	-33.45
179.744	-2.73
179.964	25.94
180.184	11.61
180.404	46.42
180.624	36.18
180.844	-35.5
181.064	-0.68
181.283	-15.02
181.503	-49.83
181.723	17.75
181.943	-158.38
182.163	191.83
182.383	-109.22
182.602	27.99
182.822	157.01
183.042	71
183.262	-51.88
183.482	58.71
183.701	-4.78
183.921	89.43
184.141	-29.35
184.361	81.24
184.58	122.2
184.8	36.18
185.02	-23.21
185.239	130.39
185.459	30.04
185.679	130.39
185.898	-19.11
186.118	25.94
186.338	136.53
186.557	81.24
186.777	-43.69
186.997	68.95
187.216	32.08
187.436	251.22
187.655	79.19
187.875	73.04
188.095	17.75
188.314	99.67
188.534	87.38
188.753	-39.59
188.973	66.9
189.192	157.01
189.412	-55.98
189.631	54.61
189.851	93.52
190.07	114
190.29	-60.07
190.509	-41.64
190.729	-27.31
190.948	83.28
191.168	263.51
191.387	50.52
191.607	-66.22
191.826	87.38
192.045	-31.4
192.265	30.04
192.484	77.14
192.704	34.13
192.923	-43.69
193.142	212.31
193.362	68.95
193.581	124.24
193.8	75.09
194.02	99.67
194.239	44.37
194.458	48.47
194.678	52.56
194.897	83.28
195.116	103.76
195.335	3.41
195.555	95.57
195.774	3.41
195.993	144.72
196.212	17.75
196.432	50.52
196.651	48.47
196.87	95.57
197.089	261.46
197.308	66.9
197.528	101.72
197.747	21.85
197.966	71
198.185	132.44
198.404	46.42
198.623	132.44
198.842	68.95
199.062	79.19
199.281	101.72
199.5	46.42
199.719	134.48
199.938	21.85
200.157	109.91
200.376	107.86
200.595	122.2
200.814	62.8
201.033	17.75
201.252	116.05
201.471	62.8
201.69	154.96
201.909	107.86
202.128	204.11
202.347	32.08
202.566	73.04
202.785	-47.79
203.004	11.61
203.223	267.6
203.442	5.46
203.661	17.75
203.879	87.38
204.098	222.55
204.317	60.76
204.536	120.15
204.755	91.48
204.974	38.23
205.193	34.13
205.411	138.58
205.63	48.47
205.849	56.66
206.068	-8.87
206.287	-88.75
206.505	152.91
206.724	3.41
206.943	25.94
207.162	-6.83
207.381	34.13
207.599	11.61
207.818	54.61
208.037	-31.4
208.255	-25.26
208.474	124.24
208.693	48.47
208.911	7.51
209.13	101.72
209.349	25.94
209.567	75.09
209.786	21.85
210.005	99.67
210.223	62.8
210.442	-172.71
210.661	-19.11
210.879	56.66
211.098	60.76
211.316	58.71
211.535	99.67
211.753	50.52
211.972	58.71
212.191	46.42
212.409	-10.92
212.628	73.04
212.846	-12.97
213.065	-31.4
213.283	177.49
213.502	91.48
213.72	38.23
213.938	56.66
214.157	27.99
214.375	154.96
214.594	25.94
214.812	58.71
215.031	-31.4
215.249	109.91
215.467	85.33
215.686	126.29
215.904	111.96
216.122	71
216.341	171.35
216.559	134.48
216.778	87.38
216.996	154.96
217.214	-4.78
217.432	-17.07
217.651	-33.45
217.869	58.71
218.087	64.85
218.306	-49.83
218.524	5.46
218.742	-37.55
218.96	62.8
219.179	-70.31
219.397	50.52
219.615	222.55
219.833	126.29
220.051	-15.02
220.27	128.34
220.488	120.15
220.706	73.04
220.924	21.85
221.142	73.04
221.36	58.71
221.578	128.34
221.796	9.56
222.015	34.13
222.233	75.09
222.451	179.54
222.669	17.75
222.887	83.28
223.105	-35.5
223.323	79.19
223.541	-66.22
223.759	36.18
223.977	36.18
224.195	83.28
224.413	140.63
224.631	40.28
224.849	62.8
225.067	238.93
225.285	36.18
225.503	3.41
225.721	-19.11
225.939	89.43
226.157	48.47
226.375	197.97
226.592	-72.36
226.81	68.95
227.028	116.05
227.246	150.87
227.464	30.04
227.682	42.32
227.9	42.32
228.117	30.04
228.335	60.76
228.553	-21.16
228.771	52.56
228.989	44.37
229.206	13.65
229.424	64.85
229.642	-0.68
229.86	-10.92
230.077	118.1
230.295	52.56
230.513	142.68
230.731	75.09
230.948	251.22
231.166	185.68
231.384	-64.17
231.601	13.65
231.819	210.26
232.037	11.61
232.254	-2.73
232.472	9.56
232.689	9.56
232.907	75.09
233.125	5.46
233.342	36.18
233.56	5.46
233.777	83.28
233.995	40.28
234.213	105.81
234.43	97.62
234.648	87.38
234.865	-37.55
235.083	7.51
235.3	81.24
235.518	91.48
235.735	118.1
235.953	79.19
236.17	-41.64
236.388	89.43
236.605	128.34
236.822	138.58
237.04	114
237.257	87.38
237.475	-31.4
237.692	95.57
237.909	1.37
238.127	-19.11
238.344	21.85
238.562	30.04
238.779	-2.73
238.996	-31.4
239.214	1.37
239.431	95.57
239.648	-4.78
239.865	97.62
240.083	99.67
240.3	23.89
240.517	-41.64
240.735	13.65
240.952	163.15
241.169	116.05
241.386	1.37
241.603	17.75
241.821	-15.02
242.038	134.48
242.255	122.2
242.472	-8.87
242.689	99.67
242.907	105.81
243.124	122.2
243.341	-23.21
243.558	52.56
243.775	52.56
243.992	-43.69
244.209	91.48
244.426	187.73
244.643	50.52
244.86	-0.68
245.078	109.91
245.295	46.42
245.512	-58.03
245.729	56.66
245.946	66.9
246.163	34.13
246.38	32.08
246.597	95.57
246.814	64.85
247.031	21.85
247.248	73.04
247.464	46.42
247.681	83.28
247.898	40.28
248.115	101.72
248.332	17.75
248.549	130.39
248.766	189.78
248.983	124.24
249.2	99.67
249.417	25.94
249.633	7.51
249.85	66.9
250.067	75.09
250.284	36.18
250.501	77.14
250.717	107.86
250.934	-94.89
251.151	73.04
251.368	79.19
251.585	42.32
251.801	120.15
252.018	-74.41
252.235	83.28
252.451	5.46
252.668	9.56
252.885	150.87
253.102	21.85
253.318	44.37
253.535	9.56
253.752	40.28
253.968	81.24
254.185	15.7
254.401	36.18
254.618	118.1
254.835	-55.98
255.051	138.58
255.268	9.56
255.484	62.8
255.701	71
255.917	130.39
256.134	27.99
256.351	46.42
256.567	-17.07
256.784	1.37
257	-96.94
257.217	116.05
257.433	52.56
257.65	120.15
257.866	15.7
258.082	-47.79
258.299	-66.22
258.515	21.85
258.732	1.37
258.948	-72.36
259.165	64.85
259.381	3.41
259.597	109.91
259.814	34.13
260.03	62.8
260.246	40.28
260.463	132.44
260.679	148.82
260.895	99.67
261.112	124.24
261.328	19.8
261.544	-37.55
261.761	157.01
261.977	-55.98
262.193	1.37
262.409	40.28
262.626	-8.87
262.842	56.66
263.058	-12.97
263.274	71
263.49	77.14
263.707	36.18
263.923	148.82
264.139	-111.27
264.355	79.19
264.571	150.87
264.787	42.32
265.004	167.25
265.22	44.37
265.436	-0.68
265.652	48.47
265.868	40.28
266.084	-25.26
266.3	1.37
266.516	9.56
266.732	71
266.948	30.04
267.164	3.41
267.38	89.43
267.596	93.52
267.812	177.49
268.028	111.96
268.244	-6.83
268.46	85.33
268.676	-4.78
268.892	77.14
269.108	-4.78
269.324	5.46
269.54	13.65
269.756	68.95
269.972	-76.46
270.188	89.43
270.403	-96.94
270.619	95.57
270.835	79.19
271.051	81.24
271.267	9.56
271.483	40.28
271.698	81.24
271.914	142.68
272.13	5.46
272.346	75.09
272.562	42.32
272.777	107.86
272.993	-66.22
273.209	-72.36
273.425	89.43
273.64	-86.7
273.856	60.76
274.072	-21.16
274.287	42.32
274.503	91.48
274.719	97.62
274.934	-4.78
275.15	-105.13
275.366	7.51
275.581	-12.97
275.797	36.18
276.012	44.37
276.228	-6.83
276.444	62.8
276.659	181.59
276.875	-12.97
277.09	9.56
277.306	34.13
277.521	99.67
277.737	48.47
277.952	81.24
278.168	48.47
278.383	-21.16
278.599	9.56
278.814	38.23
279.03	-8.87
279.245	109.91
279.461	58.71
279.676	157.01
279.892	-41.64
280.107	-23.21
280.322	56.66
280.538	-21.16
280.753	15.7
280.969	-8.87
281.184	3.41
281.399	148.82
281.615	79.19
281.83	97.62
282.045	-74.41
282.26	-47.79
282.476	81.24
282.691	122.2
282.906	17.75
283.122	56.66
283.337	-21.16
283.552	71
283.767	11.61
283.983	132.44
284.198	27.99
284.413	56.66
284.628	-72.36
284.843	66.9
285.058	111.96
285.274	-10.92
285.489	-10.92
285.704	99.67
285.919	23.89
286.134	71
286.349	13.65
286.564	1.37
286.779	60.76
286.995	-15.02
287.21	-25.26
287.425	159.06
287.64	-25.26
287.855	81.24
288.07	-125.61
288.285	73.04
288.5	130.39
288.715	150.87
288.93	42.32
289.145	15.7
289.36	85.33
289.575	-45.74
289.79	132.44
290.004	42.32
290.219	68.95
290.434	-27.31
290.649	60.76
290.864	42.32
291.079	7.51
291.294	5.46
291.509	142.68
291.724	54.61
291.938	32.08
292.153	-2.73
292.368	15.7
292.583	21.85
292.798	54.61
293.012	83.28
293.227	81.24
293.442	-0.68
293.657	103.76
293.871	191.83
294.086	103.76
294.301	159.06
294.516	140.63
294.73	111.96
294.945	-33.45
295.16	11.61
295.374	142.68
295.589	150.87
295.804	-60.07
296.018	46.42
296.233	48.47
296.447	60.76
296.662	64.85
296.877	146.77
297.091	7.51
297.306	-6.83
297.52	17.75
297.735	105.81
297.949	60.76
298.164	38.23
298.378	25.94
298.593	-31.4
298.807	9.56
299.022	48.47
299.236	140.63
299.451	52.56
299.665	-10.92
299.88	56.66
300.094	50.52
300.309	-35.5
300.523	122.2
300.737	-4.78
300.952	81.24
301.166	17.75
301.381	5.46
301.595	23.89
301.809	32.08
302.024	-23.21
302.238	-27.31
302.452	126.29
302.667	93.52
302.881	214.35
303.095	52.56
303.309	19.8
303.524	62.8
303.738	-6.83
303.952	17.75
304.166	38.23
304.381	-111.27
304.595	173.39
304.809	-12.97
305.023	103.76
305.237	15.7
305.452	54.61
305.666	105.81
305.88	50.52
306.094	134.48
306.308	85.33
306.522	109.91
306.736	91.48
306.95	91.48
307.164	-2.73
307.379	-8.87
307.593	116.05
307.807	132.44
308.021	99.67
308.235	91.48
308.449	-47.79
308.663	9.56
308.877	212.31
309.091	103.76
309.305	107.86
309.519	-60.07
309.733	142.68
309.947	-96.94
310.161	81.24
310.374	167.25
310.588	109.91
310.802	-37.55
311.016	-19.11
311.23	36.18
311.444	-0.68
311.658	42.32
311.872	152.91
312.085	140.63
312.299	103.76
312.513	189.78
312.727	30.04
312.941	5.46
313.154	66.9
313.368	-23.21
313.582	3.41
313.796	56.66
314.009	-0.68
314.223	103.76
314.437	93.52
314.651	95.57
314.864	30.04
315.078	7.51
315.292	-25.26
315.505	-6.83
315.719	89.43
315.933	73.04
316.146	13.65
316.36	48.47
316.573	46.42
316.787	23.89
317.001	128.34
317.214	38.23
317.428	23.89
317.641	-35.5
317.855	-43.69
318.068	21.85
318.282	81.24
318.495	85.33
318.709	77.14
318.922	56.66
319.136	128.34
319.349	134.48
319.563	58.71
319.776	34.13
319.99	-25.26
320.203	138.58
320.417	44.37
320.63	130.39
320.843	185.68
321.057	71
321.27	-21.16
321.483	44.37
321.697	187.73
321.91	27.99
322.124	44.37
322.337	83.28
322.55	-68.27
322.763	32.08
322.977	91.48
323.19	-0.68
323.403	95.57
323.617	40.28
323.83	116.05
324.043	64.85
324.256	68.95
324.469	-39.59
324.683	44.37
324.896	11.61
325.109	-12.97
325.322	-37.55
325.535	89.43
325.748	111.96
325.962	44.37
326.175	46.42
326.388	71
326.601	187.73
326.814	-8.87
327.027	42.32
327.24	105.81
327.453	-64.17
327.666	101.72
327.879	71
328.092	54.61
328.305	73.04
328.518	15.7
328.731	13.65
328.944	44.37
329.157	142.68
329.37	-19.11
329.583	146.77
329.796	214.35
330.009	-35.5
330.222	56.66
330.435	109.91
330.648	62.8
330.861	-10.92
331.073	105.81
331.286	122.2
331.499	48.47
331.712	15.7
331.925	75.09
332.138	66.9
332.35	81.24
332.563	15.7
332.776	148.82
332.989	-15.02
333.202	-19.11
333.414	93.52
333.627	1.37
333.84	-15.02
334.053	36.18
334.265	17.75
334.478	-12.97
334.691	32.08
334.903	71
335.116	62.8
335.329	15.7
335.541	-6.83
335.754	148.82
335.966	30.04
336.179	52.56
336.392	50.52
336.604	25.94
336.817	77.14
337.029	3.41
337.242	36.18
337.454	107.86
337.667	19.8
337.88	146.77
338.092	89.43
338.305	95.57
338.517	7.51
338.729	171.35
338.942	122.2
339.154	-43.69
339.367	-39.59
339.579	7.51
339.792	40.28
340.004	42.32
340.217	15.7
340.429	175.44
340.641	-119.46
340.854	19.8
341.066	71
341.278	97.62
341.491	157.01
341.703	15.7
341.915	-17.07
342.128	89.43
342.34	48.47
342.552	11.61
342.764	58.71
342.977	89.43
343.189	85.33
343.401	34.13
343.613	-37.55
343.826	13.65
344.038	-45.74
344.25	81.24
344.462	9.56
344.674	77.14
344.886	140.63
345.099	44.37
345.311	38.23
345.523	64.85
345.735	-27.31
345.947	161.11
346.159	9.56
346.371	66.9
346.583	-33.45
346.795	204.11
347.007	-6.83
347.219	83.28
347.431	75.09
347.643	38.23
347.855	-19.11
348.067	150.87
348.279	-88.75
348.491	83.28
348.703	66.9
348.915	62.8
349.127	-15.02
349.339	148.82
349.551	11.61
349.763	128.34
349.975	-15.02
350.187	101.72
350.399	140.63
350.61	161.11
350.822	-8.87
351.034	30.04
351.246	99.67
351.458	48.47
351.669	42.32
351.881	91.48
352.093	60.76
352.305	85.33
352.517	144.72
352.728	81.24
352.94	75.09
353.152	11.61
353.363	-2.73
353.575	87.38
353.787	234.83
353.999	116.05
354.21	206.16
354.422	38.23
354.633	52.56
354.845	5.46
355.057	25.94
355.268	34.13
355.48	73.04
355.692	-39.59
355.903	60.76
356.115	19.8
356.326	-98.99
356.538	179.54
356.749	25.94
356.961	179.54
357.172	1.37
357.384	-27.31
357.595	234.83
357.807	75.09
358.018	42.32
358.23	-35.5
358.441	185.68
358.653	-2.73
358.864	7.51
359.075	-0.68
359.287	3.41
359.498	101.72
359.709	50.52
359.921	40.28
360.132	56.66
360.344	97.62
360.555	-62.12
360.766	66.9
360.977	97.62
361.189	95.57
361.4	91.48
361.611	128.34
361.823	175.44
362.034	52.56
362.245	-43.69
362.456	83.28
362.667	19.8
362.879	42.32
363.09	111.96
363.301	103.76
363.512	40.28
363.723	-35.5
363.935	54.61
364.146	146.77
364.357	50.52
364.568	3.41
364.779	-39.59
364.99	95.57
365.201	-49.83
365.412	138.58
365.623	-2.73
365.834	95.57
366.045	93.52
366.256	64.85
366.467	23.89
366.678	48.47
366.889	13.65
367.1	-45.74
367.311	95.57
367.522	52.56
367.733	89.43
367.944	79.19
368.155	-41.64
368.366	15.7
368.577	64.85
368.788	130.39
368.999	-35.5
369.209	42.32
369.42	267.6
369.631	255.31
369.842	91.48
370.053	25.94
370.264	85.33
370.474	13.65
370.685	50.52
370.896	15.7
371.107	114
371.317	73.04
371.528	30.04
371.739	148.82
371.95	48.47
372.16	93.52
372.371	-35.5
372.582	-45.74
372.792	32.08
373.003	146.77
373.214	32.08
373.424	79.19
373.635	-103.08
373.846	193.87
374.056	97.62
374.267	99.67
374.477	107.86
374.688	-6.83
374.898	66.9
375.109	79.19
375.319	-31.4
375.53	120.15
375.74	85.33
375.951	-10.92
376.161	52.56
376.372	87.38
376.582	19.8
376.793	-0.68
377.003	19.8
377.214	23.89
377.424	118.1
377.635	52.56
377.845	-10.92
378.055	167.25
378.266	-45.74
378.476	77.14
378.686	34.13
378.897	75.09
379.107	114
379.317	107.86
379.528	17.75
379.738	30.04
379.948	-19.11
380.158	122.2
380.369	87.38
380.579	157.01
380.789	101.72
380.999	83.28
381.21	50.52
381.42	206.16
381.63	-25.26
381.84	130.39
382.05	114
382.261	173.39
382.471	130.39
382.681	-12.97
382.891	181.59
383.101	89.43
383.311	-98.99
383.521	36.18
383.731	161.11
383.941	109.91
384.151	79.19
384.361	73.04
384.571	46.42
384.781	95.57
384.991	193.87
385.201	200.02
385.411	130.39
385.621	11.61
385.831	15.7
386.041	77.14
386.251	71
386.461	181.59
386.671	50.52
386.881	79.19
387.091	-37.55
387.301	124.24
387.511	87.38
387.72	120.15
387.93	140.63
388.14	25.94
388.35	126.29
388.56	132.44
388.769	48.47
388.979	56.66
389.189	7.51
389.399	50.52
389.609	79.19
389.818	75.09
390.028	60.76
390.238	48.47
390.447	11.61
390.657	87.38
390.867	-43.69
391.076	-105.13
391.286	42.32
391.496	-6.83
391.705	81.24
391.915	130.39
392.125	171.35
392.334	40.28
392.544	175.44
392.753	38.23
392.963	3.41
393.172	-0.68
393.382	9.56
393.591	144.72
393.801	13.65
394.01	140.63
394.22	68.95
394.429	60.76
394.639	83.28
394.848	107.86
395.058	66.9
395.267	38.23
395.477	75.09
395.686	95.57
395.895	202.07
396.105	238.93
396.314	120.15
396.524	36.18
396.733	58.71
396.942	134.48
397.152	60.76
397.361	116.05
397.57	93.52
397.78	54.61
397.989	-41.64
398.198	197.97
398.407	64.85
398.617	62.8
398.826	7.51
399.035	11.61
399.244	87.38
399.453	44.37
399.663	23.89
399.872	68.95
400.081	-35.5
400.29	189.78
400.499	1.37
400.708	101.72
400.917	27.99
401.127	1.37
401.336	32.08
401.545	195.92
401.754	144.72
401.963	138.58
402.172	15.7
402.381	-31.4
402.59	56.66
402.799	36.18
403.008	58.71
403.217	52.56
403.426	3.41
403.635	-29.35
403.844	32.08
404.053	68.95
404.262	34.13
404.471	214.35
404.68	77.14
404.888	50.52
405.097	15.7
405.306	13.65
405.515	66.9
405.724	17.75
405.933	44.37
406.142	-15.02
406.35	107.86
406.559	9.56
406.768	-6.83
406.977	183.63
407.185	48.47
407.394	99.67
407.603	-15.02
407.812	89.43
408.02	132.44
408.229	73.04
408.438	42.32
408.646	-33.45
408.855	52.56
409.064	38.23
409.272	-8.87
409.481	222.55
409.69	-17.07
409.898	40.28
410.107	30.04
410.315	114
410.524	46.42
410.733	25.94
410.941	42.32
411.15	130.39
411.358	93.52
411.567	134.48
411.775	11.61
411.984	101.72
412.192	130.39
412.401	25.94
412.609	132.44
412.818	187.73
413.026	73.04
413.234	54.61
413.443	50.52
413.651	46.42
413.86	54.61
414.068	124.24
414.276	216.4
414.485	13.65
414.693	128.34
414.901	222.55
415.11	32.08
415.318	103.76
415.526	66.9
415.734	32.08
415.943	136.53
416.151	154.96
416.359	60.76
416.567	95.57
416.776	146.77
416.984	93.52
417.192	179.54
417.4	56.66
417.608	7.51
417.817	1.37
418.025	62.8
418.233	214.35
418.441	40.28
418.649	-25.26
418.857	95.57
419.065	167.25
419.273	71
419.481	32.08
419.689	58.71
419.897	30.04
420.105	-35.5
420.313	157.01
420.521	109.91
420.729	120.15
420.937	9.56
421.145	-27.31
421.353	85.33
421.561	120.15
421.769	95.57
421.977	38.23
422.185	136.53
422.393	71
422.601	138.58
422.809	97.62
423.017	128.34
423.224	95.57
423.432	130.39
423.64	130.39
423.848	144.72
424.056	25.94
424.263	114
424.471	-35.5
424.679	206.16
424.887	44.37
425.094	89.43
425.302	97.62
425.51	75.09
425.718	173.39
425.925	138.58
426.133	17.75
426.341	200.02
426.548	68.95
426.756	79.19
426.964	81.24
427.171	-58.03
427.379	93.52
427.586	144.72
427.794	116.05
428.001	193.87
428.209	122.2
428.417	107.86
428.624	120.15
428.832	89.43
429.039	140.63
429.247	85.33
429.454	89.43
429.662	253.27
429.869	165.2
430.076	126.29
430.284	175.44
430.491	212.31
430.699	171.35
430.906	243.03
431.114	130.39
431.321	210.26
431.528	138.58
431.736	234.83
431.943	197.97
432.15	206.16
432.358	230.74
432.565	257.36
432.772	27.99
432.979	179.54
433.187	163.15
433.394	263.51
433.601	161.11
433.808	296.27
434.016	322.9
434.223	247.12
434.43	152.91
434.637	351.57
434.844	296.27
435.052	245.07
435.259	324.94
435.466	308.56
435.673	316.75
435.88	275.79
436.087	359.76
436.294	363.86
436.501	396.62
436.708	329.04
436.915	372.05
437.122	367.95
437.329	290.13
437.537	355.66
437.743	320.85
437.95	460.11
438.157	484.69
438.364	357.71
438.571	501.07
438.778	470.35
438.985	599.37
439.192	564.56
439.399	464.21
439.606	568.65
439.813	662.86
440.02	664.91
440.227	660.81
440.433	718.15
440.64	562.51
440.847	654.67
441.054	701.77
441.261	855.37
441.467	709.96
441.674	693.58
441.881	750.92
442.088	755.02
442.294	888.14
442.501	828.74
442.708	914.76
442.914	855.37
443.121	943.43
443.328	1031.49
443.534	1137.99
443.741	931.14
443.948	947.53
444.154	1035.59
444.361	1264.96
444.568	1262.91
444.774	1209.67
444.981	1137.99
445.187	1408.32
445.394	1301.83
445.6	1363.26
445.807	1584.45
446.013	1506.62
446.22	1529.15
446.426	1553.73
446.633	1635.64
446.839	1856.82
447.046	1633.6
447.252	1871.16
447.459	1862.97
447.665	1860.92
447.871	2026.81
448.078	2225.46
448.284	2157.88
448.491	2198.84
448.697	2450.74
448.903	2532.65
449.11	2544.94
449.316	2510.13
449.522	2819.37
449.728	2766.12
449.935	2903.34
450.141	2915.62
450.347	3079.46
450.553	3013.93
450.76	3261.73
450.966	3382.56
451.172	3403.04
451.378	3656.99
451.584	3720.48
451.791	4011.29
451.997	4070.68
452.203	4148.5
452.409	4222.23
452.615	4543.76
452.821	4445.46
453.027	4384.02
453.233	4947.21
453.44	4955.4
453.646	5055.75
453.852	5188.87
454.058	5461.25
454.264	5645.57
454.47	6083.83
454.676	6126.84
454.882	6755.57
455.088	6397.17
455.294	6761.71
455.5	7167.21
455.705	7546.08
455.911	7384.29
456.117	7754.98
456.323	8049.88
456.529	7824.61
456.735	8721.62
456.941	9153.74
457.147	9432.26
457.352	9649.35
457.558	9823.42
457.764	10708.15
457.97	10726.58
458.176	11033.77
458.381	11771.04
458.587	11842.72
458.793	12653.72
458.999	12491.93
459.204	14001.28
459.41	14693.49
459.616	14371.96
459.821	15111.28
460.027	15922.27
460.233	16452.7
460.438	16774.23
460.644	17620.04
460.85	17579.08
461.055	18447.42
461.261	19426.35
461.466	19102.77
461.672	19500.08
461.878	21441.55
462.083	21560.33
462.289	21961.73
462.494	22658.04
462.7	22725.63
462.905	23481.33
463.111	25254.87
463.316	26225.61
463.522	26584
463.727	27700.14
463.932	28986.27
464.138	29588.37
464.343	30804.86
464.549	30905.21
464.754	33200.99
464.959	33956.69
465.165	34589.51
465.37	34374.47
465.575	34560.84
465.781	36684.58
465.986	37624.6
466.191	37176.09
466.397	37565.21
466.602	36336.43
466.807	38552.33
467.012	39383.8
467.218	40157.94
467.423	40522.47
467.628	41003.75
467.833	43483.84
468.038	42435.28
468.244	41831.13
468.449	43524.8
468.654	42846.92
468.859	42891.97
469.064	42793.67
469.269	42179.28
469.474	42238.67
