Data from USB4F104151__86__10-34-33-834.txt Node

Date: Wed Feb 26 10:34:33 EST 2025
User: louis
Spectrometer: USB4F10415
Trigger mode: 4
Integration Time (sec): 1.000000E-1
Scans to average: 1
Electric dark correction enabled: true
Nonlinearity correction enabled: false
Boxcar width: 0
XAxis mode: Wavelengths
Number of Pixels in Spectrum: 3648
>>>>>Begin Spectral Data<<<<<
178.204	-376.66
178.424	-376.66
178.644	-376.66
178.864	-372.56
179.084	-376.66
179.304	-22.36
179.524	-87.89
179.744	-1.88
179.964	106.67
180.184	-1.88
180.404	61.61
180.624	-48.98
180.844	-51.03
181.064	-34.64
181.283	39.08
181.503	-22.36
181.723	63.66
181.943	-44.88
182.163	161.96
182.383	-34.64
182.602	88.23
182.822	94.38
183.042	59.56
183.262	-53.08
183.482	47.27
183.701	-18.26
183.921	88.23
184.141	-42.84
184.361	67.75
184.58	110.76
184.8	55.47
185.02	45.23
185.239	53.42
185.459	67.75
185.679	96.43
185.898	-87.89
186.118	-3.93
186.338	75.95
186.557	121
186.777	-5.97
186.997	-24.4
187.216	63.66
187.436	149.67
187.655	14.51
187.875	84.14
188.095	67.75
188.314	170.15
188.534	198.82
188.753	-34.64
188.973	26.79
189.192	219.3
189.412	63.66
189.631	55.47
189.851	100.52
190.07	170.15
190.29	-38.74
190.509	4.27
190.729	10.41
190.948	125.1
191.168	276.65
191.387	114.86
191.607	6.31
191.826	104.62
192.045	-42.84
192.265	-89.94
192.484	182.44
192.704	67.75
192.923	-16.21
193.142	178.34
193.362	116.9
193.581	123.05
193.8	30.89
194.02	110.76
194.239	18.6
194.458	147.62
194.678	0.17
194.897	-8.02
195.116	86.19
195.335	16.55
195.555	65.71
195.774	24.75
195.993	133.29
196.212	53.42
196.432	-28.5
196.651	8.36
196.87	0.17
197.089	178.34
197.308	45.23
197.528	151.72
197.747	10.41
197.966	61.61
198.185	86.19
198.404	49.32
198.623	90.28
198.842	188.58
199.062	69.8
199.281	159.91
199.5	2.22
199.719	75.95
199.938	65.71
200.157	41.13
200.376	106.67
200.595	153.77
200.814	51.37
201.033	-55.12
201.252	106.67
201.471	37.03
201.69	28.84
201.909	18.6
202.128	106.67
202.347	82.09
202.566	67.75
202.785	-55.12
203.004	43.18
203.223	280.74
203.442	20.65
203.661	-73.56
203.879	102.57
204.098	106.67
204.317	-59.22
204.536	110.76
204.755	131.24
204.974	182.44
205.193	8.36
205.411	139.43
205.63	61.61
205.849	-8.02
206.068	49.32
206.287	-44.88
206.505	125.1
206.724	67.75
206.943	-42.84
207.162	-10.07
207.381	86.19
207.599	12.46
207.818	49.32
208.037	20.65
208.255	-20.31
208.474	125.1
208.693	77.99
208.911	14.51
209.13	55.47
209.349	73.9
209.567	86.19
209.786	84.14
210.005	94.38
210.223	84.14
210.442	-75.6
210.661	-8.02
210.879	73.9
211.098	69.8
211.316	53.42
211.535	123.05
211.753	92.33
211.972	98.47
212.191	-34.64
212.409	22.7
212.628	180.39
212.846	-5.97
213.065	88.23
213.283	73.9
213.502	49.32
213.72	84.14
213.938	65.71
214.157	84.14
214.375	45.23
214.594	22.7
214.812	77.99
215.031	2.22
215.249	57.51
215.467	22.7
215.686	67.75
215.904	116.9
216.122	39.08
216.341	102.57
216.559	90.28
216.778	108.71
216.996	114.86
217.214	65.71
217.432	-34.64
217.651	41.13
217.869	-8.02
218.087	41.13
218.306	75.95
218.524	55.47
218.742	96.43
218.96	37.03
219.179	2.22
219.397	49.32
219.615	192.68
219.833	143.53
220.051	-10.07
220.27	129.19
220.488	151.72
220.706	55.47
220.924	34.99
221.142	10.41
221.36	84.14
221.578	59.56
221.796	39.08
222.015	53.42
222.233	157.86
222.451	235.69
222.669	-18.26
222.887	96.43
223.105	-26.45
223.323	-34.64
223.541	-12.12
223.759	88.23
223.977	37.03
224.195	135.34
224.413	139.43
224.631	110.76
224.849	14.51
225.067	229.54
225.285	24.75
225.503	69.8
225.721	-114.52
225.939	32.94
226.157	53.42
226.375	194.73
226.592	39.08
226.81	51.37
227.028	161.96
227.246	180.39
227.464	-12.12
227.682	57.51
227.9	98.47
228.117	129.19
228.335	65.71
228.553	94.38
228.771	108.71
228.989	73.9
229.206	24.75
229.424	6.31
229.642	-18.26
229.86	55.47
230.077	116.9
230.295	28.84
230.513	90.28
230.731	53.42
230.948	184.49
231.166	176.3
231.384	49.32
231.601	75.95
231.819	143.53
232.037	-32.6
232.254	-44.88
232.472	34.99
232.689	75.95
232.907	108.71
233.125	10.41
233.342	49.32
233.56	75.95
233.777	41.13
233.995	24.75
234.213	123.05
234.43	94.38
234.648	-46.93
234.865	-28.5
235.083	129.19
235.3	47.27
235.518	166.06
235.735	164.01
235.953	53.42
236.17	73.9
236.388	-36.69
236.605	0.17
236.822	141.48
237.04	166.06
237.257	104.62
237.475	22.7
237.692	43.18
237.909	104.62
238.127	34.99
238.344	88.23
238.562	34.99
238.779	82.09
238.996	-36.69
239.214	49.32
239.431	67.75
239.648	4.27
239.865	53.42
240.083	114.86
240.3	-81.75
240.517	-36.69
240.735	45.23
240.952	73.9
241.169	69.8
241.386	127.14
241.603	63.66
241.821	-51.03
242.038	92.33
242.255	77.99
242.472	-87.89
242.689	8.36
242.907	61.61
243.124	18.6
243.341	77.99
243.558	4.27
243.775	-38.74
243.992	-12.12
244.209	106.67
244.426	121
244.643	92.33
244.86	59.56
245.078	41.13
245.295	28.84
245.512	67.75
245.729	0.17
245.946	61.61
246.163	114.86
246.38	-85.84
246.597	84.14
246.814	106.67
247.031	-26.45
247.248	6.31
247.464	151.72
247.681	14.51
247.898	53.42
248.115	116.9
248.332	-61.27
248.549	121
248.766	137.38
248.983	69.8
249.2	63.66
249.417	127.14
249.633	14.51
249.85	61.61
250.067	92.33
250.284	45.23
250.501	67.75
250.717	34.99
250.934	-32.6
251.151	4.27
251.368	39.08
251.585	57.51
251.801	43.18
252.018	-40.79
252.235	100.52
252.451	39.08
252.668	39.08
252.885	80.04
253.102	53.42
253.318	-61.27
253.535	67.75
253.752	37.03
253.968	92.33
254.185	-32.6
254.401	45.23
254.618	102.57
254.835	69.8
255.051	219.3
255.268	129.19
255.484	12.46
255.701	53.42
255.917	137.38
256.134	-5.97
256.351	45.23
256.567	-32.6
256.784	22.7
257	-110.42
257.217	61.61
257.433	133.29
257.65	-1.88
257.866	125.1
258.082	-71.51
258.299	43.18
258.515	32.94
258.732	28.84
258.948	24.75
259.165	12.46
259.381	16.55
259.597	51.37
259.814	14.51
260.03	153.77
260.246	-20.31
260.463	145.58
260.679	63.66
260.895	59.56
261.112	51.37
261.328	-8.02
261.544	57.51
261.761	178.34
261.977	28.84
262.193	-61.27
262.409	39.08
262.626	98.47
262.842	49.32
263.058	67.75
263.274	110.76
263.49	114.86
263.707	86.19
263.923	49.32
264.139	-36.69
264.355	77.99
264.571	147.62
264.787	65.71
265.004	114.86
265.22	100.52
265.436	-46.93
265.652	73.9
265.868	30.89
266.084	-12.12
266.3	-44.88
266.516	26.79
266.732	-24.4
266.948	45.23
267.164	77.99
267.38	88.23
267.596	121
267.812	133.29
268.028	39.08
268.244	-1.88
268.46	80.04
268.676	12.46
268.892	84.14
269.108	8.36
269.324	-51.03
269.54	16.55
269.756	178.34
269.972	-38.74
270.188	20.65
270.403	-98.13
270.619	55.47
270.835	100.52
271.051	88.23
271.267	16.55
271.483	18.6
271.698	53.42
271.914	116.9
272.13	49.32
272.346	-10.07
272.562	8.36
272.777	215.21
272.993	73.9
273.209	-18.26
273.425	26.79
273.64	-8.02
273.856	114.86
274.072	-73.56
274.287	-20.31
274.503	80.04
274.719	61.61
274.934	53.42
275.15	-51.03
275.366	69.8
275.581	-48.98
275.797	49.32
276.012	-26.45
276.228	-16.21
276.444	10.41
276.659	88.23
276.875	6.31
277.09	94.38
277.306	98.47
277.521	96.43
277.737	90.28
277.952	133.29
278.168	43.18
278.383	10.41
278.599	20.65
278.814	53.42
279.03	49.32
279.245	121
279.461	8.36
279.676	61.61
279.892	-14.17
280.107	4.27
280.322	28.84
280.538	106.67
280.753	-28.5
280.969	49.32
281.184	18.6
281.399	157.86
281.615	14.51
281.83	123.05
282.045	-8.02
282.26	0.17
282.476	65.71
282.691	45.23
282.906	41.13
283.122	37.03
283.337	-32.6
283.552	90.28
283.767	30.89
283.983	102.57
284.198	20.65
284.413	-5.97
284.628	-34.64
284.843	112.81
285.058	61.61
285.274	73.9
285.489	20.65
285.704	92.33
285.919	2.22
286.134	49.32
286.349	37.03
286.564	-24.4
286.779	92.33
286.995	16.55
287.21	-55.12
287.425	131.24
287.64	59.56
287.855	116.9
288.07	-44.88
288.285	96.43
288.5	53.42
288.715	49.32
288.93	-73.56
289.145	-24.4
289.36	57.51
289.575	75.95
289.79	92.33
290.004	55.47
290.219	161.96
290.434	-20.31
290.649	12.46
290.864	61.61
291.079	8.36
291.294	61.61
291.509	106.67
291.724	-48.98
291.938	12.46
292.153	69.8
292.368	-61.27
292.583	69.8
292.798	133.29
293.012	82.09
293.227	104.62
293.442	2.22
293.657	108.71
293.871	92.33
294.086	-24.4
294.301	200.87
294.516	63.66
294.73	0.17
294.945	-22.36
295.16	131.24
295.374	151.72
295.589	114.86
295.804	51.37
296.018	12.46
296.233	57.51
296.447	18.6
296.662	32.94
296.877	121
297.091	82.09
297.306	69.8
297.52	-34.64
297.735	114.86
297.949	100.52
298.164	39.08
298.378	63.66
298.593	-3.93
298.807	45.23
299.022	84.14
299.236	110.76
299.451	2.22
299.665	0.17
299.88	106.67
300.094	67.75
300.309	8.36
300.523	80.04
300.737	26.79
300.952	84.14
301.166	80.04
301.381	8.36
301.595	16.55
301.809	24.75
302.024	-32.6
302.238	-34.64
302.452	168.1
302.667	14.51
302.881	63.66
303.095	84.14
303.309	67.75
303.524	32.94
303.738	30.89
303.952	-16.21
304.166	123.05
304.381	-94.04
304.595	172.2
304.809	57.51
305.023	65.71
305.237	61.61
305.452	16.55
305.666	73.9
305.88	63.66
306.094	98.47
306.308	67.75
306.522	151.72
306.736	104.62
306.95	133.29
307.164	39.08
307.379	-3.93
307.593	102.57
307.807	51.37
308.021	71.85
308.235	135.34
308.449	-81.75
308.663	16.55
308.877	221.35
309.091	116.9
309.305	131.24
309.519	-116.56
309.733	164.01
309.947	-104.28
310.161	96.43
310.374	94.38
310.588	182.44
310.802	-38.74
311.016	41.13
311.23	30.89
311.444	34.99
311.658	104.62
311.872	108.71
312.085	84.14
312.299	166.06
312.513	108.71
312.727	82.09
312.941	-81.75
313.154	75.95
313.368	94.38
313.582	106.67
313.796	71.85
314.009	18.6
314.223	141.48
314.437	86.19
314.651	59.56
314.864	-32.6
315.078	43.18
315.292	-73.56
315.505	-3.93
315.719	149.67
315.933	67.75
316.146	22.7
316.36	-71.51
316.573	123.05
316.787	149.67
317.001	133.29
317.214	18.6
317.428	45.23
317.641	-67.41
317.855	14.51
318.068	59.56
318.282	59.56
318.495	202.92
318.709	12.46
318.922	-26.45
319.136	172.2
319.349	112.81
319.563	-3.93
319.776	151.72
319.99	-18.26
320.203	135.34
320.417	2.22
320.63	96.43
320.843	284.84
321.057	63.66
321.27	-20.31
321.483	161.96
321.697	172.2
321.91	114.86
322.124	63.66
322.337	69.8
322.55	-18.26
322.763	63.66
322.977	92.33
323.19	45.23
323.403	43.18
323.617	-3.93
323.83	125.1
324.043	123.05
324.256	118.95
324.469	-89.94
324.683	110.76
324.896	49.32
325.109	-5.97
325.322	-100.18
325.535	139.43
325.748	149.67
325.962	108.71
326.175	47.27
326.388	108.71
326.601	53.42
326.814	4.27
327.027	-1.88
327.24	200.87
327.453	-42.84
327.666	16.55
327.879	155.82
328.092	57.51
328.305	149.67
328.518	55.47
328.731	-73.56
328.944	28.84
329.157	86.19
329.37	47.27
329.583	231.59
329.796	202.92
330.009	-83.8
330.222	57.51
330.435	131.24
330.648	37.03
330.861	16.55
331.073	4.27
331.286	59.56
331.499	123.05
331.712	-20.31
331.925	2.22
332.138	24.75
332.35	112.81
332.563	0.17
332.776	118.95
332.989	-28.5
333.202	45.23
333.414	49.32
333.627	49.32
333.84	28.84
334.053	-3.93
334.265	82.09
334.478	20.65
334.691	39.08
334.903	37.03
335.116	-18.26
335.329	8.36
335.541	73.9
335.754	141.48
335.966	112.81
336.179	18.6
336.392	92.33
336.604	-1.88
336.817	143.53
337.029	37.03
337.242	63.66
337.454	57.51
337.667	0.17
337.88	141.48
338.092	121
338.305	100.52
338.517	69.8
338.729	106.67
338.942	108.71
339.154	-73.56
339.367	-69.46
339.579	-3.93
339.792	-73.56
340.004	63.66
340.217	82.09
340.429	45.23
340.641	16.55
340.854	-69.46
341.066	37.03
341.278	106.67
341.491	137.38
341.703	84.14
341.915	-36.69
342.128	145.58
342.34	8.36
342.552	4.27
342.764	51.37
342.977	26.79
343.189	161.96
343.401	86.19
343.613	-34.64
343.826	20.65
344.038	75.95
344.25	159.91
344.462	28.84
344.674	53.42
344.886	24.75
345.099	57.51
345.311	104.62
345.523	37.03
345.735	0.17
345.947	34.99
346.159	57.51
346.371	2.22
346.583	18.6
346.795	176.3
347.007	8.36
347.219	51.37
347.431	37.03
347.643	131.24
347.855	0.17
348.067	211.11
348.279	-38.74
348.491	2.22
348.703	98.47
348.915	-16.21
349.127	18.6
349.339	67.75
349.551	28.84
349.763	100.52
349.975	80.04
350.187	51.37
350.399	121
350.61	114.86
350.822	-3.93
351.034	114.86
351.246	49.32
351.458	39.08
351.669	75.95
351.881	118.95
352.093	94.38
352.305	104.62
352.517	57.51
352.728	121
352.94	57.51
353.152	61.61
353.363	-8.02
353.575	24.75
353.787	161.96
353.999	98.47
354.21	196.78
354.422	-18.26
354.633	8.36
354.845	-5.97
355.057	39.08
355.268	92.33
355.48	59.56
355.692	-28.5
355.903	6.31
356.115	-22.36
356.326	-73.56
356.538	192.68
356.749	100.52
356.961	121
357.172	73.9
357.384	2.22
357.595	159.91
357.807	86.19
358.018	-61.27
358.23	137.38
358.441	143.53
358.653	104.62
358.864	24.75
359.075	-30.55
359.287	14.51
359.498	123.05
359.709	71.85
359.921	116.9
360.132	39.08
360.344	77.99
360.555	37.03
360.766	123.05
360.977	-10.07
361.189	110.76
361.4	75.95
361.611	137.38
361.823	164.01
362.034	102.57
362.245	-89.94
362.456	-36.69
362.667	69.8
362.879	-10.07
363.09	6.31
363.301	65.71
363.512	49.32
363.723	47.27
363.935	-26.45
364.146	75.95
364.357	-57.17
364.568	88.23
364.779	-28.5
364.99	133.29
365.201	4.27
365.412	151.72
365.623	-22.36
365.834	123.05
366.045	45.23
366.256	41.13
366.467	55.47
366.678	47.27
366.889	10.41
367.1	30.89
367.311	168.1
367.522	45.23
367.733	157.86
367.944	34.99
368.155	16.55
368.366	168.1
368.577	106.67
368.788	151.72
368.999	-1.88
369.209	102.57
369.42	204.97
369.631	215.21
369.842	51.37
370.053	-22.36
370.264	63.66
370.474	-40.79
370.685	112.81
370.896	-14.17
371.107	190.63
371.317	61.61
371.528	-18.26
371.739	161.96
371.95	41.13
372.16	63.66
372.371	-44.88
372.582	8.36
372.792	6.31
373.003	20.65
373.214	77.99
373.424	45.23
373.635	-59.22
373.846	61.61
374.056	77.99
374.267	65.71
374.477	4.27
374.688	12.46
374.898	143.53
375.109	166.06
375.319	24.75
375.53	71.85
375.74	137.38
375.951	4.27
376.161	67.75
376.372	131.24
376.582	-26.45
376.793	73.9
377.003	18.6
377.214	53.42
377.424	155.82
377.635	92.33
377.845	-22.36
378.055	157.86
378.266	16.55
378.476	2.22
378.686	30.89
378.897	123.05
379.107	159.91
379.317	149.67
379.528	96.43
379.738	147.62
379.948	-12.12
380.158	123.05
380.369	71.85
380.579	51.37
380.789	-67.41
380.999	51.37
381.21	102.57
381.42	145.58
381.63	49.32
381.84	41.13
382.05	14.51
382.261	98.47
382.471	125.1
382.681	30.89
382.891	180.39
383.101	55.47
383.311	-81.75
383.521	-44.88
383.731	92.33
383.941	73.9
384.151	69.8
384.361	112.81
384.571	59.56
384.781	59.56
384.991	233.64
385.201	80.04
385.411	129.19
385.621	118.95
385.831	18.6
386.041	26.79
386.251	18.6
386.461	143.53
386.671	20.65
386.881	86.19
387.091	73.9
387.301	116.9
387.511	65.71
387.72	127.14
387.93	135.34
388.14	-61.27
388.35	39.08
388.56	133.29
388.769	80.04
388.979	20.65
389.189	-5.97
389.399	30.89
389.609	88.23
389.818	133.29
390.028	84.14
390.238	98.47
390.447	-46.93
390.657	100.52
390.867	-53.08
391.076	-94.04
391.286	80.04
391.496	26.79
391.705	47.27
391.915	141.48
392.125	75.95
392.334	-12.12
392.544	88.23
392.753	45.23
392.963	-69.46
393.172	39.08
393.382	24.75
393.591	184.49
393.801	16.55
394.01	121
394.22	114.86
394.429	26.79
394.639	37.03
394.848	104.62
395.058	-14.17
395.267	2.22
395.477	180.39
395.686	47.27
395.895	151.72
396.105	194.73
396.314	69.8
396.524	69.8
396.733	-22.36
396.942	116.9
397.152	106.67
397.361	90.28
397.57	37.03
397.78	43.18
397.989	102.57
398.198	192.68
398.407	92.33
398.617	43.18
398.826	45.23
399.035	-26.45
399.244	116.9
399.453	69.8
399.663	-24.4
399.872	86.19
400.081	-96.08
400.29	100.52
400.499	-3.93
400.708	82.09
400.917	0.17
401.127	59.56
401.336	-46.93
401.545	215.21
401.754	102.57
401.963	153.77
402.172	10.41
402.381	30.89
402.59	26.79
402.799	26.79
403.008	30.89
403.217	45.23
403.426	123.05
403.635	-36.69
403.844	16.55
404.053	26.79
404.262	-42.84
404.471	157.86
404.68	10.41
404.888	73.9
405.097	71.85
405.306	39.08
405.515	100.52
405.724	55.47
405.933	110.76
406.142	10.41
406.35	145.58
406.559	20.65
406.768	69.8
406.977	202.92
407.185	55.47
407.394	98.47
407.603	-57.17
407.812	88.23
408.02	114.86
408.229	4.27
408.438	57.51
408.646	-63.32
408.855	61.61
409.064	108.71
409.272	114.86
409.481	51.37
409.69	51.37
409.898	-48.98
410.107	90.28
410.315	-20.31
410.524	-14.17
410.733	88.23
410.941	47.27
411.15	45.23
411.358	-10.07
411.567	188.58
411.775	41.13
411.984	12.46
412.192	57.51
412.401	51.37
412.609	188.58
412.818	127.14
413.026	57.51
413.234	65.71
413.443	0.17
413.651	-26.45
413.86	-10.07
414.068	188.58
414.276	204.97
414.485	-3.93
414.693	125.1
414.901	207.02
415.11	104.62
415.318	71.85
415.526	34.99
415.734	73.9
415.943	41.13
416.151	90.28
416.359	63.66
416.567	34.99
416.776	82.09
416.984	57.51
417.192	190.63
417.4	67.75
417.608	-94.04
417.817	55.47
418.025	102.57
418.233	178.34
418.441	24.75
418.649	10.41
418.857	100.52
419.065	159.91
419.273	18.6
419.481	73.9
419.689	65.71
419.897	-10.07
420.105	-1.88
420.313	164.01
420.521	114.86
420.729	151.72
420.937	-53.08
421.145	-46.93
421.353	22.7
421.561	123.05
421.769	129.19
421.977	-30.55
422.185	73.9
422.393	96.43
422.601	155.82
422.809	92.33
423.017	6.31
423.224	139.43
423.432	108.71
423.64	71.85
423.848	41.13
424.056	-30.55
424.263	110.76
424.471	37.03
424.679	143.53
424.887	10.41
425.094	63.66
425.302	77.99
425.51	-36.69
425.718	57.51
425.925	84.14
426.133	14.51
426.341	235.69
426.548	18.6
426.756	-10.07
426.964	4.27
427.171	-1.88
427.379	127.14
427.586	135.34
427.794	26.79
428.001	145.58
428.209	106.67
428.417	204.97
428.624	143.53
428.832	55.47
429.039	135.34
429.247	75.95
429.454	176.3
429.662	139.43
429.869	55.47
430.076	94.38
430.284	106.67
430.491	180.39
430.699	43.18
430.906	149.67
431.114	98.47
431.321	98.47
431.528	32.94
431.736	123.05
431.943	155.82
432.15	143.53
432.358	157.86
432.565	143.53
432.772	18.6
432.979	114.86
433.187	73.9
433.394	161.96
433.601	65.71
433.808	131.24
434.016	209.06
434.223	268.45
434.43	198.82
434.637	137.38
434.844	92.33
435.052	143.53
435.259	184.49
435.466	176.3
435.673	211.11
435.88	243.88
436.087	284.84
436.294	164.01
436.501	266.41
436.708	223.4
436.915	176.3
437.122	188.58
437.329	172.2
437.537	157.86
437.743	90.28
437.95	333.99
438.157	252.07
438.364	194.73
438.571	290.98
438.778	315.56
438.985	215.21
439.192	297.13
439.399	327.85
439.606	319.65
439.813	366.76
440.02	368.81
440.227	438.44
440.433	417.96
440.64	331.94
440.847	297.13
441.054	344.23
441.261	442.53
441.467	297.13
441.674	295.08
441.881	483.49
442.088	346.28
442.294	426.15
442.501	456.87
442.708	555.17
442.914	477.35
443.121	436.39
443.328	469.16
443.534	612.51
443.741	526.5
443.948	454.82
444.154	508.07
444.361	731.3
444.568	663.71
444.774	696.48
444.981	551.07
445.187	729.25
445.394	663.71
445.6	641.18
445.807	805.02
446.013	659.62
446.22	692.38
446.426	823.45
446.633	905.37
446.839	1034.39
447.046	805.02
447.252	1058.97
447.459	954.52
447.665	1040.54
447.871	1050.78
448.078	1147.03
448.284	1192.09
448.491	1208.47
448.697	1327.25
448.903	1302.68
449.11	1390.74
449.316	1202.33
449.522	1280.15
449.728	1437.84
449.935	1388.69
450.141	1466.52
450.347	1605.78
450.553	1558.67
450.76	1693.84
450.966	1724.56
451.172	1802.38
451.378	1876.11
451.584	1892.49
451.791	2039.95
451.997	2078.86
452.203	2123.91
452.409	2318.47
452.615	2347.14
452.821	2175.11
453.027	2240.65
453.233	2623.62
453.44	2453.64
453.646	2650.24
453.852	2703.49
454.058	2893.95
454.264	2875.52
454.47	3127.42
454.676	3170.43
454.882	3426.42
455.088	3221.63
455.294	3317.88
455.5	3717.23
455.705	3893.36
455.911	3733.62
456.117	3977.33
456.323	4151.4
456.529	4114.54
456.735	4364.39
456.941	4567.14
457.147	4753.51
457.352	4786.27
457.558	4898.91
457.764	5271.64
457.97	5539.93
458.176	5644.37
458.381	5933.14
458.587	5945.42
458.793	6348.87
458.999	6430.79
459.204	7114.81
459.41	7540.79
459.616	7118.91
459.821	7907.38
460.027	7952.43
460.233	8382.51
460.438	8607.78
460.644	8986.66
460.85	9007.14
461.055	9467.93
461.261	9885.72
461.466	9629.72
461.672	10010.64
461.878	10956.8
462.083	10690.57
462.289	11005.95
462.494	11489.28
462.7	11550.71
462.905	11497.47
463.111	12728.3
463.316	13221.86
463.522	13516.76
463.727	14045.14
463.932	14641.1
464.138	14899.14
464.343	15591.36
464.549	15890.36
464.754	16742.32
464.959	17270.69
465.165	17362.85
465.37	17543.07
465.575	17381.28
465.781	18677.65
465.986	19117.96
466.191	18745.23
466.397	18952.07
466.602	18483.09
466.807	19681.15
467.012	19855.23
467.218	20549.49
467.423	20496.24
467.628	21041
467.833	21999.45
468.038	21356.39
468.244	21049.19
468.449	22366.04
468.654	21731.17
468.859	21892.96
469.064	22081.37
469.269	21378.92
