Data from USB4F104151__74__11-31-05-364.txt Node

Date: Wed Feb 26 11:31:05 EST 2025
User: louis
Spectrometer: USB4F10415
Trigger mode: 4
Integration Time (sec): 1.000000E-1
Scans to average: 1
Electric dark correction enabled: true
Nonlinearity correction enabled: false
Boxcar width: 0
XAxis mode: Wavelengths
Number of Pixels in Spectrum: 3648
>>>>>Begin Spectral Data<<<<<
178.204	-437.58
178.424	-437.58
178.644	-437.58
178.864	-415.05
179.084	-413.01
179.304	43.69
179.524	-15.7
179.744	-21.84
179.964	64.17
180.184	12.97
180.404	86.7
180.624	-81.24
180.844	-40.28
181.064	-66.9
181.283	-42.32
181.503	-23.89
181.723	84.65
181.943	-79.19
182.163	236.2
182.383	-36.18
182.602	105.13
182.822	125.61
183.042	58.03
183.262	51.88
183.482	12.97
183.701	31.4
183.921	4.78
184.141	-7.51
184.361	96.94
184.58	92.84
184.8	37.55
185.02	-7.51
185.239	154.28
185.459	80.55
185.679	80.55
185.898	-50.52
186.118	35.5
186.338	96.94
186.557	219.82
186.777	-32.08
186.997	-7.51
187.216	37.55
187.436	178.86
187.655	148.14
187.875	55.98
188.095	-19.8
188.314	154.28
188.534	119.46
188.753	-60.76
188.973	103.08
189.192	103.08
189.412	-50.52
189.631	-3.41
189.851	45.74
190.07	238.25
190.29	-46.42
190.509	25.26
190.729	68.27
190.948	133.8
191.168	307.88
191.387	88.75
191.607	45.74
191.826	-25.94
192.045	15.02
192.265	-5.46
192.484	115.37
192.704	41.64
192.923	21.16
193.142	180.9
193.362	96.94
193.581	105.13
193.8	25.26
194.02	90.79
194.239	49.83
194.458	64.17
194.678	-11.61
194.897	8.87
195.116	58.03
195.335	88.75
195.555	127.66
195.774	-30.04
195.993	80.55
196.212	45.74
196.432	33.45
196.651	17.07
196.87	33.45
197.089	244.39
197.308	55.98
197.528	92.84
197.747	-32.08
197.966	70.31
198.185	72.36
198.404	-34.13
198.623	146.09
198.842	121.51
199.062	60.07
199.281	117.42
199.5	-36.18
199.719	144.04
199.938	47.79
200.157	80.55
200.376	103.08
200.595	82.6
200.814	101.03
201.033	-3.41
201.252	144.04
201.471	111.27
201.69	123.56
201.909	21.16
202.128	158.38
202.347	174.76
202.566	31.4
202.785	-17.75
203.004	12.97
203.223	246.44
203.442	25.26
203.661	-36.18
203.879	19.11
204.098	115.37
204.317	74.41
204.536	125.61
204.755	31.4
204.974	133.8
205.193	-9.56
205.411	144.04
205.63	131.75
205.849	84.65
206.068	2.73
206.287	-3.41
206.505	180.9
206.724	51.88
206.943	-23.89
207.162	6.83
207.381	53.93
207.599	72.36
207.818	-1.37
208.037	-48.47
208.255	39.59
208.474	107.18
208.693	103.08
208.911	58.03
209.13	121.51
209.349	94.89
209.567	58.03
209.786	103.08
210.005	131.75
210.223	68.27
210.442	-81.24
210.661	49.83
210.879	105.13
211.098	31.4
211.316	84.65
211.535	96.94
211.753	94.89
211.972	90.79
212.191	62.12
212.409	-40.28
212.628	189.1
212.846	21.16
213.065	160.42
213.283	66.22
213.502	82.6
213.72	43.69
213.938	55.98
214.157	66.22
214.375	119.46
214.594	53.93
214.812	43.69
215.031	-36.18
215.249	105.13
215.467	60.07
215.686	29.35
215.904	62.12
216.122	-11.61
216.341	240.3
216.559	45.74
216.778	119.46
216.996	121.51
217.214	-32.08
217.432	27.31
217.651	-25.94
217.869	90.79
218.087	27.31
218.306	133.8
218.524	82.6
218.742	-42.32
218.96	129.7
219.179	-48.47
219.397	-1.37
219.615	242.34
219.833	115.37
220.051	-64.85
220.27	105.13
220.488	43.69
220.706	101.03
220.924	58.03
221.142	17.07
221.36	150.18
221.578	51.88
221.796	-15.7
222.015	66.22
222.233	31.4
222.451	152.23
222.669	-36.18
222.887	129.7
223.105	-97.62
223.323	-9.56
223.541	-83.28
223.759	92.84
223.977	-11.61
224.195	180.9
224.413	135.85
224.631	74.41
224.849	70.31
225.067	219.82
225.285	-13.65
225.503	31.4
225.721	-130.39
225.939	119.46
226.157	109.23
226.375	232.1
226.592	29.35
226.81	29.35
227.028	49.83
227.246	135.85
227.464	111.27
227.682	98.99
227.9	123.56
228.117	70.31
228.335	133.8
228.553	-15.7
228.771	80.55
228.989	72.36
229.206	78.51
229.424	-25.94
229.642	-21.84
229.86	-50.52
230.077	152.23
230.295	98.99
230.513	82.6
230.731	135.85
230.948	197.29
231.166	123.56
231.384	58.03
231.601	17.07
231.819	160.42
232.037	8.87
232.254	68.27
232.472	8.87
232.689	31.4
232.907	176.81
233.125	21.16
233.342	-105.81
233.56	-50.52
233.777	-25.94
233.995	92.84
234.213	139.94
234.43	113.32
234.648	15.02
234.865	51.88
235.083	37.55
235.3	80.55
235.518	88.75
235.735	76.46
235.953	129.7
236.17	29.35
236.388	25.26
236.605	10.92
236.822	94.89
237.04	101.03
237.257	103.08
237.475	21.16
237.692	15.02
237.909	74.41
238.127	47.79
238.344	23.21
238.562	47.79
238.779	-27.99
238.996	6.83
239.214	37.55
239.431	123.56
239.648	31.4
239.865	90.79
240.083	92.84
240.3	0.68
240.517	-36.18
240.735	6.83
240.952	119.46
241.169	64.17
241.386	-7.51
241.603	19.11
241.821	-48.47
242.038	88.75
242.255	74.41
242.472	-17.75
242.689	94.89
242.907	113.32
243.124	76.46
243.341	-9.56
243.558	2.73
243.775	-95.57
243.992	-23.89
244.209	127.66
244.426	158.38
244.643	60.07
244.86	23.21
245.078	115.37
245.295	64.17
245.512	8.87
245.729	-21.84
245.946	62.12
246.163	43.69
246.38	39.59
246.597	80.55
246.814	-9.56
247.031	109.23
247.248	-13.65
247.464	180.9
247.681	35.5
247.898	-9.56
248.115	168.62
248.332	37.55
248.549	133.8
248.766	223.91
248.983	70.31
249.2	98.99
249.417	92.84
249.633	17.07
249.85	92.84
250.067	74.41
250.284	90.79
250.501	55.98
250.717	27.31
250.934	6.83
251.151	15.02
251.368	80.55
251.585	10.92
251.801	-3.41
252.018	10.92
252.235	90.79
252.451	-56.66
252.668	-17.75
252.885	152.23
253.102	70.31
253.318	-11.61
253.535	-3.41
253.752	74.41
253.968	0.68
254.185	-15.7
254.401	47.79
254.618	113.32
254.835	17.07
255.051	121.51
255.268	37.55
255.484	33.45
255.701	88.75
255.917	68.27
256.134	19.11
256.351	33.45
256.567	-101.72
256.784	84.65
257	-56.66
257.217	35.5
257.433	96.94
257.65	12.97
257.866	109.23
258.082	-54.61
258.299	-3.41
258.515	72.36
258.732	51.88
258.948	-3.41
259.165	43.69
259.381	31.4
259.597	101.03
259.814	33.45
260.03	33.45
260.246	23.21
260.463	144.04
260.679	43.69
260.895	68.27
261.112	39.59
261.328	107.18
261.544	15.02
261.761	180.9
261.977	-13.65
262.193	6.83
262.409	150.18
262.626	47.79
262.842	62.12
263.058	-38.23
263.274	68.27
263.49	58.03
263.707	-3.41
263.923	55.98
264.139	-105.81
264.355	51.88
264.571	150.18
264.787	60.07
265.004	90.79
265.22	17.07
265.436	49.83
265.652	33.45
265.868	70.31
266.084	37.55
266.3	96.94
266.516	37.55
266.732	53.93
266.948	115.37
267.164	-27.99
267.38	47.79
267.596	78.51
267.812	105.13
268.028	25.26
268.244	8.87
268.46	-17.75
268.676	-46.42
268.892	23.21
269.108	-13.65
269.324	-34.13
269.54	-46.42
269.756	19.11
269.972	-48.47
270.188	31.4
270.403	-13.65
270.619	-9.56
270.835	47.79
271.051	-1.37
271.267	-50.52
271.483	-19.8
271.698	19.11
271.914	53.93
272.13	66.22
272.346	39.59
272.562	49.83
272.777	72.36
272.993	41.64
273.209	-36.18
273.425	51.88
273.64	-32.08
273.856	70.31
274.072	-7.51
274.287	53.93
274.503	37.55
274.719	141.99
274.934	35.5
275.15	-85.33
275.366	-32.08
275.581	53.93
275.797	41.64
276.012	-3.41
276.228	-25.94
276.444	39.59
276.659	125.61
276.875	-21.84
277.09	35.5
277.306	92.84
277.521	49.83
277.737	39.59
277.952	82.6
278.168	27.31
278.383	-11.61
278.599	27.31
278.814	111.27
279.03	-7.51
279.245	103.08
279.461	64.17
279.676	55.98
279.892	-68.95
280.107	41.64
280.322	29.35
280.538	66.22
280.753	66.22
280.969	92.84
281.184	105.13
281.399	92.84
281.615	49.83
281.83	78.51
282.045	0.68
282.26	55.98
282.476	33.45
282.691	182.95
282.906	45.74
283.122	78.51
283.337	-9.56
283.552	68.27
283.767	49.83
283.983	94.89
284.198	-25.94
284.413	92.84
284.628	-46.42
284.843	27.31
285.058	178.86
285.274	47.79
285.489	-60.76
285.704	152.23
285.919	21.16
286.134	-75.09
286.349	98.99
286.564	6.83
286.779	90.79
286.995	-19.8
287.21	6.83
287.425	39.59
287.64	31.4
287.855	64.17
288.07	-30.04
288.285	121.51
288.5	109.23
288.715	39.59
288.93	62.12
289.145	68.27
289.36	191.14
289.575	27.31
289.79	170.66
290.004	139.94
290.219	76.46
290.434	21.16
290.649	70.31
290.864	43.69
291.079	58.03
291.294	31.4
291.509	-3.41
291.724	39.59
291.938	37.55
292.153	-15.7
292.368	10.92
292.583	29.35
292.798	35.5
293.012	86.7
293.227	68.27
293.442	-9.56
293.657	111.27
293.871	150.18
294.086	103.08
294.301	137.9
294.516	92.84
294.73	94.89
294.945	6.83
295.16	-21.84
295.374	137.9
295.589	58.03
295.804	43.69
296.018	62.12
296.233	105.13
296.447	72.36
296.662	-27.99
296.877	185
297.091	55.98
297.306	37.55
297.52	10.92
297.735	78.51
297.949	-15.7
298.164	23.21
298.378	39.59
298.593	-66.9
298.807	-38.23
299.022	33.45
299.236	176.81
299.451	53.93
299.665	-34.13
299.88	-15.7
300.094	92.84
300.309	37.55
300.523	154.28
300.737	-21.84
300.952	43.69
301.166	86.7
301.381	-25.94
301.595	17.07
301.809	41.64
302.024	-1.37
302.238	-44.37
302.452	160.42
302.667	105.13
302.881	74.41
303.095	174.76
303.309	103.08
303.524	68.27
303.738	21.16
303.952	-5.46
304.166	62.12
304.381	-142.68
304.595	176.81
304.809	25.26
305.023	119.46
305.237	4.78
305.452	-1.37
305.666	96.94
305.88	131.75
306.094	131.75
306.308	27.31
306.522	74.41
306.736	86.7
306.95	115.37
307.164	88.75
307.379	-13.65
307.593	213.67
307.807	141.99
308.021	154.28
308.235	84.65
308.449	-83.28
308.663	23.21
308.877	211.62
309.091	12.97
309.305	105.13
309.519	-77.14
309.733	109.23
309.947	0.68
310.161	-7.51
310.374	111.27
310.588	66.22
310.802	-36.18
311.016	-36.18
311.23	96.94
311.444	-15.7
311.658	31.4
311.872	125.61
312.085	35.5
312.299	125.61
312.513	107.18
312.727	23.21
312.941	-91.48
313.154	53.93
313.368	21.16
313.582	45.74
313.796	-30.04
314.009	25.26
314.223	137.9
314.437	12.97
314.651	101.03
314.864	-44.37
315.078	-34.13
315.292	-17.75
315.505	-40.28
315.719	49.83
315.933	88.75
316.146	-5.46
316.36	-38.23
316.573	37.55
316.787	119.46
317.001	-1.37
317.214	-25.94
317.428	41.64
317.641	33.45
317.855	41.64
318.068	-60.76
318.282	-1.37
318.495	152.23
318.709	123.56
318.922	4.78
319.136	115.37
319.349	115.37
319.563	17.07
319.776	74.41
319.99	-64.85
320.203	103.08
320.417	31.4
320.63	109.23
320.843	139.94
321.057	8.87
321.27	-1.37
321.483	131.75
321.697	137.9
321.91	68.27
322.124	119.46
322.337	109.23
322.55	-21.84
322.763	47.79
322.977	-40.28
323.19	-27.99
323.403	-32.08
323.617	84.65
323.83	129.7
324.043	-50.52
324.256	92.84
324.469	-34.13
324.683	80.55
324.896	49.83
325.109	41.64
325.322	-81.24
325.535	119.46
325.748	17.07
325.962	4.78
326.175	103.08
326.388	129.7
326.601	135.85
326.814	41.64
327.027	55.98
327.24	187.05
327.453	-68.95
327.666	12.97
327.879	133.8
328.092	51.88
328.305	51.88
328.518	51.88
328.731	35.5
328.944	4.78
329.157	-3.41
329.37	51.88
329.583	123.56
329.796	109.23
330.009	-19.8
330.222	62.12
330.435	152.23
330.648	-7.51
330.861	53.93
331.073	41.64
331.286	150.18
331.499	70.31
331.712	-75.09
331.925	21.16
332.138	70.31
332.35	86.7
332.563	-46.42
332.776	137.9
332.989	-54.61
333.202	37.55
333.414	41.64
333.627	39.59
333.84	41.64
334.053	15.02
334.265	-50.52
334.478	4.78
334.691	33.45
334.903	62.12
335.116	8.87
335.329	-5.46
335.541	51.88
335.754	115.37
335.966	-56.66
336.179	-19.8
336.392	92.84
336.604	-11.61
336.817	105.13
337.029	119.46
337.242	21.16
337.454	58.03
337.667	84.65
337.88	129.7
338.092	0.68
338.305	37.55
338.517	29.35
338.729	141.99
338.942	150.18
339.154	-17.75
339.367	-124.24
339.579	76.46
339.792	-21.84
340.004	76.46
340.217	-36.18
340.429	60.07
340.641	-101.72
340.854	86.7
341.066	94.89
341.278	121.51
341.491	119.46
341.703	-5.46
341.915	10.92
342.128	31.4
342.34	72.36
342.552	35.5
342.764	12.97
342.977	6.83
343.189	105.13
343.401	35.5
343.613	4.78
343.826	43.69
344.038	21.16
344.25	21.16
344.462	55.98
344.674	45.74
344.886	23.21
345.099	55.98
345.311	21.16
345.523	10.92
345.735	-66.9
345.947	86.7
346.159	86.7
346.371	72.36
346.583	84.65
346.795	195.24
347.007	-19.8
347.219	92.84
347.431	-36.18
347.643	123.56
347.855	-44.37
348.067	125.61
348.279	-48.47
348.491	78.51
348.703	96.94
348.915	0.68
349.127	51.88
349.339	35.5
349.551	-15.7
349.763	121.51
349.975	35.5
350.187	123.56
350.399	158.38
350.61	88.75
350.822	39.59
351.034	10.92
351.246	72.36
351.458	107.18
351.669	68.27
351.881	90.79
352.093	78.51
352.305	148.14
352.517	53.93
352.728	131.75
352.94	113.32
353.152	33.45
353.363	-13.65
353.575	111.27
353.787	266.92
353.999	62.12
354.21	146.09
354.422	-21.84
354.633	15.02
354.845	60.07
355.057	-30.04
355.268	80.55
355.48	37.55
355.692	-38.23
355.903	10.92
356.115	-36.18
356.326	-138.58
356.538	80.55
356.749	55.98
356.961	150.18
357.172	33.45
357.384	4.78
357.595	213.67
357.807	-13.65
358.018	-11.61
358.23	37.55
358.441	203.43
358.653	88.75
358.864	17.07
359.075	-15.7
359.287	111.27
359.498	90.79
359.709	119.46
359.921	47.79
360.132	23.21
360.344	-30.04
360.555	-77.14
360.766	60.07
360.977	27.31
361.189	156.33
361.4	76.46
361.611	185
361.823	164.52
362.034	76.46
362.245	-87.38
362.456	37.55
362.667	62.12
362.879	-38.23
363.09	117.42
363.301	88.75
363.512	88.75
363.723	2.73
363.935	-30.04
364.146	133.8
364.357	74.41
364.568	-21.84
364.779	8.87
364.99	123.56
365.201	12.97
365.412	121.51
365.623	8.87
365.834	70.31
366.045	17.07
366.256	82.6
366.467	66.22
366.678	-54.61
366.889	60.07
367.1	-5.46
367.311	66.22
367.522	-40.28
367.733	72.36
367.944	80.55
368.155	21.16
368.366	84.65
368.577	117.42
368.788	86.7
368.999	-19.8
369.209	8.87
369.42	199.34
369.631	258.73
369.842	58.03
370.053	37.55
370.264	119.46
370.474	-9.56
370.685	47.79
370.896	70.31
371.107	96.94
371.317	64.17
371.528	105.13
371.739	86.7
371.95	64.17
372.16	90.79
372.371	10.92
372.582	25.26
372.792	88.75
373.003	72.36
373.214	172.71
373.424	94.89
373.635	-32.08
373.846	207.53
374.056	60.07
374.267	35.5
374.477	117.42
374.688	-19.8
374.898	51.88
375.109	45.74
375.319	98.99
375.53	191.14
375.74	189.1
375.951	-3.41
376.161	94.89
376.372	121.51
376.582	64.17
376.793	78.51
377.003	0.68
377.214	12.97
377.424	82.6
377.635	135.85
377.845	-60.76
378.055	94.89
378.266	25.26
378.476	39.59
378.686	23.21
378.897	41.64
379.107	125.61
379.317	115.37
379.528	-7.51
379.738	55.98
379.948	-9.56
380.158	129.7
380.369	55.98
380.579	105.13
380.789	21.16
380.999	4.78
381.21	96.94
381.42	129.7
381.63	-15.7
381.84	76.46
382.05	82.6
382.261	182.95
382.471	90.79
382.681	60.07
382.891	166.57
383.101	45.74
383.311	-99.67
383.521	-7.51
383.731	-44.37
383.941	127.66
384.151	-36.18
384.361	39.59
384.571	66.22
384.781	66.22
384.991	219.82
385.201	180.9
385.411	64.17
385.621	29.35
385.831	47.79
386.041	35.5
386.251	82.6
386.461	84.65
386.671	37.55
386.881	58.03
387.091	45.74
387.301	84.65
387.511	72.36
387.72	33.45
387.93	101.03
388.14	-27.99
388.35	60.07
388.56	80.55
388.769	180.9
388.979	41.64
389.189	-17.75
389.399	80.55
389.609	47.79
389.818	90.79
390.028	35.5
390.238	109.23
390.447	-32.08
390.657	47.79
390.867	53.93
391.076	-62.8
391.286	74.41
391.496	0.68
391.705	4.78
391.915	176.81
392.125	66.22
392.334	-36.18
392.544	133.8
392.753	-38.23
392.963	-44.37
393.172	29.35
393.382	-38.23
393.591	185
393.801	70.31
394.01	193.19
394.22	-7.51
394.429	80.55
394.639	-3.41
394.848	62.12
395.058	6.83
395.267	113.32
395.477	17.07
395.686	172.71
395.895	205.48
396.105	105.13
396.314	62.12
396.524	96.94
396.733	15.02
396.942	88.75
397.152	58.03
397.361	107.18
397.57	47.79
397.78	49.83
397.989	43.69
398.198	223.91
398.407	41.64
398.617	82.6
398.826	127.66
399.035	84.65
399.244	90.79
399.453	27.31
399.663	-25.94
399.872	51.88
400.081	-3.41
400.29	148.14
400.499	29.35
400.708	107.18
400.917	80.55
401.127	0.68
401.336	43.69
401.545	219.82
401.754	92.84
401.963	129.7
402.172	37.55
402.381	-62.8
402.59	115.37
402.799	23.21
403.008	88.75
403.217	12.97
403.426	39.59
403.635	-68.95
403.844	-23.89
404.053	33.45
404.262	86.7
404.471	135.85
404.68	43.69
404.888	62.12
405.097	37.55
405.306	86.7
405.515	80.55
405.724	82.6
405.933	164.52
406.142	119.46
406.35	158.38
406.559	31.4
406.768	76.46
406.977	189.1
407.185	90.79
407.394	125.61
407.603	37.55
407.812	64.17
408.02	68.27
408.229	-15.7
408.438	6.83
408.646	17.07
408.855	62.12
409.064	64.17
409.272	98.99
409.481	107.18
409.69	4.78
409.898	27.31
410.107	15.02
410.315	131.75
410.524	10.92
410.733	6.83
410.941	41.64
411.15	80.55
411.358	211.62
411.567	127.66
411.775	72.36
411.984	43.69
412.192	121.51
412.401	-25.94
412.609	117.42
412.818	103.08
413.026	68.27
413.234	31.4
413.443	-30.04
413.651	6.83
413.86	66.22
414.068	103.08
414.276	209.58
414.485	-23.89
414.693	160.42
414.901	170.66
415.11	84.65
415.318	121.51
415.526	45.74
415.734	105.13
415.943	66.22
416.151	98.99
416.359	6.83
416.567	39.59
416.776	105.13
416.984	66.22
417.192	154.28
417.4	49.83
417.608	-58.71
417.817	55.98
418.025	105.13
418.233	187.05
418.441	-52.56
418.649	25.26
418.857	47.79
419.065	133.8
419.273	-40.28
419.481	-17.75
419.689	19.11
419.897	2.73
420.105	-30.04
420.313	131.75
420.521	109.23
420.729	129.7
420.937	-13.65
421.145	-32.08
421.353	123.56
421.561	168.62
421.769	31.4
421.977	66.22
422.185	189.1
422.393	6.83
422.601	74.41
422.809	80.55
423.017	101.03
423.224	39.59
423.432	125.61
423.64	-23.89
423.848	29.35
424.056	45.74
424.263	131.75
424.471	31.4
424.679	117.42
424.887	-40.28
425.094	103.08
425.302	84.65
425.51	98.99
425.718	113.32
425.925	64.17
426.133	27.31
426.341	238.25
426.548	41.64
426.756	66.22
426.964	166.57
427.171	10.92
427.379	115.37
427.586	53.93
427.794	144.04
428.001	158.38
428.209	168.62
428.417	178.86
428.624	80.55
428.832	182.95
429.039	86.7
429.247	146.09
429.454	76.46
429.662	246.44
429.869	131.75
430.076	111.27
430.284	127.66
430.491	178.86
430.699	141.99
430.906	228.01
431.114	43.69
431.321	98.99
431.528	72.36
431.736	103.08
431.943	137.9
432.15	172.71
432.358	162.47
432.565	180.9
432.772	12.97
432.979	189.1
433.187	72.36
433.394	137.9
433.601	144.04
433.808	234.15
434.016	189.1
434.223	260.77
434.43	150.18
434.637	176.81
434.844	148.14
435.052	133.8
435.259	201.38
435.466	260.77
435.673	223.91
435.88	187.05
436.087	248.49
436.294	332.45
436.501	318.12
436.708	252.58
436.915	195.24
437.122	287.4
437.329	232.1
437.537	301.73
437.743	262.82
437.95	348.84
438.157	275.11
438.364	328.36
438.571	299.69
438.778	375.46
438.985	344.74
439.192	377.51
439.399	309.93
439.606	346.79
439.813	379.56
440.02	488.1
440.227	598.69
440.433	443.04
440.64	428.71
440.847	451.24
441.054	465.57
441.261	518.82
441.467	512.67
441.674	447.14
441.881	576.16
442.088	518.82
442.294	588.45
442.501	666.27
442.708	623.27
442.914	764.58
443.121	676.51
443.328	699.04
443.534	742.05
443.741	584.35
443.948	524.96
444.154	811.68
444.361	893.6
444.568	838.3
444.774	799.39
444.981	764.58
445.187	1049.24
445.394	932.51
445.6	909.98
445.807	1174.17
446.013	1012.38
446.22	971.42
446.426	1077.91
446.633	1182.36
446.839	1446.55
447.046	1186.46
447.252	1194.65
447.459	1317.53
447.665	1358.49
447.871	1462.93
448.078	1561.23
448.284	1530.52
448.491	1612.43
448.697	1671.83
448.903	1677.97
449.11	1819.28
449.316	1696.4
449.522	1876.62
449.728	1882.77
449.935	2128.52
450.141	2046.6
450.347	2202.25
450.553	2130.57
450.76	2204.3
450.966	2456.2
451.172	2439.81
451.378	2636.42
451.584	2566.79
451.791	2845.31
451.997	2667.14
452.203	2800.26
452.409	3193.47
452.615	3101.31
452.821	2941.57
453.027	3082.88
453.233	3431.03
453.44	3486.33
453.646	3641.97
453.852	3814
454.058	3861.1
454.264	3938.93
454.47	4291.18
454.676	4274.79
454.882	4723.3
455.088	4395.62
455.294	4766.31
455.5	4924
455.705	5257.82
455.911	5329.5
456.117	5446.23
456.323	5487.19
456.529	5761.62
456.735	6027.85
456.941	6330.95
457.147	6560.33
457.352	6609.48
457.558	6849.09
457.764	7359.03
457.97	7514.68
458.176	7868.98
458.381	8051.25
458.587	8301.1
458.793	8729.13
458.999	8706.6
459.204	9714.2
459.41	9906.71
459.616	10129.94
459.821	10572.3
460.027	10988.03
460.233	11543.03
460.438	11815.41
460.644	12421.61
460.85	12483.05
461.055	12954.08
461.261	13498.84
461.466	13283.81
461.672	13447.65
461.878	15204.8
462.083	15235.52
462.289	15432.13
462.494	15595.96
462.7	16118.2
462.905	16331.19
463.111	17770.91
463.316	18303.38
463.522	19003.78
463.727	19462.53
463.932	19855.74
464.138	20519.28
464.343	21641.57
464.549	21875.04
464.754	23181.64
464.959	23800.13
465.165	24604.98
465.37	23867.71
465.575	24217.91
465.781	26126.62
465.986	26603.8
466.191	26128.67
466.397	26587.41
466.602	26097.95
466.807	27044.11
467.012	27693.32
467.218	28397.82
467.423	28272.89
467.628	29208.81
467.833	30486.75
468.038	30054.62
468.244	29622.5
468.449	31019.22
468.654	30646.49
468.859	30847.19
