Data from USB4F104151__15__11-24-29-507.txt Node

Date: Wed Feb 26 11:24:29 EST 2025
User: louis
Spectrometer: USB4F10415
Trigger mode: 4
Integration Time (sec): 1.000000E-1
Scans to average: 1
Electric dark correction enabled: true
Nonlinearity correction enabled: false
Boxcar width: 0
XAxis mode: Wavelengths
Number of Pixels in Spectrum: 3648
>>>>>Begin Spectral Data<<<<<
178.204	-422.05
178.424	-422.05
178.644	-422.05
178.864	-348.33
179.084	-409.76
179.304	24.4
179.524	-104.62
179.744	48.98
179.964	51.03
180.184	-39.08
180.404	85.84
180.624	-30.89
180.844	-0.17
181.064	-61.61
181.283	77.65
181.503	-59.56
181.723	8.02
181.943	-59.56
182.163	278.35
182.383	-26.79
182.602	32.6
182.822	188.24
183.042	96.08
183.262	-30.89
183.482	3.93
183.701	26.45
183.921	24.4
184.141	10.07
184.361	40.79
184.58	42.84
184.8	20.31
185.02	91.99
185.239	126.8
185.459	36.69
185.679	116.56
185.898	-88.23
186.118	65.36
186.338	102.23
186.557	116.56
186.777	-82.09
186.997	24.4
187.216	14.17
187.436	200.53
187.655	108.37
187.875	65.36
188.095	61.27
188.314	157.52
188.534	100.18
188.753	-4.27
188.973	214.87
189.192	192.34
189.412	20.31
189.631	-0.17
189.851	57.17
190.07	106.32
190.29	-30.89
190.509	-69.8
190.729	77.65
190.948	173.91
191.168	235.35
191.387	63.32
191.607	132.95
191.826	145.24
192.045	79.7
192.265	75.6
192.484	71.51
192.704	-90.28
192.923	57.17
193.142	165.71
193.362	145.24
193.581	190.29
193.8	139.09
194.02	139.09
194.239	89.94
194.458	161.62
194.678	8.02
194.897	46.93
195.116	63.32
195.335	-8.36
195.555	79.7
195.774	104.28
195.993	135
196.212	28.5
196.432	55.12
196.651	-6.31
196.87	98.13
197.089	264.02
197.308	30.55
197.528	100.18
197.747	-18.6
197.966	32.6
198.185	157.52
198.404	5.97
198.623	135
198.842	71.51
199.062	104.28
199.281	155.47
199.5	141.14
199.719	59.22
199.938	46.93
200.157	73.56
200.376	75.6
200.595	180.05
200.814	14.17
201.033	63.32
201.252	114.52
201.471	153.43
201.69	118.61
201.909	10.07
202.128	130.9
202.347	143.19
202.566	59.22
202.785	-77.99
203.004	-10.41
203.223	339.79
203.442	-24.75
203.661	-67.75
203.879	143.19
204.098	106.32
204.317	38.74
204.536	48.98
204.755	120.66
204.974	141.14
205.193	48.98
205.411	165.71
205.63	108.37
205.849	79.7
206.068	116.56
206.287	-6.31
206.505	188.24
206.724	91.99
206.943	-63.66
207.162	-2.22
207.381	36.69
207.599	32.6
207.818	34.64
208.037	-41.13
208.255	63.32
208.474	118.61
208.693	44.88
208.911	34.64
209.13	120.66
209.349	83.8
209.567	77.65
209.786	81.75
210.005	165.71
210.223	108.37
210.442	-26.79
210.661	65.36
210.879	59.22
211.098	36.69
211.316	10.07
211.535	122.71
211.753	-2.22
211.972	77.65
212.191	32.6
212.409	48.98
212.628	94.04
212.846	79.7
213.065	61.27
213.283	155.47
213.502	100.18
213.72	59.22
213.938	67.41
214.157	55.12
214.375	22.36
214.594	51.03
214.812	89.94
215.031	30.55
215.249	87.89
215.467	108.37
215.686	-34.99
215.904	65.36
216.122	59.22
216.341	178
216.559	81.75
216.778	83.8
216.996	151.38
217.214	57.17
217.432	18.26
217.651	-22.7
217.869	94.04
218.087	59.22
218.306	24.4
218.524	108.37
218.742	26.45
218.96	96.08
219.179	-24.75
219.397	40.79
219.615	229.2
219.833	83.8
220.051	-28.84
220.27	145.24
220.488	161.62
220.706	83.8
220.924	1.88
221.142	-2.22
221.36	44.88
221.578	85.84
221.796	-30.89
222.015	81.75
222.233	3.93
222.451	114.52
222.669	-8.36
222.887	46.93
223.105	71.51
223.323	-37.03
223.541	-20.65
223.759	65.36
223.977	59.22
224.195	214.87
224.413	96.08
224.631	116.56
224.849	94.04
225.067	276.31
225.285	-28.84
225.503	42.84
225.721	-88.23
225.939	69.46
226.157	46.93
226.375	210.77
226.592	-16.55
226.81	12.12
227.028	167.76
227.246	204.63
227.464	104.28
227.682	85.84
227.9	10.07
228.117	98.13
228.335	-22.7
228.553	36.69
228.771	12.12
228.989	59.22
229.206	135
229.424	-73.9
229.642	55.12
229.86	5.97
230.077	165.71
230.295	30.55
230.513	153.43
230.731	108.37
230.948	218.96
231.166	190.29
231.384	53.08
231.601	38.74
231.819	216.91
232.037	-18.6
232.254	-51.37
232.472	61.27
232.689	32.6
232.907	114.52
233.125	1.88
233.342	28.5
233.56	-55.47
233.777	46.93
233.995	34.64
234.213	106.32
234.43	28.5
234.648	94.04
234.865	51.03
235.083	81.75
235.3	55.12
235.518	28.5
235.735	120.66
235.953	51.03
236.17	124.76
236.388	94.04
236.605	59.22
236.822	132.95
237.04	116.56
237.257	14.17
237.475	32.6
237.692	100.18
237.909	85.84
238.127	44.88
238.344	141.14
238.562	73.56
238.779	24.4
238.996	-94.38
239.214	81.75
239.431	190.29
239.648	106.32
239.865	126.8
240.083	173.91
240.3	-84.14
240.517	18.26
240.735	51.03
240.952	137.04
241.169	87.89
241.386	59.22
241.603	145.24
241.821	-20.65
242.038	59.22
242.255	192.34
242.472	-0.17
242.689	51.03
242.907	139.09
243.124	73.56
243.341	8.02
243.558	-73.9
243.775	-32.94
243.992	-12.46
244.209	151.38
244.426	149.33
244.643	42.84
244.86	30.55
245.078	96.08
245.295	112.47
245.512	51.03
245.729	149.33
245.946	81.75
246.163	73.56
246.38	71.51
246.597	63.32
246.814	28.5
247.031	85.84
247.248	36.69
247.464	114.52
247.681	63.32
247.898	128.85
248.115	102.23
248.332	34.64
248.549	149.33
248.766	188.24
248.983	173.91
249.2	178
249.417	130.9
249.633	18.26
249.85	141.14
250.067	100.18
250.284	46.93
250.501	81.75
250.717	114.52
250.934	-12.46
251.151	77.65
251.368	81.75
251.585	67.41
251.801	75.6
252.018	-37.03
252.235	175.95
252.451	-37.03
252.668	57.17
252.885	102.23
253.102	40.79
253.318	26.45
253.535	-0.17
253.752	16.21
253.968	100.18
254.185	-16.55
254.401	10.07
254.618	46.93
254.835	48.98
255.051	120.66
255.268	40.79
255.484	65.36
255.701	-30.89
255.917	85.84
256.134	-22.7
256.351	112.47
256.567	-10.41
256.784	114.52
257	87.89
257.217	159.57
257.433	137.04
257.65	116.56
257.866	102.23
258.082	-30.89
258.299	-71.85
258.515	61.27
258.732	120.66
258.948	10.07
259.165	46.93
259.381	16.21
259.597	173.91
259.814	57.17
260.03	75.6
260.246	-16.55
260.463	186.19
260.679	161.62
260.895	48.98
261.112	38.74
261.328	44.88
261.544	20.31
261.761	175.95
261.977	-86.19
262.193	-24.75
262.409	65.36
262.626	122.71
262.842	153.43
263.058	65.36
263.274	128.85
263.49	42.84
263.707	110.42
263.923	104.28
264.139	-45.23
264.355	5.97
264.571	137.04
264.787	77.65
265.004	106.32
265.22	18.26
265.436	-22.7
265.652	122.71
265.868	104.28
266.084	1.88
266.3	53.08
266.516	-18.6
266.732	71.51
266.948	46.93
267.164	22.36
267.38	153.43
267.596	5.97
267.812	225.11
268.028	104.28
268.244	-4.27
268.46	94.04
268.676	10.07
268.892	55.12
269.108	-8.36
269.324	40.79
269.54	-16.55
269.756	132.95
269.972	-61.61
270.188	40.79
270.403	34.64
270.619	-20.65
270.835	114.52
271.051	40.79
271.267	34.64
271.483	3.93
271.698	135
271.914	94.04
272.13	40.79
272.346	12.12
272.562	153.43
272.777	190.29
272.993	46.93
273.209	-39.08
273.425	120.66
273.64	-10.41
273.856	128.85
274.072	5.97
274.287	-22.7
274.503	108.37
274.719	108.37
274.934	59.22
275.15	-75.95
275.366	32.6
275.581	16.21
275.797	-8.36
276.012	53.08
276.228	-18.6
276.444	79.7
276.659	128.85
276.875	-16.55
277.09	-4.27
277.306	-47.27
277.521	104.28
277.737	63.32
277.952	57.17
278.168	94.04
278.383	94.04
278.599	67.41
278.814	132.95
279.03	5.97
279.245	194.39
279.461	59.22
279.676	151.38
279.892	-34.99
280.107	-20.65
280.322	-51.37
280.538	34.64
280.753	10.07
280.969	5.97
281.184	26.45
281.399	223.06
281.615	116.56
281.83	89.94
282.045	-67.75
282.26	14.17
282.476	-22.7
282.691	135
282.906	55.12
283.122	89.94
283.337	-32.94
283.552	108.37
283.767	-18.6
283.983	75.6
284.198	30.55
284.413	153.43
284.628	-59.56
284.843	135
285.058	126.8
285.274	44.88
285.489	18.26
285.704	118.61
285.919	-18.6
286.134	61.27
286.349	53.08
286.564	-0.17
286.779	202.58
286.995	32.6
287.21	-49.32
287.425	59.22
287.64	63.32
287.855	104.28
288.07	-34.99
288.285	116.56
288.5	143.19
288.715	28.5
288.93	-18.6
289.145	-14.51
289.36	122.71
289.575	81.75
289.79	122.71
290.004	-12.46
290.219	149.33
290.434	-6.31
290.649	26.45
290.864	81.75
291.079	3.93
291.294	40.79
291.509	65.36
291.724	106.32
291.938	59.22
292.153	102.23
292.368	12.12
292.583	96.08
292.798	139.09
293.012	73.56
293.227	14.17
293.442	-14.51
293.657	122.71
293.871	169.81
294.086	110.42
294.301	124.76
294.516	194.39
294.73	96.08
294.945	75.6
295.16	83.8
295.374	200.53
295.589	155.47
295.804	-14.51
296.018	81.75
296.233	100.18
296.447	157.52
296.662	-22.7
296.877	155.47
297.091	151.38
297.306	57.17
297.52	89.94
297.735	36.69
297.949	14.17
298.164	-0.17
298.378	57.17
298.593	-8.36
298.807	20.31
299.022	55.12
299.236	94.04
299.451	81.75
299.665	77.65
299.88	120.66
300.094	161.62
300.309	153.43
300.523	8.02
300.737	10.07
300.952	67.41
301.166	81.75
301.381	28.5
301.595	32.6
301.809	53.08
302.024	55.12
302.238	18.26
302.452	116.56
302.667	114.52
302.881	116.56
303.095	36.69
303.309	98.13
303.524	67.41
303.738	-16.55
303.952	18.26
304.166	53.08
304.381	-30.89
304.595	135
304.809	63.32
305.023	94.04
305.237	20.31
305.452	57.17
305.666	87.89
305.88	151.38
306.094	132.95
306.308	12.12
306.522	71.51
306.736	100.18
306.95	106.32
307.164	137.04
307.379	89.94
307.593	141.14
307.807	153.43
308.021	161.62
308.235	171.86
308.449	-28.84
308.663	112.47
308.877	282.45
309.091	102.23
309.305	55.12
309.519	-84.14
309.733	94.04
309.947	-59.56
310.161	42.84
310.374	173.91
310.588	116.56
310.802	32.6
311.016	14.17
311.23	-6.31
311.444	-4.27
311.658	40.79
311.872	100.18
312.085	124.76
312.299	122.71
312.513	83.8
312.727	112.47
312.941	3.93
313.154	-4.27
313.368	151.38
313.582	32.6
313.796	153.43
314.009	3.93
314.223	102.23
314.437	-0.17
314.651	163.67
314.864	-8.36
315.078	67.41
315.292	-28.84
315.505	-22.7
315.719	102.23
315.933	89.94
316.146	3.93
316.36	-47.27
316.573	87.89
316.787	91.99
317.001	71.51
317.214	12.12
317.428	75.6
317.641	-57.51
317.855	-8.36
318.068	28.5
318.282	85.84
318.495	175.95
318.709	139.09
318.922	-18.6
319.136	126.8
319.349	182.1
319.563	57.17
319.776	102.23
319.99	-49.32
320.203	192.34
320.417	57.17
320.63	145.24
320.843	200.53
321.057	106.32
321.27	118.61
321.483	87.89
321.697	106.32
321.91	30.55
322.124	65.36
322.337	89.94
322.55	57.17
322.763	-0.17
322.977	-14.51
323.19	10.07
323.403	59.22
323.617	73.56
323.83	145.24
324.043	30.55
324.256	81.75
324.469	-53.42
324.683	110.42
324.896	96.08
325.109	75.6
325.322	-94.38
325.535	135
325.748	139.09
325.962	67.41
326.175	104.28
326.388	59.22
326.601	159.57
326.814	12.12
327.027	114.52
327.24	264.02
327.453	-100.52
327.666	30.55
327.879	141.14
328.092	128.85
328.305	57.17
328.518	3.93
328.731	24.4
328.944	10.07
329.157	91.99
329.37	40.79
329.583	190.29
329.796	178
330.009	-45.23
330.222	87.89
330.435	102.23
330.648	34.64
330.861	91.99
331.073	77.65
331.286	104.28
331.499	85.84
331.712	12.12
331.925	51.03
332.138	151.38
332.35	159.57
332.563	-32.94
332.776	175.95
332.989	10.07
333.202	42.84
333.414	20.31
333.627	83.8
333.84	3.93
334.053	71.51
334.265	83.8
334.478	55.12
334.691	61.27
334.903	59.22
335.116	26.45
335.329	53.08
335.541	135
335.754	175.95
335.966	3.93
336.179	116.56
336.392	69.46
336.604	42.84
336.817	120.66
337.029	100.18
337.242	32.6
337.454	110.42
337.667	67.41
337.88	151.38
338.092	153.43
338.305	106.32
338.517	53.08
338.729	20.31
338.942	100.18
339.154	63.32
339.367	-24.75
339.579	157.52
339.792	-45.23
340.004	48.98
340.217	114.52
340.429	-12.46
340.641	-24.75
340.854	-34.99
341.066	44.88
341.278	67.41
341.491	73.56
341.703	94.04
341.915	32.6
342.128	135
342.34	53.08
342.552	53.08
342.764	-12.46
342.977	34.64
343.189	63.32
343.401	-10.41
343.613	51.03
343.826	87.89
344.038	-41.13
344.25	163.67
344.462	42.84
344.674	89.94
344.886	75.6
345.099	65.36
345.311	69.46
345.523	32.6
345.735	-69.8
345.947	10.07
346.159	116.56
346.371	91.99
346.583	75.6
346.795	237.39
347.007	42.84
347.219	16.21
347.431	46.93
347.643	108.37
347.855	10.07
348.067	114.52
348.279	-22.7
348.491	63.32
348.703	128.85
348.915	73.56
349.127	-39.08
349.339	8.02
349.551	14.17
349.763	161.62
349.975	24.4
350.187	42.84
350.399	210.77
350.61	132.95
350.822	36.69
351.034	46.93
351.246	130.9
351.458	100.18
351.669	96.08
351.881	153.43
352.093	167.76
352.305	137.04
352.517	124.76
352.728	157.52
352.94	36.69
353.152	135
353.363	-30.89
353.575	163.67
353.787	180.05
353.999	-4.27
354.21	216.91
354.422	51.03
354.633	-16.55
354.845	61.27
355.057	71.51
355.268	53.08
355.48	75.6
355.692	-59.56
355.903	20.31
356.115	-14.51
356.326	-47.27
356.538	122.71
356.749	106.32
356.961	128.85
357.172	1.88
357.384	-2.22
357.595	210.77
357.807	28.5
358.018	40.79
358.23	8.02
358.441	210.77
358.653	173.91
358.864	77.65
359.075	34.64
359.287	116.56
359.498	145.24
359.709	-10.41
359.921	20.31
360.132	96.08
360.344	67.41
360.555	-2.22
360.766	184.15
360.977	114.52
361.189	114.52
361.4	30.55
361.611	149.33
361.823	118.61
362.034	59.22
362.245	-67.75
362.456	44.88
362.667	118.61
362.879	-45.23
363.09	132.95
363.301	67.41
363.512	-2.22
363.723	16.21
363.935	8.02
364.146	141.14
364.357	-10.41
364.568	75.6
364.779	-53.42
364.99	139.09
365.201	-84.14
365.412	141.14
365.623	-41.13
365.834	91.99
366.045	12.12
366.256	112.47
366.467	69.46
366.678	59.22
366.889	20.31
367.1	48.98
367.311	100.18
367.522	10.07
367.733	112.47
367.944	139.09
368.155	5.97
368.366	124.76
368.577	132.95
368.788	169.81
368.999	110.42
369.209	81.75
369.42	225.11
369.631	255.83
369.842	63.32
370.053	16.21
370.264	141.14
370.474	8.02
370.685	51.03
370.896	85.84
371.107	122.71
371.317	81.75
371.528	69.46
371.739	153.43
371.95	65.36
372.16	130.9
372.371	-57.51
372.582	-37.03
372.792	135
373.003	75.6
373.214	53.08
373.424	118.61
373.635	38.74
373.846	157.52
374.056	46.93
374.267	3.93
374.477	110.42
374.688	10.07
374.898	71.51
375.109	61.27
375.319	63.32
375.53	112.47
375.74	118.61
375.951	55.12
376.161	22.36
376.372	145.24
376.582	3.93
376.793	108.37
377.003	-59.56
377.214	48.98
377.424	26.45
377.635	71.51
377.845	3.93
378.055	202.58
378.266	8.02
378.476	34.64
378.686	51.03
378.897	130.9
379.107	118.61
379.317	102.23
379.528	69.46
379.738	202.58
379.948	-65.71
380.158	216.91
380.369	159.57
380.579	30.55
380.789	77.65
380.999	36.69
381.21	110.42
381.42	184.15
381.63	149.33
381.84	61.27
382.05	87.89
382.261	124.76
382.471	149.33
382.681	14.17
382.891	196.43
383.101	98.13
383.311	-2.22
383.521	69.46
383.731	87.89
383.941	145.24
384.151	-0.17
384.361	24.4
384.571	89.94
384.781	81.75
384.991	223.06
385.201	151.38
385.411	143.19
385.621	130.9
385.831	69.46
386.041	48.98
386.251	81.75
386.461	81.75
386.671	3.93
386.881	71.51
387.091	79.7
387.301	94.04
387.511	73.56
387.72	87.89
387.93	122.71
388.14	8.02
388.35	59.22
388.56	96.08
388.769	81.75
388.979	-20.65
389.189	1.88
389.399	63.32
389.609	116.56
389.818	79.7
390.028	46.93
390.238	153.43
390.447	-6.31
390.657	87.89
390.867	65.36
391.076	-67.75
391.286	44.88
391.496	-16.55
391.705	79.7
391.915	137.04
392.125	132.95
392.334	-34.99
392.544	255.83
392.753	51.03
392.963	1.88
393.172	55.12
393.382	3.93
393.591	233.3
393.801	59.22
394.01	91.99
394.22	83.8
394.429	16.21
394.639	51.03
394.848	120.66
395.058	40.79
395.267	46.93
395.477	108.37
395.686	55.12
395.895	218.96
396.105	257.87
396.314	59.22
396.524	114.52
396.733	36.69
396.942	180.05
397.152	110.42
397.361	188.24
397.57	59.22
397.78	57.17
397.989	98.13
398.198	175.95
398.407	59.22
398.617	63.32
398.826	59.22
399.035	48.98
399.244	149.33
399.453	34.64
399.663	44.88
399.872	81.75
400.081	36.69
400.29	233.3
400.499	-49.32
400.708	94.04
400.917	79.7
401.127	44.88
401.336	42.84
401.545	184.15
401.754	210.77
401.963	145.24
402.172	22.36
402.381	-43.18
402.59	102.23
402.799	83.8
403.008	132.95
403.217	116.56
403.426	75.6
403.635	1.88
403.844	30.55
404.053	14.17
404.262	1.88
404.471	165.71
404.68	98.13
404.888	-39.08
405.097	44.88
405.306	89.94
405.515	59.22
405.724	-28.84
405.933	141.14
406.142	63.32
406.35	122.71
406.559	-34.99
406.768	59.22
406.977	124.76
407.185	100.18
407.394	130.9
407.603	61.27
407.812	81.75
408.02	190.29
408.229	87.89
408.438	151.38
408.646	-133.29
408.855	67.41
409.064	79.7
409.272	61.27
409.481	143.19
409.69	22.36
409.898	-34.99
410.107	57.17
410.315	108.37
410.524	53.08
410.733	102.23
410.941	10.07
411.15	110.42
411.358	114.52
411.567	165.71
411.775	102.23
411.984	53.08
412.192	139.09
412.401	63.32
412.609	284.5
412.818	141.14
413.026	63.32
413.234	55.12
413.443	87.89
413.651	24.4
413.86	81.75
414.068	59.22
414.276	149.33
414.485	26.45
414.693	171.86
414.901	153.43
415.11	98.13
415.318	79.7
415.526	85.84
415.734	116.56
415.943	46.93
416.151	114.52
416.359	51.03
416.567	81.75
416.776	81.75
416.984	98.13
417.192	190.29
417.4	26.45
417.608	24.4
417.817	-12.46
418.025	87.89
418.233	192.34
418.441	-6.31
418.649	-55.47
418.857	120.66
419.065	190.29
419.273	-43.18
419.481	96.08
419.689	8.02
419.897	46.93
420.105	-45.23
420.313	161.62
420.521	163.67
420.729	143.19
420.937	5.97
421.145	-10.41
421.353	120.66
421.561	159.57
421.769	91.99
421.977	22.36
422.185	145.24
422.393	42.84
422.601	147.28
422.809	182.1
423.017	48.98
423.224	14.17
423.432	141.14
423.64	83.8
423.848	175.95
424.056	71.51
424.263	116.56
424.471	63.32
424.679	87.89
424.887	8.02
425.094	141.14
425.302	128.85
425.51	57.17
425.718	165.71
425.925	77.65
426.133	1.88
426.341	245.59
426.548	24.4
426.756	44.88
426.964	221.01
427.171	42.84
427.379	71.51
427.586	96.08
427.794	145.24
428.001	194.39
428.209	89.94
428.417	173.91
428.624	122.71
428.832	149.33
429.039	155.47
429.247	165.71
429.454	89.94
429.662	225.11
429.869	91.99
430.076	124.76
430.284	167.76
430.491	208.72
430.699	137.04
430.906	182.1
431.114	126.8
431.321	128.85
431.528	135
431.736	126.8
431.943	135
432.15	65.36
432.358	192.34
432.565	255.83
432.772	75.6
432.979	157.52
433.187	135
433.394	247.63
433.601	126.8
433.808	290.64
434.016	218.96
434.223	259.92
434.43	221.01
434.637	278.35
434.844	233.3
435.052	284.5
435.259	331.6
435.466	237.39
435.673	229.2
435.88	307.02
436.087	245.59
436.294	388.94
436.501	327.5
436.708	304.98
436.915	425.81
437.122	409.42
437.329	284.5
437.537	350.03
437.743	315.22
437.95	397.14
438.157	405.33
438.364	386.9
438.571	339.79
438.778	460.62
438.985	409.42
439.192	558.92
439.399	526.16
439.606	470.86
439.813	524.11
440.02	622.41
440.227	655.18
440.433	636.75
440.64	540.49
440.847	581.45
441.054	603.98
441.261	753.48
441.467	655.18
441.674	503.63
441.881	749.39
442.088	657.23
442.294	669.52
442.501	763.72
442.708	728.91
442.914	757.58
443.121	845.64
443.328	847.69
443.534	970.57
443.741	870.22
443.948	794.44
444.154	894.79
444.361	1177.41
444.568	1040.2
444.774	933.7
444.981	950.09
445.187	1085.25
445.394	1124.16
445.6	1140.55
445.807	1171.27
446.013	1255.23
446.22	1253.19
446.426	1376.06
446.633	1480.51
446.839	1566.53
447.046	1337.15
447.252	1668.92
447.459	1541.95
447.665	1468.22
447.871	1849.15
448.078	1832.76
448.284	1765.18
448.491	1961.78
448.697	2017.08
448.903	1931.06
449.11	2101.05
449.316	2101.05
449.522	2219.83
449.728	2398
449.935	2367.28
450.141	2418.48
450.347	2676.52
450.553	2647.85
450.76	2649.9
450.966	2797.35
451.172	2893.61
451.378	2928.42
451.584	2959.14
451.791	3256.1
451.997	3348.26
452.203	3317.54
452.409	3620.64
452.615	3729.18
452.821	3571.49
453.027	3581.73
453.233	4161.3
453.44	4058.9
453.646	4275.99
453.852	4359.95
454.058	4626.19
454.264	4779.79
454.47	4890.38
454.676	4906.76
454.882	5453.57
455.088	5234.44
455.294	5316.36
455.5	5828.35
455.705	6156.02
455.911	6211.32
456.117	6418.16
456.323	6473.46
456.529	6674.16
456.735	7200.49
456.941	7413.48
457.147	7513.83
457.352	7743.2
457.558	7933.66
457.764	8517.33
457.97	8750.8
458.176	9072.33
458.381	9518.79
458.587	9729.73
458.793	10030.78
458.999	10331.83
459.204	11290.28
459.41	11980.45
459.616	11759.27
459.821	12512.92
460.027	12881.55
460.233	13426.31
460.438	13772.42
460.644	14395
460.85	14251.64
461.055	15140.46
461.261	15871.59
461.466	15650.41
461.672	15855.2
461.878	17827.4
462.083	17376.84
462.289	17602.12
462.494	18566.71
462.7	18533.95
462.905	18677.3
463.111	20268.58
463.316	21227.03
463.522	21816.84
463.727	22629.88
463.932	23653.87
464.138	24159.72
464.343	24956.38
464.549	25155.03
464.754	27076.02
464.959	27758
465.165	28278.18
465.37	27796.91
465.575	28028.33
465.781	30045.58
465.986	30612.87
466.191	30170.5
466.397	30805.38
466.602	29787.53
466.807	31171.96
467.012	31884.65
467.218	32793.95
467.423	32363.88
467.628	33428.82
467.833	35417.4
468.038	34461
468.244	34078.03
468.449	35595.57
