Data from USB4F104151__70__09-29-35-295.txt Node

Date: Wed Feb 26 09:29:35 EST 2025
User: louis
Spectrometer: USB4F10415
Trigger mode: 4
Integration Time (sec): 1.000000E-1
Scans to average: 1
Electric dark correction enabled: true
Nonlinearity correction enabled: false
Boxcar width: 0
XAxis mode: Wavelengths
Number of Pixels in Spectrum: 3648
>>>>>Begin Spectral Data<<<<<
178.204	-249.34
178.424	-249.34
178.644	-249.34
178.864	-402.94
179.084	-339.45
179.304	-15.87
179.524	-7.68
179.744	-5.63
179.964	45.57
180.184	16.9
180.404	53.76
180.624	0.51
180.844	70.14
181.064	-118.27
181.283	27.14
181.503	-77.31
181.723	10.75
181.943	-103.93
182.163	125.44
182.383	-24.06
182.602	35.33
182.822	131.58
183.042	31.23
183.262	-50.69
183.482	74.24
183.701	41.47
183.921	94.72
184.141	4.61
184.361	147.97
184.58	-13.82
184.8	45.57
185.02	74.24
185.239	55.81
185.459	123.39
185.679	70.14
185.898	-83.45
186.118	117.25
186.338	53.76
186.557	125.44
186.777	-60.93
186.997	18.94
187.216	115.2
187.436	182.78
187.655	86.53
187.875	109.05
188.095	64
188.314	119.29
188.534	113.15
188.753	-77.31
188.973	72.19
189.192	162.3
189.412	4.61
189.631	111.1
189.851	96.77
190.07	186.88
190.29	-60.93
190.509	-26.11
190.729	10.75
190.948	133.63
191.168	260.6
191.387	100.86
191.607	37.38
191.826	61.95
192.045	72.19
192.265	43.52
192.484	49.66
192.704	-24.06
192.923	-17.92
193.142	197.12
193.362	162.3
193.581	180.73
193.8	59.9
194.02	123.39
194.239	68.09
194.458	86.53
194.678	10.75
194.897	8.7
195.116	14.85
195.335	45.57
195.555	74.24
195.774	31.23
195.993	109.05
196.212	53.76
196.432	57.86
196.651	18.94
196.87	37.38
197.089	248.32
197.308	72.19
197.528	135.68
197.747	37.38
197.966	57.86
198.185	143.87
198.404	20.99
198.623	117.25
198.842	156.16
199.062	78.33
199.281	78.33
199.5	57.86
199.719	104.96
199.938	68.09
200.157	82.43
200.376	100.86
200.595	152.06
200.814	82.43
201.033	47.62
201.252	186.88
201.471	6.66
201.69	29.18
201.909	0.51
202.128	66.05
202.347	57.86
202.566	84.48
202.785	-69.12
203.004	-48.64
203.223	203.26
203.442	35.33
203.661	-65.02
203.879	166.4
204.098	135.68
204.317	-42.5
204.536	10.75
204.755	109.05
204.974	39.42
205.193	72.19
205.411	109.05
205.63	96.77
205.849	107.01
206.068	57.86
206.287	-32.26
206.505	154.11
206.724	-9.73
206.943	20.99
207.162	37.38
207.381	88.57
207.599	25.09
207.818	98.81
208.037	-42.5
208.255	27.14
208.474	104.96
208.693	82.43
208.911	16.9
209.13	119.29
209.349	123.39
209.567	107.01
209.786	90.62
210.005	137.73
210.223	111.1
210.442	-124.41
210.661	102.91
210.879	-24.06
211.098	25.09
211.316	25.09
211.535	6.66
211.753	49.66
211.972	80.38
212.191	6.66
212.409	64
212.628	107.01
212.846	-46.59
213.065	74.24
213.283	113.15
213.502	55.81
213.72	98.81
213.938	107.01
214.157	29.18
214.375	145.92
214.594	55.81
214.812	61.95
215.031	20.99
215.249	86.53
215.467	2.56
215.686	18.94
215.904	154.11
216.122	27.14
216.341	115.2
216.559	18.94
216.778	82.43
216.996	72.19
217.214	-42.5
217.432	92.67
217.651	14.85
217.869	4.61
218.087	31.23
218.306	74.24
218.524	100.86
218.742	53.76
218.96	90.62
219.179	35.33
219.397	-1.54
219.615	270.84
219.833	104.96
220.051	-9.73
220.27	133.63
220.488	147.97
220.706	70.14
220.924	16.9
221.142	-22.02
221.36	59.9
221.578	31.23
221.796	76.29
222.015	66.05
222.233	12.8
222.451	139.77
222.669	-15.87
222.887	64
223.105	18.94
223.323	49.66
223.541	39.42
223.759	70.14
223.977	39.42
224.195	164.35
224.413	70.14
224.631	127.49
224.849	-3.58
225.067	145.92
225.285	8.7
225.503	131.58
225.721	-73.21
225.939	82.43
226.157	12.8
226.375	178.69
226.592	-32.26
226.81	45.57
227.028	74.24
227.246	166.4
227.464	119.29
227.682	184.83
227.9	113.15
228.117	98.81
228.335	20.99
228.553	80.38
228.771	53.76
228.989	-5.63
229.206	90.62
229.424	8.7
229.642	-1.54
229.86	-52.74
230.077	176.64
230.295	6.66
230.513	66.05
230.731	57.86
230.948	180.73
231.166	100.86
231.384	12.8
231.601	-26.11
231.819	172.54
232.037	45.57
232.254	-42.5
232.472	98.81
232.689	-11.78
232.907	137.73
233.125	16.9
233.342	43.52
233.56	16.9
233.777	-17.92
233.995	-3.58
234.213	100.86
234.43	107.01
234.648	20.99
234.865	-15.87
235.083	18.94
235.3	-73.21
235.518	92.67
235.735	164.35
235.953	117.25
236.17	39.42
236.388	-17.92
236.605	84.48
236.822	66.05
237.04	115.2
237.257	10.75
237.475	-32.26
237.692	57.86
237.909	127.49
238.127	-7.68
238.344	88.57
238.562	-19.97
238.779	12.8
238.996	-67.07
239.214	55.81
239.431	127.49
239.648	61.95
239.865	45.57
240.083	59.9
240.3	14.85
240.517	0.51
240.735	-11.78
240.952	68.09
241.169	-5.63
241.386	123.39
241.603	-32.26
241.821	-7.68
242.038	41.47
242.255	123.39
242.472	-19.97
242.689	100.86
242.907	113.15
243.124	35.33
243.341	20.99
243.558	33.28
243.775	-58.88
243.992	31.23
244.209	168.45
244.426	156.16
244.643	115.2
244.86	37.38
245.078	123.39
245.295	68.09
245.512	55.81
245.729	68.09
245.946	53.76
246.163	49.66
246.38	25.09
246.597	68.09
246.814	80.38
247.031	16.9
247.248	64
247.464	147.97
247.681	-7.68
247.898	33.28
248.115	68.09
248.332	-87.55
248.549	137.73
248.766	186.88
248.983	74.24
249.2	66.05
249.417	135.68
249.633	-17.92
249.85	47.62
250.067	80.38
250.284	14.85
250.501	94.72
250.717	66.05
250.934	-7.68
251.151	16.9
251.368	45.57
251.585	29.18
251.801	39.42
252.018	8.7
252.235	92.67
252.451	-44.54
252.668	102.91
252.885	80.38
253.102	57.86
253.318	82.43
253.535	10.75
253.752	-9.73
253.968	-3.58
254.185	-1.54
254.401	31.23
254.618	66.05
254.835	16.9
255.051	133.63
255.268	86.53
255.484	35.33
255.701	37.38
255.917	31.23
256.134	-40.45
256.351	68.09
256.567	10.75
256.784	-22.02
257	-30.21
257.217	147.97
257.433	111.1
257.65	94.72
257.866	123.39
258.082	14.85
258.299	-5.63
258.515	104.96
258.732	-95.74
258.948	70.14
259.165	164.35
259.381	-87.55
259.597	98.81
259.814	41.47
260.03	80.38
260.246	-13.82
260.463	74.24
260.679	82.43
260.895	39.42
261.112	82.43
261.328	-1.54
261.544	-56.83
261.761	127.49
261.977	-7.68
262.193	-126.46
262.409	98.81
262.626	39.42
262.842	70.14
263.058	-38.4
263.274	41.47
263.49	39.42
263.707	178.69
263.923	92.67
264.139	-75.26
264.355	41.47
264.571	102.91
264.787	20.99
265.004	-19.97
265.22	43.52
265.436	-34.3
265.652	-5.63
265.868	27.14
266.084	0.51
266.3	49.66
266.516	-1.54
266.732	-17.92
266.948	70.14
267.164	35.33
267.38	123.39
267.596	94.72
267.812	201.21
268.028	-11.78
268.244	-54.78
268.46	-1.54
268.676	29.18
268.892	6.66
269.108	-103.93
269.324	-13.82
269.54	29.18
269.756	55.81
269.972	-15.87
270.188	45.57
270.403	53.76
270.619	-17.92
270.835	25.09
271.051	-9.73
271.267	2.56
271.483	35.33
271.698	70.14
271.914	33.28
272.13	33.28
272.346	-24.06
272.562	45.57
272.777	76.29
272.993	12.8
273.209	-1.54
273.425	72.19
273.64	-110.08
273.856	111.1
274.072	-15.87
274.287	6.66
274.503	25.09
274.719	131.58
274.934	12.8
275.15	-19.97
275.366	10.75
275.581	-83.45
275.797	64
276.012	45.57
276.228	33.28
276.444	33.28
276.659	131.58
276.875	-7.68
277.09	6.66
277.306	57.86
277.521	86.53
277.737	55.81
277.952	2.56
278.168	104.96
278.383	57.86
278.599	72.19
278.814	121.34
279.03	20.99
279.245	115.2
279.461	33.28
279.676	119.29
279.892	-7.68
280.107	-19.97
280.322	14.85
280.538	41.47
280.753	64
280.969	57.86
281.184	109.05
281.399	168.45
281.615	90.62
281.83	113.15
282.045	-22.02
282.26	80.38
282.476	33.28
282.691	98.81
282.906	14.85
283.122	74.24
283.337	10.75
283.552	53.76
283.767	-7.68
283.983	143.87
284.198	0.51
284.413	119.29
284.628	-44.54
284.843	45.57
285.058	123.39
285.274	-34.3
285.489	-56.83
285.704	10.75
285.919	33.28
286.134	-24.06
286.349	82.43
286.564	96.77
286.779	180.73
286.995	8.7
287.21	-7.68
287.425	39.42
287.64	-44.54
287.855	33.28
288.07	-13.82
288.285	160.25
288.5	193.02
288.715	96.77
288.93	43.52
289.145	-5.63
289.36	129.53
289.575	-30.21
289.79	80.38
290.004	49.66
290.219	100.86
290.434	-65.02
290.649	-19.97
290.864	-50.69
291.079	-24.06
291.294	16.9
291.509	64
291.724	-32.26
291.938	-65.02
292.153	86.53
292.368	31.23
292.583	47.62
292.798	20.99
293.012	41.47
293.227	80.38
293.442	20.99
293.657	117.25
293.871	104.96
294.086	66.05
294.301	137.73
294.516	70.14
294.73	27.14
294.945	-44.54
295.16	72.19
295.374	109.05
295.589	29.18
295.804	29.18
296.018	57.86
296.233	211.45
296.447	51.71
296.662	43.52
296.877	94.72
297.091	16.9
297.306	4.61
297.52	4.61
297.735	74.24
297.949	10.75
298.164	23.04
298.378	57.86
298.593	-114.17
298.807	25.09
299.022	66.05
299.236	180.73
299.451	4.61
299.665	-34.3
299.88	16.9
300.094	86.53
300.309	53.76
300.523	-19.97
300.737	31.23
300.952	20.99
301.166	104.96
301.381	6.66
301.595	10.75
301.809	-11.78
302.024	41.47
302.238	4.61
302.452	154.11
302.667	49.66
302.881	131.58
303.095	35.33
303.309	90.62
303.524	-13.82
303.738	41.47
303.952	-73.21
304.166	66.05
304.381	-32.26
304.595	96.77
304.809	0.51
305.023	31.23
305.237	2.56
305.452	-40.45
305.666	143.87
305.88	14.85
306.094	107.01
306.308	74.24
306.522	57.86
306.736	111.1
306.95	90.62
307.164	45.57
307.379	-30.21
307.593	125.44
307.807	123.39
308.021	102.91
308.235	16.9
308.449	-44.54
308.663	14.85
308.877	176.64
309.091	-15.87
309.305	66.05
309.519	-75.26
309.733	96.77
309.947	-50.69
310.161	51.71
310.374	137.73
310.588	166.4
310.802	-17.92
311.016	-17.92
311.23	-9.73
311.444	-15.87
311.658	57.86
311.872	127.49
312.085	86.53
312.299	53.76
312.513	70.14
312.727	61.95
312.941	-58.88
313.154	31.23
313.368	74.24
313.582	45.57
313.796	90.62
314.009	70.14
314.223	98.81
314.437	-5.63
314.651	74.24
314.864	10.75
315.078	-11.78
315.292	-17.92
315.505	29.18
315.719	20.99
315.933	35.33
316.146	-28.16
316.36	45.57
316.573	76.29
316.787	55.81
317.001	74.24
317.214	33.28
317.428	86.53
317.641	-56.83
317.855	27.14
318.068	80.38
318.282	35.33
318.495	139.77
318.709	109.05
318.922	127.49
319.136	127.49
319.349	111.1
319.563	59.9
319.776	90.62
319.99	-67.07
320.203	98.81
320.417	-17.92
320.63	57.86
320.843	143.87
321.057	-1.54
321.27	-50.69
321.483	72.19
321.697	152.06
321.91	51.71
322.124	188.93
322.337	33.28
322.55	-38.4
322.763	16.9
322.977	31.23
323.19	43.52
323.403	18.94
323.617	115.2
323.83	27.14
324.043	49.66
324.256	86.53
324.469	-40.45
324.683	104.96
324.896	76.29
325.109	66.05
325.322	-17.92
325.535	82.43
325.748	92.67
325.962	-9.73
326.175	121.34
326.388	80.38
326.601	66.05
326.814	70.14
327.027	57.86
327.24	137.73
327.453	-81.41
327.666	82.43
327.879	195.07
328.092	49.66
328.305	12.8
328.518	18.94
328.731	55.81
328.944	14.85
329.157	59.9
329.37	-11.78
329.583	291.32
329.796	88.57
330.009	-85.5
330.222	109.05
330.435	82.43
330.648	6.66
330.861	31.23
331.073	102.91
331.286	115.2
331.499	82.43
331.712	53.76
331.925	-24.06
332.138	25.09
332.35	78.33
332.563	41.47
332.776	88.57
332.989	0.51
333.202	70.14
333.414	25.09
333.627	53.76
333.84	74.24
334.053	70.14
334.265	31.23
334.478	66.05
334.691	55.81
334.903	37.38
335.116	23.04
335.329	25.09
335.541	94.72
335.754	111.1
335.966	74.24
336.179	8.7
336.392	-32.26
336.604	-69.12
336.817	74.24
337.029	80.38
337.242	45.57
337.454	86.53
337.667	68.09
337.88	244.22
338.092	33.28
338.305	55.81
338.517	-65.02
338.729	74.24
338.942	172.54
339.154	-26.11
339.367	-34.3
339.579	115.2
339.792	55.81
340.004	57.86
340.217	55.81
340.429	20.99
340.641	-9.73
340.854	-48.64
341.066	41.47
341.278	162.3
341.491	190.97
341.703	53.76
341.915	18.94
342.128	59.9
342.34	84.48
342.552	-44.54
342.764	4.61
342.977	57.86
343.189	76.29
343.401	66.05
343.613	-87.55
343.826	70.14
344.038	33.28
344.25	47.62
344.462	6.66
344.674	70.14
344.886	-7.68
345.099	92.67
345.311	66.05
345.523	64
345.735	-46.59
345.947	53.76
346.159	109.05
346.371	2.56
346.583	61.95
346.795	162.3
347.007	29.18
347.219	10.75
347.431	66.05
347.643	135.68
347.855	-7.68
348.067	107.01
348.279	64
348.491	39.42
348.703	115.2
348.915	-15.87
349.127	-48.64
349.339	39.42
349.551	66.05
349.763	8.7
349.975	-7.68
350.187	168.45
350.399	180.73
350.61	123.39
350.822	-17.92
351.034	57.86
351.246	94.72
351.458	164.35
351.669	104.96
351.881	51.71
352.093	152.06
352.305	135.68
352.517	12.8
352.728	156.16
352.94	-3.58
353.152	70.14
353.363	-40.45
353.575	76.29
353.787	131.58
353.999	12.8
354.21	139.77
354.422	23.04
354.633	29.18
354.845	86.53
355.057	113.15
355.268	49.66
355.48	129.53
355.692	-52.74
355.903	45.57
356.115	20.99
356.326	-22.02
356.538	152.06
356.749	133.63
356.961	117.25
357.172	47.62
357.384	8.7
357.595	102.91
357.807	41.47
358.018	-34.3
358.23	37.38
358.441	98.81
358.653	80.38
358.864	16.9
359.075	-67.07
359.287	59.9
359.498	94.72
359.709	59.9
359.921	92.67
360.132	57.86
360.344	29.18
360.555	-34.3
360.766	31.23
360.977	-1.54
361.189	96.77
361.4	-17.92
361.611	107.01
361.823	104.96
362.034	80.38
362.245	-42.5
362.456	59.9
362.667	127.49
362.879	-56.83
363.09	111.1
363.301	31.23
363.512	57.86
363.723	-77.31
363.935	25.09
364.146	84.48
364.357	88.57
364.568	37.38
364.779	-3.58
364.99	156.16
365.201	12.8
365.412	143.87
365.623	-81.41
365.834	-11.78
366.045	-40.45
366.256	90.62
366.467	66.05
366.678	-17.92
366.889	20.99
367.1	39.42
367.311	184.83
367.522	-34.3
367.733	74.24
367.944	45.57
368.155	53.76
368.366	102.91
368.577	137.73
368.788	107.01
368.999	43.52
369.209	20.99
369.42	203.26
369.631	193.02
369.842	125.44
370.053	4.61
370.264	94.72
370.474	-24.06
370.685	37.38
370.896	66.05
371.107	64
371.317	100.86
371.528	104.96
371.739	117.25
371.95	68.09
372.16	94.72
372.371	16.9
372.582	-28.16
372.792	64
373.003	66.05
373.214	55.81
373.424	53.76
373.635	-1.54
373.846	129.53
374.056	100.86
374.267	41.47
374.477	127.49
374.688	10.75
374.898	57.86
375.109	33.28
375.319	55.81
375.53	121.34
375.74	90.62
375.951	14.85
376.161	-7.68
376.372	74.24
376.582	-13.82
376.793	90.62
377.003	39.42
377.214	-42.5
377.424	96.77
377.635	82.43
377.845	86.53
378.055	188.93
378.266	-75.26
378.476	104.96
378.686	109.05
378.897	41.47
379.107	133.63
379.317	74.24
379.528	61.95
379.738	82.43
379.948	-40.45
380.158	156.16
380.369	18.94
380.579	57.86
380.789	33.28
380.999	57.86
381.21	121.34
381.42	125.44
381.63	72.19
381.84	66.05
382.05	170.49
382.261	86.53
382.471	80.38
382.681	47.62
382.891	131.58
383.101	80.38
383.311	-24.06
383.521	35.33
383.731	111.1
383.941	129.53
384.151	96.77
384.361	16.9
384.571	29.18
384.781	35.33
384.991	98.81
385.201	162.3
385.411	61.95
385.621	-1.54
385.831	113.15
386.041	-11.78
386.251	20.99
386.461	66.05
386.671	55.81
386.881	74.24
387.091	14.85
387.301	111.1
387.511	37.38
387.72	147.97
387.93	104.96
388.14	-110.08
388.35	0.51
388.56	156.16
388.769	76.29
388.979	96.77
389.189	-9.73
389.399	-5.63
389.609	107.01
389.818	98.81
390.028	39.42
390.238	100.86
390.447	4.61
390.657	123.39
390.867	10.75
391.076	-105.98
391.286	100.86
391.496	2.56
391.705	66.05
391.915	35.33
392.125	96.77
392.334	80.38
392.544	137.73
392.753	90.62
392.963	6.66
393.172	8.7
393.382	-26.11
393.591	211.45
393.801	-11.78
394.01	102.91
394.22	66.05
394.429	35.33
394.639	39.42
394.848	113.15
395.058	143.87
395.267	33.28
395.477	76.29
395.686	-13.82
395.895	117.25
396.105	197.12
396.314	39.42
396.524	41.47
396.733	107.01
396.942	195.07
397.152	156.16
397.361	72.19
397.57	121.34
397.78	8.7
397.989	39.42
398.198	156.16
398.407	66.05
398.617	78.33
398.826	16.9
399.035	25.09
399.244	119.29
399.453	16.9
399.663	-22.02
399.872	23.04
400.081	-22.02
400.29	90.62
400.499	-71.17
400.708	125.44
400.917	6.66
401.127	76.29
401.336	-11.78
401.545	131.58
401.754	82.43
401.963	162.3
402.172	-13.82
402.381	-15.87
402.59	-30.21
402.799	86.53
403.008	23.04
403.217	16.9
403.426	121.34
403.635	-5.63
403.844	49.66
404.053	49.66
404.262	12.8
404.471	184.83
404.68	25.09
404.888	-1.54
405.097	25.09
405.306	-71.17
405.515	53.76
405.724	12.8
405.933	49.66
406.142	41.47
406.35	176.64
406.559	-19.97
406.768	23.04
406.977	209.4
407.185	0.51
407.394	49.66
407.603	-24.06
407.812	127.49
408.02	143.87
408.229	53.76
408.438	90.62
408.646	-38.4
408.855	61.95
409.064	23.04
409.272	57.86
409.481	86.53
409.69	20.99
409.898	66.05
410.107	74.24
410.315	168.45
410.524	6.66
410.733	90.62
410.941	2.56
411.15	57.86
411.358	121.34
411.567	117.25
411.775	150.01
411.984	49.66
412.192	113.15
412.401	64
412.609	80.38
412.818	127.49
413.026	10.75
413.234	80.38
413.443	4.61
413.651	-22.02
413.86	45.57
414.068	160.25
414.276	180.73
414.485	-24.06
414.693	219.64
414.901	164.35
415.11	115.2
415.318	53.76
415.526	98.81
415.734	80.38
415.943	98.81
416.151	111.1
416.359	-3.58
416.567	98.81
416.776	119.29
416.984	147.97
417.192	143.87
417.4	-1.54
417.608	121.34
417.817	51.71
418.025	80.38
418.233	211.45
418.441	33.28
418.649	0.51
418.857	115.2
419.065	117.25
419.273	27.14
419.481	47.62
419.689	72.19
419.897	33.28
420.105	8.7
420.313	84.48
420.521	162.3
420.729	162.3
420.937	-46.59
421.145	12.8
421.353	154.11
421.561	121.34
421.769	107.01
421.977	41.47
422.185	164.35
422.393	107.01
422.601	92.67
422.809	47.62
423.017	57.86
423.224	80.38
423.432	100.86
423.64	35.33
423.848	123.39
424.056	12.8
424.263	66.05
424.471	119.29
424.679	119.29
424.887	8.7
425.094	168.45
425.302	64
425.51	55.81
425.718	123.39
425.925	92.67
426.133	-48.64
426.341	145.92
426.548	47.62
426.756	66.05
426.964	121.34
427.171	25.09
427.379	137.73
427.586	74.24
427.794	111.1
428.001	94.72
428.209	98.81
428.417	227.84
428.624	141.82
428.832	152.06
429.039	123.39
429.247	119.29
429.454	180.73
429.662	229.88
429.869	176.64
430.076	86.53
430.284	172.54
430.491	178.69
430.699	107.01
430.906	213.5
431.114	133.63
431.321	131.58
431.528	137.73
431.736	184.83
431.943	82.43
432.15	180.73
432.358	244.22
432.565	211.45
432.772	84.48
432.979	223.74
433.187	102.91
433.394	123.39
433.601	147.97
433.808	219.64
434.016	268.8
434.223	252.41
434.43	215.55
434.637	293.37
434.844	279.04
435.052	201.21
435.259	285.18
435.466	307.71
435.673	293.37
435.88	299.52
436.087	350.71
436.294	385.53
436.501	373.24
436.708	315.9
436.915	262.65
437.122	336.38
437.329	221.69
437.537	287.23
437.743	293.37
437.95	432.63
438.157	446.97
438.364	295.42
438.571	442.87
438.778	406.01
438.985	406.01
439.192	442.87
439.399	481.78
439.606	440.83
439.813	561.66
440.02	594.42
440.227	655.86
440.433	567.8
440.64	434.68
440.847	543.22
441.054	524.79
441.261	705.01
441.467	594.42
441.674	647.67
441.881	821.75
442.088	639.48
442.294	721.4
442.501	795.12
442.708	840.18
442.914	762.36
443.121	889.33
443.328	967.15
443.534	1079.79
443.741	926.19
443.948	915.95
444.154	1049.07
444.361	1262.06
444.568	1061.36
444.774	1104.37
444.981	924.15
445.187	1182.19
445.394	1247.72
445.6	1167.85
445.807	1356.27
446.013	1348.08
446.22	1262.06
446.426	1423.85
446.633	1520.1
446.839	1669.61
447.046	1489.39
447.252	1649.13
447.459	1700.33
447.665	1679.85
447.871	1968.61
448.078	2011.62
448.284	1880.55
448.491	1952.23
448.697	2167.26
448.903	2222.56
449.11	2220.51
449.316	2279.9
449.522	2507.23
449.728	2556.38
449.935	2589.14
450.141	2707.93
450.347	2826.71
450.553	2763.22
450.76	2968.02
450.966	3029.46
451.172	3123.66
451.378	3197.39
451.584	3256.78
451.791	3541.45
451.997	3621.32
452.203	3721.67
452.409	3961.28
452.615	4096.45
452.821	3938.76
453.027	4004.29
453.233	4639.16
453.44	4372.93
453.646	4686.26
453.852	4755.9
454.058	5071.28
454.264	5177.78
454.47	5431.73
454.676	5478.83
454.882	5894.57
455.088	5743.02
455.294	6033.83
455.5	6431.13
455.705	6955.41
455.911	6695.32
456.117	6984.09
456.323	7262.61
456.529	7129.49
456.735	7967.11
456.941	8020.36
457.147	8425.86
457.352	8364.42
457.558	8700.28
457.764	9429.36
457.97	9515.37
458.176	9931.11
458.381	10510.69
458.587	10688.86
458.793	11045.21
458.999	11188.57
459.204	12507.46
459.41	13089.08
459.616	12665.15
459.821	13529.39
460.027	13852.97
460.233	14737.7
460.438	14856.48
460.644	15513.88
460.85	15810.83
461.055	16290.06
461.261	17287.42
461.466	16881.92
461.672	17164.54
461.878	19167.45
462.083	18737.38
462.289	19343.58
462.494	20039.89
462.7	20246.73
462.905	20609.22
463.111	22003.89
463.316	23218.33
463.522	23687.32
463.727	24496.27
463.932	25481.34
464.138	25821.3
464.343	27132
464.549	27166.82
464.754	29124.68
464.959	30111.8
465.165	30736.43
465.37	30083.12
465.575	30537.77
465.781	32243.73
465.986	33224.71
466.191	32532.5
466.397	33282.05
466.602	32229.4
466.807	34426.87
467.012	35164.14
467.218	35172.33
467.423	35192.81
467.628	36558.8
467.833	38422.45
468.038	37588.93
468.244	36986.83
468.449	38850.48
468.654	37877.69
468.859	37994.43
469.064	38086.59
