Data from USB4F104151__20__10-23-37-945.txt Node

Date: Wed Feb 26 10:23:37 EST 2025
User: louis
Spectrometer: USB4F10415
Trigger mode: 4
Integration Time (sec): 1.000000E-1
Scans to average: 1
Electric dark correction enabled: true
Nonlinearity correction enabled: false
Boxcar width: 0
XAxis mode: Wavelengths
Number of Pixels in Spectrum: 3648
>>>>>Begin Spectral Data<<<<<
178.204	-406.18
178.424	-406.18
178.644	-406.18
178.864	-418.47
179.084	-336.55
179.304	-2.73
179.524	11.61
179.744	-10.92
179.964	17.75
180.184	25.94
180.404	19.8
180.624	19.8
180.844	-23.21
181.064	-82.6
181.283	40.28
181.503	-66.22
181.723	50.52
181.943	-55.98
182.163	157.01
182.383	17.75
182.602	83.28
182.822	208.21
183.042	75.09
183.262	-4.78
183.482	56.66
183.701	-19.11
183.921	56.66
184.141	-68.27
184.361	62.8
184.58	109.91
184.8	60.76
185.02	27.99
185.239	85.33
185.459	71
185.679	138.58
185.898	-111.27
186.118	64.85
186.338	71
186.557	66.9
186.777	-21.16
186.997	44.37
187.216	64.85
187.436	138.58
187.655	118.1
187.875	58.71
188.095	40.28
188.314	77.14
188.534	132.44
188.753	5.46
188.973	140.63
189.192	202.07
189.412	23.89
189.631	73.04
189.851	126.29
190.07	193.87
190.29	-41.64
190.509	73.04
190.729	38.23
190.948	105.81
191.168	255.31
191.387	136.53
191.607	44.37
191.826	17.75
192.045	-17.07
192.265	48.47
192.484	99.67
192.704	105.81
192.923	-55.98
193.142	253.27
193.362	38.23
193.581	105.81
193.8	81.24
194.02	116.05
194.239	140.63
194.458	32.08
194.678	-51.88
194.897	56.66
195.116	83.28
195.335	54.61
195.555	77.14
195.774	-6.83
195.993	163.15
196.212	42.32
196.432	9.56
196.651	-10.92
196.87	58.71
197.089	206.16
197.308	118.1
197.528	130.39
197.747	-27.31
197.966	89.43
198.185	177.49
198.404	3.41
198.623	136.53
198.842	167.25
199.062	79.19
199.281	111.96
199.5	54.61
199.719	73.04
199.938	58.71
200.157	111.96
200.376	173.39
200.595	120.15
200.814	56.66
201.033	9.56
201.252	146.77
201.471	68.95
201.69	118.1
201.909	21.84
202.128	73.04
202.347	107.86
202.566	77.14
202.785	-82.6
203.004	46.42
203.223	181.59
203.442	30.04
203.661	-37.55
203.879	56.66
204.098	136.53
204.317	38.23
204.536	116.05
204.755	50.52
204.974	111.96
205.193	9.56
205.411	169.3
205.63	118.1
205.849	73.04
206.068	21.84
206.287	-10.92
206.505	79.19
206.724	83.28
206.943	-23.21
207.162	-39.59
207.381	77.14
207.599	56.66
207.818	42.32
208.037	15.7
208.255	93.52
208.474	130.39
208.693	46.42
208.911	42.32
209.13	132.44
209.349	101.72
209.567	44.37
209.786	46.42
210.005	195.92
210.223	79.19
210.442	-129.7
210.661	25.94
210.879	126.29
211.098	52.56
211.316	77.14
211.535	109.91
211.753	13.65
211.972	83.28
212.191	-41.64
212.409	62.8
212.628	171.35
212.846	54.61
213.065	79.19
213.283	42.32
213.502	21.84
213.72	48.47
213.938	89.43
214.157	30.04
214.375	179.54
214.594	-8.87
214.812	85.33
215.031	71
215.249	34.13
215.467	-58.03
215.686	-8.87
215.904	152.91
216.122	87.38
216.341	107.86
216.559	71
216.778	140.63
216.996	132.44
217.214	71
217.432	38.23
217.651	-58.03
217.869	19.8
218.087	130.39
218.306	52.56
218.524	9.56
218.742	1.37
218.96	71
219.179	54.61
219.397	58.71
219.615	193.87
219.833	126.29
220.051	54.61
220.27	136.53
220.488	114
220.706	140.63
220.924	56.66
221.142	23.89
221.36	148.82
221.578	87.38
221.796	34.13
222.015	40.28
222.233	128.34
222.451	136.53
222.669	9.56
222.887	150.87
223.105	50.52
223.323	46.42
223.541	9.56
223.759	62.8
223.977	58.71
224.195	216.4
224.413	152.91
224.631	116.05
224.849	105.81
225.067	265.55
225.285	77.14
225.503	52.56
225.721	-35.5
225.939	118.1
226.157	7.51
226.375	193.87
226.592	44.37
226.81	46.42
227.028	122.2
227.246	50.52
227.464	107.86
227.682	126.29
227.9	103.76
228.117	157.01
228.335	85.33
228.553	62.8
228.771	30.04
228.989	1.37
229.206	85.33
229.424	-35.5
229.642	66.9
229.86	-8.87
230.077	126.29
230.295	68.95
230.513	193.87
230.731	99.67
230.948	240.98
231.166	120.15
231.384	75.09
231.601	97.62
231.819	197.97
232.037	114
232.254	-33.45
232.472	5.46
232.689	1.37
232.907	134.48
233.125	-15.02
233.342	-21.16
233.56	-19.11
233.777	9.56
233.995	-17.07
234.213	150.87
234.43	54.61
234.648	-2.73
234.865	42.32
235.083	58.71
235.3	46.42
235.518	114
235.735	157.01
235.953	38.23
236.17	87.38
236.388	27.99
236.605	40.28
236.822	48.47
237.04	95.57
237.257	120.15
237.475	-12.97
237.692	64.85
237.909	81.24
238.127	-6.83
238.344	111.96
238.562	25.94
238.779	-10.92
238.996	-41.64
239.214	93.52
239.431	62.8
239.648	23.89
239.865	40.28
240.083	68.95
240.3	5.46
240.517	1.37
240.735	62.8
240.952	105.81
241.169	25.94
241.386	120.15
241.603	79.19
241.821	-27.31
242.038	124.24
242.255	95.57
242.472	23.89
242.689	68.95
242.907	136.53
243.124	152.91
243.341	75.09
243.558	23.89
243.775	-35.5
243.992	-39.59
244.209	83.28
244.426	118.1
244.643	163.15
244.86	71
245.078	66.9
245.295	56.66
245.512	54.61
245.729	13.65
245.946	124.24
246.163	34.13
246.38	68.95
246.597	46.42
246.814	11.61
247.031	118.1
247.248	48.47
247.464	249.17
247.681	19.8
247.898	114
248.115	128.34
248.332	-6.83
248.549	173.39
248.766	118.1
248.983	154.96
249.2	93.52
249.417	-21.16
249.633	30.04
249.85	91.48
250.067	11.61
250.284	52.56
250.501	150.87
250.717	34.13
250.934	21.84
251.151	-2.73
251.368	21.84
251.585	32.08
251.801	103.76
252.018	17.75
252.235	79.19
252.451	-2.73
252.668	32.08
252.885	181.59
253.102	36.18
253.318	-31.4
253.535	95.57
253.752	89.43
253.968	44.37
254.185	-15.02
254.401	75.09
254.618	105.81
254.835	68.95
255.051	181.59
255.268	40.28
255.484	42.32
255.701	89.43
255.917	75.09
256.134	-25.26
256.351	58.71
256.567	3.41
256.784	56.66
257	-23.21
257.217	124.24
257.433	81.24
257.65	17.75
257.866	97.62
258.082	36.18
258.299	-8.87
258.515	75.09
258.732	-21.16
258.948	71
259.165	68.95
259.381	-17.07
259.597	52.56
259.814	23.89
260.03	-25.26
260.246	99.67
260.463	136.53
260.679	159.06
260.895	42.32
261.112	161.11
261.328	103.76
261.544	-64.17
261.761	197.97
261.977	9.56
262.193	15.7
262.409	130.39
262.626	9.56
262.842	1.37
263.058	25.94
263.274	89.43
263.49	50.52
263.707	87.38
263.923	97.62
264.139	-2.73
264.355	44.37
264.571	60.76
264.787	134.48
265.004	122.2
265.22	-2.73
265.436	-29.35
265.652	32.08
265.868	62.8
266.084	-6.83
266.3	77.14
266.516	-80.55
266.732	114
266.948	97.62
267.164	73.04
267.38	109.91
267.596	34.13
267.812	177.49
268.028	77.14
268.244	83.28
268.46	97.62
268.676	7.51
268.892	114
269.108	-53.93
269.324	-15.02
269.54	-47.79
269.756	157.01
269.972	-17.07
270.188	101.72
270.403	-27.31
270.619	54.61
270.835	120.15
271.051	-0.68
271.267	-10.92
271.483	109.91
271.698	152.91
271.914	91.48
272.13	128.34
272.346	42.32
272.562	75.09
272.777	132.44
272.993	75.09
273.209	15.7
273.425	138.58
273.64	-68.27
273.856	128.34
274.072	42.32
274.287	-39.59
274.503	105.81
274.719	81.24
274.934	19.8
275.15	23.89
275.366	-70.31
275.581	-31.4
275.797	99.67
276.012	30.04
276.228	-12.97
276.444	107.86
276.659	163.15
276.875	-39.59
277.09	5.46
277.306	52.56
277.521	103.76
277.737	36.18
277.952	120.15
278.168	21.84
278.383	73.04
278.599	68.95
278.814	50.52
279.03	56.66
279.245	148.82
279.461	75.09
279.676	165.2
279.892	-23.21
280.107	7.51
280.322	-45.74
280.538	38.23
280.753	52.56
280.969	85.33
281.184	93.52
281.399	83.28
281.615	128.34
281.83	27.99
282.045	-6.83
282.26	-21.16
282.476	79.19
282.691	148.82
282.906	118.1
283.122	103.76
283.337	73.04
283.552	89.43
283.767	54.61
283.983	124.24
284.198	-0.68
284.413	109.91
284.628	-15.02
284.843	99.67
285.058	132.44
285.274	81.24
285.489	54.61
285.704	175.44
285.919	13.65
286.134	54.61
286.349	95.57
286.564	30.04
286.779	167.25
286.995	30.04
287.21	3.41
287.425	81.24
287.64	36.18
287.855	40.28
288.07	-64.17
288.285	187.73
288.5	167.25
288.715	109.91
288.93	66.9
289.145	32.08
289.36	124.24
289.575	46.42
289.79	167.25
290.004	54.61
290.219	159.06
290.434	1.37
290.649	58.71
290.864	105.81
291.079	54.61
291.294	56.66
291.509	77.14
291.724	58.71
291.938	11.61
292.153	42.32
292.368	79.19
292.583	73.04
292.798	99.67
293.012	93.52
293.227	44.37
293.442	56.66
293.657	60.76
293.871	163.15
294.086	130.39
294.301	159.06
294.516	189.78
294.73	13.65
294.945	64.85
295.16	68.95
295.374	165.2
295.589	150.87
295.804	99.67
296.018	32.08
296.233	126.29
296.447	66.9
296.662	44.37
296.877	193.87
297.091	36.18
297.306	111.96
297.52	19.8
297.735	75.09
297.949	85.33
298.164	97.62
298.378	48.47
298.593	13.65
298.807	91.48
299.022	17.75
299.236	243.03
299.451	81.24
299.665	34.13
299.88	23.89
300.094	83.28
300.309	60.76
300.523	42.32
300.737	52.56
300.952	48.47
301.166	79.19
301.381	30.04
301.595	40.28
301.809	58.71
302.024	9.56
302.238	50.52
302.452	208.21
302.667	62.8
302.881	169.3
303.095	122.2
303.309	64.85
303.524	3.41
303.738	-8.87
303.952	3.41
304.166	122.2
304.381	-68.27
304.595	152.91
304.809	87.38
305.023	101.72
305.237	93.52
305.452	64.85
305.666	73.04
305.88	91.48
306.094	154.96
306.308	132.44
306.522	97.62
306.736	144.72
306.95	111.96
307.164	34.13
307.379	11.61
307.593	89.43
307.807	85.33
308.021	62.8
308.235	95.57
308.449	-27.31
308.663	58.71
308.877	232.79
309.091	118.1
309.305	91.48
309.519	-29.35
309.733	181.59
309.947	-82.6
310.161	81.24
310.374	107.86
310.588	148.82
310.802	-78.51
311.016	-15.02
311.23	138.58
311.444	-2.73
311.658	79.19
311.872	144.72
312.085	128.34
312.299	58.71
312.513	140.63
312.727	3.41
312.941	30.04
313.154	19.8
313.368	58.71
313.582	62.8
313.796	85.33
314.009	21.84
314.223	93.52
314.437	54.61
314.651	75.09
314.864	-43.69
315.078	-35.5
315.292	23.89
315.505	17.75
315.719	116.05
315.933	75.09
316.146	85.33
316.36	-60.07
316.573	161.11
316.787	89.43
317.001	68.95
317.214	-45.74
317.428	44.37
317.641	-55.98
317.855	21.84
318.068	73.04
318.282	130.39
318.495	152.91
318.709	54.61
318.922	-0.68
319.136	177.49
319.349	122.2
319.563	11.61
319.776	99.67
319.99	-31.4
320.203	118.1
320.417	66.9
320.63	187.73
320.843	195.92
321.057	152.91
321.27	-25.26
321.483	101.72
321.697	128.34
321.91	111.96
322.124	68.95
322.337	105.81
322.55	64.85
322.763	66.9
322.977	107.86
323.19	-27.31
323.403	109.91
323.617	54.61
323.83	169.3
324.043	48.47
324.256	62.8
324.469	25.94
324.683	19.8
324.896	36.18
325.109	46.42
325.322	-8.87
325.535	103.76
325.748	97.62
325.962	23.89
326.175	38.23
326.388	109.91
326.601	107.86
326.814	25.94
327.027	44.37
327.24	136.53
327.453	15.7
327.666	124.24
327.879	171.35
328.092	77.14
328.305	13.65
328.518	42.32
328.731	64.85
328.944	-2.73
329.157	91.48
329.37	99.67
329.583	187.73
329.796	54.61
330.009	-80.55
330.222	111.96
330.435	185.68
330.648	54.61
330.861	148.82
331.073	27.99
331.286	75.09
331.499	85.33
331.712	56.66
331.925	60.76
332.138	7.51
332.35	116.05
332.563	38.23
332.776	146.77
332.989	1.37
333.202	107.86
333.414	66.9
333.627	27.99
333.84	89.43
334.053	-53.93
334.265	-66.22
334.478	21.84
334.691	-19.11
334.903	122.2
335.116	-17.07
335.329	73.04
335.541	52.56
335.754	152.91
335.966	54.61
336.179	62.8
336.392	83.28
336.604	64.85
336.817	109.91
337.029	118.1
337.242	36.18
337.454	77.14
337.667	44.37
337.88	101.72
338.092	111.96
338.305	142.68
338.517	58.71
338.729	111.96
338.942	134.48
339.154	-41.64
339.367	-45.74
339.579	73.04
339.792	36.18
340.004	13.65
340.217	-21.16
340.429	83.28
340.641	42.32
340.854	42.32
341.066	44.37
341.278	187.73
341.491	157.01
341.703	91.48
341.915	17.75
342.128	118.1
342.34	91.48
342.552	3.41
342.764	56.66
342.977	105.81
343.189	52.56
343.401	56.66
343.613	-12.97
343.826	30.04
344.038	-39.59
344.25	62.8
344.462	17.75
344.674	91.48
344.886	60.76
345.099	60.76
345.311	71
345.523	25.94
345.735	-68.27
345.947	48.47
346.159	75.09
346.371	58.71
346.583	34.13
346.795	179.54
347.007	68.95
347.219	130.39
347.431	15.7
347.643	157.01
347.855	13.65
348.067	111.96
348.279	-23.21
348.491	21.84
348.703	103.76
348.915	25.94
349.127	83.28
349.339	138.58
349.551	87.38
349.763	34.13
349.975	46.42
350.187	73.04
350.399	150.87
350.61	50.52
350.822	95.57
351.034	38.23
351.246	120.15
351.458	107.86
351.669	124.24
351.881	124.24
352.093	97.62
352.305	140.63
352.517	109.91
352.728	111.96
352.94	54.61
353.152	109.91
353.363	17.75
353.575	114
353.787	138.58
353.999	1.37
354.21	204.11
354.422	-19.11
354.633	21.84
354.845	17.75
355.057	101.72
355.268	116.05
355.48	130.39
355.692	32.08
355.903	77.14
356.115	1.37
356.326	-27.31
356.538	146.77
356.749	103.76
356.961	124.24
357.172	9.56
357.384	11.61
357.595	159.06
357.807	-68.27
358.018	7.51
358.23	81.24
358.441	193.87
358.653	101.72
358.864	58.71
359.075	68.95
359.287	83.28
359.498	165.2
359.709	124.24
359.921	144.72
360.132	46.42
360.344	40.28
360.555	79.19
360.766	58.71
360.977	-25.26
361.189	142.68
361.4	15.7
361.611	171.35
361.823	157.01
362.034	87.38
362.245	-23.21
362.456	81.24
362.667	154.96
362.879	9.56
363.09	114
363.301	56.66
363.512	56.66
363.723	75.09
363.935	56.66
364.146	111.96
364.357	40.28
364.568	64.85
364.779	-45.74
364.99	177.49
365.201	7.51
365.412	120.15
365.623	-66.22
365.834	81.24
366.045	44.37
366.256	64.85
366.467	103.76
366.678	56.66
366.889	81.24
367.1	48.47
367.311	120.15
367.522	-8.87
367.733	161.11
367.944	120.15
368.155	93.52
368.366	126.29
368.577	132.44
368.788	146.77
368.999	68.95
369.209	71
369.42	204.11
369.631	216.4
369.842	150.87
370.053	48.47
370.264	77.14
370.474	-25.26
370.685	173.39
370.896	75.09
371.107	161.11
371.317	50.52
371.528	19.8
371.739	159.06
371.95	134.48
372.16	99.67
372.371	-6.83
372.582	-2.73
372.792	19.8
373.003	25.94
373.214	81.24
373.424	140.63
373.635	46.42
373.846	126.29
374.056	62.8
374.267	79.19
374.477	91.48
374.688	50.52
374.898	130.39
375.109	15.7
375.319	111.96
375.53	161.11
375.74	111.96
375.951	99.67
376.161	68.95
376.372	148.82
376.582	54.61
376.793	109.91
377.003	-55.98
377.214	11.61
377.424	44.37
377.635	-19.11
377.845	15.7
378.055	114
378.266	9.56
378.476	-43.69
378.686	89.43
378.897	81.24
379.107	132.44
379.317	99.67
379.528	1.37
379.738	42.32
379.948	38.23
380.158	120.15
380.369	21.84
380.579	83.28
380.789	-0.68
380.999	79.19
381.21	103.76
381.42	204.11
381.63	52.56
381.84	46.42
382.05	93.52
382.261	60.76
382.471	152.91
382.681	36.18
382.891	157.01
383.101	62.8
383.311	-43.69
383.521	60.76
383.731	60.76
383.941	122.2
384.151	42.32
384.361	54.61
384.571	34.13
384.781	169.3
384.991	226.64
385.201	204.11
385.411	148.82
385.621	73.04
385.831	89.43
386.041	68.95
386.251	52.56
386.461	134.48
386.671	19.8
386.881	54.61
387.091	83.28
387.301	93.52
387.511	7.51
387.72	62.8
387.93	114
388.14	9.56
388.35	75.09
388.56	171.35
388.769	185.68
388.979	93.52
389.189	-53.93
389.399	15.7
389.609	30.04
389.818	107.86
390.028	116.05
390.238	75.09
390.447	-6.83
390.657	62.8
390.867	60.76
391.076	-49.83
391.286	150.87
391.496	1.37
391.705	-2.73
391.915	138.58
392.125	79.19
392.334	9.56
392.544	173.39
392.753	107.86
392.963	-10.92
393.172	81.24
393.382	-49.83
393.591	132.44
393.801	-25.26
394.01	175.44
394.22	60.76
394.429	87.38
394.639	48.47
394.848	140.63
395.058	124.24
395.267	58.71
395.477	71
395.686	75.09
395.895	232.79
396.105	222.55
396.314	77.14
396.524	79.19
396.733	77.14
396.942	91.48
397.152	89.43
397.361	132.44
397.57	73.04
397.78	122.2
397.989	42.32
398.198	200.02
398.407	118.1
398.617	23.89
398.826	23.89
399.035	64.85
399.244	60.76
399.453	52.56
399.663	46.42
399.872	107.86
400.081	3.41
400.29	183.63
400.499	62.8
400.708	97.62
400.917	103.76
401.127	19.8
401.336	75.09
401.545	191.83
401.754	130.39
401.963	105.81
402.172	-6.83
402.381	85.33
402.59	77.14
402.799	21.84
403.008	56.66
403.217	-4.78
403.426	130.39
403.635	-35.5
403.844	46.42
404.053	-35.5
404.262	50.52
404.471	191.83
404.68	140.63
404.888	52.56
405.097	68.95
405.306	109.91
405.515	134.48
405.724	56.66
405.933	83.28
406.142	142.68
406.35	177.49
406.559	44.37
406.768	48.47
406.977	195.92
407.185	38.23
407.394	52.56
407.603	48.47
407.812	120.15
408.02	175.44
408.229	73.04
408.438	120.15
408.646	5.46
408.855	144.72
409.064	66.9
409.272	87.38
409.481	101.72
409.69	1.37
409.898	-8.87
410.107	111.96
410.315	157.01
410.524	44.37
410.733	38.23
410.941	77.14
411.15	124.24
411.358	50.52
411.567	122.2
411.775	32.08
411.984	116.05
412.192	132.44
412.401	27.99
412.609	187.73
412.818	175.44
413.026	154.96
413.234	34.13
413.443	89.43
413.651	-23.21
413.86	81.24
414.068	173.39
414.276	159.06
414.485	17.75
414.693	179.54
414.901	222.55
415.11	38.23
415.318	60.76
415.526	99.67
415.734	109.91
415.943	107.86
416.151	138.58
416.359	85.33
416.567	154.96
416.776	120.15
416.984	152.91
417.192	122.2
417.4	32.08
417.608	64.85
417.817	44.37
418.025	122.2
418.233	154.96
418.441	93.52
418.649	5.46
418.857	97.62
419.065	75.09
419.273	-6.83
419.481	97.62
419.689	54.61
419.897	91.48
420.105	-51.88
420.313	107.86
420.521	142.68
420.729	206.16
420.937	-31.4
421.145	19.8
421.353	140.63
421.561	238.93
421.769	79.19
421.977	17.75
422.185	81.24
422.393	97.62
422.601	134.48
422.809	93.52
423.017	99.67
423.224	25.94
423.432	83.28
423.64	32.08
423.848	230.74
424.056	38.23
424.263	191.83
424.471	46.42
424.679	157.01
424.887	-2.73
425.094	140.63
425.302	3.41
425.51	97.62
425.718	134.48
425.925	1.37
426.133	68.95
426.341	197.97
426.548	134.48
426.756	71
426.964	136.53
427.171	77.14
427.379	144.72
427.586	66.9
427.794	46.42
428.001	200.02
428.209	165.2
428.417	165.2
428.624	163.15
428.832	122.2
429.039	101.72
429.247	116.05
429.454	154.96
429.662	165.2
429.869	169.3
430.076	128.34
430.284	105.81
430.491	224.59
430.699	126.29
430.906	226.64
431.114	204.11
431.321	163.15
431.528	44.37
431.736	208.21
431.943	173.39
432.15	107.86
432.358	118.1
432.565	296.27
432.772	68.95
432.979	152.91
433.187	169.3
433.394	193.87
433.601	126.29
433.808	247.12
434.016	177.49
434.223	232.79
434.43	249.17
434.637	255.31
434.844	267.6
435.052	200.02
435.259	271.7
435.466	292.18
435.673	177.49
435.88	283.98
436.087	312.66
436.294	361.81
436.501	312.66
436.708	236.88
436.915	404.82
437.122	396.62
437.329	281.94
437.537	249.17
437.743	382.29
437.95	507.21
438.157	339.28
438.364	308.56
438.571	429.39
438.778	456.01
438.985	410.96
439.192	421.2
439.399	439.63
439.606	496.97
439.813	501.07
440.02	591.18
440.227	603.47
440.433	593.23
440.64	476.49
440.847	527.69
441.054	572.75
441.261	673.1
441.467	666.96
441.674	456.01
441.881	681.29
442.088	675.15
442.294	705.87
442.501	755.02
442.708	828.74
442.914	738.63
443.121	759.11
443.328	861.51
443.534	961.86
443.741	845.13
443.948	775.5
444.154	1002.82
444.361	1084.74
444.568	963.91
444.774	965.96
444.981	925
445.187	1224
445.394	1133.89
445.6	1082.69
445.807	1160.52
446.013	1201.47
446.22	1193.28
446.426	1330.5
446.633	1389.89
446.839	1600.83
447.046	1404.22
447.252	1594.68
447.459	1467.71
447.665	1609.02
447.871	1643.84
448.078	1858.87
448.284	1774.91
448.491	1987.89
448.697	1998.13
448.903	2063.67
449.11	2063.67
449.316	1996.09
449.522	2207.03
449.728	2286.9
449.935	2487.6
450.141	2377.01
450.347	2635.05
450.553	2579.76
450.76	2678.06
450.966	2817.32
451.172	2866.47
451.378	2909.48
451.584	2868.52
451.791	3298.59
451.997	3235.11
452.203	3374.37
452.409	3374.37
452.615	3622.17
452.821	3517.73
453.027	3681.57
453.233	4140.31
453.44	4025.62
453.646	4166.93
453.852	4445.46
454.058	4478.22
454.264	4545.81
454.47	5004.55
454.676	4871.43
454.882	5383.43
455.088	5078.28
455.294	5346.56
455.5	5817.6
455.705	6188.28
455.911	6053.11
456.117	6354.16
456.323	6634.74
456.529	6585.58
456.735	7181.54
456.941	7525.6
457.147	7546.08
457.352	7830.75
457.558	7884
457.764	8598.74
457.97	8768.72
458.176	9041.1
458.381	9383.11
458.587	9444.55
458.793	10298.55
458.999	10097.85
459.204	11381.93
459.41	11824.29
459.616	11652.26
459.821	12108.96
460.027	12747.92
460.233	13450.38
460.438	13444.23
460.644	14312.57
460.85	14253.18
461.055	14769.27
461.261	15905.89
461.466	15357.03
461.672	15707.24
461.878	17574.99
462.083	17194.06
462.289	17681.48
462.494	18297.92
462.7	18433.08
462.905	18730.04
463.111	20149.28
463.316	21056.53
463.522	21580.81
463.727	22215.68
463.932	23122.93
464.138	23933.93
464.343	24843.23
464.549	24878.04
464.754	26469.31
464.959	27331.51
465.165	27730.86
465.37	27397.04
465.575	27405.24
465.781	29225.88
465.986	30067.59
466.191	29506.45
466.397	29737.87
466.602	29719.44
466.807	31142.78
467.012	31480.69
467.218	31992.69
467.423	32527.21
467.628	33317.72
467.833	34816.83
468.038	34001.74
468.244	33717.07
468.449	34933.57
468.654	34425.67
468.859	34061.13
469.064	34802.5
