Data from USB4F104151__80__10-33-53-739.txt Node

Date: Wed Feb 26 10:33:53 EST 2025
User: louis
Spectrometer: USB4F10415
Trigger mode: 4
Integration Time (sec): 1.000000E-1
Scans to average: 1
Electric dark correction enabled: true
Nonlinearity correction enabled: false
Boxcar width: 0
XAxis mode: Wavelengths
Number of Pixels in Spectrum: 3648
>>>>>Begin Spectral Data<<<<<
178.204	-344.23
178.424	-344.23
178.644	-344.23
178.864	-350.37
179.084	-381.09
179.304	-43.18
179.524	18.26
179.744	-2.22
179.964	-12.46
180.184	100.18
180.404	20.31
180.624	-45.23
180.844	-41.13
181.064	-32.94
181.283	55.12
181.503	-39.08
181.723	22.36
181.943	-94.38
182.163	194.39
182.383	3.93
182.602	34.64
182.822	91.99
183.042	87.89
183.262	36.69
183.482	48.98
183.701	63.32
183.921	22.36
184.141	-37.03
184.361	114.52
184.58	-26.79
184.8	10.07
185.02	-26.79
185.239	100.18
185.459	67.41
185.679	79.7
185.898	-47.27
186.118	26.45
186.338	77.65
186.557	147.28
186.777	-6.31
186.997	-26.79
187.216	89.94
187.436	192.34
187.655	79.7
187.875	42.84
188.095	59.22
188.314	46.93
188.534	130.9
188.753	-26.79
188.973	132.95
189.192	190.29
189.412	73.56
189.631	-43.18
189.851	116.56
190.07	178
190.29	38.74
190.509	-65.71
190.729	36.69
190.948	16.21
191.168	229.2
191.387	73.56
191.607	18.26
191.826	22.36
192.045	91.99
192.265	26.45
192.484	135
192.704	75.6
192.923	-63.66
193.142	169.81
193.362	135
193.581	155.47
193.8	-18.6
194.02	55.12
194.239	81.75
194.458	157.52
194.678	-2.22
194.897	5.97
195.116	36.69
195.335	108.37
195.555	124.76
195.774	10.07
195.993	141.14
196.212	-20.65
196.432	55.12
196.651	40.79
196.87	22.36
197.089	292.69
197.308	48.98
197.528	3.93
197.747	-16.55
197.966	16.21
198.185	143.19
198.404	51.03
198.623	104.28
198.842	48.98
199.062	135
199.281	135
199.5	14.17
199.719	46.93
199.938	16.21
200.157	12.12
200.376	104.28
200.595	96.08
200.814	108.37
201.033	-34.99
201.252	200.53
201.471	83.8
201.69	91.99
201.909	55.12
202.128	38.74
202.347	51.03
202.566	-2.22
202.785	-63.66
203.004	-20.65
203.223	165.71
203.442	69.46
203.661	-30.89
203.879	26.45
204.098	79.7
204.317	-34.99
204.536	106.32
204.755	81.75
204.974	114.52
205.193	18.26
205.411	167.76
205.63	83.8
205.849	22.36
206.068	65.36
206.287	32.6
206.505	110.42
206.724	-20.65
206.943	-80.04
207.162	-30.89
207.381	163.67
207.599	5.97
207.818	34.64
208.037	-34.99
208.255	8.02
208.474	51.03
208.693	38.74
208.911	40.79
209.13	87.89
209.349	100.18
209.567	53.08
209.786	132.95
210.005	85.84
210.223	-20.65
210.442	-125.1
210.661	67.41
210.879	46.93
211.098	83.8
211.316	-4.27
211.535	159.57
211.753	42.84
211.972	135
212.191	18.26
212.409	26.45
212.628	59.22
212.846	-49.32
213.065	73.56
213.283	102.23
213.502	14.17
213.72	94.04
213.938	3.93
214.157	51.03
214.375	63.32
214.594	-37.03
214.812	100.18
215.031	-2.22
215.249	12.12
215.467	116.56
215.686	98.13
215.904	22.36
216.122	57.17
216.341	73.56
216.559	83.8
216.778	161.62
216.996	98.13
217.214	44.88
217.432	53.08
217.651	-80.04
217.869	36.69
218.087	8.02
218.306	1.88
218.524	79.7
218.742	14.17
218.96	38.74
219.179	1.88
219.397	28.5
219.615	253.78
219.833	53.08
220.051	-61.61
220.27	51.03
220.488	139.09
220.706	59.22
220.924	-69.8
221.142	1.88
221.36	104.28
221.578	89.94
221.796	-12.46
222.015	38.74
222.233	38.74
222.451	182.1
222.669	-32.94
222.887	85.84
223.105	118.61
223.323	-12.46
223.541	-22.7
223.759	36.69
223.977	91.99
224.195	239.44
224.413	175.95
224.631	8.02
224.849	26.45
225.067	192.34
225.285	-18.6
225.503	-12.46
225.721	-26.79
225.939	16.21
226.157	30.55
226.375	218.96
226.592	-47.27
226.81	81.75
227.028	96.08
227.246	91.99
227.464	77.65
227.682	116.56
227.9	57.17
228.117	24.4
228.335	48.98
228.553	34.64
228.771	10.07
228.989	73.56
229.206	79.7
229.424	-6.31
229.642	30.55
229.86	12.12
230.077	145.24
230.295	69.46
230.513	151.38
230.731	122.71
230.948	227.15
231.166	128.85
231.384	14.17
231.601	-32.94
231.819	186.19
232.037	57.17
232.254	-28.84
232.472	38.74
232.689	-10.41
232.907	173.91
233.125	12.12
233.342	-39.08
233.56	-4.27
233.777	34.64
233.995	51.03
234.213	143.19
234.43	61.27
234.648	22.36
234.865	65.36
235.083	79.7
235.3	71.51
235.518	106.32
235.735	122.71
235.953	40.79
236.17	18.26
236.388	75.6
236.605	34.64
236.822	118.61
237.04	135
237.257	53.08
237.475	-28.84
237.692	83.8
237.909	85.84
238.127	-2.22
238.344	118.61
238.562	67.41
238.779	-41.13
238.996	-22.7
239.214	-2.22
239.431	91.99
239.648	30.55
239.865	8.02
240.083	73.56
240.3	3.93
240.517	8.02
240.735	-0.17
240.952	112.47
241.169	67.41
241.386	85.84
241.603	26.45
241.821	-51.37
242.038	110.42
242.255	102.23
242.472	-6.31
242.689	106.32
242.907	102.23
243.124	28.5
243.341	87.89
243.558	24.4
243.775	-59.56
243.992	-86.19
244.209	34.64
244.426	149.33
244.643	8.02
244.86	-4.27
245.078	36.69
245.295	73.56
245.512	55.12
245.729	-10.41
245.946	16.21
246.163	57.17
246.38	8.02
246.597	12.12
246.814	63.32
247.031	-34.99
247.248	34.64
247.464	67.41
247.681	-10.41
247.898	40.79
248.115	51.03
248.332	44.88
248.549	118.61
248.766	61.27
248.983	96.08
249.2	102.23
249.417	114.52
249.633	-14.51
249.85	81.75
250.067	61.27
250.284	61.27
250.501	79.7
250.717	44.88
250.934	-43.18
251.151	28.5
251.368	-55.47
251.585	-12.46
251.801	75.6
252.018	-6.31
252.235	61.27
252.451	-82.09
252.668	14.17
252.885	149.33
253.102	89.94
253.318	-30.89
253.535	44.88
253.752	32.6
253.968	-80.04
254.185	-32.94
254.401	139.09
254.618	102.23
254.835	3.93
255.051	120.66
255.268	20.31
255.484	57.17
255.701	22.36
255.917	69.46
256.134	-14.51
256.351	55.12
256.567	-65.71
256.784	40.79
257	-37.03
257.217	46.93
257.433	118.61
257.65	-10.41
257.866	110.42
258.082	-28.84
258.299	-20.65
258.515	91.99
258.732	38.74
258.948	-55.47
259.165	46.93
259.381	-43.18
259.597	46.93
259.814	-10.41
260.03	-41.13
260.246	85.84
260.463	108.37
260.679	22.36
260.895	8.02
261.112	81.75
261.328	51.03
261.544	-82.09
261.761	225.11
261.977	-10.41
262.193	-16.55
262.409	114.52
262.626	57.17
262.842	22.36
263.058	65.36
263.274	128.85
263.49	79.7
263.707	44.88
263.923	102.23
264.139	-102.57
264.355	71.51
264.571	34.64
264.787	51.03
265.004	118.61
265.22	36.69
265.436	-22.7
265.652	36.69
265.868	-8.36
266.084	1.88
266.3	38.74
266.516	22.36
266.732	46.93
266.948	5.97
267.164	44.88
267.38	61.27
267.596	155.47
267.812	165.71
268.028	59.22
268.244	28.5
268.46	40.79
268.676	28.5
268.892	83.8
269.108	-73.9
269.324	-53.42
269.54	-32.94
269.756	40.79
269.972	-125.1
270.188	36.69
270.403	38.74
270.619	135
270.835	108.37
271.051	42.84
271.267	73.56
271.483	14.17
271.698	40.79
271.914	65.36
272.13	57.17
272.346	42.84
272.562	48.98
272.777	130.9
272.993	36.69
273.209	-51.37
273.425	73.56
273.64	1.88
273.856	126.8
274.072	59.22
274.287	-20.65
274.503	116.56
274.719	126.8
274.934	36.69
275.15	32.6
275.366	20.31
275.581	-90.28
275.797	-14.51
276.012	40.79
276.228	81.75
276.444	91.99
276.659	149.33
276.875	-73.9
277.09	59.22
277.306	-28.84
277.521	63.32
277.737	55.12
277.952	16.21
278.168	46.93
278.383	46.93
278.599	79.7
278.814	26.45
279.03	26.45
279.245	98.13
279.461	102.23
279.676	81.75
279.892	-45.23
280.107	-30.89
280.322	-20.65
280.538	91.99
280.753	-65.71
280.969	85.84
281.184	65.36
281.399	155.47
281.615	63.32
281.83	-8.36
282.045	-49.32
282.26	34.64
282.476	132.95
282.691	102.23
282.906	116.56
283.122	67.41
283.337	-32.94
283.552	114.52
283.767	-24.75
283.983	114.52
284.198	26.45
284.413	53.08
284.628	-45.23
284.843	34.64
285.058	71.51
285.274	-14.51
285.489	5.97
285.704	175.95
285.919	32.6
286.134	-8.36
286.349	71.51
286.564	12.12
286.779	94.04
286.995	57.17
287.21	-32.94
287.425	79.7
287.64	-18.6
287.855	32.6
288.07	-67.75
288.285	40.79
288.5	67.41
288.715	44.88
288.93	81.75
289.145	16.21
289.36	8.02
289.575	65.36
289.79	196.43
290.004	26.45
290.219	102.23
290.434	-34.99
290.649	-28.84
290.864	32.6
291.079	32.6
291.294	83.8
291.509	36.69
291.724	83.8
291.938	-6.31
292.153	32.6
292.368	87.89
292.583	-0.17
292.798	126.8
293.012	73.56
293.227	57.17
293.442	5.97
293.657	128.85
293.871	98.13
294.086	34.64
294.301	151.38
294.516	106.32
294.73	69.46
294.945	-32.94
295.16	65.36
295.374	94.04
295.589	96.08
295.804	10.07
296.018	75.6
296.233	157.52
296.447	63.32
296.662	10.07
296.877	192.34
297.091	18.26
297.306	-6.31
297.52	-4.27
297.735	67.41
297.949	63.32
298.164	112.47
298.378	38.74
298.593	1.88
298.807	-18.6
299.022	67.41
299.236	188.24
299.451	59.22
299.665	-12.46
299.88	34.64
300.094	12.12
300.309	-8.36
300.523	87.89
300.737	18.26
300.952	151.38
301.166	120.66
301.381	-39.08
301.595	89.94
301.809	69.46
302.024	22.36
302.238	-14.51
302.452	114.52
302.667	20.31
302.881	135
303.095	151.38
303.309	34.64
303.524	-14.51
303.738	3.93
303.952	-26.79
304.166	81.75
304.381	-123.05
304.595	159.57
304.809	-6.31
305.023	77.65
305.237	67.41
305.452	-16.55
305.666	75.6
305.88	102.23
306.094	108.37
306.308	114.52
306.522	83.8
306.736	28.5
306.95	102.23
307.164	-39.08
307.379	14.17
307.593	91.99
307.807	153.43
308.021	85.84
308.235	81.75
308.449	-86.19
308.663	28.5
308.877	175.95
309.091	34.64
309.305	104.28
309.519	-43.18
309.733	79.7
309.947	-28.84
310.161	61.27
310.374	91.99
310.588	151.38
310.802	14.17
311.016	98.13
311.23	14.17
311.444	1.88
311.658	38.74
311.872	143.19
312.085	75.6
312.299	186.19
312.513	122.71
312.727	30.55
312.941	14.17
313.154	44.88
313.368	135
313.582	51.03
313.796	42.84
314.009	79.7
314.223	67.41
314.437	-34.99
314.651	124.76
314.864	-41.13
315.078	-30.89
315.292	-39.08
315.505	-22.7
315.719	145.24
315.933	79.7
316.146	-26.79
316.36	28.5
316.573	128.85
316.787	126.8
317.001	73.56
317.214	-53.42
317.428	65.36
317.641	55.12
317.855	-26.79
318.068	57.17
318.282	53.08
318.495	231.25
318.709	67.41
318.922	51.03
319.136	143.19
319.349	28.5
319.563	69.46
319.776	75.6
319.99	-67.75
320.203	104.28
320.417	-4.27
320.63	91.99
320.843	163.67
321.057	36.69
321.27	28.5
321.483	81.75
321.697	161.62
321.91	34.64
322.124	112.47
322.337	114.52
322.55	10.07
322.763	32.6
322.977	10.07
323.19	18.26
323.403	59.22
323.617	53.08
323.83	112.47
324.043	-20.65
324.256	40.79
324.469	-39.08
324.683	32.6
324.896	-51.37
325.109	-16.55
325.322	-43.18
325.535	46.93
325.748	87.89
325.962	73.56
326.175	98.13
326.388	-20.65
326.601	196.43
326.814	-0.17
327.027	67.41
327.24	247.63
327.453	3.93
327.666	132.95
327.879	57.17
328.092	114.52
328.305	77.65
328.518	26.45
328.731	34.64
328.944	96.08
329.157	63.32
329.37	8.02
329.583	218.96
329.796	106.32
330.009	22.36
330.222	132.95
330.435	130.9
330.648	63.32
330.861	79.7
331.073	48.98
331.286	8.02
331.499	79.7
331.712	-34.99
331.925	73.56
332.138	16.21
332.35	75.6
332.563	-0.17
332.776	118.61
332.989	10.07
333.202	-4.27
333.414	85.84
333.627	-14.51
333.84	77.65
334.053	102.23
334.265	34.64
334.478	-12.46
334.691	51.03
334.903	36.69
335.116	-30.89
335.329	8.02
335.541	63.32
335.754	128.85
335.966	-47.27
336.179	12.12
336.392	5.97
336.604	24.4
336.817	120.66
337.029	48.98
337.242	83.8
337.454	112.47
337.667	32.6
337.88	186.19
338.092	44.88
338.305	55.12
338.517	61.27
338.729	81.75
338.942	122.71
339.154	-55.47
339.367	-22.7
339.579	85.84
339.792	5.97
340.004	94.04
340.217	3.93
340.429	77.65
340.641	-18.6
340.854	-49.32
341.066	30.55
341.278	165.71
341.491	188.24
341.703	1.88
341.915	-22.7
342.128	122.71
342.34	87.89
342.552	-49.32
342.764	57.17
342.977	20.31
343.189	155.47
343.401	5.97
343.613	-53.42
343.826	102.23
344.038	-2.22
344.25	-0.17
344.462	14.17
344.674	30.55
344.886	38.74
345.099	18.26
345.311	16.21
345.523	28.5
345.735	-47.27
345.947	110.42
346.159	83.8
346.371	16.21
346.583	12.12
346.795	139.09
347.007	-12.46
347.219	61.27
347.431	75.6
347.643	143.19
347.855	53.08
348.067	178
348.279	24.4
348.491	53.08
348.703	124.76
348.915	69.46
349.127	-12.46
349.339	59.22
349.551	22.36
349.763	175.95
349.975	3.93
350.187	110.42
350.399	116.56
350.61	120.66
350.822	-22.7
351.034	-8.36
351.246	38.74
351.458	75.6
351.669	110.42
351.881	145.24
352.093	83.8
352.305	106.32
352.517	28.5
352.728	132.95
352.94	98.13
353.152	100.18
353.363	-28.84
353.575	44.88
353.787	116.56
353.999	94.04
354.21	161.62
354.422	5.97
354.633	-16.55
354.845	36.69
355.057	34.64
355.268	22.36
355.48	126.8
355.692	-129.19
355.903	89.94
356.115	-6.31
356.326	-80.04
356.538	126.8
356.749	126.8
356.961	182.1
357.172	-2.22
357.384	-127.14
357.595	253.78
357.807	-0.17
358.018	-34.99
358.23	-14.51
358.441	161.62
358.653	106.32
358.864	63.32
359.075	3.93
359.287	-16.55
359.498	139.09
359.709	120.66
359.921	94.04
360.132	38.74
360.344	69.46
360.555	51.03
360.766	71.51
360.977	36.69
361.189	173.91
361.4	18.26
361.611	159.57
361.823	126.8
362.034	147.28
362.245	-86.19
362.456	38.74
362.667	130.9
362.879	-20.65
363.09	22.36
363.301	98.13
363.512	14.17
363.723	59.22
363.935	-67.75
364.146	149.33
364.357	-39.08
364.568	110.42
364.779	-61.61
364.99	110.42
365.201	59.22
365.412	147.28
365.623	5.97
365.834	61.27
366.045	53.08
366.256	118.61
366.467	104.28
366.678	55.12
366.889	77.65
367.1	8.02
367.311	91.99
367.522	-39.08
367.733	32.6
367.944	153.43
368.155	-20.65
368.366	91.99
368.577	145.24
368.788	89.94
368.999	14.17
369.209	48.98
369.42	212.82
369.631	214.87
369.842	87.89
370.053	24.4
370.264	57.17
370.474	46.93
370.685	61.27
370.896	65.36
371.107	89.94
371.317	141.14
371.528	-55.47
371.739	139.09
371.95	132.95
372.16	85.84
372.371	-12.46
372.582	1.88
372.792	116.56
373.003	32.6
373.214	75.6
373.424	67.41
373.635	-67.75
373.846	167.76
374.056	96.08
374.267	118.61
374.477	55.12
374.688	-49.32
374.898	69.46
375.109	106.32
375.319	-18.6
375.53	122.71
375.74	153.43
375.951	-8.36
376.161	137.04
376.372	96.08
376.582	36.69
376.793	122.71
377.003	53.08
377.214	1.88
377.424	120.66
377.635	75.6
377.845	44.88
378.055	102.23
378.266	-59.56
378.476	8.02
378.686	87.89
378.897	81.75
379.107	149.33
379.317	126.8
379.528	34.64
379.738	118.61
379.948	-104.62
380.158	67.41
380.369	18.26
380.579	34.64
380.789	77.65
380.999	118.61
381.21	110.42
381.42	175.95
381.63	65.36
381.84	73.56
382.05	135
382.261	141.14
382.471	102.23
382.681	-22.7
382.891	153.43
383.101	16.21
383.311	10.07
383.521	3.93
383.731	69.46
383.941	96.08
384.151	67.41
384.361	26.45
384.571	28.5
384.781	79.7
384.991	139.09
385.201	149.33
385.411	139.09
385.621	59.22
385.831	46.93
386.041	34.64
386.251	40.79
386.461	122.71
386.671	24.4
386.881	75.6
387.091	67.41
387.301	87.89
387.511	126.8
387.72	130.9
387.93	51.03
388.14	-51.37
388.35	77.65
388.56	81.75
388.769	89.94
388.979	59.22
389.189	-55.47
389.399	104.28
389.609	178
389.818	87.89
390.028	79.7
390.238	120.66
390.447	-28.84
390.657	69.46
390.867	71.51
391.076	-71.85
391.286	51.03
391.496	34.64
391.705	-6.31
391.915	120.66
392.125	116.56
392.334	-65.71
392.544	141.14
392.753	114.52
392.963	24.4
393.172	-16.55
393.382	-14.51
393.591	190.29
393.801	26.45
394.01	141.14
394.22	141.14
394.429	116.56
394.639	12.12
394.848	104.28
395.058	53.08
395.267	32.6
395.477	32.6
395.686	38.74
395.895	186.19
396.105	155.47
396.314	141.14
396.524	57.17
396.733	20.31
396.942	139.09
397.152	149.33
397.361	48.98
397.57	98.13
397.78	-4.27
397.989	130.9
398.198	196.43
398.407	8.02
398.617	46.93
398.826	30.55
399.035	53.08
399.244	83.8
399.453	116.56
399.663	40.79
399.872	-51.37
400.081	16.21
400.29	112.47
400.499	5.97
400.708	75.6
400.917	94.04
401.127	46.93
401.336	-0.17
401.545	200.53
401.754	132.95
401.963	-12.46
402.172	-53.42
402.381	-86.19
402.59	34.64
402.799	91.99
403.008	118.61
403.217	-2.22
403.426	75.6
403.635	-20.65
403.844	59.22
404.053	-4.27
404.262	71.51
404.471	178
404.68	38.74
404.888	53.08
405.097	122.71
405.306	53.08
405.515	151.38
405.724	28.5
405.933	116.56
406.142	42.84
406.35	163.67
406.559	-10.41
406.768	12.12
406.977	89.94
407.185	104.28
407.394	96.08
407.603	-32.94
407.812	83.8
408.02	112.47
408.229	112.47
408.438	44.88
408.646	-77.99
408.855	38.74
409.064	59.22
409.272	-2.22
409.481	44.88
409.69	30.55
409.898	79.7
410.107	34.64
410.315	79.7
410.524	-18.6
410.733	53.08
410.941	-47.27
411.15	63.32
411.358	96.08
411.567	175.95
411.775	67.41
411.984	73.56
412.192	161.62
412.401	30.55
412.609	130.9
412.818	120.66
413.026	91.99
413.234	16.21
413.443	85.84
413.651	-2.22
413.86	-2.22
414.068	143.19
414.276	159.57
414.485	55.12
414.693	147.28
414.901	192.34
415.11	147.28
415.318	71.51
415.526	104.28
415.734	65.36
415.943	46.93
416.151	98.13
416.359	24.4
416.567	-16.55
416.776	51.03
416.984	149.33
417.192	198.48
417.4	-75.95
417.608	71.51
417.817	12.12
418.025	77.65
418.233	102.23
418.441	16.21
418.649	-0.17
418.857	59.22
419.065	102.23
419.273	-41.13
419.481	30.55
419.689	48.98
419.897	3.93
420.105	3.93
420.313	135
420.521	98.13
420.729	202.58
420.937	38.74
421.145	-61.61
421.353	106.32
421.561	218.96
421.769	102.23
421.977	8.02
422.185	116.56
422.393	20.31
422.601	112.47
422.809	53.08
423.017	91.99
423.224	61.27
423.432	87.89
423.64	40.79
423.848	184.15
424.056	65.36
424.263	118.61
424.471	55.12
424.679	122.71
424.887	1.88
425.094	161.62
425.302	85.84
425.51	14.17
425.718	91.99
425.925	51.03
426.133	28.5
426.341	153.43
426.548	63.32
426.756	75.6
426.964	128.85
427.171	44.88
427.379	53.08
427.586	59.22
427.794	69.46
428.001	104.28
428.209	34.64
428.417	165.71
428.624	89.94
428.832	40.79
429.039	63.32
429.247	94.04
429.454	124.76
429.662	190.29
429.869	126.8
430.076	81.75
430.284	135
430.491	190.29
430.699	198.48
430.906	178
431.114	163.67
431.321	153.43
431.528	98.13
431.736	96.08
431.943	137.04
432.15	135
432.358	159.57
432.565	233.3
432.772	32.6
432.979	264.02
433.187	89.94
433.394	175.95
433.601	141.14
433.808	229.2
434.016	249.68
434.223	204.63
434.43	225.11
434.637	304.98
434.844	212.82
435.052	184.15
435.259	261.97
435.466	286.54
435.673	221.01
435.88	251.73
436.087	266.07
436.294	327.5
436.501	292.69
436.708	229.2
436.915	214.87
437.122	337.74
437.329	243.54
437.537	266.07
437.743	323.41
437.95	378.7
438.157	335.7
438.364	327.5
438.571	337.74
438.778	345.94
438.985	421.71
439.192	456.53
439.399	345.94
439.606	507.73
439.813	464.72
440.02	636.75
440.227	530.25
440.433	440.14
440.64	425.81
440.847	388.94
441.054	567.12
441.261	644.94
441.467	489.29
441.674	552.78
441.881	675.66
442.088	579.4
442.294	677.71
442.501	702.28
442.708	720.71
442.914	663.37
443.121	771.91
443.328	696.14
443.534	771.91
443.741	681.8
443.948	657.23
444.154	950.09
444.361	984.9
444.568	876.36
444.774	859.98
444.981	839.5
445.187	1079.11
445.394	1075.01
445.6	1056.58
445.807	1238.85
446.013	1122.12
446.22	1101.64
446.426	1195.84
446.633	1292.1
446.839	1546.05
447.046	1105.73
447.252	1480.51
447.459	1419.07
447.665	1486.65
447.871	1548.09
448.078	1828.67
448.284	1670.97
448.491	1781.56
448.697	1902.39
448.903	1888.06
449.11	1922.87
449.316	1863.48
449.522	2101.05
449.728	2189.11
449.935	2342.71
450.141	2201.4
450.347	2432.82
450.553	2463.54
450.76	2479.92
450.966	2543.41
451.172	2615.09
451.378	2854.7
451.584	2809.64
451.791	3090.21
451.997	3143.46
452.203	3182.37
452.409	3258.15
452.615	3526.43
452.821	3428.13
453.027	3434.27
453.233	3952.41
453.44	3745.56
453.646	4024.09
453.852	4140.82
454.058	4255.51
454.264	4417.3
454.47	4720.4
454.676	4796.17
454.882	5162.76
455.088	4919.05
455.294	5144.33
455.5	5768.96
455.705	5818.11
455.911	5895.93
456.117	6004.47
456.323	6373.11
456.529	6264.57
456.735	6872.81
456.941	6997.74
457.147	7284.45
457.352	7485.16
457.558	7841.5
457.764	8081.11
457.97	8347.35
458.176	8830.67
458.381	9176.78
458.587	9490.12
458.793	9586.37
458.999	9647.81
459.204	11056.81
459.41	11435.69
459.616	11060.91
459.821	11744.93
460.027	12306.07
460.233	12828.31
460.438	13053.58
460.644	13762.18
460.85	13739.65
461.055	14345.85
461.261	15095.41
461.466	14769.78
461.672	14900.85
461.878	16537.18
462.083	16709.21
462.289	16760.41
462.494	17608.26
462.7	17784.39
462.905	17931.84
463.111	19498.54
463.316	20534.81
463.522	20450.85
463.727	21362.19
463.932	22418.94
464.138	23084.53
464.343	23645.68
464.549	23918.06
464.754	25902.54
464.959	26303.94
465.165	26774.97
465.37	26541.5
465.575	26658.24
465.781	28317.09
465.986	29080.99
466.191	28458.4
466.397	28878.24
466.602	28513.7
466.807	29769.1
467.012	30152.07
467.218	31090.04
467.423	30926.21
467.628	31829.36
467.833	33232.22
468.038	32566.63
468.244	31817.07
468.449	33447.25
468.654	32847.2
468.859	32791.9
469.064	32793.95
469.269	32316.78
469.474	32273.77
