Data from USB4F104151__51__10-25-37-432.txt Node

Date: Wed Feb 26 10:25:37 EST 2025
User: louis
Spectrometer: USB4F10415
Trigger mode: 4
Integration Time (sec): 1.000000E-1
Scans to average: 1
Electric dark correction enabled: true
Nonlinearity correction enabled: false
Boxcar width: 0
XAxis mode: Wavelengths
Number of Pixels in Spectrum: 3648
>>>>>Begin Spectral Data<<<<<
178.204	-310.1
178.424	-310.1
178.644	-310.1
178.864	-336.72
179.084	-453.45
179.304	-31.57
179.524	17.58
179.744	-11.09
179.964	52.39
180.184	66.73
180.404	9.39
180.624	-84.82
180.844	-23.38
181.064	-82.77
181.283	29.87
181.503	-21.33
181.723	79.02
181.943	-88.92
182.163	205.99
182.383	-39.76
182.602	74.92
182.822	199.85
183.042	101.55
183.262	74.92
183.482	11.43
183.701	-41.81
183.921	52.39
184.141	-25.43
184.361	156.84
184.58	95.4
184.8	33.96
185.02	31.91
185.239	83.11
185.459	99.5
185.679	173.22
185.898	-60.24
186.118	64.68
186.338	70.83
186.557	91.31
186.777	-68.44
186.997	33.96
187.216	25.77
187.436	234.66
187.655	60.59
187.875	91.31
188.095	87.21
188.314	95.4
188.534	83.11
188.753	-60.24
188.973	115.88
189.192	208.04
189.412	-88.92
189.631	1.19
189.851	136.36
190.07	210.09
190.29	-0.85
190.509	-37.72
190.729	74.92
190.948	191.66
191.168	214.18
191.387	-13.14
191.607	3.24
191.826	52.39
192.045	36.01
192.265	-0.85
192.484	-76.63
192.704	107.69
192.923	-58.2
193.142	124.07
193.362	72.87
193.581	197.8
193.8	68.78
194.02	117.93
194.239	46.25
194.458	89.26
194.678	93.35
194.897	54.44
195.116	142.5
195.335	81.07
195.555	62.63
195.774	66.73
195.993	79.02
196.212	38.06
196.432	19.63
196.651	-25.43
196.87	-29.52
197.089	201.9
197.308	48.3
197.528	25.77
197.747	-4.95
197.966	56.49
198.185	99.5
198.404	-58.2
198.623	50.35
198.842	62.63
199.062	119.98
199.281	103.59
199.5	13.48
199.719	89.26
199.938	-2.9
200.157	89.26
200.376	160.94
200.595	117.93
200.814	36.01
201.033	-11.09
201.252	101.55
201.471	85.16
201.69	105.64
201.909	85.16
202.128	105.64
202.347	111.78
202.566	-15.19
202.785	-88.92
203.004	11.43
203.223	240.81
203.442	25.77
203.661	-74.58
203.879	44.2
204.098	134.31
204.317	-52.05
204.536	107.69
204.755	66.73
204.974	130.22
205.193	27.82
205.411	148.65
205.63	101.55
205.849	70.83
206.068	-35.67
206.287	-93.01
206.505	85.16
206.724	38.06
206.943	36.01
207.162	-52.05
207.381	111.78
207.599	-31.57
207.818	27.82
208.037	7.34
208.255	5.29
208.474	-7
208.693	83.11
208.911	21.67
209.13	122.02
209.349	165.03
209.567	46.25
209.786	162.98
210.005	152.74
210.223	46.25
210.442	-136.02
210.661	-31.57
210.879	101.55
211.098	-17.24
211.316	134.31
211.535	97.45
211.753	62.63
211.972	31.91
212.191	5.29
212.409	-41.81
212.628	70.83
212.846	19.63
213.065	15.53
213.283	181.42
213.502	105.64
213.72	54.44
213.938	52.39
214.157	54.44
214.375	148.65
214.594	-15.19
214.812	156.84
215.031	62.63
215.249	60.59
215.467	62.63
215.686	52.39
215.904	144.55
216.122	99.5
216.341	109.74
216.559	1.19
216.778	31.91
216.996	79.02
217.214	54.44
217.432	-11.09
217.651	-56.15
217.869	9.39
218.087	99.5
218.306	-33.62
218.524	11.43
218.742	19.63
218.96	76.97
219.179	-9.05
219.397	-0.85
219.615	287.91
219.833	79.02
220.051	11.43
220.27	58.54
220.488	111.78
220.706	25.77
220.924	-13.14
221.142	-13.14
221.36	66.73
221.578	68.78
221.796	-17.24
222.015	7.34
222.233	85.16
222.451	156.84
222.669	-115.54
222.887	56.49
223.105	17.58
223.323	89.26
223.541	7.34
223.759	9.39
223.977	117.93
224.195	156.84
224.413	40.11
224.631	27.82
224.849	64.68
225.067	210.09
225.285	54.44
225.503	46.25
225.721	-111.44
225.939	93.35
226.157	105.64
226.375	226.47
226.592	11.43
226.81	-0.85
227.028	62.63
227.246	58.54
227.464	48.3
227.682	89.26
227.9	74.92
228.117	124.07
228.335	126.12
228.553	9.39
228.771	42.15
228.989	72.87
229.206	156.84
229.424	-17.24
229.642	52.39
229.86	-76.63
230.077	130.22
230.295	29.87
230.513	126.12
230.731	56.49
230.948	140.46
231.166	171.18
231.384	21.67
231.601	58.54
231.819	212.14
232.037	15.53
232.254	-52.05
232.472	-21.33
232.689	17.58
232.907	119.98
233.125	64.68
233.342	-17.24
233.56	5.29
233.777	74.92
233.995	5.29
234.213	87.21
234.43	52.39
234.648	56.49
234.865	56.49
235.083	89.26
235.3	58.54
235.518	19.63
235.735	85.16
235.953	101.55
236.17	154.79
236.388	-2.9
236.605	54.44
236.822	111.78
237.04	115.88
237.257	91.31
237.475	-21.33
237.692	15.53
237.909	56.49
238.127	56.49
238.344	31.91
238.562	52.39
238.779	-72.53
238.996	-56.15
239.214	23.72
239.431	103.59
239.648	-15.19
239.865	25.77
240.083	126.12
240.3	56.49
240.517	-13.14
240.735	72.87
240.952	220.33
241.169	97.45
241.386	1.19
241.603	52.39
241.821	-27.48
242.038	101.55
242.255	150.7
242.472	-2.9
242.689	126.12
242.907	124.07
243.124	85.16
243.341	13.48
243.558	-13.14
243.775	-41.81
243.992	-43.86
244.209	181.42
244.426	160.94
244.643	-2.9
244.86	21.67
245.078	81.07
245.295	60.59
245.512	33.96
245.729	-19.29
245.946	33.96
246.163	89.26
246.38	58.54
246.597	17.58
246.814	-2.9
247.031	21.67
247.248	46.25
247.464	44.2
247.681	68.78
247.898	19.63
248.115	91.31
248.332	-90.96
248.549	79.02
248.766	179.37
248.983	107.69
249.2	29.87
249.417	40.11
249.633	-35.67
249.85	38.06
250.067	44.2
250.284	46.25
250.501	5.29
250.717	136.36
250.934	-17.24
251.151	60.59
251.368	5.29
251.585	74.92
251.801	66.73
252.018	-50
252.235	113.83
252.451	17.58
252.668	105.64
252.885	130.22
253.102	46.25
253.318	19.63
253.535	9.39
253.752	-11.09
253.968	-7
254.185	44.2
254.401	40.11
254.618	44.2
254.835	11.43
255.051	126.12
255.268	99.5
255.484	44.2
255.701	15.53
255.917	52.39
256.134	-56.15
256.351	31.91
256.567	25.77
256.784	27.82
257	-127.83
257.217	101.55
257.433	-17.24
257.65	-0.85
257.866	115.88
258.082	-7
258.299	-33.62
258.515	56.49
258.732	-23.38
258.948	-88.92
259.165	109.74
259.381	-27.48
259.597	29.87
259.814	74.92
260.03	40.11
260.246	52.39
260.463	175.27
260.679	201.9
260.895	111.78
261.112	119.98
261.328	15.53
261.544	42.15
261.761	185.51
261.977	-17.24
262.193	-7
262.409	152.74
262.626	23.72
262.842	42.15
263.058	-80.72
263.274	138.41
263.49	58.54
263.707	107.69
263.923	111.78
264.139	-127.83
264.355	99.5
264.571	83.11
264.787	31.91
265.004	167.08
265.22	64.68
265.436	31.91
265.652	-29.52
265.868	79.02
266.084	-111.44
266.3	50.35
266.516	15.53
266.732	76.97
266.948	44.2
267.164	31.91
267.38	89.26
267.596	11.43
267.812	85.16
268.028	40.11
268.244	5.29
268.46	38.06
268.676	-31.57
268.892	58.54
269.108	-37.72
269.324	1.19
269.54	21.67
269.756	25.77
269.972	-70.48
270.188	103.59
270.403	-13.14
270.619	-47.96
270.835	87.21
271.051	17.58
271.267	13.48
271.483	13.48
271.698	124.07
271.914	64.68
272.13	103.59
272.346	17.58
272.562	83.11
272.777	107.69
272.993	-52.05
273.209	19.63
273.425	113.83
273.64	-64.34
273.856	103.59
274.072	7.34
274.287	5.29
274.503	113.83
274.719	97.45
274.934	54.44
275.15	-60.24
275.366	40.11
275.581	81.07
275.797	3.24
276.012	68.78
276.228	17.58
276.444	42.15
276.659	160.94
276.875	-31.57
277.09	72.87
277.306	-64.34
277.521	95.4
277.737	54.44
277.952	89.26
278.168	93.35
278.383	52.39
278.599	-4.95
278.814	50.35
279.03	-2.9
279.245	212.14
279.461	38.06
279.676	111.78
279.892	-15.19
280.107	11.43
280.322	11.43
280.538	54.44
280.753	5.29
280.969	60.59
281.184	-29.52
281.399	111.78
281.615	52.39
281.83	105.64
282.045	-90.96
282.26	-33.62
282.476	56.49
282.691	113.83
282.906	31.91
283.122	93.35
283.337	5.29
283.552	115.88
283.767	-0.85
283.983	132.26
284.198	13.48
284.413	93.35
284.628	-101.2
284.843	72.87
285.058	97.45
285.274	3.24
285.489	-37.72
285.704	167.08
285.919	-37.72
286.134	17.58
286.349	68.78
286.564	15.53
286.779	107.69
286.995	27.82
287.21	-31.57
287.425	62.63
287.64	15.53
287.855	132.26
288.07	1.19
288.285	138.41
288.5	138.41
288.715	38.06
288.93	29.87
289.145	-13.14
289.36	87.21
289.575	79.02
289.79	154.79
290.004	68.78
290.219	56.49
290.434	-17.24
290.649	-9.05
290.864	3.24
291.079	56.49
291.294	54.44
291.509	197.8
291.724	5.29
291.938	-25.43
292.153	97.45
292.368	-15.19
292.583	5.29
292.798	179.37
293.012	50.35
293.227	79.02
293.442	-0.85
293.657	130.22
293.871	169.13
294.086	54.44
294.301	156.84
294.516	105.64
294.73	68.78
294.945	-9.05
295.16	50.35
295.374	140.46
295.589	158.89
295.804	38.06
296.018	89.26
296.233	124.07
296.447	44.2
296.662	-21.33
296.877	46.25
297.091	52.39
297.306	-39.76
297.52	-2.9
297.735	54.44
297.949	40.11
298.164	5.29
298.378	7.34
298.593	13.48
298.807	29.87
299.022	68.78
299.236	109.74
299.451	-23.38
299.665	-0.85
299.88	74.92
300.094	107.69
300.309	48.3
300.523	50.35
300.737	29.87
300.952	-17.24
301.166	105.64
301.381	-13.14
301.595	17.58
301.809	42.15
302.024	-37.72
302.238	17.58
302.452	81.07
302.667	99.5
302.881	107.69
303.095	29.87
303.309	7.34
303.524	-17.24
303.738	40.11
303.952	-82.77
304.166	56.49
304.381	-93.01
304.595	132.26
304.809	1.19
305.023	23.72
305.237	44.2
305.452	-13.14
305.666	93.35
305.88	68.78
306.094	101.55
306.308	40.11
306.522	91.31
306.736	25.77
306.95	83.11
307.164	31.91
307.379	87.21
307.593	189.61
307.807	27.82
308.021	64.68
308.235	23.72
308.449	-60.24
308.663	42.15
308.877	242.85
309.091	17.58
309.305	58.54
309.519	-97.11
309.733	111.78
309.947	-90.96
310.161	38.06
310.374	91.31
310.588	46.25
310.802	-9.05
311.016	7.34
311.23	33.96
311.444	-76.63
311.658	-9.05
311.872	87.21
312.085	119.98
312.299	128.17
312.513	105.64
312.727	31.91
312.941	9.39
313.154	46.25
313.368	5.29
313.582	62.63
313.796	64.68
314.009	9.39
314.223	93.35
314.437	31.91
314.651	101.55
314.864	48.3
315.078	-23.38
315.292	23.72
315.505	42.15
315.719	93.35
315.933	66.73
316.146	-19.29
316.36	-2.9
316.573	101.55
316.787	56.49
317.001	25.77
317.214	-70.48
317.428	46.25
317.641	3.24
317.855	-15.19
318.068	74.92
318.282	138.41
318.495	132.26
318.709	68.78
318.922	-17.24
319.136	115.88
319.349	60.59
319.563	-11.09
319.776	113.83
319.99	-68.44
320.203	72.87
320.417	27.82
320.63	111.78
320.843	234.66
321.057	126.12
321.27	-15.19
321.483	138.41
321.697	197.8
321.91	85.16
322.124	58.54
322.337	101.55
322.55	-9.05
322.763	21.67
322.977	-35.67
323.19	-13.14
323.403	105.64
323.617	134.31
323.83	95.4
324.043	58.54
324.256	83.11
324.469	-15.19
324.683	156.84
324.896	87.21
325.109	33.96
325.322	-52.05
325.535	134.31
325.748	36.01
325.962	-84.82
326.175	74.92
326.388	21.67
326.601	48.3
326.814	48.3
327.027	15.53
327.24	199.85
327.453	-7
327.666	70.83
327.879	167.08
328.092	111.78
328.305	40.11
328.518	-2.9
328.731	-31.57
328.944	60.59
329.157	58.54
329.37	-72.53
329.583	187.56
329.796	107.69
330.009	-25.43
330.222	25.77
330.435	33.96
330.648	119.98
330.861	72.87
331.073	72.87
331.286	124.07
331.499	85.16
331.712	21.67
331.925	-4.95
332.138	33.96
332.35	126.12
332.563	5.29
332.776	128.17
332.989	-4.95
333.202	48.3
333.414	115.88
333.627	83.11
333.84	38.06
334.053	117.93
334.265	25.77
334.478	-31.57
334.691	-41.81
334.903	117.93
335.116	3.24
335.329	13.48
335.541	66.73
335.754	208.04
335.966	-19.29
336.179	15.53
336.392	5.29
336.604	19.63
336.817	111.78
337.029	169.13
337.242	40.11
337.454	83.11
337.667	3.24
337.88	91.31
338.092	66.73
338.305	60.59
338.517	7.34
338.729	74.92
338.942	64.68
339.154	-4.95
339.367	21.67
339.579	72.87
339.792	-9.05
340.004	132.26
340.217	-4.95
340.429	66.73
340.641	1.19
340.854	-17.24
341.066	-9.05
341.278	122.02
341.491	173.22
341.703	-7
341.915	-52.05
342.128	76.97
342.34	83.11
342.552	7.34
342.764	15.53
342.977	21.67
343.189	50.35
343.401	144.55
343.613	-21.33
343.826	74.92
344.038	29.87
344.25	66.73
344.462	42.15
344.674	64.68
344.886	48.3
345.099	44.2
345.311	46.25
345.523	7.34
345.735	-29.52
345.947	171.18
346.159	81.07
346.371	27.82
346.583	50.35
346.795	224.42
347.007	48.3
347.219	44.2
347.431	134.31
347.643	136.36
347.855	40.11
348.067	130.22
348.279	11.43
348.491	60.59
348.703	15.53
348.915	-41.81
349.127	17.58
349.339	-15.19
349.551	11.43
349.763	187.56
349.975	93.35
350.187	15.53
350.399	130.22
350.61	103.59
350.822	23.72
351.034	-15.19
351.246	105.64
351.458	64.68
351.669	122.02
351.881	111.78
352.093	107.69
352.305	68.78
352.517	117.93
352.728	83.11
352.94	79.02
353.152	99.5
353.363	-78.68
353.575	54.44
353.787	138.41
353.999	56.49
354.21	167.08
354.422	-27.48
354.633	109.74
354.845	-9.05
355.057	38.06
355.268	68.78
355.48	105.64
355.692	-41.81
355.903	-23.38
356.115	-35.67
356.326	-35.67
356.538	158.89
356.749	68.78
356.961	107.69
357.172	54.44
357.384	-115.54
357.595	240.81
357.807	13.48
358.018	-113.49
358.23	-0.85
358.441	191.66
358.653	46.25
358.864	19.63
359.075	70.83
359.287	101.55
359.498	31.91
359.709	31.91
359.921	31.91
360.132	72.87
360.344	72.87
360.555	17.58
360.766	58.54
360.977	66.73
361.189	97.45
361.4	1.19
361.611	40.11
361.823	93.35
362.034	-11.09
362.245	-70.48
362.456	-13.14
362.667	122.02
362.879	-76.63
363.09	89.26
363.301	1.19
363.512	25.77
363.723	-17.24
363.935	44.2
364.146	160.94
364.357	58.54
364.568	60.59
364.779	-70.48
364.99	210.09
365.201	-9.05
365.412	134.31
365.623	-45.91
365.834	62.63
366.045	54.44
366.256	48.3
366.467	134.31
366.678	13.48
366.889	144.55
367.1	15.53
367.311	144.55
367.522	-13.14
367.733	109.74
367.944	79.02
368.155	-50
368.366	68.78
368.577	162.98
368.788	105.64
368.999	-11.09
369.209	50.35
369.42	158.89
369.631	122.02
369.842	130.22
370.053	31.91
370.264	132.26
370.474	-27.48
370.685	70.83
370.896	5.29
371.107	54.44
371.317	21.67
371.528	-7
371.739	124.07
371.95	85.16
372.16	64.68
372.371	9.39
372.582	11.43
372.792	101.55
373.003	122.02
373.214	21.67
373.424	62.63
373.635	46.25
373.846	150.7
374.056	31.91
374.267	56.49
374.477	95.4
374.688	1.19
374.898	89.26
375.109	-0.85
375.319	46.25
375.53	7.34
375.74	99.5
375.951	-25.43
376.161	72.87
376.372	89.26
376.582	-27.48
376.793	64.68
377.003	-39.76
377.214	38.06
377.424	85.16
377.635	58.54
377.845	-4.95
378.055	179.37
378.266	-43.86
378.476	52.39
378.686	126.12
378.897	-33.62
379.107	76.97
379.317	42.15
379.528	-45.91
379.738	220.33
379.948	-45.91
380.158	136.36
380.369	122.02
380.579	115.88
380.789	29.87
380.999	89.26
381.21	130.22
381.42	183.46
381.63	52.39
381.84	122.02
382.05	68.78
382.261	128.17
382.471	148.65
382.681	-76.63
382.891	91.31
383.101	76.97
383.311	19.63
383.521	-25.43
383.731	27.82
383.941	115.88
384.151	42.15
384.361	-9.05
384.571	79.02
384.781	113.83
384.991	189.61
385.201	199.85
385.411	50.35
385.621	124.07
385.831	64.68
386.041	105.64
386.251	89.26
386.461	89.26
386.671	99.5
386.881	1.19
387.091	11.43
387.301	11.43
387.511	54.44
387.72	115.88
387.93	29.87
388.14	-4.95
388.35	91.31
388.56	85.16
388.769	85.16
388.979	66.73
389.189	11.43
389.399	50.35
389.609	95.4
389.818	109.74
390.028	46.25
390.238	109.74
390.447	3.24
390.657	124.07
390.867	95.4
391.076	27.82
391.286	101.55
391.496	29.87
391.705	60.59
391.915	107.69
392.125	109.74
392.334	13.48
392.544	191.66
392.753	74.92
392.963	-50
393.172	68.78
393.382	42.15
393.591	134.31
393.801	29.87
394.01	140.46
394.22	115.88
394.429	160.94
394.639	50.35
394.848	74.92
395.058	42.15
395.267	38.06
395.477	83.11
395.686	74.92
395.895	195.75
396.105	138.41
396.314	109.74
396.524	93.35
396.733	15.53
396.942	87.21
397.152	44.2
397.361	68.78
397.57	38.06
397.78	13.48
397.989	68.78
398.198	257.19
398.407	85.16
398.617	38.06
398.826	27.82
399.035	31.91
399.244	146.6
399.453	33.96
399.663	33.96
399.872	64.68
400.081	-54.1
400.29	130.22
400.499	-11.09
400.708	175.27
400.917	21.67
401.127	72.87
401.336	-37.72
401.545	156.84
401.754	97.45
401.963	56.49
402.172	54.44
402.381	-25.43
402.59	23.72
402.799	52.39
403.008	142.5
403.217	81.07
403.426	81.07
403.635	-58.2
403.844	107.69
404.053	17.58
404.262	33.96
404.471	158.89
404.68	70.83
404.888	31.91
405.097	48.3
405.306	128.17
405.515	107.69
405.724	76.97
405.933	124.07
406.142	93.35
406.35	126.12
406.559	126.12
406.768	31.91
406.977	95.4
407.185	60.59
407.394	156.84
407.603	-17.24
407.812	91.31
408.02	122.02
408.229	140.46
408.438	-7
408.646	-31.57
408.855	109.74
409.064	68.78
409.272	5.29
409.481	107.69
409.69	11.43
409.898	46.25
410.107	19.63
410.315	165.03
410.524	50.35
410.733	60.59
410.941	68.78
411.15	119.98
411.358	140.46
411.567	158.89
411.775	3.24
411.984	-54.1
412.192	46.25
412.401	1.19
412.609	193.7
412.818	101.55
413.026	27.82
413.234	-0.85
413.443	93.35
413.651	-64.34
413.86	60.59
414.068	79.02
414.276	224.42
414.485	7.34
414.693	175.27
414.901	185.51
415.11	138.41
415.318	81.07
415.526	76.97
415.734	142.5
415.943	27.82
416.151	179.37
416.359	-27.48
416.567	119.98
416.776	101.55
416.984	158.89
417.192	228.52
417.4	5.29
417.608	66.73
417.817	33.96
418.025	124.07
418.233	203.94
418.441	38.06
418.649	33.96
418.857	60.59
419.065	210.09
419.273	-2.9
419.481	46.25
419.689	36.01
419.897	21.67
420.105	-35.67
420.313	148.65
420.521	177.32
420.729	144.55
420.937	54.44
421.145	11.43
421.353	111.78
421.561	158.89
421.769	128.17
421.977	17.58
422.185	113.83
422.393	111.78
422.601	79.02
422.809	74.92
423.017	93.35
423.224	72.87
423.432	156.84
423.64	33.96
423.848	99.5
424.056	21.67
424.263	76.97
424.471	-2.9
424.679	148.65
424.887	1.19
425.094	150.7
425.302	128.17
425.51	23.72
425.718	56.49
425.925	134.31
426.133	54.44
426.341	201.9
426.548	83.11
426.756	58.54
426.964	185.51
427.171	56.49
427.379	83.11
427.586	58.54
427.794	126.12
428.001	144.55
428.209	109.74
428.417	101.55
428.624	246.95
428.832	144.55
429.039	68.78
429.247	76.97
429.454	132.26
429.662	232.62
429.869	134.31
430.076	179.37
430.284	136.36
430.491	195.75
430.699	99.5
430.906	242.85
431.114	214.18
431.321	83.11
431.528	89.26
431.736	58.54
431.943	214.18
432.15	267.43
432.358	154.79
432.565	294.05
432.772	97.45
432.979	234.66
433.187	58.54
433.394	265.38
433.601	119.98
433.808	255.14
434.016	314.53
434.223	294.05
434.43	246.95
434.637	328.87
434.844	367.78
435.052	257.19
435.259	273.57
435.466	310.44
435.673	341.16
435.88	326.82
436.087	404.64
436.294	386.21
436.501	388.26
436.708	396.45
436.915	257.19
437.122	418.98
437.329	335.01
437.537	363.69
437.743	435.36
437.95	498.85
438.157	398.5
438.364	427.17
438.571	513.19
438.778	435.36
438.985	574.63
439.192	541.86
439.399	564.39
439.606	502.95
439.813	605.35
440.02	736.42
440.227	685.22
440.433	552.1
440.64	685.22
440.847	576.67
441.054	728.22
441.261	728.22
441.467	806.05
441.674	660.64
441.881	779.42
442.088	722.08
442.294	720.03
442.501	885.92
442.708	883.87
442.914	910.49
443.121	924.83
443.328	949.4
443.534	1049.75
443.741	992.41
443.948	984.22
444.154	1107.1
444.361	1318.04
444.568	1141.91
444.774	1189.02
444.981	1066.14
445.187	1352.85
445.394	1234.07
445.6	1256.6
445.807	1551.51
446.013	1381.53
446.22	1449.11
446.426	1670.29
446.633	1737.87
446.839	1946.76
447.046	1645.71
447.252	1885.33
447.459	1864.85
447.665	1873.04
447.871	2202.76
448.078	2342.02
448.284	2176.14
448.491	2215.05
448.697	2333.83
448.903	2581.64
449.11	2495.62
449.316	2438.28
449.522	2663.55
449.728	2909.31
449.935	2872.45
450.141	2751.62
450.347	3046.52
450.553	2995.32
450.76	3159.16
450.966	3390.58
451.172	3300.47
451.378	3656.82
451.584	3644.53
451.791	3925.1
451.997	3947.63
452.203	3994.73
452.409	4459.62
452.615	4379.75
452.821	4355.18
453.027	4514.92
453.233	4996.19
453.44	4809.83
453.646	5014.62
453.852	5301.34
454.058	5704.79
454.264	5497.94
454.47	6194.25
454.676	6102.09
454.882	6532.17
455.088	6349.9
455.294	6542.41
455.5	6990.91
455.705	7509.05
455.911	7595.06
456.117	7713.84
456.323	7908.4
456.529	7904.31
456.735	8940.58
456.941	9002.02
457.147	9284.64
457.352	9339.93
457.558	9729.05
457.764	10501.13
457.97	10781.7
458.176	11088.9
458.381	11664.38
458.587	11637.75
458.793	12399.6
458.999	12434.41
459.204	14031.83
459.41	14265.3
459.616	14023.64
459.821	15002.57
460.027	15676.35
460.233	16321.46
460.438	16587.69
460.644	17404.83
460.85	17787.8
461.055	18287.51
461.261	19207.05
461.466	18740.11
461.672	18871.18
461.878	21298.02
462.083	21212.01
462.289	21699.42
462.494	22694.74
462.7	22696.78
462.905	22911.82
463.111	24484.66
463.316	26116.89
463.522	26680.08
463.727	27372.3
463.932	28347.13
464.138	29432.55
464.343	30311.13
464.549	30810.84
464.754	32928.44
464.959	33798.82
465.165	34333.34
465.37	33759.91
465.575	34144.93
465.781	36498.05
465.986	37509.74
466.191	36727.42
466.397	37274.23
466.602	36430.46
466.807	38083.17
467.012	39309.91
467.218	39375.44
467.423	39555.66
467.628	40589.89
467.833	42969.63
468.038	42148.39
468.244	41056.82
468.449	43217.43
