Data from USB4F104151__50__10-25-32-533.txt Node

Date: Wed Feb 26 10:25:32 EST 2025
User: louis
Spectrometer: USB4F10415
Trigger mode: 4
Integration Time (sec): 1.000000E-1
Scans to average: 1
Electric dark correction enabled: true
Nonlinearity correction enabled: false
Boxcar width: 0
XAxis mode: Wavelengths
Number of Pixels in Spectrum: 3648
>>>>>Begin Spectral Data<<<<<
178.204	-382.29
178.424	-382.29
178.644	-382.29
178.864	-423.25
179.084	-386.38
179.304	10.92
179.524	12.97
179.744	-1.37
179.964	23.21
180.184	27.31
180.404	15.02
180.624	-50.52
180.844	0.68
181.064	-50.52
181.283	21.16
181.503	-77.14
181.723	68.27
181.943	-42.32
182.163	199.34
182.383	64.17
182.602	103.08
182.822	121.51
183.042	70.31
183.262	-48.47
183.482	8.87
183.701	41.64
183.921	98.99
184.141	-48.47
184.361	76.46
184.58	98.99
184.8	90.79
185.02	47.79
185.239	58.03
185.459	135.85
185.679	109.22
185.898	-77.14
186.118	139.94
186.338	125.61
186.557	60.07
186.777	-17.75
186.997	29.35
187.216	80.55
187.436	271.01
187.655	84.65
187.875	123.56
188.095	74.41
188.314	141.99
188.534	160.42
188.753	12.97
188.973	96.94
189.192	115.37
189.412	-13.65
189.631	43.69
189.851	86.7
190.07	109.22
190.29	-118.1
190.509	15.02
190.729	4.78
190.948	131.75
191.168	228.01
191.387	125.61
191.607	17.07
191.826	117.42
192.045	-17.75
192.265	72.36
192.484	144.04
192.704	68.27
192.923	-159.06
193.142	172.71
193.362	92.84
193.581	146.09
193.8	64.17
194.02	76.46
194.239	29.35
194.458	129.7
194.678	41.64
194.897	-54.61
195.116	78.51
195.335	2.73
195.555	123.56
195.774	39.59
195.993	131.75
196.212	76.46
196.432	23.21
196.651	-36.18
196.87	45.74
197.089	219.82
197.308	86.7
197.528	78.51
197.747	-58.71
197.966	55.98
198.185	166.57
198.404	-1.37
198.623	133.8
198.842	101.03
199.062	162.47
199.281	96.94
199.5	53.93
199.719	113.32
199.938	125.61
200.157	101.03
200.376	51.88
200.595	115.37
200.814	68.27
201.033	29.35
201.252	78.51
201.471	53.93
201.69	10.92
201.909	68.27
202.128	68.27
202.347	96.94
202.566	119.46
202.785	-9.56
203.004	4.78
203.223	211.62
203.442	6.83
203.661	-42.32
203.879	23.21
204.098	58.03
204.317	-27.99
204.536	129.7
204.755	41.64
204.974	88.75
205.193	-5.46
205.411	105.13
205.63	-11.61
205.849	127.66
206.068	4.78
206.287	-30.04
206.505	176.81
206.724	29.35
206.943	-3.41
207.162	-1.37
207.381	105.13
207.599	-46.42
207.818	127.66
208.037	19.11
208.255	64.17
208.474	90.79
208.693	43.69
208.911	-34.13
209.13	115.37
209.349	19.11
209.567	88.75
209.786	92.84
210.005	88.75
210.223	68.27
210.442	-103.76
210.661	-1.37
210.879	53.93
211.098	101.03
211.316	103.08
211.535	-15.7
211.753	41.64
211.972	39.59
212.191	39.59
212.409	119.46
212.628	101.03
212.846	60.07
213.065	35.5
213.283	96.94
213.502	35.5
213.72	8.87
213.938	37.55
214.157	51.88
214.375	66.22
214.594	19.11
214.812	103.08
215.031	-17.75
215.249	49.83
215.467	68.27
215.686	43.69
215.904	47.79
216.122	90.79
216.341	131.75
216.559	-44.37
216.778	74.41
216.996	92.84
217.214	31.4
217.432	103.08
217.651	-56.66
217.869	121.51
218.087	41.64
218.306	37.55
218.524	15.02
218.742	64.17
218.96	111.27
219.179	-58.71
219.397	10.92
219.615	182.95
219.833	127.66
220.051	-79.19
220.27	123.56
220.488	131.75
220.706	80.55
220.924	-25.94
221.142	-64.85
221.36	80.55
221.578	88.75
221.796	43.69
222.015	55.98
222.233	21.16
222.451	78.51
222.669	-93.52
222.887	111.27
223.105	107.18
223.323	33.45
223.541	-23.89
223.759	55.98
223.977	74.41
224.195	127.66
224.413	70.31
224.631	101.03
224.849	19.11
225.067	125.61
225.285	60.07
225.503	29.35
225.721	-23.89
225.939	103.08
226.157	96.94
226.375	248.49
226.592	-54.61
226.81	49.83
227.028	123.56
227.246	90.79
227.464	49.83
227.682	31.4
227.9	94.89
228.117	109.22
228.335	98.99
228.553	19.11
228.771	39.59
228.989	-7.51
229.206	55.98
229.424	47.79
229.642	10.92
229.86	12.97
230.077	154.28
230.295	35.5
230.513	111.27
230.731	43.69
230.948	148.14
231.166	174.76
231.384	-9.56
231.601	-60.76
231.819	172.71
232.037	-25.94
232.254	4.78
232.472	31.4
232.689	49.83
232.907	103.08
233.125	27.31
233.342	-44.37
233.56	-21.85
233.777	6.83
233.995	72.36
234.213	88.75
234.43	49.83
234.648	25.26
234.865	25.26
235.083	35.5
235.3	35.5
235.518	68.27
235.735	168.62
235.953	33.45
236.17	74.41
236.388	10.92
236.605	33.45
236.822	80.55
237.04	68.27
237.257	-7.51
237.475	-38.23
237.692	-36.18
237.909	113.32
238.127	43.69
238.344	74.41
238.562	72.36
238.779	6.83
238.996	-7.51
239.214	49.83
239.431	103.08
239.648	76.46
239.865	144.04
240.083	21.16
240.3	27.31
240.517	31.4
240.735	90.79
240.952	129.7
241.169	117.42
241.386	60.07
241.603	109.22
241.821	-1.37
242.038	156.33
242.255	146.09
242.472	-36.18
242.689	43.69
242.907	60.07
243.124	88.75
243.341	84.65
243.558	60.07
243.775	-27.99
243.992	-60.76
244.209	117.42
244.426	154.28
244.643	-25.94
244.86	-3.41
245.078	43.69
245.295	-3.41
245.512	35.5
245.729	49.83
245.946	78.51
246.163	-32.08
246.38	41.64
246.597	105.13
246.814	43.69
247.031	117.42
247.248	6.83
247.464	96.94
247.681	84.65
247.898	109.22
248.115	82.6
248.332	-48.47
248.549	201.38
248.766	156.33
248.983	76.46
249.2	111.27
249.417	84.65
249.633	-9.56
249.85	88.75
250.067	-30.04
250.284	92.84
250.501	39.59
250.717	41.64
250.934	17.07
251.151	-1.37
251.368	10.92
251.585	76.46
251.801	96.94
252.018	-19.8
252.235	174.76
252.451	-48.47
252.668	-27.99
252.885	170.66
253.102	55.98
253.318	-42.32
253.535	51.88
253.752	21.16
253.968	-89.43
254.185	25.26
254.401	0.68
254.618	53.93
254.835	47.79
255.051	176.81
255.268	119.46
255.484	62.12
255.701	10.92
255.917	92.84
256.134	-9.56
256.351	105.13
256.567	-15.7
256.784	-32.08
257	-27.99
257.217	88.75
257.433	137.9
257.65	25.26
257.866	125.61
258.082	-91.48
258.299	39.59
258.515	53.93
258.732	60.07
258.948	6.83
259.165	45.74
259.381	-13.65
259.597	41.64
259.814	70.31
260.03	31.4
260.246	47.79
260.463	158.38
260.679	105.13
260.895	35.5
261.112	139.94
261.328	117.42
261.544	-7.51
261.761	185
261.977	10.92
262.193	8.87
262.409	105.13
262.626	12.97
262.842	82.6
263.058	74.41
263.274	176.81
263.49	78.51
263.707	107.18
263.923	51.88
264.139	-93.52
264.355	41.64
264.571	96.94
264.787	15.02
265.004	82.6
265.22	6.83
265.436	-62.8
265.652	-25.94
265.868	72.36
266.084	8.87
266.3	72.36
266.516	-15.7
266.732	47.79
266.948	29.35
267.164	64.17
267.38	129.7
267.596	74.41
267.812	195.24
268.028	74.41
268.244	-1.37
268.46	58.03
268.676	82.6
268.892	62.12
269.108	-1.37
269.324	-17.75
269.54	70.31
269.756	53.93
269.972	-46.42
270.188	-15.7
270.403	-105.81
270.619	-9.56
270.835	115.37
271.051	21.16
271.267	10.92
271.483	6.83
271.698	135.85
271.914	96.94
272.13	35.5
272.346	25.26
272.562	43.69
272.777	78.51
272.993	74.41
273.209	-13.65
273.425	139.94
273.64	-7.51
273.856	98.99
274.072	10.92
274.287	6.83
274.503	121.51
274.719	105.13
274.934	-50.52
275.15	-83.28
275.366	39.59
275.581	-32.08
275.797	68.27
276.012	-27.99
276.228	23.21
276.444	45.74
276.659	76.46
276.875	-21.85
277.09	37.55
277.306	64.17
277.521	39.59
277.737	43.69
277.952	84.65
278.168	105.13
278.383	80.55
278.599	41.64
278.814	76.46
279.03	117.42
279.245	139.94
279.461	10.92
279.676	123.56
279.892	2.73
280.107	15.02
280.322	-38.23
280.538	121.51
280.753	-3.41
280.969	86.7
281.184	-32.08
281.399	43.69
281.615	131.75
281.83	88.75
282.045	19.11
282.26	-15.7
282.476	127.66
282.691	49.83
282.906	47.79
283.122	10.92
283.337	-15.7
283.552	88.75
283.767	4.78
283.983	92.84
284.198	37.55
284.413	96.94
284.628	-75.09
284.843	141.99
285.058	94.89
285.274	-44.37
285.489	19.11
285.704	117.42
285.919	41.64
286.134	-3.41
286.349	47.79
286.564	17.07
286.779	148.14
286.995	92.84
287.21	-93.52
287.425	53.93
287.64	-50.52
287.855	76.46
288.07	-1.37
288.285	156.33
288.5	84.65
288.715	64.17
288.93	41.64
289.145	-7.51
289.36	123.56
289.575	10.92
289.79	82.6
290.004	15.02
290.219	68.27
290.434	-32.08
290.649	41.64
290.864	41.64
291.079	39.59
291.294	68.27
291.509	72.36
291.724	43.69
291.938	0.68
292.153	35.5
292.368	49.83
292.583	33.45
292.798	101.03
293.012	154.28
293.227	82.6
293.442	-71
293.657	76.46
293.871	82.6
294.086	60.07
294.301	217.77
294.516	141.99
294.73	80.55
294.945	92.84
295.16	-27.99
295.374	176.81
295.589	115.37
295.804	12.97
296.018	53.93
296.233	90.79
296.447	92.84
296.662	39.59
296.877	131.75
297.091	84.65
297.306	117.42
297.52	-44.37
297.735	51.88
297.949	109.22
298.164	27.31
298.378	74.41
298.593	-3.41
298.807	31.4
299.022	31.4
299.236	193.19
299.451	31.4
299.665	17.07
299.88	76.46
300.094	101.03
300.309	-56.66
300.523	55.98
300.737	41.64
300.952	86.7
301.166	31.4
301.381	-23.89
301.595	-15.7
301.809	53.93
302.024	-30.04
302.238	-15.7
302.452	86.7
302.667	62.12
302.881	141.99
303.095	127.66
303.309	144.04
303.524	-62.8
303.738	12.97
303.952	39.59
304.166	10.92
304.381	17.07
304.595	150.18
304.809	27.31
305.023	-32.08
305.237	12.97
305.452	64.17
305.666	76.46
305.88	113.32
306.094	101.03
306.308	68.27
306.522	66.22
306.736	27.31
306.95	41.64
307.164	19.11
307.379	72.36
307.593	152.23
307.807	101.03
308.021	158.38
308.235	129.7
308.449	-52.56
308.663	21.16
308.877	185
309.091	19.11
309.305	123.56
309.519	-89.43
309.733	162.47
309.947	-36.18
310.161	127.66
310.374	82.6
310.588	141.99
310.802	-34.13
311.016	60.07
311.23	113.32
311.444	0.68
311.658	23.21
311.872	131.75
312.085	88.75
312.299	146.09
312.513	41.64
312.727	107.18
312.941	-54.61
313.154	107.18
313.368	19.11
313.582	37.55
313.796	88.75
314.009	37.55
314.223	98.99
314.437	47.79
314.651	66.22
314.864	-13.65
315.078	-19.8
315.292	15.02
315.505	35.5
315.719	10.92
315.933	35.5
316.146	45.74
316.36	-19.8
316.573	74.41
316.787	60.07
317.001	39.59
317.214	-38.23
317.428	55.98
317.641	-5.46
317.855	-17.75
318.068	88.75
318.282	64.17
318.495	197.29
318.709	27.31
318.922	53.93
319.136	164.52
319.349	172.71
319.563	-5.46
319.776	96.94
319.99	-52.56
320.203	109.22
320.417	-44.37
320.63	62.12
320.843	195.24
321.057	121.51
321.27	64.17
321.483	43.69
321.697	160.42
321.91	27.31
322.124	80.55
322.337	113.32
322.55	-5.46
322.763	121.51
322.977	76.46
323.19	-13.65
323.403	31.4
323.617	74.41
323.83	146.09
324.043	0.68
324.256	103.08
324.469	2.73
324.683	4.78
324.896	0.68
325.109	-1.37
325.322	-38.23
325.535	139.94
325.748	176.81
325.962	29.35
326.175	80.55
326.388	70.31
326.601	125.61
326.814	98.99
327.027	62.12
327.24	195.24
327.453	-71
327.666	78.51
327.879	78.51
328.092	66.22
328.305	193.19
328.518	15.02
328.731	60.07
328.944	115.37
329.157	58.03
329.37	-9.56
329.583	139.94
329.796	113.32
330.009	-87.38
330.222	8.87
330.435	123.56
330.648	113.32
330.861	55.98
331.073	31.4
331.286	88.75
331.499	53.93
331.712	-34.13
331.925	60.07
332.138	31.4
332.35	137.9
332.563	-93.52
332.776	168.62
332.989	45.74
333.202	58.03
333.414	119.46
333.627	10.92
333.84	43.69
334.053	49.83
334.265	-48.47
334.478	17.07
334.691	-5.46
334.903	41.64
335.116	31.4
335.329	27.31
335.541	39.59
335.754	86.7
335.966	-5.46
336.179	62.12
336.392	51.88
336.604	55.98
336.817	135.85
337.029	53.93
337.242	33.45
337.454	66.22
337.667	88.75
337.88	135.85
338.092	90.79
338.305	39.59
338.517	-30.04
338.729	64.17
338.942	103.08
339.154	-11.61
339.367	-7.51
339.579	146.09
339.792	64.17
340.004	123.56
340.217	6.83
340.429	125.61
340.641	45.74
340.854	17.07
341.066	25.26
341.278	109.22
341.491	146.09
341.703	103.08
341.915	-7.51
342.128	72.36
342.34	-5.46
342.552	84.65
342.764	60.07
342.977	35.5
343.189	21.16
343.401	55.98
343.613	-79.19
343.826	-7.51
344.038	35.5
344.25	-27.99
344.462	72.36
344.674	88.75
344.886	33.45
345.099	68.27
345.311	107.18
345.523	17.07
345.735	-75.09
345.947	62.12
346.159	43.69
346.371	64.17
346.583	58.03
346.795	219.82
347.007	17.07
347.219	141.99
347.431	35.5
347.643	166.57
347.855	-79.19
348.067	90.79
348.279	8.87
348.491	62.12
348.703	123.56
348.915	62.12
349.127	43.69
349.339	51.88
349.551	41.64
349.763	109.22
349.975	76.46
350.187	68.27
350.399	62.12
350.61	86.7
350.822	25.26
351.034	160.42
351.246	47.79
351.458	129.7
351.669	29.35
351.881	150.18
352.093	27.31
352.305	53.93
352.517	6.83
352.728	207.53
352.94	160.42
353.152	31.4
353.363	-23.89
353.575	31.4
353.787	182.95
353.999	37.55
354.21	166.57
354.422	-34.13
354.633	51.88
354.845	-11.61
355.057	39.59
355.268	-40.28
355.48	72.36
355.692	-87.38
355.903	10.92
356.115	21.16
356.326	-146.77
356.538	158.38
356.749	43.69
356.961	117.42
357.172	74.41
357.384	58.03
357.595	131.75
357.807	12.97
358.018	-30.04
358.23	27.31
358.441	146.09
358.653	146.09
358.864	-7.51
359.075	60.07
359.287	74.41
359.498	121.51
359.709	96.94
359.921	133.8
360.132	84.65
360.344	70.31
360.555	29.35
360.766	55.98
360.977	0.68
361.189	101.03
361.4	10.92
361.611	127.66
361.823	117.42
362.034	0.68
362.245	0.68
362.456	60.07
362.667	103.08
362.879	-17.75
363.09	86.7
363.301	53.93
363.512	27.31
363.723	-23.89
363.935	39.59
364.146	82.6
364.357	41.64
364.568	15.02
364.779	-19.8
364.99	111.27
365.201	-89.43
365.412	141.99
365.623	-38.23
365.834	15.02
366.045	29.35
366.256	113.32
366.467	131.75
366.678	4.78
366.889	35.5
367.1	-1.37
367.311	180.9
367.522	33.45
367.733	107.18
367.944	66.22
368.155	58.03
368.366	37.55
368.577	182.95
368.788	78.51
368.999	33.45
369.209	92.84
369.42	133.8
369.631	158.38
369.842	139.94
370.053	35.5
370.264	80.55
370.474	66.22
370.685	135.85
370.896	47.79
371.107	131.75
371.317	39.59
371.528	84.65
371.739	146.09
371.95	17.07
372.16	107.18
372.371	-58.71
372.582	78.51
372.792	45.74
373.003	55.98
373.214	109.22
373.424	72.36
373.635	-36.18
373.846	170.66
374.056	55.98
374.267	127.66
374.477	-3.41
374.688	66.22
374.898	53.93
375.109	101.03
375.319	82.6
375.53	113.32
375.74	111.27
375.951	74.41
376.161	92.84
376.372	141.99
376.582	51.88
376.793	21.16
377.003	-40.28
377.214	-9.56
377.424	141.99
377.635	49.83
377.845	10.92
378.055	78.51
378.266	-1.37
378.476	6.83
378.686	51.88
378.897	84.65
379.107	166.57
379.317	53.93
379.528	-32.08
379.738	111.27
379.948	-48.47
380.158	103.08
380.369	121.51
380.579	78.51
380.789	109.22
380.999	98.99
381.21	111.27
381.42	180.9
381.63	12.97
381.84	90.79
382.05	119.46
382.261	129.7
382.471	123.56
382.681	33.45
382.891	189.1
383.101	101.03
383.311	-52.56
383.521	70.31
383.731	133.8
383.941	141.99
384.151	76.46
384.361	8.87
384.571	64.17
384.781	98.99
384.991	215.72
385.201	129.7
385.411	41.64
385.621	12.97
385.831	55.98
386.041	-7.51
386.251	23.21
386.461	107.18
386.671	111.27
386.881	0.68
387.091	17.07
387.301	131.75
387.511	17.07
387.72	94.89
387.93	92.84
388.14	-75.09
388.35	37.55
388.56	33.45
388.769	170.66
388.979	43.69
389.189	39.59
389.399	43.69
389.609	123.56
389.818	47.79
390.028	49.83
390.238	4.78
390.447	21.16
390.657	45.74
390.867	55.98
391.076	-27.99
391.286	27.31
391.496	131.75
391.705	82.6
391.915	172.71
392.125	111.27
392.334	27.31
392.544	176.81
392.753	82.6
392.963	-75.09
393.172	90.79
393.382	31.4
393.591	144.04
393.801	25.26
394.01	129.7
394.22	90.79
394.429	-25.94
394.639	19.11
394.848	109.22
395.058	58.03
395.267	-9.56
395.477	-19.8
395.686	105.13
395.895	187.05
396.105	176.81
396.314	51.88
396.524	76.46
396.733	84.65
396.942	152.23
397.152	98.99
397.361	66.22
397.57	51.88
397.78	2.73
397.989	105.13
398.198	254.63
398.407	15.02
398.617	41.64
398.826	113.32
399.035	45.74
399.244	123.56
399.453	-3.41
399.663	12.97
399.872	103.08
400.081	-44.37
400.29	72.36
400.499	-30.04
400.708	209.58
400.917	62.12
401.127	68.27
401.336	27.31
401.545	176.81
401.754	98.99
401.963	94.89
402.172	64.17
402.381	-38.23
402.59	17.07
402.799	43.69
403.008	109.22
403.217	-9.56
403.426	62.12
403.635	19.11
403.844	15.02
404.053	37.55
404.262	27.31
404.471	162.47
404.68	25.26
404.888	31.4
405.097	33.45
405.306	146.09
405.515	72.36
405.724	66.22
405.933	152.23
406.142	92.84
406.35	117.42
406.559	31.4
406.768	-3.41
406.977	168.62
407.185	158.38
407.394	113.32
407.603	-60.76
407.812	78.51
408.02	162.47
408.229	53.93
408.438	15.02
408.646	-58.71
408.855	76.46
409.064	15.02
409.272	146.09
409.481	109.22
409.69	-73.04
409.898	45.74
410.107	35.5
410.315	189.1
410.524	58.03
410.733	70.31
410.941	66.22
411.15	158.38
411.358	74.41
411.567	180.9
411.775	12.97
411.984	107.18
412.192	12.97
412.401	53.93
412.609	240.3
412.818	80.55
413.026	82.6
413.234	101.03
413.443	37.55
413.651	10.92
413.86	-71
414.068	193.19
414.276	141.99
414.485	-15.7
414.693	168.62
414.901	135.85
415.11	94.89
415.318	78.51
415.526	12.97
415.734	135.85
415.943	119.46
416.151	115.37
416.359	47.79
416.567	82.6
416.776	137.9
416.984	80.55
417.192	148.14
417.4	-36.18
417.608	4.78
417.817	-27.99
418.025	74.41
418.233	193.19
418.441	-60.76
418.649	68.27
418.857	125.61
419.065	115.37
419.273	-23.89
419.481	51.88
419.689	55.98
419.897	70.31
420.105	-1.37
420.313	92.84
420.521	131.75
420.729	111.27
420.937	-5.46
421.145	-17.75
421.353	123.56
421.561	70.31
421.769	103.08
421.977	66.22
422.185	82.6
422.393	86.7
422.601	144.04
422.809	88.75
423.017	80.55
423.224	64.17
423.432	103.08
423.64	45.74
423.848	174.76
424.056	70.31
424.263	90.79
424.471	64.17
424.679	166.57
424.887	33.45
425.094	168.62
425.302	176.81
425.51	103.08
425.718	84.65
425.925	80.55
426.133	-11.61
426.341	189.1
426.548	74.41
426.756	2.73
426.964	101.03
427.171	37.55
427.379	35.5
427.586	68.27
427.794	137.9
428.001	135.85
428.209	72.36
428.417	197.29
428.624	146.09
428.832	135.85
429.039	201.38
429.247	82.6
429.454	146.09
429.662	248.49
429.869	84.65
430.076	41.64
430.284	150.18
430.491	254.63
430.699	70.31
430.906	219.82
431.114	62.12
431.321	150.18
431.528	96.94
431.736	203.43
431.943	150.18
432.15	234.15
432.358	209.58
432.565	262.82
432.772	-32.08
432.979	197.29
433.187	162.47
433.394	236.2
433.601	94.89
433.808	207.53
434.016	182.95
434.223	225.96
434.43	158.38
434.637	275.11
434.844	180.9
435.052	293.54
435.259	248.49
435.466	242.34
435.673	320.17
435.88	406.18
436.087	371.37
436.294	387.75
436.501	289.45
436.708	283.3
436.915	244.39
437.122	420.52
437.329	303.78
437.537	342.69
437.743	283.3
437.95	432.8
438.157	324.26
438.364	332.45
438.571	397.99
438.778	451.24
438.985	455.33
439.192	451.24
439.399	410.28
439.606	395.94
439.813	490.15
440.02	572.07
440.227	596.64
440.433	545.44
440.64	518.82
440.847	549.54
441.054	574.11
441.261	686.75
441.467	674.46
441.674	647.84
441.881	768.67
442.088	668.32
442.294	729.76
442.501	811.68
442.708	760.48
442.914	783.01
443.121	883.36
443.328	805.53
443.534	907.93
443.741	866.97
443.948	785.05
444.154	918.17
444.361	1073.82
444.568	924.32
444.774	1053.34
444.981	1020.57
445.187	1079.96
445.394	1204.89
445.6	1149.59
445.807	1290.9
446.013	1190.55
446.22	1217.18
446.426	1391.25
446.633	1430.16
446.839	1647.25
447.046	1438.36
447.252	1491.6
447.459	1383.06
447.665	1600.15
447.871	1774.22
448.078	1823.37
448.284	1827.47
448.491	1870.48
448.697	2069.13
448.903	2194.06
449.11	2093.71
449.316	2114.19
449.522	2235.02
449.728	2388.61
449.935	2493.06
450.141	2351.75
450.347	2667.14
450.553	2534.02
450.76	2591.36
450.966	2824.83
451.172	2839.17
451.378	3175.03
451.584	3091.07
451.791	3416.69
451.997	3334.78
452.203	3365.5
452.409	3592.82
452.615	3523.19
452.821	3646.07
453.027	3730.03
453.233	4211.31
453.44	3971.69
453.646	4252.27
453.852	4440.68
454.058	4577.89
454.264	4665.96
454.47	5055.07
454.676	4975.2
454.882	5620.31
455.088	5216.86
455.294	5689.94
455.5	5931.6
455.705	6324.81
455.911	6335.05
456.117	6443.59
456.323	6634.05
456.529	6605.38
456.735	7336.51
456.941	7447.1
457.147	7811.64
457.352	7944.75
457.558	8327.72
457.764	8827.43
457.97	8886.82
458.176	9183.77
458.381	9925.14
458.587	9810.45
458.793	10471.95
458.999	10064.4
459.204	11645.43
459.41	12061.17
459.616	11809.27
459.821	12503.53
460.027	13173.22
460.233	13601.24
460.438	13662.68
460.644	14508.49
460.85	14709.19
461.055	15137.22
461.261	15983.03
461.466	15741.37
461.672	16007.61
461.878	17973.66
462.083	17674.65
462.289	18061.72
462.494	18690.45
462.7	18835.85
462.905	19249.54
463.111	20728.17
463.316	21821.79
463.522	21942.62
463.727	22997.32
463.932	24000.83
464.138	24246.58
464.343	25491.75
464.549	25710.88
464.754	27384.07
464.959	28006.66
465.165	28496.12
465.37	28309.75
465.575	28213.5
465.781	30150.88
465.986	31174.86
466.191	30628.06
466.397	30906.58
466.602	30451.93
466.807	31772.87
467.012	32880.82
467.218	33026.23
467.423	33460.4
467.628	34101.41
467.833	35956.87
468.038	35459.21
468.244	34660.51
468.449	36493.44
468.654	35485.84
