Data from USB4F104151__1__10-21-54-756.txt Node

Date: Wed Feb 26 10:21:54 EST 2025
User: louis
Spectrometer: USB4F10415
Trigger mode: 4
Integration Time (sec): 1.000000E-1
Scans to average: 1
Electric dark correction enabled: true
Nonlinearity correction enabled: false
Boxcar width: 0
XAxis mode: Wavelengths
Number of Pixels in Spectrum: 3648
>>>>>Begin Spectral Data<<<<<
178.204	-448.16
178.424	-448.16
178.644	-448.16
178.864	-358.05
179.084	-403.11
179.304	-42.67
179.524	-5.8
179.744	45.4
179.964	41.3
180.184	33.11
180.404	-3.75
180.624	-30.38
180.844	-7.85
181.064	-38.57
181.283	55.64
181.503	-48.81
181.723	2.39
181.943	-102.06
182.163	158.03
182.383	-26.28
182.602	72.02
182.822	135.51
183.042	22.87
183.262	-63.15
183.482	6.49
183.701	102.74
183.921	55.64
184.141	-67.24
184.361	119.12
184.58	10.58
184.8	74.07
185.02	-3.75
185.239	69.97
185.459	112.98
185.679	168.27
185.898	-95.91
186.118	33.11
186.338	51.54
186.557	41.3
186.777	-28.33
186.997	2.39
187.216	14.68
187.436	170.32
187.655	8.53
187.875	45.4
188.095	123.22
188.314	133.46
188.534	72.02
188.753	4.44
188.973	100.69
189.192	86.36
189.412	24.92
189.631	49.49
189.851	127.32
190.07	135.51
190.29	26.96
190.509	37.2
190.729	98.64
190.948	112.98
191.168	334.16
191.387	59.73
191.607	22.87
191.826	86.36
192.045	49.49
192.265	8.53
192.484	26.96
192.704	94.55
192.923	-32.43
193.142	178.51
193.362	135.51
193.581	43.35
193.8	98.64
194.02	47.44
194.239	16.73
194.458	125.27
194.678	20.82
194.897	16.73
195.116	22.87
195.335	100.69
195.555	76.12
195.774	-3.75
195.993	65.88
196.212	-42.67
196.432	12.63
196.651	33.11
196.87	22.87
197.089	198.99
197.308	-16.04
197.528	117.08
197.747	20.82
197.966	112.98
198.185	162.13
198.404	-3.75
198.623	102.74
198.842	76.12
199.062	186.71
199.281	96.6
199.5	67.92
199.719	131.41
199.938	12.63
200.157	4.44
200.376	139.6
200.595	69.97
200.814	78.16
201.033	6.49
201.252	190.8
201.471	72.02
201.69	-11.95
201.909	65.88
202.128	55.64
202.347	110.93
202.566	90.45
202.785	-73.39
203.004	53.59
203.223	317.78
203.442	55.64
203.661	-67.24
203.879	61.78
204.098	59.73
204.317	-24.23
204.536	76.12
204.755	100.69
204.974	190.8
205.193	63.83
205.411	158.03
205.63	92.5
205.849	115.03
206.068	69.97
206.287	-44.71
206.505	67.92
206.724	31.06
206.943	22.87
207.162	8.53
207.381	76.12
207.599	-9.9
207.818	80.21
208.037	-32.43
208.255	72.02
208.474	98.64
208.693	72.02
208.911	55.64
209.13	69.97
209.349	172.37
209.567	102.74
209.786	57.68
210.005	88.4
210.223	100.69
210.442	-48.81
210.661	-16.04
210.879	65.88
211.098	31.06
211.316	8.53
211.535	92.5
211.753	-11.95
211.972	88.4
212.191	59.73
212.409	-54.95
212.628	72.02
212.846	-5.8
213.065	84.31
213.283	125.27
213.502	53.59
213.72	55.64
213.938	74.07
214.157	-38.57
214.375	78.16
214.594	26.96
214.812	90.45
215.031	8.53
215.249	-13.99
215.467	29.01
215.686	45.4
215.904	125.27
216.122	59.73
216.341	106.84
216.559	78.16
216.778	82.26
216.996	196.95
217.214	18.77
217.432	47.44
217.651	-18.09
217.869	24.92
218.087	12.63
218.306	2.39
218.524	80.21
218.742	-18.09
218.96	65.88
219.179	26.96
219.397	-30.38
219.615	149.84
219.833	63.83
220.051	-30.38
220.27	63.83
220.488	96.6
220.706	153.94
220.924	12.63
221.142	59.73
221.36	35.16
221.578	106.84
221.796	4.44
222.015	-22.19
222.233	33.11
222.451	246.1
222.669	-3.75
222.887	61.78
223.105	-9.9
223.323	31.06
223.541	-67.24
223.759	6.49
223.977	123.22
224.195	164.18
224.413	129.36
224.631	26.96
224.849	-3.75
225.067	207.19
225.285	-26.28
225.503	86.36
225.721	-75.43
225.939	59.73
226.157	110.93
226.375	178.51
226.592	6.49
226.81	63.83
227.028	88.4
227.246	121.17
227.464	12.63
227.682	67.92
227.9	59.73
228.117	104.79
228.335	125.27
228.553	119.12
228.771	82.26
228.989	41.3
229.206	31.06
229.424	-24.23
229.642	-69.29
229.86	10.58
230.077	174.42
230.295	127.32
230.513	65.88
230.731	55.64
230.948	172.37
231.166	147.8
231.384	-1.71
231.601	-46.76
231.819	149.84
232.037	4.44
232.254	37.2
232.472	29.01
232.689	26.96
232.907	151.89
233.125	61.78
233.342	-24.23
233.56	29.01
233.777	4.44
233.995	-20.14
234.213	78.16
234.43	37.2
234.648	74.07
234.865	24.92
235.083	10.58
235.3	76.12
235.518	153.94
235.735	143.7
235.953	72.02
236.17	22.87
236.388	135.51
236.605	-20.14
236.822	45.4
237.04	145.75
237.257	-7.85
237.475	16.73
237.692	24.92
237.909	88.4
238.127	55.64
238.344	104.79
238.562	26.96
238.779	-57
238.996	-24.23
239.214	24.92
239.431	129.36
239.648	125.27
239.865	43.35
240.083	137.56
240.3	-48.81
240.517	10.58
240.735	-26.28
240.952	129.36
241.169	78.16
241.386	55.64
241.603	-42.67
241.821	4.44
242.038	67.92
242.255	80.21
242.472	-38.57
242.689	53.59
242.907	115.03
243.124	43.35
243.341	0.34
243.558	31.06
243.775	-38.57
243.992	-79.53
244.209	31.06
244.426	115.03
244.643	35.16
244.86	37.2
245.078	143.7
245.295	26.96
245.512	-3.75
245.729	57.68
245.946	67.92
246.163	143.7
246.38	-22.19
246.597	55.64
246.814	16.73
247.031	29.01
247.248	-38.57
247.464	102.74
247.681	16.73
247.898	39.25
248.115	80.21
248.332	45.4
248.549	119.12
248.766	149.84
248.983	16.73
249.2	147.8
249.417	125.27
249.633	-28.33
249.85	102.74
250.067	106.84
250.284	53.59
250.501	33.11
250.717	45.4
250.934	29.01
251.151	104.79
251.368	35.16
251.585	6.49
251.801	35.16
252.018	-24.23
252.235	137.56
252.451	-24.23
252.668	78.16
252.885	121.17
253.102	45.4
253.318	-11.95
253.535	45.4
253.752	47.44
253.968	24.92
254.185	-44.71
254.401	67.92
254.618	57.68
254.835	37.2
255.051	196.95
255.268	88.4
255.484	82.26
255.701	10.58
255.917	57.68
256.134	18.77
256.351	47.44
256.567	10.58
256.784	65.88
257	-48.81
257.217	37.2
257.433	72.02
257.65	121.17
257.866	78.16
258.082	-112.3
258.299	18.77
258.515	47.44
258.732	-11.95
258.948	-20.14
259.165	-7.85
259.381	-38.57
259.597	39.25
259.814	76.12
260.03	47.44
260.246	-42.67
260.463	29.01
260.679	155.99
260.895	12.63
261.112	43.35
261.328	-18.09
261.544	29.01
261.761	201.04
261.977	10.58
262.193	8.53
262.409	94.55
262.626	-13.99
262.842	63.83
263.058	10.58
263.274	63.83
263.49	43.35
263.707	108.88
263.923	123.22
264.139	4.44
264.355	51.54
264.571	63.83
264.787	61.78
265.004	80.21
265.22	37.2
265.436	-42.67
265.652	72.02
265.868	47.44
266.084	-44.71
266.3	80.21
266.516	-44.71
266.732	26.96
266.948	20.82
267.164	-24.23
267.38	141.65
267.596	74.07
267.812	86.36
268.028	65.88
268.244	22.87
268.46	53.59
268.676	8.53
268.892	72.02
269.108	57.68
269.324	-1.71
269.54	-46.76
269.756	96.6
269.972	-26.28
270.188	31.06
270.403	45.4
270.619	55.64
270.835	94.55
271.051	22.87
271.267	26.96
271.483	51.54
271.698	92.5
271.914	45.4
272.13	12.63
272.346	26.96
272.562	90.45
272.777	106.84
272.993	51.54
273.209	-54.95
273.425	92.5
273.64	-54.95
273.856	100.69
274.072	10.58
274.287	6.49
274.503	153.94
274.719	84.31
274.934	45.4
275.15	-83.63
275.366	-52.91
275.581	-46.76
275.797	92.5
276.012	-48.81
276.228	8.53
276.444	39.25
276.659	127.32
276.875	35.16
277.09	72.02
277.306	-1.71
277.521	39.25
277.737	39.25
277.952	14.68
278.168	4.44
278.383	63.83
278.599	90.45
278.814	39.25
279.03	47.44
279.245	192.85
279.461	82.26
279.676	82.26
279.892	-7.85
280.107	-50.86
280.322	8.53
280.538	63.83
280.753	51.54
280.969	43.35
281.184	37.2
281.399	180.56
281.615	67.92
281.83	94.55
282.045	-50.86
282.26	20.82
282.476	76.12
282.691	88.4
282.906	76.12
283.122	53.59
283.337	-24.23
283.552	86.36
283.767	-13.99
283.983	127.32
284.198	35.16
284.413	55.64
284.628	2.39
284.843	33.11
285.058	102.74
285.274	4.44
285.489	35.16
285.704	100.69
285.919	-13.99
286.134	-38.57
286.349	115.03
286.564	-11.95
286.779	84.31
286.995	-61.1
287.21	-132.78
287.425	33.11
287.64	8.53
287.855	37.2
288.07	-89.77
288.285	35.16
288.5	149.84
288.715	84.31
288.93	80.21
289.145	33.11
289.36	96.6
289.575	-7.85
289.79	123.22
290.004	8.53
290.219	110.93
290.434	-32.43
290.649	-30.38
290.864	31.06
291.079	18.77
291.294	51.54
291.509	96.6
291.724	29.01
291.938	-16.04
292.153	41.3
292.368	31.06
292.583	10.58
292.798	108.88
293.012	-7.85
293.227	86.36
293.442	16.73
293.657	104.79
293.871	162.13
294.086	53.59
294.301	254.29
294.516	129.36
294.73	90.45
294.945	-1.71
295.16	33.11
295.374	137.56
295.589	131.41
295.804	35.16
296.018	102.74
296.233	65.88
296.447	74.07
296.662	-40.62
296.877	53.59
297.091	69.97
297.306	55.64
297.52	-7.85
297.735	143.7
297.949	63.83
298.164	24.92
298.378	6.49
298.593	-42.67
298.807	33.11
299.022	-7.85
299.236	145.75
299.451	-24.23
299.665	-13.99
299.88	86.36
300.094	90.45
300.309	-42.67
300.523	8.53
300.737	-30.38
300.952	139.6
301.166	94.55
301.381	-46.76
301.595	2.39
301.809	65.88
302.024	4.44
302.238	31.06
302.452	162.13
302.667	47.44
302.881	201.04
303.095	67.92
303.309	94.55
303.524	-61.1
303.738	14.68
303.952	18.77
304.166	59.73
304.381	-104.11
304.595	186.71
304.809	-9.9
305.023	86.36
305.237	2.39
305.452	67.92
305.666	72.02
305.88	59.73
306.094	115.03
306.308	106.84
306.522	110.93
306.736	65.88
306.95	194.9
307.164	4.44
307.379	-3.75
307.593	149.84
307.807	131.41
308.021	24.92
308.235	110.93
308.449	-59.05
308.663	104.79
308.877	225.62
309.091	104.79
309.305	174.42
309.519	-106.15
309.733	186.71
309.947	-59.05
310.161	76.12
310.374	137.56
310.588	119.12
310.802	22.87
311.016	-32.43
311.23	65.88
311.444	-54.95
311.658	86.36
311.872	43.35
312.085	160.08
312.299	90.45
312.513	94.55
312.727	14.68
312.941	-87.72
313.154	72.02
313.368	100.69
313.582	119.12
313.796	76.12
314.009	43.35
314.223	182.61
314.437	53.59
314.651	119.12
314.864	61.78
315.078	16.73
315.292	-20.14
315.505	29.01
315.719	96.6
315.933	125.27
316.146	-3.75
316.36	59.73
316.573	121.17
316.787	86.36
317.001	67.92
317.214	-13.99
317.428	76.12
317.641	-63.15
317.855	43.35
318.068	0.34
318.282	29.01
318.495	123.22
318.709	69.97
318.922	86.36
319.136	61.78
319.349	98.64
319.563	69.97
319.776	78.16
319.99	-108.2
320.203	215.38
320.417	35.16
320.63	137.56
320.843	168.27
321.057	20.82
321.27	39.25
321.483	33.11
321.697	151.89
321.91	76.12
322.124	53.59
322.337	133.46
322.55	45.4
322.763	-20.14
322.977	74.07
323.19	-7.85
323.403	43.35
323.617	-28.33
323.83	39.25
324.043	49.49
324.256	63.83
324.469	-57
324.683	115.03
324.896	72.02
325.109	59.73
325.322	-16.04
325.535	67.92
325.748	149.84
325.962	-3.75
326.175	63.83
326.388	33.11
326.601	168.27
326.814	61.78
327.027	55.64
327.24	141.65
327.453	-85.67
327.666	98.64
327.879	174.42
328.092	41.3
328.305	65.88
328.518	16.73
328.731	37.2
328.944	0.34
329.157	65.88
329.37	-46.76
329.583	196.95
329.796	155.99
330.009	-40.62
330.222	88.4
330.435	137.56
330.648	61.78
330.861	84.31
331.073	69.97
331.286	112.98
331.499	14.68
331.712	-67.24
331.925	0.34
332.138	94.55
332.35	90.45
332.563	45.4
332.776	162.13
332.989	39.25
333.202	22.87
333.414	2.39
333.627	-22.19
333.84	-24.23
334.053	90.45
334.265	-77.48
334.478	18.77
334.691	57.68
334.903	33.11
335.116	-42.67
335.329	-59.05
335.541	155.99
335.754	139.6
335.966	61.78
336.179	84.31
336.392	-44.71
336.604	37.2
336.817	127.32
337.029	39.25
337.242	72.02
337.454	35.16
337.667	80.21
337.88	192.85
338.092	49.49
338.305	100.69
338.517	18.77
338.729	90.45
338.942	198.99
339.154	8.53
339.367	18.77
339.579	143.7
339.792	-26.28
340.004	102.74
340.217	61.78
340.429	43.35
340.641	-20.14
340.854	49.49
341.066	20.82
341.278	117.08
341.491	186.71
341.703	47.44
341.915	2.39
342.128	24.92
342.34	78.16
342.552	-1.71
342.764	76.12
342.977	-30.38
343.189	82.26
343.401	82.26
343.613	-83.63
343.826	-13.99
344.038	45.4
344.25	94.55
344.462	-48.81
344.674	-16.04
344.886	59.73
345.099	86.36
345.311	61.78
345.523	2.39
345.735	16.73
345.947	82.26
346.159	78.16
346.371	22.87
346.583	59.73
346.795	98.64
347.007	-26.28
347.219	26.96
347.431	94.55
347.643	131.41
347.855	-30.38
348.067	63.83
348.279	20.82
348.491	43.35
348.703	125.27
348.915	-20.14
349.127	-40.62
349.339	78.16
349.551	39.25
349.763	63.83
349.975	37.2
350.187	108.88
350.399	117.08
350.61	121.17
350.822	12.63
351.034	51.54
351.246	8.53
351.458	49.49
351.669	76.12
351.881	88.4
352.093	78.16
352.305	143.7
352.517	78.16
352.728	119.12
352.94	2.39
353.152	121.17
353.363	-126.63
353.575	84.31
353.787	88.4
353.999	74.07
354.21	176.47
354.422	16.73
354.633	-22.19
354.845	74.07
355.057	41.3
355.268	69.97
355.48	29.01
355.692	41.3
355.903	74.07
356.115	0.34
356.326	-91.82
356.538	82.26
356.749	170.32
356.961	131.41
357.172	80.21
357.384	-34.47
357.595	223.57
357.807	-30.38
358.018	-52.91
358.23	37.2
358.441	153.94
358.653	92.5
358.864	61.78
359.075	-20.14
359.287	69.97
359.498	69.97
359.709	96.6
359.921	53.59
360.132	37.2
360.344	78.16
360.555	-67.24
360.766	90.45
360.977	41.3
361.189	117.08
361.4	61.78
361.611	153.94
361.823	178.51
362.034	26.96
362.245	-102.06
362.456	41.3
362.667	80.21
362.879	18.77
363.09	22.87
363.301	115.03
363.512	98.64
363.723	78.16
363.935	-5.8
364.146	119.12
364.357	49.49
364.568	90.45
364.779	-54.95
364.99	131.41
365.201	-38.57
365.412	6.49
365.623	0.34
365.834	43.35
366.045	35.16
366.256	86.36
366.467	104.79
366.678	61.78
366.889	119.12
367.1	31.06
367.311	207.19
367.522	-52.91
367.733	88.4
367.944	67.92
368.155	10.58
368.366	37.2
368.577	82.26
368.788	147.8
368.999	8.53
369.209	86.36
369.42	231.76
369.631	205.14
369.842	110.93
370.053	57.68
370.264	147.8
370.474	-1.71
370.685	51.54
370.896	26.96
371.107	57.68
371.317	47.44
371.528	8.53
371.739	119.12
371.95	84.31
372.16	90.45
372.371	-34.47
372.582	72.02
372.792	39.25
373.003	53.59
373.214	43.35
373.424	102.74
373.635	-22.19
373.846	141.65
374.056	2.39
374.267	16.73
374.477	127.32
374.688	-40.62
374.898	61.78
375.109	65.88
375.319	104.79
375.53	90.45
375.74	145.75
375.951	-3.75
376.161	100.69
376.372	65.88
376.582	12.63
376.793	49.49
377.003	88.4
377.214	8.53
377.424	65.88
377.635	72.02
377.845	12.63
378.055	149.84
378.266	24.92
378.476	10.58
378.686	49.49
378.897	39.25
379.107	92.5
379.317	76.12
379.528	59.73
379.738	164.18
379.948	-3.75
380.158	72.02
380.369	92.5
380.579	61.78
380.789	31.06
380.999	162.13
381.21	135.51
381.42	182.61
381.63	-7.85
381.84	96.6
382.05	43.35
382.261	125.27
382.471	188.75
382.681	-28.33
382.891	239.95
383.101	88.4
383.311	-1.71
383.521	80.21
383.731	168.27
383.941	151.89
384.151	84.31
384.361	49.49
384.571	45.4
384.781	115.03
384.991	158.03
385.201	198.99
385.411	121.17
385.621	110.93
385.831	37.2
386.041	16.73
386.251	-30.38
386.461	112.98
386.671	4.44
386.881	57.68
387.091	59.73
387.301	104.79
387.511	6.49
387.72	31.06
387.93	141.65
388.14	-69.29
388.35	37.2
388.56	92.5
388.769	98.64
388.979	67.92
389.189	-77.48
389.399	115.03
389.609	14.68
389.818	67.92
390.028	98.64
390.238	182.61
390.447	-44.71
390.657	96.6
390.867	-52.91
391.076	-63.15
391.286	-5.8
391.496	74.07
391.705	41.3
391.915	147.8
392.125	135.51
392.334	29.01
392.544	160.08
392.753	18.77
392.963	-9.9
393.172	31.06
393.382	20.82
393.591	149.84
393.801	12.63
394.01	129.36
394.22	84.31
394.429	18.77
394.639	88.4
394.848	26.96
395.058	88.4
395.267	100.69
395.477	162.13
395.686	84.31
395.895	172.37
396.105	203.09
396.314	47.44
396.524	49.49
396.733	29.01
396.942	162.13
397.152	143.7
397.361	115.03
397.57	22.87
397.78	65.88
397.989	88.4
398.198	209.23
398.407	74.07
398.617	-32.43
398.826	49.49
399.035	33.11
399.244	129.36
399.453	39.25
399.663	84.31
399.872	59.73
400.081	-52.91
400.29	223.57
400.499	51.54
400.708	149.84
400.917	29.01
401.127	10.58
401.336	18.77
401.545	162.13
401.754	82.26
401.963	153.94
402.172	90.45
402.381	-57
402.59	92.5
402.799	39.25
403.008	172.37
403.217	49.49
403.426	147.8
403.635	0.34
403.844	84.31
404.053	90.45
404.262	-34.47
404.471	198.99
404.68	69.97
404.888	16.73
405.097	84.31
405.306	35.16
405.515	160.08
405.724	-9.9
405.933	172.37
406.142	67.92
406.35	186.71
406.559	92.5
406.768	72.02
406.977	125.27
407.185	49.49
407.394	76.12
407.603	33.11
407.812	84.31
408.02	119.12
408.229	67.92
408.438	102.74
408.646	2.39
408.855	-34.47
409.064	4.44
409.272	45.4
409.481	133.46
409.69	-32.43
409.898	14.68
410.107	26.96
410.315	149.84
410.524	-5.8
410.733	90.45
410.941	20.82
411.15	164.18
411.358	102.74
411.567	141.65
411.775	4.44
411.984	35.16
412.192	57.68
412.401	-16.04
412.609	223.57
412.818	131.41
413.026	43.35
413.234	-18.09
413.443	6.49
413.651	-1.71
413.86	31.06
414.068	129.36
414.276	203.09
414.485	82.26
414.693	178.51
414.901	254.29
415.11	76.12
415.318	69.97
415.526	6.49
415.734	82.26
415.943	39.25
416.151	139.6
416.359	10.58
416.567	78.16
416.776	47.44
416.984	115.03
417.192	174.42
417.4	-42.67
417.608	84.31
417.817	-106.15
418.025	172.37
418.233	141.65
418.441	14.68
418.649	14.68
418.857	76.12
419.065	198.99
419.273	78.16
419.481	61.78
419.689	14.68
419.897	-1.71
420.105	55.64
420.313	104.79
420.521	278.87
420.729	180.56
420.937	-28.33
421.145	-83.63
421.353	104.79
421.561	137.56
421.769	98.64
421.977	12.63
422.185	72.02
422.393	82.26
422.601	92.5
422.809	65.88
423.017	80.21
423.224	69.97
423.432	213.33
423.64	72.02
423.848	151.89
424.056	88.4
424.263	123.22
424.471	2.39
424.679	115.03
424.887	-32.43
425.094	135.51
425.302	102.74
425.51	76.12
425.718	186.71
425.925	94.55
426.133	51.54
426.341	244.05
426.548	47.44
426.756	106.84
426.964	121.17
427.171	41.3
427.379	139.6
427.586	102.74
427.794	166.23
428.001	143.7
428.209	49.49
428.417	123.22
428.624	108.88
428.832	100.69
429.039	88.4
429.247	72.02
429.454	155.99
429.662	268.63
429.869	98.64
430.076	96.6
430.284	145.75
430.491	209.23
430.699	143.7
430.906	174.42
431.114	178.51
431.321	98.64
431.528	100.69
431.736	125.27
431.943	145.75
432.15	213.33
432.358	158.03
432.565	278.87
432.772	61.78
432.979	223.57
433.187	123.22
433.394	184.66
433.601	39.25
433.808	276.82
434.016	239.95
434.223	196.95
434.43	235.86
434.637	211.28
434.844	231.76
435.052	168.27
435.259	319.82
435.466	340.3
435.673	256.34
435.88	268.63
436.087	350.54
436.294	405.84
436.501	252.24
436.708	219.47
436.915	244.05
437.122	428.37
437.329	207.19
437.537	350.54
437.743	391.5
437.95	448.85
438.157	358.74
438.364	309.58
438.571	401.74
438.778	385.36
438.985	491.85
439.192	577.87
439.399	303.44
439.606	442.7
439.813	551.24
440.02	584.01
440.227	602.44
440.433	555.34
440.64	487.76
440.847	508.24
441.054	555.34
441.261	635.21
441.467	551.24
441.674	504.14
441.881	698.7
442.088	584.01
442.294	756.04
442.501	667.98
442.708	803.15
442.914	833.86
443.121	817.48
443.328	846.15
443.534	850.25
443.741	846.15
443.948	743.75
444.154	915.78
444.361	1048.9
444.568	1022.28
444.774	983.37
444.981	903.5
445.187	1194.31
445.394	1157.44
445.6	1126.72
445.807	1319.23
446.013	1141.06
446.22	1171.78
446.426	1407.3
446.633	1403.2
446.839	1648.96
447.046	1485.12
447.252	1526.08
447.459	1524.03
447.665	1573.18
447.871	1763.64
448.078	1857.85
448.284	1890.62
448.491	2052.41
448.697	1990.97
448.903	2054.45
449.11	2124.08
449.316	2033.97
449.522	2244.92
449.728	2330.93
449.935	2464.05
450.141	2400.56
450.347	2691.37
450.553	2668.84
450.76	2699.56
450.966	2883.88
451.172	2890.03
451.378	2963.75
451.584	2992.42
451.791	3242.28
451.997	3354.91
452.203	3371.3
452.409	3592.48
452.615	3784.99
452.821	3721.5
453.027	3830.04
453.233	4073.75
453.44	4092.18
453.646	4296.98
453.852	4622.61
454.058	4606.22
454.264	4778.25
454.47	5064.97
454.676	5103.88
454.882	5452.03
455.088	5263.62
455.294	5652.74
455.5	5984.51
455.705	6236.41
455.911	6476.02
456.117	6402.29
456.323	6838.51
456.529	6699.25
456.735	7327.97
456.941	7491.81
457.147	7887.07
457.352	8106.2
457.558	8327.38
457.764	9009.36
457.97	9029.84
458.176	9298.12
458.381	9822.4
458.587	10016.96
458.793	10391.73
458.999	10481.85
459.204	12103.84
459.41	12187.8
459.616	12124.32
459.821	12417.18
460.027	13205.64
460.233	13781.12
460.438	13779.08
460.644	14622.84
460.85	14921.84
461.055	15650.92
461.261	16183.39
461.466	15800.42
461.672	16494.68
461.878	17989.7
462.083	18032.71
462.289	18315.33
462.494	18886.71
462.7	19214.38
462.905	19320.88
463.111	20832.28
463.316	22200.32
463.522	22298.63
463.727	23166.96
463.932	24199.14
464.138	24965.08
464.343	25823.18
464.549	25778.12
464.754	27672.5
464.959	28141.48
465.165	29063.07
465.37	28938.14
465.575	28764.06
465.781	30416.77
465.986	31721.33
466.191	31129.47
466.397	31115.13
466.602	30764.93
466.807	32597.86
467.012	32933.73
467.218	33568.6
467.423	33865.55
467.628	34729.8
467.833	35995.44
468.038	35938.1
468.244	35123.01
468.449	37011.23
468.654	35997.49
468.859	35747.64
469.064	36306.73
469.269	35510.07
