Data from USB4F104151__71__10-31-56-052.txt Node

Date: Wed Feb 26 10:31:56 EST 2025
User: louis
Spectrometer: USB4F10415
Trigger mode: 4
Integration Time (sec): 1.000000E-1
Scans to average: 1
Electric dark correction enabled: true
Nonlinearity correction enabled: false
Boxcar width: 0
XAxis mode: Wavelengths
Number of Pixels in Spectrum: 3648
>>>>>Begin Spectral Data<<<<<
178.204	-413.18
178.424	-413.18
178.644	-413.18
178.864	-427.51
179.084	-394.75
179.304	-48.64
179.524	-5.63
179.744	37.38
179.964	53.76
180.184	2.56
180.404	53.76
180.624	-5.63
180.844	37.38
181.064	-91.65
181.283	-7.68
181.503	-17.92
181.723	-7.68
181.943	-38.4
182.163	141.82
182.383	-24.06
182.602	-1.54
182.822	143.87
183.042	96.77
183.262	-65.02
183.482	25.09
183.701	76.29
183.921	20.99
184.141	-103.93
184.361	100.86
184.58	25.09
184.8	80.38
185.02	0.51
185.239	27.14
185.459	18.94
185.679	104.96
185.898	-116.22
186.118	27.14
186.338	-1.54
186.557	98.81
186.777	-79.36
186.997	-7.68
187.216	31.23
187.436	186.88
187.655	70.14
187.875	66.05
188.095	10.75
188.314	152.06
188.534	125.44
188.753	16.9
188.973	152.06
189.192	123.39
189.412	-58.88
189.631	10.75
189.851	47.62
190.07	168.45
190.29	-71.17
190.509	-15.87
190.729	27.14
190.948	158.21
191.168	260.6
191.387	23.04
191.607	37.38
191.826	96.77
192.045	27.14
192.265	-62.98
192.484	-32.26
192.704	113.15
192.923	-50.69
193.142	180.73
193.362	147.97
193.581	123.39
193.8	4.61
194.02	82.43
194.239	84.48
194.458	55.81
194.678	31.23
194.897	16.9
195.116	104.96
195.335	29.18
195.555	45.57
195.774	-15.87
195.993	70.14
196.212	10.75
196.432	18.94
196.651	53.76
196.87	20.99
197.089	252.41
197.308	6.66
197.528	70.14
197.747	-58.88
197.966	14.85
198.185	145.92
198.404	-130.56
198.623	199.16
198.842	133.63
199.062	59.9
199.281	66.05
199.5	100.86
199.719	39.42
199.938	162.3
200.157	29.18
200.376	92.67
200.595	92.67
200.814	43.52
201.033	-19.97
201.252	137.73
201.471	115.2
201.69	109.05
201.909	20.99
202.128	137.73
202.347	43.52
202.566	-17.92
202.785	29.18
203.004	41.47
203.223	279.04
203.442	35.33
203.661	-50.69
203.879	-1.54
204.098	113.15
204.317	-11.78
204.536	96.77
204.755	25.09
204.974	172.54
205.193	-22.02
205.411	115.2
205.63	84.48
205.849	49.66
206.068	-50.69
206.287	-105.98
206.505	59.9
206.724	-34.3
206.943	-38.4
207.162	-48.64
207.381	55.81
207.599	25.09
207.818	2.56
208.037	-73.21
208.255	41.47
208.474	25.09
208.693	121.34
208.911	-15.87
209.13	66.05
209.349	-34.3
209.567	59.9
209.786	53.76
210.005	147.97
210.223	88.57
210.442	-60.93
210.661	70.14
210.879	51.71
211.098	31.23
211.316	39.42
211.535	104.96
211.753	-1.54
211.972	76.29
212.191	-62.98
212.409	-36.35
212.628	150.01
212.846	-73.21
213.065	92.67
213.283	68.09
213.502	61.95
213.72	-67.07
213.938	31.23
214.157	20.99
214.375	107.01
214.594	-62.98
214.812	80.38
215.031	47.62
215.249	-22.02
215.467	49.66
215.686	31.23
215.904	25.09
216.122	125.44
216.341	115.2
216.559	76.29
216.778	72.19
216.996	35.33
217.214	72.19
217.432	-60.93
217.651	-83.45
217.869	76.29
218.087	70.14
218.306	-50.69
218.524	-11.78
218.742	31.23
218.96	18.94
219.179	35.33
219.397	33.28
219.615	240.12
219.833	158.21
220.051	-42.5
220.27	82.43
220.488	90.62
220.706	-7.68
220.924	-28.16
221.142	-24.06
221.36	27.14
221.578	53.76
221.796	68.09
222.015	2.56
222.233	57.86
222.451	219.64
222.669	-87.55
222.887	23.04
223.105	-17.92
223.323	141.82
223.541	-50.69
223.759	55.81
223.977	-32.26
224.195	172.54
224.413	-32.26
224.631	-1.54
224.849	33.28
225.067	90.62
225.285	-5.63
225.503	16.9
225.721	-71.17
225.939	49.66
226.157	64
226.375	240.12
226.592	6.66
226.81	-9.73
227.028	137.73
227.246	45.57
227.464	-26.11
227.682	98.81
227.9	33.28
228.117	6.66
228.335	59.9
228.553	-9.73
228.771	8.7
228.989	-67.07
229.206	125.44
229.424	-7.68
229.642	-9.73
229.86	-52.74
230.077	107.01
230.295	-67.07
230.513	102.91
230.731	6.66
230.948	127.49
231.166	150.01
231.384	27.14
231.601	14.85
231.819	180.73
232.037	31.23
232.254	-67.07
232.472	-13.82
232.689	37.38
232.907	47.62
233.125	-36.35
233.342	-13.82
233.56	-7.68
233.777	23.04
233.995	109.05
234.213	96.77
234.43	18.94
234.648	84.48
234.865	6.66
235.083	74.24
235.3	59.9
235.518	-1.54
235.735	86.53
235.953	53.76
236.17	-83.45
236.388	-24.06
236.605	20.99
236.822	68.09
237.04	55.81
237.257	39.42
237.475	-5.63
237.692	10.75
237.909	80.38
238.127	-1.54
238.344	133.63
238.562	61.95
238.779	-26.11
238.996	-30.21
239.214	23.04
239.431	37.38
239.648	18.94
239.865	35.33
240.083	14.85
240.3	64
240.517	8.7
240.735	-22.02
240.952	107.01
241.169	35.33
241.386	16.9
241.603	8.7
241.821	-15.87
242.038	82.43
242.255	100.86
242.472	-50.69
242.689	145.92
242.907	16.9
243.124	-13.82
243.341	-9.73
243.558	-3.58
243.775	39.42
243.992	-40.45
244.209	117.25
244.426	184.83
244.643	39.42
244.86	61.95
245.078	47.62
245.295	51.71
245.512	74.24
245.729	-22.02
245.946	31.23
246.163	23.04
246.38	35.33
246.597	18.94
246.814	2.56
247.031	41.47
247.248	86.53
247.464	74.24
247.681	57.86
247.898	70.14
248.115	78.33
248.332	33.28
248.549	158.21
248.766	82.43
248.983	45.57
249.2	59.9
249.417	82.43
249.633	20.99
249.85	29.18
250.067	10.75
250.284	49.66
250.501	37.38
250.717	33.28
250.934	-9.73
251.151	41.47
251.368	35.33
251.585	-7.68
251.801	14.85
252.018	-3.58
252.235	86.53
252.451	-44.54
252.668	-34.3
252.885	107.01
253.102	-5.63
253.318	64
253.535	10.75
253.752	-38.4
253.968	-60.93
254.185	-54.78
254.401	47.62
254.618	55.81
254.835	-34.3
255.051	16.9
255.268	64
255.484	-42.5
255.701	-42.5
255.917	94.72
256.134	-60.93
256.351	82.43
256.567	-38.4
256.784	20.99
257	10.75
257.217	35.33
257.433	64
257.65	66.05
257.866	84.48
258.082	-5.63
258.299	-19.97
258.515	-24.06
258.732	-67.07
258.948	-62.98
259.165	70.14
259.381	-79.36
259.597	29.18
259.814	6.66
260.03	18.94
260.246	-26.11
260.463	100.86
260.679	86.53
260.895	41.47
261.112	51.71
261.328	35.33
261.544	-44.54
261.761	104.96
261.977	-36.35
262.193	-108.03
262.409	41.47
262.626	8.7
262.842	55.81
263.058	33.28
263.274	102.91
263.49	-5.63
263.707	86.53
263.923	115.2
264.139	-36.35
264.355	72.19
264.571	80.38
264.787	119.29
265.004	100.86
265.22	49.66
265.436	-15.87
265.652	-1.54
265.868	-5.63
266.084	-44.54
266.3	12.8
266.516	-69.12
266.732	-44.54
266.948	39.42
267.164	31.23
267.38	92.67
267.596	66.05
267.812	166.4
268.028	-17.92
268.244	-30.21
268.46	72.19
268.676	10.75
268.892	125.44
269.108	-24.06
269.324	-67.07
269.54	-40.45
269.756	-5.63
269.972	-13.82
270.188	0.51
270.403	-11.78
270.619	39.42
270.835	29.18
271.051	-17.92
271.267	-28.16
271.483	-28.16
271.698	158.21
271.914	78.33
272.13	39.42
272.346	-13.82
272.562	-30.21
272.777	102.91
272.993	-24.06
273.209	-24.06
273.425	10.75
273.64	-60.93
273.856	70.14
274.072	-3.58
274.287	-48.64
274.503	10.75
274.719	64
274.934	64
275.15	-58.88
275.366	14.85
275.581	43.52
275.797	86.53
276.012	29.18
276.228	8.7
276.444	33.28
276.659	117.25
276.875	-26.11
277.09	-67.07
277.306	31.23
277.521	80.38
277.737	-5.63
277.952	4.61
278.168	37.38
278.383	115.2
278.599	-11.78
278.814	133.63
279.03	6.66
279.245	125.44
279.461	-17.92
279.676	47.62
279.892	12.8
280.107	-69.12
280.322	-46.59
280.538	43.52
280.753	-54.78
280.969	2.56
281.184	-58.88
281.399	147.97
281.615	8.7
281.83	10.75
282.045	4.61
282.26	-60.93
282.476	-9.73
282.691	76.29
282.906	115.2
283.122	76.29
283.337	-58.88
283.552	113.15
283.767	-24.06
283.983	88.57
284.198	8.7
284.413	55.81
284.628	-52.74
284.843	10.75
285.058	94.72
285.274	10.75
285.489	-15.87
285.704	35.33
285.919	-40.45
286.134	66.05
286.349	-19.97
286.564	-56.83
286.779	172.54
286.995	2.56
287.21	-32.26
287.425	80.38
287.64	37.38
287.855	57.86
288.07	-24.06
288.285	195.07
288.5	70.14
288.715	96.77
288.93	-5.63
289.145	0.51
289.36	76.29
289.575	12.8
289.79	33.28
290.004	4.61
290.219	104.96
290.434	-42.5
290.649	55.81
290.864	0.51
291.079	10.75
291.294	102.91
291.509	107.01
291.724	25.09
291.938	-62.98
292.153	41.47
292.368	-9.73
292.583	39.42
292.798	47.62
293.012	33.28
293.227	123.39
293.442	-15.87
293.657	68.09
293.871	39.42
294.086	78.33
294.301	133.63
294.516	111.1
294.73	31.23
294.945	-17.92
295.16	27.14
295.374	176.64
295.589	156.16
295.804	6.66
296.018	55.81
296.233	92.67
296.447	14.85
296.662	-40.45
296.877	84.48
297.091	102.91
297.306	27.14
297.52	-69.12
297.735	88.57
297.949	35.33
298.164	33.28
298.378	72.19
298.593	6.66
298.807	-17.92
299.022	-5.63
299.236	119.29
299.451	31.23
299.665	0.51
299.88	12.8
300.094	6.66
300.309	-65.02
300.523	84.48
300.737	35.33
300.952	117.25
301.166	18.94
301.381	43.52
301.595	-28.16
301.809	57.86
302.024	-26.11
302.238	-87.55
302.452	68.09
302.667	37.38
302.881	133.63
303.095	96.77
303.309	39.42
303.524	10.75
303.738	37.38
303.952	0.51
304.166	45.57
304.381	-120.32
304.595	117.25
304.809	29.18
305.023	72.19
305.237	-22.02
305.452	-17.92
305.666	43.52
305.88	18.94
306.094	84.48
306.308	55.81
306.522	66.05
306.736	57.86
306.95	86.53
307.164	4.61
307.379	-7.68
307.593	76.29
307.807	109.05
308.021	119.29
308.235	14.85
308.449	-52.74
308.663	0.51
308.877	188.93
309.091	47.62
309.305	137.73
309.519	-126.46
309.733	92.67
309.947	-58.88
310.161	33.28
310.374	68.09
310.588	86.53
310.802	-77.31
311.016	-5.63
311.23	-50.69
311.444	-13.82
311.658	29.18
311.872	119.29
312.085	121.34
312.299	107.01
312.513	152.06
312.727	127.49
312.941	-91.65
313.154	18.94
313.368	-30.21
313.582	51.71
313.796	61.95
314.009	-17.92
314.223	104.96
314.437	51.71
314.651	53.76
314.864	-9.73
315.078	-32.26
315.292	-83.45
315.505	16.9
315.719	12.8
315.933	59.9
316.146	-75.26
316.36	-60.93
316.573	55.81
316.787	39.42
317.001	10.75
317.214	-50.69
317.428	145.92
317.641	10.75
317.855	-26.11
318.068	-5.63
318.282	39.42
318.495	156.16
318.709	16.9
318.922	53.76
319.136	164.35
319.349	139.77
319.563	-32.26
319.776	41.47
319.99	-1.54
320.203	125.44
320.417	-5.63
320.63	86.53
320.843	127.49
321.057	82.43
321.27	-9.73
321.483	135.68
321.697	92.67
321.91	-42.5
322.124	-1.54
322.337	115.2
322.55	-17.92
322.763	4.61
322.977	107.01
323.19	-62.98
323.403	39.42
323.617	78.33
323.83	64
324.043	-7.68
324.256	64
324.469	-48.64
324.683	111.1
324.896	20.99
325.109	59.9
325.322	-60.93
325.535	47.62
325.748	59.9
325.962	-19.97
326.175	14.85
326.388	8.7
326.601	72.19
326.814	49.66
327.027	27.14
327.24	152.06
327.453	-79.36
327.666	4.61
327.879	143.87
328.092	51.71
328.305	86.53
328.518	-38.4
328.731	-17.92
328.944	-24.06
329.157	31.23
329.37	25.09
329.583	133.63
329.796	141.82
330.009	-62.98
330.222	61.95
330.435	109.05
330.648	47.62
330.861	45.57
331.073	131.58
331.286	82.43
331.499	68.09
331.712	-60.93
331.925	33.28
332.138	100.86
332.35	137.73
332.563	-24.06
332.776	117.25
332.989	-24.06
333.202	-13.82
333.414	76.29
333.627	-1.54
333.84	25.09
334.053	55.81
334.265	-91.65
334.478	-30.21
334.691	43.52
334.903	27.14
335.116	37.38
335.329	51.71
335.541	39.42
335.754	84.48
335.966	64
336.179	35.33
336.392	-3.58
336.604	-28.16
336.817	117.25
337.029	-5.63
337.242	80.38
337.454	74.24
337.667	55.81
337.88	102.91
338.092	31.23
338.305	68.09
338.517	20.99
338.729	27.14
338.942	129.53
339.154	-34.3
339.367	-52.74
339.579	47.62
339.792	-46.59
340.004	70.14
340.217	55.81
340.429	-22.02
340.641	43.52
340.854	-15.87
341.066	-15.87
341.278	162.3
341.491	201.21
341.703	76.29
341.915	14.85
342.128	109.05
342.34	16.9
342.552	-28.16
342.764	23.04
342.977	20.99
343.189	64
343.401	82.43
343.613	-163.33
343.826	-13.82
344.038	-28.16
344.25	10.75
344.462	-26.11
344.674	23.04
344.886	64
345.099	14.85
345.311	76.29
345.523	49.66
345.735	-40.45
345.947	66.05
346.159	23.04
346.371	72.19
346.583	76.29
346.795	135.68
347.007	-24.06
347.219	72.19
347.431	51.71
347.643	147.97
347.855	-67.07
348.067	8.7
348.279	-26.11
348.491	25.09
348.703	117.25
348.915	-62.98
349.127	-60.93
349.339	41.47
349.551	-7.68
349.763	139.77
349.975	37.38
350.187	137.73
350.399	141.82
350.61	131.58
350.822	14.85
351.034	51.71
351.246	55.81
351.458	61.95
351.669	80.38
351.881	96.77
352.093	98.81
352.305	178.69
352.517	64
352.728	154.11
352.94	29.18
353.152	37.38
353.363	-87.55
353.575	94.72
353.787	162.3
353.999	72.19
354.21	152.06
354.422	-83.45
354.633	-17.92
354.845	-5.63
355.057	-3.58
355.268	49.66
355.48	55.81
355.692	-36.35
355.903	141.82
356.115	-24.06
356.326	-103.93
356.538	133.63
356.749	88.57
356.961	154.11
357.172	23.04
357.384	-58.88
357.595	182.78
357.807	-26.11
358.018	41.47
358.23	12.8
358.441	133.63
358.653	39.42
358.864	-32.26
359.075	-48.64
359.287	102.91
359.498	107.01
359.709	119.29
359.921	92.67
360.132	49.66
360.344	49.66
360.555	16.9
360.766	49.66
360.977	39.42
361.189	72.19
361.4	14.85
361.611	147.97
361.823	121.34
362.034	27.14
362.245	-65.02
362.456	18.94
362.667	39.42
362.879	-15.87
363.09	-28.16
363.301	90.62
363.512	33.28
363.723	20.99
363.935	47.62
364.146	55.81
364.357	76.29
364.568	-1.54
364.779	-46.59
364.99	92.67
365.201	-65.02
365.412	37.38
365.623	-34.3
365.834	111.1
366.045	25.09
366.256	33.28
366.467	113.15
366.678	66.05
366.889	-42.5
367.1	2.56
367.311	104.96
367.522	-15.87
367.733	41.47
367.944	82.43
368.155	-13.82
368.366	-11.78
368.577	147.97
368.788	10.75
368.999	-56.83
369.209	29.18
369.42	248.32
369.631	195.07
369.842	82.43
370.053	33.28
370.264	64
370.474	-26.11
370.685	14.85
370.896	12.8
371.107	90.62
371.317	76.29
371.528	-3.58
371.739	143.87
371.95	88.57
372.16	0.51
372.371	-34.3
372.582	92.67
372.792	43.52
373.003	35.33
373.214	80.38
373.424	107.01
373.635	-50.69
373.846	129.53
374.056	88.57
374.267	37.38
374.477	109.05
374.688	-56.83
374.898	47.62
375.109	35.33
375.319	88.57
375.53	102.91
375.74	80.38
375.951	-3.58
376.161	18.94
376.372	74.24
376.582	35.33
376.793	141.82
377.003	18.94
377.214	-26.11
377.424	51.71
377.635	-13.82
377.845	-38.4
378.055	143.87
378.266	-44.54
378.476	-7.68
378.686	88.57
378.897	-22.02
379.107	115.2
379.317	16.9
379.528	-40.45
379.738	100.86
379.948	-60.93
380.158	45.57
380.369	-50.69
380.579	84.48
380.789	-5.63
380.999	150.01
381.21	51.71
381.42	143.87
381.63	0.51
381.84	90.62
382.05	37.38
382.261	35.33
382.471	59.9
382.681	-40.45
382.891	172.54
383.101	20.99
383.311	-91.65
383.521	-48.64
383.731	107.01
383.941	76.29
384.151	6.66
384.361	-5.63
384.571	2.56
384.781	70.14
384.991	225.79
385.201	68.09
385.411	84.48
385.621	33.28
385.831	31.23
386.041	88.57
386.251	51.71
386.461	133.63
386.671	49.66
386.881	78.33
387.091	45.57
387.301	86.53
387.511	18.94
387.72	102.91
387.93	133.63
388.14	-97.79
388.35	12.8
388.56	203.26
388.769	94.72
388.979	29.18
389.189	-26.11
389.399	18.94
389.609	90.62
389.818	61.95
390.028	70.14
390.238	70.14
390.447	-7.68
390.657	76.29
390.867	-9.73
391.076	-28.16
391.286	98.81
391.496	23.04
391.705	14.85
391.915	82.43
392.125	64
392.334	-15.87
392.544	119.29
392.753	66.05
392.963	-52.74
393.172	-3.58
393.382	-17.92
393.591	209.4
393.801	-50.69
394.01	154.11
394.22	92.67
394.429	121.34
394.639	47.62
394.848	35.33
395.058	55.81
395.267	25.09
395.477	0.51
395.686	76.29
395.895	143.87
396.105	178.69
396.314	127.49
396.524	51.71
396.733	-30.21
396.942	172.54
397.152	45.57
397.361	145.92
397.57	23.04
397.78	96.77
397.989	88.57
398.198	119.29
398.407	86.53
398.617	43.52
398.826	14.85
399.035	-56.83
399.244	117.25
399.453	51.71
399.663	31.23
399.872	92.67
400.081	-83.45
400.29	139.77
400.499	-77.31
400.708	94.72
400.917	4.61
401.127	33.28
401.336	-17.92
401.545	178.69
401.754	96.77
401.963	152.06
402.172	88.57
402.381	-13.82
402.59	-15.87
402.799	53.76
403.008	137.73
403.217	102.91
403.426	121.34
403.635	-75.26
403.844	6.66
404.053	-38.4
404.262	8.7
404.471	143.87
404.68	66.05
404.888	82.43
405.097	18.94
405.306	86.53
405.515	6.66
405.724	39.42
405.933	41.47
406.142	31.23
406.35	76.29
406.559	14.85
406.768	98.81
406.977	145.92
407.185	47.62
407.394	35.33
407.603	-11.78
407.812	37.38
408.02	156.16
408.229	-5.63
408.438	47.62
408.646	-44.54
408.855	23.04
409.064	104.96
409.272	27.14
409.481	31.23
409.69	-9.73
409.898	-50.69
410.107	20.99
410.315	135.68
410.524	-9.73
410.733	41.47
410.941	14.85
411.15	55.81
411.358	61.95
411.567	72.19
411.775	35.33
411.984	18.94
412.192	-13.82
412.401	-40.45
412.609	129.53
412.818	70.14
413.026	51.71
413.234	74.24
413.443	-22.02
413.651	-22.02
413.86	12.8
414.068	115.2
414.276	154.11
414.485	16.9
414.693	154.11
414.901	143.87
415.11	4.61
415.318	113.15
415.526	-48.64
415.734	43.52
415.943	86.53
416.151	158.21
416.359	29.18
416.567	111.1
416.776	82.43
416.984	78.33
417.192	119.29
417.4	-56.83
417.608	68.09
417.817	18.94
418.025	119.29
418.233	113.15
418.441	-71.17
418.649	-85.5
418.857	-13.82
419.065	119.29
419.273	-11.78
419.481	-3.58
419.689	78.33
419.897	-26.11
420.105	-71.17
420.313	92.67
420.521	119.29
420.729	76.29
420.937	-95.74
421.145	-52.74
421.353	119.29
421.561	135.68
421.769	84.48
421.977	8.7
422.185	68.09
422.393	47.62
422.601	96.77
422.809	76.29
423.017	29.18
423.224	78.33
423.432	188.93
423.64	23.04
423.848	119.29
424.056	29.18
424.263	129.53
424.471	-71.17
424.679	135.68
424.887	16.9
425.094	123.39
425.302	117.25
425.51	12.8
425.718	74.24
425.925	57.86
426.133	-13.82
426.341	233.98
426.548	35.33
426.756	-28.16
426.964	23.04
427.171	-46.59
427.379	82.43
427.586	43.52
427.794	47.62
428.001	90.62
428.209	-3.58
428.417	209.4
428.624	145.92
428.832	129.53
429.039	53.76
429.247	82.43
429.454	64
429.662	240.12
429.869	20.99
430.076	104.96
430.284	158.21
430.491	139.77
430.699	131.58
430.906	262.65
431.114	51.71
431.321	102.91
431.528	27.14
431.736	115.2
431.943	150.01
432.15	104.96
432.358	127.49
432.565	291.32
432.772	-19.97
432.979	156.16
433.187	66.05
433.394	147.97
433.601	27.14
433.808	197.12
434.016	172.54
434.223	211.45
434.43	170.49
434.637	168.45
434.844	164.35
435.052	154.11
435.259	236.03
435.466	274.94
435.673	184.83
435.88	250.36
436.087	260.6
436.294	211.45
436.501	156.16
436.708	178.69
436.915	242.17
437.122	334.33
437.329	121.34
437.537	129.53
437.743	186.88
437.95	428.54
438.157	254.46
438.364	199.16
438.571	270.84
438.778	348.67
438.985	354.81
439.192	371.19
439.399	276.99
439.606	297.47
439.813	369.15
440.02	477.69
440.227	475.64
440.433	395.77
440.64	383.48
440.847	367.1
441.054	479.74
441.261	463.35
441.467	483.83
441.674	440.83
441.881	481.78
442.088	475.64
442.294	514.55
442.501	553.46
442.708	629.24
442.914	508.41
443.121	612.85
443.328	582.14
443.534	752.12
443.741	586.23
443.948	483.83
444.154	721.4
444.361	856.56
444.568	694.77
444.774	778.74
444.981	584.18
445.187	848.37
445.394	752.12
445.6	907.76
445.807	920.05
446.013	932.34
446.22	831.99
446.426	1034.74
446.633	1026.54
446.839	1231.34
447.046	940.53
447.252	1171.95
447.459	1206.77
447.665	1231.34
447.871	1335.79
448.078	1339.88
448.284	1329.64
448.491	1427.95
448.697	1569.26
448.903	1614.31
449.11	1522.15
449.316	1475.05
449.522	1665.51
449.728	1839.59
449.935	1802.72
450.141	1882.6
450.347	1956.32
450.553	2007.52
450.76	1984.99
450.966	2157.02
451.172	2159.07
451.378	2314.72
451.584	2398.68
451.791	2587.1
451.997	2472.41
452.203	2542.04
452.409	2775.51
452.615	2822.61
452.821	2679.26
453.027	2730.45
453.233	3320.27
453.44	3097.04
453.646	3142.1
453.852	3244.49
454.058	3445.2
454.264	3545.55
454.47	3883.46
454.676	3721.67
454.882	4026.82
455.088	3848.65
455.294	4145.6
455.5	4538.81
455.705	4692.41
455.911	4751.8
456.117	4884.92
456.323	4966.84
456.529	5036.47
456.735	5466.54
456.941	5517.74
457.147	5978.53
457.352	5814.7
457.558	6125.99
457.764	6498.72
457.97	6476.19
458.176	7088.53
458.381	7170.45
458.587	7448.97
458.793	7823.75
458.999	7731.59
459.204	8552.83
459.41	8978.81
459.616	8862.07
459.821	9316.72
460.027	9789.8
460.233	10336.61
460.438	10445.15
460.644	11024.73
460.85	11020.63
461.055	11413.84
461.261	11995.46
461.466	11905.35
461.672	12013.9
461.878	13297.97
462.083	13318.45
462.289	13420.85
462.494	13936.94
462.7	14102.82
462.905	14328.1
463.111	15685.9
463.316	16095.5
463.522	16623.87
463.727	16996.6
463.932	17674.48
464.138	18370.79
464.343	19114.2
464.549	18968.8
464.754	20574.41
464.959	21074.11
465.165	21326.01
465.37	21231.8
465.575	20934.85
465.781	22890.66
465.986	23566.49
466.191	23023.78
466.397	23298.2
466.602	22667.43
466.807	24049.81
467.012	24651.91
467.218	24797.32
467.423	24963.2
467.628	25536.63
467.833	26988.64
468.038	26435.69
468.244	26165.36
468.449	27367.52
468.654	26718.31
468.859	26564.71
