Data from USB4F104151__25__09-26-11-117.txt Node

Date: Wed Feb 26 09:26:11 EST 2025
User: louis
Spectrometer: USB4F10415
Trigger mode: 4
Integration Time (sec): 1.000000E-1
Scans to average: 1
Electric dark correction enabled: true
Nonlinearity correction enabled: false
Boxcar width: 0
XAxis mode: Wavelengths
Number of Pixels in Spectrum: 3648
>>>>>Begin Spectral Data<<<<<
178.204	-338.26
178.424	-338.26
178.644	-338.26
178.864	-328.02
179.084	-393.55
179.304	-0.34
179.524	-20.82
179.744	-22.87
179.964	63.15
180.184	3.75
180.404	-29.01
180.624	50.86
180.844	38.57
181.064	-74.07
181.283	-45.4
181.503	-0.34
181.723	36.52
181.943	-104.79
182.163	93.87
182.383	-39.25
182.602	24.23
182.822	118.44
183.042	38.57
183.262	-72.02
183.482	-31.06
183.701	-86.36
183.921	3.75
184.141	-35.16
184.361	77.48
184.58	24.23
184.8	7.85
185.02	-49.49
185.239	85.67
185.459	91.82
185.679	108.2
185.898	-78.16
186.118	28.33
186.338	32.43
186.557	108.2
186.777	-29.01
186.997	-67.92
187.216	50.86
187.436	167.59
187.655	-12.63
187.875	102.06
188.095	28.33
188.314	110.25
188.534	120.49
188.753	-98.64
188.973	89.77
189.192	67.24
189.412	34.47
189.631	48.81
189.851	100.01
190.07	126.63
190.29	-41.3
190.509	-22.87
190.729	42.67
190.948	91.82
191.168	233.13
191.387	52.91
191.607	-41.3
191.826	13.99
192.045	-22.87
192.265	-2.39
192.484	20.14
192.704	-12.63
192.923	-98.64
193.142	186.02
193.362	75.43
193.581	177.83
193.8	-80.21
194.02	75.43
194.239	44.71
194.458	67.24
194.678	24.23
194.897	26.28
195.116	61.1
195.335	32.43
195.555	7.85
195.774	-20.82
195.993	52.91
196.212	28.33
196.432	1.71
196.651	-47.44
196.87	-61.78
197.089	196.26
197.308	102.06
197.528	52.91
197.747	-74.07
197.966	-4.44
198.185	108.2
198.404	-74.07
198.623	34.47
198.842	69.29
199.062	126.63
199.281	110.25
199.5	28.33
199.719	130.73
199.938	38.57
200.157	52.91
200.376	20.14
200.595	34.47
200.814	57
201.033	46.76
201.252	143.02
201.471	95.91
201.69	20.14
201.909	3.75
202.128	106.15
202.347	30.38
202.566	69.29
202.785	-78.16
203.004	20.14
203.223	177.83
203.442	5.8
203.661	-104.79
203.879	81.58
204.098	89.77
204.317	-31.06
204.536	63.15
204.755	18.09
204.974	145.06
205.193	-10.58
205.411	138.92
205.63	75.43
205.849	11.95
206.068	-8.53
206.287	-6.49
206.505	118.44
206.724	9.9
206.943	50.86
207.162	-80.21
207.381	5.8
207.599	-41.3
207.818	-6.49
208.037	-12.63
208.255	3.75
208.474	57
208.693	134.82
208.911	-24.92
209.13	57
209.349	-4.44
209.567	48.81
209.786	83.63
210.005	7.85
210.223	-20.82
210.442	-4.44
210.661	38.57
210.879	36.52
211.098	9.9
211.316	44.71
211.535	32.43
211.753	52.91
211.972	59.05
212.191	11.95
212.409	65.19
212.628	83.63
212.846	-0.34
213.065	40.62
213.283	118.44
213.502	34.47
213.72	9.9
213.938	42.67
214.157	-6.49
214.375	61.1
214.594	91.82
214.812	-12.63
215.031	-45.4
215.249	-57.68
215.467	-6.49
215.686	40.62
215.904	42.67
216.122	36.52
216.341	126.63
216.559	34.47
216.778	114.34
216.996	61.1
217.214	-8.53
217.432	22.19
217.651	42.67
217.869	52.91
218.087	48.81
218.306	3.75
218.524	40.62
218.742	3.75
218.96	52.91
219.179	-76.12
219.397	-4.44
219.615	200.36
219.833	46.76
220.051	-45.4
220.27	75.43
220.488	159.4
220.706	61.1
220.924	-20.82
221.142	24.23
221.36	110.25
221.578	118.44
221.796	67.24
222.015	-16.73
222.233	-61.78
222.451	126.63
222.669	-22.87
222.887	44.71
223.105	-26.96
223.323	28.33
223.541	-10.58
223.759	65.19
223.977	50.86
224.195	159.4
224.413	59.05
224.631	36.52
224.849	97.96
225.067	134.82
225.285	-12.63
225.503	-53.59
225.721	-67.92
225.939	48.81
226.157	-26.96
226.375	161.45
226.592	-14.68
226.81	-16.73
227.028	89.77
227.246	81.58
227.464	18.09
227.682	40.62
227.9	20.14
228.117	97.96
228.335	1.71
228.553	-31.06
228.771	71.34
228.989	-6.49
229.206	-6.49
229.424	16.04
229.642	11.95
229.86	20.14
230.077	136.87
230.295	-6.49
230.513	87.72
230.731	95.91
230.948	69.29
231.166	149.16
231.384	-4.44
231.601	3.75
231.819	143.02
232.037	-43.35
232.254	-24.92
232.472	46.76
232.689	-20.82
232.907	52.91
233.125	59.05
233.342	-72.02
233.56	24.23
233.777	-2.39
233.995	46.76
234.213	102.06
234.43	59.05
234.648	-49.49
234.865	5.8
235.083	38.57
235.3	104.11
235.518	79.53
235.735	151.21
235.953	-31.06
236.17	83.63
236.388	59.05
236.605	40.62
236.822	77.48
237.04	108.2
237.257	-4.44
237.475	-20.82
237.692	42.67
237.909	40.62
238.127	-92.5
238.344	69.29
238.562	3.75
238.779	-41.3
238.996	-14.68
239.214	-45.4
239.431	67.24
239.648	32.43
239.865	44.71
240.083	155.3
240.3	3.75
240.517	-22.87
240.735	18.09
240.952	79.53
241.169	-8.53
241.386	95.91
241.603	-35.16
241.821	-65.88
242.038	83.63
242.255	44.71
242.472	26.28
242.689	54.95
242.907	40.62
243.124	-16.73
243.341	-82.26
243.558	-33.11
243.775	-45.4
243.992	-88.4
244.209	57
244.426	134.82
244.643	44.71
244.86	42.67
245.078	3.75
245.295	48.81
245.512	54.95
245.729	-49.49
245.946	44.71
246.163	44.71
246.38	-20.82
246.597	20.14
246.814	28.33
247.031	13.99
247.248	-18.77
247.464	112.3
247.681	30.38
247.898	34.47
248.115	75.43
248.332	-8.53
248.549	93.87
248.766	147.11
248.983	73.39
249.2	54.95
249.417	1.71
249.633	-0.34
249.85	63.15
250.067	-16.73
250.284	24.23
250.501	100.01
250.717	116.39
250.934	-61.78
251.151	85.67
251.368	-31.06
251.585	81.58
251.801	-2.39
252.018	-37.2
252.235	32.43
252.451	-92.5
252.668	-12.63
252.885	5.8
253.102	81.58
253.318	-4.44
253.535	-47.44
253.752	-24.92
253.968	54.95
254.185	-37.2
254.401	87.72
254.618	81.58
254.835	-4.44
255.051	102.06
255.268	132.78
255.484	-37.2
255.701	16.04
255.917	36.52
256.134	-39.25
256.351	-39.25
256.567	52.91
256.784	11.95
257	-14.68
257.217	85.67
257.433	-24.92
257.65	-4.44
257.866	73.39
258.082	-10.58
258.299	48.81
258.515	77.48
258.732	3.75
258.948	-49.49
259.165	7.85
259.381	-82.26
259.597	-14.68
259.814	5.8
260.03	42.67
260.246	13.99
260.463	75.43
260.679	93.87
260.895	36.52
261.112	38.57
261.328	-41.3
261.544	5.8
261.761	126.63
261.977	-49.49
262.193	-76.12
262.409	-6.49
262.626	13.99
262.842	50.86
263.058	-31.06
263.274	26.28
263.49	40.62
263.707	48.81
263.923	-24.92
264.139	-51.54
264.355	-22.87
264.571	124.58
264.787	57
265.004	93.87
265.22	-6.49
265.436	-78.16
265.652	9.9
265.868	16.04
266.084	3.75
266.3	-67.92
266.516	-41.3
266.732	-37.2
266.948	-35.16
267.164	20.14
267.38	40.62
267.596	85.67
267.812	63.15
268.028	-0.34
268.244	59.05
268.46	-43.35
268.676	-31.06
268.892	30.38
269.108	-106.84
269.324	-96.6
269.54	-49.49
269.756	81.58
269.972	-22.87
270.188	-31.06
270.403	-47.44
270.619	30.38
270.835	57
271.051	-45.4
271.267	7.85
271.483	-4.44
271.698	50.86
271.914	81.58
272.13	-8.53
272.346	52.91
272.562	11.95
272.777	108.2
272.993	3.75
273.209	-8.53
273.425	50.86
273.64	-16.73
273.856	81.58
274.072	-12.63
274.287	-53.59
274.503	36.52
274.719	71.34
274.934	-8.53
275.15	1.71
275.366	-35.16
275.581	-24.92
275.797	1.71
276.012	13.99
276.228	-94.55
276.444	65.19
276.659	63.15
276.875	-22.87
277.09	-6.49
277.306	-59.73
277.521	22.19
277.737	100.01
277.952	52.91
278.168	52.91
278.383	75.43
278.599	28.33
278.814	118.44
279.03	-41.3
279.245	89.77
279.461	-6.49
279.676	63.15
279.892	-98.64
280.107	-74.07
280.322	-82.26
280.538	40.62
280.753	-51.54
280.969	-53.59
281.184	18.09
281.399	134.82
281.615	42.67
281.83	108.2
282.045	-22.87
282.26	-22.87
282.476	48.81
282.691	100.01
282.906	69.29
283.122	104.11
283.337	9.9
283.552	18.09
283.767	-82.26
283.983	7.85
284.198	28.33
284.413	67.24
284.628	-22.87
284.843	116.39
285.058	83.63
285.274	-12.63
285.489	-47.44
285.704	124.58
285.919	-0.34
286.134	-37.2
286.349	-0.34
286.564	36.52
286.779	93.87
286.995	-14.68
287.21	-92.5
287.425	120.49
287.64	26.28
287.855	134.82
288.07	-86.36
288.285	48.81
288.5	65.19
288.715	34.47
288.93	-4.44
289.145	50.86
289.36	54.95
289.575	3.75
289.79	102.06
290.004	13.99
290.219	110.25
290.434	44.71
290.649	-78.16
290.864	-22.87
291.079	-65.88
291.294	3.75
291.509	-14.68
291.724	-8.53
291.938	59.05
292.153	-26.96
292.368	-80.21
292.583	50.86
292.798	26.28
293.012	116.39
293.227	24.23
293.442	48.81
293.657	1.71
293.871	85.67
294.086	114.34
294.301	112.3
294.516	190.12
294.73	30.38
294.945	-110.93
295.16	-69.97
295.374	81.58
295.589	42.67
295.804	13.99
296.018	28.33
296.233	69.29
296.447	36.52
296.662	-45.4
296.877	91.82
297.091	13.99
297.306	11.95
297.52	-29.01
297.735	3.75
297.949	-24.92
298.164	32.43
298.378	61.1
298.593	-26.96
298.807	-41.3
299.022	7.85
299.236	77.48
299.451	-37.2
299.665	52.91
299.88	11.95
300.094	32.43
300.309	57
300.523	26.28
300.737	-12.63
300.952	57
301.166	34.47
301.381	-4.44
301.595	-57.68
301.809	-41.3
302.024	-61.78
302.238	-41.3
302.452	71.34
302.667	44.71
302.881	126.63
303.095	120.49
303.309	75.43
303.524	-4.44
303.738	1.71
303.952	-0.34
304.166	-53.59
304.381	-63.83
304.595	149.16
304.809	38.57
305.023	24.23
305.237	59.05
305.452	102.06
305.666	83.63
305.88	42.67
306.094	118.44
306.308	28.33
306.522	100.01
306.736	34.47
306.95	-6.49
307.164	18.09
307.379	-29.01
307.593	102.06
307.807	81.58
308.021	104.11
308.235	120.49
308.449	-82.26
308.663	32.43
308.877	200.36
309.091	-4.44
309.305	46.76
309.519	-96.6
309.733	28.33
309.947	-57.68
310.161	63.15
310.374	71.34
310.588	54.95
310.802	1.71
311.016	-57.68
311.23	-16.73
311.444	-45.4
311.658	18.09
311.872	85.67
312.085	59.05
312.299	138.92
312.513	102.06
312.727	112.3
312.941	-29.01
313.154	22.19
313.368	30.38
313.582	-0.34
313.796	-37.2
314.009	40.62
314.223	122.54
314.437	18.09
314.651	100.01
314.864	26.28
315.078	-74.07
315.292	-98.64
315.505	3.75
315.719	36.52
315.933	48.81
316.146	-33.11
316.36	-8.53
316.573	77.48
316.787	36.52
317.001	22.19
317.214	-47.44
317.428	9.9
317.641	-31.06
317.855	-74.07
318.068	61.1
318.282	52.91
318.495	132.78
318.709	75.43
318.922	-41.3
319.136	73.39
319.349	118.44
319.563	26.28
319.776	46.76
319.99	-24.92
320.203	50.86
320.417	26.28
320.63	46.76
320.843	155.3
321.057	77.48
321.27	16.04
321.483	52.91
321.697	161.45
321.91	44.71
322.124	102.06
322.337	7.85
322.55	-63.83
322.763	18.09
322.977	11.95
323.19	-65.88
323.403	57
323.617	-20.82
323.83	110.25
324.043	-20.82
324.256	52.91
324.469	-33.11
324.683	132.78
324.896	20.14
325.109	18.09
325.322	-106.84
325.535	106.15
325.748	71.34
325.962	48.81
326.175	42.67
326.388	91.82
326.601	114.34
326.814	-10.58
327.027	11.95
327.24	132.78
327.453	-88.4
327.666	-0.34
327.879	140.97
328.092	81.58
328.305	42.67
328.518	-74.07
328.731	13.99
328.944	9.9
329.157	7.85
329.37	30.38
329.583	77.48
329.796	147.11
330.009	-51.54
330.222	85.67
330.435	73.39
330.648	-72.02
330.861	126.63
331.073	-0.34
331.286	59.05
331.499	48.81
331.712	-65.88
331.925	-12.63
332.138	30.38
332.35	34.47
332.563	-86.36
332.776	40.62
332.989	-14.68
333.202	-4.44
333.414	3.75
333.627	69.29
333.84	-12.63
334.053	46.76
334.265	44.71
334.478	28.33
334.691	34.47
334.903	34.47
335.116	-57.68
335.329	-37.2
335.541	42.67
335.754	151.21
335.966	26.28
336.179	-47.44
336.392	-29.01
336.604	-20.82
336.817	134.82
337.029	97.96
337.242	-39.25
337.454	61.1
337.667	81.58
337.88	102.06
338.092	3.75
338.305	65.19
338.517	28.33
338.729	75.43
338.942	57
339.154	-29.01
339.367	-45.4
339.579	77.48
339.792	-72.02
340.004	85.67
340.217	18.09
340.429	69.29
340.641	36.52
340.854	-82.26
341.066	-2.39
341.278	77.48
341.491	132.78
341.703	61.1
341.915	-72.02
342.128	89.77
342.34	-14.68
342.552	-49.49
342.764	50.86
342.977	7.85
343.189	73.39
343.401	42.67
343.613	-127.32
343.826	89.77
344.038	-63.83
344.25	104.11
344.462	-88.4
344.674	-29.01
344.886	24.23
345.099	-8.53
345.311	112.3
345.523	28.33
345.735	-92.5
345.947	24.23
346.159	16.04
346.371	-14.68
346.583	-12.63
346.795	122.54
347.007	-63.83
347.219	34.47
347.431	-63.83
347.643	102.06
347.855	-39.25
348.067	138.92
348.279	-61.78
348.491	24.23
348.703	65.19
348.915	-37.2
349.127	-14.68
349.339	20.14
349.551	-6.49
349.763	91.82
349.975	-69.97
350.187	83.63
350.399	73.39
350.61	-2.39
350.822	7.85
351.034	44.71
351.246	-16.73
351.458	65.19
351.669	-4.44
351.881	-20.82
352.093	52.91
352.305	63.15
352.517	24.23
352.728	69.29
352.94	-35.16
353.152	61.1
353.363	-80.21
353.575	69.29
353.787	97.96
353.999	102.06
354.21	128.68
354.422	38.57
354.633	11.95
354.845	67.24
355.057	93.87
355.268	42.67
355.48	112.3
355.692	-115.03
355.903	48.81
356.115	-20.82
356.326	-45.4
356.538	102.06
356.749	97.96
356.961	134.82
357.172	-12.63
357.384	-47.44
357.595	157.35
357.807	-29.01
358.018	3.75
358.23	-26.96
358.441	63.15
358.653	140.97
358.864	13.99
359.075	-4.44
359.287	22.19
359.498	44.71
359.709	167.59
359.921	26.28
360.132	-0.34
360.344	40.62
360.555	22.19
360.766	26.28
360.977	26.28
361.189	16.04
361.4	42.67
361.611	13.99
361.823	124.58
362.034	44.71
362.245	-22.87
362.456	-8.53
362.667	46.76
362.879	-12.63
363.09	1.71
363.301	3.75
363.512	38.57
363.723	-69.97
363.935	95.91
364.146	118.44
364.357	16.04
364.568	-26.96
364.779	-69.97
364.99	93.87
365.201	28.33
365.412	169.64
365.623	-90.45
365.834	65.19
366.045	9.9
366.256	89.77
366.467	65.19
366.678	24.23
366.889	73.39
367.1	34.47
367.311	110.25
367.522	-26.96
367.733	75.43
367.944	28.33
368.155	24.23
368.366	118.44
368.577	167.59
368.788	54.95
368.999	-2.39
369.209	-18.77
369.42	77.48
369.631	212.65
369.842	112.3
370.053	69.29
370.264	79.53
370.474	-80.21
370.685	48.81
370.896	3.75
371.107	100.01
371.317	59.05
371.528	-59.73
371.739	44.71
371.95	69.29
372.16	69.29
372.371	-72.02
372.582	44.71
372.792	61.1
373.003	61.1
373.214	24.23
373.424	106.15
373.635	-86.36
373.846	75.43
374.056	24.23
374.267	20.14
374.477	28.33
374.688	-43.35
374.898	-57.68
375.109	13.99
375.319	-29.01
375.53	83.63
375.74	83.63
375.951	24.23
376.161	91.82
376.372	57
376.582	-16.73
376.793	77.48
377.003	44.71
377.214	-8.53
377.424	69.29
377.635	-55.64
377.845	-69.97
378.055	16.04
378.266	-8.53
378.476	-33.11
378.686	50.86
378.897	157.35
379.107	52.91
379.317	24.23
379.528	9.9
379.738	120.49
379.948	-47.44
380.158	40.62
380.369	-12.63
380.579	67.24
380.789	-4.44
380.999	83.63
381.21	106.15
381.42	114.34
381.63	54.95
381.84	83.63
382.05	81.58
382.261	38.57
382.471	110.25
382.681	5.8
382.891	132.78
383.101	30.38
383.311	-69.97
383.521	34.47
383.731	83.63
383.941	73.39
384.151	57
384.361	-49.49
384.571	124.58
384.781	1.71
384.991	140.97
385.201	34.47
385.411	26.28
385.621	-18.77
385.831	50.86
386.041	50.86
386.251	22.19
386.461	71.34
386.671	36.52
386.881	-16.73
387.091	-24.92
387.301	81.58
387.511	59.05
387.72	100.01
387.93	-24.92
388.14	-63.83
388.35	16.04
388.56	122.54
388.769	93.87
388.979	57
389.189	-94.55
389.399	-14.68
389.609	42.67
389.818	-8.53
390.028	11.95
390.238	54.95
390.447	3.75
390.657	143.02
390.867	-39.25
391.076	-16.73
391.286	-2.39
391.496	-29.01
391.705	52.91
391.915	120.49
392.125	122.54
392.334	26.28
392.544	110.25
392.753	20.14
392.963	-31.06
393.172	28.33
393.382	-57.68
393.591	159.4
393.801	-39.25
394.01	42.67
394.22	1.71
394.429	-12.63
394.639	-26.96
394.848	1.71
395.058	52.91
395.267	34.47
395.477	32.43
395.686	-37.2
395.895	206.5
396.105	163.5
396.314	52.91
396.524	1.71
396.733	-20.82
396.942	147.11
397.152	36.52
397.361	83.63
397.57	40.62
397.78	-45.4
397.989	48.81
398.198	132.78
398.407	24.23
398.617	44.71
398.826	5.8
399.035	20.14
399.244	114.34
399.453	57
399.663	61.1
399.872	9.9
400.081	-20.82
400.29	30.38
400.499	-22.87
400.708	104.11
400.917	-37.2
401.127	59.05
401.336	-4.44
401.545	198.31
401.754	79.53
401.963	57
402.172	-20.82
402.381	-53.59
402.59	-12.63
402.799	79.53
403.008	59.05
403.217	73.39
403.426	52.91
403.635	-10.58
403.844	50.86
404.053	87.72
404.262	-24.92
404.471	122.54
404.68	48.81
404.888	42.67
405.097	18.09
405.306	-2.39
405.515	102.06
405.724	-49.49
405.933	52.91
406.142	32.43
406.35	151.21
406.559	63.15
406.768	63.15
406.977	89.77
407.185	100.01
407.394	75.43
407.603	-80.21
407.812	44.71
408.02	81.58
408.229	28.33
408.438	50.86
408.646	-31.06
408.855	9.9
409.064	112.3
409.272	-2.39
409.481	9.9
409.69	-39.25
409.898	-53.59
410.107	102.06
410.315	122.54
410.524	-4.44
410.733	5.8
410.941	5.8
411.15	44.71
411.358	52.91
411.567	124.58
411.775	-65.88
411.984	26.28
412.192	-6.49
412.401	-31.06
412.609	114.34
412.818	93.87
413.026	-35.16
413.234	57
413.443	-8.53
413.651	-43.35
413.86	104.11
414.068	112.3
414.276	200.36
414.485	-12.63
414.693	159.4
414.901	93.87
415.11	46.76
415.318	-0.34
415.526	48.81
415.734	36.52
415.943	57
416.151	110.25
416.359	-55.64
416.567	65.19
416.776	57
416.984	122.54
417.192	87.72
417.4	50.86
417.608	-31.06
417.817	5.8
418.025	52.91
418.233	198.31
418.441	-45.4
418.649	28.33
418.857	116.39
419.065	188.07
419.273	-0.34
419.481	65.19
419.689	-41.3
419.897	52.91
420.105	44.71
420.313	100.01
420.521	120.49
420.729	100.01
420.937	-24.92
421.145	-59.73
421.353	147.11
421.561	136.87
421.769	34.47
421.977	-6.49
422.185	83.63
422.393	-2.39
422.601	61.1
422.809	138.92
423.017	50.86
423.224	52.91
423.432	40.62
423.64	67.24
423.848	79.53
424.056	24.23
424.263	40.62
424.471	-12.63
424.679	175.78
424.887	-20.82
425.094	85.67
425.302	40.62
425.51	67.24
425.718	83.63
425.925	151.21
426.133	77.48
426.341	183.98
426.548	106.15
426.756	28.33
426.964	114.34
427.171	75.43
427.379	32.43
427.586	-0.34
427.794	85.67
428.001	183.98
428.209	151.21
428.417	147.11
428.624	77.48
428.832	169.64
429.039	22.19
429.247	132.78
429.454	112.3
429.662	186.02
429.869	216.74
430.076	61.1
430.284	149.16
430.491	214.7
430.699	179.88
430.906	65.19
431.114	108.2
431.321	132.78
431.528	89.77
431.736	118.44
431.943	157.35
432.15	93.87
432.358	165.54
432.565	313
432.772	36.52
432.979	161.45
433.187	134.82
433.394	183.98
433.601	212.65
433.808	212.65
434.016	261.8
434.223	261.8
434.43	231.08
434.637	249.51
434.844	306.85
435.052	229.03
435.259	216.74
435.466	308.9
435.673	327.33
435.88	286.37
436.087	247.46
436.294	327.33
436.501	317.09
436.708	263.85
436.915	317.09
437.122	411.3
437.329	224.94
437.537	302.76
437.743	364.2
437.95	419.49
438.157	444.07
438.364	364.2
438.571	450.21
438.778	452.26
438.985	431.78
439.192	550.56
439.399	423.59
439.606	503.46
439.813	511.65
440.02	573.09
440.227	683.68
440.433	552.61
440.64	568.99
440.847	511.65
441.054	700.06
441.261	730.78
441.467	626.34
441.674	571.04
441.881	716.45
442.088	675.49
442.294	853.66
442.501	691.87
442.708	802.46
442.914	769.69
443.121	978.59
443.328	833.18
443.534	1042.07
443.741	939.68
443.948	880.29
444.154	1005.21
444.361	1185.43
444.568	1085.08
444.774	1146.52
444.981	974.49
445.187	1234.58
445.394	1287.83
445.6	1191.58
445.807	1361.56
446.013	1289.88
446.22	1306.26
446.426	1339.03
446.633	1502.87
446.839	1707.66
447.046	1531.54
447.252	1652.37
447.459	1656.47
447.665	1685.14
447.871	1857.17
448.078	1973.9
448.284	1875.6
448.491	2080.39
448.697	2180.75
448.903	2330.25
449.11	2379.4
449.316	2207.37
449.522	2584.2
449.728	2469.51
449.935	2571.91
450.141	2623.11
450.347	2846.34
450.553	2930.3
450.76	2969.21
450.966	3192.44
451.172	3200.63
451.378	3145.34
451.584	3456.63
451.791	3688.05
451.997	3616.37
452.203	3739.25
452.409	4009.58
452.615	4054.64
452.821	4161.13
453.027	3944.05
453.233	4621.92
453.44	4410.98
453.646	4738.66
453.852	4871.78
454.058	5052
454.264	5375.58
454.47	5568.09
454.676	5602.9
454.882	5983.82
455.088	5754.45
455.294	6114.89
455.5	6518.34
455.705	6915.65
455.911	6852.16
456.117	7061.05
456.323	7501.37
456.529	7347.77
456.735	8197.68
456.941	8472.11
457.147	8635.94
457.352	8734.25
457.558	9137.7
457.764	9694.74
457.97	9700.89
458.176	10108.43
458.381	10665.48
458.587	10980.87
458.793	11519.48
458.999	11408.89
459.204	13229.54
459.41	13555.16
459.616	13305.31
459.821	13788.63
460.027	14716.36
460.233	15181.25
460.438	15357.38
460.644	16217.52
460.85	16082.36
461.055	17092.01
461.261	17735.07
461.466	17401.25
461.672	17620.38
461.878	19891.58
462.083	19850.62
462.289	20057.46
462.494	20819.31
462.7	20997.48
462.905	20983.15
463.111	22805.84
463.316	24329.53
463.522	24620.34
463.727	25355.56
463.932	26447.13
464.138	27131.15
464.343	28419.32
464.549	28312.83
464.754	30698.71
464.959	31270.09
465.165	31763.65
465.37	31358.16
465.575	31505.61
465.781	33438.89
465.986	34841.75
466.191	33981.6
466.397	34446.49
466.602	33805.48
466.807	35243.15
467.012	36119.68
467.218	36826.23
467.423	36897.91
467.628	37925.99
467.833	39855.18
468.038	38827.1
468.244	38413.41
468.449	40098.89
468.654	39253.08
468.859	39351.38
469.064	39533.65
469.269	38392.93
