Data from USB4F104151__10__10-23-01-850.txt Node

Date: Wed Feb 26 10:23:01 EST 2025
User: louis
Spectrometer: USB4F10415
Trigger mode: 4
Integration Time (sec): 1.000000E-1
Scans to average: 1
Electric dark correction enabled: true
Nonlinearity correction enabled: false
Boxcar width: 0
XAxis mode: Wavelengths
Number of Pixels in Spectrum: 3648
>>>>>Begin Spectral Data<<<<<
178.204	-338.43
178.424	-338.43
178.644	-338.43
178.864	-387.58
179.084	-406.01
179.304	-10.75
179.524	38.4
179.744	26.11
179.964	-31.23
180.184	9.73
180.404	77.31
180.624	-35.33
180.844	-33.28
181.064	-92.67
181.283	19.97
181.503	-2.56
181.723	34.3
181.943	-80.38
182.163	237.05
182.383	-27.14
182.602	50.69
182.822	144.89
183.042	85.5
183.262	-72.19
183.482	-61.95
183.701	-31.23
183.921	60.93
184.141	-37.38
184.361	40.45
184.58	56.83
184.8	50.69
185.02	-4.61
185.239	42.5
185.459	97.79
185.679	93.69
185.898	-80.38
186.118	46.59
186.338	34.3
186.557	146.94
186.777	-82.43
186.997	-86.53
187.216	62.98
187.436	194.05
187.655	58.88
187.875	144.89
188.095	44.54
188.314	77.31
188.534	93.69
188.753	-59.9
188.973	138.75
189.192	173.57
189.412	5.63
189.631	60.93
189.851	77.31
190.07	175.61
190.29	-4.61
190.509	-10.75
190.729	44.54
190.948	126.46
191.168	253.44
191.387	44.54
191.607	-70.14
191.826	19.97
192.045	71.17
192.265	-23.04
192.484	19.97
192.704	54.78
192.923	-55.81
193.142	204.28
193.362	75.26
193.581	108.03
193.8	58.88
194.02	91.65
194.239	50.69
194.458	65.02
194.678	-25.09
194.897	-23.04
195.116	50.69
195.335	71.17
195.555	40.45
195.774	-102.91
195.993	73.21
196.212	54.78
196.432	77.31
196.651	89.6
196.87	3.58
197.089	163.33
197.308	62.98
197.528	28.16
197.747	-27.14
197.966	24.06
198.185	95.74
198.404	-49.66
198.623	73.21
198.842	163.33
199.062	97.79
199.281	192
199.5	17.92
199.719	105.98
199.938	65.02
200.157	40.45
200.376	71.17
200.595	179.71
200.814	22.02
201.033	-41.47
201.252	62.98
201.471	38.4
201.69	62.98
201.909	28.16
202.128	118.27
202.347	62.98
202.566	-35.33
202.785	-76.29
203.004	19.97
203.223	204.28
203.442	1.54
203.661	-68.09
203.879	26.11
204.098	114.17
204.317	-41.47
204.536	128.51
204.755	62.98
204.974	40.45
205.193	24.06
205.411	132.61
205.63	95.74
205.849	60.93
206.068	-29.18
206.287	-35.33
206.505	198.14
206.724	54.78
206.943	-41.47
207.162	19.97
207.381	99.84
207.599	11.78
207.818	36.35
208.037	7.68
208.255	44.54
208.474	28.16
208.693	83.45
208.911	26.11
209.13	108.03
209.349	69.12
209.567	71.17
209.786	144.89
210.005	120.32
210.223	52.74
210.442	-100.86
210.661	9.73
210.879	-33.28
211.098	15.87
211.316	62.98
211.535	40.45
211.753	56.83
211.972	44.54
212.191	-33.28
212.409	3.58
212.628	93.69
212.846	1.54
213.065	24.06
213.283	177.66
213.502	13.82
213.72	142.85
213.938	-25.09
214.157	19.97
214.375	110.08
214.594	1.54
214.812	81.41
215.031	11.78
215.249	-25.09
215.467	77.31
215.686	28.16
215.904	65.02
216.122	-0.51
216.341	216.57
216.559	17.92
216.778	79.36
216.996	108.03
217.214	54.78
217.432	-70.14
217.651	-23.04
217.869	-39.42
218.087	-25.09
218.306	-20.99
218.524	60.93
218.742	-29.18
218.96	22.02
219.179	28.16
219.397	32.26
219.615	230.91
219.833	77.31
220.051	-0.51
220.27	75.26
220.488	108.03
220.706	93.69
220.924	34.3
221.142	-0.51
221.36	50.69
221.578	75.26
221.796	52.74
222.015	44.54
222.233	-4.61
222.451	136.7
222.669	-123.39
222.887	24.06
223.105	-8.7
223.323	79.36
223.541	67.07
223.759	-35.33
223.977	40.45
224.195	167.42
224.413	19.97
224.631	71.17
224.849	-4.61
225.067	183.81
225.285	42.5
225.503	3.58
225.721	-92.67
225.939	60.93
226.157	13.82
226.375	257.53
226.592	101.89
226.81	-29.18
227.028	97.79
227.246	138.75
227.464	118.27
227.682	44.54
227.9	73.21
228.117	40.45
228.335	30.21
228.553	120.32
228.771	-51.71
228.989	-10.75
229.206	85.5
229.424	17.92
229.642	81.41
229.86	-53.76
230.077	62.98
230.295	95.74
230.513	75.26
230.731	36.35
230.948	192
231.166	116.22
231.384	-47.62
231.601	-39.42
231.819	187.9
232.037	-14.85
232.254	-18.94
232.472	58.88
232.689	22.02
232.907	101.89
233.125	-2.56
233.342	-31.23
233.56	54.78
233.777	36.35
233.995	77.31
234.213	97.79
234.43	87.55
234.648	3.58
234.865	-53.76
235.083	-0.51
235.3	28.16
235.518	50.69
235.735	128.51
235.953	128.51
236.17	-27.14
236.388	-16.9
236.605	-29.18
236.822	77.31
237.04	155.13
237.257	-74.24
237.475	1.54
237.692	5.63
237.909	26.11
238.127	9.73
238.344	108.03
238.562	-23.04
238.779	-33.28
238.996	-45.57
239.214	75.26
239.431	81.41
239.648	-41.47
239.865	77.31
240.083	114.17
240.3	-41.47
240.517	22.02
240.735	42.5
240.952	67.07
241.169	34.3
241.386	3.58
241.603	91.65
241.821	-53.76
242.038	87.55
242.255	62.98
242.472	-82.43
242.689	71.17
242.907	71.17
243.124	75.26
243.341	-23.04
243.558	24.06
243.775	-35.33
243.992	-0.51
244.209	99.84
244.426	157.18
244.643	93.69
244.86	-12.8
245.078	56.83
245.295	54.78
245.512	44.54
245.729	-0.51
245.946	67.07
246.163	93.69
246.38	19.97
246.597	83.45
246.814	52.74
247.031	-23.04
247.248	28.16
247.464	50.69
247.681	9.73
247.898	105.98
248.115	69.12
248.332	-66.05
248.549	105.98
248.766	181.76
248.983	56.83
249.2	108.03
249.417	30.21
249.633	13.82
249.85	69.12
250.067	77.31
250.284	5.63
250.501	95.74
250.717	77.31
250.934	-39.42
251.151	-4.61
251.368	3.58
251.585	17.92
251.801	-14.85
252.018	-25.09
252.235	179.71
252.451	-61.95
252.668	-0.51
252.885	132.61
253.102	91.65
253.318	124.41
253.535	73.21
253.752	-25.09
253.968	-2.56
254.185	-66.05
254.401	17.92
254.618	75.26
254.835	17.92
255.051	128.51
255.268	95.74
255.484	17.92
255.701	-4.61
255.917	101.89
256.134	3.58
256.351	-6.66
256.567	-74.24
256.784	-16.9
257	-111.1
257.217	142.85
257.433	69.12
257.65	38.4
257.866	136.7
258.082	-27.14
258.299	1.54
258.515	-0.51
258.732	54.78
258.948	-49.66
259.165	91.65
259.381	-10.75
259.597	28.16
259.814	9.73
260.03	65.02
260.246	24.06
260.463	153.09
260.679	112.13
260.895	40.45
261.112	50.69
261.328	69.12
261.544	-25.09
261.761	75.26
261.977	42.5
262.193	-66.05
262.409	99.84
262.626	50.69
262.842	-10.75
263.058	-29.18
263.274	79.36
263.49	9.73
263.707	91.65
263.923	79.36
264.139	-82.43
264.355	36.35
264.571	122.37
264.787	62.98
265.004	112.13
265.22	42.5
265.436	-35.33
265.652	-25.09
265.868	65.02
266.084	-80.38
266.3	79.36
266.516	46.59
266.732	155.13
266.948	-59.9
267.164	9.73
267.38	144.89
267.596	79.36
267.812	97.79
268.028	-6.66
268.244	-49.66
268.46	67.07
268.676	-4.61
268.892	71.17
269.108	-37.38
269.324	17.92
269.54	-4.61
269.756	22.02
269.972	-82.43
270.188	89.6
270.403	46.59
270.619	52.74
270.835	32.26
271.051	32.26
271.267	1.54
271.483	46.59
271.698	85.5
271.914	32.26
272.13	34.3
272.346	54.78
272.562	15.87
272.777	112.13
272.993	79.36
273.209	30.21
273.425	32.26
273.64	-18.94
273.856	13.82
274.072	-43.52
274.287	-41.47
274.503	62.98
274.719	50.69
274.934	-10.75
275.15	-129.53
275.366	-23.04
275.581	56.83
275.797	48.64
276.012	54.78
276.228	-41.47
276.444	79.36
276.659	140.8
276.875	-43.52
277.09	-18.94
277.306	-53.76
277.521	-53.76
277.737	58.88
277.952	157.18
278.168	58.88
278.383	108.03
278.599	67.07
278.814	46.59
279.03	-31.23
279.245	140.8
279.461	48.64
279.676	112.13
279.892	-74.24
280.107	-70.14
280.322	-125.44
280.538	75.26
280.753	-20.99
280.969	-2.56
281.184	-45.57
281.399	79.36
281.615	67.07
281.83	60.93
282.045	-49.66
282.26	1.54
282.476	120.32
282.691	73.21
282.906	34.3
283.122	17.92
283.337	-6.66
283.552	99.84
283.767	40.45
283.983	112.13
284.198	-10.75
284.413	22.02
284.628	-16.9
284.843	-12.8
285.058	24.06
285.274	-37.38
285.489	-41.47
285.704	75.26
285.919	30.21
286.134	-29.18
286.349	-25.09
286.564	-49.66
286.779	118.27
286.995	71.17
287.21	-107.01
287.425	50.69
287.64	-29.18
287.855	54.78
288.07	-41.47
288.285	46.59
288.5	122.37
288.715	60.93
288.93	36.35
289.145	-53.76
289.36	91.65
289.575	-16.9
289.79	95.74
290.004	-31.23
290.219	120.32
290.434	-61.95
290.649	-29.18
290.864	-39.42
291.079	7.68
291.294	30.21
291.509	112.13
291.724	52.74
291.938	5.63
292.153	34.3
292.368	28.16
292.583	26.11
292.798	73.21
293.012	85.5
293.227	52.74
293.442	46.59
293.657	118.27
293.871	87.55
294.086	122.37
294.301	189.95
294.516	116.22
294.73	65.02
294.945	19.97
295.16	-23.04
295.374	212.48
295.589	155.13
295.804	-29.18
296.018	-14.85
296.233	165.37
296.447	48.64
296.662	-53.76
296.877	122.37
297.091	71.17
297.306	-4.61
297.52	71.17
297.735	32.26
297.949	50.69
298.164	22.02
298.378	87.55
298.593	-0.51
298.807	-0.51
299.022	-23.04
299.236	65.02
299.451	32.26
299.665	15.87
299.88	114.17
300.094	54.78
300.309	30.21
300.523	22.02
300.737	19.97
300.952	42.5
301.166	97.79
301.381	-20.99
301.595	-10.75
301.809	103.93
302.024	36.35
302.238	-8.7
302.452	110.08
302.667	11.78
302.881	116.22
303.095	99.84
303.309	34.3
303.524	-29.18
303.738	91.65
303.952	5.63
304.166	140.8
304.381	-168.45
304.595	165.37
304.809	5.63
305.023	34.3
305.237	13.82
305.452	3.58
305.666	171.52
305.88	124.41
306.094	52.74
306.308	97.79
306.522	108.03
306.736	62.98
306.95	71.17
307.164	-18.94
307.379	75.26
307.593	142.85
307.807	116.22
308.021	120.32
308.235	9.73
308.449	-33.28
308.663	-23.04
308.877	226.81
309.091	67.07
309.305	101.89
309.519	-37.38
309.733	83.45
309.947	-10.75
310.161	116.22
310.374	85.5
310.588	1.54
310.802	-2.56
311.016	-12.8
311.23	56.83
311.444	9.73
311.658	46.59
311.872	128.51
312.085	120.32
312.299	97.79
312.513	148.99
312.727	48.64
312.941	24.06
313.154	-6.66
313.368	52.74
313.582	73.21
313.796	42.5
314.009	15.87
314.223	124.41
314.437	118.27
314.651	114.17
314.864	81.41
315.078	3.58
315.292	-47.62
315.505	24.06
315.719	54.78
315.933	83.45
316.146	1.54
316.36	-27.14
316.573	77.31
316.787	71.17
317.001	3.58
317.214	-66.05
317.428	-53.76
317.641	5.63
317.855	32.26
318.068	9.73
318.282	50.69
318.495	157.18
318.709	85.5
318.922	-4.61
319.136	173.57
319.349	120.32
319.563	-35.33
319.776	28.16
319.99	-61.95
320.203	93.69
320.417	-25.09
320.63	105.98
320.843	126.46
321.057	50.69
321.27	44.54
321.483	75.26
321.697	99.84
321.91	-27.14
322.124	-4.61
322.337	38.4
322.55	-18.94
322.763	56.83
322.977	28.16
323.19	-33.28
323.403	89.6
323.617	40.45
323.83	148.99
324.043	32.26
324.256	93.69
324.469	-39.42
324.683	99.84
324.896	-2.56
325.109	56.83
325.322	-16.9
325.535	200.19
325.748	73.21
325.962	-16.9
326.175	48.64
326.388	99.84
326.601	60.93
326.814	36.35
327.027	136.7
327.24	163.33
327.453	-96.77
327.666	151.04
327.879	101.89
328.092	46.59
328.305	-29.18
328.518	-20.99
328.731	34.3
328.944	3.58
329.157	67.07
329.37	46.59
329.583	124.41
329.796	118.27
330.009	-4.61
330.222	65.02
330.435	83.45
330.648	34.3
330.861	118.27
331.073	56.83
331.286	56.83
331.499	91.65
331.712	11.78
331.925	77.31
332.138	58.88
332.35	22.02
332.563	-100.86
332.776	112.13
332.989	-51.71
333.202	1.54
333.414	69.12
333.627	-49.66
333.84	62.98
334.053	36.35
334.265	-41.47
334.478	46.59
334.691	-35.33
334.903	60.93
335.116	-33.28
335.329	60.93
335.541	81.41
335.754	157.18
335.966	38.4
336.179	65.02
336.392	-59.9
336.604	30.21
336.817	79.36
337.029	58.88
337.242	89.6
337.454	99.84
337.667	79.36
337.88	67.07
338.092	95.74
338.305	40.45
338.517	-68.09
338.729	108.03
338.942	120.32
339.154	-72.19
339.367	-4.61
339.579	48.64
339.792	9.73
340.004	108.03
340.217	7.68
340.429	46.59
340.641	-68.09
340.854	11.78
341.066	67.07
341.278	146.94
341.491	146.94
341.703	36.35
341.915	1.54
342.128	112.13
342.34	65.02
342.552	-43.52
342.764	24.06
342.977	22.02
343.189	50.69
343.401	24.06
343.613	-94.72
343.826	30.21
344.038	5.63
344.25	-45.57
344.462	-88.57
344.674	26.11
344.886	-64
345.099	62.98
345.311	75.26
345.523	40.45
345.735	-41.47
345.947	116.22
346.159	124.41
346.371	50.69
346.583	71.17
346.795	175.61
347.007	-16.9
347.219	67.07
347.431	5.63
347.643	54.78
347.855	22.02
348.067	167.42
348.279	-72.19
348.491	44.54
348.703	138.75
348.915	85.5
349.127	-43.52
349.339	-29.18
349.551	15.87
349.763	153.09
349.975	30.21
350.187	99.84
350.399	136.7
350.61	114.17
350.822	99.84
351.034	118.27
351.246	28.16
351.458	34.3
351.669	62.98
351.881	54.78
352.093	62.98
352.305	142.85
352.517	9.73
352.728	136.7
352.94	-35.33
353.152	46.59
353.363	-8.7
353.575	65.02
353.787	165.37
353.999	24.06
354.21	151.04
354.422	32.26
354.633	19.97
354.845	122.37
355.057	36.35
355.268	73.21
355.48	42.5
355.692	-12.8
355.903	75.26
356.115	5.63
356.326	-41.47
356.538	120.32
356.749	116.22
356.961	153.09
357.172	52.74
357.384	-80.38
357.595	241.15
357.807	24.06
358.018	22.02
358.23	7.68
358.441	138.75
358.653	24.06
358.864	-18.94
359.075	-37.38
359.287	103.93
359.498	40.45
359.709	26.11
359.921	46.59
360.132	34.3
360.344	22.02
360.555	19.97
360.766	81.41
360.977	-14.85
361.189	146.94
361.4	58.88
361.611	134.65
361.823	67.07
362.034	56.83
362.245	-55.81
362.456	40.45
362.667	40.45
362.879	-51.71
363.09	38.4
363.301	62.98
363.512	32.26
363.723	34.3
363.935	32.26
364.146	38.4
364.357	60.93
364.568	73.21
364.779	-76.29
364.99	105.98
365.201	-12.8
365.412	108.03
365.623	-74.24
365.834	34.3
366.045	-88.57
366.256	65.02
366.467	108.03
366.678	54.78
366.889	65.02
367.1	-6.66
367.311	120.32
367.522	-12.8
367.733	-6.66
367.944	101.89
368.155	-4.61
368.366	19.97
368.577	85.5
368.788	52.74
368.999	-25.09
369.209	22.02
369.42	118.27
369.631	237.05
369.842	116.22
370.053	-20.99
370.264	40.45
370.474	-37.38
370.685	75.26
370.896	22.02
371.107	200.19
371.317	58.88
371.528	97.79
371.739	108.03
371.95	103.93
372.16	54.78
372.371	-55.81
372.582	-47.62
372.792	24.06
373.003	22.02
373.214	110.08
373.424	73.21
373.635	-23.04
373.846	116.22
374.056	50.69
374.267	79.36
374.477	69.12
374.688	17.92
374.898	30.21
375.109	38.4
375.319	91.65
375.53	48.64
375.74	105.98
375.951	15.87
376.161	101.89
376.372	144.89
376.582	-43.52
376.793	126.46
377.003	-27.14
377.214	-37.38
377.424	122.37
377.635	-29.18
377.845	24.06
378.055	212.48
378.266	-154.11
378.476	69.12
378.686	116.22
378.897	85.5
379.107	93.69
379.317	99.84
379.528	50.69
379.738	79.36
379.948	-16.9
380.158	136.7
380.369	-0.51
380.579	46.59
380.789	-41.47
380.999	134.65
381.21	114.17
381.42	126.46
381.63	52.74
381.84	85.5
382.05	136.7
382.261	58.88
382.471	77.31
382.681	60.93
382.891	136.7
383.101	36.35
383.311	-49.66
383.521	46.59
383.731	112.13
383.941	101.89
384.151	169.47
384.361	-64
384.571	38.4
384.781	-2.56
384.991	146.94
385.201	181.76
385.411	15.87
385.621	40.45
385.831	118.27
386.041	46.59
386.251	17.92
386.461	-12.8
386.671	15.87
386.881	-10.75
387.091	-23.04
387.301	46.59
387.511	122.37
387.72	91.65
387.93	118.27
388.14	-102.91
388.35	71.17
388.56	185.85
388.769	124.41
388.979	42.5
389.189	-29.18
389.399	85.5
389.609	62.98
389.818	95.74
390.028	15.87
390.238	136.7
390.447	-10.75
390.657	83.45
390.867	60.93
391.076	-31.23
391.286	67.07
391.496	-0.51
391.705	24.06
391.915	112.13
392.125	65.02
392.334	24.06
392.544	124.41
392.753	122.37
392.963	-53.76
393.172	60.93
393.382	1.54
393.591	79.36
393.801	-43.52
394.01	173.57
394.22	95.74
394.429	-20.99
394.639	62.98
394.848	130.56
395.058	157.18
395.267	19.97
395.477	71.17
395.686	52.74
395.895	142.85
396.105	177.66
396.314	65.02
396.524	75.26
396.733	11.78
396.942	122.37
397.152	58.88
397.361	46.59
397.57	108.03
397.78	87.55
397.989	52.74
398.198	230.91
398.407	-4.61
398.617	65.02
398.826	34.3
399.035	7.68
399.244	146.94
399.453	87.55
399.663	48.64
399.872	65.02
400.081	11.78
400.29	120.32
400.499	-37.38
400.708	116.22
400.917	-31.23
401.127	85.5
401.336	44.54
401.545	241.15
401.754	56.83
401.963	93.69
402.172	-10.75
402.381	3.58
402.59	-66.05
402.799	44.54
403.008	120.32
403.217	17.92
403.426	28.16
403.635	56.83
403.844	48.64
404.053	58.88
404.262	-4.61
404.471	110.08
404.68	138.75
404.888	38.4
405.097	-25.09
405.306	1.54
405.515	46.59
405.724	40.45
405.933	77.31
406.142	91.65
406.35	62.98
406.559	7.68
406.768	34.3
406.977	153.09
407.185	54.78
407.394	116.22
407.603	-29.18
407.812	58.88
408.02	103.93
408.229	46.59
408.438	-43.52
408.646	-147.97
408.855	40.45
409.064	194.05
409.272	75.26
409.481	124.41
409.69	7.68
409.898	-39.42
410.107	56.83
410.315	40.45
410.524	42.5
410.733	60.93
410.941	17.92
411.15	69.12
411.358	71.17
411.567	122.37
411.775	71.17
411.984	77.31
412.192	122.37
412.401	-111.1
412.609	159.23
412.818	134.65
413.026	97.79
413.234	9.73
413.443	9.73
413.651	-16.9
413.86	56.83
414.068	73.21
414.276	157.18
414.485	13.82
414.693	114.17
414.901	153.09
415.11	13.82
415.318	65.02
415.526	42.5
415.734	116.22
415.943	97.79
416.151	75.26
416.359	-8.7
416.567	79.36
416.776	91.65
416.984	140.8
417.192	173.57
417.4	-6.66
417.608	-6.66
417.817	-12.8
418.025	142.85
418.233	69.12
418.441	-53.76
418.649	-29.18
418.857	118.27
419.065	194.05
419.273	19.97
419.481	83.45
419.689	32.26
419.897	-16.9
420.105	26.11
420.313	126.46
420.521	185.85
420.729	126.46
420.937	28.16
421.145	-20.99
421.353	75.26
421.561	103.93
421.769	-6.66
421.977	-8.7
422.185	93.69
422.393	48.64
422.601	177.66
422.809	120.32
423.017	-4.61
423.224	30.21
423.432	130.56
423.64	48.64
423.848	169.47
424.056	-47.62
424.263	95.74
424.471	11.78
424.679	200.19
424.887	11.78
425.094	183.81
425.302	99.84
425.51	112.13
425.718	103.93
425.925	122.37
426.133	36.35
426.341	140.8
426.548	30.21
426.756	9.73
426.964	40.45
427.171	42.5
427.379	105.98
427.586	15.87
427.794	146.94
428.001	130.56
428.209	112.13
428.417	175.61
428.624	163.33
428.832	112.13
429.039	77.31
429.247	122.37
429.454	110.08
429.662	237.05
429.869	208.38
430.076	151.04
430.284	210.43
430.491	175.61
430.699	206.33
430.906	183.81
431.114	181.76
431.321	146.94
431.528	171.52
431.736	167.42
431.943	216.57
432.15	95.74
432.358	241.15
432.565	269.82
432.772	-10.75
432.979	226.81
433.187	110.08
433.394	259.58
433.601	144.89
433.808	271.87
434.016	187.9
434.223	226.81
434.43	206.33
434.637	247.29
434.844	386.55
435.052	241.15
435.259	294.4
435.466	341.5
435.673	304.64
435.88	243.2
436.087	376.31
436.294	366.07
436.501	361.98
436.708	331.26
436.915	294.4
437.122	437.75
437.329	267.77
437.537	335.35
437.743	314.88
437.95	429.56
438.157	493.05
438.364	523.77
438.571	527.86
438.778	452.09
438.985	499.19
439.192	572.92
439.399	538.1
439.606	540.15
439.813	544.25
440.02	736.76
440.227	738.8
440.433	656.89
440.64	617.97
440.847	599.54
441.054	663.03
441.261	722.42
441.467	660.98
441.674	736.76
441.881	865.78
442.088	671.22
442.294	847.35
442.501	914.93
442.708	951.79
442.914	964.08
443.121	1005.04
443.328	998.9
443.534	1095.15
443.741	1113.58
443.948	1039.86
444.154	1072.62
444.361	1234.41
444.568	1238.51
444.774	1242.61
444.981	1150.45
445.187	1324.52
445.394	1447.4
445.6	1254.89
445.807	1541.61
446.013	1557.99
446.22	1488.36
446.426	1654.25
446.633	1744.36
446.839	2051.55
447.046	1699.3
447.252	2006.5
447.459	1963.49
447.665	1891.81
447.871	2162.14
448.078	2328.03
448.284	2190.81
448.491	2375.13
448.697	2389.47
448.903	2565.59
449.11	2579.93
449.316	2602.46
449.522	2938.32
449.728	2817.49
449.935	3073.49
450.141	3050.96
450.347	3200.46
450.553	3251.66
450.76	3286.48
450.966	3403.21
451.172	3583.43
451.378	3734.98
451.584	3734.98
451.791	4101.57
451.997	4292.03
452.203	4312.51
452.409	4490.68
452.615	4677.05
452.821	4605.37
453.027	4519.36
453.233	5254.58
453.44	4931
453.646	5322.16
453.852	5463.47
454.058	5741.99
454.264	5871.01
454.47	6237.6
454.676	6288.8
454.882	6782.36
455.088	6538.65
455.294	6895
455.5	7353.74
455.705	7787.91
455.911	7732.62
456.117	8113.54
456.323	8265.09
456.529	8226.18
456.735	9045.37
456.941	9424.24
457.147	9629.04
457.352	9751.92
457.558	10085.73
457.764	10847.58
457.97	10976.6
458.176	11750.73
458.381	11892.04
458.587	12211.53
458.793	12739.9
458.999	12938.55
459.204	14458.15
459.41	14890.27
459.616	14781.73
459.821	15500.56
460.027	16317.7
460.233	16999.68
460.438	17069.31
460.644	18132.2
460.85	18654.44
461.055	18945.25
461.261	19723.48
461.466	19559.64
461.672	20143.31
461.878	22215.85
462.083	21949.62
462.289	22424.75
462.494	23211.17
462.7	23407.77
462.905	23932.05
463.111	25615.48
463.316	26948.71
463.522	27579.48
463.727	28431.44
463.932	29580.35
464.138	30452.78
464.343	31286.31
464.549	31546.4
464.754	33874.94
464.959	35009.51
465.165	35294.18
465.37	35245.03
465.575	35193.83
465.781	37571.52
465.986	38712.24
466.191	38345.65
466.397	38257.59
466.602	37594.05
466.807	39750.56
467.012	40377.24
467.218	40651.67
467.423	41163.66
467.628	42283.9
467.833	44030.82
468.038	43604.84
468.244	42560.37
