Data from USB4F104151__44__11-26-40-292.txt Node

Date: Wed Feb 26 11:26:40 EST 2025
User: louis
Spectrometer: USB4F10415
Trigger mode: 4
Integration Time (sec): 1.000000E-1
Scans to average: 1
Electric dark correction enabled: true
Nonlinearity correction enabled: false
Boxcar width: 0
XAxis mode: Wavelengths
Number of Pixels in Spectrum: 3648
>>>>>Begin Spectral Data<<<<<
178.204	-338.43
178.424	-338.43
178.644	-338.43
178.864	-412.15
179.084	-432.63
179.304	19.97
179.524	22.02
179.744	5.63
179.964	79.36
180.184	34.3
180.404	32.26
180.624	-18.94
180.844	11.78
181.064	-41.47
181.283	22.02
181.503	-121.34
181.723	-45.57
181.943	-96.77
182.163	165.37
182.383	-39.42
182.602	71.17
182.822	157.18
183.042	83.45
183.262	-14.85
183.482	40.45
183.701	19.97
183.921	69.12
184.141	5.63
184.361	42.5
184.58	85.5
184.8	83.45
185.02	7.68
185.239	79.36
185.459	116.22
185.679	71.17
185.898	-88.57
186.118	40.45
186.338	-23.04
186.557	99.84
186.777	-4.61
186.997	-23.04
187.216	71.17
187.436	179.71
187.655	62.98
187.875	114.17
188.095	26.11
188.314	148.99
188.534	101.89
188.753	-37.38
188.973	138.75
189.192	134.65
189.412	15.87
189.631	-45.57
189.851	40.45
190.07	192
190.29	-47.62
190.509	-8.7
190.729	112.13
190.948	171.52
191.168	192
191.387	62.98
191.607	-0.51
191.826	19.97
192.045	15.87
192.265	42.5
192.484	15.87
192.704	44.54
192.923	3.58
193.142	161.28
193.362	54.78
193.581	67.07
193.8	67.07
194.02	144.89
194.239	87.55
194.458	54.78
194.678	36.35
194.897	34.3
195.116	58.88
195.335	65.02
195.555	69.12
195.774	71.17
195.993	32.26
196.212	-25.09
196.432	-104.96
196.651	-2.56
196.87	65.02
197.089	218.62
197.308	19.97
197.528	89.6
197.747	-70.14
197.966	54.78
198.185	151.04
198.404	-41.47
198.623	136.7
198.842	85.5
199.062	103.93
199.281	110.08
199.5	26.11
199.719	30.21
199.938	124.41
200.157	167.42
200.376	93.69
200.595	134.65
200.814	93.69
201.033	-23.04
201.252	230.91
201.471	116.22
201.69	93.69
201.909	32.26
202.128	103.93
202.347	58.88
202.566	46.59
202.785	-41.47
203.004	-6.66
203.223	206.33
203.442	32.26
203.661	-8.7
203.879	114.17
204.098	116.22
204.317	48.64
204.536	46.59
204.755	46.59
204.974	5.63
205.193	7.68
205.411	212.48
205.63	81.41
205.849	105.98
206.068	28.16
206.287	42.5
206.505	173.57
206.724	42.5
206.943	-51.71
207.162	-96.77
207.381	62.98
207.599	58.88
207.818	38.4
208.037	-117.25
208.255	19.97
208.474	87.55
208.693	48.64
208.911	44.54
209.13	140.8
209.349	85.5
209.567	36.35
209.786	60.93
210.005	32.26
210.223	3.58
210.442	-135.68
210.661	26.11
210.879	108.03
211.098	73.21
211.316	32.26
211.535	93.69
211.753	28.16
211.972	79.36
212.191	-37.38
212.409	99.84
212.628	79.36
212.846	-12.8
213.065	9.73
213.283	75.26
213.502	22.02
213.72	85.5
213.938	44.54
214.157	-14.85
214.375	138.75
214.594	-41.47
214.812	52.74
215.031	-25.09
215.249	3.58
215.467	75.26
215.686	89.6
215.904	130.56
216.122	58.88
216.341	118.27
216.559	52.74
216.778	40.45
216.996	116.22
217.214	42.5
217.432	-27.14
217.651	-27.14
217.869	24.06
218.087	75.26
218.306	-45.57
218.524	93.69
218.742	28.16
218.96	85.5
219.179	54.78
219.397	-33.28
219.615	228.86
219.833	99.84
220.051	-49.66
220.27	114.17
220.488	126.46
220.706	30.21
220.924	-47.62
221.142	42.5
221.36	65.02
221.578	46.59
221.796	38.4
222.015	11.78
222.233	46.59
222.451	179.71
222.669	-31.23
222.887	112.13
223.105	11.78
223.323	60.93
223.541	-53.76
223.759	3.58
223.977	67.07
224.195	171.52
224.413	38.4
224.631	48.64
224.849	28.16
225.067	198.14
225.285	-2.56
225.503	-0.51
225.721	-51.71
225.939	-12.8
226.157	1.54
226.375	204.28
226.592	-47.62
226.81	22.02
227.028	120.32
227.246	118.27
227.464	67.07
227.682	69.12
227.9	97.79
228.117	50.69
228.335	91.65
228.553	56.83
228.771	75.26
228.989	26.11
229.206	108.03
229.424	-49.66
229.642	17.92
229.86	-53.76
230.077	183.81
230.295	75.26
230.513	46.59
230.731	28.16
230.948	220.67
231.166	101.89
231.384	-23.04
231.601	-57.86
231.819	245.24
232.037	-6.66
232.254	-37.38
232.472	-6.66
232.689	-35.33
232.907	122.37
233.125	3.58
233.342	17.92
233.56	-74.24
233.777	-39.42
233.995	-12.8
234.213	124.41
234.43	134.65
234.648	46.59
234.865	-0.51
235.083	83.45
235.3	1.54
235.518	165.37
235.735	142.85
235.953	116.22
236.17	15.87
236.388	19.97
236.605	44.54
236.822	54.78
237.04	120.32
237.257	83.45
237.475	1.54
237.692	58.88
237.909	58.88
238.127	-33.28
238.344	81.41
238.562	3.58
238.779	-18.94
238.996	-64
239.214	22.02
239.431	101.89
239.648	9.73
239.865	44.54
240.083	58.88
240.3	32.26
240.517	52.74
240.735	73.21
240.952	122.37
241.169	73.21
241.386	89.6
241.603	24.06
241.821	34.3
242.038	116.22
242.255	36.35
242.472	11.78
242.689	85.5
242.907	46.59
243.124	77.31
243.341	50.69
243.558	-6.66
243.775	-16.9
243.992	-113.15
244.209	54.78
244.426	177.66
244.643	79.36
244.86	44.54
245.078	134.65
245.295	34.3
245.512	34.3
245.729	54.78
245.946	36.35
246.163	17.92
246.38	5.63
246.597	91.65
246.814	87.55
247.031	-6.66
247.248	-2.56
247.464	73.21
247.681	56.83
247.898	77.31
248.115	-0.51
248.332	-104.96
248.549	19.97
248.766	249.34
248.983	-14.85
249.2	44.54
249.417	108.03
249.633	40.45
249.85	91.65
250.067	-0.51
250.284	42.5
250.501	7.68
250.717	101.89
250.934	-6.66
251.151	77.31
251.368	93.69
251.585	110.08
251.801	38.4
252.018	-53.76
252.235	105.98
252.451	-16.9
252.668	-25.09
252.885	136.7
253.102	67.07
253.318	7.68
253.535	24.06
253.752	-12.8
253.968	13.82
254.185	17.92
254.401	38.4
254.618	89.6
254.835	-53.76
255.051	118.27
255.268	24.06
255.484	50.69
255.701	1.54
255.917	58.88
256.134	-0.51
256.351	58.88
256.567	-23.04
256.784	-49.66
257	-129.53
257.217	81.41
257.433	54.78
257.65	-14.85
257.866	200.19
258.082	-100.86
258.299	-37.38
258.515	7.68
258.732	48.64
258.948	56.83
259.165	85.5
259.381	-27.14
259.597	95.74
259.814	52.74
260.03	36.35
260.246	17.92
260.463	198.14
260.679	105.98
260.895	73.21
261.112	103.93
261.328	30.21
261.544	32.26
261.761	140.8
261.977	17.92
262.193	-16.9
262.409	65.02
262.626	19.97
262.842	30.21
263.058	38.4
263.274	93.69
263.49	36.35
263.707	87.55
263.923	132.61
264.139	-59.9
264.355	13.82
264.571	58.88
264.787	71.17
265.004	89.6
265.22	26.11
265.436	17.92
265.652	22.02
265.868	56.83
266.084	28.16
266.3	-25.09
266.516	9.73
266.732	71.17
266.948	50.69
267.164	-47.62
267.38	58.88
267.596	118.27
267.812	134.65
268.028	34.3
268.244	46.59
268.46	60.93
268.676	-41.47
268.892	38.4
269.108	-64
269.324	-6.66
269.54	-18.94
269.756	75.26
269.972	19.97
270.188	19.97
270.403	-78.33
270.619	58.88
270.835	24.06
271.051	91.65
271.267	22.02
271.483	-29.18
271.698	54.78
271.914	22.02
272.13	79.36
272.346	-14.85
272.562	7.68
272.777	38.4
272.993	38.4
273.209	54.78
273.425	62.98
273.64	-23.04
273.856	46.59
274.072	-4.61
274.287	50.69
274.503	110.08
274.719	56.83
274.934	24.06
275.15	-41.47
275.366	50.69
275.581	50.69
275.797	-29.18
276.012	40.45
276.228	-57.86
276.444	77.31
276.659	108.03
276.875	46.59
277.09	-4.61
277.306	73.21
277.521	50.69
277.737	103.93
277.952	122.37
278.168	34.3
278.383	7.68
278.599	69.12
278.814	142.85
279.03	83.45
279.245	128.51
279.461	54.78
279.676	83.45
279.892	-70.14
280.107	36.35
280.322	-6.66
280.538	32.26
280.753	15.87
280.969	153.09
281.184	28.16
281.399	138.75
281.615	-6.66
281.83	103.93
282.045	-74.24
282.26	69.12
282.476	54.78
282.691	65.02
282.906	15.87
283.122	17.92
283.337	40.45
283.552	52.74
283.767	-16.9
283.983	103.93
284.198	19.97
284.413	50.69
284.628	-29.18
284.843	42.5
285.058	77.31
285.274	44.54
285.489	52.74
285.704	69.12
285.919	-41.47
286.134	54.78
286.349	7.68
286.564	32.26
286.779	116.22
286.995	9.73
287.21	-92.67
287.425	114.17
287.64	5.63
287.855	7.68
288.07	-47.62
288.285	101.89
288.5	105.98
288.715	56.83
288.93	-4.61
289.145	42.5
289.36	46.59
289.575	56.83
289.79	132.61
290.004	13.82
290.219	108.03
290.434	17.92
290.649	67.07
290.864	62.98
291.079	36.35
291.294	83.45
291.509	50.69
291.724	52.74
291.938	46.59
292.153	87.55
292.368	95.74
292.583	54.78
292.798	136.7
293.012	62.98
293.227	97.79
293.442	71.17
293.657	52.74
293.871	97.79
294.086	95.74
294.301	206.33
294.516	114.17
294.73	9.73
294.945	22.02
295.16	52.74
295.374	134.65
295.589	75.26
295.804	7.68
296.018	30.21
296.233	75.26
296.447	62.98
296.662	52.74
296.877	122.37
297.091	87.55
297.306	48.64
297.52	40.45
297.735	9.73
297.949	46.59
298.164	69.12
298.378	17.92
298.593	-14.85
298.807	60.93
299.022	7.68
299.236	151.04
299.451	28.16
299.665	-29.18
299.88	36.35
300.094	32.26
300.309	-16.9
300.523	69.12
300.737	-16.9
300.952	114.17
301.166	73.21
301.381	52.74
301.595	7.68
301.809	75.26
302.024	36.35
302.238	11.78
302.452	146.94
302.667	46.59
302.881	114.17
303.095	65.02
303.309	42.5
303.524	15.87
303.738	40.45
303.952	-33.28
304.166	44.54
304.381	-152.06
304.595	136.7
304.809	38.4
305.023	38.4
305.237	-8.7
305.452	46.59
305.666	97.79
305.88	103.93
306.094	15.87
306.308	83.45
306.522	97.79
306.736	140.8
306.95	105.98
307.164	62.98
307.379	3.58
307.593	77.31
307.807	130.56
308.021	91.65
308.235	28.16
308.449	-45.57
308.663	-12.8
308.877	210.43
309.091	62.98
309.305	75.26
309.519	-201.21
309.733	75.26
309.947	5.63
310.161	32.26
310.374	50.69
310.588	159.23
310.802	-66.05
311.016	1.54
311.23	46.59
311.444	-57.86
311.658	28.16
311.872	144.89
312.085	67.07
312.299	128.51
312.513	171.52
312.727	44.54
312.941	17.92
313.154	40.45
313.368	-6.66
313.582	30.21
313.796	46.59
314.009	50.69
314.223	189.95
314.437	128.51
314.651	95.74
314.864	36.35
315.078	-12.8
315.292	-64
315.505	9.73
315.719	108.03
315.933	-37.38
316.146	-12.8
316.36	-55.81
316.573	95.74
316.787	56.83
317.001	56.83
317.214	36.35
317.428	62.98
317.641	-78.33
317.855	-35.33
318.068	30.21
318.282	114.17
318.495	208.38
318.709	122.37
318.922	1.54
319.136	144.89
319.349	79.36
319.563	-37.38
319.776	71.17
319.99	-51.71
320.203	69.12
320.417	9.73
320.63	89.6
320.843	122.37
321.057	3.58
321.27	17.92
321.483	91.65
321.697	58.88
321.91	87.55
322.124	110.08
322.337	56.83
322.55	26.11
322.763	58.88
322.977	48.64
323.19	-39.42
323.403	65.02
323.617	79.36
323.83	153.09
324.043	-29.18
324.256	56.83
324.469	-6.66
324.683	142.85
324.896	38.4
325.109	9.73
325.322	-35.33
325.535	56.83
325.748	126.46
325.962	15.87
326.175	-31.23
326.388	122.37
326.601	179.71
326.814	-10.75
327.027	52.74
327.24	155.13
327.453	-66.05
327.666	42.5
327.879	58.88
328.092	116.22
328.305	155.13
328.518	-29.18
328.731	40.45
328.944	38.4
329.157	101.89
329.37	15.87
329.583	189.95
329.796	169.47
330.009	19.97
330.222	73.21
330.435	52.74
330.648	58.88
330.861	28.16
331.073	48.64
331.286	132.61
331.499	89.6
331.712	32.26
331.925	5.63
332.138	52.74
332.35	89.6
332.563	-59.9
332.776	171.52
332.989	-152.06
333.202	36.35
333.414	54.78
333.627	62.98
333.84	-6.66
334.053	58.88
334.265	-23.04
334.478	-20.99
334.691	97.79
334.903	40.45
335.116	13.82
335.329	71.17
335.541	95.74
335.754	118.27
335.966	22.02
336.179	93.69
336.392	24.06
336.604	-4.61
336.817	144.89
337.029	140.8
337.242	30.21
337.454	34.3
337.667	28.16
337.88	155.13
338.092	38.4
338.305	50.69
338.517	52.74
338.729	34.3
338.942	140.8
339.154	-59.9
339.367	54.78
339.579	108.03
339.792	-33.28
340.004	87.55
340.217	30.21
340.429	50.69
340.641	62.98
340.854	56.83
341.066	24.06
341.278	99.84
341.491	179.71
341.703	19.97
341.915	38.4
342.128	22.02
342.34	36.35
342.552	-45.57
342.764	11.78
342.977	34.3
343.189	30.21
343.401	44.54
343.613	-25.09
343.826	24.06
344.038	-41.47
344.25	9.73
344.462	-20.99
344.674	17.92
344.886	7.68
345.099	148.99
345.311	95.74
345.523	-43.52
345.735	-80.38
345.947	52.74
346.159	3.58
346.371	65.02
346.583	-12.8
346.795	169.47
347.007	85.5
347.219	85.5
347.431	-20.99
347.643	175.61
347.855	-8.7
348.067	101.89
348.279	-12.8
348.491	48.64
348.703	77.31
348.915	58.88
349.127	-37.38
349.339	89.6
349.551	1.54
349.763	56.83
349.975	-0.51
350.187	124.41
350.399	173.57
350.61	91.65
350.822	-0.51
351.034	122.37
351.246	48.64
351.458	93.69
351.669	110.08
351.881	112.13
352.093	171.52
352.305	130.56
352.517	58.88
352.728	155.13
352.94	30.21
353.152	11.78
353.363	3.58
353.575	93.69
353.787	89.6
353.999	54.78
354.21	200.19
354.422	11.78
354.633	81.41
354.845	52.74
355.057	83.45
355.268	73.21
355.48	120.32
355.692	13.82
355.903	62.98
356.115	36.35
356.326	-78.33
356.538	118.27
356.749	30.21
356.961	124.41
357.172	-33.28
357.384	-16.9
357.595	218.62
357.807	19.97
358.018	103.93
358.23	11.78
358.441	157.18
358.653	-4.61
358.864	26.11
359.075	7.68
359.287	50.69
359.498	159.23
359.709	75.26
359.921	-12.8
360.132	101.89
360.344	54.78
360.555	34.3
360.766	58.88
360.977	17.92
361.189	105.98
361.4	38.4
361.611	60.93
361.823	128.51
362.034	-29.18
362.245	-76.29
362.456	22.02
362.667	81.41
362.879	54.78
363.09	71.17
363.301	71.17
363.512	50.69
363.723	-64
363.935	-20.99
364.146	85.5
364.357	-10.75
364.568	42.5
364.779	-61.95
364.99	32.26
365.201	-35.33
365.412	89.6
365.623	-109.05
365.834	77.31
366.045	-23.04
366.256	73.21
366.467	108.03
366.678	13.82
366.889	108.03
367.1	-78.33
367.311	87.55
367.522	32.26
367.733	79.36
367.944	124.41
368.155	73.21
368.366	44.54
368.577	110.08
368.788	144.89
368.999	-25.09
369.209	52.74
369.42	181.76
369.631	214.52
369.842	60.93
370.053	9.73
370.264	132.61
370.474	-88.57
370.685	54.78
370.896	1.54
371.107	204.28
371.317	124.41
371.528	-2.56
371.739	77.31
371.95	103.93
372.16	22.02
372.371	-2.56
372.582	-82.43
372.792	81.41
373.003	81.41
373.214	-0.51
373.424	56.83
373.635	-64
373.846	83.45
374.056	-25.09
374.267	110.08
374.477	83.45
374.688	9.73
374.898	69.12
375.109	3.58
375.319	67.07
375.53	73.21
375.74	50.69
375.951	15.87
376.161	122.37
376.372	97.79
376.582	77.31
376.793	30.21
377.003	50.69
377.214	-25.09
377.424	77.31
377.635	42.5
377.845	58.88
378.055	79.36
378.266	-25.09
378.476	-39.42
378.686	122.37
378.897	19.97
379.107	91.65
379.317	142.85
379.528	13.82
379.738	142.85
379.948	-14.85
380.158	69.12
380.369	120.32
380.579	42.5
380.789	-53.76
380.999	110.08
381.21	99.84
381.42	267.77
381.63	-0.51
381.84	126.46
382.05	7.68
382.261	120.32
382.471	173.57
382.681	-2.56
382.891	183.81
383.101	1.54
383.311	-39.42
383.521	-72.19
383.731	83.45
383.941	105.98
384.151	-16.9
384.361	-10.75
384.571	124.41
384.781	34.3
384.991	222.72
385.201	148.99
385.411	108.03
385.621	36.35
385.831	91.65
386.041	50.69
386.251	-23.04
386.461	103.93
386.671	54.78
386.881	-0.51
387.091	73.21
387.301	136.7
387.511	112.13
387.72	85.5
387.93	97.79
388.14	-76.29
388.35	65.02
388.56	128.51
388.769	58.88
388.979	22.02
389.189	-18.94
389.399	-57.86
389.609	114.17
389.818	214.52
390.028	58.88
390.238	130.56
390.447	-0.51
390.657	48.64
390.867	-25.09
391.076	-64
391.286	38.4
391.496	116.22
391.705	24.06
391.915	167.42
392.125	175.61
392.334	-2.56
392.544	116.22
392.753	62.98
392.963	26.11
393.172	30.21
393.382	-25.09
393.591	155.13
393.801	-14.85
394.01	157.18
394.22	73.21
394.429	-31.23
394.639	34.3
394.848	9.73
395.058	122.37
395.267	15.87
395.477	122.37
395.686	30.21
395.895	161.28
396.105	153.09
396.314	69.12
396.524	5.63
396.733	73.21
396.942	77.31
397.152	179.71
397.361	44.54
397.57	85.5
397.78	40.45
397.989	110.08
398.198	222.72
398.407	3.58
398.617	38.4
398.826	60.93
399.035	19.97
399.244	85.5
399.453	71.17
399.663	15.87
399.872	50.69
400.081	13.82
400.29	175.61
400.499	-35.33
400.708	146.94
400.917	13.82
401.127	26.11
401.336	19.97
401.545	105.98
401.754	130.56
401.963	108.03
402.172	-55.81
402.381	-20.99
402.59	73.21
402.799	28.16
403.008	26.11
403.217	128.51
403.426	50.69
403.635	-98.81
403.844	48.64
404.053	77.31
404.262	-55.81
404.471	171.52
404.68	67.07
404.888	67.07
405.097	-6.66
405.306	71.17
405.515	46.59
405.724	36.35
405.933	159.23
406.142	56.83
406.35	136.7
406.559	58.88
406.768	-35.33
406.977	226.81
407.185	75.26
407.394	83.45
407.603	-39.42
407.812	93.69
408.02	196.09
408.229	101.89
408.438	93.69
408.646	1.54
408.855	85.5
409.064	77.31
409.272	22.02
409.481	159.23
409.69	-39.42
409.898	67.07
410.107	112.13
410.315	112.13
410.524	-8.7
410.733	38.4
410.941	11.78
411.15	175.61
411.358	87.55
411.567	114.17
411.775	112.13
411.984	48.64
412.192	87.55
412.401	56.83
412.609	216.57
412.818	103.93
413.026	91.65
413.234	-23.04
413.443	52.74
413.651	-23.04
413.86	71.17
414.068	155.13
414.276	202.24
414.485	32.26
414.693	146.94
414.901	171.52
415.11	83.45
415.318	48.64
415.526	22.02
415.734	112.13
415.943	132.61
416.151	165.37
416.359	-16.9
416.567	105.98
416.776	128.51
416.984	140.8
417.192	161.28
417.4	28.16
417.608	81.41
417.817	-6.66
418.025	65.02
418.233	200.19
418.441	-2.56
418.649	-41.47
418.857	28.16
419.065	99.84
419.273	-20.99
419.481	50.69
419.689	65.02
419.897	-2.56
420.105	5.63
420.313	75.26
420.521	171.52
420.729	112.13
420.937	71.17
421.145	-8.7
421.353	159.23
421.561	173.57
421.769	36.35
421.977	75.26
422.185	67.07
422.393	60.93
422.601	116.22
422.809	26.11
423.017	34.3
423.224	71.17
423.432	155.13
423.64	67.07
423.848	157.18
424.056	42.5
424.263	97.79
424.471	-18.94
424.679	148.99
424.887	9.73
425.094	148.99
425.302	97.79
425.51	114.17
425.718	159.23
425.925	67.07
426.133	-57.86
426.341	151.04
426.548	54.78
426.756	101.89
426.964	118.27
427.171	52.74
427.379	91.65
427.586	13.82
427.794	140.8
428.001	118.27
428.209	153.09
428.417	222.72
428.624	75.26
428.832	89.6
429.039	34.3
429.247	77.31
429.454	140.8
429.662	99.84
429.869	118.27
430.076	212.48
430.284	151.04
430.491	99.84
430.699	97.79
430.906	216.57
431.114	128.51
431.321	169.47
431.528	42.5
431.736	228.86
431.943	151.04
432.15	200.19
432.358	181.76
432.565	226.81
432.772	56.83
432.979	171.52
433.187	108.03
433.394	241.15
433.601	52.74
433.808	183.81
434.016	249.34
434.223	255.48
434.43	196.09
434.637	241.15
434.844	284.16
435.052	310.78
435.259	294.4
435.466	267.77
435.673	282.11
435.88	296.44
436.087	286.2
436.294	235
436.501	253.44
436.708	267.77
436.915	345.59
437.122	359.93
437.329	146.94
437.537	298.49
437.743	318.97
437.95	415.23
438.157	271.87
438.364	269.82
438.571	351.74
438.778	419.32
438.985	402.94
439.192	439.8
439.399	353.79
439.606	445.95
439.813	470.52
440.02	574.97
440.227	552.44
440.433	513.53
440.64	491
440.847	460.28
441.054	566.78
441.261	660.98
441.467	550.39
441.674	470.52
441.881	691.7
442.088	525.82
442.294	671.22
442.501	744.95
442.708	765.43
442.914	660.98
443.121	728.56
443.328	790
443.534	822.77
443.741	806.39
443.948	703.99
444.154	863.73
444.361	947.7
444.568	921.07
444.774	929.27
444.981	916.98
445.187	1072.62
445.394	1052.14
445.6	994.8
445.807	1172.97
446.013	1115.63
446.22	1144.3
446.426	1261.04
446.633	1291.76
446.839	1517.03
447.046	1283.56
447.252	1570.28
447.459	1379.82
447.665	1459.69
447.871	1639.91
448.078	1637.86
448.284	1566.18
448.491	1779.17
448.697	1863.14
448.903	1813.99
449.11	2053.6
449.316	1918.43
449.522	2078.18
449.728	2182.62
449.935	2135.52
450.141	2215.39
450.347	2475.48
450.553	2407.9
450.76	2409.95
450.966	2579.93
451.172	2659.8
451.378	2739.67
451.584	2844.12
451.791	3139.02
451.997	3169.74
452.203	3132.88
452.409	3358.16
452.615	3544.52
452.821	3595.72
453.027	3460.56
453.233	3890.63
453.44	3755.46
453.646	3995.08
453.852	3986.88
454.058	4376
454.264	4361.66
454.47	4765.11
454.676	4670.9
454.882	5223.86
455.088	4943.28
455.294	5158.32
455.5	5504.43
455.705	5817.77
455.911	5696.94
456.117	5924.26
456.323	6256.03
456.529	6233.5
456.735	6749.59
456.941	7032.21
457.147	7212.43
457.352	7323.02
457.558	7759.24
457.764	8013.19
457.97	8359.3
458.176	8353.15
458.381	9203.06
458.587	9133.43
458.793	9514.35
458.999	9616.75
459.204	10896.73
459.41	11191.64
459.616	10780
459.821	11693.39
460.027	12189
460.233	12694.85
460.438	12750.14
460.644	13524.27
460.85	13630.77
461.055	14275.88
461.261	14959.9
461.466	14376.23
461.672	15007
461.878	16672
462.083	16387.33
462.289	16835.84
462.494	17347.83
462.7	17444.09
462.905	17741.04
463.111	19270.87
463.316	20280.52
463.522	20354.25
463.727	21132.48
463.932	22152.37
464.138	22748.32
464.343	23469.21
464.549	23753.88
464.754	25506.94
464.959	26231.92
465.165	26668.14
465.37	26336.37
465.575	26477.68
465.781	28286.03
465.986	29140.04
466.191	28648.52
466.397	28953.67
466.602	28122.19
466.807	30104.63
467.012	30778.41
467.218	31112.23
467.423	30942.25
467.628	32166.93
467.833	33727.49
468.038	32914.44
468.244	32437.27
468.449	34337.78
468.654	33557.5
468.859	33418.24
469.064	33553.41
469.269	32332.82
469.474	32953.35
469.679	33670.14
