Data from USB4F104151__48__09-28-06-504.txt Node

Date: Wed Feb 26 09:28:06 EST 2025
User: louis
Spectrometer: USB4F10415
Trigger mode: 4
Integration Time (sec): 1.000000E-1
Scans to average: 1
Electric dark correction enabled: true
Nonlinearity correction enabled: false
Boxcar width: 0
XAxis mode: Wavelengths
Number of Pixels in Spectrum: 3648
>>>>>Begin Spectral Data<<<<<
178.204	-363.86
178.424	-363.86
178.644	-363.86
178.864	-326.99
179.084	-253.27
179.304	-36.18
179.524	43.69
179.744	-23.89
179.964	74.41
180.184	-17.75
180.404	2.73
180.624	8.87
180.844	6.83
181.064	-56.66
181.283	-13.65
181.503	15.02
181.723	-3.41
181.943	-109.91
182.163	148.14
182.383	-11.61
182.602	76.46
182.822	123.56
183.042	51.88
183.262	33.45
183.482	0.68
183.701	-15.7
183.921	19.11
184.141	-32.08
184.361	109.22
184.58	41.64
184.8	45.74
185.02	-13.65
185.239	76.46
185.459	125.61
185.679	78.51
185.898	-27.99
186.118	47.79
186.338	6.83
186.557	19.11
186.777	-25.94
186.997	-15.7
187.216	12.97
187.436	105.13
187.655	86.7
187.875	154.28
188.095	-42.32
188.314	72.36
188.534	66.22
188.753	-91.48
188.973	131.75
189.192	117.42
189.412	23.21
189.631	6.83
189.851	105.13
190.07	101.03
190.29	-23.89
190.509	-40.28
190.729	33.45
190.948	72.36
191.168	215.72
191.387	60.07
191.607	19.11
191.826	-1.37
192.045	23.21
192.265	-30.04
192.484	-15.7
192.704	47.79
192.923	-122.2
193.142	156.33
193.362	12.97
193.581	182.95
193.8	23.21
194.02	146.09
194.239	117.42
194.458	27.31
194.678	105.13
194.897	-1.37
195.116	12.97
195.335	117.42
195.555	-38.23
195.774	-17.75
195.993	27.31
196.212	-32.08
196.432	-66.9
196.651	-62.8
196.87	-13.65
197.089	88.75
197.308	43.69
197.528	78.51
197.747	-34.13
197.966	31.4
198.185	205.48
198.404	-7.51
198.623	129.7
198.842	92.84
199.062	68.27
199.281	111.27
199.5	53.93
199.719	53.93
199.938	70.31
200.157	53.93
200.376	25.26
200.595	47.79
200.814	68.27
201.033	-30.04
201.252	88.75
201.471	19.11
201.69	119.46
201.909	41.64
202.128	113.32
202.347	-1.37
202.566	68.27
202.785	-38.23
203.004	-95.57
203.223	199.34
203.442	90.79
203.661	-52.56
203.879	62.12
204.098	88.75
204.317	-46.42
204.536	123.56
204.755	31.4
204.974	111.27
205.193	12.97
205.411	119.46
205.63	123.56
205.849	27.31
206.068	-3.41
206.287	-122.2
206.505	92.84
206.724	70.31
206.943	-60.76
207.162	-17.75
207.381	41.64
207.599	41.64
207.818	19.11
208.037	37.55
208.255	6.83
208.474	41.64
208.693	6.83
208.911	23.21
209.13	92.84
209.349	-15.7
209.567	39.59
209.786	123.56
210.005	84.65
210.223	37.55
210.442	-111.96
210.661	111.27
210.879	25.26
211.098	43.69
211.316	101.03
211.535	39.59
211.753	4.78
211.972	78.51
212.191	15.02
212.409	23.21
212.628	64.17
212.846	6.83
213.065	2.73
213.283	39.59
213.502	10.92
213.72	31.4
213.938	90.79
214.157	49.83
214.375	29.35
214.594	-21.85
214.812	70.31
215.031	2.73
215.249	41.64
215.467	-13.65
215.686	58.03
215.904	94.89
216.122	76.46
216.341	-7.51
216.559	55.98
216.778	80.55
216.996	150.18
217.214	-13.65
217.432	23.21
217.651	4.78
217.869	-17.75
218.087	19.11
218.306	-21.85
218.524	10.92
218.742	10.92
218.96	15.02
219.179	23.21
219.397	-62.8
219.615	121.51
219.833	127.66
220.051	27.31
220.27	90.79
220.488	88.75
220.706	43.69
220.924	76.46
221.142	-23.89
221.36	86.7
221.578	103.08
221.796	84.65
222.015	60.07
222.233	27.31
222.451	166.57
222.669	10.92
222.887	162.47
223.105	23.21
223.323	53.93
223.541	2.73
223.759	4.78
223.977	-7.51
224.195	129.7
224.413	105.13
224.631	86.7
224.849	53.93
225.067	131.75
225.285	25.26
225.503	-44.37
225.721	-73.04
225.939	55.98
226.157	103.08
226.375	164.52
226.592	-7.51
226.81	-44.37
227.028	113.32
227.246	82.6
227.464	51.88
227.682	31.4
227.9	105.13
228.117	62.12
228.335	15.02
228.553	35.5
228.771	68.27
228.989	39.59
229.206	76.46
229.424	4.78
229.642	-23.89
229.86	-30.04
230.077	51.88
230.295	109.22
230.513	29.35
230.731	60.07
230.948	51.88
231.166	148.14
231.384	10.92
231.601	-19.8
231.819	84.65
232.037	-50.52
232.254	2.73
232.472	-5.46
232.689	39.59
232.907	109.22
233.125	76.46
233.342	-11.61
233.56	35.5
233.777	-25.94
233.995	27.31
234.213	2.73
234.43	21.16
234.648	4.78
234.865	-15.7
235.083	115.37
235.3	25.26
235.518	8.87
235.735	74.41
235.953	117.42
236.17	37.55
236.388	64.17
236.605	35.5
236.822	15.02
237.04	47.79
237.257	15.02
237.475	68.27
237.692	68.27
237.909	111.27
238.127	2.73
238.344	74.41
238.562	41.64
238.779	27.31
238.996	-23.89
239.214	47.79
239.431	137.9
239.648	10.92
239.865	68.27
240.083	152.23
240.3	-9.56
240.517	-17.75
240.735	49.83
240.952	109.22
241.169	8.87
241.386	43.69
241.603	-30.04
241.821	-48.47
242.038	80.55
242.255	101.03
242.472	-128.34
242.689	62.12
242.907	15.02
243.124	-7.51
243.341	4.78
243.558	-46.42
243.775	-38.23
243.992	-126.29
244.209	33.45
244.426	164.52
244.643	49.83
244.86	-23.89
245.078	53.93
245.295	23.21
245.512	51.88
245.729	0.68
245.946	31.4
246.163	19.11
246.38	31.4
246.597	90.79
246.814	33.45
247.031	6.83
247.248	-13.65
247.464	55.98
247.681	31.4
247.898	158.38
248.115	27.31
248.332	35.5
248.549	80.55
248.766	103.08
248.983	78.51
249.2	33.45
249.417	96.94
249.633	6.83
249.85	37.55
250.067	12.97
250.284	62.12
250.501	19.11
250.717	21.16
250.934	-85.33
251.151	-15.7
251.368	53.93
251.585	43.69
251.801	45.74
252.018	-34.13
252.235	105.13
252.451	-64.85
252.668	-1.37
252.885	98.99
253.102	6.83
253.318	19.11
253.535	74.41
253.752	-54.61
253.968	-23.89
254.185	-54.61
254.401	43.69
254.618	68.27
254.835	-66.9
255.051	82.6
255.268	25.26
255.484	76.46
255.701	-38.23
255.917	82.6
256.134	15.02
256.351	-105.81
256.567	-62.8
256.784	10.92
257	-42.32
257.217	43.69
257.433	115.37
257.65	-3.41
257.866	139.94
258.082	-62.8
258.299	-9.56
258.515	31.4
258.732	45.74
258.948	-68.95
259.165	4.78
259.381	25.26
259.597	68.27
259.814	19.11
260.03	35.5
260.246	37.55
260.463	101.03
260.679	92.84
260.895	33.45
261.112	33.45
261.328	-11.61
261.544	-27.99
261.761	127.66
261.977	-7.51
262.193	-54.61
262.409	62.12
262.626	62.12
262.842	-3.41
263.058	-11.61
263.274	82.6
263.49	84.65
263.707	76.46
263.923	60.07
264.139	-77.14
264.355	37.55
264.571	12.97
264.787	76.46
265.004	39.59
265.22	2.73
265.436	-21.85
265.652	17.07
265.868	35.5
266.084	-58.71
266.3	33.45
266.516	-103.76
266.732	15.02
266.948	15.02
267.164	-40.28
267.38	66.22
267.596	19.11
267.812	137.9
268.028	-46.42
268.244	-40.28
268.46	-19.8
268.676	-7.51
268.892	47.79
269.108	-23.89
269.324	-44.37
269.54	-99.67
269.756	158.38
269.972	-58.71
270.188	31.4
270.403	-32.08
270.619	47.79
270.835	109.22
271.051	39.59
271.267	-95.57
271.483	2.73
271.698	72.36
271.914	123.56
272.13	60.07
272.346	90.79
272.562	139.94
272.777	74.41
272.993	-1.37
273.209	6.83
273.425	121.51
273.64	2.73
273.856	41.64
274.072	-13.65
274.287	-9.56
274.503	96.94
274.719	39.59
274.934	-42.32
275.15	-21.85
275.366	41.64
275.581	-23.89
275.797	10.92
276.012	58.03
276.228	6.83
276.444	2.73
276.659	58.03
276.875	-111.96
277.09	25.26
277.306	2.73
277.521	25.26
277.737	-13.65
277.952	64.17
278.168	15.02
278.383	64.17
278.599	82.6
278.814	129.7
279.03	31.4
279.245	109.22
279.461	10.92
279.676	121.51
279.892	31.4
280.107	-25.94
280.322	-15.7
280.538	86.7
280.753	-13.65
280.969	80.55
281.184	10.92
281.399	96.94
281.615	12.97
281.83	55.98
282.045	-68.95
282.26	27.31
282.476	43.69
282.691	64.17
282.906	-1.37
283.122	49.83
283.337	29.35
283.552	58.03
283.767	-42.32
283.983	49.83
284.198	-11.61
284.413	15.02
284.628	-30.04
284.843	103.08
285.058	68.27
285.274	-32.08
285.489	-50.52
285.704	117.42
285.919	-34.13
286.134	76.46
286.349	21.16
286.564	-5.46
286.779	133.8
286.995	41.64
287.21	-81.24
287.425	25.26
287.64	6.83
287.855	21.16
288.07	-34.13
288.285	27.31
288.5	135.85
288.715	64.17
288.93	41.64
289.145	-21.85
289.36	74.41
289.575	6.83
289.79	58.03
290.004	49.83
290.219	101.03
290.434	-27.99
290.649	35.5
290.864	-30.04
291.079	-75.09
291.294	15.02
291.509	-13.65
291.724	-77.14
291.938	17.07
292.153	23.21
292.368	27.31
292.583	6.83
292.798	25.26
293.012	105.13
293.227	41.64
293.442	-34.13
293.657	92.84
293.871	160.42
294.086	90.79
294.301	166.57
294.516	60.07
294.73	76.46
294.945	19.11
295.16	-25.94
295.374	111.27
295.589	90.79
295.804	-32.08
296.018	78.51
296.233	125.61
296.447	-5.46
296.662	-30.04
296.877	88.75
297.091	47.79
297.306	-30.04
297.52	68.27
297.735	47.79
297.949	60.07
298.164	47.79
298.378	66.22
298.593	-15.7
298.807	10.92
299.022	-13.65
299.236	90.79
299.451	-1.37
299.665	27.31
299.88	-1.37
300.094	25.26
300.309	60.07
300.523	53.93
300.737	43.69
300.952	64.17
301.166	-23.89
301.381	-25.94
301.595	15.02
301.809	10.92
302.024	-7.51
302.238	19.11
302.452	41.64
302.667	-46.42
302.881	51.88
303.095	60.07
303.309	27.31
303.524	-52.56
303.738	-11.61
303.952	-32.08
304.166	15.02
304.381	-144.72
304.595	228.01
304.809	-58.71
305.023	66.22
305.237	10.92
305.452	-7.51
305.666	45.74
305.88	88.75
306.094	-3.41
306.308	10.92
306.522	39.59
306.736	53.93
306.95	117.42
307.164	-1.37
307.379	-38.23
307.593	176.81
307.807	84.65
308.021	31.4
308.235	84.65
308.449	-46.42
308.663	101.03
308.877	109.22
309.091	49.83
309.305	45.74
309.519	-46.42
309.733	105.13
309.947	-79.19
310.161	45.74
310.374	119.46
310.588	125.61
310.802	8.87
311.016	-7.51
311.23	68.27
311.444	-38.23
311.658	37.55
311.872	64.17
312.085	109.22
312.299	47.79
312.513	105.13
312.727	74.41
312.941	-58.71
313.154	-15.7
313.368	-7.51
313.582	53.93
313.796	15.02
314.009	80.55
314.223	68.27
314.437	60.07
314.651	72.36
314.864	29.35
315.078	-1.37
315.292	-13.65
315.505	2.73
315.719	43.69
315.933	33.45
316.146	29.35
316.36	-11.61
316.573	105.13
316.787	66.22
317.001	84.65
317.214	-64.85
317.428	-32.08
317.641	-9.56
317.855	43.69
318.068	8.87
318.282	58.03
318.495	158.38
318.709	21.16
318.922	45.74
319.136	53.93
319.349	51.88
319.563	-7.51
319.776	43.69
319.99	-79.19
320.203	58.03
320.417	-62.8
320.63	92.84
320.843	74.41
321.057	31.4
321.27	19.11
321.483	47.79
321.697	148.14
321.91	-11.61
322.124	58.03
322.337	17.07
322.55	-3.41
322.763	82.6
322.977	109.22
323.19	-5.46
323.403	33.45
323.617	109.22
323.83	117.42
324.043	94.89
324.256	60.07
324.469	-13.65
324.683	64.17
324.896	-27.99
325.109	98.99
325.322	-62.8
325.535	152.23
325.748	66.22
325.962	17.07
326.175	82.6
326.388	-21.85
326.601	96.94
326.814	25.26
327.027	49.83
327.24	117.42
327.453	-54.61
327.666	25.26
327.879	146.09
328.092	96.94
328.305	82.6
328.518	4.78
328.731	-62.8
328.944	-3.41
329.157	64.17
329.37	53.93
329.583	148.14
329.796	58.03
330.009	-34.13
330.222	146.09
330.435	90.79
330.648	-30.04
330.861	-9.56
331.073	74.41
331.286	90.79
331.499	60.07
331.712	27.31
331.925	-3.41
332.138	-3.41
332.35	72.36
332.563	-50.52
332.776	72.36
332.989	-95.57
333.202	53.93
333.414	35.5
333.627	19.11
333.84	-21.85
334.053	49.83
334.265	-46.42
334.478	-54.61
334.691	31.4
334.903	-21.85
335.116	-62.8
335.329	-1.37
335.541	-9.56
335.754	166.57
335.966	58.03
336.179	2.73
336.392	-23.89
336.604	10.92
336.817	51.88
337.029	66.22
337.242	-23.89
337.454	74.41
337.667	-30.04
337.88	-5.46
338.092	35.5
338.305	76.46
338.517	-25.94
338.729	82.6
338.942	105.13
339.154	-60.76
339.367	-54.61
339.579	43.69
339.792	-40.28
340.004	70.31
340.217	58.03
340.429	29.35
340.641	-27.99
340.854	-13.65
341.066	15.02
341.278	29.35
341.491	178.86
341.703	76.46
341.915	15.02
342.128	35.5
342.34	-54.61
342.552	-75.09
342.764	33.45
342.977	-34.13
343.189	70.31
343.401	-17.75
343.613	-42.32
343.826	21.16
344.038	-32.08
344.25	37.55
344.462	64.17
344.674	-9.56
344.886	43.69
345.099	96.94
345.311	-9.56
345.523	-19.8
345.735	-23.89
345.947	-17.75
346.159	51.88
346.371	-9.56
346.583	-48.47
346.795	125.61
347.007	19.11
347.219	33.45
347.431	8.87
347.643	150.18
347.855	-107.86
348.067	41.64
348.279	-21.85
348.491	33.45
348.703	35.5
348.915	33.45
349.127	-13.65
349.339	58.03
349.551	19.11
349.763	107.18
349.975	-79.19
350.187	72.36
350.399	45.74
350.61	21.16
350.822	29.35
351.034	94.89
351.246	-30.04
351.458	27.31
351.669	37.55
351.881	0.68
352.093	58.03
352.305	78.51
352.517	117.42
352.728	131.75
352.94	84.65
353.152	39.59
353.363	-120.15
353.575	82.6
353.787	197.29
353.999	-66.9
354.21	182.95
354.422	-15.7
354.633	43.69
354.845	37.55
355.057	19.11
355.268	68.27
355.48	76.46
355.692	8.87
355.903	2.73
356.115	-30.04
356.326	-5.46
356.538	170.66
356.749	49.83
356.961	86.7
357.172	27.31
357.384	-50.52
357.595	195.24
357.807	-50.52
358.018	-5.46
358.23	21.16
358.441	103.08
358.653	113.32
358.864	10.92
359.075	17.07
359.287	80.55
359.498	39.59
359.709	82.6
359.921	109.22
360.132	68.27
360.344	25.26
360.555	15.02
360.766	21.16
360.977	-62.8
361.189	90.79
361.4	2.73
361.611	113.32
361.823	160.42
362.034	39.59
362.245	-58.71
362.456	49.83
362.667	8.87
362.879	-13.65
363.09	21.16
363.301	80.55
363.512	62.12
363.723	8.87
363.935	-13.65
364.146	148.14
364.357	37.55
364.568	47.79
364.779	-68.95
364.99	164.52
365.201	27.31
365.412	74.41
365.623	-46.42
365.834	49.83
366.045	-50.52
366.256	47.79
366.467	72.36
366.678	-83.28
366.889	-34.13
367.1	25.26
367.311	68.27
367.522	-15.7
367.733	39.59
367.944	17.07
368.155	19.11
368.366	15.02
368.577	84.65
368.788	187.05
368.999	35.5
369.209	-3.41
369.42	131.75
369.631	160.42
369.842	72.36
370.053	2.73
370.264	76.46
370.474	-36.18
370.685	-7.51
370.896	2.73
371.107	125.61
371.317	64.17
371.528	8.87
371.739	133.8
371.95	74.41
372.16	109.22
372.371	-66.9
372.582	21.16
372.792	109.22
373.003	68.27
373.214	76.46
373.424	180.9
373.635	2.73
373.846	131.75
374.056	31.4
374.267	-46.42
374.477	19.11
374.688	47.79
374.898	66.22
375.109	74.41
375.319	33.45
375.53	58.03
375.74	68.27
375.951	2.73
376.161	39.59
376.372	117.42
376.582	-23.89
376.793	53.93
377.003	-38.23
377.214	0.68
377.424	148.14
377.635	72.36
377.845	-21.85
378.055	121.51
378.266	-99.67
378.476	19.11
378.686	21.16
378.897	-48.47
379.107	55.98
379.317	86.7
379.528	10.92
379.738	92.84
379.948	-114
380.158	139.94
380.369	78.51
380.579	121.51
380.789	39.59
380.999	107.18
381.21	60.07
381.42	158.38
381.63	-30.04
381.84	43.69
382.05	27.31
382.261	109.22
382.471	23.21
382.681	37.55
382.891	133.8
383.101	6.83
383.311	-32.08
383.521	-21.85
383.731	4.78
383.941	72.36
384.151	74.41
384.361	0.68
384.571	43.69
384.781	96.94
384.991	113.32
385.201	217.77
385.411	78.51
385.621	82.6
385.831	51.88
386.041	15.02
386.251	29.35
386.461	90.79
386.671	-32.08
386.881	19.11
387.091	19.11
387.301	105.13
387.511	-42.32
387.72	66.22
387.93	10.92
388.14	10.92
388.35	-27.99
388.56	150.18
388.769	78.51
388.979	17.07
389.189	33.45
389.399	-1.37
389.609	86.7
389.818	107.18
390.028	-19.8
390.238	31.4
390.447	-7.51
390.657	90.79
390.867	76.46
391.076	-73.04
391.286	-7.51
391.496	31.4
391.705	0.68
391.915	125.61
392.125	53.93
392.334	0.68
392.544	141.99
392.753	33.45
392.963	-9.56
393.172	-5.46
393.382	-9.56
393.591	92.84
393.801	49.83
394.01	115.37
394.22	101.03
394.429	148.14
394.639	-23.89
394.848	68.27
395.058	4.78
395.267	90.79
395.477	92.84
395.686	64.17
395.895	121.51
396.105	182.95
396.314	-38.23
396.524	-34.13
396.733	27.31
396.942	158.38
397.152	86.7
397.361	133.8
397.57	10.92
397.78	29.35
397.989	-19.8
398.198	152.23
398.407	39.59
398.617	12.97
398.826	2.73
399.035	-30.04
399.244	74.41
399.453	66.22
399.663	58.03
399.872	43.69
400.081	-5.46
400.29	117.42
400.499	-7.51
400.708	72.36
400.917	51.88
401.127	-21.85
401.336	-27.99
401.545	158.38
401.754	158.38
401.963	64.17
402.172	-34.13
402.381	-9.56
402.59	12.97
402.799	55.98
403.008	84.65
403.217	15.02
403.426	58.03
403.635	-36.18
403.844	43.69
404.053	31.4
404.262	45.74
404.471	133.8
404.68	82.6
404.888	80.55
405.097	2.73
405.306	10.92
405.515	78.51
405.724	80.55
405.933	101.03
406.142	92.84
406.35	133.8
406.559	-30.04
406.768	82.6
406.977	92.84
407.185	55.98
407.394	29.35
407.603	-54.61
407.812	70.31
408.02	135.85
408.229	76.46
408.438	68.27
408.646	33.45
408.855	82.6
409.064	127.66
409.272	-1.37
409.481	68.27
409.69	-32.08
409.898	-15.7
410.107	33.45
410.315	80.55
410.524	41.64
410.733	19.11
410.941	39.59
411.15	84.65
411.358	115.37
411.567	133.8
411.775	43.69
411.984	12.97
412.192	55.98
412.401	90.79
412.609	156.33
412.818	55.98
413.026	66.22
413.234	33.45
413.443	47.79
413.651	6.83
413.86	6.83
414.068	31.4
414.276	238.25
414.485	-27.99
414.693	156.33
414.901	109.22
415.11	60.07
415.318	103.08
415.526	101.03
415.734	58.03
415.943	58.03
416.151	117.42
416.359	0.68
416.567	55.98
416.776	94.89
416.984	133.8
417.192	98.99
417.4	-21.85
417.608	21.16
417.817	-44.37
418.025	133.8
418.233	156.33
418.441	82.6
418.649	-30.04
418.857	74.41
419.065	162.47
419.273	-46.42
419.481	2.73
419.689	15.02
419.897	47.79
420.105	-25.94
420.313	58.03
420.521	90.79
420.729	47.79
420.937	-54.61
421.145	-27.99
421.353	80.55
421.561	217.77
421.769	51.88
421.977	-17.75
422.185	119.46
422.393	-7.51
422.601	125.61
422.809	101.03
423.017	66.22
423.224	35.5
423.432	92.84
423.64	98.99
423.848	68.27
424.056	-17.75
424.263	146.09
424.471	51.88
424.679	170.66
424.887	-42.32
425.094	123.56
425.302	70.31
425.51	-3.41
425.718	31.4
425.925	39.59
426.133	-25.94
426.341	191.14
426.548	68.27
426.756	60.07
426.964	139.94
427.171	64.17
427.379	68.27
427.586	55.98
427.794	146.09
428.001	141.99
428.209	86.7
428.417	221.86
428.624	70.31
428.832	80.55
429.039	41.64
429.247	76.46
429.454	45.74
429.662	191.14
429.869	88.75
430.076	141.99
430.284	203.43
430.491	133.8
430.699	152.23
430.906	158.38
431.114	107.18
431.321	109.22
431.528	80.55
431.736	107.18
431.943	133.8
432.15	174.76
432.358	225.96
432.565	176.81
432.772	76.46
432.979	223.91
433.187	131.75
433.394	240.3
433.601	4.78
433.808	215.72
434.016	246.44
434.223	154.28
434.43	168.62
434.637	275.11
434.844	287.4
435.052	205.48
435.259	289.45
435.466	279.21
435.673	305.83
435.88	344.74
436.087	320.17
436.294	301.73
436.501	314.02
436.708	242.34
436.915	295.59
437.122	436.9
437.329	234.15
437.537	279.21
437.743	424.61
437.95	469.67
438.157	334.5
438.364	428.71
438.571	412.32
438.778	449.19
438.985	461.48
439.192	420.52
439.399	385.7
439.606	504.48
439.813	549.54
440.02	490.15
440.227	721.57
440.433	713.38
440.64	588.45
440.847	494.24
441.054	676.51
441.261	688.8
441.467	629.41
441.674	592.55
441.881	785.05
442.088	651.94
442.294	805.53
442.501	762.53
442.708	815.77
442.914	866.97
443.121	850.59
443.328	877.21
443.534	975.52
443.741	952.99
443.948	826.01
444.154	1055.39
444.361	1186.46
444.568	1122.97
444.774	1137.31
444.981	975.52
445.187	1245.85
445.394	1190.55
445.6	1196.7
445.807	1385.11
446.013	1297.05
446.22	1292.95
446.426	1479.32
446.633	1456.79
446.839	1786.51
447.046	1559.19
447.252	1690.26
447.459	1637.01
447.665	1616.53
447.871	1931.92
448.078	2071.18
448.284	1966.73
448.491	2030.22
448.697	2220.68
448.903	2284.17
449.11	2409.09
449.316	2376.33
449.522	2609.79
449.728	2624.13
449.935	2730.62
450.141	2685.57
450.347	2800.26
450.553	2837.12
450.76	2923.13
450.966	3093.12
451.172	3136.12
451.378	3328.63
451.584	3422.84
451.791	3641.97
451.997	3799.66
452.203	3883.63
452.409	3936.88
452.615	4141.68
452.821	4098.67
453.027	4024.94
453.233	4577.89
453.44	4391.53
453.646	4803.17
453.852	4932.19
454.058	5122.65
454.264	5302.87
454.47	5450.33
454.676	5712.47
454.882	6181.45
455.088	5890.64
455.294	6365.77
455.5	6521.42
455.705	7131.71
455.911	6871.62
456.117	7174.72
456.323	7297.6
456.529	7447.1
456.735	7881.27
456.941	8337.96
457.147	8665.64
457.352	8823.33
457.558	9200.16
457.764	9587.22
457.97	9761.3
458.176	10033.68
458.381	10547.72
458.587	11004.42
458.793	11508.22
458.999	11475.45
459.204	12990.95
459.41	13447.65
459.616	13257.18
459.821	14035.41
460.027	14498.25
460.233	15354.3
460.438	15456.7
460.644	16279.99
460.85	16218.55
461.055	16781.74
461.261	17734.04
461.466	17174.95
461.672	17895.83
461.878	20013.43
462.083	19464.58
462.289	19960.19
462.494	20967.79
462.7	21115.24
462.905	21215.59
463.111	22915.4
463.316	23880
463.522	24619.31
463.727	25317.67
463.932	26325.27
464.138	27216.14
464.343	28324.09
464.549	28602.61
464.754	30496.99
464.959	31332.56
465.165	31903.94
465.37	31467.72
465.575	31811.78
465.781	33669.29
465.986	34504.86
466.191	34261.15
466.397	34767
466.602	33480.88
466.807	35436.69
467.012	36337.79
467.218	36982.9
467.423	37122.16
467.628	38056.04
467.833	39784.52
468.038	39366.74
468.244	38502.5
468.449	40878.14
468.654	39366.74
468.859	39649.36
469.064	39845.96
469.269	38760.54
