Data from USB4F104151__82__11-31-29-961.txt Node

Date: Wed Feb 26 11:31:29 EST 2025
User: louis
Spectrometer: USB4F10415
Trigger mode: 4
Integration Time (sec): 1.000000E-1
Scans to average: 1
Electric dark correction enabled: true
Nonlinearity correction enabled: false
Boxcar width: 0
XAxis mode: Wavelengths
Number of Pixels in Spectrum: 3648
>>>>>Begin Spectral Data<<<<<
178.204	-390.82
178.424	-390.82
178.644	-390.82
178.864	-378.53
179.084	-323.24
179.304	14.68
179.524	-40.62
179.744	35.16
179.964	67.92
180.184	-18.09
180.404	55.64
180.624	-71.34
180.844	-3.75
181.064	-116.39
181.283	98.64
181.503	-63.15
181.723	41.3
181.943	-147.11
182.163	194.9
182.383	24.92
182.602	94.55
182.822	147.8
183.042	131.41
183.262	33.11
183.482	47.44
183.701	117.08
183.921	45.4
184.141	-48.81
184.361	53.59
184.58	80.21
184.8	55.64
185.02	-50.86
185.239	69.97
185.459	90.45
185.679	141.65
185.898	-71.34
186.118	53.59
186.338	86.36
186.557	139.6
186.777	-102.06
186.997	-16.04
187.216	57.68
187.436	215.38
187.655	119.12
187.875	100.69
188.095	35.16
188.314	155.99
188.534	172.37
188.753	35.16
188.973	106.84
189.192	184.66
189.412	24.92
189.631	76.12
189.851	65.88
190.07	145.75
190.29	-30.38
190.509	61.78
190.729	123.22
190.948	164.18
191.168	219.47
191.387	65.88
191.607	65.88
191.826	151.89
192.045	119.12
192.265	-5.8
192.484	67.92
192.704	57.68
192.923	-46.76
193.142	166.23
193.362	137.56
193.581	186.71
193.8	176.47
194.02	4.44
194.239	61.78
194.458	78.16
194.678	-83.63
194.897	53.59
195.116	100.69
195.335	59.73
195.555	121.17
195.774	43.35
195.993	160.08
196.212	57.68
196.432	-9.9
196.651	-63.15
196.87	51.54
197.089	252.24
197.308	100.69
197.528	123.22
197.747	2.39
197.966	76.12
198.185	192.85
198.404	-108.2
198.623	129.36
198.842	155.99
199.062	90.45
199.281	33.11
199.5	41.3
199.719	24.92
199.938	108.88
200.157	96.6
200.376	129.36
200.595	227.67
200.814	133.46
201.033	-5.8
201.252	121.17
201.471	106.84
201.69	98.64
201.909	78.16
202.128	76.12
202.347	106.84
202.566	-3.75
202.785	-71.34
203.004	-50.86
203.223	223.57
203.442	96.6
203.661	-54.95
203.879	74.07
204.098	190.8
204.317	72.02
204.536	174.42
204.755	112.98
204.974	69.97
205.193	39.25
205.411	131.41
205.63	100.69
205.849	110.93
206.068	0.34
206.287	-46.76
206.505	196.95
206.724	49.49
206.943	-1.71
207.162	14.68
207.381	115.03
207.599	41.3
207.818	90.45
208.037	12.63
208.255	67.92
208.474	78.16
208.693	104.79
208.911	35.16
209.13	92.5
209.349	-32.43
209.567	88.4
209.786	112.98
210.005	98.64
210.223	69.97
210.442	-69.29
210.661	67.92
210.879	65.88
211.098	125.27
211.316	8.53
211.535	102.74
211.753	20.82
211.972	22.87
212.191	49.49
212.409	20.82
212.628	53.59
212.846	67.92
213.065	82.26
213.283	133.46
213.502	63.83
213.72	55.64
213.938	147.8
214.157	-40.62
214.375	160.08
214.594	-24.23
214.812	94.55
215.031	53.59
215.249	22.87
215.467	51.54
215.686	80.21
215.904	51.54
216.122	78.16
216.341	182.61
216.559	22.87
216.778	168.27
216.996	158.03
217.214	112.98
217.432	26.96
217.651	-16.04
217.869	39.25
218.087	43.35
218.306	18.77
218.524	33.11
218.742	100.69
218.96	100.69
219.179	35.16
219.397	35.16
219.615	233.81
219.833	78.16
220.051	-24.23
220.27	145.75
220.488	158.03
220.706	90.45
220.924	-5.8
221.142	-75.43
221.36	166.23
221.578	106.84
221.796	37.2
222.015	98.64
222.233	80.21
222.451	129.36
222.669	43.35
222.887	69.97
223.105	41.3
223.323	22.87
223.541	-65.19
223.759	112.98
223.977	29.01
224.195	76.12
224.413	139.6
224.631	33.11
224.849	67.92
225.067	301.39
225.285	33.11
225.503	10.58
225.721	-61.1
225.939	88.4
226.157	39.25
226.375	231.76
226.592	-24.23
226.81	31.06
227.028	147.8
227.246	170.32
227.464	119.12
227.682	57.68
227.9	57.68
228.117	22.87
228.335	188.75
228.553	61.78
228.771	74.07
228.989	96.6
229.206	65.88
229.424	-3.75
229.642	35.16
229.86	49.49
230.077	153.94
230.295	72.02
230.513	127.32
230.731	65.88
230.948	137.56
231.166	192.85
231.384	59.73
231.601	-20.14
231.819	211.28
232.037	65.88
232.254	-77.48
232.472	100.69
232.689	-18.09
232.907	153.94
233.125	14.68
233.342	39.25
233.56	78.16
233.777	31.06
233.995	86.36
234.213	63.83
234.43	151.89
234.648	67.92
234.865	88.4
235.083	4.44
235.3	10.58
235.518	131.41
235.735	90.45
235.953	72.02
236.17	67.92
236.388	53.59
236.605	72.02
236.822	110.93
237.04	112.98
237.257	37.2
237.475	24.92
237.692	65.88
237.909	131.41
238.127	55.64
238.344	51.54
238.562	55.64
238.779	16.73
238.996	-48.81
239.214	119.12
239.431	92.5
239.648	-3.75
239.865	59.73
240.083	117.08
240.3	-32.43
240.517	33.11
240.735	61.78
240.952	133.46
241.169	133.46
241.386	-11.95
241.603	37.2
241.821	55.64
242.038	57.68
242.255	135.51
242.472	-50.86
242.689	125.27
242.907	123.22
243.124	74.07
243.341	16.73
243.558	55.64
243.775	-16.04
243.992	-18.09
244.209	76.12
244.426	248.15
244.643	35.16
244.86	65.88
245.078	139.6
245.295	119.12
245.512	22.87
245.729	-1.71
245.946	108.88
246.163	88.4
246.38	-7.85
246.597	45.4
246.814	49.49
247.031	45.4
247.248	76.12
247.464	174.42
247.681	76.12
247.898	2.39
248.115	190.8
248.332	51.54
248.549	119.12
248.766	143.7
248.983	74.07
249.2	82.26
249.417	155.99
249.633	39.25
249.85	96.6
250.067	22.87
250.284	6.49
250.501	61.78
250.717	98.64
250.934	18.77
251.151	47.44
251.368	37.2
251.585	16.73
251.801	92.5
252.018	0.34
252.235	137.56
252.451	10.58
252.668	133.46
252.885	115.03
253.102	24.92
253.318	61.78
253.535	14.68
253.752	24.92
253.968	26.96
254.185	-30.38
254.401	80.21
254.618	104.79
254.835	-57
255.051	205.14
255.268	162.13
255.484	88.4
255.701	-7.85
255.917	125.27
256.134	18.77
256.351	112.98
256.567	-32.43
256.784	-42.67
257	-108.2
257.217	127.32
257.433	43.35
257.65	51.54
257.866	153.94
258.082	-20.14
258.299	-11.95
258.515	47.44
258.732	72.02
258.948	-26.28
259.165	16.73
259.381	-61.1
259.597	108.88
259.814	33.11
260.03	12.63
260.246	88.4
260.463	135.51
260.679	108.88
260.895	74.07
261.112	45.4
261.328	117.08
261.544	53.59
261.761	178.51
261.977	43.35
262.193	-20.14
262.409	106.84
262.626	86.36
262.842	102.74
263.058	31.06
263.274	149.84
263.49	18.77
263.707	139.6
263.923	133.46
264.139	-26.28
264.355	51.54
264.571	55.64
264.787	63.83
265.004	110.93
265.22	0.34
265.436	-5.8
265.652	33.11
265.868	74.07
266.084	16.73
266.3	20.82
266.516	-61.1
266.732	12.63
266.948	61.78
267.164	61.78
267.38	168.27
267.596	100.69
267.812	119.12
268.028	123.22
268.244	-40.62
268.46	104.79
268.676	110.93
268.892	59.73
269.108	80.21
269.324	-28.33
269.54	-61.1
269.756	92.5
269.972	-7.85
270.188	16.73
270.403	-13.99
270.619	57.68
270.835	186.71
271.051	112.98
271.267	8.53
271.483	43.35
271.698	59.73
271.914	143.7
272.13	82.26
272.346	41.3
272.562	24.92
272.777	137.56
272.993	33.11
273.209	31.06
273.425	104.79
273.64	-42.67
273.856	147.8
274.072	14.68
274.287	-13.99
274.503	102.74
274.719	166.23
274.934	-42.67
275.15	-22.19
275.366	31.06
275.581	0.34
275.797	82.26
276.012	104.79
276.228	16.73
276.444	20.82
276.659	112.98
276.875	51.54
277.09	41.3
277.306	14.68
277.521	43.35
277.737	35.16
277.952	94.55
278.168	14.68
278.383	35.16
278.599	78.16
278.814	207.19
279.03	22.87
279.245	205.14
279.461	53.59
279.676	108.88
279.892	-36.52
280.107	-1.71
280.322	-38.57
280.538	86.36
280.753	8.53
280.969	55.64
281.184	80.21
281.399	160.08
281.615	94.55
281.83	63.83
282.045	-22.19
282.26	-63.15
282.476	18.77
282.691	72.02
282.906	94.55
283.122	88.4
283.337	-13.99
283.552	102.74
283.767	43.35
283.983	72.02
284.198	84.31
284.413	35.16
284.628	-40.62
284.843	10.58
285.058	115.03
285.274	-22.19
285.489	-34.47
285.704	194.9
285.919	4.44
286.134	69.97
286.349	80.21
286.564	2.39
286.779	153.94
286.995	69.97
287.21	-28.33
287.425	108.88
287.64	4.44
287.855	33.11
288.07	-67.24
288.285	117.08
288.5	121.17
288.715	137.56
288.93	59.73
289.145	-34.47
289.36	80.21
289.575	35.16
289.79	133.46
290.004	61.78
290.219	164.18
290.434	0.34
290.649	39.25
290.864	18.77
291.079	41.3
291.294	72.02
291.509	117.08
291.724	10.58
291.938	35.16
292.153	59.73
292.368	82.26
292.583	51.54
292.798	45.4
293.012	125.27
293.227	86.36
293.442	-20.14
293.657	82.26
293.871	186.71
294.086	100.69
294.301	168.27
294.516	117.08
294.73	37.2
294.945	29.01
295.16	61.78
295.374	127.32
295.589	131.41
295.804	35.16
296.018	100.69
296.233	190.8
296.447	51.54
296.662	0.34
296.877	135.51
297.091	104.79
297.306	22.87
297.52	78.16
297.735	98.64
297.949	67.92
298.164	-13.99
298.378	67.92
298.593	18.77
298.807	-3.75
299.022	94.55
299.236	164.18
299.451	6.49
299.665	-20.14
299.88	57.68
300.094	59.73
300.309	31.06
300.523	115.03
300.737	14.68
300.952	102.74
301.166	98.64
301.381	-46.76
301.595	74.07
301.809	33.11
302.024	65.88
302.238	20.82
302.452	100.69
302.667	-5.8
302.881	233.81
303.095	172.37
303.309	98.64
303.524	33.11
303.738	63.83
303.952	-26.28
304.166	117.08
304.381	-67.24
304.595	112.98
304.809	37.2
305.023	104.79
305.237	31.06
305.452	121.17
305.666	153.94
305.88	123.22
306.094	61.78
306.308	47.44
306.522	96.6
306.736	41.3
306.95	153.94
307.164	88.4
307.379	33.11
307.593	178.51
307.807	186.71
308.021	135.51
308.235	98.64
308.449	-97.96
308.663	41.3
308.877	223.57
309.091	76.12
309.305	104.79
309.519	-24.23
309.733	108.88
309.947	-40.62
310.161	49.49
310.374	129.36
310.588	160.08
310.802	47.44
311.016	-22.19
311.23	47.44
311.444	-34.47
311.658	63.83
311.872	104.79
312.085	110.93
312.299	160.08
312.513	92.5
312.727	127.32
312.941	-40.62
313.154	137.56
313.368	24.92
313.582	31.06
313.796	110.93
314.009	90.45
314.223	151.89
314.437	31.06
314.651	137.56
314.864	4.44
315.078	26.96
315.292	41.3
315.505	41.3
315.719	86.36
315.933	41.3
316.146	-77.48
316.36	6.49
316.573	190.8
316.787	88.4
317.001	-18.09
317.214	-59.05
317.428	96.6
317.641	-11.95
317.855	22.87
318.068	-9.9
318.282	35.16
318.495	229.71
318.709	94.55
318.922	65.88
319.136	76.12
319.349	47.44
319.563	-87.72
319.776	112.98
319.99	-151.21
320.203	69.97
320.417	-9.9
320.63	145.75
320.843	121.17
321.057	88.4
321.27	65.88
321.483	80.21
321.697	129.36
321.91	39.25
322.124	133.46
322.337	102.74
322.55	16.73
322.763	72.02
322.977	39.25
323.19	-46.76
323.403	41.3
323.617	158.03
323.83	112.98
324.043	-11.95
324.256	35.16
324.469	-28.33
324.683	188.75
324.896	33.11
325.109	47.44
325.322	-34.47
325.535	164.18
325.748	127.32
325.962	86.36
326.175	59.73
326.388	57.68
326.601	117.08
326.814	39.25
327.027	67.92
327.24	201.04
327.453	-116.39
327.666	104.79
327.879	196.95
328.092	98.64
328.305	102.74
328.518	53.59
328.731	74.07
328.944	6.49
329.157	72.02
329.37	39.25
329.583	170.32
329.796	139.6
330.009	-63.15
330.222	145.75
330.435	88.4
330.648	39.25
330.861	78.16
331.073	43.35
331.286	57.68
331.499	37.2
331.712	51.54
331.925	76.12
332.138	-13.99
332.35	35.16
332.563	51.54
332.776	203.09
332.989	0.34
333.202	-20.14
333.414	92.5
333.627	72.02
333.84	80.21
334.053	51.54
334.265	22.87
334.478	18.77
334.691	57.68
334.903	61.78
335.116	-42.67
335.329	-5.8
335.541	65.88
335.754	211.28
335.966	78.16
336.179	18.77
336.392	33.11
336.604	86.36
336.817	127.32
337.029	41.3
337.242	61.78
337.454	110.93
337.667	94.55
337.88	172.37
338.092	119.12
338.305	8.53
338.517	-20.14
338.729	166.23
338.942	108.88
339.154	-40.62
339.367	-95.91
339.579	94.55
339.792	16.73
340.004	69.97
340.217	72.02
340.429	96.6
340.641	65.88
340.854	-36.52
341.066	84.31
341.278	127.32
341.491	207.19
341.703	125.27
341.915	10.58
342.128	133.46
342.34	141.65
342.552	-44.71
342.764	45.4
342.977	2.39
343.189	74.07
343.401	72.02
343.613	-24.23
343.826	-13.99
344.038	59.73
344.25	69.97
344.462	-28.33
344.674	55.64
344.886	88.4
345.099	127.32
345.311	121.17
345.523	29.01
345.735	-97.96
345.947	49.49
346.159	100.69
346.371	45.4
346.583	123.22
346.795	201.04
347.007	90.45
347.219	86.36
347.431	67.92
347.643	135.51
347.855	45.4
348.067	209.23
348.279	20.82
348.491	16.73
348.703	37.2
348.915	4.44
349.127	31.06
349.339	57.68
349.551	55.64
349.763	98.64
349.975	37.2
350.187	196.95
350.399	129.36
350.61	151.89
350.822	86.36
351.034	61.78
351.246	100.69
351.458	102.74
351.669	88.4
351.881	221.52
352.093	141.65
352.305	104.79
352.517	33.11
352.728	219.47
352.94	125.27
353.152	80.21
353.363	4.44
353.575	45.4
353.787	166.23
353.999	76.12
354.21	166.23
354.422	8.53
354.633	110.93
354.845	69.97
355.057	63.83
355.268	139.6
355.48	84.31
355.692	-79.53
355.903	110.93
356.115	22.87
356.326	-85.67
356.538	188.75
356.749	82.26
356.961	235.86
357.172	69.97
357.384	-9.9
357.595	242
357.807	0.34
358.018	6.49
358.23	88.4
358.441	110.93
358.653	106.84
358.864	24.92
359.075	12.63
359.287	43.35
359.498	125.27
359.709	76.12
359.921	110.93
360.132	135.51
360.344	61.78
360.555	-5.8
360.766	76.12
360.977	4.44
361.189	158.03
361.4	55.64
361.611	63.83
361.823	188.75
362.034	39.25
362.245	-50.86
362.456	-18.09
362.667	72.02
362.879	-18.09
363.09	33.11
363.301	67.92
363.512	35.16
363.723	24.92
363.935	33.11
364.146	186.71
364.357	-28.33
364.568	78.16
364.779	-52.91
364.99	125.27
365.201	-7.85
365.412	121.17
365.623	-1.71
365.834	51.54
366.045	22.87
366.256	53.59
366.467	86.36
366.678	53.59
366.889	121.17
367.1	-26.28
367.311	78.16
367.522	31.06
367.733	141.65
367.944	69.97
368.155	-18.09
368.366	16.73
368.577	184.66
368.788	123.22
368.999	31.06
369.209	160.08
369.42	221.52
369.631	186.71
369.842	119.12
370.053	14.68
370.264	110.93
370.474	-18.09
370.685	84.31
370.896	102.74
371.107	108.88
371.317	78.16
371.528	53.59
371.739	86.36
371.95	125.27
372.16	137.56
372.371	-61.1
372.582	33.11
372.792	76.12
373.003	45.4
373.214	133.46
373.424	155.99
373.635	0.34
373.846	172.37
374.056	102.74
374.267	57.68
374.477	135.51
374.688	-32.43
374.898	16.73
375.109	102.74
375.319	78.16
375.53	168.27
375.74	74.07
375.951	0.34
376.161	55.64
376.372	133.46
376.582	33.11
376.793	108.88
377.003	-24.23
377.214	-11.95
377.424	115.03
377.635	6.49
377.845	-54.95
378.055	209.23
378.266	-3.75
378.476	31.06
378.686	43.35
378.897	72.02
379.107	139.6
379.317	57.68
379.528	55.64
379.738	194.9
379.948	-18.09
380.158	100.69
380.369	67.92
380.579	78.16
380.789	18.77
380.999	112.98
381.21	158.03
381.42	192.85
381.63	29.01
381.84	133.46
382.05	149.84
382.261	147.8
382.471	143.7
382.681	47.44
382.891	145.75
383.101	108.88
383.311	-3.75
383.521	20.82
383.731	67.92
383.941	145.75
384.151	35.16
384.361	51.54
384.571	84.31
384.781	110.93
384.991	217.43
385.201	135.51
385.411	80.21
385.621	53.59
385.831	96.6
386.041	33.11
386.251	-26.28
386.461	176.47
386.671	29.01
386.881	82.26
387.091	37.2
387.301	176.47
387.511	82.26
387.72	98.64
387.93	117.08
388.14	-18.09
388.35	153.94
388.56	112.98
388.769	158.03
388.979	24.92
389.189	-54.95
389.399	72.02
389.609	158.03
389.818	92.5
390.028	153.94
390.238	108.88
390.447	-9.9
390.657	115.03
390.867	6.49
391.076	4.44
391.286	55.64
391.496	-65.19
391.705	98.64
391.915	110.93
392.125	117.08
392.334	24.92
392.544	69.97
392.753	108.88
392.963	45.4
393.172	39.25
393.382	-1.71
393.591	254.29
393.801	29.01
394.01	59.73
394.22	102.74
394.429	37.2
394.639	55.64
394.848	178.51
395.058	100.69
395.267	108.88
395.477	129.36
395.686	207.19
395.895	209.23
396.105	194.9
396.314	178.51
396.524	51.54
396.733	-13.99
396.942	174.42
397.152	145.75
397.361	69.97
397.57	106.84
397.78	57.68
397.989	129.36
398.198	233.81
398.407	121.17
398.617	-1.71
398.826	69.97
399.035	82.26
399.244	137.56
399.453	45.4
399.663	69.97
399.872	43.35
400.081	67.92
400.29	211.28
400.499	43.35
400.708	145.75
400.917	-16.04
401.127	106.84
401.336	-16.04
401.545	190.8
401.754	166.23
401.963	82.26
402.172	69.97
402.381	2.39
402.59	76.12
402.799	22.87
403.008	158.03
403.217	137.56
403.426	115.03
403.635	-83.63
403.844	61.78
404.053	-11.95
404.262	37.2
404.471	188.75
404.68	37.2
404.888	69.97
405.097	94.55
405.306	63.83
405.515	90.45
405.724	35.16
405.933	133.46
406.142	43.35
406.35	139.6
406.559	72.02
406.768	182.61
406.977	129.36
407.185	94.55
407.394	112.98
407.603	49.49
407.812	139.6
408.02	110.93
408.229	35.16
408.438	80.21
408.646	4.44
408.855	14.68
409.064	158.03
409.272	10.58
409.481	94.55
409.69	6.49
409.898	-38.57
410.107	117.08
410.315	20.82
410.524	6.49
410.733	84.31
410.941	12.63
411.15	158.03
411.358	153.94
411.567	233.81
411.775	8.53
411.984	137.56
412.192	133.46
412.401	-9.9
412.609	145.75
412.818	184.66
413.026	65.88
413.234	63.83
413.443	47.44
413.651	-54.95
413.86	55.64
414.068	123.22
414.276	192.85
414.485	20.82
414.693	102.74
414.901	59.73
415.11	186.71
415.318	94.55
415.526	104.79
415.734	160.08
415.943	119.12
416.151	168.27
416.359	72.02
416.567	133.46
416.776	219.47
416.984	117.08
417.192	166.23
417.4	14.68
417.608	-20.14
417.817	-28.33
418.025	110.93
418.233	242
418.441	-54.95
418.649	-1.71
418.857	10.58
419.065	205.14
419.273	33.11
419.481	0.34
419.689	90.45
419.897	26.96
420.105	-67.24
420.313	127.32
420.521	274.77
420.729	141.65
420.937	104.79
421.145	-13.99
421.353	65.88
421.561	76.12
421.769	133.46
421.977	10.58
422.185	147.8
422.393	6.49
422.601	137.56
422.809	65.88
423.017	29.01
423.224	108.88
423.432	76.12
423.64	108.88
423.848	143.7
424.056	86.36
424.263	233.81
424.471	178.51
424.679	147.8
424.887	8.53
425.094	231.76
425.302	57.68
425.51	4.44
425.718	96.6
425.925	119.12
426.133	26.96
426.341	229.71
426.548	131.41
426.756	72.02
426.964	100.69
427.171	33.11
427.379	145.75
427.586	-3.75
427.794	137.56
428.001	86.36
428.209	151.89
428.417	217.43
428.624	102.74
428.832	174.42
429.039	123.22
429.247	53.59
429.454	190.8
429.662	295.25
429.869	135.51
430.076	182.61
430.284	178.51
430.491	229.71
430.699	211.28
430.906	278.87
431.114	196.95
431.321	182.61
431.528	151.89
431.736	207.19
431.943	100.69
432.15	160.08
432.358	278.87
432.565	342.35
432.772	74.07
432.979	229.71
433.187	112.98
433.394	268.63
433.601	158.03
433.808	299.34
434.016	321.87
434.223	196.95
434.43	176.47
434.637	244.05
434.844	301.39
435.052	244.05
435.259	354.64
435.466	344.4
435.673	280.91
435.88	227.67
436.087	368.98
436.294	350.54
436.501	436.56
436.708	266.58
436.915	350.54
437.122	452.94
437.329	258.39
437.537	358.74
437.743	405.84
437.95	428.37
438.157	338.26
438.364	330.06
438.571	379.22
438.778	526.67
438.985	444.75
439.192	547.15
439.399	479.57
439.606	547.15
439.813	502.09
440.02	655.69
440.227	676.17
440.433	627.02
440.64	624.97
440.847	579.92
441.054	653.64
441.261	696.65
441.467	682.31
441.674	655.69
441.881	805.19
442.088	674.12
442.294	747.85
442.501	844.1
442.708	872.78
442.914	932.17
443.121	874.82
443.328	913.74
443.534	1046.85
443.741	1040.71
443.948	883.02
444.154	1165.64
444.361	1272.13
444.568	1175.88
444.774	1046.85
444.981	1128.77
445.187	1313.09
445.394	1345.86
445.6	1347.9
445.807	1435.97
446.013	1409.34
446.22	1374.53
446.426	1542.46
446.633	1651
446.839	1800.51
447.046	1532.22
447.252	1837.37
447.459	1773.88
447.665	1730.87
447.871	1993.01
448.078	2064.69
448.284	2015.54
448.491	2150.71
448.697	2234.68
448.903	2292.02
449.11	2361.65
449.316	2359.6
449.522	2562.35
449.728	2611.5
449.935	2683.18
450.141	2720.04
450.347	3066.15
450.553	2789.67
450.76	3037.48
450.966	3238.18
451.172	3238.18
451.378	3299.62
451.584	3565.85
451.791	3811.61
451.997	3649.82
452.203	3918.11
452.409	4086.04
452.615	4192.53
452.821	4221.2
453.027	4090.13
453.233	4759.82
453.44	4595.98
453.646	5009.67
453.852	5081.35
454.058	5191.94
454.264	5456.13
454.47	5775.61
454.676	5755.13
454.882	6230.26
455.088	5968.12
455.294	6390
455.5	6652.14
455.705	7088.36
455.911	7014.63
456.117	7506.15
456.323	7526.63
456.529	7579.87
456.735	8116.44
456.941	8544.47
457.147	8853.71
457.352	9117.9
457.558	9253.06
457.764	9971.9
457.97	10064.06
458.176	10533.04
458.381	10909.87
458.587	11192.49
458.793	11792.55
458.999	11487.4
459.204	13207.69
459.41	13488.26
459.616	13486.22
459.821	14352.51
460.027	14921.84
460.233	15757.41
460.438	15521.9
460.644	16601.18
460.85	16894.04
461.055	17410.12
461.261	18135.1
461.466	17879.11
461.672	18257.98
461.878	20418.59
462.083	20041.76
462.289	20490.27
462.494	21415.95
462.7	21784.58
462.905	22075.4
463.111	23715.82
463.316	24641.5
463.522	25153.49
463.727	26087.37
463.932	27232.18
464.138	27807.66
464.343	28948.38
464.549	28878.75
464.754	31649.65
464.959	31895.41
465.165	32655.2
465.37	32348.01
465.575	32368.49
465.781	34330.44
465.986	35503.93
466.191	35241.79
466.397	35557.17
466.602	34903.87
466.807	36540.2
467.012	37046.05
467.218	37766.93
467.423	37889.81
467.628	39026.43
467.833	40877.8
