Data from USB4F104151__42__10-25-03-036.txt Node

Date: Wed Feb 26 10:25:03 EST 2025
User: louis
Spectrometer: USB4F10415
Trigger mode: 4
Integration Time (sec): 1.000000E-1
Scans to average: 1
Electric dark correction enabled: true
Nonlinearity correction enabled: false
Boxcar width: 0
XAxis mode: Wavelengths
Number of Pixels in Spectrum: 3648
>>>>>Begin Spectral Data<<<<<
178.204	-353.79
178.424	-353.79
178.644	-353.79
178.864	-413.18
179.084	-333.31
179.304	6.66
179.524	-50.69
179.744	-15.87
179.964	35.33
180.184	59.9
180.404	18.94
180.624	31.23
180.844	-3.58
181.064	-48.64
181.283	-11.78
181.503	-48.64
181.723	27.14
181.943	-83.45
182.163	221.69
182.383	-56.83
182.602	121.34
182.822	201.21
183.042	84.48
183.262	-7.68
183.482	59.9
183.701	68.09
183.921	47.62
184.141	-34.3
184.361	82.43
184.58	59.9
184.8	37.38
185.02	-19.97
185.239	147.97
185.459	53.76
185.679	119.29
185.898	-28.16
186.118	31.23
186.338	25.09
186.557	111.1
186.777	-36.35
186.997	55.81
187.216	27.14
187.436	225.79
187.655	27.14
187.875	94.72
188.095	14.85
188.314	102.91
188.534	107.01
188.753	-99.84
188.973	33.28
189.192	92.67
189.412	27.14
189.631	35.33
189.851	72.19
190.07	141.82
190.29	-62.98
190.509	33.28
190.729	23.04
190.948	197.12
191.168	297.47
191.387	33.28
191.607	8.7
191.826	104.96
192.045	-15.87
192.265	25.09
192.484	43.52
192.704	39.42
192.923	-69.12
193.142	135.68
193.362	94.72
193.581	174.59
193.8	41.47
194.02	143.87
194.239	31.23
194.458	80.38
194.678	4.61
194.897	-7.68
195.116	86.53
195.335	47.62
195.555	104.96
195.774	29.18
195.993	102.91
196.212	14.85
196.432	-30.21
196.651	8.7
196.87	94.72
197.089	225.79
197.308	88.57
197.528	51.71
197.747	-1.54
197.966	107.01
198.185	158.21
198.404	-46.59
198.623	115.2
198.842	104.96
199.062	96.77
199.281	92.67
199.5	45.57
199.719	147.97
199.938	139.77
200.157	68.09
200.376	117.25
200.595	53.76
200.814	98.81
201.033	4.61
201.252	178.69
201.471	127.49
201.69	92.67
201.909	-26.11
202.128	41.47
202.347	111.1
202.566	107.01
202.785	-42.5
203.004	-95.74
203.223	291.32
203.442	29.18
203.661	-44.54
203.879	45.57
204.098	84.48
204.317	-38.4
204.536	143.87
204.755	90.62
204.974	64
205.193	-3.58
205.411	98.81
205.63	156.16
205.849	86.53
206.068	29.18
206.287	20.99
206.505	131.58
206.724	39.42
206.943	27.14
207.162	23.04
207.381	102.91
207.599	59.9
207.818	18.94
208.037	-15.87
208.255	41.47
208.474	25.09
208.693	-15.87
208.911	4.61
209.13	80.38
209.349	111.1
209.567	121.34
209.786	49.66
210.005	98.81
210.223	115.2
210.442	-151.04
210.661	49.66
210.879	-28.16
211.098	16.9
211.316	16.9
211.535	137.73
211.753	0.51
211.972	119.29
212.191	12.8
212.409	27.14
212.628	102.91
212.846	-15.87
213.065	64
213.283	84.48
213.502	35.33
213.72	66.05
213.938	33.28
214.157	43.52
214.375	174.59
214.594	10.75
214.812	127.49
215.031	12.8
215.249	25.09
215.467	49.66
215.686	61.95
215.904	23.04
216.122	150.01
216.341	92.67
216.559	90.62
216.778	41.47
216.996	84.48
217.214	-60.93
217.432	8.7
217.651	-48.64
217.869	-9.73
218.087	64
218.306	27.14
218.524	86.53
218.742	39.42
218.96	113.15
219.179	39.42
219.397	82.43
219.615	166.4
219.833	170.49
220.051	-28.16
220.27	61.95
220.488	51.71
220.706	29.18
220.924	-5.63
221.142	-69.12
221.36	66.05
221.578	90.62
221.796	27.14
222.015	80.38
222.233	25.09
222.451	223.74
222.669	-46.59
222.887	94.72
223.105	-36.35
223.323	-5.63
223.541	-38.4
223.759	57.86
223.977	-3.58
224.195	231.93
224.413	61.95
224.631	37.38
224.849	111.1
225.067	330.23
225.285	-44.54
225.503	49.66
225.721	-97.79
225.939	90.62
226.157	59.9
226.375	264.7
226.592	49.66
226.81	20.99
227.028	78.33
227.246	150.01
227.464	37.38
227.682	80.38
227.9	74.24
228.117	127.49
228.335	115.2
228.553	59.9
228.771	6.66
228.989	20.99
229.206	39.42
229.424	4.61
229.642	64
229.86	-62.98
230.077	188.93
230.295	25.09
230.513	129.53
230.731	53.76
230.948	66.05
231.166	188.93
231.384	47.62
231.601	-44.54
231.819	145.92
232.037	51.71
232.254	-62.98
232.472	98.81
232.689	23.04
232.907	137.73
233.125	86.53
233.342	-11.78
233.56	-1.54
233.777	8.7
233.995	41.47
234.213	113.15
234.43	23.04
234.648	16.9
234.865	51.71
235.083	59.9
235.3	25.09
235.518	66.05
235.735	107.01
235.953	61.95
236.17	53.76
236.388	12.8
236.605	49.66
236.822	72.19
237.04	164.35
237.257	137.73
237.475	-11.78
237.692	16.9
237.909	74.24
238.127	14.85
238.344	72.19
238.562	86.53
238.779	-65.02
238.996	-60.93
239.214	-7.68
239.431	137.73
239.648	31.23
239.865	143.87
240.083	64
240.3	-26.11
240.517	-11.78
240.735	109.05
240.952	131.58
241.169	74.24
241.386	61.95
241.603	94.72
241.821	-69.12
242.038	20.99
242.255	107.01
242.472	-91.65
242.689	121.34
242.907	98.81
243.124	92.67
243.341	2.56
243.558	-40.45
243.775	-15.87
243.992	-75.26
244.209	72.19
244.426	129.53
244.643	53.76
244.86	80.38
245.078	94.72
245.295	55.81
245.512	-19.97
245.729	-91.65
245.946	61.95
246.163	4.61
246.38	57.86
246.597	78.33
246.814	49.66
247.031	20.99
247.248	25.09
247.464	107.01
247.681	123.39
247.898	20.99
248.115	125.44
248.332	25.09
248.549	195.07
248.766	209.4
248.983	66.05
249.2	121.34
249.417	78.33
249.633	-13.82
249.85	68.09
250.067	51.71
250.284	96.77
250.501	150.01
250.717	102.91
250.934	-7.68
251.151	-9.73
251.368	68.09
251.585	74.24
251.801	59.9
252.018	-28.16
252.235	178.69
252.451	-32.26
252.668	12.8
252.885	104.96
253.102	80.38
253.318	76.29
253.535	37.38
253.752	-24.06
253.968	12.8
254.185	-93.69
254.401	72.19
254.618	61.95
254.835	-22.02
255.051	96.77
255.268	61.95
255.484	109.05
255.701	23.04
255.917	27.14
256.134	18.94
256.351	-7.68
256.567	-32.26
256.784	31.23
257	-26.11
257.217	84.48
257.433	72.19
257.65	92.67
257.866	170.49
258.082	-126.46
258.299	25.09
258.515	80.38
258.732	6.66
258.948	27.14
259.165	107.01
259.381	25.09
259.597	88.57
259.814	80.38
260.03	53.76
260.246	-48.64
260.463	115.2
260.679	156.16
260.895	66.05
261.112	70.14
261.328	41.47
261.544	-65.02
261.761	168.45
261.977	33.28
262.193	-11.78
262.409	90.62
262.626	90.62
262.842	66.05
263.058	-46.59
263.274	66.05
263.49	133.63
263.707	125.44
263.923	88.57
264.139	-48.64
264.355	94.72
264.571	125.44
264.787	90.62
265.004	135.68
265.22	59.9
265.436	-15.87
265.652	57.86
265.868	102.91
266.084	-26.11
266.3	88.57
266.516	-24.06
266.732	115.2
266.948	0.51
267.164	-54.78
267.38	80.38
267.596	49.66
267.812	166.4
268.028	33.28
268.244	49.66
268.46	53.76
268.676	0.51
268.892	76.29
269.108	59.9
269.324	-5.63
269.54	-46.59
269.756	61.95
269.972	-75.26
270.188	31.23
270.403	-34.3
270.619	-1.54
270.835	160.25
271.051	33.28
271.267	14.85
271.483	4.61
271.698	90.62
271.914	-44.54
272.13	27.14
272.346	-22.02
272.562	127.49
272.777	162.3
272.993	55.81
273.209	72.19
273.425	70.14
273.64	-24.06
273.856	109.05
274.072	51.71
274.287	43.52
274.503	156.16
274.719	96.77
274.934	37.38
275.15	-50.69
275.366	-9.73
275.581	18.94
275.797	64
276.012	102.91
276.228	16.9
276.444	23.04
276.659	139.77
276.875	-81.41
277.09	84.48
277.306	37.38
277.521	133.63
277.737	66.05
277.952	111.1
278.168	-24.06
278.383	14.85
278.599	4.61
278.814	41.47
279.03	47.62
279.245	139.77
279.461	104.96
279.676	139.77
279.892	-36.35
280.107	-46.59
280.322	-40.45
280.538	31.23
280.753	23.04
280.969	111.1
281.184	10.75
281.399	141.82
281.615	25.09
281.83	23.04
282.045	-65.02
282.26	2.56
282.476	109.05
282.691	162.3
282.906	14.85
283.122	12.8
283.337	33.28
283.552	158.21
283.767	-22.02
283.983	137.73
284.198	59.9
284.413	61.95
284.628	-75.26
284.843	66.05
285.058	86.53
285.274	4.61
285.489	84.48
285.704	78.33
285.919	-5.63
286.134	107.01
286.349	76.29
286.564	4.61
286.779	135.68
286.995	121.34
287.21	-71.17
287.425	125.44
287.64	-5.63
287.855	10.75
288.07	-9.73
288.285	86.53
288.5	117.25
288.715	86.53
288.93	-24.06
289.145	41.47
289.36	125.44
289.575	-26.11
289.79	121.34
290.004	-7.68
290.219	90.62
290.434	-3.58
290.649	98.81
290.864	47.62
291.079	2.56
291.294	14.85
291.509	86.53
291.724	45.57
291.938	-36.35
292.153	121.34
292.368	23.04
292.583	135.68
292.798	156.16
293.012	47.62
293.227	45.57
293.442	-9.73
293.657	123.39
293.871	92.67
294.086	92.67
294.301	252.41
294.516	176.64
294.73	68.09
294.945	57.86
295.16	-36.35
295.374	115.2
295.589	102.91
295.804	61.95
296.018	68.09
296.233	147.97
296.447	51.71
296.662	39.42
296.877	166.4
297.091	111.1
297.306	4.61
297.52	43.52
297.735	147.97
297.949	45.57
298.164	6.66
298.378	43.52
298.593	51.71
298.807	-15.87
299.022	10.75
299.236	137.73
299.451	27.14
299.665	98.81
299.88	35.33
300.094	55.81
300.309	37.38
300.523	18.94
300.737	-38.4
300.952	55.81
301.166	90.62
301.381	12.8
301.595	78.33
301.809	-62.98
302.024	0.51
302.238	14.85
302.452	94.72
302.667	53.76
302.881	193.02
303.095	131.58
303.309	59.9
303.524	61.95
303.738	10.75
303.952	6.66
304.166	18.94
304.381	-60.93
304.595	190.97
304.809	61.95
305.023	-19.97
305.237	57.86
305.452	23.04
305.666	129.53
305.88	160.25
306.094	137.73
306.308	27.14
306.522	86.53
306.736	59.9
306.95	27.14
307.164	74.24
307.379	-22.02
307.593	225.79
307.807	90.62
308.021	86.53
308.235	84.48
308.449	-110.08
308.663	57.86
308.877	203.26
309.091	27.14
309.305	37.38
309.519	-71.17
309.733	176.64
309.947	-99.84
310.161	49.66
310.374	90.62
310.588	72.19
310.802	-77.31
311.016	-17.92
311.23	115.2
311.444	-36.35
311.658	68.09
311.872	104.96
312.085	96.77
312.299	70.14
312.513	152.06
312.727	37.38
312.941	-38.4
313.154	51.71
313.368	4.61
313.582	88.57
313.796	51.71
314.009	29.18
314.223	96.77
314.437	25.09
314.651	66.05
314.864	78.33
315.078	6.66
315.292	35.33
315.505	61.95
315.719	104.96
315.933	70.14
316.146	-19.97
316.36	-13.82
316.573	129.53
316.787	98.81
317.001	76.29
317.214	-48.64
317.428	119.29
317.641	18.94
317.855	-62.98
318.068	59.9
318.282	78.33
318.495	203.26
318.709	137.73
318.922	25.09
319.136	115.2
319.349	92.67
319.563	43.52
319.776	25.09
319.99	-118.27
320.203	111.1
320.417	0.51
320.63	125.44
320.843	143.87
321.057	78.33
321.27	74.24
321.483	61.95
321.697	143.87
321.91	-3.58
322.124	121.34
322.337	102.91
322.55	12.8
322.763	41.47
322.977	-50.69
323.19	14.85
323.403	53.76
323.617	104.96
323.83	127.49
324.043	82.43
324.256	92.67
324.469	-34.3
324.683	51.71
324.896	4.61
325.109	6.66
325.322	-22.02
325.535	193.02
325.748	96.77
325.962	49.66
326.175	47.62
326.388	80.38
326.601	59.9
326.814	35.33
327.027	33.28
327.24	160.25
327.453	-34.3
327.666	147.97
327.879	176.64
328.092	57.86
328.305	31.23
328.518	96.77
328.731	-13.82
328.944	66.05
329.157	45.57
329.37	59.9
329.583	147.97
329.796	125.44
330.009	-32.26
330.222	121.34
330.435	147.97
330.648	47.62
330.861	74.24
331.073	125.44
331.286	70.14
331.499	10.75
331.712	14.85
331.925	59.9
332.138	-1.54
332.35	219.64
332.563	-30.21
332.776	154.11
332.989	-11.78
333.202	2.56
333.414	-11.78
333.627	76.29
333.84	29.18
334.053	-5.63
334.265	-44.54
334.478	-42.5
334.691	84.48
334.903	31.23
335.116	-34.3
335.329	2.56
335.541	72.19
335.754	156.16
335.966	12.8
336.179	90.62
336.392	-7.68
336.604	57.86
336.817	156.16
337.029	113.15
337.242	-38.4
337.454	66.05
337.667	-9.73
337.88	70.14
338.092	41.47
338.305	51.71
338.517	-1.54
338.729	82.43
338.942	145.92
339.154	8.7
339.367	35.33
339.579	145.92
339.792	-19.97
340.004	86.53
340.217	29.18
340.429	31.23
340.641	-73.21
340.854	-7.68
341.066	18.94
341.278	121.34
341.491	162.3
341.703	72.19
341.915	-32.26
342.128	37.38
342.34	53.76
342.552	-46.59
342.764	45.57
342.977	-19.97
343.189	156.16
343.401	117.25
343.613	-69.12
343.826	27.14
344.038	-7.68
344.25	150.01
344.462	35.33
344.674	82.43
344.886	94.72
345.099	78.33
345.311	68.09
345.523	37.38
345.735	-69.12
345.947	29.18
346.159	80.38
346.371	33.28
346.583	41.47
346.795	217.6
347.007	66.05
347.219	16.9
347.431	49.66
347.643	107.01
347.855	74.24
348.067	82.43
348.279	-5.63
348.491	-3.58
348.703	127.49
348.915	33.28
349.127	14.85
349.339	64
349.551	53.76
349.763	86.53
349.975	41.47
350.187	41.47
350.399	197.12
350.61	141.82
350.822	25.09
351.034	80.38
351.246	-3.58
351.458	133.63
351.669	76.29
351.881	74.24
352.093	115.2
352.305	74.24
352.517	37.38
352.728	141.82
352.94	156.16
353.152	68.09
353.363	-17.92
353.575	27.14
353.787	219.64
353.999	125.44
354.21	129.53
354.422	-62.98
354.633	23.04
354.845	98.81
355.057	61.95
355.268	80.38
355.48	111.1
355.692	18.94
355.903	53.76
356.115	-42.5
356.326	-114.17
356.538	131.58
356.749	92.67
356.961	156.16
357.172	27.14
357.384	-56.83
357.595	225.79
357.807	10.75
358.018	-1.54
358.23	59.9
358.441	205.31
358.653	104.96
358.864	49.66
359.075	33.28
359.287	104.96
359.498	64
359.709	70.14
359.921	20.99
360.132	68.09
360.344	-19.97
360.555	76.29
360.766	76.29
360.977	80.38
361.189	109.05
361.4	53.76
361.611	172.54
361.823	111.1
362.034	72.19
362.245	-50.69
362.456	82.43
362.667	31.23
362.879	47.62
363.09	35.33
363.301	61.95
363.512	57.86
363.723	-5.63
363.935	-17.92
364.146	6.66
364.357	-11.78
364.568	61.95
364.779	-101.89
364.99	133.63
365.201	8.7
365.412	76.29
365.623	-7.68
365.834	51.71
366.045	57.86
366.256	133.63
366.467	68.09
366.678	90.62
366.889	12.8
367.1	-30.21
367.311	139.77
367.522	4.61
367.733	82.43
367.944	172.54
368.155	41.47
368.366	143.87
368.577	154.11
368.788	133.63
368.999	-48.64
369.209	72.19
369.42	201.21
369.631	227.84
369.842	133.63
370.053	49.66
370.264	119.29
370.474	31.23
370.685	104.96
370.896	51.71
371.107	162.3
371.317	88.57
371.528	25.09
371.739	88.57
371.95	88.57
372.16	74.24
372.371	41.47
372.582	-30.21
372.792	121.34
373.003	70.14
373.214	61.95
373.424	82.43
373.635	-62.98
373.846	115.2
374.056	68.09
374.267	61.95
374.477	59.9
374.688	-73.21
374.898	8.7
375.109	109.05
375.319	47.62
375.53	39.42
375.74	119.29
375.951	37.38
376.161	41.47
376.372	86.53
376.582	88.57
376.793	61.95
377.003	0.51
377.214	59.9
377.424	135.68
377.635	102.91
377.845	31.23
378.055	160.25
378.266	6.66
378.476	37.38
378.686	45.57
378.897	43.52
379.107	61.95
379.317	94.72
379.528	0.51
379.738	90.62
379.948	29.18
380.158	141.82
380.369	49.66
380.579	29.18
380.789	-13.82
380.999	70.14
381.21	113.15
381.42	217.6
381.63	23.04
381.84	131.58
382.05	61.95
382.261	121.34
382.471	41.47
382.681	20.99
382.891	152.06
383.101	37.38
383.311	-11.78
383.521	8.7
383.731	133.63
383.941	64
384.151	98.81
384.361	-1.54
384.571	88.57
384.781	113.15
384.991	193.02
385.201	154.11
385.411	160.25
385.621	25.09
385.831	115.2
386.041	113.15
386.251	102.91
386.461	84.48
386.671	68.09
386.881	100.86
387.091	45.57
387.301	109.05
387.511	53.76
387.72	-1.54
387.93	113.15
388.14	14.85
388.35	102.91
388.56	72.19
388.769	104.96
388.979	12.8
389.189	18.94
389.399	35.33
389.609	111.1
389.818	35.33
390.028	121.34
390.238	133.63
390.447	29.18
390.657	100.86
390.867	2.56
391.076	4.61
391.286	74.24
391.496	16.9
391.705	23.04
391.915	119.29
392.125	80.38
392.334	10.75
392.544	49.66
392.753	49.66
392.963	12.8
393.172	68.09
393.382	88.57
393.591	152.06
393.801	25.09
394.01	170.49
394.22	25.09
394.429	-15.87
394.639	12.8
394.848	100.86
395.058	80.38
395.267	41.47
395.477	107.01
395.686	123.39
395.895	272.89
396.105	281.08
396.314	98.81
396.524	12.8
396.733	12.8
396.942	137.73
397.152	-9.73
397.361	76.29
397.57	45.57
397.78	10.75
397.989	29.18
398.198	178.69
398.407	88.57
398.617	84.48
398.826	33.28
399.035	80.38
399.244	199.16
399.453	109.05
399.663	117.25
399.872	90.62
400.081	-7.68
400.29	123.39
400.499	4.61
400.708	141.82
400.917	25.09
401.127	10.75
401.336	-13.82
401.545	283.13
401.754	143.87
401.963	76.29
402.172	-22.02
402.381	23.04
402.59	35.33
402.799	45.57
403.008	121.34
403.217	31.23
403.426	90.62
403.635	-73.21
403.844	78.33
404.053	-9.73
404.262	20.99
404.471	117.25
404.68	94.72
404.888	20.99
405.097	113.15
405.306	66.05
405.515	70.14
405.724	45.57
405.933	102.91
406.142	47.62
406.35	133.63
406.559	47.62
406.768	86.53
406.977	219.64
407.185	82.43
407.394	41.47
407.603	8.7
407.812	107.01
408.02	182.78
408.229	25.09
408.438	119.29
408.646	20.99
408.855	10.75
409.064	25.09
409.272	104.96
409.481	129.53
409.69	33.28
409.898	64
410.107	45.57
410.315	147.97
410.524	39.42
410.733	143.87
410.941	51.71
411.15	160.25
411.358	129.53
411.567	229.88
411.775	41.47
411.984	90.62
412.192	-13.82
412.401	2.56
412.609	236.03
412.818	127.49
413.026	55.81
413.234	29.18
413.443	78.33
413.651	43.52
413.86	59.9
414.068	55.81
414.276	160.25
414.485	-11.78
414.693	193.02
414.901	168.45
415.11	115.2
415.318	49.66
415.526	18.94
415.734	90.62
415.943	10.75
416.151	193.02
416.359	25.09
416.567	72.19
416.776	82.43
416.984	174.59
417.192	254.46
417.4	-40.45
417.608	109.05
417.817	25.09
418.025	141.82
418.233	121.34
418.441	-69.12
418.649	-36.35
418.857	76.29
419.065	104.96
419.273	55.81
419.481	90.62
419.689	-11.78
419.897	-7.68
420.105	-11.78
420.313	51.71
420.521	176.64
420.729	84.48
420.937	2.56
421.145	-3.58
421.353	117.25
421.561	172.54
421.769	109.05
421.977	135.68
422.185	205.31
422.393	51.71
422.601	139.77
422.809	51.71
423.017	14.85
423.224	68.09
423.432	244.22
423.64	31.23
423.848	121.34
424.056	-36.35
424.263	158.21
424.471	29.18
424.679	160.25
424.887	0.51
425.094	125.44
425.302	107.01
425.51	55.81
425.718	119.29
425.925	14.85
426.133	23.04
426.341	174.59
426.548	43.52
426.756	43.52
426.964	182.78
427.171	-13.82
427.379	166.4
427.586	27.14
427.794	139.77
428.001	221.69
428.209	61.95
428.417	152.06
428.624	158.21
428.832	168.45
429.039	139.77
429.247	109.05
429.454	90.62
429.662	193.02
429.869	127.49
430.076	125.44
430.284	190.97
430.491	211.45
430.699	188.93
430.906	236.03
431.114	152.06
431.321	152.06
431.528	162.3
431.736	164.35
431.943	266.75
432.15	170.49
432.358	272.89
432.565	313.85
432.772	-7.68
432.979	242.17
433.187	158.21
433.394	207.36
433.601	190.97
433.808	301.56
434.016	279.04
434.223	172.54
434.43	258.56
434.637	274.94
434.844	242.17
435.052	268.8
435.259	250.36
435.466	242.17
435.673	254.46
435.88	385.53
436.087	317.95
436.294	387.58
436.501	373.24
436.708	358.91
436.915	303.61
437.122	428.54
437.329	252.41
437.537	291.32
437.743	375.29
437.95	424.44
438.157	367.1
438.364	395.77
438.571	328.19
438.778	451.07
438.985	440.83
439.192	510.46
439.399	416.25
439.606	485.88
439.813	543.22
440.02	672.25
440.227	784.88
440.433	639.48
440.64	565.75
440.847	557.56
441.054	588.28
441.261	762.36
441.467	668.15
441.674	664.05
441.881	762.36
442.088	752.12
442.294	782.84
442.501	952.82
442.708	862.71
442.914	803.32
443.121	877.04
443.328	975.35
443.534	1067.5
443.741	946.67
443.948	840.18
444.154	1090.03
444.361	1198.57
444.568	1174
444.774	1122.8
444.981	1010.16
445.187	1321.45
445.394	1212.91
445.6	1223.15
445.807	1382.89
446.013	1346.03
446.22	1343.98
446.426	1444.33
446.633	1620.46
446.839	1847.78
447.046	1544.68
447.252	1737.19
447.459	1685.99
447.665	1772
447.871	2007.52
448.078	2152.93
448.284	2015.71
448.491	2154.98
448.697	2220.51
448.903	2355.68
449.11	2445.79
449.316	2423.26
449.522	2548.19
449.728	2671.06
449.935	2656.73
450.141	2744.79
450.347	2957.78
450.553	2978.26
450.76	2959.83
450.966	3103.18
451.172	3248.59
451.378	3457.48
451.584	3379.66
451.791	3625.42
451.997	3854.79
452.203	3879.36
452.409	4178.37
452.615	4307.39
452.821	4049.35
453.027	4221.38
453.233	4721.08
453.44	4751.8
453.646	4776.38
453.852	5056.95
454.058	5130.67
454.264	5302.7
454.47	5783.98
454.676	5724.58
454.882	6431.13
455.088	5945.77
455.294	6304.16
455.5	6582.68
455.705	7209.36
455.911	7223.7
456.117	7248.27
456.323	7526.8
456.529	7627.15
456.735	8366.46
456.941	8493.44
457.147	8708.48
457.352	8978.81
457.558	9195.89
457.764	9982.31
457.97	10099.05
458.176	10557.79
458.381	11016.54
458.587	11419.99
458.793	11739.47
458.999	11983.18
459.204	13121.85
459.41	13717.81
459.616	13377.84
459.821	14141.74
460.027	14881.05
460.233	15462.68
460.438	15784.21
460.644	16410.89
460.85	16726.27
461.055	17391.86
461.261	18247.91
461.466	17678.58
461.672	18350.31
461.878	20130
462.083	19992.78
462.289	20500.68
462.494	21244.09
462.7	21711.03
462.905	22005.94
463.111	23353.5
463.316	24731.78
463.522	25282.69
463.727	25702.52
463.932	26466.41
464.138	27537.5
464.343	28620.88
464.549	29042.76
464.754	31160.36
464.959	32018.46
465.165	32397.33
465.37	32311.31
465.575	32313.36
465.781	34541.55
465.986	35635.17
466.191	34793.45
466.397	35289.06
466.602	33906.68
466.807	36145.11
467.012	36671.44
467.218	37642.18
467.423	37425.09
467.628	38727.6
467.833	40683.41
468.038	40144.8
468.244	39333.8
468.449	41189.26
468.654	40478.61
