Data from USB4F104151__64__09-29-14-997.txt Node

Date: Wed Feb 26 09:29:14 EST 2025
User: louis
Spectrometer: USB4F10415
Trigger mode: 4
Integration Time (sec): 1.000000E-1
Scans to average: 1
Electric dark correction enabled: true
Nonlinearity correction enabled: false
Boxcar width: 0
XAxis mode: Wavelengths
Number of Pixels in Spectrum: 3648
>>>>>Begin Spectral Data<<<<<
178.204	-342.69
178.424	-342.69
178.644	-342.69
178.864	-361.13
179.084	-334.5
179.304	11.61
179.524	-27.31
179.744	17.75
179.964	15.7
180.184	-31.4
180.404	7.51
180.624	-53.93
180.844	36.18
181.064	-58.03
181.283	46.42
181.503	5.46
181.723	30.04
181.943	25.94
182.163	101.72
182.383	15.7
182.602	60.76
182.822	60.76
183.042	93.52
183.262	-51.88
183.482	-55.98
183.701	34.13
183.921	66.9
184.141	-107.18
184.361	85.33
184.58	7.51
184.8	25.94
185.02	44.37
185.239	85.33
185.459	19.8
185.679	124.24
185.898	-23.21
186.118	5.46
186.338	79.19
186.557	87.38
186.777	-27.31
186.997	38.23
187.216	50.52
187.436	97.62
187.655	68.95
187.875	140.63
188.095	-29.35
188.314	60.76
188.534	89.43
188.753	-37.55
188.973	5.46
189.192	126.29
189.412	42.32
189.631	77.14
189.851	32.08
190.07	126.29
190.29	-37.55
190.509	-33.45
190.729	34.13
190.948	126.29
191.168	306.51
191.387	60.76
191.607	32.08
191.826	17.75
192.045	-29.35
192.265	13.65
192.484	-2.73
192.704	25.94
192.923	17.75
193.142	150.87
193.362	114
193.581	81.24
193.8	44.37
194.02	79.19
194.239	-4.78
194.458	23.89
194.678	42.32
194.897	-82.6
195.116	50.52
195.335	77.14
195.555	114
195.774	-10.92
195.993	32.08
196.212	77.14
196.432	-41.64
196.651	-2.73
196.87	23.89
197.089	263.51
197.308	77.14
197.528	75.09
197.747	-58.03
197.966	3.41
198.185	77.14
198.404	-25.26
198.623	64.85
198.842	101.72
199.062	75.09
199.281	159.06
199.5	85.33
199.719	130.39
199.938	-12.97
200.157	3.41
200.376	56.66
200.595	60.76
200.814	93.52
201.033	-12.97
201.252	93.52
201.471	-68.27
201.69	68.95
201.909	-45.74
202.128	97.62
202.347	87.38
202.566	105.81
202.785	-29.35
203.004	-55.98
203.223	245.07
203.442	75.09
203.661	-29.35
203.879	17.75
204.098	107.86
204.317	-70.31
204.536	93.52
204.755	46.42
204.974	107.86
205.193	11.61
205.411	111.96
205.63	85.33
205.849	5.46
206.068	36.18
206.287	17.75
206.505	142.68
206.724	56.66
206.943	27.99
207.162	46.42
207.381	87.38
207.599	-2.73
207.818	23.89
208.037	-25.26
208.255	3.41
208.474	101.72
208.693	73.04
208.911	-29.35
209.13	73.04
209.349	13.65
209.567	48.47
209.786	118.1
210.005	32.08
210.223	64.85
210.442	-70.31
210.661	46.42
210.879	40.28
211.098	54.61
211.316	50.52
211.535	77.14
211.753	68.95
211.972	11.61
212.191	44.37
212.409	21.85
212.628	68.95
212.846	-23.21
213.065	7.51
213.283	136.53
213.502	-4.78
213.72	25.94
213.938	56.66
214.157	-2.73
214.375	109.91
214.594	-29.35
214.812	116.05
215.031	-19.11
215.249	11.61
215.467	87.38
215.686	58.71
215.904	68.95
216.122	56.66
216.341	77.14
216.559	109.91
216.778	109.91
216.996	48.47
217.214	40.28
217.432	-8.87
217.651	-55.98
217.869	9.56
218.087	7.51
218.306	15.7
218.524	44.37
218.742	-55.98
218.96	224.59
219.179	89.43
219.397	-0.68
219.615	165.2
219.833	85.33
220.051	11.61
220.27	97.62
220.488	89.43
220.706	75.09
220.924	9.56
221.142	15.7
221.36	42.32
221.578	19.8
221.796	-15.02
222.015	81.24
222.233	91.48
222.451	118.1
222.669	-33.45
222.887	157.01
223.105	27.99
223.323	83.28
223.541	-10.92
223.759	38.23
223.977	101.72
224.195	128.34
224.413	93.52
224.631	46.42
224.849	19.8
225.067	177.49
225.285	11.61
225.503	44.37
225.721	-90.79
225.939	46.42
226.157	99.67
226.375	183.63
226.592	-49.83
226.81	-66.22
227.028	73.04
227.246	148.82
227.464	118.1
227.682	58.71
227.9	68.95
228.117	15.7
228.335	54.61
228.553	27.99
228.771	34.13
228.989	5.46
229.206	3.41
229.424	-23.21
229.642	-31.4
229.86	-115.37
230.077	118.1
230.295	120.15
230.513	60.76
230.731	109.91
230.948	146.77
231.166	32.08
231.384	-2.73
231.601	27.99
231.819	171.35
232.037	-12.97
232.254	-45.74
232.472	3.41
232.689	48.47
232.907	111.96
233.125	34.13
233.342	-12.97
233.56	-25.26
233.777	15.7
233.995	-4.78
234.213	5.46
234.43	40.28
234.648	60.76
234.865	73.04
235.083	23.89
235.3	73.04
235.518	50.52
235.735	163.15
235.953	17.75
236.17	25.94
236.388	1.37
236.605	-62.12
236.822	120.15
237.04	126.29
237.257	30.04
237.475	-62.12
237.692	66.9
237.909	64.85
238.127	68.95
238.344	126.29
238.562	52.56
238.779	-45.74
238.996	-19.11
239.214	42.32
239.431	140.63
239.648	9.56
239.865	85.33
240.083	81.24
240.3	60.76
240.517	-0.68
240.735	42.32
240.952	52.56
241.169	87.38
241.386	25.94
241.603	-0.68
241.821	-80.55
242.038	30.04
242.255	120.15
242.472	52.56
242.689	54.61
242.907	71
243.124	-23.21
243.341	7.51
243.558	-37.55
243.775	-49.83
243.992	-72.36
244.209	68.95
244.426	208.21
244.643	52.56
244.86	-4.78
245.078	118.1
245.295	32.08
245.512	9.56
245.729	-33.45
245.946	114
246.163	-0.68
246.38	1.37
246.597	36.18
246.814	60.76
247.031	3.41
247.248	-25.26
247.464	-21.16
247.681	114
247.898	-23.21
248.115	159.06
248.332	23.89
248.549	99.67
248.766	107.86
248.983	46.42
249.2	52.56
249.417	91.48
249.633	40.28
249.85	64.85
250.067	-23.21
250.284	60.76
250.501	64.85
250.717	50.52
250.934	-53.93
251.151	-15.02
251.368	-2.73
251.585	1.37
251.801	116.05
252.018	-94.89
252.235	36.18
252.451	-74.41
252.668	36.18
252.885	150.87
253.102	99.67
253.318	42.32
253.535	-70.31
253.752	-35.5
253.968	19.8
254.185	-64.17
254.401	19.8
254.618	-12.97
254.835	-27.31
255.051	161.11
255.268	52.56
255.484	60.76
255.701	40.28
255.917	13.65
256.134	34.13
256.351	48.47
256.567	44.37
256.784	3.41
257	-43.69
257.217	157.01
257.433	50.52
257.65	89.43
257.866	60.76
258.082	-68.27
258.299	3.41
258.515	52.56
258.732	66.9
258.948	32.08
259.165	52.56
259.381	-80.55
259.597	120.15
259.814	15.7
260.03	32.08
260.246	15.7
260.463	107.86
260.679	175.44
260.895	-8.87
261.112	54.61
261.328	58.71
261.544	-35.5
261.761	159.06
261.977	3.41
262.193	3.41
262.409	58.71
262.626	27.99
262.842	36.18
263.058	-8.87
263.274	130.39
263.49	-17.07
263.707	75.09
263.923	91.48
264.139	-37.55
264.355	-4.78
264.571	77.14
264.787	60.76
265.004	140.63
265.22	60.76
265.436	-10.92
265.652	44.37
265.868	36.18
266.084	-23.21
266.3	68.95
266.516	-66.22
266.732	-27.31
266.948	126.29
267.164	77.14
267.38	97.62
267.596	60.76
267.812	187.73
268.028	11.61
268.244	36.18
268.46	9.56
268.676	54.61
268.892	5.46
269.108	-47.79
269.324	-70.31
269.54	-66.22
269.756	48.47
269.972	-47.79
270.188	7.51
270.403	-19.11
270.619	5.46
270.835	99.67
271.051	3.41
271.267	-31.4
271.483	-12.97
271.698	75.09
271.914	34.13
272.13	52.56
272.346	34.13
272.562	44.37
272.777	116.05
272.993	44.37
273.209	-49.83
273.425	44.37
273.64	-68.27
273.856	19.8
274.072	-58.03
274.287	-0.68
274.503	58.71
274.719	40.28
274.934	13.65
275.15	-123.56
275.366	101.72
275.581	25.94
275.797	-43.69
276.012	32.08
276.228	-29.35
276.444	81.24
276.659	85.33
276.875	-25.26
277.09	93.52
277.306	-23.21
277.521	27.99
277.737	62.8
277.952	60.76
278.168	85.33
278.383	68.95
278.599	124.24
278.814	15.7
279.03	-4.78
279.245	85.33
279.461	101.72
279.676	71
279.892	-58.03
280.107	-55.98
280.322	-23.21
280.538	75.09
280.753	21.85
280.969	17.75
281.184	1.37
281.399	83.28
281.615	58.71
281.83	93.52
282.045	-74.41
282.26	-45.74
282.476	3.41
282.691	118.1
282.906	85.33
283.122	77.14
283.337	15.7
283.552	40.28
283.767	-2.73
283.983	87.38
284.198	42.32
284.413	48.47
284.628	-66.22
284.843	81.24
285.058	81.24
285.274	23.89
285.489	-12.97
285.704	77.14
285.919	75.09
286.134	34.13
286.349	7.51
286.564	52.56
286.779	134.48
286.995	-6.83
287.21	-146.09
287.425	75.09
287.64	27.99
287.855	-8.87
288.07	-101.03
288.285	44.37
288.5	124.24
288.715	62.8
288.93	3.41
289.145	38.23
289.36	34.13
289.575	21.85
289.79	71
290.004	-8.87
290.219	64.85
290.434	25.94
290.649	-31.4
290.864	5.46
291.079	11.61
291.294	109.91
291.509	13.65
291.724	25.94
291.938	-25.26
292.153	109.91
292.368	-66.22
292.583	114
292.798	62.8
293.012	93.52
293.227	60.76
293.442	15.7
293.657	142.68
293.871	118.1
294.086	40.28
294.301	181.59
294.516	30.04
294.73	40.28
294.945	-4.78
295.16	-31.4
295.374	101.72
295.589	60.76
295.804	-2.73
296.018	-45.74
296.233	111.96
296.447	52.56
296.662	27.99
296.877	134.48
297.091	48.47
297.306	3.41
297.52	-70.31
297.735	56.66
297.949	-43.69
298.164	34.13
298.378	38.23
298.593	-25.26
298.807	-17.07
299.022	34.13
299.236	130.39
299.451	52.56
299.665	-19.11
299.88	116.05
300.094	66.9
300.309	15.7
300.523	42.32
300.737	5.46
300.952	66.9
301.166	91.48
301.381	21.85
301.595	-15.02
301.809	-37.55
302.024	-45.74
302.238	-49.83
302.452	134.48
302.667	19.8
302.881	132.44
303.095	11.61
303.309	-29.35
303.524	-8.87
303.738	25.94
303.952	5.46
304.166	109.91
304.381	-88.75
304.595	101.72
304.809	-27.31
305.023	44.37
305.237	-64.17
305.452	-21.16
305.666	23.89
305.88	-0.68
306.094	140.63
306.308	27.99
306.522	60.76
306.736	81.24
306.95	93.52
307.164	19.8
307.379	75.09
307.593	167.25
307.807	99.67
308.021	62.8
308.235	66.9
308.449	-53.93
308.663	7.51
308.877	214.35
309.091	46.42
309.305	73.04
309.519	-17.07
309.733	157.01
309.947	-82.6
310.161	77.14
310.374	3.41
310.588	40.28
310.802	-0.68
311.016	30.04
311.23	32.08
311.444	-15.02
311.658	56.66
311.872	142.68
312.085	44.37
312.299	150.87
312.513	146.77
312.727	50.52
312.941	3.41
313.154	83.28
313.368	50.52
313.582	85.33
313.796	-19.11
314.009	19.8
314.223	87.38
314.437	75.09
314.651	132.44
314.864	40.28
315.078	-41.64
315.292	-96.94
315.505	64.85
315.719	77.14
315.933	58.71
316.146	-33.45
316.36	5.46
316.573	71
316.787	52.56
317.001	91.48
317.214	-39.59
317.428	32.08
317.641	-33.45
317.855	-53.93
318.068	56.66
318.282	30.04
318.495	161.11
318.709	48.47
318.922	77.14
319.136	130.39
319.349	89.43
319.563	9.56
319.776	71
319.99	-21.16
320.203	105.81
320.417	1.37
320.63	103.76
320.843	56.66
321.057	79.19
321.27	25.94
321.483	15.7
321.697	171.35
321.91	7.51
322.124	58.71
322.337	11.61
322.55	-2.73
322.763	25.94
322.977	-31.4
323.19	40.28
323.403	15.7
323.617	68.95
323.83	91.48
324.043	27.99
324.256	27.99
324.469	-17.07
324.683	181.59
324.896	-41.64
325.109	46.42
325.322	-60.07
325.535	91.48
325.748	60.76
325.962	58.71
326.175	48.47
326.388	134.48
326.601	62.8
326.814	13.65
327.027	36.18
327.24	111.96
327.453	-72.36
327.666	40.28
327.879	44.37
328.092	83.28
328.305	3.41
328.518	-64.17
328.731	-21.16
328.944	54.61
329.157	93.52
329.37	-33.45
329.583	171.35
329.796	195.92
330.009	13.65
330.222	91.48
330.435	97.62
330.648	81.24
330.861	11.61
331.073	-10.92
331.286	23.89
331.499	91.48
331.712	-64.17
331.925	73.04
332.138	27.99
332.35	68.95
332.563	38.23
332.776	93.52
332.989	19.8
333.202	3.41
333.414	30.04
333.627	75.09
333.84	-19.11
334.053	50.52
334.265	42.32
334.478	30.04
334.691	38.23
334.903	40.28
335.116	-4.78
335.329	-19.11
335.541	60.76
335.754	159.06
335.966	13.65
336.179	-4.78
336.392	-35.5
336.604	52.56
336.817	44.37
337.029	83.28
337.242	56.66
337.454	15.7
337.667	27.99
337.88	87.38
338.092	7.51
338.305	85.33
338.517	-72.36
338.729	60.76
338.942	99.67
339.154	-90.79
339.367	-64.17
339.579	44.37
339.792	-33.45
340.004	91.48
340.217	-64.17
340.429	-49.83
340.641	-55.98
340.854	32.08
341.066	23.89
341.278	34.13
341.491	146.77
341.703	60.76
341.915	-4.78
342.128	77.14
342.34	-6.83
342.552	-15.02
342.764	60.76
342.977	17.75
343.189	36.18
343.401	73.04
343.613	-21.16
343.826	73.04
344.038	-115.37
344.25	40.28
344.462	-41.64
344.674	71
344.886	11.61
345.099	142.68
345.311	56.66
345.523	7.51
345.735	-70.31
345.947	7.51
346.159	85.33
346.371	-21.16
346.583	105.81
346.795	179.54
347.007	9.56
347.219	95.57
347.431	36.18
347.643	99.67
347.855	58.71
348.067	109.91
348.279	-51.88
348.491	68.95
348.703	83.28
348.915	-43.69
349.127	-53.93
349.339	32.08
349.551	34.13
349.763	128.34
349.975	-31.4
350.187	71
350.399	122.2
350.61	1.37
350.822	73.04
351.034	11.61
351.246	52.56
351.458	9.56
351.669	60.76
351.881	116.05
352.093	89.43
352.305	130.39
352.517	-29.35
352.728	140.63
352.94	44.37
353.152	3.41
353.363	-19.11
353.575	101.72
353.787	208.21
353.999	-12.97
354.21	148.82
354.422	-2.73
354.633	-6.83
354.845	15.7
355.057	81.24
355.268	17.75
355.48	27.99
355.692	-33.45
355.903	52.56
356.115	42.32
356.326	-72.36
356.538	157.01
356.749	85.33
356.961	60.76
357.172	34.13
357.384	19.8
357.595	169.3
357.807	34.13
358.018	44.37
358.23	5.46
358.441	77.14
358.653	36.18
358.864	11.61
359.075	11.61
359.287	44.37
359.498	105.81
359.709	19.8
359.921	42.32
360.132	19.8
360.344	27.99
360.555	-49.83
360.766	-39.59
360.977	-23.21
361.189	103.76
361.4	1.37
361.611	105.81
361.823	134.48
362.034	101.72
362.245	-58.03
362.456	-37.55
362.667	30.04
362.879	-53.93
363.09	58.71
363.301	91.48
363.512	-0.68
363.723	-21.16
363.935	3.41
364.146	101.72
364.357	13.65
364.568	48.47
364.779	-58.03
364.99	91.48
365.201	-68.27
365.412	148.82
365.623	-64.17
365.834	52.56
366.045	60.76
366.256	91.48
366.467	15.7
366.678	-41.64
366.889	68.95
367.1	7.51
367.311	118.1
367.522	-66.22
367.733	77.14
367.944	3.41
368.155	-4.78
368.366	44.37
368.577	150.87
368.788	97.62
368.999	-33.45
369.209	-4.78
369.42	124.24
369.631	220.5
369.842	56.66
370.053	11.61
370.264	42.32
370.474	-96.94
370.685	17.75
370.896	36.18
371.107	60.76
371.317	103.76
371.528	36.18
371.739	87.38
371.95	64.85
372.16	32.08
372.371	15.7
372.582	-27.31
372.792	66.9
373.003	79.19
373.214	83.28
373.424	116.05
373.635	-15.02
373.846	120.15
374.056	-4.78
374.267	105.81
374.477	64.85
374.688	-19.11
374.898	73.04
375.109	38.23
375.319	71
375.53	124.24
375.74	114
375.951	-29.35
376.161	-4.78
376.372	89.43
376.582	46.42
376.793	60.76
377.003	-19.11
377.214	-29.35
377.424	3.41
377.635	-29.35
377.845	40.28
378.055	134.48
378.266	27.99
378.476	-27.31
378.686	140.63
378.897	93.52
379.107	101.72
379.317	9.56
379.528	-19.11
379.738	116.05
379.948	-23.21
380.158	89.43
380.369	68.95
380.579	105.81
380.789	48.47
380.999	-8.87
381.21	111.96
381.42	150.87
381.63	-47.79
381.84	27.99
382.05	15.7
382.261	105.81
382.471	132.44
382.681	-4.78
382.891	60.76
383.101	9.56
383.311	32.08
383.521	13.65
383.731	36.18
383.941	109.91
384.151	-0.68
384.361	48.47
384.571	42.32
384.781	-12.97
384.991	99.67
385.201	169.3
385.411	71
385.621	27.99
385.831	126.29
386.041	50.52
386.251	-15.02
386.461	48.47
386.671	3.41
386.881	-8.87
387.091	-43.69
387.301	83.28
387.511	40.28
387.72	91.48
387.93	9.56
388.14	-39.59
388.35	11.61
388.56	77.14
388.769	109.91
388.979	30.04
389.189	-15.02
389.399	-4.78
389.609	42.32
389.818	93.52
390.028	36.18
390.238	91.48
390.447	-37.55
390.657	46.42
390.867	81.24
391.076	-10.92
391.286	30.04
391.496	-15.02
391.705	-6.83
391.915	111.96
392.125	9.56
392.334	23.89
392.544	66.9
392.753	77.14
392.963	-27.31
393.172	89.43
393.382	-49.83
393.591	159.06
393.801	48.47
394.01	157.01
394.22	25.94
394.429	64.85
394.639	11.61
394.848	60.76
395.058	71
395.267	-8.87
395.477	68.95
395.686	73.04
395.895	232.79
396.105	138.58
396.314	85.33
396.524	40.28
396.733	-6.83
396.942	7.51
397.152	46.42
397.361	48.47
397.57	60.76
397.78	44.37
397.989	56.66
398.198	134.48
398.407	23.89
398.617	34.13
398.826	97.62
399.035	44.37
399.244	71
399.453	-62.12
399.663	9.56
399.872	48.47
400.081	-58.03
400.29	183.63
400.499	-6.83
400.708	40.28
400.917	25.94
401.127	25.94
401.336	-0.68
401.545	154.96
401.754	58.71
401.963	48.47
402.172	25.94
402.381	36.18
402.59	-27.31
402.799	60.76
403.008	142.68
403.217	36.18
403.426	23.89
403.635	27.99
403.844	77.14
404.053	38.23
404.262	-6.83
404.471	103.76
404.68	-15.02
404.888	52.56
405.097	-39.59
405.306	19.8
405.515	64.85
405.724	-45.74
405.933	27.99
406.142	25.94
406.35	116.05
406.559	21.85
406.768	144.72
406.977	103.76
407.185	27.99
407.394	60.76
407.603	7.51
407.812	120.15
408.02	165.2
408.229	-15.02
408.438	91.48
408.646	-96.94
408.855	19.8
409.064	75.09
409.272	-45.74
409.481	40.28
409.69	44.37
409.898	77.14
410.107	-0.68
410.315	107.86
410.524	44.37
410.733	52.56
410.941	66.9
411.15	15.7
411.358	32.08
411.567	95.57
411.775	44.37
411.984	60.76
412.192	93.52
412.401	-19.11
412.609	214.35
412.818	97.62
413.026	103.76
413.234	52.56
413.443	5.46
413.651	-0.68
413.86	79.19
414.068	64.85
414.276	118.1
414.485	40.28
414.693	99.67
414.901	175.44
415.11	25.94
415.318	23.89
415.526	-21.16
415.734	183.63
415.943	89.43
416.151	93.52
416.359	36.18
416.567	56.66
416.776	83.28
416.984	126.29
417.192	154.96
417.4	40.28
417.608	-58.03
417.817	-2.73
418.025	114
418.233	144.72
418.441	25.94
418.649	-0.68
418.857	91.48
419.065	105.81
419.273	-33.45
419.481	50.52
419.689	36.18
419.897	-29.35
420.105	-55.98
420.313	15.7
420.521	157.01
420.729	114
420.937	-6.83
421.145	-74.41
421.353	44.37
421.561	136.53
421.769	44.37
421.977	-55.98
422.185	75.09
422.393	25.94
422.601	105.81
422.809	36.18
423.017	152.91
423.224	60.76
423.432	163.15
423.64	122.2
423.848	62.8
424.056	-15.02
424.263	48.47
424.471	30.04
424.679	105.81
424.887	-129.7
425.094	118.1
425.302	68.95
425.51	9.56
425.718	116.05
425.925	-4.78
426.133	-12.97
426.341	132.44
426.548	132.44
426.756	105.81
426.964	83.28
427.171	52.56
427.379	101.72
427.586	-39.59
427.794	130.39
428.001	75.09
428.209	23.89
428.417	97.62
428.624	105.81
428.832	77.14
429.039	32.08
429.247	19.8
429.454	91.48
429.662	134.48
429.869	95.57
430.076	40.28
430.284	130.39
430.491	165.2
430.699	103.76
430.906	122.2
431.114	99.67
431.321	50.52
431.528	13.65
431.736	-4.78
431.943	62.8
432.15	111.96
432.358	195.92
432.565	138.58
432.772	-49.83
432.979	171.35
433.187	97.62
433.394	191.83
433.601	58.71
433.808	157.01
434.016	204.11
434.223	206.16
434.43	118.1
434.637	236.88
434.844	116.05
435.052	171.35
435.259	142.68
435.466	208.21
435.673	222.55
435.88	200.02
436.087	220.5
436.294	259.41
436.501	240.98
436.708	130.39
436.915	210.26
437.122	345.42
437.329	175.44
437.537	271.7
437.743	197.97
437.95	386.38
438.157	214.35
438.364	228.69
438.571	292.18
438.778	292.18
438.985	320.85
439.192	337.23
439.399	232.79
439.606	253.27
439.813	384.34
440.02	410.96
440.227	507.21
440.433	304.46
440.64	316.75
440.847	343.38
441.054	435.53
441.261	560.46
441.467	365.9
441.674	423.25
441.881	490.83
442.088	443.73
442.294	492.88
442.501	523.6
442.708	523.6
442.914	482.64
443.121	556.36
443.328	587.08
443.534	595.28
443.741	560.46
443.948	492.88
444.154	634.19
444.361	757.07
444.568	695.63
444.774	671.05
444.981	736.59
445.187	845.13
445.394	736.59
445.6	748.87
445.807	898.38
446.013	865.61
446.22	853.32
446.426	851.27
446.633	1011.01
446.839	1043.78
447.046	1011.01
447.252	1031.49
447.459	1074.5
447.665	1090.88
447.871	1127.75
448.078	1310.02
448.284	1283.39
448.491	1307.97
448.697	1363.26
448.903	1332.55
449.11	1461.57
449.316	1439.04
449.522	1537.34
449.728	1555.77
449.935	1717.56
450.141	1717.56
450.347	1797.43
450.553	1815.87
450.76	1871.16
450.966	1881.4
451.172	2055.48
451.378	2092.34
451.584	2125.11
451.791	2256.18
451.997	2293.04
452.203	2348.34
452.409	2528.56
452.615	2485.55
452.821	2559.28
453.027	2424.11
453.233	2802.99
453.44	2805.03
453.646	2854.19
453.852	2932.01
454.058	3194.15
454.264	3231.01
454.47	3353.89
454.676	3419.43
454.882	3861.79
455.088	3771.68
455.294	3689.76
455.5	3962.14
455.705	4125.97
455.911	4285.72
456.117	4257.04
456.323	4515.09
456.529	4533.52
456.735	4875.53
456.941	5147.91
457.147	5301.51
457.352	5430.53
457.558	5321.99
457.764	5993.72
457.97	6094.07
458.176	6302.97
458.381	6491.38
458.587	6710.51
458.793	7089.39
458.999	6903.02
459.204	7816.41
459.41	8096.99
459.616	8051.93
459.821	8539.35
460.027	8787.15
460.233	9047.24
460.438	9231.56
460.644	9843.9
460.85	9903.29
461.055	10171.58
461.261	10927.28
461.466	10495.16
461.672	10646.71
461.878	11953.31
462.083	12039.33
462.289	12180.64
462.494	12821.65
462.7	12616.85
462.905	12852.37
463.111	14058.62
463.316	14763.12
463.522	14838.9
463.727	15301.74
463.932	15936.61
464.138	16583.77
464.343	17087.57
464.549	17257.55
464.754	18486.33
464.959	18910.26
465.165	19332.14
465.37	19172.4
465.575	19147.83
465.781	20524.06
465.986	21138.45
466.191	20665.37
466.397	20859.93
466.602	20571.16
466.807	22123.52
467.012	22234.11
467.218	22565.88
467.423	22666.24
467.628	23133.17
467.833	24124.39
468.038	24202.21
468.244	23684.08
468.449	24949.72
468.654	24093.67
468.859	24312.8
469.064	24087.53
469.269	23536.62
469.474	23739.37
469.679	24771.55
469.885	23639.02
470.09	24282.08
