Data from USB4F104151__18__11-24-33-606.txt Node

Date: Wed Feb 26 11:24:33 EST 2025
User: louis
Spectrometer: USB4F10415
Trigger mode: 4
Integration Time (sec): 1.000000E-1
Scans to average: 1
Electric dark correction enabled: true
Nonlinearity correction enabled: false
Boxcar width: 0
XAxis mode: Wavelengths
Number of Pixels in Spectrum: 3648
>>>>>Begin Spectral Data<<<<<
178.204	-430.24
178.424	-430.24
178.644	-430.24
178.864	-487.59
179.084	-307.37
179.304	-10.41
179.524	-14.51
179.744	-4.27
179.964	24.4
180.184	32.6
180.404	40.79
180.624	42.84
180.844	-34.99
181.064	-28.84
181.283	-26.79
181.503	-51.37
181.723	30.55
181.943	-12.46
182.163	108.37
182.383	-96.43
182.602	16.21
182.822	167.76
183.042	96.08
183.262	22.36
183.482	55.12
183.701	20.31
183.921	71.51
184.141	-45.23
184.361	143.19
184.58	59.22
184.8	-86.19
185.02	-30.89
185.239	42.84
185.459	48.98
185.679	79.7
185.898	-153.77
186.118	-0.17
186.338	26.45
186.557	98.13
186.777	-47.27
186.997	-43.18
187.216	-20.65
187.436	165.71
187.655	34.64
187.875	67.41
188.095	-22.7
188.314	96.08
188.534	46.93
188.753	-77.99
188.973	55.12
189.192	153.43
189.412	12.12
189.631	-2.22
189.851	20.31
190.07	171.86
190.29	-41.13
190.509	30.55
190.729	77.65
190.948	96.08
191.168	235.35
191.387	110.42
191.607	-6.31
191.826	48.98
192.045	-34.99
192.265	12.12
192.484	81.75
192.704	-37.03
192.923	-65.71
193.142	198.48
193.362	91.99
193.581	110.42
193.8	20.31
194.02	83.8
194.239	77.65
194.458	22.36
194.678	38.74
194.897	16.21
195.116	38.74
195.335	-53.42
195.555	42.84
195.774	-34.99
195.993	67.41
196.212	20.31
196.432	-20.65
196.651	-2.22
196.87	22.36
197.089	276.31
197.308	79.7
197.528	96.08
197.747	-57.51
197.966	67.41
198.185	186.19
198.404	-24.75
198.623	118.61
198.842	79.7
199.062	53.08
199.281	126.8
199.5	20.31
199.719	34.64
199.938	28.5
200.157	79.7
200.376	46.93
200.595	114.52
200.814	85.84
201.033	-69.8
201.252	112.47
201.471	87.89
201.69	96.08
201.909	65.36
202.128	91.99
202.347	18.26
202.566	59.22
202.785	-73.9
203.004	-43.18
203.223	200.53
203.442	63.32
203.661	-71.85
203.879	100.18
204.098	116.56
204.317	-37.03
204.536	55.12
204.755	24.4
204.974	91.99
205.193	-12.46
205.411	128.85
205.63	124.76
205.849	53.08
206.068	73.56
206.287	-47.27
206.505	126.8
206.724	36.69
206.943	-20.65
207.162	-0.17
207.381	32.6
207.599	-53.42
207.818	22.36
208.037	-90.28
208.255	14.17
208.474	-12.46
208.693	38.74
208.911	-45.23
209.13	126.8
209.349	42.84
209.567	89.94
209.786	36.69
210.005	151.38
210.223	53.08
210.442	-116.9
210.661	69.46
210.879	83.8
211.098	-8.36
211.316	1.88
211.535	53.08
211.753	38.74
211.972	96.08
212.191	57.17
212.409	-53.42
212.628	94.04
212.846	-61.61
213.065	55.12
213.283	151.38
213.502	75.6
213.72	8.02
213.938	14.17
214.157	1.88
214.375	81.75
214.594	44.88
214.812	8.02
215.031	-30.89
215.249	71.51
215.467	61.27
215.686	-80.04
215.904	32.6
216.122	-16.55
216.341	57.17
216.559	69.46
216.778	48.98
216.996	34.64
217.214	-63.66
217.432	-6.31
217.651	65.36
217.869	110.42
218.087	20.31
218.306	89.94
218.524	57.17
218.742	55.12
218.96	100.18
219.179	-0.17
219.397	20.31
219.615	241.49
219.833	98.13
220.051	20.31
220.27	44.88
220.488	130.9
220.706	1.88
220.924	1.88
221.142	89.94
221.36	114.52
221.578	36.69
221.796	-24.75
222.015	-12.46
222.233	36.69
222.451	182.1
222.669	12.12
222.887	73.56
223.105	-61.61
223.323	48.98
223.541	-141.48
223.759	114.52
223.977	-18.6
224.195	182.1
224.413	77.65
224.631	53.08
224.849	20.31
225.067	280.4
225.285	63.32
225.503	16.21
225.721	-84.14
225.939	69.46
226.157	-2.22
226.375	266.07
226.592	-12.46
226.81	36.69
227.028	85.84
227.246	96.08
227.464	-26.79
227.682	55.12
227.9	16.21
228.117	79.7
228.335	34.64
228.553	38.74
228.771	55.12
228.989	67.41
229.206	69.46
229.424	-18.6
229.642	-24.75
229.86	-22.7
230.077	128.85
230.295	59.22
230.513	104.28
230.731	-18.6
230.948	178
231.166	135
231.384	57.17
231.601	-10.41
231.819	198.48
232.037	-65.71
232.254	3.93
232.472	1.88
232.689	-43.18
232.907	89.94
233.125	-24.75
233.342	-20.65
233.56	-16.55
233.777	-37.03
233.995	12.12
234.213	40.79
234.43	214.87
234.648	53.08
234.865	-20.65
235.083	26.45
235.3	26.45
235.518	16.21
235.735	75.6
235.953	73.56
236.17	-4.27
236.388	32.6
236.605	34.64
236.822	16.21
237.04	91.99
237.257	89.94
237.475	-49.32
237.692	-12.46
237.909	51.03
238.127	-65.71
238.344	104.28
238.562	28.5
238.779	-84.14
238.996	-129.19
239.214	20.31
239.431	77.65
239.648	38.74
239.865	91.99
240.083	48.98
240.3	-43.18
240.517	-90.28
240.735	36.69
240.952	116.56
241.169	-26.79
241.386	57.17
241.603	-2.22
241.821	-75.95
242.038	14.17
242.255	73.56
242.472	-51.37
242.689	57.17
242.907	22.36
243.124	-39.08
243.341	71.51
243.558	14.17
243.775	-49.32
243.992	-14.51
244.209	75.6
244.426	186.19
244.643	65.36
244.86	16.21
245.078	85.84
245.295	63.32
245.512	67.41
245.729	-6.31
245.946	59.22
246.163	-22.7
246.38	1.88
246.597	83.8
246.814	-12.46
247.031	-6.31
247.248	59.22
247.464	59.22
247.681	40.79
247.898	116.56
248.115	120.66
248.332	-67.75
248.549	87.89
248.766	173.91
248.983	69.46
249.2	53.08
249.417	112.47
249.633	-43.18
249.85	67.41
250.067	-10.41
250.284	-10.41
250.501	-0.17
250.717	34.64
250.934	-65.71
251.151	22.36
251.368	-18.6
251.585	106.32
251.801	32.6
252.018	-77.99
252.235	73.56
252.451	1.88
252.668	42.84
252.885	178
253.102	30.55
253.318	10.07
253.535	-30.89
253.752	-4.27
253.968	-47.27
254.185	38.74
254.401	40.79
254.618	110.42
254.835	-26.79
255.051	149.33
255.268	67.41
255.484	42.84
255.701	-8.36
255.917	77.65
256.134	-61.61
256.351	46.93
256.567	-16.55
256.784	83.8
257	-92.33
257.217	67.41
257.433	122.71
257.65	38.74
257.866	98.13
258.082	-47.27
258.299	1.88
258.515	-8.36
258.732	-8.36
258.948	-45.23
259.165	71.51
259.381	12.12
259.597	102.23
259.814	20.31
260.03	42.84
260.246	28.5
260.463	163.67
260.679	167.76
260.895	-6.31
261.112	10.07
261.328	18.26
261.544	-6.31
261.761	171.86
261.977	53.08
262.193	-63.66
262.409	77.65
262.626	34.64
262.842	-37.03
263.058	-30.89
263.274	75.6
263.49	48.98
263.707	69.46
263.923	40.79
264.139	-57.51
264.355	16.21
264.571	104.28
264.787	48.98
265.004	100.18
265.22	42.84
265.436	14.17
265.652	-30.89
265.868	59.22
266.084	-84.14
266.3	-0.17
266.516	-39.08
266.732	48.98
266.948	65.36
267.164	-30.89
267.38	157.52
267.596	89.94
267.812	112.47
268.028	28.5
268.244	-32.94
268.46	79.7
268.676	100.18
268.892	69.46
269.108	-28.84
269.324	8.02
269.54	-61.61
269.756	216.91
269.972	-16.55
270.188	-24.75
270.403	3.93
270.619	42.84
270.835	83.8
271.051	32.6
271.267	30.55
271.483	-14.51
271.698	98.13
271.914	46.93
272.13	85.84
272.346	48.98
272.562	114.52
272.777	118.61
272.993	-12.46
273.209	-41.13
273.425	141.14
273.64	-84.14
273.856	38.74
274.072	-49.32
274.287	26.45
274.503	100.18
274.719	91.99
274.934	-2.22
275.15	-6.31
275.366	-32.94
275.581	-47.27
275.797	104.28
276.012	57.17
276.228	34.64
276.444	59.22
276.659	69.46
276.875	34.64
277.09	3.93
277.306	1.88
277.521	69.46
277.737	59.22
277.952	79.7
278.168	-10.41
278.383	69.46
278.599	8.02
278.814	75.6
279.03	51.03
279.245	38.74
279.461	-8.36
279.676	114.52
279.892	-104.62
280.107	-69.8
280.322	18.26
280.538	55.12
280.753	-6.31
280.969	81.75
281.184	14.17
281.399	175.95
281.615	8.02
281.83	106.32
282.045	20.31
282.26	-30.89
282.476	42.84
282.691	89.94
282.906	-12.46
283.122	18.26
283.337	-75.95
283.552	40.79
283.767	-69.8
283.983	63.32
284.198	-12.46
284.413	28.5
284.628	-30.89
284.843	69.46
285.058	38.74
285.274	-69.8
285.489	-84.14
285.704	106.32
285.919	-67.75
286.134	-2.22
286.349	42.84
286.564	-4.27
286.779	89.94
286.995	34.64
287.21	-88.23
287.425	-39.08
287.64	-2.22
287.855	-8.36
288.07	-41.13
288.285	87.89
288.5	67.41
288.715	104.28
288.93	-34.99
289.145	12.12
289.36	87.89
289.575	30.55
289.79	114.52
290.004	8.02
290.219	67.41
290.434	1.88
290.649	30.55
290.864	28.5
291.079	110.42
291.294	85.84
291.509	46.93
291.724	-0.17
291.938	-20.65
292.153	65.36
292.368	36.69
292.583	36.69
292.798	102.23
293.012	59.22
293.227	-16.55
293.442	-37.03
293.657	79.7
293.871	135
294.086	141.14
294.301	143.19
294.516	155.47
294.73	48.98
294.945	-75.95
295.16	65.36
295.374	48.98
295.589	75.6
295.804	-49.32
296.018	61.27
296.233	126.8
296.447	-2.22
296.662	22.36
296.877	167.76
297.091	32.6
297.306	73.56
297.52	5.97
297.735	96.08
297.949	44.88
298.164	42.84
298.378	114.52
298.593	8.02
298.807	-24.75
299.022	-8.36
299.236	186.19
299.451	-30.89
299.665	42.84
299.88	-12.46
300.094	112.47
300.309	77.65
300.523	-8.36
300.737	-6.31
300.952	87.89
301.166	110.42
301.381	3.93
301.595	26.45
301.809	-4.27
302.024	67.41
302.238	12.12
302.452	163.67
302.667	1.88
302.881	151.38
303.095	63.32
303.309	-4.27
303.524	36.69
303.738	-28.84
303.952	-96.43
304.166	26.45
304.381	-145.58
304.595	114.52
304.809	-67.75
305.023	26.45
305.237	42.84
305.452	1.88
305.666	34.64
305.88	128.85
306.094	57.17
306.308	28.5
306.522	30.55
306.736	32.6
306.95	89.94
307.164	-6.31
307.379	16.21
307.593	159.57
307.807	116.56
308.021	32.6
308.235	1.88
308.449	-10.41
308.663	53.08
308.877	225.11
309.091	28.5
309.305	79.7
309.519	-73.9
309.733	77.65
309.947	-75.95
310.161	65.36
310.374	20.31
310.588	91.99
310.802	-12.46
311.016	73.56
311.23	10.07
311.444	26.45
311.658	77.65
311.872	94.04
312.085	83.8
312.299	157.52
312.513	116.56
312.727	98.13
312.941	69.46
313.154	28.5
313.368	20.31
313.582	44.88
313.796	48.98
314.009	-84.14
314.223	102.23
314.437	83.8
314.651	71.51
314.864	36.69
315.078	-34.99
315.292	-32.94
315.505	36.69
315.719	8.02
315.933	-2.22
316.146	44.88
316.36	-80.04
316.573	159.57
316.787	89.94
317.001	-22.7
317.214	-14.51
317.428	75.6
317.641	-65.71
317.855	-8.36
318.068	-2.22
318.282	51.03
318.495	128.85
318.709	48.98
318.922	51.03
319.136	106.32
319.349	65.36
319.563	-26.79
319.776	22.36
319.99	-55.47
320.203	102.23
320.417	3.93
320.63	69.46
320.843	159.57
321.057	22.36
321.27	-18.6
321.483	61.27
321.697	102.23
321.91	-45.23
322.124	69.46
322.337	65.36
322.55	-102.57
322.763	-20.65
322.977	-14.51
323.19	-47.27
323.403	46.93
323.617	67.41
323.83	28.5
324.043	22.36
324.256	44.88
324.469	-80.04
324.683	85.84
324.896	-59.56
325.109	26.45
325.322	-116.9
325.535	130.9
325.748	161.62
325.962	8.02
326.175	18.26
326.388	67.41
326.601	75.6
326.814	-28.84
327.027	18.26
327.24	147.28
327.453	-55.47
327.666	112.47
327.879	143.19
328.092	18.26
328.305	110.42
328.518	42.84
328.731	32.6
328.944	-49.32
329.157	44.88
329.37	-4.27
329.583	122.71
329.796	155.47
330.009	3.93
330.222	102.23
330.435	79.7
330.648	26.45
330.861	91.99
331.073	75.6
331.286	79.7
331.499	12.12
331.712	-41.13
331.925	98.13
332.138	57.17
332.35	83.8
332.563	28.5
332.776	161.62
332.989	-73.9
333.202	-61.61
333.414	46.93
333.627	3.93
333.84	14.17
334.053	16.21
334.265	3.93
334.478	-39.08
334.691	-10.41
334.903	22.36
335.116	-110.76
335.329	-26.79
335.541	8.02
335.754	200.53
335.966	-28.84
336.179	-12.46
336.392	10.07
336.604	-24.75
336.817	22.36
337.029	30.55
337.242	10.07
337.454	67.41
337.667	-2.22
337.88	89.94
338.092	46.93
338.305	38.74
338.517	14.17
338.729	112.47
338.942	147.28
339.154	-77.99
339.367	-92.33
339.579	94.04
339.792	-49.32
340.004	77.65
340.217	10.07
340.429	63.32
340.641	-39.08
340.854	-43.18
341.066	55.12
341.278	94.04
341.491	200.53
341.703	8.02
341.915	-53.42
342.128	120.66
342.34	79.7
342.552	-112.81
342.764	8.02
342.977	-14.51
343.189	34.64
343.401	81.75
343.613	-67.75
343.826	34.64
344.038	-12.46
344.25	46.93
344.462	-28.84
344.674	18.26
344.886	3.93
345.099	106.32
345.311	112.47
345.523	-2.22
345.735	-65.71
345.947	26.45
346.159	-41.13
346.371	-18.6
346.583	1.88
346.795	175.95
347.007	-45.23
347.219	51.03
347.431	-51.37
347.643	112.47
347.855	89.94
348.067	190.29
348.279	34.64
348.491	30.55
348.703	59.22
348.915	53.08
349.127	-45.23
349.339	51.03
349.551	3.93
349.763	87.89
349.975	30.55
350.187	126.8
350.399	155.47
350.61	89.94
350.822	-32.94
351.034	63.32
351.246	26.45
351.458	98.13
351.669	65.36
351.881	32.6
352.093	128.85
352.305	81.75
352.517	-2.22
352.728	139.09
352.94	40.79
353.152	63.32
353.363	-77.99
353.575	67.41
353.787	137.04
353.999	77.65
354.21	159.57
354.422	79.7
354.633	14.17
354.845	51.03
355.057	40.79
355.268	75.6
355.48	20.31
355.692	-18.6
355.903	36.69
356.115	-45.23
356.326	-108.71
356.538	173.91
356.749	79.7
356.961	79.7
357.172	-39.08
357.384	-61.61
357.595	163.67
357.807	-53.42
358.018	-24.75
358.23	44.88
358.441	190.29
358.653	79.7
358.864	26.45
359.075	-108.71
359.287	112.47
359.498	77.65
359.709	3.93
359.921	-59.56
360.132	-12.46
360.344	30.55
360.555	-71.85
360.766	36.69
360.977	20.31
361.189	104.28
361.4	8.02
361.611	130.9
361.823	147.28
362.034	36.69
362.245	-16.55
362.456	79.7
362.667	118.61
362.879	-131.24
363.09	132.95
363.301	175.95
363.512	85.84
363.723	-63.66
363.935	-28.84
364.146	67.41
364.357	-4.27
364.568	83.8
364.779	-69.8
364.99	118.61
365.201	1.88
365.412	59.22
365.623	-143.53
365.834	69.46
366.045	1.88
366.256	48.98
366.467	102.23
366.678	12.12
366.889	46.93
367.1	22.36
367.311	24.4
367.522	-10.41
367.733	44.88
367.944	36.69
368.155	57.17
368.366	65.36
368.577	165.71
368.788	38.74
368.999	-82.09
369.209	22.36
369.42	216.91
369.631	239.44
369.842	34.64
370.053	26.45
370.264	26.45
370.474	-71.85
370.685	57.17
370.896	-4.27
371.107	137.04
371.317	75.6
371.528	18.26
371.739	173.91
371.95	12.12
372.16	100.18
372.371	-32.94
372.582	-16.55
372.792	32.6
373.003	44.88
373.214	145.24
373.424	53.08
373.635	1.88
373.846	108.37
374.056	-55.47
374.267	12.12
374.477	77.65
374.688	-16.55
374.898	-4.27
375.109	14.17
375.319	83.8
375.53	83.8
375.74	32.6
375.951	-22.7
376.161	89.94
376.372	114.52
376.582	-73.9
376.793	69.46
377.003	-88.23
377.214	-30.89
377.424	120.66
377.635	87.89
377.845	-41.13
378.055	135
378.266	-49.32
378.476	77.65
378.686	135
378.897	34.64
379.107	73.56
379.317	79.7
379.528	-69.8
379.738	71.51
379.948	-30.89
380.158	100.18
380.369	32.6
380.579	65.36
380.789	20.31
380.999	59.22
381.21	118.61
381.42	180.05
381.63	-10.41
381.84	16.21
382.05	-4.27
382.261	38.74
382.471	132.95
382.681	-10.41
382.891	116.56
383.101	40.79
383.311	-24.75
383.521	-73.9
383.731	112.47
383.941	69.46
384.151	77.65
384.361	30.55
384.571	98.13
384.781	-14.51
384.991	139.09
385.201	153.43
385.411	32.6
385.621	106.32
385.831	137.04
386.041	30.55
386.251	5.97
386.461	153.43
386.671	-0.17
386.881	18.26
387.091	36.69
387.301	89.94
387.511	22.36
387.72	126.8
387.93	122.71
388.14	-8.36
388.35	42.84
388.56	85.84
388.769	112.47
388.979	-37.03
389.189	-4.27
389.399	22.36
389.609	16.21
389.818	75.6
390.028	65.36
390.238	89.94
390.447	-34.99
390.657	118.61
390.867	5.97
391.076	-71.85
391.286	16.21
391.496	22.36
391.705	18.26
391.915	55.12
392.125	61.27
392.334	46.93
392.544	89.94
392.753	28.5
392.963	-22.7
393.172	79.7
393.382	8.02
393.591	157.52
393.801	-12.46
394.01	106.32
394.22	135
394.429	32.6
394.639	48.98
394.848	89.94
395.058	73.56
395.267	-12.46
395.477	38.74
395.686	18.26
395.895	257.87
396.105	141.14
396.314	63.32
396.524	30.55
396.733	-39.08
396.942	96.08
397.152	16.21
397.361	48.98
397.57	3.93
397.78	51.03
397.989	24.4
398.198	210.77
398.407	73.56
398.617	42.84
398.826	77.65
399.035	10.07
399.244	135
399.453	63.32
399.663	48.98
399.872	77.65
400.081	10.07
400.29	157.52
400.499	-0.17
400.708	75.6
400.917	-6.31
401.127	-2.22
401.336	-47.27
401.545	284.5
401.754	75.6
401.963	85.84
402.172	-10.41
402.381	-61.61
402.59	65.36
402.799	-61.61
403.008	71.51
403.217	96.08
403.426	71.51
403.635	-24.75
403.844	69.46
404.053	48.98
404.262	59.22
404.471	102.23
404.68	44.88
404.888	30.55
405.097	-12.46
405.306	10.07
405.515	30.55
405.724	-43.18
405.933	151.38
406.142	116.56
406.35	67.41
406.559	26.45
406.768	-2.22
406.977	141.14
407.185	22.36
407.394	8.02
407.603	-71.85
407.812	8.02
408.02	98.13
408.229	-24.75
408.438	30.55
408.646	-43.18
408.855	40.79
409.064	16.21
409.272	16.21
409.481	34.64
409.69	-39.08
409.898	-16.55
410.107	59.22
410.315	126.8
410.524	-4.27
410.733	42.84
410.941	-12.46
411.15	143.19
411.358	36.69
411.567	83.8
411.775	20.31
411.984	-39.08
412.192	69.46
412.401	12.12
412.609	118.61
412.818	102.23
413.026	114.52
413.234	-6.31
413.443	36.69
413.651	-28.84
413.86	40.79
414.068	73.56
414.276	81.75
414.485	44.88
414.693	171.86
414.901	106.32
415.11	55.12
415.318	34.64
415.526	85.84
415.734	143.19
415.943	65.36
416.151	87.89
416.359	-4.27
416.567	42.84
416.776	16.21
416.984	42.84
417.192	182.1
417.4	-12.46
417.608	-26.79
417.817	-28.84
418.025	32.6
418.233	157.52
418.441	12.12
418.649	-47.27
418.857	36.69
419.065	114.52
419.273	-16.55
419.481	42.84
419.689	51.03
419.897	48.98
420.105	-106.67
420.313	106.32
420.521	155.47
420.729	116.56
420.937	5.97
421.145	1.88
421.353	36.69
421.561	116.56
421.769	102.23
421.977	-4.27
422.185	81.75
422.393	-8.36
422.601	51.03
422.809	10.07
423.017	1.88
423.224	91.99
423.432	89.94
423.64	30.55
423.848	151.38
424.056	48.98
424.263	73.56
424.471	44.88
424.679	57.17
424.887	-10.41
425.094	18.26
425.302	44.88
425.51	-16.55
425.718	81.75
425.925	73.56
426.133	-0.17
426.341	210.77
426.548	36.69
426.756	14.17
426.964	51.03
427.171	34.64
427.379	16.21
427.586	28.5
427.794	44.88
428.001	83.8
428.209	67.41
428.417	182.1
428.624	102.23
428.832	69.46
429.039	38.74
429.247	38.74
429.454	141.14
429.662	210.77
429.869	91.99
430.076	67.41
430.284	143.19
430.491	198.48
430.699	139.09
430.906	98.13
431.114	112.47
431.321	96.08
431.528	73.56
431.736	96.08
431.943	98.13
432.15	83.8
432.358	112.47
432.565	231.25
432.772	-55.47
432.979	190.29
433.187	44.88
433.394	124.76
433.601	85.84
433.808	227.15
434.016	171.86
434.223	190.29
434.43	184.15
434.637	221.01
434.844	188.24
435.052	135
435.259	190.29
435.466	298.83
435.673	108.37
435.88	100.18
436.087	212.82
436.294	356.18
436.501	120.66
436.708	159.57
436.915	237.39
437.122	343.89
437.329	122.71
437.537	233.3
437.743	190.29
437.95	335.7
438.157	235.35
438.364	186.19
438.571	247.63
438.778	255.83
438.985	261.97
439.192	350.03
439.399	192.34
439.606	266.07
439.813	284.5
440.02	434
440.227	446.29
440.433	313.17
440.64	399.18
440.847	292.69
441.054	362.32
441.261	507.73
441.467	434
441.674	423.76
441.881	468.81
442.088	345.94
442.294	466.77
442.501	483.15
442.708	614.22
442.914	520.01
443.121	511.82
443.328	571.21
443.534	663.37
443.741	669.52
443.948	579.4
444.154	675.66
444.361	853.83
444.568	687.95
444.774	739.15
444.981	646.99
445.187	862.02
445.394	778.06
445.6	765.77
445.807	962.37
446.013	872.26
446.22	776.01
446.426	948.04
446.633	1056.58
446.839	1130.31
447.046	958.28
447.252	1167.17
447.459	1138.5
447.665	982.85
447.871	1265.47
448.078	1343.3
448.284	1226.56
448.491	1414.98
448.697	1433.41
448.903	1449.79
449.11	1496.89
449.316	1367.87
449.522	1642.3
449.728	1615.68
449.935	1744.7
450.141	1638.2
450.347	1834.81
450.553	1752.89
450.76	1974.07
450.966	1875.77
451.172	1978.17
451.378	2002.74
451.584	2215.73
451.791	2338.61
451.997	2309.94
452.203	2346.8
452.409	2670.38
452.615	2590.51
452.821	2488.11
453.027	2617.13
453.233	2996.01
453.44	2731.82
453.646	2963.24
453.852	3075.88
454.058	3161.89
454.264	3417.89
454.47	3503.9
454.676	3534.62
454.882	3854.11
455.088	3673.89
455.294	4001.56
455.5	4140.82
455.705	4591.38
455.911	4503.31
456.117	4632.33
456.323	4728.59
456.529	4722.45
456.735	5199.62
456.941	5322.5
457.147	5441.28
457.352	5666.56
457.558	5525.25
457.764	6070.01
457.97	6188.79
458.176	6491.89
458.381	6928.11
458.587	6962.92
458.793	7309.03
458.999	7286.5
459.204	8103.64
459.41	8470.23
459.616	8347.35
459.821	8693.46
460.027	9125.58
460.233	9559.75
460.438	9699.01
460.644	10192.57
460.85	10374.84
461.055	10718.9
461.261	11423.4
461.466	11060.91
461.672	11333.29
461.878	12375.7
462.083	12326.55
462.289	12603.03
462.494	13438.6
462.7	13278.86
462.905	13414.02
463.111	14718.58
463.316	15244.91
463.522	15525.48
463.727	15902.31
463.932	17077.84
464.138	17282.64
464.343	17681.99
464.549	17829.45
464.754	19424.81
464.959	19777.06
465.165	20133.41
465.37	20039.2
465.575	19869.22
465.781	21493.26
465.986	21888.52
466.191	21669.39
466.397	21687.82
466.602	21345.81
466.807	22478.33
467.012	22795.77
467.218	23356.91
467.423	23422.45
467.628	24051.17
467.833	25277.91
468.038	24638.94
468.244	24489.44
468.449	25257.43
468.654	24907.23
468.859	25243.09
469.064	24876.51
469.269	24450.53
469.474	24534.49
