Data from USB4F104151__73__11-31-03-164.txt Node

Date: Wed Feb 26 11:31:03 EST 2025
User: louis
Spectrometer: USB4F10415
Trigger mode: 4
Integration Time (sec): 1.000000E-1
Scans to average: 1
Electric dark correction enabled: true
Nonlinearity correction enabled: false
Boxcar width: 0
XAxis mode: Wavelengths
Number of Pixels in Spectrum: 3648
>>>>>Begin Spectral Data<<<<<
178.204	-344.06
178.424	-344.06
178.644	-344.06
178.864	-391.16
179.084	-356.35
179.304	6.14
179.524	8.19
179.744	-16.38
179.964	14.34
180.184	83.97
180.404	-40.96
180.624	40.96
180.844	6.14
181.064	-61.44
181.283	32.77
181.503	-55.3
181.723	-18.43
181.943	-169.98
182.163	239.61
182.383	-14.34
182.602	98.3
182.822	135.17
183.042	86.01
183.262	-12.29
183.482	55.3
183.701	98.3
183.921	26.62
184.141	-55.3
184.361	30.72
184.58	4.1
184.8	73.73
185.02	-6.14
185.239	100.35
185.459	112.64
185.679	151.55
185.898	-77.82
186.118	92.16
186.338	83.97
186.557	194.56
186.777	-65.53
186.997	-40.96
187.216	88.06
187.436	104.45
187.655	57.34
187.875	200.7
188.095	57.34
188.314	157.69
188.534	155.65
188.753	18.43
188.973	122.88
189.192	163.84
189.412	59.39
189.631	38.91
189.851	131.07
190.07	92.16
190.29	-61.44
190.509	2.05
190.729	139.26
190.948	131.07
191.168	266.24
191.387	129.02
191.607	-18.43
191.826	110.59
192.045	43.01
192.265	-20.48
192.484	-10.24
192.704	-14.34
192.923	-49.15
193.142	184.32
193.362	120.83
193.581	120.83
193.8	88.06
194.02	53.25
194.239	157.69
194.458	120.83
194.678	49.15
194.897	-6.14
195.116	65.54
195.335	32.77
195.555	137.21
195.774	-8.19
195.993	77.82
196.212	30.72
196.432	-40.96
196.651	-8.19
196.87	124.93
197.089	202.75
197.308	59.39
197.528	67.58
197.747	20.48
197.966	77.82
198.185	151.55
198.404	-36.86
198.623	122.88
198.842	67.58
199.062	139.26
199.281	124.93
199.5	79.87
199.719	131.07
199.938	77.82
200.157	77.82
200.376	110.59
200.595	151.55
200.814	126.97
201.033	-20.48
201.252	153.6
201.471	108.54
201.69	77.82
201.909	57.34
202.128	104.45
202.347	129.02
202.566	2.05
202.785	-12.29
203.004	-67.58
203.223	333.82
203.442	8.19
203.661	2.05
203.879	88.06
204.098	114.69
204.317	69.63
204.536	106.49
204.755	73.73
204.974	172.03
205.193	45.06
205.411	149.5
205.63	108.54
205.849	108.54
206.068	51.2
206.287	73.73
206.505	237.56
206.724	-16.38
206.943	-20.48
207.162	10.24
207.381	30.72
207.599	53.25
207.818	38.91
208.037	6.14
208.255	90.11
208.474	47.1
208.693	102.4
208.911	45.06
209.13	129.02
209.349	139.26
209.567	126.97
209.786	83.97
210.005	104.45
210.223	8.19
210.442	-79.87
210.661	61.44
210.879	108.54
211.098	63.49
211.316	120.83
211.535	118.78
211.753	75.77
211.972	6.14
212.191	12.29
212.409	30.72
212.628	167.93
212.846	-8.19
213.065	86.01
213.283	112.64
213.502	102.4
213.72	69.63
213.938	59.39
214.157	18.43
214.375	108.54
214.594	40.96
214.812	108.54
215.031	4.1
215.249	71.68
215.467	108.54
215.686	133.12
215.904	110.59
216.122	34.82
216.341	172.03
216.559	75.77
216.778	137.21
216.996	147.45
217.214	-16.38
217.432	-10.24
217.651	-45.06
217.869	32.77
218.087	63.49
218.306	28.67
218.524	-32.77
218.742	34.82
218.96	202.75
219.179	77.82
219.397	16.38
219.615	290.81
219.833	86.01
220.051	-14.34
220.27	59.39
220.488	149.5
220.706	79.87
220.924	43.01
221.142	12.29
221.36	110.59
221.578	47.1
221.796	10.24
222.015	59.39
222.233	102.4
222.451	157.69
222.669	-53.25
222.887	71.68
223.105	-38.91
223.323	-30.72
223.541	49.15
223.759	75.77
223.977	38.91
224.195	198.65
224.413	86.01
224.631	65.54
224.849	57.34
225.067	256
225.285	-2.05
225.503	-14.34
225.721	-45.06
225.939	63.49
226.157	81.92
226.375	155.65
226.592	36.86
226.81	-59.39
227.028	235.52
227.246	98.3
227.464	67.58
227.682	92.16
227.9	36.86
228.117	126.97
228.335	79.87
228.553	71.68
228.771	53.25
228.989	26.62
229.206	141.31
229.424	-18.43
229.642	94.21
229.86	14.34
230.077	182.27
230.295	51.2
230.513	100.35
230.731	94.21
230.948	153.6
231.166	149.5
231.384	28.67
231.601	51.2
231.819	229.37
232.037	38.91
232.254	-43.01
232.472	57.34
232.689	6.14
232.907	149.5
233.125	-32.77
233.342	-20.48
233.56	40.96
233.777	16.38
233.995	43.01
234.213	163.84
234.43	126.97
234.648	26.62
234.865	34.82
235.083	40.96
235.3	108.54
235.518	92.16
235.735	204.8
235.953	135.17
236.17	8.19
236.388	10.24
236.605	139.26
236.822	104.45
237.04	53.25
237.257	112.64
237.475	-28.67
237.692	53.25
237.909	75.77
238.127	10.24
238.344	176.13
238.562	71.68
238.779	-81.92
238.996	-36.86
239.214	114.69
239.431	40.96
239.648	-16.38
239.865	167.93
240.083	182.27
240.3	-40.96
240.517	65.54
240.735	36.86
240.952	104.45
241.169	20.48
241.386	45.06
241.603	49.15
241.821	-49.15
242.038	98.3
242.255	141.31
242.472	-16.38
242.689	149.5
242.907	79.87
243.124	47.1
243.341	2.05
243.558	-55.3
243.775	-47.1
243.992	24.58
244.209	73.73
244.426	151.55
244.643	71.68
244.86	86.01
245.078	83.97
245.295	79.87
245.512	79.87
245.729	-14.34
245.946	75.77
246.163	79.87
246.38	73.73
246.597	59.39
246.814	65.54
247.031	20.48
247.248	4.1
247.464	116.73
247.681	96.25
247.898	126.97
248.115	104.45
248.332	26.62
248.549	221.18
248.766	188.41
248.983	106.49
249.2	26.62
249.417	73.73
249.633	8.19
249.85	129.02
250.067	88.06
250.284	40.96
250.501	81.92
250.717	57.34
250.934	-43.01
251.151	92.16
251.368	61.44
251.585	59.39
251.801	100.35
252.018	-22.53
252.235	12.29
252.451	-22.53
252.668	-14.34
252.885	190.46
253.102	55.3
253.318	26.62
253.535	55.3
253.752	34.82
253.968	47.1
254.185	-102.4
254.401	36.86
254.618	90.11
254.835	-4.1
255.051	180.22
255.268	75.77
255.484	28.67
255.701	81.92
255.917	55.3
256.134	-10.24
256.351	53.25
256.567	-118.78
256.784	6.14
257	-26.62
257.217	30.72
257.433	65.54
257.65	118.78
257.866	196.61
258.082	4.1
258.299	22.53
258.515	53.25
258.732	108.54
258.948	-65.53
259.165	51.2
259.381	36.86
259.597	94.21
259.814	-8.19
260.03	124.93
260.246	98.3
260.463	102.4
260.679	79.87
260.895	43.01
261.112	81.92
261.328	71.68
261.544	-20.48
261.761	190.46
261.977	-8.19
262.193	18.43
262.409	131.07
262.626	90.11
262.842	45.06
263.058	45.06
263.274	163.84
263.49	73.73
263.707	81.92
263.923	36.86
264.139	-49.15
264.355	34.82
264.571	102.4
264.787	75.77
265.004	182.27
265.22	96.25
265.436	-36.86
265.652	-12.29
265.868	22.53
266.084	20.48
266.3	45.06
266.516	4.1
266.732	69.63
266.948	-2.05
267.164	51.2
267.38	176.13
267.596	67.58
267.812	190.46
268.028	40.96
268.244	20.48
268.46	131.07
268.676	55.3
268.892	73.73
269.108	47.1
269.324	-38.91
269.54	-20.48
269.756	22.53
269.972	2.05
270.188	-10.24
270.403	-65.53
270.619	-12.29
270.835	88.06
271.051	100.35
271.267	57.34
271.483	4.1
271.698	104.45
271.914	106.49
272.13	69.63
272.346	38.91
272.562	-30.72
272.777	116.73
272.993	-22.53
273.209	47.1
273.425	141.31
273.64	-14.34
273.856	71.68
274.072	-34.82
274.287	-57.34
274.503	77.82
274.719	26.62
274.934	59.39
275.15	-90.11
275.366	83.97
275.581	20.48
275.797	53.25
276.012	55.3
276.228	18.43
276.444	34.82
276.659	161.79
276.875	28.67
277.09	-20.48
277.306	26.62
277.521	16.38
277.737	100.35
277.952	131.07
278.168	16.38
278.383	57.34
278.599	61.44
278.814	106.49
279.03	65.54
279.245	118.78
279.461	59.39
279.676	204.8
279.892	-6.14
280.107	0
280.322	47.1
280.538	59.39
280.753	8.19
280.969	118.78
281.184	12.29
281.399	186.37
281.615	-12.29
281.83	102.4
282.045	-73.73
282.26	-24.58
282.476	69.63
282.691	126.97
282.906	102.4
283.122	-26.62
283.337	71.68
283.552	36.86
283.767	45.06
283.983	188.41
284.198	-6.14
284.413	114.69
284.628	-43.01
284.843	81.92
285.058	118.78
285.274	-2.05
285.489	16.38
285.704	153.6
285.919	-32.77
286.134	10.24
286.349	-49.15
286.564	6.14
286.779	108.54
286.995	90.11
287.21	-57.34
287.425	147.45
287.64	-67.58
287.855	79.87
288.07	-14.34
288.285	174.08
288.5	141.31
288.715	112.64
288.93	30.72
289.145	30.72
289.36	55.3
289.575	-2.05
289.79	55.3
290.004	53.25
290.219	188.41
290.434	16.38
290.649	10.24
290.864	83.97
291.079	51.2
291.294	-18.43
291.509	120.83
291.724	-77.82
291.938	83.97
292.153	47.1
292.368	36.86
292.583	69.63
292.798	71.68
293.012	133.12
293.227	61.44
293.442	47.1
293.657	131.07
293.871	149.5
294.086	96.25
294.301	159.74
294.516	61.44
294.73	59.39
294.945	-92.16
295.16	45.06
295.374	235.52
295.589	176.13
295.804	53.25
296.018	47.1
296.233	122.88
296.447	49.15
296.662	-43.01
296.877	94.21
297.091	100.35
297.306	55.3
297.52	30.72
297.735	75.77
297.949	36.86
298.164	43.01
298.378	38.91
298.593	-12.29
298.807	59.39
299.022	12.29
299.236	129.02
299.451	0
299.665	124.93
299.88	4.1
300.094	71.68
300.309	8.19
300.523	-2.05
300.737	36.86
300.952	43.01
301.166	36.86
301.381	-10.24
301.595	26.62
301.809	8.19
302.024	92.16
302.238	57.34
302.452	163.84
302.667	77.82
302.881	110.59
303.095	120.83
303.309	149.5
303.524	-8.19
303.738	-16.38
303.952	-8.19
304.166	71.68
304.381	-22.53
304.595	122.88
304.809	-30.72
305.023	51.2
305.237	8.19
305.452	16.38
305.666	114.69
305.88	67.58
306.094	137.21
306.308	75.77
306.522	133.12
306.736	92.16
306.95	118.78
307.164	-20.48
307.379	-10.24
307.593	163.84
307.807	165.89
308.021	86.01
308.235	124.93
308.449	-77.82
308.663	0
308.877	241.66
309.091	51.2
309.305	110.59
309.519	-77.82
309.733	155.65
309.947	-4.1
310.161	141.31
310.374	157.69
310.588	69.63
310.802	-14.34
311.016	108.54
311.23	43.01
311.444	-4.1
311.658	0
311.872	159.74
312.085	178.17
312.299	114.69
312.513	159.74
312.727	55.3
312.941	22.53
313.154	28.67
313.368	18.43
313.582	8.19
313.796	65.54
314.009	59.39
314.223	98.3
314.437	2.05
314.651	104.45
314.864	2.05
315.078	-2.05
315.292	61.44
315.505	-20.48
315.719	90.11
315.933	77.82
316.146	-30.72
316.36	0
316.573	169.98
316.787	75.77
317.001	28.67
317.214	-90.11
317.428	102.4
317.641	-38.91
317.855	63.49
318.068	47.1
318.282	45.06
318.495	202.75
318.709	71.68
318.922	22.53
319.136	135.17
319.349	110.59
319.563	-28.67
319.776	88.06
319.99	-36.86
320.203	102.4
320.417	75.77
320.63	102.4
320.843	217.08
321.057	55.3
321.27	55.3
321.483	86.01
321.697	131.07
321.91	55.3
322.124	83.97
322.337	40.96
322.55	12.29
322.763	108.54
322.977	8.19
323.19	16.38
323.403	45.06
323.617	38.91
323.83	96.25
324.043	-20.48
324.256	118.78
324.469	-28.67
324.683	79.87
324.896	100.35
325.109	18.43
325.322	-88.06
325.535	104.45
325.748	145.41
325.962	-16.38
326.175	118.78
326.388	155.65
326.601	77.82
326.814	22.53
327.027	73.73
327.24	153.6
327.453	-49.15
327.666	90.11
327.879	178.17
328.092	102.4
328.305	174.08
328.518	4.1
328.731	22.53
328.944	26.62
329.157	112.64
329.37	20.48
329.583	208.89
329.796	167.93
330.009	0
330.222	157.69
330.435	147.45
330.648	79.87
330.861	108.54
331.073	86.01
331.286	92.16
331.499	98.3
331.712	-51.2
331.925	71.68
332.138	53.25
332.35	129.02
332.563	-10.24
332.776	133.12
332.989	18.43
333.202	20.48
333.414	43.01
333.627	51.2
333.84	36.86
334.053	51.2
334.265	71.68
334.478	2.05
334.691	34.82
334.903	55.3
335.116	43.01
335.329	61.44
335.541	108.54
335.754	161.79
335.966	-4.1
336.179	28.67
336.392	116.73
336.604	43.01
336.817	122.88
337.029	98.3
337.242	79.87
337.454	133.12
337.667	96.25
337.88	126.97
338.092	20.48
338.305	90.11
338.517	-38.91
338.729	110.59
338.942	180.22
339.154	-28.67
339.367	-57.34
339.579	139.26
339.792	-4.1
340.004	139.26
340.217	-38.91
340.429	118.78
340.641	-51.2
340.854	34.82
341.066	40.96
341.278	153.6
341.491	188.41
341.703	65.54
341.915	-57.34
342.128	229.37
342.34	98.3
342.552	8.19
342.764	-18.43
342.977	24.58
343.189	135.17
343.401	34.82
343.613	-59.39
343.826	90.11
344.038	28.67
344.25	24.58
344.462	-16.38
344.674	112.64
344.886	30.72
345.099	49.15
345.311	92.16
345.523	-32.77
345.735	-40.96
345.947	59.39
346.159	118.78
346.371	-6.14
346.583	16.38
346.795	200.7
347.007	65.54
347.219	94.21
347.431	38.91
347.643	126.97
347.855	-14.34
348.067	155.65
348.279	-61.44
348.491	47.1
348.703	86.01
348.915	51.2
349.127	-12.29
349.339	6.14
349.551	24.58
349.763	90.11
349.975	40.96
350.187	137.21
350.399	112.64
350.61	75.77
350.822	110.59
351.034	100.35
351.246	-6.14
351.458	167.93
351.669	79.87
351.881	153.6
352.093	172.03
352.305	155.65
352.517	96.25
352.728	102.4
352.94	49.15
353.152	112.64
353.363	14.34
353.575	83.97
353.787	172.03
353.999	55.3
354.21	182.27
354.422	-69.63
354.633	53.25
354.845	34.82
355.057	63.49
355.268	131.07
355.48	81.92
355.692	-40.96
355.903	18.43
356.115	59.39
356.326	-100.35
356.538	100.35
356.749	34.82
356.961	188.41
357.172	32.77
357.384	30.72
357.595	243.71
357.807	-2.05
358.018	-4.1
358.23	-43.01
358.441	157.69
358.653	73.73
358.864	4.1
359.075	2.05
359.287	73.73
359.498	94.21
359.709	57.34
359.921	49.15
360.132	108.54
360.344	57.34
360.555	28.67
360.766	81.92
360.977	16.38
361.189	129.02
361.4	43.01
361.611	131.07
361.823	120.83
362.034	67.58
362.245	-47.1
362.456	8.19
362.667	118.78
362.879	-38.91
363.09	77.82
363.301	100.35
363.512	71.68
363.723	-16.38
363.935	-47.1
364.146	67.58
364.357	53.25
364.568	0
364.779	-20.48
364.99	192.51
365.201	18.43
365.412	114.69
365.623	-55.3
365.834	81.92
366.045	178.17
366.256	133.12
366.467	22.53
366.678	30.72
366.889	133.12
367.1	26.62
367.311	110.59
367.522	45.06
367.733	51.2
367.944	69.63
368.155	-16.38
368.366	106.49
368.577	141.31
368.788	143.36
368.999	-34.82
369.209	112.64
369.42	167.93
369.631	194.56
369.842	126.97
370.053	100.35
370.264	219.13
370.474	-20.48
370.685	79.87
370.896	51.2
371.107	186.37
371.317	-28.67
371.528	-22.53
371.739	100.35
371.95	49.15
372.16	163.84
372.371	73.73
372.582	28.67
372.792	77.82
373.003	2.05
373.214	94.21
373.424	18.43
373.635	-26.62
373.846	135.17
374.056	40.96
374.267	65.54
374.477	20.48
374.688	34.82
374.898	75.77
375.109	90.11
375.319	61.44
375.53	129.02
375.74	104.45
375.951	-30.72
376.161	88.06
376.372	212.99
376.582	28.67
376.793	92.16
377.003	55.3
377.214	-10.24
377.424	81.92
377.635	63.49
377.845	-94.21
378.055	192.51
378.266	-57.34
378.476	81.92
378.686	71.68
378.897	94.21
379.107	98.3
379.317	135.17
379.528	38.91
379.738	147.45
379.948	-65.53
380.158	192.51
380.369	53.25
380.579	120.83
380.789	-59.39
380.999	133.12
381.21	139.26
381.42	245.76
381.63	30.72
381.84	161.79
382.05	-2.05
382.261	169.98
382.471	163.84
382.681	71.68
382.891	165.89
383.101	67.58
383.311	-36.86
383.521	2.05
383.731	77.82
383.941	133.12
384.151	100.35
384.361	63.49
384.571	124.93
384.781	53.25
384.991	188.41
385.201	266.24
385.411	124.93
385.621	77.82
385.831	102.4
386.041	73.73
386.251	38.91
386.461	126.97
386.671	28.67
386.881	151.55
387.091	30.72
387.301	92.16
387.511	65.54
387.72	61.44
387.93	186.37
388.14	-22.53
388.35	61.44
388.56	139.26
388.769	102.4
388.979	26.62
389.189	-18.43
389.399	16.38
389.609	75.77
389.818	73.73
390.028	53.25
390.238	133.12
390.447	-22.53
390.657	83.97
390.867	57.34
391.076	-100.35
391.286	34.82
391.496	14.34
391.705	57.34
391.915	104.45
392.125	184.32
392.334	98.3
392.544	116.73
392.753	81.92
392.963	-18.43
393.172	77.82
393.382	2.05
393.591	204.8
393.801	65.54
394.01	180.22
394.22	114.69
394.429	43.01
394.639	-6.14
394.848	20.48
395.058	133.12
395.267	43.01
395.477	200.7
395.686	122.88
395.895	210.94
396.105	231.42
396.314	71.68
396.524	100.35
396.733	32.77
396.942	51.2
397.152	61.44
397.361	161.79
397.57	12.29
397.78	104.45
397.989	147.45
398.198	145.41
398.407	36.86
398.617	94.21
398.826	100.35
399.035	-2.05
399.244	188.41
399.453	124.93
399.663	47.1
399.872	79.87
400.081	81.92
400.29	184.32
400.499	16.38
400.708	81.92
400.917	124.93
401.127	81.92
401.336	59.39
401.545	141.31
401.754	153.6
401.963	57.34
402.172	65.54
402.381	8.19
402.59	90.11
402.799	14.34
403.008	129.02
403.217	40.96
403.426	114.69
403.635	-30.72
403.844	59.39
404.053	65.54
404.262	67.58
404.471	155.65
404.68	124.93
404.888	30.72
405.097	43.01
405.306	51.2
405.515	75.77
405.724	20.48
405.933	126.97
406.142	59.39
406.35	126.97
406.559	57.34
406.768	69.63
406.977	81.92
407.185	79.87
407.394	77.82
407.603	-30.72
407.812	59.39
408.02	129.02
408.229	-2.05
408.438	104.45
408.646	-67.58
408.855	2.05
409.064	38.91
409.272	67.58
409.481	112.64
409.69	51.2
409.898	-4.1
410.107	112.64
410.315	135.17
410.524	-14.34
410.733	30.72
410.941	120.83
411.15	86.01
411.358	118.78
411.567	94.21
411.775	10.24
411.984	118.78
412.192	143.36
412.401	129.02
412.609	212.99
412.818	174.08
413.026	63.49
413.234	43.01
413.443	92.16
413.651	59.39
413.86	65.54
414.068	174.08
414.276	219.13
414.485	-10.24
414.693	153.6
414.901	270.33
415.11	88.06
415.318	116.73
415.526	20.48
415.734	67.58
415.943	65.54
416.151	108.54
416.359	63.49
416.567	102.4
416.776	116.73
416.984	188.41
417.192	266.24
417.4	14.34
417.608	57.34
417.817	2.05
418.025	167.93
418.233	192.51
418.441	-14.34
418.649	-57.34
418.857	106.49
419.065	131.07
419.273	-40.96
419.481	59.39
419.689	88.06
419.897	65.54
420.105	-2.05
420.313	165.89
420.521	108.54
420.729	149.5
420.937	36.86
421.145	18.43
421.353	88.06
421.561	172.03
421.769	73.73
421.977	16.38
422.185	129.02
422.393	55.3
422.601	106.49
422.809	96.25
423.017	104.45
423.224	116.73
423.432	45.06
423.64	81.92
423.848	155.65
424.056	6.14
424.263	98.3
424.471	100.35
424.679	225.28
424.887	-8.19
425.094	126.97
425.302	151.55
425.51	108.54
425.718	75.77
425.925	86.01
426.133	51.2
426.341	163.84
426.548	110.59
426.756	110.59
426.964	57.34
427.171	30.72
427.379	49.15
427.586	126.97
427.794	47.1
428.001	159.74
428.209	94.21
428.417	139.26
428.624	104.45
428.832	40.96
429.039	98.3
429.247	88.06
429.454	120.83
429.662	202.75
429.869	169.98
430.076	204.8
430.284	151.55
430.491	149.5
430.699	124.93
430.906	157.69
431.114	147.45
431.321	194.56
431.528	124.93
431.736	77.82
431.943	188.41
432.15	120.83
432.358	141.31
432.565	241.66
432.772	0
432.979	149.5
433.187	135.17
433.394	172.03
433.601	178.17
433.808	188.41
434.016	260.09
434.223	270.33
434.43	186.37
434.637	206.84
434.844	286.72
435.052	217.08
435.259	266.24
435.466	249.85
435.673	174.08
435.88	204.8
436.087	290.81
436.294	325.63
436.501	245.76
436.708	208.89
436.915	212.99
437.122	358.39
437.329	208.89
437.537	165.89
437.743	118.78
437.95	413.69
438.157	239.61
438.364	278.52
438.571	243.71
438.778	288.76
438.985	378.87
439.192	387.07
439.399	270.33
439.606	407.55
439.813	401.4
440.02	489.46
440.227	524.28
440.433	509.94
440.64	485.37
440.847	278.52
441.054	466.94
441.261	550.9
441.467	405.5
441.674	493.56
441.881	477.18
442.088	534.52
442.294	530.42
442.501	583.67
442.708	540.66
442.914	497.66
443.121	673.78
443.328	684.02
443.534	677.88
443.741	700.41
443.948	614.39
444.154	733.17
444.361	1023.98
444.568	741.36
444.774	823.28
444.981	815.09
445.187	878.58
445.394	790.52
445.6	919.54
445.807	978.93
446.013	935.92
446.22	905.2
446.426	1046.51
446.633	1089.52
446.839	1239.02
447.046	1030.13
447.252	1169.39
447.459	1222.64
447.665	1148.91
447.871	1310.7
448.078	1486.83
448.284	1427.43
448.491	1429.48
448.697	1499.11
448.903	1554.41
449.11	1644.52
449.316	1558.5
449.522	1611.75
449.728	1675.24
449.935	1783.78
450.141	1896.42
450.347	1972.19
450.553	1867.75
450.76	1937.38
450.966	2127.84
451.172	2199.52
451.378	2250.72
451.584	2332.64
451.791	2414.56
451.997	2629.59
452.203	2656.22
452.409	2723.8
452.615	2863.06
452.821	2795.48
453.027	2799.57
453.233	3260.37
453.44	3078.1
453.646	3362.76
453.852	3420.11
454.058	3438.54
454.264	3508.17
454.47	3971.01
454.676	3817.41
454.882	4147.14
455.088	4042.69
455.294	4394.94
455.5	4433.85
455.705	4806.58
455.911	4851.64
456.117	4868.02
456.323	5021.62
456.529	5152.69
456.735	5543.85
456.941	5799.85
457.147	6059.94
457.352	6014.88
457.558	6289.31
457.764	6760.34
457.97	6858.65
458.176	7034.77
458.381	7438.22
458.587	7532.43
458.793	7933.83
458.999	7960.45
459.204	8865.66
459.41	9203.57
459.616	8984.44
459.821	9688.94
460.027	10002.28
460.233	10497.89
460.438	10389.35
460.644	11128.66
460.85	11126.61
461.055	11611.98
461.261	12345.16
461.466	12033.86
461.672	12220.23
461.878	13743.92
462.083	13618.99
462.289	13803.31
462.494	14305.06
462.7	14612.26
462.905	14855.97
463.111	15843.09
463.316	16738.05
463.522	17161.98
463.727	17489.65
463.932	18226.92
464.138	18685.67
464.343	19314.39
464.549	19519.19
464.754	21196.48
464.959	21419.71
465.165	21849.78
465.37	21954.23
465.575	21896.88
465.781	23277.21
465.986	23987.86
466.191	23471.77
466.397	23651.99
466.602	23453.34
466.807	24792.71
467.012	25120.38
467.218	25538.17
467.423	25351.81
467.628	25953.91
467.833	27432.54
468.038	26662.51
468.244	26365.55
468.449	27721.31
