Data from USB4F104151__19__09-25-31-021.txt Node

Date: Wed Feb 26 09:25:31 EST 2025
User: louis
Spectrometer: USB4F10415
Trigger mode: 4
Integration Time (sec): 1.000000E-1
Scans to average: 1
Electric dark correction enabled: true
Nonlinearity correction enabled: false
Boxcar width: 0
XAxis mode: Wavelengths
Number of Pixels in Spectrum: 3648
>>>>>Begin Spectral Data<<<<<
178.204	-334.67
178.424	-334.67
178.644	-334.67
178.864	-316.24
179.084	-406.35
179.304	-72.53
179.524	-29.52
179.744	11.43
179.964	74.92
180.184	38.06
180.404	83.11
180.624	-54.1
180.844	-39.76
181.064	-62.29
181.283	11.43
181.503	-37.72
181.723	76.97
181.943	-119.64
182.163	183.46
182.383	-47.96
182.602	74.92
182.822	105.64
183.042	31.91
183.262	17.58
183.482	36.01
183.701	62.63
183.921	107.69
184.141	-72.53
184.361	31.91
184.58	93.35
184.8	74.92
185.02	13.48
185.239	27.82
185.459	93.35
185.679	140.46
185.898	27.82
186.118	27.82
186.338	87.21
186.557	85.16
186.777	11.43
186.997	11.43
187.216	-23.38
187.436	171.18
187.655	138.41
187.875	68.78
188.095	17.58
188.314	83.11
188.534	203.94
188.753	40.11
188.973	76.97
189.192	109.74
189.412	21.67
189.631	44.2
189.851	140.46
190.07	130.22
190.29	-105.3
190.509	-13.14
190.729	-29.52
190.948	60.59
191.168	222.38
191.387	68.78
191.607	44.2
191.826	89.26
192.045	64.68
192.265	15.53
192.484	-29.52
192.704	58.54
192.923	-52.05
193.142	259.24
193.362	33.96
193.581	136.36
193.8	70.83
194.02	81.07
194.239	91.31
194.458	58.54
194.678	-0.85
194.897	-39.76
195.116	-9.05
195.335	42.15
195.555	83.11
195.774	-4.95
195.993	126.12
196.212	60.59
196.432	52.39
196.651	23.72
196.87	-54.1
197.089	203.94
197.308	144.55
197.528	72.87
197.747	-45.91
197.966	29.87
198.185	175.27
198.404	-11.09
198.623	27.82
198.842	91.31
199.062	52.39
199.281	140.46
199.5	-45.91
199.719	42.15
199.938	19.63
200.157	42.15
200.376	117.93
200.595	87.21
200.814	13.48
201.033	-35.67
201.252	169.13
201.471	128.17
201.69	126.12
201.909	87.21
202.128	111.78
202.347	9.39
202.566	27.82
202.785	-9.05
203.004	-103.25
203.223	171.18
203.442	76.97
203.661	56.49
203.879	93.35
204.098	111.78
204.317	-37.72
204.536	117.93
204.755	87.21
204.974	122.02
205.193	9.39
205.411	218.28
205.63	140.46
205.849	72.87
206.068	25.77
206.287	9.39
206.505	76.97
206.724	40.11
206.943	11.43
207.162	36.01
207.381	29.87
207.599	-29.52
207.818	23.72
208.037	-11.09
208.255	38.06
208.474	83.11
208.693	64.68
208.911	50.35
209.13	85.16
209.349	91.31
209.567	126.12
209.786	68.78
210.005	187.56
210.223	40.11
210.442	-80.72
210.661	19.63
210.879	56.49
211.098	40.11
211.316	3.24
211.535	76.97
211.753	11.43
211.972	31.91
212.191	48.3
212.409	-17.24
212.628	93.35
212.846	-0.85
213.065	74.92
213.283	203.94
213.502	25.77
213.72	7.34
213.938	70.83
214.157	3.24
214.375	97.45
214.594	1.19
214.812	132.26
215.031	50.35
215.249	-15.19
215.467	79.02
215.686	70.83
215.904	58.54
216.122	50.35
216.341	91.31
216.559	48.3
216.778	68.78
216.996	60.59
217.214	38.06
217.432	-47.96
217.651	-15.19
217.869	-4.95
218.087	-39.76
218.306	83.11
218.524	68.78
218.742	5.29
218.96	109.74
219.179	76.97
219.397	31.91
219.615	142.5
219.833	142.5
220.051	-11.09
220.27	74.92
220.488	117.93
220.706	44.2
220.924	15.53
221.142	9.39
221.36	52.39
221.578	21.67
221.796	27.82
222.015	21.67
222.233	60.59
222.451	126.12
222.669	11.43
222.887	99.5
223.105	-35.67
223.323	87.21
223.541	64.68
223.759	3.24
223.977	19.63
224.195	216.23
224.413	113.83
224.631	62.63
224.849	44.2
225.067	130.22
225.285	64.68
225.503	56.49
225.721	-140.12
225.939	21.67
226.157	76.97
226.375	130.22
226.592	-23.38
226.81	72.87
227.028	64.68
227.246	146.6
227.464	81.07
227.682	128.17
227.9	44.2
228.117	93.35
228.335	58.54
228.553	44.2
228.771	54.44
228.989	107.69
229.206	103.59
229.424	-13.14
229.642	101.55
229.86	-11.09
230.077	36.01
230.295	44.2
230.513	165.03
230.731	124.07
230.948	103.59
231.166	148.65
231.384	27.82
231.601	-7
231.819	154.79
232.037	-52.05
232.254	-66.39
232.472	64.68
232.689	-41.81
232.907	76.97
233.125	68.78
233.342	15.53
233.56	-39.76
233.777	-13.14
233.995	9.39
234.213	68.78
234.43	13.48
234.648	15.53
234.865	-13.14
235.083	31.91
235.3	74.92
235.518	91.31
235.735	93.35
235.953	42.15
236.17	44.2
236.388	11.43
236.605	-11.09
236.822	89.26
237.04	177.32
237.257	50.35
237.475	-43.86
237.692	81.07
237.909	-4.95
238.127	-23.38
238.344	105.64
238.562	33.96
238.779	-78.68
238.996	29.87
239.214	70.83
239.431	89.26
239.648	74.92
239.865	99.5
240.083	66.73
240.3	33.96
240.517	-2.9
240.735	29.87
240.952	160.94
241.169	68.78
241.386	91.31
241.603	27.82
241.821	-70.48
242.038	95.4
242.255	122.02
242.472	-21.33
242.689	72.87
242.907	107.69
243.124	117.93
243.341	44.2
243.558	74.92
243.775	-56.15
243.992	19.63
244.209	74.92
244.426	136.36
244.643	11.43
244.86	58.54
245.078	36.01
245.295	105.64
245.512	33.96
245.729	-29.52
245.946	52.39
246.163	17.58
246.38	-7
246.597	44.2
246.814	27.82
247.031	23.72
247.248	23.72
247.464	54.44
247.681	54.44
247.898	74.92
248.115	11.43
248.332	-76.63
248.549	167.08
248.766	126.12
248.983	44.2
249.2	66.73
249.417	58.54
249.633	17.58
249.85	52.39
250.067	40.11
250.284	27.82
250.501	89.26
250.717	62.63
250.934	-41.81
251.151	-4.95
251.368	-11.09
251.585	50.35
251.801	-4.95
252.018	-64.34
252.235	48.3
252.451	-29.52
252.668	29.87
252.885	113.83
253.102	21.67
253.318	-13.14
253.535	-21.33
253.752	-66.39
253.968	27.82
254.185	-50
254.401	44.2
254.618	113.83
254.835	-45.91
255.051	132.26
255.268	62.63
255.484	36.01
255.701	-37.72
255.917	68.78
256.134	-27.48
256.351	48.3
256.567	-78.68
256.784	89.26
257	52.39
257.217	93.35
257.433	126.12
257.65	70.83
257.866	138.41
258.082	-35.67
258.299	52.39
258.515	-11.09
258.732	-11.09
258.948	-4.95
259.165	113.83
259.381	-11.09
259.597	95.4
259.814	93.35
260.03	105.64
260.246	83.11
260.463	70.83
260.679	130.22
260.895	52.39
261.112	-0.85
261.328	-2.9
261.544	-19.29
261.761	181.42
261.977	79.02
262.193	-37.72
262.409	83.11
262.626	36.01
262.842	-54.1
263.058	-45.91
263.274	132.26
263.49	99.5
263.707	25.77
263.923	154.79
264.139	-68.44
264.355	-31.57
264.571	89.26
264.787	74.92
265.004	146.6
265.22	60.59
265.436	-9.05
265.652	-33.62
265.868	74.92
266.084	-54.1
266.3	13.48
266.516	-7
266.732	56.49
266.948	97.45
267.164	25.77
267.38	134.31
267.596	113.83
267.812	242.85
268.028	44.2
268.244	50.35
268.46	-9.05
268.676	-45.91
268.892	50.35
269.108	-19.29
269.324	-72.53
269.54	3.24
269.756	109.74
269.972	52.39
270.188	-9.05
270.403	1.19
270.619	126.12
270.835	101.55
271.051	36.01
271.267	3.24
271.483	89.26
271.698	89.26
271.914	58.54
272.13	99.5
272.346	52.39
272.562	36.01
272.777	111.78
272.993	17.58
273.209	-23.38
273.425	40.11
273.64	-60.24
273.856	126.12
274.072	-41.81
274.287	-37.72
274.503	124.07
274.719	126.12
274.934	21.67
275.15	-66.39
275.366	46.25
275.581	-21.33
275.797	85.16
276.012	81.07
276.228	93.35
276.444	64.68
276.659	36.01
276.875	-23.38
277.09	-17.24
277.306	-11.09
277.521	60.59
277.737	13.48
277.952	101.55
278.168	19.63
278.383	31.91
278.599	122.02
278.814	15.53
279.03	122.02
279.245	144.55
279.461	27.82
279.676	158.89
279.892	3.24
280.107	-88.92
280.322	-17.24
280.538	68.78
280.753	44.2
280.969	50.35
281.184	48.3
281.399	72.87
281.615	-4.95
281.83	93.35
282.045	-86.87
282.26	19.63
282.476	33.96
282.691	111.78
282.906	31.91
283.122	66.73
283.337	50.35
283.552	9.39
283.767	3.24
283.983	23.72
284.198	-0.85
284.413	83.11
284.628	-54.1
284.843	-45.91
285.058	93.35
285.274	19.63
285.489	29.87
285.704	60.59
285.919	-13.14
286.134	-56.15
286.349	21.67
286.564	3.24
286.779	109.74
286.995	66.73
287.21	-68.44
287.425	52.39
287.64	52.39
287.855	9.39
288.07	5.29
288.285	46.25
288.5	107.69
288.715	60.59
288.93	76.97
289.145	-11.09
289.36	117.93
289.575	25.77
289.79	117.93
290.004	7.34
290.219	132.26
290.434	-43.86
290.649	31.91
290.864	25.77
291.079	-9.05
291.294	50.35
291.509	74.92
291.724	27.82
291.938	9.39
292.153	64.68
292.368	-31.57
292.583	89.26
292.798	81.07
293.012	29.87
293.227	107.69
293.442	-25.43
293.657	105.64
293.871	144.55
294.086	17.58
294.301	154.79
294.516	99.5
294.73	58.54
294.945	-25.43
295.16	38.06
295.374	72.87
295.589	146.6
295.804	11.43
296.018	9.39
296.233	142.5
296.447	89.26
296.662	-4.95
296.877	68.78
297.091	7.34
297.306	56.49
297.52	-15.19
297.735	38.06
297.949	31.91
298.164	38.06
298.378	50.35
298.593	-11.09
298.807	11.43
299.022	42.15
299.236	117.93
299.451	29.87
299.665	-41.81
299.88	-66.39
300.094	76.97
300.309	36.01
300.523	60.59
300.737	-11.09
300.952	-23.38
301.166	15.53
301.381	64.68
301.595	27.82
301.809	31.91
302.024	-66.39
302.238	-50
302.452	109.74
302.667	7.34
302.881	115.88
303.095	89.26
303.309	58.54
303.524	27.82
303.738	52.39
303.952	7.34
304.166	103.59
304.381	-70.48
304.595	148.65
304.809	-11.09
305.023	87.21
305.237	9.39
305.452	91.31
305.666	62.63
305.88	58.54
306.094	76.97
306.308	79.02
306.522	138.41
306.736	76.97
306.95	72.87
307.164	9.39
307.379	36.01
307.593	130.22
307.807	150.7
308.021	91.31
308.235	68.78
308.449	-13.14
308.663	101.55
308.877	162.98
309.091	99.5
309.305	93.35
309.519	-29.52
309.733	93.35
309.947	-7
310.161	91.31
310.374	115.88
310.588	70.83
310.802	-29.52
311.016	46.25
311.23	44.2
311.444	-7
311.658	29.87
311.872	42.15
312.085	44.2
312.299	183.46
312.513	128.17
312.727	87.21
312.941	3.24
313.154	85.16
313.368	31.91
313.582	52.39
313.796	-23.38
314.009	19.63
314.223	44.2
314.437	27.82
314.651	25.77
314.864	48.3
315.078	68.78
315.292	-21.33
315.505	-54.1
315.719	91.31
315.933	167.08
316.146	42.15
316.36	-4.95
316.573	105.64
316.787	85.16
317.001	60.59
317.214	-29.52
317.428	83.11
317.641	-4.95
317.855	50.35
318.068	25.77
318.282	17.58
318.495	177.32
318.709	60.59
318.922	15.53
319.136	171.18
319.349	93.35
319.563	25.77
319.776	15.53
319.99	-56.15
320.203	89.26
320.417	105.64
320.63	113.83
320.843	136.36
321.057	3.24
321.27	64.68
321.483	44.2
321.697	109.74
321.91	48.3
322.124	76.97
322.337	60.59
322.55	19.63
322.763	44.2
322.977	21.67
323.19	-11.09
323.403	66.73
323.617	44.2
323.83	160.94
324.043	5.29
324.256	48.3
324.469	-64.34
324.683	142.5
324.896	74.92
325.109	76.97
325.322	52.39
325.535	62.63
325.748	85.16
325.962	56.49
326.175	66.73
326.388	72.87
326.601	89.26
326.814	23.72
327.027	105.64
327.24	52.39
327.453	-29.52
327.666	68.78
327.879	119.98
328.092	171.18
328.305	60.59
328.518	-27.48
328.731	85.16
328.944	-4.95
329.157	99.5
329.37	33.96
329.583	201.9
329.796	58.54
330.009	17.58
330.222	97.45
330.435	64.68
330.648	29.87
330.861	54.44
331.073	58.54
331.286	220.33
331.499	1.19
331.712	5.29
331.925	58.54
332.138	48.3
332.35	19.63
332.563	-80.72
332.776	115.88
332.989	-27.48
333.202	-9.05
333.414	72.87
333.627	72.87
333.84	-25.43
334.053	107.69
334.265	-4.95
334.478	21.67
334.691	76.97
334.903	23.72
335.116	66.73
335.329	60.59
335.541	40.11
335.754	109.74
335.966	52.39
336.179	-41.81
336.392	83.11
336.604	31.91
336.817	144.55
337.029	3.24
337.242	1.19
337.454	79.02
337.667	-4.95
337.88	113.83
338.092	167.08
338.305	103.59
338.517	-90.96
338.729	115.88
338.942	167.08
339.154	46.25
339.367	-33.62
339.579	79.02
339.792	36.01
340.004	13.48
340.217	19.63
340.429	48.3
340.641	-27.48
340.854	-31.57
341.066	36.01
341.278	68.78
341.491	103.59
341.703	62.63
341.915	9.39
342.128	122.02
342.34	85.16
342.552	-9.05
342.764	48.3
342.977	-11.09
343.189	15.53
343.401	64.68
343.613	-64.34
343.826	44.2
344.038	9.39
344.25	-47.96
344.462	-47.96
344.674	111.78
344.886	-4.95
345.099	60.59
345.311	-9.05
345.523	50.35
345.735	42.15
345.947	-33.62
346.159	58.54
346.371	36.01
346.583	19.63
346.795	171.18
347.007	-4.95
347.219	109.74
347.431	-4.95
347.643	99.5
347.855	87.21
348.067	138.41
348.279	-43.86
348.491	-23.38
348.703	48.3
348.915	23.72
349.127	-29.52
349.339	5.29
349.551	13.48
349.763	115.88
349.975	58.54
350.187	124.07
350.399	83.11
350.61	93.35
350.822	56.49
351.034	89.26
351.246	107.69
351.458	89.26
351.669	134.31
351.881	124.07
352.093	83.11
352.305	142.5
352.517	-0.85
352.728	117.93
352.94	25.77
353.152	126.12
353.363	1.19
353.575	21.67
353.787	144.55
353.999	150.7
354.21	154.79
354.422	-103.25
354.633	44.2
354.845	3.24
355.057	72.87
355.268	46.25
355.48	36.01
355.692	-66.39
355.903	42.15
356.115	-43.86
356.326	-78.68
356.538	132.26
356.749	93.35
356.961	195.75
357.172	40.11
357.384	33.96
357.595	138.41
357.807	76.97
358.018	-29.52
358.23	81.07
358.441	89.26
358.653	48.3
358.864	-0.85
359.075	11.43
359.287	21.67
359.498	122.02
359.709	93.35
359.921	27.82
360.132	-13.14
360.344	-4.95
360.555	-0.85
360.766	68.78
360.977	40.11
361.189	117.93
361.4	-21.33
361.611	68.78
361.823	40.11
362.034	25.77
362.245	-25.43
362.456	54.44
362.667	128.17
362.879	-37.72
363.09	93.35
363.301	9.39
363.512	72.87
363.723	1.19
363.935	9.39
364.146	36.01
364.357	89.26
364.568	33.96
364.779	1.19
364.99	27.82
365.201	-45.91
365.412	160.94
365.623	-56.15
365.834	93.35
366.045	-66.39
366.256	40.11
366.467	87.21
366.678	97.45
366.889	31.91
367.1	101.55
367.311	83.11
367.522	11.43
367.733	54.44
367.944	81.07
368.155	-23.38
368.366	95.4
368.577	42.15
368.788	85.16
368.999	9.39
369.209	115.88
369.42	220.33
369.631	212.14
369.842	85.16
370.053	46.25
370.264	64.68
370.474	-4.95
370.685	36.01
370.896	68.78
371.107	134.31
371.317	48.3
371.528	126.12
371.739	101.55
371.95	97.45
372.16	70.83
372.371	-4.95
372.582	7.34
372.792	103.59
373.003	-35.67
373.214	68.78
373.424	74.92
373.635	15.53
373.846	93.35
374.056	29.87
374.267	74.92
374.477	72.87
374.688	33.96
374.898	68.78
375.109	40.11
375.319	50.35
375.53	134.31
375.74	76.97
375.951	-15.19
376.161	-9.05
376.372	122.02
376.582	48.3
376.793	48.3
377.003	-39.76
377.214	15.53
377.424	85.16
377.635	79.02
377.845	15.53
378.055	142.5
378.266	-21.33
378.476	-17.24
378.686	52.39
378.897	31.91
379.107	66.73
379.317	36.01
379.528	11.43
379.738	74.92
379.948	-39.76
380.158	60.59
380.369	150.7
380.579	48.3
380.789	36.01
380.999	107.69
381.21	126.12
381.42	107.69
381.63	-45.91
381.84	74.92
382.05	146.6
382.261	72.87
382.471	89.26
382.681	66.73
382.891	89.26
383.101	-0.85
383.311	-7
383.521	-19.29
383.731	111.78
383.941	68.78
384.151	52.39
384.361	113.83
384.571	95.4
384.781	72.87
384.991	199.85
385.201	124.07
385.411	81.07
385.621	-29.52
385.831	60.59
386.041	56.49
386.251	85.16
386.461	124.07
386.671	79.02
386.881	42.15
387.091	27.82
387.301	97.45
387.511	52.39
387.72	60.59
387.93	99.5
388.14	1.19
388.35	124.07
388.56	140.46
388.769	130.22
388.979	56.49
389.189	19.63
389.399	126.12
389.609	89.26
389.818	101.55
390.028	50.35
390.238	58.54
390.447	-7
390.657	142.5
390.867	64.68
391.076	-37.72
391.286	60.59
391.496	-17.24
391.705	50.35
391.915	148.65
392.125	160.94
392.334	33.96
392.544	134.31
392.753	33.96
392.963	17.58
393.172	-15.19
393.382	-29.52
393.591	148.65
393.801	111.78
394.01	105.64
394.22	68.78
394.429	17.58
394.639	29.87
394.848	52.39
395.058	48.3
395.267	-0.85
395.477	68.78
395.686	93.35
395.895	148.65
396.105	187.56
396.314	122.02
396.524	15.53
396.733	7.34
396.942	87.21
397.152	68.78
397.361	74.92
397.57	40.11
397.78	72.87
397.989	17.58
398.198	154.79
398.407	68.78
398.617	19.63
398.826	46.25
399.035	167.08
399.244	134.31
399.453	17.58
399.663	52.39
399.872	93.35
400.081	-41.81
400.29	76.97
400.499	-41.81
400.708	107.69
400.917	-4.95
401.127	19.63
401.336	-19.29
401.545	128.17
401.754	169.13
401.963	101.55
402.172	60.59
402.381	-33.62
402.59	-21.33
402.799	42.15
403.008	79.02
403.217	97.45
403.426	23.72
403.635	-60.24
403.844	11.43
404.053	31.91
404.262	-27.48
404.471	132.26
404.68	130.22
404.888	52.39
405.097	27.82
405.306	29.87
405.515	74.92
405.724	44.2
405.933	130.22
406.142	38.06
406.35	138.41
406.559	38.06
406.768	3.24
406.977	142.5
407.185	91.31
407.394	109.74
407.603	17.58
407.812	27.82
408.02	156.84
408.229	66.73
408.438	52.39
408.646	48.3
408.855	93.35
409.064	44.2
409.272	-7
409.481	79.02
409.69	66.73
409.898	-45.91
410.107	117.93
410.315	87.21
410.524	-37.72
410.733	101.55
410.941	-9.05
411.15	44.2
411.358	117.93
411.567	183.46
411.775	42.15
411.984	66.73
412.192	52.39
412.401	74.92
412.609	117.93
412.818	167.08
413.026	91.31
413.234	115.88
413.443	93.35
413.651	13.48
413.86	89.26
414.068	101.55
414.276	111.78
414.485	9.39
414.693	134.31
414.901	175.27
415.11	87.21
415.318	48.3
415.526	40.11
415.734	85.16
415.943	52.39
416.151	146.6
416.359	99.5
416.567	27.82
416.776	64.68
416.984	81.07
417.192	117.93
417.4	74.92
417.608	60.59
417.817	1.19
418.025	85.16
418.233	167.08
418.441	72.87
418.649	-47.96
418.857	79.02
419.065	124.07
419.273	33.96
419.481	76.97
419.689	81.07
419.897	68.78
420.105	15.53
420.313	111.78
420.521	138.41
420.729	165.03
420.937	25.77
421.145	48.3
421.353	52.39
421.561	128.17
421.769	103.59
421.977	-25.43
422.185	146.6
422.393	79.02
422.601	171.18
422.809	113.83
423.017	33.96
423.224	25.77
423.432	126.12
423.64	99.5
423.848	124.07
424.056	40.11
424.263	122.02
424.471	101.55
424.679	103.59
424.887	33.96
425.094	179.37
425.302	99.5
425.51	140.46
425.718	132.26
425.925	109.74
426.133	17.58
426.341	212.14
426.548	68.78
426.756	109.74
426.964	181.42
427.171	68.78
427.379	128.17
427.586	115.88
427.794	124.07
428.001	183.46
428.209	68.78
428.417	140.46
428.624	113.83
428.832	185.51
429.039	117.93
429.247	175.27
429.454	124.07
429.662	201.9
429.869	228.52
430.076	74.92
430.284	255.14
430.491	228.52
430.699	138.41
430.906	277.67
431.114	175.27
431.321	150.7
431.528	142.5
431.736	189.61
431.943	165.03
432.15	279.72
432.358	152.74
432.565	371.88
432.772	126.12
432.979	283.81
433.187	189.61
433.394	228.52
433.601	156.84
433.808	238.76
434.016	273.57
434.223	322.73
434.43	273.57
434.637	228.52
434.844	384.16
435.052	345.25
435.259	292.01
435.466	388.26
435.673	257.19
435.88	326.82
436.087	365.73
436.294	363.69
436.501	330.92
436.708	349.35
436.915	392.36
437.122	580.77
437.329	433.32
437.537	412.84
437.743	425.12
437.95	584.87
438.157	507.04
438.364	455.84
438.571	507.04
438.778	554.15
438.985	515.23
439.192	599.2
439.399	627.87
439.606	656.54
439.813	664.74
440.02	760.99
440.227	801.95
440.433	756.9
440.64	715.94
440.847	765.09
441.054	720.03
441.261	947.36
441.467	814.24
441.674	830.62
441.881	1041.56
442.088	930.97
442.294	941.21
442.501	900.25
442.708	1051.8
442.914	1051.8
443.121	1098.91
443.328	1158.3
443.534	1121.43
443.741	1256.6
443.948	1174.68
444.154	1393.81
444.361	1578.13
444.568	1402.01
444.774	1381.53
444.981	1356.95
445.187	1567.89
445.394	1617.04
445.6	1565.84
445.807	1840.27
446.013	1748.11
446.22	1707.15
446.426	1838.22
446.633	2065.55
446.839	2276.49
447.046	2098.31
447.252	2184.33
447.459	2096.27
447.665	2276.49
447.871	2397.32
448.078	2503.81
448.284	2559.11
448.491	2559.11
448.697	2868.35
448.903	2899.07
449.11	3116.16
449.316	2862.21
449.522	3157.11
449.728	3277.94
449.935	3419.25
450.141	3320.95
450.347	3599.48
450.553	3591.28
450.76	3791.98
450.966	3984.49
451.172	4131.95
451.378	4289.64
451.584	4400.23
451.791	4656.23
451.997	4701.28
452.203	4899.94
452.409	5110.88
452.615	5293.15
452.821	5088.35
453.027	5168.22
453.233	5925.97
453.44	5672.02
453.646	6044.75
453.852	6272.07
454.058	6462.54
454.264	6753.35
454.47	7279.68
454.676	7261.24
454.882	7838.77
455.088	7500.86
455.294	7810.1
455.5	8457.26
455.705	8825.89
455.911	9096.22
456.117	9366.56
456.323	9677.85
456.529	9667.61
456.735	10578.95
456.941	10601.48
457.147	11248.64
457.352	11400.19
457.558	11676.66
457.764	12151.79
457.97	12901.35
458.176	13450.21
458.381	13837.27
458.587	14089.17
458.793	14877.64
458.999	14891.98
459.204	16780.2
459.41	17075.11
459.616	16948.14
459.821	17937.3
460.027	19108.74
460.233	19723.13
460.438	19510.14
460.644	21015.4
460.85	20972.39
461.055	21967.71
461.261	23110.47
461.466	22354.77
461.672	22879.05
461.878	25797.41
462.083	25322.28
462.289	25910.05
462.494	27067.15
462.7	27081.49
462.905	27491.08
463.111	29598.44
463.316	30921.43
463.522	31814.34
463.727	32486.07
463.932	34185.89
464.138	34744.98
464.343	36598.4
464.549	36309.63
464.754	38961.75
464.959	40065.61
465.165	41013.82
465.37	40456.77
465.575	40782.4
465.781	43352.6
465.986	44618.24
466.191	43858.45
466.397	44507.65
466.602	43256.34
466.807	45234.68
467.012	46356.97
467.218	46938.59
467.423	47264.22
467.628	48370.12
467.833	50876.83
468.038	50067.89
468.244	49068.48
468.449	51319.2
468.654	50379.18
468.859	50506.15
