Data from USB4F104151__16__09-25-19-322.txt Node

Date: Wed Feb 26 09:25:19 EST 2025
User: louis
Spectrometer: USB4F10415
Trigger mode: 4
Integration Time (sec): 1.000000E-1
Scans to average: 1
Electric dark correction enabled: true
Nonlinearity correction enabled: false
Boxcar width: 0
XAxis mode: Wavelengths
Number of Pixels in Spectrum: 3648
>>>>>Begin Spectral Data<<<<<
178.204	-292.18
178.424	-292.18
178.644	-292.18
178.864	-337.23
179.084	-339.28
179.304	-9.56
179.524	-11.61
179.744	43.69
179.964	47.79
180.184	10.92
180.404	-40.28
180.624	-58.71
180.844	47.79
181.064	-27.99
181.283	10.92
181.503	-73.04
181.723	60.07
181.943	-77.14
182.163	201.38
182.383	-3.41
182.602	70.31
182.822	150.18
183.042	25.26
183.262	-101.72
183.482	53.93
183.701	27.31
183.921	51.88
184.141	27.31
184.361	103.08
184.58	80.55
184.8	35.5
185.02	-1.37
185.239	127.66
185.459	103.08
185.679	139.94
185.898	-99.67
186.118	76.46
186.338	55.98
186.557	72.36
186.777	-32.08
186.997	-58.71
187.216	72.36
187.436	152.23
187.655	64.17
187.875	215.72
188.095	15.02
188.314	82.6
188.534	150.18
188.753	12.97
188.973	103.08
189.192	121.51
189.412	6.83
189.631	-23.89
189.851	84.65
190.07	76.46
190.29	-9.56
190.509	10.92
190.729	43.69
190.948	172.71
191.168	240.29
191.387	64.17
191.607	31.4
191.826	144.04
192.045	62.12
192.265	29.35
192.484	15.02
192.704	19.11
192.923	2.73
193.142	156.33
193.362	72.36
193.581	144.04
193.8	107.18
194.02	103.08
194.239	127.66
194.458	92.84
194.678	-27.99
194.897	78.51
195.116	10.92
195.335	39.59
195.555	105.13
195.774	-89.43
195.993	121.51
196.212	55.98
196.432	29.35
196.651	105.13
196.87	55.98
197.089	219.82
197.308	154.28
197.528	105.13
197.747	119.46
197.966	53.93
198.185	105.13
198.404	27.31
198.623	105.13
198.842	115.37
199.062	162.47
199.281	129.7
199.5	72.36
199.719	96.94
199.938	74.41
200.157	98.99
200.376	23.21
200.595	64.17
200.814	-1.37
201.033	25.26
201.252	154.28
201.471	21.16
201.69	19.11
201.909	45.74
202.128	78.51
202.347	60.07
202.566	10.92
202.785	-1.37
203.004	-25.94
203.223	236.2
203.442	47.79
203.661	23.21
203.879	53.93
204.098	105.13
204.317	31.4
204.536	94.89
204.755	109.22
204.974	127.66
205.193	21.16
205.411	182.95
205.63	70.31
205.849	27.31
206.068	2.73
206.287	-11.61
206.505	88.75
206.724	19.11
206.943	-58.71
207.162	68.27
207.381	94.89
207.599	51.88
207.818	70.31
208.037	10.92
208.255	23.21
208.474	39.59
208.693	88.75
208.911	66.22
209.13	117.42
209.349	43.69
209.567	55.98
209.786	66.22
210.005	23.21
210.223	6.83
210.442	-68.95
210.661	2.73
210.879	70.31
211.098	37.55
211.316	96.94
211.535	37.55
211.753	8.87
211.972	27.31
212.191	21.16
212.409	12.97
212.628	92.84
212.846	-15.7
213.065	53.93
213.283	78.51
213.502	-17.75
213.72	-11.61
213.938	117.42
214.157	-13.65
214.375	96.94
214.594	6.83
214.812	127.66
215.031	119.46
215.249	47.79
215.467	113.32
215.686	-42.32
215.904	113.32
216.122	45.74
216.341	129.7
216.559	-1.37
216.778	133.8
216.996	150.18
217.214	29.35
217.432	17.07
217.651	-32.08
217.869	21.16
218.087	64.17
218.306	84.65
218.524	27.31
218.742	35.5
218.96	27.31
219.179	-1.37
219.397	-5.46
219.615	225.96
219.833	150.18
220.051	6.83
220.27	150.18
220.488	170.66
220.706	70.31
220.924	-50.52
221.142	-23.89
221.36	55.98
221.578	35.5
221.796	94.89
222.015	43.69
222.233	-11.61
222.451	156.33
222.669	51.88
222.887	146.09
223.105	-64.85
223.323	43.69
223.541	-50.52
223.759	55.98
223.977	15.02
224.195	154.28
224.413	82.6
224.631	17.07
224.849	15.02
225.067	162.47
225.285	-9.56
225.503	-3.41
225.721	4.78
225.939	43.69
226.157	90.79
226.375	354.98
226.592	25.26
226.81	23.21
227.028	62.12
227.246	101.03
227.464	109.22
227.682	98.99
227.9	62.12
228.117	49.83
228.335	19.11
228.553	21.16
228.771	47.79
228.989	105.13
229.206	113.32
229.424	-58.71
229.642	47.79
229.86	-54.61
230.077	101.03
230.295	68.27
230.513	115.37
230.731	170.66
230.948	178.86
231.166	96.94
231.384	37.55
231.601	-42.32
231.819	88.75
232.037	64.17
232.254	27.31
232.472	47.79
232.689	-97.62
232.907	187.05
233.125	39.59
233.342	0.68
233.56	-48.47
233.777	64.17
233.995	86.7
234.213	70.31
234.43	84.65
234.648	8.87
234.865	2.73
235.083	76.46
235.3	29.35
235.518	94.89
235.735	47.79
235.953	62.12
236.17	68.27
236.388	86.7
236.605	47.79
236.822	96.94
237.04	121.51
237.257	-27.99
237.475	-73.04
237.692	10.92
237.909	96.94
238.127	19.11
238.344	88.75
238.562	27.31
238.779	23.21
238.996	-46.42
239.214	92.84
239.431	111.27
239.648	33.45
239.865	43.69
240.083	31.4
240.3	103.08
240.517	-25.94
240.735	45.74
240.952	84.65
241.169	19.11
241.386	43.69
241.603	45.74
241.821	-15.7
242.038	125.61
242.255	58.03
242.472	-1.37
242.689	23.21
242.907	103.08
243.124	68.27
243.341	21.16
243.558	6.83
243.775	-40.28
243.992	-1.37
244.209	21.16
244.426	137.9
244.643	76.46
244.86	-1.37
245.078	94.89
245.295	37.55
245.512	64.17
245.729	-15.7
245.946	76.46
246.163	55.98
246.38	8.87
246.597	103.08
246.814	45.74
247.031	49.83
247.248	-1.37
247.464	23.21
247.681	-13.65
247.898	33.45
248.115	72.36
248.332	23.21
248.549	96.94
248.766	219.82
248.983	84.65
249.2	125.61
249.417	119.46
249.633	10.92
249.85	103.08
250.067	15.02
250.284	45.74
250.501	6.83
250.717	80.55
250.934	47.79
251.151	-13.65
251.368	53.93
251.585	92.84
251.801	-7.51
252.018	43.69
252.235	137.9
252.451	51.88
252.668	41.64
252.885	60.07
253.102	113.32
253.318	19.11
253.535	45.74
253.752	10.92
253.968	2.73
254.185	23.21
254.401	68.27
254.618	74.41
254.835	-66.9
255.051	101.03
255.268	111.27
255.484	119.46
255.701	43.69
255.917	68.27
256.134	12.97
256.351	31.4
256.567	-68.95
256.784	62.12
257	-50.52
257.217	92.84
257.433	74.41
257.65	88.75
257.866	182.95
258.082	-17.75
258.299	-9.56
258.515	66.22
258.732	62.12
258.948	-15.7
259.165	90.79
259.381	21.16
259.597	60.07
259.814	15.02
260.03	15.02
260.246	10.92
260.463	105.13
260.679	170.66
260.895	29.35
261.112	4.78
261.328	23.21
261.544	-1.37
261.761	180.9
261.977	39.59
262.193	15.02
262.409	88.75
262.626	39.59
262.842	94.89
263.058	12.97
263.274	133.8
263.49	49.83
263.707	80.55
263.923	29.35
264.139	17.07
264.355	64.17
264.571	150.18
264.787	72.36
265.004	62.12
265.22	58.03
265.436	-68.95
265.652	62.12
265.868	80.55
266.084	10.92
266.3	27.31
266.516	-58.71
266.732	51.88
266.948	51.88
267.164	94.89
267.38	156.33
267.596	25.26
267.812	152.23
268.028	86.7
268.244	23.21
268.46	6.83
268.676	23.21
268.892	103.08
269.108	80.55
269.324	-23.89
269.54	2.73
269.756	47.79
269.972	-1.37
270.188	-1.37
270.403	-34.13
270.619	-46.42
270.835	109.22
271.051	72.36
271.267	49.83
271.483	23.21
271.698	37.55
271.914	4.78
272.13	74.41
272.346	29.35
272.562	-1.37
272.777	96.94
272.993	-7.51
273.209	-21.85
273.425	78.51
273.64	-46.42
273.856	94.89
274.072	10.92
274.287	35.5
274.503	27.31
274.719	127.66
274.934	37.55
275.15	-50.52
275.366	45.74
275.581	15.02
275.797	-40.28
276.012	23.21
276.228	84.65
276.444	72.36
276.659	129.7
276.875	-77.14
277.09	105.13
277.306	47.79
277.521	80.55
277.737	64.17
277.952	121.51
278.168	103.08
278.383	74.41
278.599	66.22
278.814	84.65
279.03	29.35
279.245	141.99
279.461	80.55
279.676	166.57
279.892	-11.61
280.107	31.4
280.322	-66.9
280.538	53.93
280.753	-27.99
280.969	53.93
281.184	62.12
281.399	72.36
281.615	45.74
281.83	10.92
282.045	-48.47
282.26	-56.66
282.476	29.35
282.691	58.03
282.906	64.17
283.122	39.59
283.337	-17.75
283.552	76.46
283.767	96.94
283.983	105.13
284.198	47.79
284.413	78.51
284.628	-142.68
284.843	49.83
285.058	55.98
285.274	19.11
285.489	-13.65
285.704	80.55
285.919	55.98
286.134	-54.61
286.349	72.36
286.564	66.22
286.779	137.9
286.995	10.92
287.21	-13.65
287.425	10.92
287.64	-3.41
287.855	41.64
288.07	-11.61
288.285	66.22
288.5	113.32
288.715	72.36
288.93	64.17
289.145	17.07
289.36	6.83
289.575	60.07
289.79	119.46
290.004	27.31
290.219	94.89
290.434	43.69
290.649	41.64
290.864	84.65
291.079	76.46
291.294	64.17
291.509	-30.04
291.724	-23.89
291.938	45.74
292.153	64.17
292.368	37.55
292.583	60.07
292.798	109.22
293.012	10.92
293.227	58.03
293.442	96.94
293.657	60.07
293.871	78.51
294.086	64.17
294.301	4.78
294.516	70.31
294.73	43.69
294.945	-9.56
295.16	72.36
295.374	135.85
295.589	146.09
295.804	27.31
296.018	31.4
296.233	242.34
296.447	94.89
296.662	27.31
296.877	80.55
297.091	103.08
297.306	27.31
297.52	62.12
297.735	98.99
297.949	80.55
298.164	62.12
298.378	51.88
298.593	-42.32
298.807	-23.89
299.022	55.98
299.236	137.9
299.451	72.36
299.665	-17.75
299.88	43.69
300.094	86.7
300.309	4.78
300.523	66.22
300.737	53.93
300.952	62.12
301.166	-1.37
301.381	-30.04
301.595	-17.75
301.809	43.69
302.024	98.99
302.238	-5.46
302.452	107.18
302.667	68.27
302.881	80.55
303.095	27.31
303.309	23.21
303.524	78.51
303.738	-32.08
303.952	6.83
304.166	88.75
304.381	-38.23
304.595	121.51
304.809	23.21
305.023	39.59
305.237	-44.37
305.452	-56.66
305.666	64.17
305.88	-11.61
306.094	23.21
306.308	-5.46
306.522	90.79
306.736	115.37
306.95	137.9
307.164	43.69
307.379	53.93
307.593	105.13
307.807	162.47
308.021	51.88
308.235	88.75
308.449	-54.61
308.663	23.21
308.877	232.1
309.091	96.94
309.305	47.79
309.519	-66.9
309.733	109.22
309.947	-42.32
310.161	119.46
310.374	117.42
310.588	135.85
310.802	-52.56
311.016	23.21
311.23	74.41
311.444	12.97
311.658	4.78
311.872	156.33
312.085	154.28
312.299	127.66
312.513	101.03
312.727	41.64
312.941	-17.75
313.154	51.88
313.368	62.12
313.582	49.83
313.796	39.59
314.009	70.31
314.223	70.31
314.437	82.6
314.651	70.31
314.864	21.16
315.078	-11.61
315.292	-3.41
315.505	45.74
315.719	55.98
315.933	39.59
316.146	6.83
316.36	37.55
316.573	60.07
316.787	80.55
317.001	101.03
317.214	-17.75
317.428	-17.75
317.641	12.97
317.855	29.35
318.068	72.36
318.282	0.68
318.495	213.67
318.709	70.31
318.922	115.37
319.136	174.76
319.349	51.88
319.563	4.78
319.776	82.6
319.99	-77.14
320.203	74.41
320.417	10.92
320.63	121.51
320.843	185
321.057	23.21
321.27	15.02
321.483	45.74
321.697	51.88
321.91	103.08
322.124	55.98
322.337	96.94
322.55	-11.61
322.763	21.16
322.977	15.02
323.19	-17.75
323.403	21.16
323.617	68.27
323.83	101.03
324.043	2.73
324.256	86.7
324.469	-42.32
324.683	107.18
324.896	72.36
325.109	51.88
325.322	-13.65
325.535	37.55
325.748	55.98
325.962	88.75
326.175	127.66
326.388	139.94
326.601	133.8
326.814	-1.37
327.027	19.11
327.24	84.65
327.453	-21.85
327.666	129.7
327.879	117.42
328.092	76.46
328.305	117.42
328.518	80.55
328.731	23.21
328.944	15.02
329.157	37.55
329.37	-5.46
329.583	94.89
329.796	160.42
330.009	-46.42
330.222	121.51
330.435	105.13
330.648	113.32
330.861	47.79
331.073	105.13
331.286	109.22
331.499	70.31
331.712	-71
331.925	23.21
332.138	74.41
332.35	135.85
332.563	-9.56
332.776	90.79
332.989	-7.51
333.202	12.97
333.414	-25.94
333.627	47.79
333.84	8.87
334.053	72.36
334.265	-30.04
334.478	4.78
334.691	43.69
334.903	105.13
335.116	21.16
335.329	66.22
335.541	62.12
335.754	170.66
335.966	27.31
336.179	53.93
336.392	31.4
336.604	-50.52
336.817	96.94
337.029	78.51
337.242	103.08
337.454	117.42
337.667	-3.41
337.88	64.17
338.092	-7.51
338.305	35.5
338.517	-17.75
338.729	113.32
338.942	121.51
339.154	-25.94
339.367	23.21
339.579	176.81
339.792	2.73
340.004	96.94
340.217	-9.56
340.429	43.69
340.641	96.94
340.854	-34.13
341.066	41.64
341.278	43.69
341.491	182.95
341.703	41.64
341.915	41.64
342.128	84.65
342.34	55.98
342.552	-9.56
342.764	60.07
342.977	12.97
343.189	23.21
343.401	94.89
343.613	17.07
343.826	31.4
344.038	-13.65
344.25	35.5
344.462	-42.32
344.674	76.46
344.886	53.93
345.099	23.21
345.311	64.17
345.523	35.5
345.735	-11.61
345.947	70.31
346.159	15.02
346.371	41.64
346.583	15.02
346.795	162.47
347.007	-30.04
347.219	111.27
347.431	-9.56
347.643	111.27
347.855	72.36
348.067	78.51
348.279	-62.8
348.491	-15.7
348.703	60.07
348.915	72.36
349.127	25.26
349.339	72.36
349.551	-3.41
349.763	92.84
349.975	78.51
350.187	-13.65
350.399	185
350.61	64.17
350.822	80.55
351.034	66.22
351.246	80.55
351.458	123.56
351.669	27.31
351.881	51.88
352.093	47.79
352.305	37.55
352.517	80.55
352.728	137.9
352.94	51.88
353.152	105.13
353.363	29.35
353.575	33.45
353.787	158.38
353.999	72.36
354.21	94.89
354.422	-7.51
354.633	10.92
354.845	27.31
355.057	31.4
355.268	0.68
355.48	35.5
355.692	-25.94
355.903	-27.99
356.115	-91.48
356.326	-48.47
356.538	101.03
356.749	62.12
356.961	125.61
357.172	-23.89
357.384	-13.65
357.595	160.42
357.807	6.83
358.018	27.31
358.23	70.31
358.441	201.38
358.653	62.12
358.864	60.07
359.075	31.4
359.287	-17.75
359.498	158.38
359.709	43.69
359.921	64.17
360.132	29.35
360.344	17.07
360.555	35.5
360.766	51.88
360.977	-25.94
361.189	94.89
361.4	23.21
361.611	103.08
361.823	96.94
362.034	39.59
362.245	2.73
362.456	66.22
362.667	6.83
362.879	-1.37
363.09	37.55
363.301	41.64
363.512	31.4
363.723	-21.85
363.935	-1.37
364.146	105.13
364.357	21.16
364.568	45.74
364.779	-50.52
364.99	66.22
365.201	21.16
365.412	174.76
365.623	-27.99
365.834	88.75
366.045	-23.89
366.256	64.17
366.467	139.94
366.678	23.21
366.889	10.92
367.1	-25.94
367.311	98.99
367.522	70.31
367.733	60.07
367.944	51.88
368.155	37.55
368.366	47.79
368.577	88.75
368.788	117.42
368.999	17.07
369.209	23.21
369.42	195.24
369.631	209.58
369.842	86.7
370.053	80.55
370.264	15.02
370.474	-30.04
370.685	6.83
370.896	55.98
371.107	80.55
371.317	31.4
371.528	88.75
371.739	105.13
371.95	82.6
372.16	178.86
372.371	21.16
372.582	53.93
372.792	35.5
373.003	53.93
373.214	141.99
373.424	111.27
373.635	23.21
373.846	129.7
374.056	47.79
374.267	27.31
374.477	109.22
374.688	-7.51
374.898	80.55
375.109	-27.99
375.319	-17.75
375.53	55.98
375.74	109.22
375.951	-13.65
376.161	41.64
376.372	15.02
376.582	23.21
376.793	68.27
377.003	-1.37
377.214	82.6
377.424	88.75
377.635	21.16
377.845	-56.66
378.055	121.51
378.266	2.73
378.476	25.26
378.686	94.89
378.897	72.36
379.107	66.22
379.317	21.16
379.528	55.98
379.738	84.65
379.948	68.27
380.158	115.37
380.369	141.99
380.579	121.51
380.789	31.4
380.999	86.7
381.21	121.51
381.42	201.38
381.63	64.17
381.84	25.26
382.05	47.79
382.261	68.27
382.471	105.13
382.681	43.69
382.891	158.38
383.101	15.02
383.311	6.83
383.521	10.92
383.731	121.51
383.941	35.5
384.151	60.07
384.361	60.07
384.571	39.59
384.781	29.35
384.991	144.04
385.201	127.66
385.411	88.75
385.621	96.94
385.831	74.41
386.041	72.36
386.251	-13.65
386.461	39.59
386.671	68.27
386.881	6.83
387.091	-13.65
387.301	150.18
387.511	23.21
387.72	90.79
387.93	105.13
388.14	-21.85
388.35	64.17
388.56	133.8
388.769	96.94
388.979	29.35
389.189	-66.9
389.399	21.16
389.609	-9.56
389.818	176.81
390.028	23.21
390.238	2.73
390.447	21.16
390.657	86.7
390.867	62.12
391.076	-68.95
391.286	37.55
391.496	0.68
391.705	6.83
391.915	72.36
392.125	150.18
392.334	-71
392.544	166.57
392.753	88.75
392.963	10.92
393.172	39.59
393.382	-52.56
393.591	137.9
393.801	-62.8
394.01	193.19
394.22	101.03
394.429	49.83
394.639	76.46
394.848	101.03
395.058	111.27
395.267	92.84
395.477	17.07
395.686	72.36
395.895	168.62
396.105	137.9
396.314	66.22
396.524	76.46
396.733	29.35
396.942	80.55
397.152	92.84
397.361	156.33
397.57	62.12
397.78	25.26
397.989	113.32
398.198	219.82
398.407	33.45
398.617	29.35
398.826	45.74
399.035	-38.23
399.244	154.28
399.453	96.94
399.663	19.11
399.872	49.83
400.081	-17.75
400.29	146.09
400.499	45.74
400.708	53.93
400.917	92.84
401.127	51.88
401.336	-38.23
401.545	123.56
401.754	105.13
401.963	21.16
402.172	58.03
402.381	23.21
402.59	-7.51
402.799	64.17
403.008	131.75
403.217	88.75
403.426	78.51
403.635	72.36
403.844	80.55
404.053	12.97
404.262	43.69
404.471	203.43
404.68	133.8
404.888	55.98
405.097	76.46
405.306	70.31
405.515	133.8
405.724	15.02
405.933	187.05
406.142	115.37
406.35	107.18
406.559	15.02
406.768	33.45
406.977	105.13
407.185	84.65
407.394	80.55
407.603	-73.04
407.812	111.27
408.02	70.31
408.229	39.59
408.438	84.65
408.646	-60.76
408.855	43.69
409.064	21.16
409.272	96.94
409.481	94.89
409.69	2.73
409.898	43.69
410.107	76.46
410.315	105.13
410.524	-5.46
410.733	105.13
410.941	23.21
411.15	111.27
411.358	101.03
411.567	150.18
411.775	0.68
411.984	-1.37
412.192	53.93
412.401	4.78
412.609	197.29
412.818	133.8
413.026	111.27
413.234	6.83
413.443	55.98
413.651	-1.37
413.86	74.41
414.068	182.95
414.276	141.99
414.485	70.31
414.693	201.38
414.901	78.51
415.11	105.13
415.318	12.97
415.526	62.12
415.734	35.5
415.943	131.75
416.151	8.87
416.359	19.11
416.567	31.4
416.776	125.61
416.984	96.94
417.192	191.14
417.4	6.83
417.608	39.59
417.817	64.17
418.025	146.09
418.233	137.9
418.441	6.83
418.649	4.78
418.857	74.41
419.065	133.8
419.273	10.92
419.481	92.84
419.689	107.18
419.897	49.83
420.105	-9.56
420.313	111.27
420.521	137.9
420.729	119.46
420.937	-58.71
421.145	49.83
421.353	141.99
421.561	86.7
421.769	6.83
421.977	55.98
422.185	72.36
422.393	64.17
422.601	117.42
422.809	45.74
423.017	92.84
423.224	101.03
423.432	150.18
423.64	88.75
423.848	191.14
424.056	37.55
424.263	133.8
424.471	64.17
424.679	211.62
424.887	2.73
425.094	103.08
425.302	103.08
425.51	-3.41
425.718	123.56
425.925	78.51
426.133	49.83
426.341	131.75
426.548	55.98
426.756	90.79
426.964	92.84
427.171	-50.52
427.379	117.42
427.586	15.02
427.794	64.17
428.001	131.75
428.209	72.36
428.417	221.86
428.624	109.22
428.832	125.61
429.039	6.83
429.247	49.83
429.454	152.23
429.662	219.82
429.869	141.99
430.076	80.55
430.284	113.32
430.491	217.77
430.699	178.86
430.906	172.71
431.114	162.47
431.321	55.98
431.528	131.75
431.736	121.51
431.943	176.81
432.15	219.82
432.358	172.71
432.565	244.39
432.772	96.94
432.979	217.77
433.187	113.32
433.394	305.83
433.601	203.43
433.808	268.97
434.016	211.62
434.223	268.97
434.43	133.8
434.637	213.67
434.844	268.97
435.052	193.19
435.259	146.09
435.466	268.97
435.673	215.72
435.88	285.35
436.087	285.35
436.294	301.73
436.501	299.69
436.708	295.59
436.915	277.16
437.122	301.73
437.329	324.26
437.537	338.6
437.743	303.78
437.95	371.36
438.157	332.45
438.364	418.47
438.571	305.83
438.778	367.27
438.985	422.56
439.192	471.72
439.399	346.79
439.606	457.38
439.813	518.82
440.02	506.53
440.227	651.94
440.433	490.15
440.64	514.72
440.847	502.43
441.054	567.97
441.261	676.51
441.467	604.83
441.674	613.03
441.881	639.65
442.088	637.6
442.294	713.38
442.501	690.85
442.708	715.42
442.914	690.85
443.121	721.57
443.328	840.35
443.534	946.84
443.741	846.49
443.948	807.58
444.154	830.11
444.361	987.8
444.568	920.22
444.774	899.74
444.981	881.31
445.187	1159.83
445.394	1112.73
445.6	1039
445.807	1237.66
446.013	1071.77
446.22	1137.31
446.426	1311.38
446.633	1477.27
446.839	1553.04
447.046	1325.72
447.252	1587.86
447.459	1542.8
447.665	1550.99
447.871	1667.73
448.078	1839.76
448.284	1727.12
448.491	1768.08
448.697	1911.44
448.903	1999.5
449.11	2062.99
449.316	1968.78
449.522	2228.87
449.728	2235.02
449.935	2450.05
450.141	2251.4
450.347	2452.1
450.553	2544.26
450.76	2568.84
450.966	2671.23
451.172	2734.72
451.378	2804.35
451.584	3103.36
451.791	3224.19
451.997	3170.94
452.203	3312.25
452.409	3545.72
452.615	3658.35
452.821	3488.37
453.027	3603.06
453.233	3940.97
453.44	3891.82
453.646	4215.4
453.852	4291.18
454.058	4495.97
454.264	4635.24
454.47	4911.71
454.676	4905.57
454.882	5202.52
455.088	5122.65
455.294	5450.33
455.5	5812.82
455.705	6158.92
455.911	6199.88
456.117	6257.23
456.323	6646.34
456.529	6455.88
456.735	7152.19
456.941	7250.49
457.147	7658.04
457.352	7776.82
457.558	7916.08
457.764	8391.21
457.97	8688.17
458.176	9222.69
458.381	9423.39
458.587	9419.29
458.793	10123.79
458.999	10123.79
459.204	11137.54
459.41	11819.51
459.616	11782.65
459.821	12341.74
460.027	12868.07
460.233	13316.58
460.438	13476.32
460.644	14205.39
460.85	14242.26
461.055	15129.03
461.261	15706.55
461.466	15366.59
461.672	15677.88
461.878	17285.54
462.083	17138.09
462.289	17541.53
462.494	18311.57
462.7	18565.52
462.905	19038.6
463.111	20232.57
463.316	21023.08
463.522	21625.18
463.727	22174.04
463.932	23112.01
464.138	23722.3
464.343	24815.92
464.549	24772.91
464.754	26458.39
464.959	27099.41
465.165	27697.41
465.37	27699.46
465.575	27734.28
465.781	29593.83
465.986	30705.88
466.191	30015.71
466.397	30064.86
466.602	29546.73
466.807	31072.46
467.012	31627.46
467.218	32489.66
467.423	32436.41
467.628	33484.97
467.833	34838.68
468.038	33986.72
468.244	33816.74
468.449	35190.93
468.654	34672.79
468.859	34773.14
469.064	34424.99
469.269	33781.93
