Data from USB4F104151__50__11-26-50-991.txt Node

Date: Wed Feb 26 11:26:50 EST 2025
User: louis
Spectrometer: USB4F10415
Trigger mode: 4
Integration Time (sec): 1.000000E-1
Scans to average: 1
Electric dark correction enabled: true
Nonlinearity correction enabled: false
Boxcar width: 0
XAxis mode: Wavelengths
Number of Pixels in Spectrum: 3648
>>>>>Begin Spectral Data<<<<<
178.204	-462.5
178.424	-462.5
178.644	-462.5
178.864	-411.3
179.084	-366.25
179.304	-28.33
179.524	-1.71
179.744	14.68
179.964	10.58
180.184	82.26
180.404	43.35
180.624	2.39
180.844	-11.95
181.064	-114.34
181.283	20.82
181.503	-71.34
181.723	53.59
181.943	-100.01
182.163	203.09
182.383	-30.38
182.602	59.73
182.822	119.12
183.042	22.87
183.262	-30.38
183.482	-11.95
183.701	78.16
183.921	26.96
184.141	43.35
184.361	104.79
184.58	51.54
184.8	10.58
185.02	-30.38
185.239	78.16
185.459	-16.04
185.679	104.79
185.898	-85.67
186.118	26.96
186.338	59.73
186.557	57.68
186.777	-167.59
186.997	6.49
187.216	24.92
187.436	143.7
187.655	78.16
187.875	141.65
188.095	8.53
188.314	133.46
188.534	117.08
188.753	8.53
188.973	53.59
189.192	76.12
189.412	22.87
189.631	31.06
189.851	41.3
190.07	155.99
190.29	-9.9
190.509	-61.1
190.729	26.96
190.948	139.6
191.168	188.75
191.387	76.12
191.607	-30.38
191.826	51.54
192.045	-22.19
192.265	61.78
192.484	16.73
192.704	78.16
192.923	-61.1
193.142	176.47
193.362	139.6
193.581	127.32
193.8	-9.9
194.02	90.45
194.239	43.35
194.458	86.36
194.678	-38.57
194.897	-44.71
195.116	100.69
195.335	78.16
195.555	96.6
195.774	41.3
195.993	92.5
196.212	14.68
196.432	18.77
196.651	47.44
196.87	112.98
197.089	184.66
197.308	61.78
197.528	57.68
197.747	2.39
197.966	76.12
198.185	172.37
198.404	-13.99
198.623	100.69
198.842	108.88
199.062	88.4
199.281	90.45
199.5	14.68
199.719	98.64
199.938	12.63
200.157	94.55
200.376	145.75
200.595	110.93
200.814	12.63
201.033	-52.91
201.252	160.08
201.471	18.77
201.69	133.46
201.909	26.96
202.128	57.68
202.347	16.73
202.566	57.68
202.785	-26.28
203.004	35.16
203.223	190.8
203.442	121.17
203.661	22.87
203.879	35.16
204.098	76.12
204.317	-42.67
204.536	67.92
204.755	119.12
204.974	153.94
205.193	-59.05
205.411	162.13
205.63	121.17
205.849	53.59
206.068	24.92
206.287	-36.52
206.505	110.93
206.724	-7.85
206.943	20.82
207.162	55.64
207.381	22.87
207.599	22.87
207.818	86.36
208.037	-44.71
208.255	6.49
208.474	39.25
208.693	-5.8
208.911	6.49
209.13	65.88
209.349	82.26
209.567	112.98
209.786	100.69
210.005	131.41
210.223	53.59
210.442	-46.76
210.661	-30.38
210.879	12.63
211.098	0.34
211.316	2.39
211.535	18.77
211.753	-3.75
211.972	119.12
212.191	-52.91
212.409	-54.95
212.628	82.26
212.846	-81.58
213.065	57.68
213.283	121.17
213.502	8.53
213.72	-20.14
213.938	24.92
214.157	6.49
214.375	139.6
214.594	-1.71
214.812	76.12
215.031	59.73
215.249	-16.04
215.467	82.26
215.686	-34.47
215.904	96.6
216.122	78.16
216.341	61.78
216.559	41.3
216.778	117.08
216.996	119.12
217.214	-18.09
217.432	-73.39
217.651	20.82
217.869	88.4
218.087	86.36
218.306	-69.29
218.524	61.78
218.742	53.59
218.96	106.84
219.179	59.73
219.397	6.49
219.615	258.39
219.833	69.97
220.051	-73.39
220.27	115.03
220.488	88.4
220.706	53.59
220.924	-9.9
221.142	-61.1
221.36	-3.75
221.578	96.6
221.796	-16.04
222.015	104.79
222.233	88.4
222.451	90.45
222.669	-63.15
222.887	125.27
223.105	-20.14
223.323	18.77
223.541	4.44
223.759	33.11
223.977	16.73
224.195	147.8
224.413	119.12
224.631	-26.28
224.849	127.32
225.067	209.23
225.285	35.16
225.503	-18.09
225.721	-75.43
225.939	45.4
226.157	-3.75
226.375	227.67
226.592	-32.43
226.81	-52.91
227.028	63.83
227.246	96.6
227.464	92.5
227.682	112.98
227.9	49.49
228.117	-5.8
228.335	92.5
228.553	49.49
228.771	-32.43
228.989	43.35
229.206	88.4
229.424	-124.58
229.642	22.87
229.86	-7.85
230.077	198.99
230.295	53.59
230.513	149.84
230.731	88.4
230.948	155.99
231.166	176.47
231.384	-28.33
231.601	-3.75
231.819	141.65
232.037	92.5
232.254	-18.09
232.472	41.3
232.689	78.16
232.907	35.16
233.125	20.82
233.342	-5.8
233.56	-57
233.777	-79.53
233.995	29.01
234.213	176.47
234.43	88.4
234.648	39.25
234.865	74.07
235.083	29.01
235.3	-40.62
235.518	110.93
235.735	125.27
235.953	110.93
236.17	2.39
236.388	-9.9
236.605	35.16
236.822	104.79
237.04	127.32
237.257	137.56
237.475	-38.57
237.692	88.4
237.909	20.82
238.127	61.78
238.344	51.54
238.562	-7.85
238.779	-34.47
238.996	-16.04
239.214	22.87
239.431	35.16
239.648	-24.23
239.865	94.55
240.083	-1.71
240.3	33.11
240.517	2.39
240.735	14.68
240.952	92.5
241.169	80.21
241.386	90.45
241.603	-9.9
241.821	-50.86
242.038	108.88
242.255	106.84
242.472	-24.23
242.689	108.88
242.907	61.78
243.124	20.82
243.341	18.77
243.558	37.2
243.775	-59.05
243.992	-104.11
244.209	129.36
244.426	160.08
244.643	51.54
244.86	123.22
245.078	162.13
245.295	37.2
245.512	-26.28
245.729	106.84
245.946	35.16
246.163	0.34
246.38	35.16
246.597	45.4
246.814	31.06
247.031	51.54
247.248	31.06
247.464	51.54
247.681	-42.67
247.898	43.35
248.115	37.2
248.332	-28.33
248.549	151.89
248.766	174.42
248.983	59.73
249.2	43.35
249.417	35.16
249.633	-28.33
249.85	129.36
250.067	47.44
250.284	12.63
250.501	2.39
250.717	39.25
250.934	-116.39
251.151	47.44
251.368	10.58
251.585	51.54
251.801	80.21
252.018	-63.15
252.235	57.68
252.451	-1.71
252.668	63.83
252.885	135.51
253.102	31.06
253.318	4.44
253.535	51.54
253.752	-7.85
253.968	57.68
254.185	-5.8
254.401	45.4
254.618	88.4
254.835	-24.23
255.051	76.12
255.268	22.87
255.484	0.34
255.701	-18.09
255.917	82.26
256.134	-48.81
256.351	61.78
256.567	-95.91
256.784	22.87
257	-126.63
257.217	123.22
257.433	110.93
257.65	63.83
257.866	35.16
258.082	-87.72
258.299	10.58
258.515	92.5
258.732	10.58
258.948	-30.38
259.165	106.84
259.381	-22.19
259.597	121.17
259.814	53.59
260.03	45.4
260.246	20.82
260.463	86.36
260.679	119.12
260.895	18.77
261.112	-9.9
261.328	55.64
261.544	-24.23
261.761	176.47
261.977	37.2
262.193	6.49
262.409	72.02
262.626	88.4
262.842	16.73
263.058	14.68
263.274	106.84
263.49	49.49
263.707	129.36
263.923	72.02
264.139	-59.05
264.355	51.54
264.571	166.23
264.787	76.12
265.004	94.55
265.22	8.53
265.436	-20.14
265.652	67.92
265.868	51.54
266.084	10.58
266.3	45.4
266.516	24.92
266.732	59.73
266.948	57.68
267.164	47.44
267.38	143.7
267.596	29.01
267.812	203.09
268.028	119.12
268.244	31.06
268.46	147.8
268.676	33.11
268.892	35.16
269.108	-32.43
269.324	-95.91
269.54	-26.28
269.756	39.25
269.972	-54.95
270.188	-28.33
270.403	-3.75
270.619	-1.71
270.835	92.5
271.051	65.88
271.267	12.63
271.483	-36.52
271.698	151.89
271.914	74.07
272.13	-9.9
272.346	-46.76
272.562	65.88
272.777	133.46
272.993	24.92
273.209	-36.52
273.425	104.79
273.64	-59.05
273.856	65.88
274.072	-75.43
274.287	6.49
274.503	106.84
274.719	92.5
274.934	-46.76
275.15	-54.95
275.366	-24.23
275.581	-71.34
275.797	-3.75
276.012	72.02
276.228	-52.91
276.444	86.36
276.659	94.55
276.875	53.59
277.09	-3.75
277.306	-26.28
277.521	65.88
277.737	-16.04
277.952	57.68
278.168	-54.95
278.383	10.58
278.599	14.68
278.814	72.02
279.03	29.01
279.245	53.59
279.461	84.31
279.676	0.34
279.892	-9.9
280.107	-32.43
280.322	-24.23
280.538	53.59
280.753	55.64
280.969	65.88
281.184	67.92
281.399	139.6
281.615	-34.47
281.83	37.2
282.045	-63.15
282.26	-28.33
282.476	-50.86
282.691	20.82
282.906	129.36
283.122	22.87
283.337	6.49
283.552	10.58
283.767	59.73
283.983	61.78
284.198	-50.86
284.413	98.64
284.628	-124.58
284.843	55.64
285.058	57.68
285.274	16.73
285.489	43.35
285.704	125.27
285.919	-48.81
286.134	24.92
286.349	49.49
286.564	22.87
286.779	170.32
286.995	-28.33
287.21	10.58
287.425	82.26
287.64	4.44
287.855	29.01
288.07	-3.75
288.285	33.11
288.5	108.88
288.715	8.53
288.93	-59.05
289.145	-52.91
289.36	182.61
289.575	78.16
289.79	92.5
290.004	-75.43
290.219	112.98
290.434	8.53
290.649	-46.76
290.864	-81.58
291.079	2.39
291.294	61.78
291.509	14.68
291.724	16.73
291.938	14.68
292.153	35.16
292.368	12.63
292.583	67.92
292.798	104.79
293.012	69.97
293.227	43.35
293.442	4.44
293.657	96.6
293.871	49.49
294.086	53.59
294.301	170.32
294.516	94.55
294.73	59.73
294.945	-97.96
295.16	-13.99
295.374	37.2
295.589	84.31
295.804	-22.19
296.018	-9.9
296.233	86.36
296.447	61.78
296.662	-11.95
296.877	127.32
297.091	112.98
297.306	6.49
297.52	51.54
297.735	-9.9
297.949	22.87
298.164	57.68
298.378	94.55
298.593	-136.87
298.807	49.49
299.022	86.36
299.236	84.31
299.451	-7.85
299.665	-26.28
299.88	-16.04
300.094	69.97
300.309	16.73
300.523	115.03
300.737	47.44
300.952	131.41
301.166	84.31
301.381	-52.91
301.595	20.82
301.809	45.4
302.024	-5.8
302.238	-59.05
302.452	94.55
302.667	-30.38
302.881	205.14
303.095	98.64
303.309	69.97
303.524	-38.57
303.738	18.77
303.952	-22.19
304.166	31.06
304.381	-61.1
304.595	153.94
304.809	-11.95
305.023	-1.71
305.237	-26.28
305.452	53.59
305.666	104.79
305.88	47.44
306.094	43.35
306.308	14.68
306.522	55.64
306.736	29.01
306.95	100.69
307.164	133.46
307.379	6.49
307.593	137.56
307.807	98.64
308.021	123.22
308.235	84.31
308.449	-67.24
308.663	55.64
308.877	174.42
309.091	55.64
309.305	51.54
309.519	-100.01
309.733	178.51
309.947	-91.82
310.161	59.73
310.374	29.01
310.588	65.88
310.802	-50.86
311.016	-1.71
311.23	88.4
311.444	-93.87
311.658	18.77
311.872	96.6
312.085	158.03
312.299	55.64
312.513	166.23
312.727	22.87
312.941	-20.14
313.154	47.44
313.368	8.53
313.582	14.68
313.796	10.58
314.009	82.26
314.223	119.12
314.437	67.92
314.651	69.97
314.864	-40.62
315.078	10.58
315.292	-71.34
315.505	35.16
315.719	61.78
315.933	49.49
316.146	67.92
316.36	-11.95
316.573	198.99
316.787	117.08
317.001	4.44
317.214	12.63
317.428	0.34
317.641	-52.91
317.855	12.63
318.068	76.12
318.282	86.36
318.495	190.8
318.709	-1.71
318.922	-46.76
319.136	123.22
319.349	29.01
319.563	6.49
319.776	47.44
319.99	-50.86
320.203	141.65
320.417	76.12
320.63	6.49
320.843	162.13
321.057	8.53
321.27	-1.71
321.483	86.36
321.697	119.12
321.91	33.11
322.124	26.96
322.337	74.07
322.55	-3.75
322.763	-34.47
322.977	74.07
323.19	96.6
323.403	100.69
323.617	43.35
323.83	100.69
324.043	-65.19
324.256	43.35
324.469	-28.33
324.683	153.94
324.896	8.53
325.109	47.44
325.322	-22.19
325.535	72.02
325.748	69.97
325.962	53.59
326.175	57.68
326.388	65.88
326.601	143.7
326.814	-1.71
327.027	51.54
327.24	139.6
327.453	-130.73
327.666	100.69
327.879	172.37
328.092	24.92
328.305	63.83
328.518	-9.9
328.731	-3.75
328.944	57.68
329.157	80.21
329.37	-1.71
329.583	180.56
329.796	131.41
330.009	-104.11
330.222	51.54
330.435	69.97
330.648	14.68
330.861	59.73
331.073	6.49
331.286	96.6
331.499	-50.86
331.712	-36.52
331.925	98.64
332.138	35.16
332.35	86.36
332.563	-1.71
332.776	90.45
332.989	-32.43
333.202	-67.24
333.414	35.16
333.627	-26.28
333.84	98.64
334.053	41.3
334.265	6.49
334.478	-34.47
334.691	-42.67
334.903	98.64
335.116	-61.1
335.329	-67.24
335.541	119.12
335.754	127.32
335.966	-57
336.179	59.73
336.392	-52.91
336.604	88.4
336.817	158.03
337.029	-3.75
337.242	74.07
337.454	69.97
337.667	-9.9
337.88	160.08
338.092	37.2
338.305	20.82
338.517	-24.23
338.729	69.97
338.942	110.93
339.154	-81.58
339.367	-7.85
339.579	35.16
339.792	-1.71
340.004	59.73
340.217	26.96
340.429	76.12
340.641	-11.95
340.854	18.77
341.066	53.59
341.278	92.5
341.491	125.27
341.703	-20.14
341.915	-67.24
342.128	143.7
342.34	29.01
342.552	22.87
342.764	4.44
342.977	37.2
343.189	76.12
343.401	65.88
343.613	-77.48
343.826	61.78
344.038	8.53
344.25	90.45
344.462	-61.1
344.674	4.44
344.886	-24.23
345.099	-20.14
345.311	51.54
345.523	-22.19
345.735	-108.2
345.947	84.31
346.159	16.73
346.371	22.87
346.583	-59.05
346.795	174.42
347.007	-9.9
347.219	72.02
347.431	16.73
347.643	84.31
347.855	-3.75
348.067	137.56
348.279	8.53
348.491	43.35
348.703	45.4
348.915	24.92
349.127	8.53
349.339	22.87
349.551	-28.33
349.763	18.77
349.975	16.73
350.187	72.02
350.399	100.69
350.61	153.94
350.822	-75.43
351.034	72.02
351.246	49.49
351.458	43.35
351.669	80.21
351.881	80.21
352.093	129.36
352.305	112.98
352.517	90.45
352.728	69.97
352.94	-3.75
353.152	26.96
353.363	-48.81
353.575	92.5
353.787	158.03
353.999	135.51
354.21	180.56
354.422	12.63
354.633	20.82
354.845	31.06
355.057	-61.1
355.268	72.02
355.48	59.73
355.692	-77.48
355.903	37.2
356.115	-46.76
356.326	-91.82
356.538	119.12
356.749	82.26
356.961	155.99
357.172	18.77
357.384	-52.91
357.595	184.66
357.807	-69.29
358.018	10.58
358.23	18.77
358.441	158.03
358.653	65.88
358.864	29.01
359.075	-83.63
359.287	4.44
359.498	112.98
359.709	59.73
359.921	8.53
360.132	26.96
360.344	-38.57
360.555	43.35
360.766	14.68
360.977	-52.91
361.189	102.74
361.4	-13.99
361.611	139.6
361.823	65.88
362.034	41.3
362.245	-69.29
362.456	31.06
362.667	41.3
362.879	-69.29
363.09	98.64
363.301	72.02
363.512	57.68
363.723	-36.52
363.935	59.73
364.146	145.75
364.357	-11.95
364.568	33.11
364.779	-79.53
364.99	106.84
365.201	-18.09
365.412	117.08
365.623	-18.09
365.834	69.97
366.045	104.79
366.256	129.36
366.467	117.08
366.678	31.06
366.889	63.83
367.1	-46.76
367.311	74.07
367.522	-54.95
367.733	108.88
367.944	-5.8
368.155	6.49
368.366	92.5
368.577	78.16
368.788	112.98
368.999	6.49
369.209	41.3
369.42	209.23
369.631	176.47
369.842	10.58
370.053	39.25
370.264	147.8
370.474	-18.09
370.685	74.07
370.896	31.06
371.107	135.51
371.317	96.6
371.528	49.49
371.739	110.93
371.95	24.92
372.16	135.51
372.371	-22.19
372.582	61.78
372.792	94.55
373.003	51.54
373.214	108.88
373.424	94.55
373.635	-32.43
373.846	98.64
374.056	-46.76
374.267	121.17
374.477	55.64
374.688	-52.91
374.898	86.36
375.109	35.16
375.319	-9.9
375.53	112.98
375.74	121.17
375.951	-57
376.161	22.87
376.372	137.56
376.582	-22.19
376.793	67.92
377.003	-54.95
377.214	51.54
377.424	26.96
377.635	24.92
377.845	37.2
378.055	168.27
378.266	-75.43
378.476	20.82
378.686	94.55
378.897	84.31
379.107	137.56
379.317	53.59
379.528	22.87
379.738	78.16
379.948	-59.05
380.158	125.27
380.369	33.11
380.579	88.4
380.789	29.01
380.999	94.55
381.21	65.88
381.42	168.27
381.63	37.2
381.84	133.46
382.05	74.07
382.261	160.08
382.471	162.13
382.681	-36.52
382.891	88.4
383.101	45.4
383.311	63.83
383.521	-11.95
383.731	104.79
383.941	125.27
384.151	45.4
384.361	-26.28
384.571	133.46
384.781	-1.71
384.991	135.51
385.201	198.99
385.411	84.31
385.621	47.44
385.831	82.26
386.041	88.4
386.251	10.58
386.461	127.32
386.671	74.07
386.881	84.31
387.091	-26.28
387.301	43.35
387.511	-5.8
387.72	37.2
387.93	98.64
388.14	-71.34
388.35	43.35
388.56	106.84
388.769	213.33
388.979	26.96
389.189	-7.85
389.399	-1.71
389.609	26.96
389.818	84.31
390.028	61.78
390.238	2.39
390.447	4.44
390.657	55.64
390.867	22.87
391.076	-11.95
391.286	10.58
391.496	47.44
391.705	-28.33
391.915	211.28
392.125	82.26
392.334	-13.99
392.544	110.93
392.753	31.06
392.963	-26.28
393.172	119.12
393.382	41.3
393.591	188.75
393.801	-28.33
394.01	160.08
394.22	80.21
394.429	43.35
394.639	63.83
394.848	49.49
395.058	-5.8
395.267	-7.85
395.477	61.78
395.686	76.12
395.895	102.74
396.105	158.03
396.314	51.54
396.524	-26.28
396.733	14.68
396.942	98.64
397.152	59.73
397.361	65.88
397.57	26.96
397.78	-11.95
397.989	43.35
398.198	129.36
398.407	51.54
398.617	43.35
398.826	129.36
399.035	-26.28
399.244	51.54
399.453	137.56
399.663	18.77
399.872	26.96
400.081	-36.52
400.29	108.88
400.499	-50.86
400.708	96.6
400.917	6.49
401.127	4.44
401.336	-46.76
401.545	153.94
401.754	90.45
401.963	88.4
402.172	29.01
402.381	-63.15
402.59	-52.91
402.799	47.44
403.008	149.84
403.217	76.12
403.426	57.68
403.635	-69.29
403.844	16.73
404.053	-3.75
404.262	31.06
404.471	196.95
404.68	55.64
404.888	43.35
405.097	51.54
405.306	57.68
405.515	84.31
405.724	8.53
405.933	18.77
406.142	18.77
406.35	45.4
406.559	104.79
406.768	55.64
406.977	166.23
407.185	33.11
407.394	57.68
407.603	-102.06
407.812	33.11
408.02	133.46
408.229	135.51
408.438	174.42
408.646	-44.71
408.855	-3.75
409.064	2.39
409.272	-22.19
409.481	49.49
409.69	-50.86
409.898	67.92
410.107	61.78
410.315	43.35
410.524	-65.19
410.733	-18.09
410.941	-16.04
411.15	78.16
411.358	26.96
411.567	178.51
411.775	82.26
411.984	47.44
412.192	90.45
412.401	84.31
412.609	190.8
412.818	196.95
413.026	33.11
413.234	8.53
413.443	110.93
413.651	-11.95
413.86	63.83
414.068	176.47
414.276	131.41
414.485	12.63
414.693	143.7
414.901	162.13
415.11	110.93
415.318	84.31
415.526	61.78
415.734	143.7
415.943	47.44
416.151	119.12
416.359	18.77
416.567	18.77
416.776	0.34
416.984	24.92
417.192	270.67
417.4	22.87
417.608	35.16
417.817	-18.09
418.025	112.98
418.233	201.04
418.441	-30.38
418.649	-24.23
418.857	55.64
419.065	98.64
419.273	-30.38
419.481	131.41
419.689	65.88
419.897	51.54
420.105	-7.85
420.313	145.75
420.521	108.88
420.729	74.07
420.937	47.44
421.145	-75.43
421.353	57.68
421.561	102.74
421.769	147.8
421.977	4.44
422.185	178.51
422.393	0.34
422.601	166.23
422.809	110.93
423.017	31.06
423.224	-5.8
423.432	33.11
423.64	4.44
423.848	143.7
424.056	-61.1
424.263	96.6
424.471	24.92
424.679	117.08
424.887	-20.14
425.094	135.51
425.302	100.69
425.51	12.63
425.718	123.22
425.925	65.88
426.133	-18.09
426.341	176.47
426.548	39.25
426.756	12.63
426.964	4.44
427.171	-16.04
427.379	98.64
427.586	35.16
427.794	88.4
428.001	94.55
428.209	84.31
428.417	145.75
428.624	106.84
428.832	78.16
429.039	117.08
429.247	125.27
429.454	20.82
429.662	190.8
429.869	158.03
430.076	100.69
430.284	112.98
430.491	188.75
430.699	139.6
430.906	104.79
431.114	74.07
431.321	100.69
431.528	4.44
431.736	55.64
431.943	131.41
432.15	31.06
432.358	82.26
432.565	256.34
432.772	-30.38
432.979	82.26
433.187	108.88
433.394	151.89
433.601	80.21
433.808	133.46
434.016	184.66
434.223	164.18
434.43	180.56
434.637	213.33
434.844	182.61
435.052	194.9
435.259	143.7
435.466	184.66
435.673	141.65
435.88	170.32
436.087	291.15
436.294	213.33
436.501	260.43
436.708	125.27
436.915	211.28
437.122	254.29
437.329	121.17
437.537	201.04
437.743	203.09
437.95	244.05
438.157	317.78
438.364	293.2
438.571	278.87
438.778	317.78
438.985	356.69
439.192	293.2
439.399	219.47
439.606	319.82
439.813	379.22
440.02	360.78
440.227	436.56
440.433	389.46
440.64	368.98
440.847	393.55
441.054	397.65
441.261	420.17
441.467	375.12
441.674	414.03
441.881	420.17
442.088	381.26
442.294	516.43
442.501	500.05
442.708	491.85
442.914	522.57
443.121	545.1
443.328	602.44
443.534	610.64
443.741	612.68
443.948	504.14
444.154	633.16
444.361	792.91
444.568	653.64
444.774	727.37
444.981	577.87
445.187	842.06
445.394	837.96
445.6	676.17
445.807	809.29
446.013	753.99
446.22	821.58
446.426	934.22
446.633	993.61
446.839	1069.38
447.046	942.41
447.252	1087.81
447.459	1071.43
447.665	1118.53
447.871	1235.27
448.078	1339.71
448.284	1339.71
448.491	1362.24
448.697	1382.72
448.903	1364.29
449.11	1489.21
449.316	1497.41
449.522	1575.23
449.728	1683.77
449.935	1708.35
450.141	1732.92
450.347	1888.57
450.553	1767.74
450.76	1669.44
450.966	1939.77
451.172	1993.01
451.378	2031.93
451.584	2103.61
451.791	2388.27
451.997	2273.59
452.203	2343.22
452.409	2429.23
452.615	2701.61
452.821	2494.77
453.027	2668.84
453.233	2916.65
453.44	2793.77
453.646	2834.73
453.852	3037.48
454.058	3066.15
454.264	3096.87
454.47	3426.59
454.676	3510.56
454.882	3758.36
455.088	3760.41
455.294	3782.94
455.5	4106.52
455.705	4329.75
455.911	4348.18
456.117	4415.76
456.323	4641.04
456.529	4667.66
456.735	4929.8
456.941	5187.85
457.147	5273.86
457.352	5460.23
457.558	5587.2
457.764	5918.97
457.97	6080.76
458.176	6408.44
458.381	6758.64
458.587	6963.44
458.793	7084.27
458.999	6981.87
459.204	7966.94
459.41	8204.5
459.616	7952.6
459.821	8632.53
460.027	8896.72
460.233	9681.09
460.438	9466.05
460.644	9994.43
460.85	10068.16
461.055	10457.27
461.261	10860.72
461.466	10678.45
461.672	11124.91
461.878	12216.47
462.083	12396.7
462.289	12310.68
462.494	12984.46
462.7	12974.22
462.905	13111.44
463.111	14465.14
463.316	14999.66
463.522	15294.57
463.727	15415.4
463.932	16240.73
464.138	16896.08
464.343	17514.57
464.549	17629.26
464.754	18972.72
464.959	19154.99
465.165	19691.56
465.37	19957.8
465.575	19677.23
465.781	20809.75
465.986	21846.02
466.191	21516.3
466.397	21188.63
466.602	21030.93
466.807	22368.26
467.012	22763.51
467.218	22839.29
467.423	22917.11
467.628	23693.29
467.833	25010.14
468.038	24594.4
468.244	23971.82
468.449	25204.69
468.654	25001.94
468.859	24678.36
469.064	24731.61
