Data from USB4F104151__82__10-34-15-636.txt Node

Date: Wed Feb 26 10:34:15 EST 2025
User: louis
Spectrometer: USB4F10415
Trigger mode: 4
Integration Time (sec): 1.000000E-1
Scans to average: 1
Electric dark correction enabled: true
Nonlinearity correction enabled: false
Boxcar width: 0
XAxis mode: Wavelengths
Number of Pixels in Spectrum: 3648
>>>>>Begin Spectral Data<<<<<
178.204	-404.47
178.424	-404.47
178.644	-404.47
178.864	-377.85
179.084	-338.94
179.304	-44.03
179.524	31.74
179.744	52.22
179.964	72.7
180.184	-13.31
180.404	5.12
180.624	-82.94
180.844	37.89
181.064	-64.51
181.283	19.46
181.503	-1.02
181.723	-13.31
181.943	-76.8
182.163	134.14
182.383	-54.27
182.602	50.18
182.822	80.89
183.042	13.31
183.262	9.22
183.482	-11.26
183.701	37.89
183.921	50.18
184.141	-15.36
184.361	-21.5
184.58	76.8
184.8	23.55
185.02	-60.42
185.239	105.47
185.459	68.61
185.679	136.19
185.898	-72.7
186.118	119.81
186.338	5.12
186.557	76.8
186.777	-66.56
186.997	-23.55
187.216	-15.36
187.436	136.19
187.655	87.04
187.875	121.85
188.095	66.56
188.314	89.09
188.534	66.56
188.753	17.41
188.973	70.65
189.192	209.92
189.412	54.27
189.631	37.89
189.851	109.57
190.07	185.34
190.29	-54.27
190.509	-46.08
190.729	93.18
190.948	95.23
191.168	269.31
191.387	58.37
191.607	76.8
191.826	54.27
192.045	15.36
192.265	-91.13
192.484	72.7
192.704	56.32
192.923	9.22
193.142	144.38
193.362	201.72
193.581	130.05
193.8	70.65
194.02	107.52
194.239	-15.36
194.458	109.57
194.678	15.36
194.897	-9.22
195.116	62.46
195.335	89.09
195.555	74.75
195.774	27.65
195.993	56.32
196.212	-33.79
196.432	-25.6
196.651	52.22
196.87	39.94
197.089	261.12
197.308	17.41
197.528	52.22
197.747	-13.31
197.966	19.46
198.185	89.09
198.404	-23.55
198.623	175.1
198.842	91.13
199.062	115.71
199.281	80.89
199.5	25.6
199.719	27.65
199.938	62.46
200.157	74.75
200.376	164.86
200.595	136.19
200.814	87.04
201.033	-9.22
201.252	205.82
201.471	64.51
201.69	72.7
201.909	19.46
202.128	93.18
202.347	33.79
202.566	-31.74
202.785	-1.02
203.004	5.12
203.223	318.46
203.442	50.18
203.661	-128
203.879	68.61
204.098	107.52
204.317	35.84
204.536	138.24
204.755	60.42
204.974	101.37
205.193	-15.36
205.411	91.13
205.63	37.89
205.849	23.55
206.068	15.36
206.287	3.07
206.505	150.53
206.724	25.6
206.943	-1.02
207.162	31.74
207.381	60.42
207.599	23.55
207.818	37.89
208.037	-50.18
208.255	97.28
208.474	41.98
208.693	64.51
208.911	-31.74
209.13	91.13
209.349	140.29
209.567	89.09
209.786	27.65
210.005	132.09
210.223	-7.17
210.442	-142.33
210.661	9.22
210.879	78.85
211.098	62.46
211.316	60.42
211.535	17.41
211.753	46.08
211.972	103.42
212.191	23.55
212.409	-17.41
212.628	173.05
212.846	52.22
213.065	68.61
213.283	119.81
213.502	50.18
213.72	35.84
213.938	27.65
214.157	7.17
214.375	41.98
214.594	54.27
214.812	87.04
215.031	-19.46
215.249	15.36
215.467	33.79
215.686	99.33
215.904	99.33
216.122	-11.26
216.341	158.72
216.559	1.02
216.778	84.99
216.996	164.86
217.214	19.46
217.432	-17.41
217.651	-9.22
217.869	33.79
218.087	41.98
218.306	3.07
218.524	48.13
218.742	44.03
218.96	66.56
219.179	-29.7
219.397	-27.65
219.615	193.53
219.833	62.46
220.051	-33.79
220.27	95.23
220.488	185.34
220.706	11.26
220.924	-1.02
221.142	-41.98
221.36	-17.41
221.578	46.08
221.796	13.31
222.015	52.22
222.233	23.55
222.451	175.1
222.669	-17.41
222.887	80.89
223.105	-13.31
223.323	66.56
223.541	-46.08
223.759	89.09
223.977	68.61
224.195	132.09
224.413	95.23
224.631	58.37
224.849	54.27
225.067	265.21
225.285	-25.6
225.503	19.46
225.721	-41.98
225.939	121.85
226.157	101.37
226.375	238.59
226.592	-54.27
226.81	37.89
227.028	84.99
227.246	91.13
227.464	3.07
227.682	89.09
227.9	35.84
228.117	15.36
228.335	68.61
228.553	21.5
228.771	23.55
228.989	31.74
229.206	171.01
229.424	27.65
229.642	23.55
229.86	1.02
230.077	74.75
230.295	97.28
230.513	41.98
230.731	39.94
230.948	162.81
231.166	134.14
231.384	56.32
231.601	-3.07
231.819	115.71
232.037	76.8
232.254	9.22
232.472	31.74
232.689	7.17
232.907	101.37
233.125	17.41
233.342	-58.37
233.56	17.41
233.777	1.02
233.995	82.94
234.213	123.9
234.43	164.86
234.648	-5.12
234.865	74.75
235.083	50.18
235.3	99.33
235.518	41.98
235.735	60.42
235.953	121.85
236.17	27.65
236.388	37.89
236.605	41.98
236.822	130.05
237.04	97.28
237.257	48.13
237.475	21.5
237.692	72.7
237.909	87.04
238.127	-21.5
238.344	76.8
238.562	13.31
238.779	-62.46
238.996	-64.51
239.214	78.85
239.431	-48.13
239.648	-19.46
239.865	56.32
240.083	158.72
240.3	37.89
240.517	-9.22
240.735	121.85
240.952	138.24
241.169	121.85
241.386	60.42
241.603	15.36
241.821	-21.5
242.038	164.86
242.255	-5.12
242.472	-62.46
242.689	84.99
242.907	123.9
243.124	97.28
243.341	-11.26
243.558	-27.65
243.775	-9.22
243.992	-33.79
244.209	97.28
244.426	201.72
244.643	123.9
244.86	-35.84
245.078	119.81
245.295	121.85
245.512	56.32
245.729	35.84
245.946	58.37
246.163	150.53
246.38	11.26
246.597	15.36
246.814	58.37
247.031	80.89
247.248	68.61
247.464	70.65
247.681	68.61
247.898	128
248.115	44.03
248.332	58.37
248.549	70.65
248.766	164.86
248.983	123.9
249.2	99.33
249.417	115.71
249.633	7.17
249.85	-7.17
250.067	27.65
250.284	21.5
250.501	134.14
250.717	37.89
250.934	-3.07
251.151	56.32
251.368	21.5
251.585	91.13
251.801	80.89
252.018	-105.47
252.235	80.89
252.451	-93.18
252.668	3.07
252.885	76.8
253.102	17.41
253.318	-60.42
253.535	23.55
253.752	-37.89
253.968	-31.74
254.185	-35.84
254.401	78.85
254.618	64.51
254.835	33.79
255.051	99.33
255.268	101.37
255.484	91.13
255.701	-48.13
255.917	44.03
256.134	-23.55
256.351	117.76
256.567	-44.03
256.784	125.95
257	-101.37
257.217	117.76
257.433	117.76
257.65	115.71
257.866	95.23
258.082	-13.31
258.299	25.6
258.515	48.13
258.732	62.46
258.948	-29.7
259.165	82.94
259.381	-66.56
259.597	58.37
259.814	5.12
260.03	91.13
260.246	-74.75
260.463	142.33
260.679	154.62
260.895	91.13
261.112	44.03
261.328	11.26
261.544	52.22
261.761	142.33
261.977	19.46
262.193	-54.27
262.409	99.33
262.626	54.27
262.842	-15.36
263.058	21.5
263.274	107.52
263.49	78.85
263.707	119.81
263.923	1.02
264.139	-19.46
264.355	31.74
264.571	119.81
264.787	109.57
265.004	80.89
265.22	44.03
265.436	44.03
265.652	91.13
265.868	-50.18
266.084	15.36
266.3	-7.17
266.516	15.36
266.732	66.56
266.948	-3.07
267.164	19.46
267.38	105.47
267.596	5.12
267.812	138.24
268.028	58.37
268.244	19.46
268.46	52.22
268.676	37.89
268.892	101.37
269.108	9.22
269.324	-60.42
269.54	21.5
269.756	87.04
269.972	-41.98
270.188	72.7
270.403	-111.61
270.619	-29.7
270.835	39.94
271.051	89.09
271.267	39.94
271.483	-29.7
271.698	27.65
271.914	41.98
272.13	-11.26
272.346	11.26
272.562	58.37
272.777	93.18
272.993	27.65
273.209	-80.89
273.425	95.23
273.64	-9.22
273.856	50.18
274.072	-72.7
274.287	-46.08
274.503	103.42
274.719	68.61
274.934	27.65
275.15	-54.27
275.366	44.03
275.581	-19.46
275.797	21.5
276.012	72.7
276.228	-17.41
276.444	33.79
276.659	97.28
276.875	-5.12
277.09	58.37
277.306	29.7
277.521	-1.02
277.737	68.61
277.952	62.46
278.168	-7.17
278.383	1.02
278.599	1.02
278.814	150.53
279.03	19.46
279.245	171.01
279.461	3.07
279.676	68.61
279.892	-78.85
280.107	-80.89
280.322	3.07
280.538	46.08
280.753	-11.26
280.969	66.56
281.184	76.8
281.399	84.99
281.615	27.65
281.83	95.23
282.045	13.31
282.26	-46.08
282.476	46.08
282.691	39.94
282.906	39.94
283.122	119.81
283.337	-5.12
283.552	115.71
283.767	105.47
283.983	105.47
284.198	31.74
284.413	64.51
284.628	-5.12
284.843	111.61
285.058	115.71
285.274	-21.5
285.489	-5.12
285.704	162.81
285.919	-50.18
286.134	23.55
286.349	21.5
286.564	5.12
286.779	50.18
286.995	50.18
287.21	-70.65
287.425	29.7
287.64	-39.94
287.855	41.98
288.07	-84.99
288.285	103.42
288.5	148.48
288.715	41.98
288.93	5.12
289.145	-119.81
289.36	44.03
289.575	11.26
289.79	121.85
290.004	-3.07
290.219	115.71
290.434	-9.22
290.649	-21.5
290.864	-54.27
291.079	80.89
291.294	41.98
291.509	62.46
291.724	15.36
291.938	52.22
292.153	123.9
292.368	7.17
292.583	107.52
292.798	171.01
293.012	78.85
293.227	101.37
293.442	54.27
293.657	134.14
293.871	93.18
294.086	-3.07
294.301	154.62
294.516	168.96
294.73	23.55
294.945	-48.13
295.16	-7.17
295.374	150.53
295.589	41.98
295.804	15.36
296.018	132.09
296.233	113.66
296.447	52.22
296.662	-46.08
296.877	84.99
297.091	119.81
297.306	15.36
297.52	-11.26
297.735	39.94
297.949	91.13
298.164	39.94
298.378	138.24
298.593	7.17
298.807	-23.55
299.022	29.7
299.236	175.1
299.451	-68.61
299.665	37.89
299.88	-58.37
300.094	54.27
300.309	35.84
300.523	13.31
300.737	-46.08
300.952	50.18
301.166	-7.17
301.381	-72.7
301.595	29.7
301.809	105.47
302.024	142.33
302.238	37.89
302.452	209.92
302.667	66.56
302.881	111.61
303.095	52.22
303.309	78.85
303.524	70.65
303.738	58.37
303.952	-33.79
304.166	187.39
304.381	-76.8
304.595	207.87
304.809	11.26
305.023	-27.65
305.237	-13.31
305.452	3.07
305.666	119.81
305.88	99.33
306.094	158.72
306.308	95.23
306.522	27.65
306.736	109.57
306.95	70.65
307.164	23.55
307.379	15.36
307.593	138.24
307.807	150.53
308.021	117.76
308.235	9.22
308.449	-111.61
308.663	35.84
308.877	287.74
309.091	-7.17
309.305	117.76
309.519	-93.18
309.733	29.7
309.947	-54.27
310.161	144.38
310.374	99.33
310.588	105.47
310.802	-23.55
311.016	1.02
311.23	46.08
311.444	-37.89
311.658	33.79
311.872	95.23
312.085	150.53
312.299	121.85
312.513	158.72
312.727	48.13
312.941	70.65
313.154	46.08
313.368	35.84
313.582	27.65
313.796	11.26
314.009	-1.02
314.223	228.35
314.437	54.27
314.651	109.57
314.864	21.5
315.078	-9.22
315.292	-52.22
315.505	13.31
315.719	140.29
315.933	15.36
316.146	35.84
316.36	-72.7
316.573	148.48
316.787	109.57
317.001	7.17
317.214	-15.36
317.428	46.08
317.641	-21.5
317.855	-21.5
318.068	29.7
318.282	-21.5
318.495	252.92
318.709	1.02
318.922	11.26
319.136	156.67
319.349	101.37
319.563	5.12
319.776	23.55
319.99	-125.95
320.203	91.13
320.417	21.5
320.63	144.38
320.843	152.57
321.057	17.41
321.27	-29.7
321.483	68.61
321.697	60.42
321.91	39.94
322.124	37.89
322.337	101.37
322.55	-101.37
322.763	5.12
322.977	41.98
323.19	9.22
323.403	54.27
323.617	97.28
323.83	84.99
324.043	52.22
324.256	11.26
324.469	-9.22
324.683	152.57
324.896	-21.5
325.109	39.94
325.322	-66.56
325.535	-9.22
325.748	89.09
325.962	15.36
326.175	68.61
326.388	89.09
326.601	93.18
326.814	89.09
327.027	87.04
327.24	152.57
327.453	-78.85
327.666	130.05
327.879	119.81
328.092	54.27
328.305	148.48
328.518	19.46
328.731	-25.6
328.944	41.98
329.157	39.94
329.37	78.85
329.583	123.9
329.796	121.85
330.009	-19.46
330.222	105.47
330.435	111.61
330.648	64.51
330.861	31.74
331.073	70.65
331.286	68.61
331.499	31.74
331.712	-52.22
331.925	1.02
332.138	-5.12
332.35	142.33
332.563	-35.84
332.776	101.37
332.989	-60.42
333.202	15.36
333.414	93.18
333.627	23.55
333.84	58.37
334.053	39.94
334.265	35.84
334.478	23.55
334.691	7.17
334.903	31.74
335.116	46.08
335.329	-25.6
335.541	-17.41
335.754	128
335.966	-13.31
336.179	-37.89
336.392	-74.75
336.604	37.89
336.817	142.33
337.029	78.85
337.242	87.04
337.454	103.42
337.667	99.33
337.88	128
338.092	99.33
338.305	58.37
338.517	44.03
338.729	60.42
338.942	164.86
339.154	-11.26
339.367	-78.85
339.579	95.23
339.792	-21.5
340.004	62.46
340.217	101.37
340.429	62.46
340.641	-37.89
340.854	7.17
341.066	44.03
341.278	152.57
341.491	173.05
341.703	17.41
341.915	-13.31
342.128	123.9
342.34	132.09
342.552	-3.07
342.764	46.08
342.977	62.46
343.189	68.61
343.401	84.99
343.613	13.31
343.826	134.14
344.038	-91.13
344.25	93.18
344.462	-33.79
344.674	58.37
344.886	74.75
345.099	60.42
345.311	46.08
345.523	76.8
345.735	-31.74
345.947	64.51
346.159	84.99
346.371	54.27
346.583	21.5
346.795	187.39
347.007	31.74
347.219	33.79
347.431	9.22
347.643	130.05
347.855	-31.74
348.067	168.96
348.279	-101.37
348.491	15.36
348.703	107.52
348.915	44.03
349.127	-25.6
349.339	27.65
349.551	-31.74
349.763	138.24
349.975	15.36
350.187	142.33
350.399	177.15
350.61	111.61
350.822	-25.6
351.034	66.56
351.246	144.38
351.458	132.09
351.669	84.99
351.881	95.23
352.093	82.94
352.305	50.18
352.517	89.09
352.728	134.14
352.94	35.84
353.152	111.61
353.363	-74.75
353.575	56.32
353.787	185.34
353.999	50.18
354.21	142.33
354.422	-15.36
354.633	31.74
354.845	-7.17
355.057	31.74
355.268	-13.31
355.48	130.05
355.692	-76.8
355.903	87.04
356.115	48.13
356.326	-31.74
356.538	117.76
356.749	117.76
356.961	140.29
357.172	44.03
357.384	-33.79
357.595	222.2
357.807	-3.07
358.018	-46.08
358.23	15.36
358.441	162.81
358.653	56.32
358.864	-9.22
359.075	-54.27
359.287	58.37
359.498	111.61
359.709	80.89
359.921	109.57
360.132	11.26
360.344	13.31
360.555	-5.12
360.766	-11.26
360.977	-29.7
361.189	113.66
361.4	62.46
361.611	164.86
361.823	115.71
362.034	123.9
362.245	-105.47
362.456	7.17
362.667	80.89
362.879	-58.37
363.09	11.26
363.301	35.84
363.512	78.85
363.723	-39.94
363.935	25.6
364.146	119.81
364.357	-54.27
364.568	39.94
364.779	-33.79
364.99	54.27
365.201	-68.61
365.412	136.19
365.623	-128
365.834	35.84
366.045	33.79
366.256	105.47
366.467	148.48
366.678	33.79
366.889	52.22
367.1	44.03
367.311	216.06
367.522	-5.12
367.733	21.5
367.944	154.62
368.155	66.56
368.366	46.08
368.577	191.49
368.788	130.05
368.999	-15.36
369.209	7.17
369.42	236.54
369.631	214.01
369.842	103.42
370.053	54.27
370.264	150.53
370.474	-39.94
370.685	41.98
370.896	11.26
371.107	60.42
371.317	58.37
371.528	-21.5
371.739	68.61
371.95	80.89
372.16	44.03
372.371	-156.67
372.582	-1.02
372.792	66.56
373.003	78.85
373.214	130.05
373.424	58.37
373.635	-19.46
373.846	193.53
374.056	93.18
374.267	101.37
374.477	72.7
374.688	-93.18
374.898	52.22
375.109	44.03
375.319	87.04
375.53	125.95
375.74	56.32
375.951	9.22
376.161	21.5
376.372	44.03
376.582	19.46
376.793	46.08
377.003	27.65
377.214	13.31
377.424	91.13
377.635	41.98
377.845	33.79
378.055	146.43
378.266	37.89
378.476	15.36
378.686	31.74
378.897	9.22
379.107	111.61
379.317	72.7
379.528	-17.41
379.738	156.67
379.948	-74.75
380.158	138.24
380.369	68.61
380.579	111.61
380.789	56.32
380.999	48.13
381.21	138.24
381.42	205.82
381.63	37.89
381.84	105.47
382.05	56.32
382.261	60.42
382.471	105.47
382.681	-11.26
382.891	148.48
383.101	17.41
383.311	-27.65
383.521	23.55
383.731	52.22
383.941	82.94
384.151	3.07
384.361	33.79
384.571	15.36
384.781	48.13
384.991	119.81
385.201	173.05
385.411	181.25
385.621	35.84
385.831	54.27
386.041	60.42
386.251	23.55
386.461	185.34
386.671	-58.37
386.881	7.17
387.091	64.51
387.301	123.9
387.511	-23.55
387.72	119.81
387.93	177.15
388.14	-74.75
388.35	25.6
388.56	125.95
388.769	109.57
388.979	27.65
389.189	-25.6
389.399	-15.36
389.609	44.03
389.818	119.81
390.028	87.04
390.238	31.74
390.447	-7.17
390.657	68.61
390.867	5.12
391.076	-113.66
391.286	56.32
391.496	-25.6
391.705	17.41
391.915	111.61
392.125	93.18
392.334	33.79
392.544	162.81
392.753	44.03
392.963	5.12
393.172	27.65
393.382	44.03
393.591	179.2
393.801	-70.65
394.01	181.25
394.22	158.72
394.429	56.32
394.639	9.22
394.848	89.09
395.058	54.27
395.267	46.08
395.477	44.03
395.686	119.81
395.895	158.72
396.105	132.09
396.314	128
396.524	11.26
396.733	-25.6
396.942	152.57
397.152	93.18
397.361	105.47
397.57	-19.46
397.78	-46.08
397.989	121.85
398.198	138.24
398.407	50.18
398.617	48.13
398.826	33.79
399.035	62.46
399.244	82.94
399.453	136.19
399.663	44.03
399.872	7.17
400.081	3.07
400.29	111.61
400.499	-48.13
400.708	119.81
400.917	68.61
401.127	7.17
401.336	1.02
401.545	130.05
401.754	191.49
401.963	144.38
402.172	-5.12
402.381	-21.5
402.59	33.79
402.799	5.12
403.008	105.47
403.217	64.51
403.426	64.51
403.635	-50.18
403.844	-48.13
404.053	3.07
404.262	74.75
404.471	111.61
404.68	66.56
404.888	48.13
405.097	1.02
405.306	138.24
405.515	123.9
405.724	39.94
405.933	166.91
406.142	76.8
406.35	78.85
406.559	21.5
406.768	68.61
406.977	181.25
407.185	-1.02
407.394	29.7
407.603	-52.22
407.812	-11.26
408.02	123.9
408.229	50.18
408.438	60.42
408.646	-9.22
408.855	68.61
409.064	52.22
409.272	121.85
409.481	89.09
409.69	-44.03
409.898	5.12
410.107	80.89
410.315	60.42
410.524	-35.84
410.733	29.7
410.941	-25.6
411.15	105.47
411.358	62.46
411.567	164.86
411.775	37.89
411.984	64.51
412.192	125.95
412.401	7.17
412.609	125.95
412.818	97.28
413.026	62.46
413.234	109.57
413.443	58.37
413.651	5.12
413.86	68.61
414.068	101.37
414.276	173.05
414.485	-31.74
414.693	130.05
414.901	105.47
415.11	146.43
415.318	37.89
415.526	117.76
415.734	101.37
415.943	44.03
416.151	105.47
416.359	-13.31
416.567	103.42
416.776	84.99
416.984	64.51
417.192	101.37
417.4	25.6
417.608	19.46
417.817	-9.22
418.025	48.13
418.233	166.91
418.441	50.18
418.649	-19.46
418.857	33.79
419.065	189.44
419.273	3.07
419.481	25.6
419.689	50.18
419.897	37.89
420.105	-44.03
420.313	33.79
420.521	111.61
420.729	140.29
420.937	64.51
421.145	-9.22
421.353	164.86
421.561	164.86
421.769	60.42
421.977	89.09
422.185	95.23
422.393	117.76
422.601	17.41
422.809	74.75
423.017	132.09
423.224	74.75
423.432	140.29
423.64	27.65
423.848	115.71
424.056	33.79
424.263	123.9
424.471	64.51
424.679	228.35
424.887	-15.36
425.094	134.14
425.302	105.47
425.51	87.04
425.718	52.22
425.925	84.99
426.133	-1.02
426.341	201.72
426.548	31.74
426.756	-70.65
426.964	84.99
427.171	132.09
427.379	-1.02
427.586	70.65
427.794	103.42
428.001	136.19
428.209	66.56
428.417	173.05
428.624	56.32
428.832	191.49
429.039	132.09
429.247	121.85
429.454	166.91
429.662	154.62
429.869	52.22
430.076	64.51
430.284	154.62
430.491	220.16
430.699	123.9
430.906	168.96
431.114	121.85
431.321	84.99
431.528	154.62
431.736	109.57
431.943	136.19
432.15	156.67
432.358	130.05
432.565	248.83
432.772	17.41
432.979	183.29
433.187	113.66
433.394	150.53
433.601	97.28
433.808	150.53
434.016	177.15
434.223	160.77
434.43	228.35
434.637	297.98
434.844	250.88
435.052	205.82
435.259	283.64
435.466	201.72
435.673	185.34
435.88	252.92
436.087	257.02
436.294	328.7
436.501	320.51
436.708	216.06
436.915	250.88
437.122	267.26
437.329	320.51
437.537	261.12
437.743	326.65
437.95	515.06
438.157	302.08
438.364	310.27
438.571	377.85
438.778	363.51
438.985	386.04
439.192	441.34
439.399	302.08
439.606	318.46
439.813	414.71
440.02	510.97
440.227	590.84
440.433	427
440.64	437.24
440.847	398.33
441.054	498.68
441.261	574.46
441.467	498.68
441.674	492.54
441.881	674.81
442.088	611.32
442.294	654.33
442.501	654.33
442.708	730.1
442.914	748.53
443.121	814.07
443.328	844.79
443.534	824.31
443.741	783.35
443.948	730.1
444.154	814.07
444.361	984.05
444.568	975.86
444.774	895.99
444.981	746.48
445.187	1078.26
445.394	1006.58
445.6	1080.3
445.807	1141.74
446.013	1108.98
446.22	1092.59
446.426	1313.77
446.633	1225.71
446.839	1534.95
447.046	1145.84
447.252	1422.31
447.459	1274.86
447.665	1410.03
447.871	1592.3
448.078	1680.36
448.284	1666.02
448.491	1797.09
448.697	1805.28
448.903	1881.06
449.11	1868.77
449.316	1915.87
449.522	2034.66
449.728	2089.95
449.935	2130.91
450.141	2169.82
450.347	2261.98
450.553	2386.91
450.76	2399.2
450.966	2593.75
451.172	2540.51
451.378	2702.29
451.584	2638.81
451.791	2925.52
451.997	2939.86
452.203	3126.22
452.409	3300.3
452.615	3400.65
452.821	3265.49
453.027	3228.62
453.233	3713.99
453.44	3679.18
453.646	3918.79
453.852	4070.34
454.058	4209.6
454.264	4207.55
454.47	4631.48
454.676	4658.1
454.882	5106.61
455.088	4774.84
455.294	5067.7
455.5	5376.94
455.705	5540.78
455.911	5651.37
456.117	5911.46
456.323	5989.28
456.529	6015.91
456.735	6775.7
456.941	6822.81
457.147	6831
457.352	7144.34
457.558	7373.71
457.764	7865.22
457.97	8055.69
458.176	8295.3
458.381	8813.43
458.587	8962.94
458.793	9483.12
458.999	9517.93
459.204	10400.61
459.41	10947.42
459.616	10716
459.821	11395.92
460.027	12059.46
460.233	12395.33
460.438	12366.66
460.644	13214.52
460.85	13413.17
461.055	14189.35
461.261	14584.61
461.466	14406.44
461.672	14469.92
461.878	16360.2
462.083	16081.67
462.289	16349.96
462.494	16851.71
462.7	16978.68
462.905	17367.8
463.111	19014.37
463.316	19845.84
463.522	20140.75
463.727	20701.89
463.932	21357.24
464.138	22160.05
464.343	23073.44
464.549	23048.86
464.754	24713.86
464.959	25635.45
465.165	26067.57
465.37	25746.04
465.575	25875.06
465.781	27372.13
465.986	28369.49
466.191	27822.68
466.397	28275.28
466.602	27439.71
466.807	28813.9
467.012	29510.21
467.218	29927.99
467.423	29923.9
467.628	31214.12
467.833	32582.16
468.038	31955.48
468.244	31275.55
468.449	32920.07
468.654	32250.39
