Data from USB4F104151__11__10-23-06-049.txt Node

Date: Wed Feb 26 10:23:06 EST 2025
User: louis
Spectrometer: USB4F10415
Trigger mode: 4
Integration Time (sec): 1.000000E-1
Scans to average: 1
Electric dark correction enabled: true
Nonlinearity correction enabled: false
Boxcar width: 0
XAxis mode: Wavelengths
Number of Pixels in Spectrum: 3648
>>>>>Begin Spectral Data<<<<<
178.204	-394.58
178.424	-394.58
178.644	-394.58
178.864	-431.44
179.084	-429.39
179.304	-34.13
179.524	-109.91
179.744	66.22
179.964	74.41
180.184	-40.28
180.404	35.5
180.624	15.02
180.844	-32.08
181.064	-64.85
181.283	101.03
181.503	-36.18
181.723	25.26
181.943	-105.81
182.163	219.82
182.383	-97.62
182.602	43.69
182.822	154.28
183.042	53.93
183.262	-27.99
183.482	-93.52
183.701	15.02
183.921	139.94
184.141	-46.42
184.361	6.83
184.58	58.03
184.8	2.73
185.02	-7.51
185.239	109.22
185.459	115.37
185.679	21.16
185.898	-126.29
186.118	33.45
186.338	86.7
186.557	60.07
186.777	10.92
186.997	-124.24
187.216	60.07
187.436	101.03
187.655	74.41
187.875	64.17
188.095	58.03
188.314	135.85
188.534	123.56
188.753	-79.19
188.973	139.94
189.192	238.25
189.412	27.31
189.631	70.31
189.851	-9.56
190.07	182.95
190.29	-44.37
190.509	29.35
190.729	27.31
190.948	195.24
191.168	260.77
191.387	10.92
191.607	-17.75
191.826	86.7
192.045	23.21
192.265	37.55
192.484	92.84
192.704	37.55
192.923	-58.71
193.142	156.33
193.362	82.6
193.581	160.42
193.8	84.65
194.02	-34.13
194.239	-27.99
194.458	119.46
194.678	23.21
194.897	55.98
195.116	129.7
195.335	62.12
195.555	29.35
195.774	-27.99
195.993	96.94
196.212	86.7
196.432	72.36
196.651	2.73
196.87	72.36
197.089	238.25
197.308	94.89
197.528	129.7
197.747	-64.85
197.966	27.31
198.185	45.74
198.404	4.78
198.623	148.14
198.842	12.97
199.062	74.41
199.281	109.22
199.5	92.84
199.719	90.79
199.938	115.37
200.157	90.79
200.376	49.83
200.595	92.84
200.814	62.12
201.033	21.16
201.252	68.27
201.471	92.84
201.69	115.37
201.909	41.64
202.128	119.46
202.347	125.61
202.566	-5.46
202.785	-56.66
203.004	8.87
203.223	223.91
203.442	43.69
203.661	-62.8
203.879	86.7
204.098	74.41
204.317	-15.7
204.536	80.55
204.755	98.99
204.974	135.85
205.193	27.31
205.411	201.38
205.63	80.55
205.849	64.17
206.068	21.16
206.287	39.59
206.505	168.62
206.724	72.36
206.943	31.4
207.162	10.92
207.381	96.94
207.599	-38.23
207.818	47.79
208.037	0.68
208.255	8.87
208.474	6.83
208.693	39.59
208.911	43.69
209.13	41.64
209.349	86.7
209.567	62.12
209.786	-11.61
210.005	113.32
210.223	78.51
210.442	-62.8
210.661	-21.85
210.879	21.16
211.098	58.03
211.316	64.17
211.535	74.41
211.753	47.79
211.972	127.66
212.191	-23.89
212.409	35.5
212.628	113.32
212.846	2.73
213.065	96.94
213.283	127.66
213.502	6.83
213.72	23.21
213.938	68.27
214.157	-11.61
214.375	107.18
214.594	-27.99
214.812	133.8
215.031	15.02
215.249	62.12
215.467	84.65
215.686	31.4
215.904	92.84
216.122	45.74
216.341	60.07
216.559	12.97
216.778	129.7
216.996	127.66
217.214	33.45
217.432	-52.56
217.651	-38.23
217.869	33.45
218.087	8.87
218.306	37.55
218.524	133.8
218.742	37.55
218.96	139.94
219.179	15.02
219.397	49.83
219.615	230.06
219.833	121.51
220.051	6.83
220.27	125.61
220.488	148.14
220.706	25.26
220.924	-32.08
221.142	-5.46
221.36	51.88
221.578	84.65
221.796	-5.46
222.015	60.07
222.233	17.07
222.451	125.61
222.669	-13.65
222.887	125.61
223.105	-83.28
223.323	0.68
223.541	-5.46
223.759	62.12
223.977	27.31
224.195	160.42
224.413	88.75
224.631	62.12
224.849	-11.61
225.067	137.9
225.285	43.69
225.503	6.83
225.721	-62.8
225.939	29.35
226.157	74.41
226.375	182.95
226.592	17.07
226.81	47.79
227.028	86.7
227.246	86.7
227.464	-13.65
227.682	64.17
227.9	47.79
228.117	15.02
228.335	58.03
228.553	43.69
228.771	12.97
228.989	47.79
229.206	82.6
229.424	19.11
229.642	27.31
229.86	8.87
230.077	125.61
230.295	58.03
230.513	68.27
230.731	51.88
230.948	230.06
231.166	160.42
231.384	0.68
231.601	-13.65
231.819	162.47
232.037	33.45
232.254	-83.28
232.472	17.07
232.689	-11.61
232.907	127.66
233.125	43.69
233.342	-56.66
233.56	-30.04
233.777	88.75
233.995	82.6
234.213	82.6
234.43	107.18
234.648	82.6
234.865	-32.08
235.083	178.86
235.3	60.07
235.518	70.31
235.735	139.94
235.953	-3.41
236.17	29.35
236.388	-30.04
236.605	27.31
236.822	125.61
237.04	182.95
237.257	80.55
237.475	39.59
237.692	72.36
237.909	62.12
238.127	-34.13
238.344	203.43
238.562	88.75
238.779	-64.85
238.996	10.92
239.214	43.69
239.431	105.13
239.648	-54.61
239.865	86.7
240.083	90.79
240.3	45.74
240.517	4.78
240.735	88.75
240.952	123.56
241.169	101.03
241.386	111.27
241.603	43.69
241.821	-23.89
242.038	135.85
242.255	88.75
242.472	-19.8
242.689	58.03
242.907	133.8
243.124	86.7
243.341	53.93
243.558	-21.85
243.775	-30.04
243.992	8.87
244.209	88.75
244.426	127.66
244.643	35.5
244.86	96.94
245.078	115.37
245.295	31.4
245.512	-66.9
245.729	4.78
245.946	33.45
246.163	15.02
246.38	-25.94
246.597	68.27
246.814	25.26
247.031	64.17
247.248	0.68
247.464	49.83
247.681	37.55
247.898	74.41
248.115	45.74
248.332	-21.85
248.549	82.6
248.766	215.72
248.983	115.37
249.2	66.22
249.417	113.32
249.633	64.17
249.85	111.27
250.067	41.64
250.284	80.55
250.501	105.13
250.717	101.03
250.934	-5.46
251.151	29.35
251.368	-46.42
251.585	70.31
251.801	29.35
252.018	-5.46
252.235	139.94
252.451	-79.19
252.668	12.97
252.885	96.94
253.102	45.74
253.318	-25.94
253.535	29.35
253.752	37.55
253.968	17.07
254.185	-38.23
254.401	47.79
254.618	103.08
254.835	-54.61
255.051	205.48
255.268	39.59
255.484	90.79
255.701	45.74
255.917	21.16
256.134	-38.23
256.351	92.84
256.567	19.11
256.784	66.22
257	-99.67
257.217	51.88
257.433	113.32
257.65	84.65
257.866	117.42
258.082	37.55
258.299	-83.28
258.515	33.45
258.732	51.88
258.948	-87.38
259.165	109.22
259.381	-36.18
259.597	96.94
259.814	0.68
260.03	33.45
260.246	-27.99
260.463	103.08
260.679	178.86
260.895	-3.41
261.112	74.41
261.328	33.45
261.544	-5.46
261.761	154.28
261.977	64.17
262.193	-114
262.409	84.65
262.626	19.11
262.842	21.16
263.058	-21.85
263.274	41.64
263.49	35.5
263.707	47.79
263.923	96.94
264.139	6.83
264.355	62.12
264.571	49.83
264.787	39.59
265.004	76.46
265.22	94.89
265.436	-5.46
265.652	-27.99
265.868	-15.7
266.084	4.78
266.3	123.56
266.516	10.92
266.732	-25.94
266.948	4.78
267.164	62.12
267.38	137.9
267.596	27.31
267.812	164.52
268.028	10.92
268.244	-3.41
268.46	27.31
268.676	-66.9
268.892	58.03
269.108	-42.32
269.324	-56.66
269.54	-56.66
269.756	84.65
269.972	-136.53
270.188	92.84
270.403	-81.24
270.619	68.27
270.835	70.31
271.051	101.03
271.267	6.83
271.483	-11.61
271.698	72.36
271.914	49.83
272.13	58.03
272.346	31.4
272.562	27.31
272.777	115.37
272.993	-11.61
273.209	4.78
273.425	113.32
273.64	-85.33
273.856	31.4
274.072	-3.41
274.287	-9.56
274.503	119.46
274.719	146.09
274.934	27.31
275.15	-132.44
275.366	25.26
275.581	-52.56
275.797	-87.38
276.012	107.18
276.228	-17.75
276.444	49.83
276.659	70.31
276.875	12.97
277.09	-34.13
277.306	47.79
277.521	60.07
277.737	19.11
277.952	78.51
278.168	119.46
278.383	37.55
278.599	74.41
278.814	113.32
279.03	-38.23
279.245	121.51
279.461	84.65
279.676	158.38
279.892	-36.18
280.107	-3.41
280.322	-3.41
280.538	117.42
280.753	-1.37
280.969	80.55
281.184	-38.23
281.399	78.51
281.615	17.07
281.83	64.17
282.045	-5.46
282.26	21.16
282.476	41.64
282.691	15.02
282.906	172.71
283.122	70.31
283.337	66.22
283.552	6.83
283.767	98.99
283.983	74.41
284.198	33.45
284.413	-3.41
284.628	-7.51
284.843	111.27
285.058	107.18
285.274	-30.04
285.489	-1.37
285.704	139.94
285.919	55.98
286.134	-17.75
286.349	25.26
286.564	25.26
286.779	154.28
286.995	49.83
287.21	-21.85
287.425	76.46
287.64	-34.13
287.855	113.32
288.07	-56.66
288.285	154.28
288.5	88.75
288.715	80.55
288.93	-19.8
289.145	-46.42
289.36	109.22
289.575	-21.85
289.79	152.23
290.004	15.02
290.219	49.83
290.434	23.21
290.649	-32.08
290.864	15.02
291.079	-9.56
291.294	117.42
291.509	78.51
291.724	-23.89
291.938	39.59
292.153	78.51
292.368	8.87
292.583	-5.46
292.798	70.31
293.012	23.21
293.227	49.83
293.442	76.46
293.657	156.33
293.871	113.32
294.086	101.03
294.301	228.01
294.516	154.28
294.73	-13.65
294.945	-27.99
295.16	25.26
295.374	94.89
295.589	105.13
295.804	43.69
296.018	-3.41
296.233	86.7
296.447	111.27
296.662	33.45
296.877	78.51
297.091	127.66
297.306	45.74
297.52	51.88
297.735	45.74
297.949	105.13
298.164	37.55
298.378	68.27
298.593	-118.1
298.807	-23.89
299.022	74.41
299.236	113.32
299.451	-3.41
299.665	12.97
299.88	-5.46
300.094	94.89
300.309	39.59
300.523	84.65
300.737	12.97
300.952	154.28
301.166	-11.61
301.381	-58.71
301.595	4.78
301.809	98.99
302.024	45.74
302.238	-3.41
302.452	189.1
302.667	17.07
302.881	148.14
303.095	113.32
303.309	35.5
303.524	-5.46
303.738	51.88
303.952	-62.8
304.166	45.74
304.381	-95.57
304.595	109.22
304.809	15.02
305.023	101.03
305.237	35.5
305.452	10.92
305.666	64.17
305.88	-1.37
306.094	148.14
306.308	45.74
306.522	109.22
306.736	39.59
306.95	80.55
307.164	70.31
307.379	-9.56
307.593	137.9
307.807	80.55
308.021	133.8
308.235	123.56
308.449	-83.28
308.663	-5.46
308.877	197.29
309.091	2.73
309.305	66.22
309.519	-83.28
309.733	160.42
309.947	-130.39
310.161	105.13
310.374	111.27
310.588	76.46
310.802	51.88
311.016	-25.94
311.23	27.31
311.444	29.35
311.658	43.69
311.872	74.41
312.085	131.75
312.299	148.14
312.513	148.14
312.727	98.99
312.941	-40.28
313.154	115.37
313.368	29.35
313.582	76.46
313.796	23.21
314.009	51.88
314.223	68.27
314.437	47.79
314.651	88.75
314.864	21.16
315.078	4.78
315.292	-48.47
315.505	41.64
315.719	55.98
315.933	107.18
316.146	-19.8
316.36	-34.13
316.573	123.56
316.787	64.17
317.001	72.36
317.214	-52.56
317.428	68.27
317.641	-68.95
317.855	-17.75
318.068	51.88
318.282	103.08
318.495	107.18
318.709	2.73
318.922	70.31
319.136	129.7
319.349	125.61
319.563	41.64
319.776	146.09
319.99	-38.23
320.203	72.36
320.417	33.45
320.63	160.42
320.843	117.42
321.057	25.26
321.27	-13.65
321.483	74.41
321.697	164.52
321.91	53.93
322.124	64.17
322.337	29.35
322.55	-109.91
322.763	-38.23
322.977	76.46
323.19	29.35
323.403	53.93
323.617	43.69
323.83	150.18
324.043	15.02
324.256	105.13
324.469	-81.24
324.683	94.89
324.896	-3.41
325.109	41.64
325.322	-32.08
325.535	49.83
325.748	98.99
325.962	2.73
326.175	98.99
326.388	55.98
326.601	60.07
326.814	68.27
327.027	103.08
327.24	137.9
327.453	-95.57
327.666	111.27
327.879	101.03
328.092	51.88
328.305	92.84
328.518	17.07
328.731	-19.8
328.944	2.73
329.157	111.27
329.37	66.22
329.583	146.09
329.796	88.75
330.009	6.83
330.222	92.84
330.435	21.16
330.648	49.83
330.861	78.51
331.073	123.56
331.286	182.95
331.499	92.84
331.712	-25.94
331.925	27.31
332.138	103.08
332.35	115.37
332.563	49.83
332.776	148.14
332.989	0.68
333.202	-34.13
333.414	49.83
333.627	82.6
333.84	12.97
334.053	-21.85
334.265	29.35
334.478	72.36
334.691	-34.13
334.903	68.27
335.116	27.31
335.329	60.07
335.541	141.99
335.754	90.79
335.966	-27.99
336.179	68.27
336.392	78.51
336.604	2.73
336.817	45.74
337.029	62.12
337.242	62.12
337.454	-3.41
337.667	51.88
337.88	111.27
338.092	70.31
338.305	105.13
338.517	-52.56
338.729	80.55
338.942	148.14
339.154	-48.47
339.367	-30.04
339.579	84.65
339.792	-56.66
340.004	37.55
340.217	-5.46
340.429	62.12
340.641	19.11
340.854	-1.37
341.066	27.31
341.278	129.7
341.491	168.62
341.703	2.73
341.915	-38.23
342.128	141.99
342.34	107.18
342.552	15.02
342.764	-54.61
342.977	49.83
343.189	74.41
343.401	45.74
343.613	-77.14
343.826	105.13
344.038	10.92
344.25	0.68
344.462	4.78
344.674	72.36
344.886	43.69
345.099	31.4
345.311	117.42
345.523	31.4
345.735	-17.75
345.947	23.21
346.159	96.94
346.371	82.6
346.583	-9.56
346.795	185
347.007	19.11
347.219	60.07
347.431	29.35
347.643	66.22
347.855	-30.04
348.067	92.84
348.279	8.87
348.491	2.73
348.703	131.75
348.915	76.46
349.127	-54.61
349.339	-27.99
349.551	12.97
349.763	105.13
349.975	-40.28
350.187	117.42
350.399	68.27
350.61	-9.56
350.822	68.27
351.034	129.7
351.246	25.26
351.458	64.17
351.669	119.46
351.881	94.89
352.093	72.36
352.305	131.75
352.517	64.17
352.728	92.84
352.94	-11.61
353.152	92.84
353.363	10.92
353.575	137.9
353.787	221.86
353.999	68.27
354.21	168.62
354.422	-85.33
354.633	-9.56
354.845	43.69
355.057	41.64
355.268	41.64
355.48	148.14
355.692	-42.32
355.903	-32.08
356.115	-52.56
356.326	-15.7
356.538	135.85
356.749	8.87
356.961	205.48
357.172	-1.37
357.384	-5.46
357.595	230.06
357.807	35.5
358.018	-11.61
358.23	49.83
358.441	146.09
358.653	31.4
358.864	19.11
359.075	43.69
359.287	49.83
359.498	74.41
359.709	117.42
359.921	23.21
360.132	41.64
360.344	-9.56
360.555	39.59
360.766	117.42
360.977	49.83
361.189	62.12
361.4	21.16
361.611	148.14
361.823	78.51
362.034	139.94
362.245	-56.66
362.456	-7.51
362.667	47.79
362.879	6.83
363.09	84.65
363.301	121.51
363.512	31.4
363.723	66.22
363.935	45.74
364.146	121.51
364.357	76.46
364.568	-5.46
364.779	-79.19
364.99	119.46
365.201	-19.8
365.412	168.62
365.623	-66.9
365.834	62.12
366.045	84.65
366.256	49.83
366.467	78.51
366.678	15.02
366.889	-5.46
367.1	8.87
367.311	49.83
367.522	-62.8
367.733	64.17
367.944	115.37
368.155	29.35
368.366	51.88
368.577	74.41
368.788	146.09
368.999	72.36
369.209	60.07
369.42	195.24
369.631	215.72
369.842	121.51
370.053	80.55
370.264	121.51
370.474	4.78
370.685	-1.37
370.896	-44.37
371.107	103.08
371.317	113.32
371.528	23.21
371.739	158.38
371.95	131.75
372.16	92.84
372.371	-73.04
372.582	41.64
372.792	101.03
373.003	70.31
373.214	66.22
373.424	94.89
373.635	-11.61
373.846	176.81
374.056	47.79
374.267	21.16
374.477	80.55
374.688	21.16
374.898	158.38
375.109	64.17
375.319	92.84
375.53	160.42
375.74	96.94
375.951	15.02
376.161	92.84
376.372	96.94
376.582	43.69
376.793	-3.41
377.003	-32.08
377.214	-9.56
377.424	6.83
377.635	86.7
377.845	-75.09
378.055	174.76
378.266	47.79
378.476	31.4
378.686	107.18
378.897	-9.56
379.107	131.75
379.317	49.83
379.528	27.31
379.738	98.99
379.948	4.78
380.158	109.22
380.369	58.03
380.579	90.79
380.789	31.4
380.999	103.08
381.21	107.18
381.42	199.34
381.63	-36.18
381.84	66.22
382.05	39.59
382.261	129.7
382.471	135.85
382.681	8.87
382.891	141.99
383.101	94.89
383.311	12.97
383.521	-5.46
383.731	111.27
383.941	135.85
384.151	84.65
384.361	25.26
384.571	119.46
384.781	76.46
384.991	195.24
385.201	139.94
385.411	78.51
385.621	58.03
385.831	109.22
386.041	23.21
386.251	2.73
386.461	80.55
386.671	-62.8
386.881	162.47
387.091	4.78
387.301	103.08
387.511	-3.41
387.72	23.21
387.93	62.12
388.14	-60.76
388.35	27.31
388.56	43.69
388.769	101.03
388.979	78.51
389.189	31.4
389.399	-3.41
389.609	129.7
389.818	103.08
390.028	35.5
390.238	92.84
390.447	-15.7
390.657	117.42
390.867	129.7
391.076	-36.18
391.286	76.46
391.496	86.7
391.705	68.27
391.915	146.09
392.125	31.4
392.334	-46.42
392.544	203.43
392.753	12.97
392.963	103.08
393.172	10.92
393.382	-9.56
393.591	92.84
393.801	-30.04
394.01	172.71
394.22	51.88
394.429	10.92
394.639	25.26
394.848	8.87
395.058	51.88
395.267	19.11
395.477	12.97
395.686	62.12
395.895	230.06
396.105	217.77
396.314	0.68
396.524	88.75
396.733	-3.41
396.942	111.27
397.152	41.64
397.361	19.11
397.57	98.99
397.78	62.12
397.989	78.51
398.198	201.38
398.407	64.17
398.617	27.31
398.826	47.79
399.035	0.68
399.244	96.94
399.453	150.18
399.663	98.99
399.872	60.07
400.081	-68.95
400.29	101.03
400.499	-9.56
400.708	107.18
400.917	23.21
401.127	62.12
401.336	39.59
401.545	213.67
401.754	101.03
401.963	117.42
402.172	45.74
402.381	-52.56
402.59	6.83
402.799	94.89
403.008	119.46
403.217	55.98
403.426	66.22
403.635	-44.37
403.844	19.11
404.053	8.87
404.262	41.64
404.471	135.85
404.68	43.69
404.888	58.03
405.097	58.03
405.306	133.8
405.515	80.55
405.724	17.07
405.933	207.53
406.142	43.69
406.35	62.12
406.559	49.83
406.768	70.31
406.977	117.42
407.185	84.65
407.394	60.07
407.603	-36.18
407.812	103.08
408.02	96.94
408.229	64.17
408.438	27.31
408.646	0.68
408.855	35.5
409.064	64.17
409.272	41.64
409.481	64.17
409.69	8.87
409.898	19.11
410.107	39.59
410.315	86.7
410.524	47.79
410.733	94.89
410.941	15.02
411.15	53.93
411.358	-3.41
411.567	195.24
411.775	98.99
411.984	105.13
412.192	55.98
412.401	15.02
412.609	207.53
412.818	84.65
413.026	135.85
413.234	27.31
413.443	23.21
413.651	4.78
413.86	35.5
414.068	168.62
414.276	131.75
414.485	19.11
414.693	168.62
414.901	213.67
415.11	96.94
415.318	117.42
415.526	15.02
415.734	158.38
415.943	2.73
416.151	129.7
416.359	94.89
416.567	-5.46
416.776	209.58
416.984	96.94
417.192	168.62
417.4	0.68
417.608	80.55
417.817	39.59
418.025	170.66
418.233	105.13
418.441	6.83
418.649	4.78
418.857	109.22
419.065	62.12
419.273	19.11
419.481	17.07
419.689	60.07
419.897	94.89
420.105	6.83
420.313	76.46
420.521	121.51
420.729	127.66
420.937	-27.99
421.145	-11.61
421.353	88.75
421.561	101.03
421.769	29.35
421.977	39.59
422.185	62.12
422.393	2.73
422.601	96.94
422.809	90.79
423.017	43.69
423.224	78.51
423.432	125.61
423.64	47.79
423.848	150.18
424.056	-27.99
424.263	172.71
424.471	0.68
424.679	84.65
424.887	-27.99
425.094	141.99
425.302	82.6
425.51	21.16
425.718	115.37
425.925	31.4
426.133	70.31
426.341	135.85
426.548	37.55
426.756	-3.41
426.964	139.94
427.171	29.35
427.379	74.41
427.586	117.42
427.794	129.7
428.001	76.46
428.209	127.66
428.417	135.85
428.624	105.13
428.832	123.56
429.039	68.27
429.247	64.17
429.454	80.55
429.662	180.9
429.869	211.62
430.076	172.71
430.284	213.67
430.491	197.29
430.699	172.71
430.906	219.82
431.114	133.8
431.321	113.32
431.528	33.45
431.736	137.9
431.943	174.76
432.15	172.71
432.358	133.8
432.565	197.29
432.772	-17.75
432.979	223.91
433.187	141.99
433.394	215.72
433.601	156.33
433.808	158.38
434.016	207.53
434.223	201.38
434.43	238.25
434.637	213.67
434.844	309.93
435.052	228.01
435.259	262.82
435.466	268.97
435.673	166.57
435.88	223.91
436.087	344.74
436.294	217.77
436.501	303.78
436.708	164.52
436.915	316.07
437.122	324.26
437.329	244.39
437.537	236.2
437.743	258.73
437.95	451.24
438.157	283.3
438.364	344.74
438.571	363.17
438.778	340.65
438.985	420.52
439.192	449.19
439.399	320.17
439.606	496.29
439.813	484
440.02	537.25
440.227	592.55
440.433	469.67
440.64	441
440.847	500.39
441.054	512.67
441.261	484
441.467	553.63
441.674	516.77
441.881	592.55
442.088	504.48
442.294	658.08
442.501	631.46
442.708	660.13
442.914	705.18
443.121	725.66
443.328	674.46
443.534	778.91
443.741	705.18
443.948	754.34
444.154	815.77
444.361	991.9
444.568	877.21
444.774	936.6
444.981	778.91
445.187	1067.67
445.394	1063.58
445.6	985.76
445.807	1122.97
446.013	1077.91
446.22	1026.71
446.426	1264.28
446.633	1284.76
446.839	1450.64
447.046	1305.24
447.252	1448.6
447.459	1360.53
447.665	1518.23
447.871	1671.83
448.078	1735.31
448.284	1657.49
448.491	1720.98
448.697	1782.42
448.903	1952.4
449.11	1854.09
449.316	1813.13
449.522	2044.56
449.728	2056.84
449.935	2198.15
450.141	2187.91
450.347	2448.01
450.553	2425.48
450.76	2409.09
450.966	2587.27
451.172	2691.71
451.378	2736.77
451.584	2847.36
451.791	3021.44
451.997	3056.25
452.203	2960
452.409	3345.02
452.615	3537.52
452.821	3244.67
453.027	3426.93
453.233	3940.97
453.44	3666.55
453.646	3965.55
453.852	3945.07
454.058	4127.34
454.264	4205.16
454.47	4721.25
454.676	4596.32
454.882	5020.25
455.088	4717.15
455.294	5147.23
455.5	5409.37
455.705	5683.8
455.911	5720.66
456.117	5778
456.323	6146.64
456.529	6087.25
456.735	6787.65
456.941	6736.45
457.147	7027.26
457.352	7152.19
457.558	7426.62
457.764	7952.95
457.97	8102.45
458.176	8413.74
458.381	8878.63
458.587	9036.32
458.793	9417.24
458.999	9386.52
459.204	10680.84
459.41	10945.03
459.616	10764.81
459.821	11536.89
460.027	11866.61
460.233	12528.11
460.438	12544.49
460.644	13259.23
460.85	13382.11
461.055	13828.57
461.261	14541.26
461.466	14174.67
461.672	14340.56
461.878	16071.09
462.083	16019.89
462.289	16437.68
462.494	17078.69
462.7	17064.36
462.905	17598.88
463.111	19132.81
463.316	19863.93
463.522	20087.16
463.727	20789.61
463.932	21367.14
464.138	22126.94
464.343	23177.55
464.549	23269.7
464.754	25092.4
464.959	25723.17
465.165	26034.46
465.37	25717.03
465.575	25680.16
465.781	27549.96
465.986	28571.89
466.191	28121.34
466.397	28090.62
466.602	27769.09
466.807	29135.09
467.012	29655.27
467.218	30367.96
467.423	30308.57
467.628	31148.24
467.833	32557.24
468.038	32100.54
468.244	31598.79
468.449	33011.89
468.654	32817.33
468.859	32469.18
