Data from USB4F104151__49__09-28-09-404.txt Node

Date: Wed Feb 26 09:28:09 EST 2025
User: louis
Spectrometer: USB4F10415
Trigger mode: 4
Integration Time (sec): 1.000000E-1
Scans to average: 1
Electric dark correction enabled: true
Nonlinearity correction enabled: false
Boxcar width: 0
XAxis mode: Wavelengths
Number of Pixels in Spectrum: 3648
>>>>>Begin Spectral Data<<<<<
178.204	-340.3
178.424	-340.3
178.644	-340.3
178.864	-362.83
179.084	-346.45
179.304	-4.44
179.524	-0.34
179.744	63.15
179.964	16.04
180.184	32.43
180.404	-0.34
180.624	-20.82
180.844	9.9
181.064	-12.63
181.283	-24.92
181.503	-63.83
181.723	5.8
181.943	-67.92
182.163	175.78
182.383	-41.3
182.602	30.38
182.822	61.1
183.042	1.71
183.262	-31.06
183.482	46.76
183.701	-67.92
183.921	30.38
184.141	-110.93
184.361	77.48
184.58	89.77
184.8	13.99
185.02	-22.87
185.239	87.72
185.459	40.62
185.679	136.87
185.898	-135.51
186.118	48.81
186.338	71.34
186.557	89.77
186.777	-43.35
186.997	9.9
187.216	-29.01
187.436	143.02
187.655	52.91
187.875	118.44
188.095	3.75
188.314	143.02
188.534	59.05
188.753	-45.4
188.973	54.95
189.192	110.25
189.412	-33.11
189.631	118.44
189.851	30.38
190.07	167.59
190.29	-31.06
190.509	-49.49
190.729	-8.53
190.948	73.39
191.168	257.7
191.387	97.96
191.607	24.23
191.826	114.34
192.045	52.91
192.265	1.71
192.484	89.77
192.704	44.71
192.923	-65.88
193.142	108.2
193.362	93.87
193.581	136.87
193.8	81.58
194.02	112.3
194.239	91.82
194.458	38.57
194.678	-8.53
194.897	116.39
195.116	22.19
195.335	22.19
195.555	46.76
195.774	42.67
195.993	114.34
196.212	24.23
196.432	-51.54
196.651	-18.77
196.87	44.71
197.089	216.74
197.308	38.57
197.528	34.47
197.747	-0.34
197.966	40.62
198.185	102.06
198.404	-8.53
198.623	79.53
198.842	69.29
199.062	89.77
199.281	93.87
199.5	-22.87
199.719	18.09
199.938	63.15
200.157	155.3
200.376	124.58
200.595	97.96
200.814	95.91
201.033	-2.39
201.252	134.82
201.471	106.15
201.69	40.62
201.909	46.76
202.128	48.81
202.347	77.48
202.566	63.15
202.785	-61.78
203.004	-39.25
203.223	186.02
203.442	-16.73
203.661	-8.53
203.879	38.57
204.098	114.34
204.317	1.71
204.536	52.91
204.755	63.15
204.974	122.54
205.193	13.99
205.411	153.26
205.63	89.77
205.849	95.91
206.068	61.1
206.287	3.75
206.505	122.54
206.724	-10.58
206.943	7.85
207.162	46.76
207.381	26.28
207.599	87.72
207.818	5.8
208.037	-0.34
208.255	-41.3
208.474	106.15
208.693	61.1
208.911	-22.87
209.13	110.25
209.349	161.45
209.567	91.82
209.786	81.58
210.005	100.01
210.223	13.99
210.442	-80.21
210.661	67.24
210.879	42.67
211.098	42.67
211.316	-33.11
211.535	173.74
211.753	3.75
211.972	32.43
212.191	24.23
212.409	20.14
212.628	110.25
212.846	-67.92
213.065	-2.39
213.283	79.53
213.502	-0.34
213.72	-22.87
213.938	46.76
214.157	3.75
214.375	63.15
214.594	79.53
214.812	34.47
215.031	34.47
215.249	7.85
215.467	32.43
215.686	40.62
215.904	116.39
216.122	5.8
216.341	165.54
216.559	81.58
216.778	71.34
216.996	77.48
217.214	13.99
217.432	-57.68
217.651	52.91
217.869	71.34
218.087	26.28
218.306	-94.55
218.524	11.95
218.742	-2.39
218.96	104.11
219.179	9.9
219.397	32.43
219.615	237.22
219.833	69.29
220.051	-43.35
220.27	140.97
220.488	87.72
220.706	73.39
220.924	-26.96
221.142	16.04
221.36	26.28
221.578	16.04
221.796	-26.96
222.015	-49.49
222.233	112.3
222.451	110.25
222.669	-49.49
222.887	40.62
223.105	-4.44
223.323	-31.06
223.541	-24.92
223.759	93.87
223.977	79.53
224.195	95.91
224.413	81.58
224.631	40.62
224.849	24.23
225.067	155.3
225.285	-26.96
225.503	7.85
225.721	-65.88
225.939	77.48
226.157	-4.44
226.375	222.89
226.592	-47.44
226.81	18.09
227.028	61.1
227.246	85.67
227.464	18.09
227.682	71.34
227.9	116.39
228.117	118.44
228.335	40.62
228.553	44.71
228.771	32.43
228.989	102.06
229.206	46.76
229.424	-37.2
229.642	20.14
229.86	16.04
230.077	169.64
230.295	36.52
230.513	67.24
230.731	22.19
230.948	155.3
231.166	114.34
231.384	-51.54
231.601	-10.58
231.819	159.4
232.037	-31.06
232.254	-12.63
232.472	28.33
232.689	30.38
232.907	93.87
233.125	34.47
233.342	-31.06
233.56	-57.68
233.777	34.47
233.995	-55.64
234.213	157.35
234.43	20.14
234.648	87.72
234.865	-55.64
235.083	11.95
235.3	5.8
235.518	95.91
235.735	79.53
235.953	110.25
236.17	11.95
236.388	20.14
236.605	7.85
236.822	87.72
237.04	32.43
237.257	46.76
237.475	-41.3
237.692	67.24
237.909	69.29
238.127	-35.16
238.344	7.85
238.562	57
238.779	-16.73
238.996	-12.63
239.214	5.8
239.431	40.62
239.648	-53.59
239.865	34.47
240.083	11.95
240.3	24.23
240.517	-20.82
240.735	22.19
240.952	192.17
241.169	71.34
241.386	106.15
241.603	40.62
241.821	34.47
242.038	52.91
242.255	77.48
242.472	-74.07
242.689	42.67
242.907	122.54
243.124	108.2
243.341	11.95
243.558	48.81
243.775	-24.92
243.992	1.71
244.209	104.11
244.426	140.97
244.643	59.05
244.86	-4.44
245.078	97.96
245.295	112.3
245.512	24.23
245.729	-26.96
245.946	89.77
246.163	118.44
246.38	61.1
246.597	77.48
246.814	52.91
247.031	28.33
247.248	104.11
247.464	52.91
247.681	126.63
247.898	136.87
248.115	77.48
248.332	-45.4
248.549	118.44
248.766	155.3
248.983	46.76
249.2	40.62
249.417	40.62
249.633	32.43
249.85	36.52
250.067	46.76
250.284	28.33
250.501	59.05
250.717	110.25
250.934	-53.59
251.151	36.52
251.368	7.85
251.585	24.23
251.801	20.14
252.018	-2.39
252.235	110.25
252.451	-6.49
252.668	13.99
252.885	110.25
253.102	97.96
253.318	13.99
253.535	-2.39
253.752	7.85
253.968	-16.73
254.185	-57.68
254.401	7.85
254.618	65.19
254.835	48.81
255.051	116.39
255.268	97.96
255.484	24.23
255.701	24.23
255.917	42.67
256.134	-26.96
256.351	24.23
256.567	16.04
256.784	20.14
257	-33.11
257.217	145.06
257.433	89.77
257.65	48.81
257.866	89.77
258.082	-57.68
258.299	-26.96
258.515	114.34
258.732	-16.73
258.948	-112.98
259.165	65.19
259.381	-41.3
259.597	114.34
259.814	-20.82
260.03	7.85
260.246	36.52
260.463	128.68
260.679	116.39
260.895	52.91
261.112	61.1
261.328	30.38
261.544	-57.68
261.761	177.83
261.977	3.75
262.193	-102.74
262.409	79.53
262.626	89.77
262.842	77.48
263.058	-24.92
263.274	108.2
263.49	67.24
263.707	77.48
263.923	110.25
264.139	-59.73
264.355	57
264.571	40.62
264.787	52.91
265.004	81.58
265.22	-35.16
265.436	24.23
265.652	-47.44
265.868	63.15
266.084	3.75
266.3	40.62
266.516	57
266.732	30.38
266.948	89.77
267.164	-29.01
267.38	11.95
267.596	149.16
267.812	161.45
268.028	-12.63
268.244	-8.53
268.46	63.15
268.676	71.34
268.892	83.63
269.108	-24.92
269.324	-33.11
269.54	-110.93
269.756	54.95
269.972	-51.54
270.188	-59.73
270.403	22.19
270.619	85.67
270.835	136.87
271.051	11.95
271.267	13.99
271.483	-33.11
271.698	32.43
271.914	-12.63
272.13	28.33
272.346	-0.34
272.562	16.04
272.777	46.76
272.993	63.15
273.209	-47.44
273.425	79.53
273.64	-82.26
273.856	63.15
274.072	-35.16
274.287	24.23
274.503	71.34
274.719	104.11
274.934	1.71
275.15	-12.63
275.366	40.62
275.581	18.09
275.797	13.99
276.012	40.62
276.228	5.8
276.444	16.04
276.659	106.15
276.875	-53.59
277.09	52.91
277.306	34.47
277.521	24.23
277.737	71.34
277.952	97.96
278.168	57
278.383	-43.35
278.599	54.95
278.814	36.52
279.03	18.09
279.245	165.54
279.461	-61.78
279.676	75.43
279.892	-104.79
280.107	-65.88
280.322	-22.87
280.538	-26.96
280.753	-20.82
280.969	75.43
281.184	40.62
281.399	147.11
281.615	-37.2
281.83	46.76
282.045	-41.3
282.26	-41.3
282.476	50.86
282.691	147.11
282.906	79.53
283.122	42.67
283.337	24.23
283.552	130.73
283.767	-4.44
283.983	48.81
284.198	57
284.413	44.71
284.628	-72.02
284.843	24.23
285.058	81.58
285.274	3.75
285.489	-10.58
285.704	116.39
285.919	5.8
286.134	-22.87
286.349	38.57
286.564	28.33
286.779	73.39
286.995	-57.68
287.21	-16.73
287.425	85.67
287.64	16.04
287.855	13.99
288.07	-41.3
288.285	114.34
288.5	65.19
288.715	108.2
288.93	61.1
289.145	20.14
289.36	73.39
289.575	61.1
289.79	112.3
290.004	67.24
290.219	93.87
290.434	-12.63
290.649	32.43
290.864	-49.49
291.079	24.23
291.294	32.43
291.509	38.57
291.724	-33.11
291.938	24.23
292.153	24.23
292.368	-55.64
292.583	5.8
292.798	61.1
293.012	48.81
293.227	-12.63
293.442	71.34
293.657	116.39
293.871	63.15
294.086	-53.59
294.301	159.4
294.516	114.34
294.73	32.43
294.945	-88.4
295.16	89.77
295.374	102.06
295.589	79.53
295.804	24.23
296.018	52.91
296.233	44.71
296.447	65.19
296.662	40.62
296.877	73.39
297.091	85.67
297.306	20.14
297.52	61.1
297.735	65.19
297.949	100.01
298.164	32.43
298.378	-4.44
298.593	-92.5
298.807	-35.16
299.022	-8.53
299.236	136.87
299.451	9.9
299.665	44.71
299.88	13.99
300.094	-33.11
300.309	-37.2
300.523	52.91
300.737	-24.92
300.952	140.97
301.166	87.72
301.381	-49.49
301.595	-53.59
301.809	42.67
302.024	36.52
302.238	-57.68
302.452	73.39
302.667	11.95
302.881	118.44
303.095	116.39
303.309	73.39
303.524	16.04
303.738	-74.07
303.952	-24.92
304.166	69.29
304.381	-94.55
304.595	134.82
304.809	-69.97
305.023	65.19
305.237	-65.88
305.452	-0.34
305.666	20.14
305.88	61.1
306.094	65.19
306.308	138.92
306.522	116.39
306.736	3.75
306.95	46.76
307.164	36.52
307.379	-24.92
307.593	73.39
307.807	118.44
308.021	83.63
308.235	18.09
308.449	-63.83
308.663	-2.39
308.877	130.73
309.091	-0.34
309.305	71.34
309.519	-67.92
309.733	71.34
309.947	-45.4
310.161	-24.92
310.374	143.02
310.588	59.05
310.802	-12.63
311.016	7.85
311.23	50.86
311.444	-37.2
311.658	13.99
311.872	132.78
312.085	57
312.299	106.15
312.513	89.77
312.727	48.81
312.941	-41.3
313.154	-0.34
313.368	46.76
313.582	73.39
313.796	73.39
314.009	5.8
314.223	157.35
314.437	85.67
314.651	89.77
314.864	34.47
315.078	81.58
315.292	1.71
315.505	54.95
315.719	57
315.933	87.72
316.146	-4.44
316.36	-6.49
316.573	104.11
316.787	73.39
317.001	36.52
317.214	-20.82
317.428	46.76
317.641	-102.74
317.855	40.62
318.068	3.75
318.282	128.68
318.495	138.92
318.709	16.04
318.922	3.75
319.136	89.77
319.349	38.57
319.563	-2.39
319.776	7.85
319.99	-37.2
320.203	57
320.417	7.85
320.63	24.23
320.843	171.69
321.057	22.19
321.27	-80.21
321.483	93.87
321.697	13.99
321.91	1.71
322.124	34.47
322.337	24.23
322.55	-31.06
322.763	22.19
322.977	-61.78
323.19	-88.4
323.403	57
323.617	97.96
323.83	59.05
324.043	24.23
324.256	16.04
324.469	-2.39
324.683	57
324.896	38.57
325.109	-20.82
325.322	-55.64
325.535	73.39
325.748	95.91
325.962	36.52
326.175	-18.77
326.388	40.62
326.601	126.63
326.814	-16.73
327.027	73.39
327.24	130.73
327.453	-65.88
327.666	124.58
327.879	134.82
328.092	100.01
328.305	52.91
328.518	-12.63
328.731	-12.63
328.944	-47.44
329.157	48.81
329.37	11.95
329.583	138.92
329.796	143.02
330.009	-82.26
330.222	69.29
330.435	120.49
330.648	3.75
330.861	93.87
331.073	65.19
331.286	159.4
331.499	-41.3
331.712	-74.07
331.925	32.43
332.138	54.95
332.35	32.43
332.563	-41.3
332.776	104.11
332.989	61.1
333.202	13.99
333.414	9.9
333.627	3.75
333.84	16.04
334.053	89.77
334.265	7.85
334.478	-31.06
334.691	28.33
334.903	85.67
335.116	-8.53
335.329	7.85
335.541	3.75
335.754	114.34
335.966	-26.96
336.179	-82.26
336.392	73.39
336.604	11.95
336.817	132.78
337.029	77.48
337.242	-41.3
337.454	81.58
337.667	-10.58
337.88	145.06
338.092	-53.59
338.305	69.29
338.517	-24.92
338.729	50.86
338.942	130.73
339.154	-20.82
339.367	-53.59
339.579	118.44
339.792	-59.73
340.004	38.57
340.217	-51.54
340.429	48.81
340.641	-0.34
340.854	26.28
341.066	40.62
341.278	114.34
341.491	173.74
341.703	9.9
341.915	-108.88
342.128	81.58
342.34	95.91
342.552	-2.39
342.764	16.04
342.977	3.75
343.189	40.62
343.401	38.57
343.613	-90.45
343.826	16.04
344.038	-110.93
344.25	36.52
344.462	-26.96
344.674	63.15
344.886	40.62
345.099	16.04
345.311	65.19
345.523	5.8
345.735	-43.35
345.947	73.39
346.159	97.96
346.371	112.3
346.583	-76.12
346.795	118.44
347.007	-20.82
347.219	40.62
347.431	59.05
347.643	163.5
347.855	-6.49
348.067	163.5
348.279	-35.16
348.491	83.63
348.703	71.34
348.915	-14.68
349.127	-59.73
349.339	28.33
349.551	7.85
349.763	61.1
349.975	57
350.187	65.19
350.399	95.91
350.61	28.33
350.822	95.91
351.034	71.34
351.246	77.48
351.458	28.33
351.669	54.95
351.881	120.49
352.093	48.81
352.305	97.96
352.517	57
352.728	114.34
352.94	-22.87
353.152	89.77
353.363	-8.53
353.575	40.62
353.787	130.73
353.999	48.81
354.21	91.82
354.422	5.8
354.633	36.52
354.845	16.04
355.057	16.04
355.268	44.71
355.48	106.15
355.692	-24.92
355.903	42.67
356.115	-0.34
356.326	-74.07
356.538	97.96
356.749	102.06
356.961	118.44
357.172	44.71
357.384	-45.4
357.595	259.75
357.807	26.28
358.018	-33.11
358.23	-33.11
358.441	122.54
358.653	61.1
358.864	-31.06
359.075	46.76
359.287	69.29
359.498	81.58
359.709	83.63
359.921	65.19
360.132	77.48
360.344	-4.44
360.555	40.62
360.766	20.14
360.977	5.8
361.189	38.57
361.4	-41.3
361.611	85.67
361.823	112.3
362.034	71.34
362.245	-24.92
362.456	106.15
362.667	44.71
362.879	-88.4
363.09	52.91
363.301	36.52
363.512	30.38
363.723	-51.54
363.935	-29.01
364.146	136.87
364.357	5.8
364.568	-14.68
364.779	13.99
364.99	87.72
365.201	-0.34
365.412	138.92
365.623	-31.06
365.834	65.19
366.045	20.14
366.256	40.62
366.467	95.91
366.678	48.81
366.889	138.92
367.1	-35.16
367.311	97.96
367.522	16.04
367.733	38.57
367.944	52.91
368.155	-16.73
368.366	5.8
368.577	114.34
368.788	54.95
368.999	-31.06
369.209	-16.73
369.42	210.6
369.631	128.68
369.842	20.14
370.053	-2.39
370.264	118.44
370.474	-41.3
370.685	-8.53
370.896	13.99
371.107	161.45
371.317	-29.01
371.528	61.1
371.739	110.25
371.95	16.04
372.16	95.91
372.371	-127.32
372.582	79.53
372.792	122.54
373.003	95.91
373.214	50.86
373.424	46.76
373.635	-20.82
373.846	97.96
374.056	44.71
374.267	100.01
374.477	-0.34
374.688	-80.21
374.898	69.29
375.109	-2.39
375.319	26.28
375.53	163.5
375.74	136.87
375.951	50.86
376.161	52.91
376.372	38.57
376.582	61.1
376.793	110.25
377.003	-43.35
377.214	-10.58
377.424	69.29
377.635	22.19
377.845	9.9
378.055	71.34
378.266	-92.5
378.476	13.99
378.686	48.81
378.897	-0.34
379.107	42.67
379.317	7.85
379.528	7.85
379.738	83.63
379.948	-33.11
380.158	118.44
380.369	20.14
380.579	3.75
380.789	106.15
380.999	18.09
381.21	81.58
381.42	220.84
381.63	38.57
381.84	124.58
382.05	3.75
382.261	102.06
382.471	106.15
382.681	65.19
382.891	157.35
383.101	102.06
383.311	-86.36
383.521	16.04
383.731	61.1
383.941	65.19
384.151	67.24
384.361	-8.53
384.571	46.76
384.781	20.14
384.991	167.59
385.201	175.78
385.411	57
385.621	48.81
385.831	57
386.041	1.71
386.251	89.77
386.461	108.2
386.671	61.1
386.881	-18.77
387.091	40.62
387.301	93.87
387.511	24.23
387.72	79.53
387.93	18.09
388.14	-12.63
388.35	54.95
388.56	145.06
388.769	128.68
388.979	83.63
389.189	-24.92
389.399	59.05
389.609	65.19
389.818	110.25
390.028	87.72
390.238	48.81
390.447	48.81
390.657	36.52
390.867	16.04
391.076	-98.64
391.286	67.24
391.496	48.81
391.705	34.47
391.915	104.11
392.125	89.77
392.334	32.43
392.544	108.2
392.753	32.43
392.963	11.95
393.172	26.28
393.382	38.57
393.591	106.15
393.801	-51.54
394.01	79.53
394.22	122.54
394.429	-29.01
394.639	-10.58
394.848	83.63
395.058	3.75
395.267	36.52
395.477	44.71
395.686	67.24
395.895	124.58
396.105	163.5
396.314	18.09
396.524	75.43
396.733	-37.2
396.942	155.3
397.152	75.43
397.361	54.95
397.57	13.99
397.78	44.71
397.989	7.85
398.198	130.73
398.407	38.57
398.617	59.05
398.826	42.67
399.035	32.43
399.244	102.06
399.453	48.81
399.663	7.85
399.872	24.23
400.081	-6.49
400.29	97.96
400.499	3.75
400.708	104.11
400.917	40.62
401.127	-10.58
401.336	-0.34
401.545	151.21
401.754	28.33
401.963	106.15
402.172	16.04
402.381	40.62
402.59	-35.16
402.799	24.23
403.008	106.15
403.217	91.82
403.426	28.33
403.635	-0.34
403.844	34.47
404.053	13.99
404.262	44.71
404.471	247.46
404.68	85.67
404.888	22.19
405.097	-16.73
405.306	93.87
405.515	77.48
405.724	46.76
405.933	50.86
406.142	97.96
406.35	89.77
406.559	63.15
406.768	81.58
406.977	75.43
407.185	-12.63
407.394	61.1
407.603	-78.16
407.812	69.29
408.02	75.43
408.229	65.19
408.438	79.53
408.646	57
408.855	52.91
409.064	-24.92
409.272	-4.44
409.481	38.57
409.69	3.75
409.898	-37.2
410.107	24.23
410.315	155.3
410.524	5.8
410.733	106.15
410.941	11.95
411.15	44.71
411.358	114.34
411.567	24.23
411.775	18.09
411.984	-37.2
412.192	54.95
412.401	16.04
412.609	128.68
412.818	89.77
413.026	54.95
413.234	97.96
413.443	38.57
413.651	-31.06
413.86	-0.34
414.068	124.58
414.276	208.55
414.485	-8.53
414.693	110.25
414.901	163.5
415.11	81.58
415.318	26.28
415.526	40.62
415.734	13.99
415.943	50.86
416.151	54.95
416.359	106.15
416.567	20.14
416.776	116.39
416.984	79.53
417.192	173.74
417.4	-20.82
417.608	9.9
417.817	-82.26
418.025	143.02
418.233	192.17
418.441	61.1
418.649	-65.88
418.857	-41.3
419.065	171.69
419.273	22.19
419.481	20.14
419.689	40.62
419.897	-2.39
420.105	3.75
420.313	75.43
420.521	120.49
420.729	155.3
420.937	-14.68
421.145	-74.07
421.353	108.2
421.561	108.2
421.769	-6.49
421.977	16.04
422.185	85.67
422.393	9.9
422.601	75.43
422.809	40.62
423.017	22.19
423.224	34.47
423.432	71.34
423.64	32.43
423.848	145.06
424.056	73.39
424.263	79.53
424.471	85.67
424.679	175.78
424.887	3.75
425.094	138.92
425.302	106.15
425.51	20.14
425.718	112.3
425.925	-12.63
426.133	42.67
426.341	171.69
426.548	-8.53
426.756	-22.87
426.964	108.2
427.171	-0.34
427.379	104.11
427.586	97.96
427.794	87.72
428.001	124.58
428.209	106.15
428.417	112.3
428.624	89.77
428.832	1.71
429.039	102.06
429.247	79.53
429.454	67.24
429.662	143.02
429.869	134.82
430.076	87.72
430.284	122.54
430.491	179.88
430.699	138.92
430.906	163.5
431.114	89.77
431.321	126.63
431.528	97.96
431.736	77.48
431.943	116.39
432.15	106.15
432.358	134.82
432.565	274.09
432.772	-6.49
432.979	147.11
433.187	44.71
433.394	245.41
433.601	59.05
433.808	161.45
434.016	138.92
434.223	169.64
434.43	226.98
434.637	276.13
434.844	147.11
435.052	102.06
435.259	138.92
435.466	196.26
435.673	257.7
435.88	151.21
436.087	224.94
436.294	269.99
436.501	261.8
436.708	134.82
436.915	249.51
437.122	315.05
437.329	179.88
437.537	231.08
437.743	257.7
437.95	353.96
438.157	276.13
438.364	286.37
438.571	259.75
438.778	341.67
438.985	323.24
439.192	401.06
439.399	335.53
439.606	390.82
439.813	421.54
440.02	442.02
440.227	425.64
440.433	394.92
440.64	433.83
440.847	423.59
441.054	466.6
441.261	478.88
441.467	464.55
441.674	417.44
441.881	517.79
442.088	523.94
442.294	523.94
442.501	544.42
442.708	628.39
442.914	532.13
443.121	677.54
443.328	536.23
443.534	747.17
443.741	749.22
443.948	642.72
444.154	736.93
444.361	855.71
444.568	767.65
444.774	790.17
444.981	790.17
445.187	958.11
445.394	845.47
445.6	906.91
445.807	1013.4
446.013	992.92
446.22	954.01
446.426	1001.12
446.633	1072.79
446.839	1341.08
447.046	1093.27
447.252	1285.78
447.459	1289.88
447.665	1220.25
447.871	1296.02
448.078	1515.16
448.284	1441.43
448.491	1547.92
448.697	1576.59
448.903	1611.41
449.11	1717.9
449.316	1570.45
449.522	1828.49
449.728	1920.65
449.935	1943.18
450.141	1922.7
450.347	1998.48
450.553	2006.67
450.76	2137.74
450.966	2279.05
451.172	2287.24
451.378	2428.55
451.584	2424.45
451.791	2514.56
451.997	2571.91
452.203	2664.07
452.409	2807.42
452.615	2893.44
452.821	2950.78
453.027	2805.38
453.233	3288.7
453.44	3141.24
453.646	3270.26
453.852	3460.73
454.058	3575.41
454.264	3628.66
454.47	4126.32
454.676	3980.91
454.882	4314.73
455.088	4111.98
455.294	4367.98
455.5	4693.6
455.705	4884.06
455.911	4773.47
456.117	4955.74
456.323	5219.93
456.529	5183.07
456.735	5717.59
456.941	5742.16
457.147	6131.28
457.352	6219.34
457.558	6219.34
457.764	6829.63
457.97	7110.21
458.176	7310.91
458.381	7691.83
458.587	7661.11
458.793	8240.68
458.999	7917.11
459.204	9170.46
459.41	9453.08
459.616	9297.44
459.821	9950.74
460.027	10403.34
460.233	10796.55
460.438	11003.39
460.644	11396.6
460.85	11378.17
461.055	11947.51
461.261	12662.25
461.466	12625.39
461.672	12555.76
461.878	14138.83
462.083	13911.51
462.289	14196.18
462.494	14890.44
462.7	14726.6
462.905	15246.79
463.111	16297.39
463.316	16797.1
463.522	17479.07
463.727	17886.62
463.932	18654.61
464.138	19342.72
464.343	20043.13
464.549	20098.42
464.754	21386.6
464.959	21939.55
465.165	22611.28
465.37	22457.68
465.575	22621.52
465.781	23854.4
465.986	24483.13
466.191	24075.58
466.397	24577.33
466.602	24030.52
466.807	25208.11
467.012	25611.56
467.218	25945.37
467.423	26084.64
467.628	27100.43
467.833	28183.8
468.038	27821.31
468.244	26899.73
468.449	29109.49
468.654	28595.45
468.859	28148.99
469.064	28343.55
469.269	27282.7
469.474	27645.19
469.679	28642.55
469.885	27651.33
