Data from USB4F104151__68__10-31-47-552.txt Node

Date: Wed Feb 26 10:31:47 EST 2025
User: louis
Spectrometer: USB4F10415
Trigger mode: 4
Integration Time (sec): 1.000000E-1
Scans to average: 1
Electric dark correction enabled: true
Nonlinearity correction enabled: false
Boxcar width: 0
XAxis mode: Wavelengths
Number of Pixels in Spectrum: 3648
>>>>>Begin Spectral Data<<<<<
178.204	-402.6
178.424	-402.6
178.644	-402.6
178.864	-455.84
179.084	-388.26
179.304	33.62
179.524	-29.87
179.744	19.29
179.964	78.68
180.184	-42.15
180.404	-70.83
180.624	-97.45
180.844	88.92
181.064	-72.87
181.283	27.48
181.503	-25.77
181.723	90.96
181.943	-81.07
182.163	148.31
182.383	23.38
182.602	-17.58
182.822	95.06
183.042	95.06
183.262	-68.78
183.482	-38.06
183.701	45.91
183.921	25.43
184.141	-13.48
184.361	99.16
184.58	93.01
184.8	64.34
185.02	29.52
185.239	170.83
185.459	115.54
185.679	113.49
185.898	-60.59
186.118	4.95
186.338	115.54
186.557	113.49
186.777	-58.54
186.997	-11.43
187.216	117.59
187.436	193.36
187.655	72.53
187.875	99.16
188.095	74.58
188.314	131.92
188.534	131.92
188.753	2.9
188.973	123.73
189.192	176.98
189.412	4.95
189.631	0.85
189.851	31.57
190.07	136.02
190.29	-81.07
190.509	-56.49
190.729	80.72
190.948	138.07
191.168	209.75
191.387	90.96
191.607	27.48
191.826	162.64
192.045	-27.82
192.265	-7.34
192.484	133.97
192.704	0.85
192.923	-117.93
193.142	191.31
193.362	101.2
193.581	113.49
193.8	50
194.02	7
194.239	-1.19
194.458	97.11
194.678	-1.19
194.897	-29.87
195.116	64.34
195.335	115.54
195.555	64.34
195.774	4.95
195.993	99.16
196.212	-3.24
196.432	13.14
196.651	-17.58
196.87	31.57
197.089	209.75
197.308	41.81
197.528	166.74
197.747	-56.49
197.966	101.2
198.185	127.83
198.404	2.9
198.623	90.96
198.842	150.36
199.062	88.92
199.281	64.34
199.5	45.91
199.719	121.68
199.938	68.44
200.157	-44.2
200.376	86.87
200.595	82.77
200.814	45.91
201.033	17.24
201.252	138.07
201.471	142.16
201.69	-33.96
201.909	62.29
202.128	86.87
202.347	45.91
202.566	80.72
202.785	-56.49
203.004	-52.39
203.223	222.03
203.442	56.15
203.661	-25.77
203.879	125.78
204.098	142.16
204.317	2.9
204.536	127.83
204.755	113.49
204.974	133.97
205.193	11.09
205.411	101.2
205.63	117.59
205.849	133.97
206.068	56.15
206.287	31.57
206.505	226.13
206.724	4.95
206.943	-79.02
207.162	-9.39
207.381	95.06
207.599	7
207.818	13.14
208.037	66.39
208.255	56.15
208.474	39.76
208.693	82.77
208.911	-17.58
209.13	127.83
209.349	90.96
209.567	70.48
209.786	150.36
210.005	105.3
210.223	76.63
210.442	-64.68
210.661	64.34
210.879	95.06
211.098	4.95
211.316	99.16
211.535	121.68
211.753	99.16
211.972	19.29
212.191	-5.29
212.409	60.24
212.628	58.2
212.846	-13.48
213.065	31.57
213.283	136.02
213.502	11.09
213.72	78.68
213.938	86.87
214.157	-15.53
214.375	119.64
214.594	35.67
214.812	27.48
215.031	35.67
215.249	-52.39
215.467	101.2
215.686	33.62
215.904	70.48
216.122	11.09
216.341	160.59
216.559	66.39
216.778	95.06
216.996	144.21
217.214	52.05
217.432	-66.73
217.651	-68.78
217.869	62.29
218.087	21.33
218.306	39.76
218.524	21.33
218.742	54.1
218.96	15.19
219.179	31.57
219.397	27.48
219.615	170.83
219.833	138.07
220.051	-15.53
220.27	47.96
220.488	47.96
220.706	74.58
220.924	86.87
221.142	-58.54
221.36	62.29
221.578	45.91
221.796	60.24
222.015	84.82
222.233	39.76
222.451	150.36
222.669	-25.77
222.887	43.86
223.105	39.76
223.323	64.34
223.541	-29.87
223.759	68.44
223.977	103.25
224.195	201.55
224.413	52.05
224.631	19.29
224.849	23.38
225.067	176.98
225.285	-17.58
225.503	70.48
225.721	-81.07
225.939	54.1
226.157	70.48
226.375	242.51
226.592	-40.11
226.81	41.81
227.028	74.58
227.246	123.73
227.464	90.96
227.682	117.59
227.9	97.11
228.117	54.1
228.335	76.63
228.553	78.68
228.771	45.91
228.989	56.15
229.206	66.39
229.424	11.09
229.642	66.39
229.86	25.43
230.077	160.59
230.295	7
230.513	93.01
230.731	19.29
230.948	152.4
231.166	217.94
231.384	72.53
231.601	9.05
231.819	179.03
232.037	-119.98
232.254	2.9
232.472	-1.19
232.689	76.63
232.907	17.24
233.125	9.05
233.342	-21.67
233.56	66.39
233.777	45.91
233.995	9.05
234.213	2.9
234.43	148.31
234.648	52.05
234.865	-31.91
235.083	23.38
235.3	54.1
235.518	17.24
235.735	33.62
235.953	97.11
236.17	37.72
236.388	56.15
236.605	-3.24
236.822	131.92
237.04	29.52
237.257	131.92
237.475	-56.49
237.692	41.81
237.909	115.54
238.127	25.43
238.344	136.02
238.562	93.01
238.779	-40.11
238.996	11.09
239.214	39.76
239.431	127.83
239.648	-11.43
239.865	62.29
240.083	156.5
240.3	-40.11
240.517	-79.02
240.735	23.38
240.952	84.82
241.169	31.57
241.386	78.68
241.603	58.2
241.821	-46.25
242.038	105.3
242.255	72.53
242.472	-23.72
242.689	123.73
242.907	107.35
243.124	78.68
243.341	-50.35
243.558	9.05
243.775	-40.11
243.992	54.1
244.209	127.83
244.426	154.45
244.643	25.43
244.86	76.63
245.078	107.35
245.295	60.24
245.512	-29.87
245.729	-42.15
245.946	123.73
246.163	21.33
246.38	-60.59
246.597	60.24
246.814	60.24
247.031	0.85
247.248	9.05
247.464	78.68
247.681	7
247.898	105.3
248.115	54.1
248.332	-13.48
248.549	76.63
248.766	156.5
248.983	117.59
249.2	54.1
249.417	113.49
249.633	2.9
249.85	115.54
250.067	4.95
250.284	52.05
250.501	52.05
250.717	-11.43
250.934	4.95
251.151	35.67
251.368	78.68
251.585	103.25
251.801	56.15
252.018	-27.82
252.235	84.82
252.451	-27.82
252.668	2.9
252.885	138.07
253.102	131.92
253.318	33.62
253.535	64.34
253.752	56.15
253.968	13.14
254.185	-58.54
254.401	88.92
254.618	101.2
254.835	13.14
255.051	80.72
255.268	70.48
255.484	76.63
255.701	86.87
255.917	129.88
256.134	-1.19
256.351	50
256.567	-36.01
256.784	58.2
257	-9.39
257.217	117.59
257.433	131.92
257.65	54.1
257.866	156.5
258.082	31.57
258.299	15.19
258.515	33.62
258.732	74.58
258.948	-60.59
259.165	60.24
259.381	-54.44
259.597	123.73
259.814	95.06
260.03	17.24
260.246	52.05
260.463	111.44
260.679	105.3
260.895	60.24
261.112	54.1
261.328	-13.48
261.544	25.43
261.761	142.16
261.977	-13.48
262.193	-50.35
262.409	125.78
262.626	31.57
262.842	15.19
263.058	-21.67
263.274	95.06
263.49	47.96
263.707	133.97
263.923	52.05
264.139	-70.83
264.355	50
264.571	154.45
264.787	29.52
265.004	168.79
265.22	25.43
265.436	-7.34
265.652	88.92
265.868	64.34
266.084	-85.16
266.3	78.68
266.516	-42.15
266.732	109.4
266.948	23.38
267.164	-40.11
267.38	144.21
267.596	33.62
267.812	158.55
268.028	86.87
268.244	11.09
268.46	70.48
268.676	33.62
268.892	41.81
269.108	21.33
269.324	-74.92
269.54	-23.72
269.756	119.64
269.972	23.38
270.188	0.85
270.403	45.91
270.619	27.48
270.835	164.69
271.051	64.34
271.267	-15.53
271.483	11.09
271.698	111.44
271.914	70.48
272.13	43.86
272.346	-93.35
272.562	115.54
272.777	136.02
272.993	17.24
273.209	-5.29
273.425	60.24
273.64	29.52
273.856	25.43
274.072	-19.63
274.287	2.9
274.503	146.26
274.719	127.83
274.934	72.53
275.15	-3.24
275.366	109.4
275.581	-13.48
275.797	33.62
276.012	21.33
276.228	-3.24
276.444	78.68
276.659	117.59
276.875	-56.49
277.09	115.54
277.306	93.01
277.521	72.53
277.737	74.58
277.952	146.26
278.168	35.67
278.383	54.1
278.599	154.45
278.814	82.77
279.03	-29.87
279.245	105.3
279.461	-19.63
279.676	138.07
279.892	0.85
280.107	-52.39
280.322	0.85
280.538	78.68
280.753	-48.3
280.969	56.15
281.184	99.16
281.399	131.92
281.615	-21.67
281.83	27.48
282.045	-91.31
282.26	43.86
282.476	37.72
282.691	105.3
282.906	68.44
283.122	78.68
283.337	-50.35
283.552	78.68
283.767	50
283.983	88.92
284.198	72.53
284.413	31.57
284.628	-58.54
284.843	4.95
285.058	86.87
285.274	-1.19
285.489	-29.87
285.704	37.72
285.919	-5.29
286.134	17.24
286.349	25.43
286.564	17.24
286.779	86.87
286.995	39.76
287.21	-48.3
287.425	86.87
287.64	-29.87
287.855	80.72
288.07	39.76
288.285	72.53
288.5	117.59
288.715	119.64
288.93	-25.77
289.145	-25.77
289.36	123.73
289.575	-42.15
289.79	78.68
290.004	76.63
290.219	68.44
290.434	-21.67
290.649	29.52
290.864	33.62
291.079	82.77
291.294	107.35
291.509	70.48
291.724	-17.58
291.938	4.95
292.153	150.36
292.368	52.05
292.583	74.58
292.798	115.54
293.012	64.34
293.227	99.16
293.442	-46.25
293.657	125.78
293.871	133.97
294.086	80.72
294.301	156.5
294.516	160.59
294.73	109.4
294.945	29.52
295.16	101.2
295.374	125.78
295.589	82.77
295.804	-25.77
296.018	-25.77
296.233	97.11
296.447	41.81
296.662	17.24
296.877	127.83
297.091	43.86
297.306	13.14
297.52	56.15
297.735	50
297.949	25.43
298.164	-48.3
298.378	45.91
298.593	11.09
298.807	25.43
299.022	58.2
299.236	136.02
299.451	2.9
299.665	39.76
299.88	60.24
300.094	109.4
300.309	43.86
300.523	113.49
300.737	-5.29
300.952	-5.29
301.166	39.76
301.381	4.95
301.595	-19.63
301.809	21.33
302.024	50
302.238	-40.11
302.452	68.44
302.667	66.39
302.881	174.93
303.095	52.05
303.309	70.48
303.524	-21.67
303.738	15.19
303.952	25.43
304.166	123.73
304.381	-97.45
304.595	74.58
304.809	-17.58
305.023	43.86
305.237	33.62
305.452	25.43
305.666	176.98
305.88	95.06
306.094	101.2
306.308	76.63
306.522	72.53
306.736	144.21
306.95	54.1
307.164	45.91
307.379	-54.44
307.593	115.54
307.807	101.2
308.021	138.07
308.235	74.58
308.449	-40.11
308.663	-7.34
308.877	144.21
309.091	56.15
309.305	50
309.519	-83.11
309.733	80.72
309.947	21.33
310.161	41.81
310.374	146.26
310.588	111.44
310.802	-40.11
311.016	-44.2
311.23	37.72
311.444	52.05
311.658	11.09
311.872	117.59
312.085	86.87
312.299	158.55
312.513	115.54
312.727	43.86
312.941	54.1
313.154	105.3
313.368	45.91
313.582	84.82
313.796	56.15
314.009	21.33
314.223	117.59
314.437	19.29
314.651	88.92
314.864	-58.54
315.078	15.19
315.292	-29.87
315.505	68.44
315.719	19.29
315.933	39.76
316.146	35.67
316.36	-50.35
316.573	103.25
316.787	-15.53
317.001	93.01
317.214	29.52
317.428	109.4
317.641	78.68
317.855	31.57
318.068	-13.48
318.282	58.2
318.495	215.89
318.709	58.2
318.922	21.33
319.136	193.36
319.349	74.58
319.563	-11.43
319.776	172.88
319.99	-79.02
320.203	97.11
320.417	125.78
320.63	37.72
320.843	195.41
321.057	13.14
321.27	9.05
321.483	80.72
321.697	78.68
321.91	27.48
322.124	142.16
322.337	31.57
322.55	-74.92
322.763	64.34
322.977	66.39
323.19	29.52
323.403	41.81
323.617	123.73
323.83	146.26
324.043	39.76
324.256	68.44
324.469	-107.69
324.683	144.21
324.896	-7.34
325.109	39.76
325.322	-50.35
325.535	107.35
325.748	162.64
325.962	23.38
326.175	103.25
326.388	58.2
326.601	50
326.814	13.14
327.027	125.78
327.24	191.31
327.453	-144.55
327.666	29.52
327.879	152.4
328.092	66.39
328.305	-7.34
328.518	19.29
328.731	-13.48
328.944	29.52
329.157	103.25
329.37	-11.43
329.583	195.41
329.796	183.12
330.009	-19.63
330.222	125.78
330.435	129.88
330.648	27.48
330.861	7
331.073	19.29
331.286	117.59
331.499	-5.29
331.712	45.91
331.925	19.29
332.138	-85.16
332.35	11.09
332.563	2.9
332.776	103.25
332.989	-46.25
333.202	54.1
333.414	56.15
333.627	58.2
333.84	25.43
334.053	31.57
334.265	111.44
334.478	-44.2
334.691	119.64
334.903	15.19
335.116	-50.35
335.329	-17.58
335.541	90.96
335.754	113.49
335.966	-17.58
336.179	41.81
336.392	-19.63
336.604	133.97
336.817	125.78
337.029	99.16
337.242	54.1
337.454	47.96
337.667	7
337.88	115.54
338.092	115.54
338.305	109.4
338.517	72.53
338.729	150.36
338.942	103.25
339.154	-119.98
339.367	-29.87
339.579	97.11
339.792	-19.63
340.004	-38.06
340.217	35.67
340.429	127.83
340.641	-31.91
340.854	-70.83
341.066	-36.01
341.278	156.5
341.491	119.64
341.703	82.77
341.915	31.57
342.128	72.53
342.34	23.38
342.552	-19.63
342.764	58.2
342.977	-19.63
343.189	37.72
343.401	74.58
343.613	-17.58
343.826	50
344.038	-31.91
344.25	56.15
344.462	78.68
344.674	50
344.886	-29.87
345.099	68.44
345.311	78.68
345.523	11.09
345.735	-72.87
345.947	103.25
346.159	35.67
346.371	82.77
346.583	29.52
346.795	179.03
347.007	-31.91
347.219	66.39
347.431	0.85
347.643	88.92
347.855	15.19
348.067	103.25
348.279	-3.24
348.491	52.05
348.703	115.54
348.915	-62.63
349.127	-33.96
349.339	80.72
349.551	-23.72
349.763	37.72
349.975	-38.06
350.187	115.54
350.399	201.55
350.61	131.92
350.822	-44.2
351.034	172.88
351.246	109.4
351.458	86.87
351.669	9.05
351.881	113.49
352.093	158.55
352.305	150.36
352.517	88.92
352.728	99.16
352.94	107.35
353.152	39.76
353.363	-56.49
353.575	-11.43
353.787	125.78
353.999	72.53
354.21	191.31
354.422	-31.91
354.633	74.58
354.845	56.15
355.057	58.2
355.268	97.11
355.48	80.72
355.692	-58.54
355.903	43.86
356.115	19.29
356.326	17.24
356.538	213.84
356.749	103.25
356.961	140.12
357.172	68.44
357.384	-70.83
357.595	181.07
357.807	-33.96
358.018	99.16
358.23	56.15
358.441	197.46
358.653	113.49
358.864	43.86
359.075	-11.43
359.287	37.72
359.498	74.58
359.709	50
359.921	103.25
360.132	27.48
360.344	62.29
360.555	-54.44
360.766	52.05
360.977	21.33
361.189	136.02
361.4	-5.29
361.611	72.53
361.823	62.29
362.034	86.87
362.245	-3.24
362.456	80.72
362.667	60.24
362.879	-64.68
363.09	62.29
363.301	84.82
363.512	86.87
363.723	-66.73
363.935	68.44
364.146	17.24
364.357	129.88
364.568	99.16
364.779	-40.11
364.99	142.16
365.201	-15.53
365.412	140.12
365.623	-50.35
365.834	148.31
366.045	103.25
366.256	82.77
366.467	93.01
366.678	0.85
366.889	4.95
367.1	13.14
367.311	115.54
367.522	-38.06
367.733	72.53
367.944	70.48
368.155	78.68
368.366	72.53
368.577	107.35
368.788	125.78
368.999	2.9
369.209	88.92
369.42	201.55
369.631	199.51
369.842	119.64
370.053	25.43
370.264	80.72
370.474	-48.3
370.685	121.68
370.896	41.81
371.107	76.63
371.317	111.44
371.528	21.33
371.739	148.31
371.95	136.02
372.16	41.81
372.371	-70.83
372.582	-1.19
372.792	97.11
373.003	50
373.214	66.39
373.424	99.16
373.635	-48.3
373.846	131.92
374.056	88.92
374.267	115.54
374.477	7
374.688	-9.39
374.898	54.1
375.109	50
375.319	99.16
375.53	113.49
375.74	95.06
375.951	35.67
376.161	41.81
376.372	99.16
376.582	45.91
376.793	82.77
377.003	-68.78
377.214	35.67
377.424	45.91
377.635	52.05
377.845	2.9
378.055	111.44
378.266	-72.87
378.476	39.76
378.686	64.34
378.897	90.96
379.107	127.83
379.317	86.87
379.528	78.68
379.738	140.12
379.948	-52.39
380.158	121.68
380.369	0.85
380.579	105.3
380.789	62.29
380.999	107.35
381.21	64.34
381.42	166.74
381.63	17.24
381.84	123.73
382.05	27.48
382.261	179.03
382.471	107.35
382.681	27.48
382.891	176.98
383.101	80.72
383.311	-33.96
383.521	-25.77
383.731	58.2
383.941	113.49
384.151	31.57
384.361	29.52
384.571	76.63
384.781	78.68
384.991	269.14
385.201	111.44
385.411	185.17
385.621	76.63
385.831	70.48
386.041	86.87
386.251	50
386.461	162.64
386.671	-3.24
386.881	9.05
387.091	23.38
387.301	19.29
387.511	21.33
387.72	101.2
387.93	150.36
388.14	-17.58
388.35	66.39
388.56	21.33
388.769	90.96
388.979	113.49
389.189	-23.72
389.399	29.52
389.609	164.69
389.818	144.21
390.028	146.26
390.238	148.31
390.447	47.96
390.657	82.77
390.867	-13.48
391.076	-64.68
391.286	78.68
391.496	50
391.705	31.57
391.915	140.12
392.125	66.39
392.334	37.72
392.544	93.01
392.753	41.81
392.963	41.81
393.172	45.91
393.382	29.52
393.591	146.26
393.801	15.19
394.01	154.45
394.22	103.25
394.429	9.05
394.639	86.87
394.848	119.64
395.058	54.1
395.267	76.63
395.477	66.39
395.686	47.96
395.895	205.65
396.105	166.74
396.314	58.2
396.524	33.62
396.733	95.06
396.942	123.73
397.152	50
397.361	64.34
397.57	29.52
397.78	62.29
397.989	88.92
398.198	199.51
398.407	52.05
398.617	17.24
398.826	84.82
399.035	-29.87
399.244	78.68
399.453	0.85
399.663	86.87
399.872	39.76
400.081	0.85
400.29	117.59
400.499	13.14
400.708	111.44
400.917	58.2
401.127	64.34
401.336	62.29
401.545	183.12
401.754	31.57
401.963	109.4
402.172	0.85
402.381	-15.53
402.59	41.81
402.799	60.24
403.008	146.26
403.217	64.34
403.426	60.24
403.635	-68.78
403.844	-44.2
404.053	0.85
404.262	31.57
404.471	164.69
404.68	127.83
404.888	107.35
405.097	74.58
405.306	113.49
405.515	70.48
405.724	58.2
405.933	66.39
406.142	90.96
406.35	109.4
406.559	45.91
406.768	13.14
406.977	203.6
407.185	64.34
407.394	99.16
407.603	-48.3
407.812	35.67
408.02	109.4
408.229	-3.24
408.438	105.3
408.646	-17.58
408.855	58.2
409.064	66.39
409.272	86.87
409.481	82.77
409.69	-58.54
409.898	15.19
410.107	29.52
410.315	105.3
410.524	62.29
410.733	50
410.941	80.72
411.15	103.25
411.358	82.77
411.567	78.68
411.775	127.83
411.984	-3.24
412.192	74.58
412.401	-46.25
412.609	99.16
412.818	168.79
413.026	66.39
413.234	29.52
413.443	58.2
413.651	60.24
413.86	131.92
414.068	131.92
414.276	164.69
414.485	78.68
414.693	203.6
414.901	232.27
415.11	109.4
415.318	-1.19
415.526	66.39
415.734	33.62
415.943	129.88
416.151	158.55
416.359	66.39
416.567	105.3
416.776	136.02
416.984	99.16
417.192	179.03
417.4	41.81
417.608	39.76
417.817	15.19
418.025	117.59
418.233	148.31
418.441	2.9
418.649	-17.58
418.857	78.68
419.065	158.55
419.273	-23.72
419.481	56.15
419.689	52.05
419.897	64.34
420.105	-60.59
420.313	76.63
420.521	156.5
420.729	93.01
420.937	-27.82
421.145	9.05
421.353	111.44
421.561	41.81
421.769	60.24
421.977	15.19
422.185	144.21
422.393	-5.29
422.601	158.55
422.809	131.92
423.017	74.58
423.224	50
423.432	136.02
423.64	97.11
423.848	172.88
424.056	-64.68
424.263	90.96
424.471	25.43
424.679	136.02
424.887	-97.45
425.094	144.21
425.302	47.96
425.51	-56.49
425.718	152.4
425.925	80.72
426.133	-42.15
426.341	158.55
426.548	43.86
426.756	54.1
426.964	123.73
427.171	19.29
427.379	80.72
427.586	19.29
427.794	123.73
428.001	158.55
428.209	-25.77
428.417	170.83
428.624	70.48
428.832	129.88
429.039	52.05
429.247	33.62
429.454	72.53
429.662	58.2
429.869	142.16
430.076	54.1
430.284	125.78
430.491	172.88
430.699	97.11
430.906	238.42
431.114	109.4
431.321	84.82
431.528	47.96
431.736	68.44
431.943	60.24
432.15	123.73
432.358	195.41
432.565	306
432.772	11.09
432.979	193.36
433.187	93.01
433.394	164.69
433.601	27.48
433.808	170.83
434.016	242.51
434.223	191.31
434.43	158.55
434.637	189.27
434.844	244.56
435.052	181.07
435.259	176.98
435.466	179.03
435.673	250.71
435.88	252.75
436.087	299.86
436.294	273.23
436.501	191.31
436.708	117.59
436.915	275.28
437.122	248.66
437.329	209.75
437.537	260.95
437.743	297.81
437.95	328.53
438.157	277.33
438.364	324.43
438.571	367.44
438.778	351.06
438.985	314.19
439.192	430.93
439.399	355.15
439.606	410.45
439.813	478.03
440.02	457.55
440.227	621.39
440.433	484.17
440.64	473.93
440.847	346.96
441.054	471.89
441.261	545.61
441.467	568.14
441.674	492.37
441.881	566.09
442.088	535.37
442.294	555.85
442.501	590.67
442.708	648.01
442.914	570.19
443.121	629.58
443.328	639.82
443.534	711.5
443.741	713.55
443.948	590.67
444.154	770.89
444.361	858.95
444.568	811.85
444.774	832.33
444.981	697.16
445.187	942.92
445.394	875.34
445.6	807.75
445.807	1002.31
446.013	936.78
446.22	920.39
446.426	1071.94
446.633	1188.68
446.839	1284.93
447.046	1026.89
447.252	1231.68
447.459	1162.05
447.665	1235.78
447.871	1299.27
448.078	1553.21
448.284	1381.18
448.491	1389.38
448.697	1688.38
448.903	1637.18
449.11	1676.09
449.316	1526.59
449.522	1770.3
449.728	2003.77
449.935	1887.03
450.141	1938.23
450.347	2122.55
450.553	2009.91
450.76	2106.17
450.966	2298.67
451.172	2151.22
451.378	2403.12
451.584	2376.5
451.791	2603.82
451.997	2601.77
452.203	2560.81
452.409	2728.75
452.615	2962.22
452.821	2874.15
453.027	2763.56
453.233	3468.06
453.44	3101.48
453.646	3316.51
453.852	3443.49
454.058	3498.78
454.264	3748.64
454.47	3869.47
454.676	4068.12
454.882	4440.85
455.088	4238.1
455.294	4520.72
455.5	4635.41
455.705	4813.58
455.911	4942.6
456.117	5051.14
456.323	5309.19
456.529	5198.6
456.735	5714.69
456.941	5698.3
457.147	6148.86
457.352	6222.58
457.558	6458.1
457.764	6922.99
457.97	6896.36
458.176	7197.42
458.381	7613.15
458.587	7731.94
458.793	7955.16
458.999	8202.97
459.204	9044.68
459.41	9413.32
459.616	9398.98
459.821	9710.27
460.027	10195.64
460.233	10822.32
460.438	10568.37
460.644	11389.61
460.85	11297.45
461.055	11989.66
461.261	12573.33
461.466	12223.13
461.672	12305.05
461.878	13828.74
462.083	13859.46
462.289	13920.9
462.494	14566.01
462.7	14727.8
462.905	15131.25
463.111	16054.88
463.316	16941.65
463.522	17250.89
463.727	17599.05
463.932	18514.49
464.138	18901.56
464.343	19681.83
464.549	19905.06
464.754	21840.39
464.959	21936.65
465.165	22184.45
465.37	22325.76
465.575	22112.77
465.781	23536.11
465.986	24519.14
466.191	24074.73
466.397	24218.08
466.602	23474.67
466.807	24691.16
467.012	25688.53
467.218	25835.98
467.423	26153.41
467.628	26386.88
467.833	28205.48
468.038	27355.57
468.244	26751.42
468.449	28443.04
468.654	27648.43
468.859	27890.09
469.064	27666.86
469.269	27326.9
