Data from USB4F104151__59__10-26-20-328.txt Node

Date: Wed Feb 26 10:26:20 EST 2025
User: louis
Spectrometer: USB4F10415
Trigger mode: 4
Integration Time (sec): 1.000000E-1
Scans to average: 1
Electric dark correction enabled: true
Nonlinearity correction enabled: false
Boxcar width: 0
XAxis mode: Wavelengths
Number of Pixels in Spectrum: 3648
>>>>>Begin Spectral Data<<<<<
178.204	-422.05
178.424	-422.05
178.644	-422.05
178.864	-438.44
179.084	-415.91
179.304	-28.84
179.524	-82.09
179.744	32.6
179.964	69.46
180.184	3.93
180.404	10.07
180.624	30.55
180.844	-51.37
181.064	-39.08
181.283	57.17
181.503	-12.46
181.723	10.07
181.943	-96.43
182.163	173.91
182.383	-34.99
182.602	104.28
182.822	163.67
183.042	139.09
183.262	-18.6
183.482	26.45
183.701	18.26
183.921	-24.75
184.141	-67.75
184.361	53.08
184.58	94.04
184.8	63.32
185.02	-0.17
185.239	98.13
185.459	98.13
185.679	69.46
185.898	-82.09
186.118	14.17
186.338	38.74
186.557	100.18
186.777	-102.57
186.997	87.89
187.216	42.84
187.436	221.01
187.655	128.85
187.875	77.65
188.095	32.6
188.314	46.93
188.534	132.95
188.753	-71.85
188.973	81.75
189.192	126.8
189.412	34.64
189.631	-24.75
189.851	147.28
190.07	204.63
190.29	-45.23
190.509	57.17
190.729	-8.36
190.948	157.52
191.168	206.67
191.387	83.8
191.607	-6.31
191.826	-4.27
192.045	91.99
192.265	-0.17
192.484	-10.41
192.704	57.17
192.923	-86.19
193.142	225.11
193.362	114.52
193.581	53.08
193.8	71.51
194.02	114.52
194.239	30.55
194.458	53.08
194.678	75.6
194.897	3.93
195.116	153.43
195.335	87.89
195.555	5.97
195.774	12.12
195.993	114.52
196.212	5.97
196.432	20.31
196.651	48.98
196.87	5.97
197.089	227.15
197.308	114.52
197.528	122.71
197.747	-47.27
197.966	79.7
198.185	81.75
198.404	3.93
198.623	143.19
198.842	75.6
199.062	40.79
199.281	34.64
199.5	30.55
199.719	71.51
199.938	132.95
200.157	12.12
200.376	132.95
200.595	104.28
200.814	87.89
201.033	-41.13
201.252	130.9
201.471	28.5
201.69	91.99
201.909	42.84
202.128	44.88
202.347	69.46
202.566	81.75
202.785	-84.14
203.004	-75.95
203.223	286.54
203.442	40.79
203.661	-2.22
203.879	61.27
204.098	81.75
204.317	-6.31
204.536	204.63
204.755	108.37
204.974	110.42
205.193	36.69
205.411	153.43
205.63	57.17
205.849	98.13
206.068	59.22
206.287	-55.47
206.505	221.01
206.724	-8.36
206.943	-2.22
207.162	10.07
207.381	135
207.599	38.74
207.818	89.94
208.037	28.5
208.255	24.4
208.474	65.36
208.693	-0.17
208.911	91.99
209.13	46.93
209.349	-8.36
209.567	44.88
209.786	32.6
210.005	77.65
210.223	81.75
210.442	-43.18
210.661	46.93
210.879	22.36
211.098	91.99
211.316	48.98
211.535	132.95
211.753	10.07
211.972	87.89
212.191	44.88
212.409	53.08
212.628	161.62
212.846	14.17
213.065	73.56
213.283	106.32
213.502	98.13
213.72	83.8
213.938	63.32
214.157	-12.46
214.375	120.66
214.594	-30.89
214.812	171.86
215.031	-10.41
215.249	-0.17
215.467	110.42
215.686	83.8
215.904	126.8
216.122	-2.22
216.341	161.62
216.559	16.21
216.778	85.84
216.996	157.52
217.214	36.69
217.432	8.02
217.651	-53.42
217.869	98.13
218.087	20.31
218.306	-57.51
218.524	77.65
218.742	69.46
218.96	112.47
219.179	-6.31
219.397	53.08
219.615	261.97
219.833	46.93
220.051	-14.51
220.27	79.7
220.488	126.8
220.706	-30.89
220.924	-28.84
221.142	-8.36
221.36	61.27
221.578	12.12
221.796	32.6
222.015	81.75
222.233	112.47
222.451	194.39
222.669	12.12
222.887	102.23
223.105	3.93
223.323	-16.55
223.541	36.69
223.759	-0.17
223.977	8.02
224.195	167.76
224.413	59.22
224.631	91.99
224.849	16.21
225.067	190.29
225.285	-47.27
225.503	12.12
225.721	5.97
225.939	91.99
226.157	96.08
226.375	255.83
226.592	30.55
226.81	94.04
227.028	-26.79
227.246	124.76
227.464	71.51
227.682	102.23
227.9	77.65
228.117	42.84
228.335	48.98
228.553	48.98
228.771	3.93
228.989	-24.75
229.206	81.75
229.424	14.17
229.642	12.12
229.86	-2.22
230.077	81.75
230.295	-22.7
230.513	81.75
230.731	51.03
230.948	180.05
231.166	112.47
231.384	-12.46
231.601	-26.79
231.819	182.1
232.037	1.88
232.254	10.07
232.472	1.88
232.689	22.36
232.907	155.47
233.125	-4.27
233.342	-43.18
233.56	-10.41
233.777	40.79
233.995	69.46
234.213	40.79
234.43	16.21
234.648	24.4
234.865	57.17
235.083	67.41
235.3	20.31
235.518	65.36
235.735	143.19
235.953	83.8
236.17	3.93
236.388	32.6
236.605	3.93
236.822	87.89
237.04	85.84
237.257	67.41
237.475	-22.7
237.692	110.42
237.909	114.52
238.127	-37.03
238.344	118.61
238.562	114.52
238.779	-61.61
238.996	-26.79
239.214	94.04
239.431	132.95
239.648	-30.89
239.865	67.41
240.083	81.75
240.3	8.02
240.517	112.47
240.735	18.26
240.952	155.47
241.169	79.7
241.386	94.04
241.603	-51.37
241.821	-51.37
242.038	124.76
242.255	48.98
242.472	-53.42
242.689	126.8
242.907	10.07
243.124	51.03
243.341	63.32
243.558	3.93
243.775	-45.23
243.992	-16.55
244.209	110.42
244.426	112.47
244.643	94.04
244.86	-8.36
245.078	12.12
245.295	67.41
245.512	-22.7
245.729	51.03
245.946	100.18
246.163	34.64
246.38	-24.75
246.597	59.22
246.814	53.08
247.031	34.64
247.248	46.93
247.464	102.23
247.681	30.55
247.898	5.97
248.115	118.61
248.332	-59.56
248.549	114.52
248.766	139.09
248.983	157.52
249.2	155.47
249.417	51.03
249.633	61.27
249.85	34.64
250.067	8.02
250.284	89.94
250.501	-26.79
250.717	16.21
250.934	-75.95
251.151	24.4
251.368	63.32
251.585	40.79
251.801	167.76
252.018	-37.03
252.235	153.43
252.451	3.93
252.668	-4.27
252.885	79.7
253.102	53.08
253.318	-18.6
253.535	26.45
253.752	42.84
253.968	-57.51
254.185	-92.33
254.401	67.41
254.618	75.6
254.835	-22.7
255.051	83.8
255.268	71.51
255.484	167.76
255.701	22.36
255.917	8.02
256.134	-94.38
256.351	-12.46
256.567	-100.52
256.784	24.4
257	-39.08
257.217	61.27
257.433	89.94
257.65	69.46
257.866	141.14
258.082	14.17
258.299	-28.84
258.515	118.61
258.732	28.5
258.948	-0.17
259.165	42.84
259.381	-28.84
259.597	59.22
259.814	28.5
260.03	-45.23
260.246	-37.03
260.463	91.99
260.679	186.19
260.895	106.32
261.112	55.12
261.328	-12.46
261.544	-61.61
261.761	153.43
261.977	46.93
262.193	53.08
262.409	46.93
262.626	96.08
262.842	48.98
263.058	-20.65
263.274	32.6
263.49	61.27
263.707	126.8
263.923	106.32
264.139	-98.47
264.355	87.89
264.571	104.28
264.787	122.71
265.004	96.08
265.22	14.17
265.436	-123.05
265.652	71.51
265.868	42.84
266.084	-39.08
266.3	8.02
266.516	-77.99
266.732	135
266.948	14.17
267.164	-18.6
267.38	57.17
267.596	98.13
267.812	165.71
268.028	14.17
268.244	38.74
268.46	20.31
268.676	30.55
268.892	10.07
269.108	-4.27
269.324	-80.04
269.54	-90.28
269.756	85.84
269.972	-61.61
270.188	-18.6
270.403	-47.27
270.619	16.21
270.835	67.41
271.051	46.93
271.267	-20.65
271.483	-53.42
271.698	116.56
271.914	83.8
272.13	79.7
272.346	-12.46
272.562	-2.22
272.777	94.04
272.993	-71.85
273.209	-63.66
273.425	106.32
273.64	12.12
273.856	102.23
274.072	14.17
274.287	-30.89
274.503	46.93
274.719	116.56
274.934	-0.17
275.15	-75.95
275.366	34.64
275.581	-12.46
275.797	18.26
276.012	42.84
276.228	-14.51
276.444	42.84
276.659	143.19
276.875	-57.51
277.09	18.26
277.306	26.45
277.521	26.45
277.737	34.64
277.952	69.46
278.168	55.12
278.383	42.84
278.599	67.41
278.814	94.04
279.03	16.21
279.245	116.56
279.461	89.94
279.676	122.71
279.892	-34.99
280.107	5.97
280.322	-6.31
280.538	77.65
280.753	18.26
280.969	71.51
281.184	57.17
281.399	163.67
281.615	-8.36
281.83	28.5
282.045	-86.19
282.26	-26.79
282.476	98.13
282.691	180.05
282.906	10.07
283.122	69.46
283.337	-24.75
283.552	34.64
283.767	12.12
283.983	167.76
284.198	-12.46
284.413	30.55
284.628	-22.7
284.843	-18.6
285.058	55.12
285.274	3.93
285.489	38.74
285.704	48.98
285.919	-30.89
286.134	3.93
286.349	22.36
286.564	20.31
286.779	87.89
286.995	34.64
287.21	-2.22
287.425	51.03
287.64	61.27
287.855	-10.41
288.07	-45.23
288.285	85.84
288.5	94.04
288.715	73.56
288.93	28.5
289.145	22.36
289.36	147.28
289.575	-53.42
289.79	157.52
290.004	-8.36
290.219	89.94
290.434	16.21
290.649	-0.17
290.864	83.8
291.079	63.32
291.294	-6.31
291.509	73.56
291.724	-43.18
291.938	-41.13
292.153	55.12
292.368	10.07
292.583	42.84
292.798	98.13
293.012	71.51
293.227	73.56
293.442	89.94
293.657	20.31
293.871	221.01
294.086	-8.36
294.301	241.49
294.516	108.37
294.73	-2.22
294.945	-26.79
295.16	30.55
295.374	147.28
295.589	87.89
295.804	59.22
296.018	85.84
296.233	153.43
296.447	61.27
296.662	-22.7
296.877	71.51
297.091	116.56
297.306	53.08
297.52	57.17
297.735	149.33
297.949	67.41
298.164	20.31
298.378	81.75
298.593	-61.61
298.807	30.55
299.022	75.6
299.236	192.34
299.451	24.4
299.665	8.02
299.88	-6.31
300.094	73.56
300.309	1.88
300.523	40.79
300.737	46.93
300.952	-20.65
301.166	83.8
301.381	32.6
301.595	-37.03
301.809	75.6
302.024	81.75
302.238	-39.08
302.452	126.8
302.667	32.6
302.881	132.95
303.095	79.7
303.309	67.41
303.524	-67.75
303.738	34.64
303.952	-24.75
304.166	24.4
304.381	-55.47
304.595	48.98
304.809	-24.75
305.023	104.28
305.237	77.65
305.452	12.12
305.666	108.37
305.88	63.32
306.094	130.9
306.308	69.46
306.522	132.95
306.736	128.85
306.95	112.47
307.164	36.69
307.379	-0.17
307.593	194.39
307.807	122.71
308.021	63.32
308.235	153.43
308.449	-55.47
308.663	14.17
308.877	147.28
309.091	79.7
309.305	12.12
309.519	-55.47
309.733	81.75
309.947	-98.47
310.161	46.93
310.374	102.23
310.588	77.65
310.802	-41.13
311.016	-28.84
311.23	59.22
311.444	-22.7
311.658	51.03
311.872	94.04
312.085	48.98
312.299	114.52
312.513	124.76
312.727	51.03
312.941	34.64
313.154	94.04
313.368	20.31
313.582	18.26
313.796	36.69
314.009	-6.31
314.223	122.71
314.437	40.79
314.651	143.19
314.864	46.93
315.078	48.98
315.292	-77.99
315.505	-0.17
315.719	100.18
315.933	22.36
316.146	34.64
316.36	-57.51
316.573	83.8
316.787	77.65
317.001	61.27
317.214	-24.75
317.428	59.22
317.641	-8.36
317.855	5.97
318.068	79.7
318.282	8.02
318.495	165.71
318.709	51.03
318.922	-34.99
319.136	161.62
319.349	104.28
319.563	-2.22
319.776	114.52
319.99	-86.19
320.203	83.8
320.417	26.45
320.63	139.09
320.843	137.04
321.057	48.98
321.27	20.31
321.483	98.13
321.697	145.24
321.91	83.8
322.124	137.04
322.337	100.18
322.55	-12.46
322.763	-0.17
322.977	-10.41
323.19	44.88
323.403	18.26
323.617	79.7
323.83	149.33
324.043	-6.31
324.256	-14.51
324.469	-53.42
324.683	98.13
324.896	14.17
325.109	18.26
325.322	-10.41
325.535	89.94
325.748	83.8
325.962	-37.03
326.175	40.79
326.388	75.6
326.601	143.19
326.814	-10.41
327.027	3.93
327.24	112.47
327.453	-32.94
327.666	30.55
327.879	114.52
328.092	81.75
328.305	53.08
328.518	-32.94
328.731	-41.13
328.944	36.69
329.157	77.65
329.37	-39.08
329.583	171.86
329.796	141.14
330.009	-114.86
330.222	3.93
330.435	108.37
330.648	65.36
330.861	100.18
331.073	55.12
331.286	51.03
331.499	85.84
331.712	-69.8
331.925	38.74
332.138	51.03
332.35	85.84
332.563	34.64
332.776	124.76
332.989	32.6
333.202	28.5
333.414	20.31
333.627	89.94
333.84	-6.31
334.053	71.51
334.265	46.93
334.478	-41.13
334.691	-2.22
334.903	132.95
335.116	-0.17
335.329	5.97
335.541	26.45
335.754	118.61
335.966	-16.55
336.179	-18.6
336.392	-45.23
336.604	-24.75
336.817	132.95
337.029	114.52
337.242	5.97
337.454	85.84
337.667	16.21
337.88	126.8
338.092	94.04
338.305	139.09
338.517	-82.09
338.729	-6.31
338.942	128.85
339.154	-65.71
339.367	-84.14
339.579	96.08
339.792	-43.18
340.004	112.47
340.217	-16.55
340.429	110.42
340.641	-2.22
340.854	-75.95
341.066	26.45
341.278	77.65
341.491	182.1
341.703	8.02
341.915	38.74
342.128	130.9
342.34	61.27
342.552	-32.94
342.764	30.55
342.977	-37.03
343.189	85.84
343.401	61.27
343.613	28.5
343.826	104.28
344.038	1.88
344.25	5.97
344.462	-39.08
344.674	75.6
344.886	32.6
345.099	30.55
345.311	12.12
345.523	-18.6
345.735	-114.86
345.947	77.65
346.159	112.47
346.371	89.94
346.583	1.88
346.795	223.06
347.007	71.51
347.219	100.18
347.431	10.07
347.643	51.03
347.855	42.84
348.067	175.95
348.279	3.93
348.491	14.17
348.703	171.86
348.915	14.17
349.127	-12.46
349.339	57.17
349.551	-49.32
349.763	36.69
349.975	53.08
350.187	85.84
350.399	51.03
350.61	57.17
350.822	10.07
351.034	57.17
351.246	77.65
351.458	120.66
351.669	81.75
351.881	122.71
352.093	69.46
352.305	116.56
352.517	30.55
352.728	55.12
352.94	-45.23
353.152	151.38
353.363	22.36
353.575	104.28
353.787	165.71
353.999	102.23
354.21	188.24
354.422	-20.65
354.633	28.5
354.845	67.41
355.057	32.6
355.268	-2.22
355.48	69.46
355.692	-67.75
355.903	-4.27
356.115	-16.55
356.326	-43.18
356.538	135
356.749	71.51
356.961	61.27
357.172	53.08
357.384	-51.37
357.595	184.15
357.807	-22.7
358.018	57.17
358.23	46.93
358.441	122.71
358.653	114.52
358.864	51.03
359.075	55.12
359.287	34.64
359.498	34.64
359.709	73.56
359.921	48.98
360.132	65.36
360.344	114.52
360.555	-2.22
360.766	98.13
360.977	85.84
361.189	83.8
361.4	-69.8
361.611	149.33
361.823	42.84
362.034	100.18
362.245	38.74
362.456	51.03
362.667	108.37
362.879	38.74
363.09	32.6
363.301	73.56
363.512	69.46
363.723	-14.51
363.935	20.31
364.146	48.98
364.357	-28.84
364.568	32.6
364.779	-80.04
364.99	137.04
365.201	-22.7
365.412	81.75
365.623	36.69
365.834	-14.51
366.045	14.17
366.256	65.36
366.467	44.88
366.678	46.93
366.889	18.26
367.1	-45.23
367.311	91.99
367.522	-32.94
367.733	110.42
367.944	24.4
368.155	20.31
368.366	42.84
368.577	69.46
368.788	51.03
368.999	71.51
369.209	87.89
369.42	153.43
369.631	286.54
369.842	12.12
370.053	32.6
370.264	106.32
370.474	32.6
370.685	8.02
370.896	69.46
371.107	96.08
371.317	22.36
371.528	-32.94
371.739	128.85
371.95	36.69
372.16	61.27
372.371	-53.42
372.582	32.6
372.792	3.93
373.003	116.56
373.214	38.74
373.424	139.09
373.635	-6.31
373.846	128.85
374.056	18.26
374.267	65.36
374.477	89.94
374.688	5.97
374.898	10.07
375.109	30.55
375.319	8.02
375.53	161.62
375.74	65.36
375.951	-28.84
376.161	61.27
376.372	110.42
376.582	-20.65
376.793	44.88
377.003	57.17
377.214	-34.99
377.424	96.08
377.635	79.7
377.845	14.17
378.055	141.14
378.266	-77.99
378.476	96.08
378.686	108.37
378.897	59.22
379.107	96.08
379.317	85.84
379.528	-0.17
379.738	98.13
379.948	-30.89
380.158	81.75
380.369	100.18
380.579	135
380.789	65.36
380.999	57.17
381.21	69.46
381.42	155.47
381.63	55.12
381.84	57.17
382.05	163.67
382.261	114.52
382.471	79.7
382.681	-45.23
382.891	104.28
383.101	16.21
383.311	-20.65
383.521	-41.13
383.731	71.51
383.941	118.61
384.151	-30.89
384.361	75.6
384.571	141.14
384.781	40.79
384.991	145.24
385.201	157.52
385.411	96.08
385.621	59.22
385.831	87.89
386.041	32.6
386.251	40.79
386.461	91.99
386.671	8.02
386.881	110.42
387.091	-6.31
387.301	51.03
387.511	55.12
387.72	73.56
387.93	-2.22
388.14	-57.51
388.35	12.12
388.56	91.99
388.769	79.7
388.979	69.46
389.189	-47.27
389.399	3.93
389.609	57.17
389.818	128.85
390.028	24.4
390.238	-12.46
390.447	18.26
390.657	102.23
390.867	-20.65
391.076	30.55
391.286	22.36
391.496	57.17
391.705	77.65
391.915	167.76
392.125	128.85
392.334	8.02
392.544	149.33
392.753	73.56
392.963	-69.8
393.172	63.32
393.382	-80.04
393.591	106.32
393.801	5.97
394.01	214.87
394.22	118.61
394.429	46.93
394.639	42.84
394.848	-6.31
395.058	85.84
395.267	18.26
395.477	163.67
395.686	-26.79
395.895	214.87
396.105	102.23
396.314	36.69
396.524	30.55
396.733	-37.03
396.942	77.65
397.152	73.56
397.361	122.71
397.57	28.5
397.78	71.51
397.989	124.76
398.198	135
398.407	-6.31
398.617	34.64
398.826	63.32
399.035	57.17
399.244	135
399.453	63.32
399.663	79.7
399.872	65.36
400.081	-26.79
400.29	143.19
400.499	22.36
400.708	106.32
400.917	5.97
401.127	110.42
401.336	-4.27
401.545	227.15
401.754	163.67
401.963	57.17
402.172	36.69
402.381	5.97
402.59	16.21
402.799	44.88
403.008	85.84
403.217	104.28
403.426	130.9
403.635	-141.48
403.844	36.69
404.053	3.93
404.262	30.55
404.471	79.7
404.68	22.36
404.888	36.69
405.097	42.84
405.306	48.98
405.515	110.42
405.724	116.56
405.933	53.08
406.142	77.65
406.35	73.56
406.559	128.85
406.768	-0.17
406.977	214.87
407.185	61.27
407.394	110.42
407.603	-32.94
407.812	85.84
408.02	79.7
408.229	34.64
408.438	51.03
408.646	-53.42
408.855	59.22
409.064	130.9
409.272	18.26
409.481	122.71
409.69	30.55
409.898	24.4
410.107	67.41
410.315	73.56
410.524	-4.27
410.733	34.64
410.941	-41.13
411.15	46.93
411.358	59.22
411.567	40.79
411.775	81.75
411.984	46.93
412.192	85.84
412.401	22.36
412.609	173.91
412.818	132.95
413.026	120.66
413.234	71.51
413.443	53.08
413.651	18.26
413.86	-12.46
414.068	175.95
414.276	186.19
414.485	59.22
414.693	147.28
414.901	159.57
415.11	79.7
415.318	51.03
415.526	61.27
415.734	155.47
415.943	106.32
416.151	75.6
416.359	100.18
416.567	188.24
416.776	104.28
416.984	124.76
417.192	198.48
417.4	28.5
417.608	-26.79
417.817	-20.65
418.025	77.65
418.233	132.95
418.441	-45.23
418.649	-51.37
418.857	94.04
419.065	98.13
419.273	40.79
419.481	42.84
419.689	30.55
419.897	42.84
420.105	-32.94
420.313	141.14
420.521	137.04
420.729	53.08
420.937	46.93
421.145	-8.36
421.353	75.6
421.561	128.85
421.769	48.98
421.977	96.08
422.185	157.52
422.393	48.98
422.601	118.61
422.809	110.42
423.017	48.98
423.224	53.08
423.432	83.8
423.64	-10.41
423.848	122.71
424.056	-12.46
424.263	112.47
424.471	46.93
424.679	157.52
424.887	61.27
425.094	126.8
425.302	106.32
425.51	46.93
425.718	26.45
425.925	1.88
426.133	-39.08
426.341	257.87
426.548	12.12
426.756	34.64
426.964	94.04
427.171	-22.7
427.379	36.69
427.586	46.93
427.794	126.8
428.001	91.99
428.209	79.7
428.417	120.66
428.624	147.28
428.832	163.67
429.039	48.98
429.247	36.69
429.454	89.94
429.662	198.48
429.869	71.51
430.076	98.13
430.284	188.24
430.491	178
430.699	132.95
430.906	194.39
431.114	141.14
431.321	137.04
431.528	151.38
431.736	186.19
431.943	120.66
432.15	180.05
432.358	157.52
432.565	288.59
432.772	-12.46
432.979	200.53
433.187	53.08
433.394	139.09
433.601	112.47
433.808	151.38
434.016	141.14
434.223	225.11
434.43	184.15
434.637	227.15
434.844	237.39
435.052	186.19
435.259	196.43
435.466	233.3
435.673	223.06
435.88	261.97
436.087	300.88
436.294	309.07
436.501	282.45
436.708	194.39
436.915	245.59
437.122	347.98
437.329	165.71
437.537	243.54
437.743	212.82
437.95	372.56
438.157	354.13
438.364	294.74
438.571	364.37
438.778	393.04
438.985	395.09
439.192	362.32
439.399	345.94
439.606	300.88
439.813	409.42
440.02	479.05
440.227	483.15
440.433	534.35
440.64	417.61
440.847	390.99
441.054	460.62
441.261	601.93
441.467	446.29
441.674	534.35
441.881	669.52
442.088	436.05
442.294	632.65
442.501	685.9
442.708	665.42
442.914	665.42
443.121	675.66
443.328	591.69
443.534	716.62
443.741	675.66
443.948	593.74
444.154	737.1
444.361	925.51
444.568	853.83
444.774	773.96
444.981	780.11
445.187	931.66
445.394	851.78
445.6	847.69
445.807	1109.83
446.013	1038.15
446.22	941.89
446.426	1068.87
446.633	1113.92
446.839	1345.34
447.046	1072.96
447.252	1234.75
447.459	1271.62
447.665	1306.43
447.871	1277.76
448.078	1517.37
448.284	1449.79
448.491	1460.03
448.697	1605.44
448.903	1666.88
449.11	1619.77
449.316	1748.79
449.522	1777.47
449.728	1900.34
449.935	1845.05
450.141	1929.02
450.347	2262.83
450.553	2076.47
450.76	2152.24
450.966	2271.03
451.172	2299.7
451.378	2471.73
451.584	2438.96
451.791	2557.74
451.997	2740.01
452.203	2672.43
452.409	2930.47
452.615	2914.09
452.821	2938.66
453.027	2965.29
453.233	3331.87
453.44	3245.86
453.646	3440.42
453.852	3446.56
454.058	3655.45
454.264	3739.42
454.47	3942.17
454.676	4075.29
454.882	4433.68
455.088	4329.24
455.294	4476.69
455.5	4720.4
455.705	5187.33
455.911	5060.36
456.117	5304.07
456.323	5316.36
456.529	5320.45
456.735	5865.21
456.941	5848.83
457.147	6362.87
457.352	6309.62
457.558	6516.47
457.764	6852.33
457.97	7085.8
458.176	7417.57
458.381	7784.16
458.587	7970.52
458.793	8357.59
458.999	8484.56
459.204	9477.83
459.41	9721.54
459.616	9430.73
459.821	10159.8
460.027	10225.34
460.233	10966.7
460.438	10890.93
460.644	11585.19
460.85	11929.25
461.055	12224.15
461.261	13037.2
461.466	12689.04
461.672	12906.13
461.878	14403.19
462.083	14036.61
462.289	14374.52
462.494	15066.74
462.7	15109.74
462.905	15464.04
463.111	16541.27
463.316	17202.77
463.522	17821.25
463.727	18230.85
463.932	19076.66
464.138	19783.21
464.343	20444.7
464.549	20459.04
464.754	21949.96
464.959	22771.19
465.165	22844.92
465.37	22763
465.575	22711.8
465.781	24260.07
465.986	25269.72
466.191	24600.03
466.397	25128.41
466.602	24479.2
466.807	25904.59
467.012	26293.7
467.218	26813.88
467.423	26959.29
467.628	27731.37
467.833	29037.98
468.038	28061.1
468.244	27848.11
468.449	29635.99
468.654	28708.26
468.859	28757.41
469.064	28616.1
