Data from USB4F104151__29__10-24-16-042.txt Node

Date: Wed Feb 26 10:24:16 EST 2025
User: louis
Spectrometer: USB4F10415
Trigger mode: 4
Integration Time (sec): 1.000000E-1
Scans to average: 1
Electric dark correction enabled: true
Nonlinearity correction enabled: false
Boxcar width: 0
XAxis mode: Wavelengths
Number of Pixels in Spectrum: 3648
>>>>>Begin Spectral Data<<<<<
178.204	-399.87
178.424	-399.87
178.644	-399.87
178.864	-365.05
179.084	-336.38
179.304	-29.18
179.524	-37.38
179.744	-10.75
179.964	9.73
180.184	34.3
180.404	5.63
180.624	-53.76
180.844	87.55
181.064	-74.24
181.283	15.87
181.503	-29.18
181.723	81.41
181.943	-113.15
182.163	185.85
182.383	-12.8
182.602	48.64
182.822	187.9
183.042	200.19
183.262	-76.29
183.482	38.4
183.701	-31.23
183.921	-0.51
184.141	-39.42
184.361	140.8
184.58	130.56
184.8	65.02
185.02	-70.14
185.239	171.52
185.459	56.83
185.679	177.66
185.898	-94.72
186.118	50.69
186.338	50.69
186.557	134.65
186.777	-78.33
186.997	15.87
187.216	50.69
187.436	214.52
187.655	62.98
187.875	130.56
188.095	95.74
188.314	65.02
188.534	128.51
188.753	-4.61
188.973	128.51
189.192	181.76
189.412	-25.09
189.631	-35.33
189.851	81.41
190.07	126.46
190.29	-41.47
190.509	56.83
190.729	87.55
190.948	171.52
191.168	247.29
191.387	58.88
191.607	48.64
191.826	44.54
192.045	-4.61
192.265	11.78
192.484	52.74
192.704	30.21
192.923	-20.99
193.142	185.85
193.362	110.08
193.581	110.08
193.8	56.83
194.02	62.98
194.239	40.45
194.458	134.65
194.678	19.97
194.897	-61.95
195.116	44.54
195.335	22.02
195.555	87.55
195.774	-18.94
195.993	97.79
196.212	69.12
196.432	-2.56
196.651	67.07
196.87	26.11
197.089	189.95
197.308	75.26
197.528	24.06
197.747	-102.91
197.966	97.79
198.185	151.04
198.404	7.68
198.623	159.23
198.842	83.45
199.062	105.98
199.281	110.08
199.5	24.06
199.719	194.05
199.938	34.3
200.157	48.64
200.376	157.18
200.595	122.37
200.814	97.79
201.033	-25.09
201.252	134.65
201.471	79.36
201.69	71.17
201.909	95.74
202.128	116.22
202.347	132.61
202.566	-31.23
202.785	-51.71
203.004	-53.76
203.223	157.18
203.442	-70.14
203.661	26.11
203.879	24.06
204.098	118.27
204.317	-12.8
204.536	105.98
204.755	198.14
204.974	126.46
205.193	28.16
205.411	155.13
205.63	120.32
205.849	128.51
206.068	-39.42
206.287	-20.99
206.505	124.41
206.724	-0.51
206.943	-2.56
207.162	19.97
207.381	89.6
207.599	83.45
207.818	73.21
208.037	-39.42
208.255	-4.61
208.474	56.83
208.693	26.11
208.911	22.02
209.13	67.07
209.349	122.37
209.567	56.83
209.786	28.16
210.005	62.98
210.223	60.93
210.442	-150.01
210.661	-16.9
210.879	58.88
211.098	54.78
211.316	-20.99
211.535	48.64
211.753	3.58
211.972	77.31
212.191	3.58
212.409	36.35
212.628	77.31
212.846	30.21
213.065	110.08
213.283	62.98
213.502	58.88
213.72	-18.94
213.938	44.54
214.157	34.3
214.375	28.16
214.594	-20.99
214.812	85.5
215.031	42.5
215.249	52.74
215.467	73.21
215.686	13.82
215.904	9.73
216.122	71.17
216.341	97.79
216.559	79.36
216.778	181.76
216.996	167.42
217.214	65.02
217.432	-31.23
217.651	-49.66
217.869	75.26
218.087	32.26
218.306	-16.9
218.524	40.45
218.742	-29.18
218.96	208.38
219.179	44.54
219.397	97.79
219.615	208.38
219.833	151.04
220.051	-0.51
220.27	130.56
220.488	165.37
220.706	126.46
220.924	-25.09
221.142	19.97
221.36	60.93
221.578	97.79
221.796	101.89
222.015	101.89
222.233	36.35
222.451	181.76
222.669	-47.62
222.887	89.6
223.105	-23.04
223.323	65.02
223.541	-0.51
223.759	69.12
223.977	52.74
224.195	165.37
224.413	103.93
224.631	40.45
224.849	91.65
225.067	216.57
225.285	17.92
225.503	44.54
225.721	-98.81
225.939	-20.99
226.157	19.97
226.375	163.33
226.592	1.54
226.81	65.02
227.028	50.69
227.246	157.18
227.464	7.68
227.682	110.08
227.9	52.74
228.117	56.83
228.335	85.5
228.553	108.03
228.771	17.92
228.989	58.88
229.206	140.8
229.424	-10.75
229.642	22.02
229.86	-33.28
230.077	105.98
230.295	24.06
230.513	183.81
230.731	32.26
230.948	235
231.166	128.51
231.384	11.78
231.601	67.07
231.819	181.76
232.037	-6.66
232.254	-84.48
232.472	89.6
232.689	19.97
232.907	97.79
233.125	15.87
233.342	15.87
233.56	-45.57
233.777	28.16
233.995	91.65
234.213	93.69
234.43	93.69
234.648	38.4
234.865	-23.04
235.083	71.17
235.3	91.65
235.518	58.88
235.735	105.98
235.953	124.41
236.17	-4.61
236.388	36.35
236.605	-8.7
236.822	56.83
237.04	75.26
237.257	24.06
237.475	-25.09
237.692	52.74
237.909	120.32
238.127	24.06
238.344	44.54
238.562	50.69
238.779	-18.94
238.996	-18.94
239.214	81.41
239.431	87.55
239.648	-35.33
239.865	159.23
240.083	108.03
240.3	-12.8
240.517	40.45
240.735	52.74
240.952	108.03
241.169	22.02
241.386	69.12
241.603	19.97
241.821	-53.76
242.038	118.27
242.255	97.79
242.472	32.26
242.689	91.65
242.907	75.26
243.124	89.6
243.341	144.89
243.558	-20.99
243.775	-49.66
243.992	-70.14
244.209	124.41
244.426	239.1
244.643	38.4
244.86	11.78
245.078	67.07
245.295	81.41
245.512	54.78
245.729	44.54
245.946	17.92
246.163	101.89
246.38	17.92
246.597	60.93
246.814	69.12
247.031	97.79
247.248	83.45
247.464	62.98
247.681	28.16
247.898	58.88
248.115	-2.56
248.332	-70.14
248.549	151.04
248.766	167.42
248.983	87.55
249.2	81.41
249.417	95.74
249.633	17.92
249.85	60.93
250.067	48.64
250.284	44.54
250.501	116.22
250.717	124.41
250.934	-2.56
251.151	79.36
251.368	42.5
251.585	112.13
251.801	95.74
252.018	-12.8
252.235	85.5
252.451	44.54
252.668	13.82
252.885	118.27
253.102	65.02
253.318	17.92
253.535	-31.23
253.752	-12.8
253.968	40.45
254.185	-61.95
254.401	9.73
254.618	87.55
254.835	34.3
255.051	165.37
255.268	153.09
255.484	116.22
255.701	52.74
255.917	60.93
256.134	-35.33
256.351	48.64
256.567	-80.38
256.784	32.26
257	-119.29
257.217	79.36
257.433	34.3
257.65	56.83
257.866	110.08
258.082	-41.47
258.299	30.21
258.515	65.02
258.732	11.78
258.948	30.21
259.165	38.4
259.381	-23.04
259.597	60.93
259.814	19.97
260.03	75.26
260.246	-6.66
260.463	146.94
260.679	148.99
260.895	34.3
261.112	15.87
261.328	13.82
261.544	28.16
261.761	216.57
261.977	15.87
262.193	-80.38
262.409	105.98
262.626	112.13
262.842	87.55
263.058	17.92
263.274	126.46
263.49	34.3
263.707	134.65
263.923	128.51
264.139	-47.62
264.355	87.55
264.571	140.8
264.787	75.26
265.004	138.75
265.22	58.88
265.436	5.63
265.652	-74.24
265.868	81.41
266.084	-33.28
266.3	91.65
266.516	-6.66
266.732	56.83
266.948	32.26
267.164	-4.61
267.38	126.46
267.596	77.31
267.812	192
268.028	79.36
268.244	44.54
268.46	1.54
268.676	-12.8
268.892	169.47
269.108	-98.81
269.324	56.83
269.54	3.58
269.756	67.07
269.972	-41.47
270.188	26.11
270.403	73.21
270.619	26.11
270.835	128.51
271.051	46.59
271.267	-16.9
271.483	17.92
271.698	120.32
271.914	15.87
272.13	99.84
272.346	15.87
272.562	91.65
272.777	171.52
272.993	3.58
273.209	-0.51
273.425	116.22
273.64	-20.99
273.856	189.95
274.072	13.82
274.287	-27.14
274.503	161.28
274.719	85.5
274.934	-31.23
275.15	-0.51
275.366	-20.99
275.581	7.68
275.797	-4.61
276.012	42.5
276.228	58.88
276.444	99.84
276.659	83.45
276.875	-12.8
277.09	-4.61
277.306	-70.14
277.521	136.7
277.737	81.41
277.952	161.28
278.168	81.41
278.383	95.74
278.599	93.69
278.814	110.08
279.03	67.07
279.245	169.47
279.461	112.13
279.676	187.9
279.892	-100.86
280.107	38.4
280.322	65.02
280.538	77.31
280.753	48.64
280.969	50.69
281.184	30.21
281.399	142.85
281.615	114.17
281.83	62.98
282.045	-37.38
282.26	-61.95
282.476	60.93
282.691	112.13
282.906	-25.09
283.122	77.31
283.337	32.26
283.552	126.46
283.767	22.02
283.983	91.65
284.198	44.54
284.413	1.54
284.628	-47.62
284.843	-25.09
285.058	114.17
285.274	-2.56
285.489	-4.61
285.704	171.52
285.919	-61.95
286.134	34.3
286.349	24.06
286.564	3.58
286.779	112.13
286.995	11.78
287.21	-88.57
287.425	28.16
287.64	67.07
287.855	56.83
288.07	-59.9
288.285	173.57
288.5	114.17
288.715	134.65
288.93	24.06
289.145	-27.14
289.36	85.5
289.575	13.82
289.79	69.12
290.004	46.59
290.219	110.08
290.434	-53.76
290.649	-27.14
290.864	11.78
291.079	22.02
291.294	155.13
291.509	116.22
291.724	58.88
291.938	58.88
292.153	17.92
292.368	11.78
292.583	-6.66
292.798	124.41
293.012	40.45
293.227	89.6
293.442	-27.14
293.657	77.31
293.871	110.08
294.086	24.06
294.301	171.52
294.516	153.09
294.73	108.03
294.945	-72.19
295.16	-14.85
295.374	122.37
295.589	146.94
295.804	22.02
296.018	65.02
296.233	138.75
296.447	42.5
296.662	40.45
296.877	73.21
297.091	48.64
297.306	69.12
297.52	114.17
297.735	81.41
297.949	54.78
298.164	101.89
298.378	79.36
298.593	-18.94
298.807	26.11
299.022	-10.75
299.236	124.41
299.451	-20.99
299.665	65.02
299.88	7.68
300.094	50.69
300.309	91.65
300.523	42.5
300.737	67.07
300.952	116.22
301.166	71.17
301.381	30.21
301.595	75.26
301.809	11.78
302.024	40.45
302.238	-43.52
302.452	81.41
302.667	42.5
302.881	77.31
303.095	83.45
303.309	56.83
303.524	-20.99
303.738	73.21
303.952	67.07
304.166	28.16
304.381	-111.1
304.595	196.09
304.809	-45.57
305.023	83.45
305.237	77.31
305.452	15.87
305.666	136.7
305.88	36.35
306.094	56.83
306.308	77.31
306.522	148.99
306.736	97.79
306.95	15.87
307.164	54.78
307.379	89.6
307.593	62.98
307.807	89.6
308.021	142.85
308.235	46.59
308.449	-104.96
308.663	46.59
308.877	200.19
309.091	-20.99
309.305	118.27
309.519	-98.81
309.733	114.17
309.947	-45.57
310.161	157.18
310.374	138.75
310.588	108.03
310.802	-74.24
311.016	26.11
311.23	58.88
311.444	-0.51
311.658	69.12
311.872	105.98
312.085	148.99
312.299	120.32
312.513	108.03
312.727	85.5
312.941	-29.18
313.154	-2.56
313.368	56.83
313.582	91.65
313.796	75.26
314.009	71.17
314.223	128.51
314.437	44.54
314.651	13.82
314.864	7.68
315.078	-66.05
315.292	-57.86
315.505	-0.51
315.719	116.22
315.933	91.65
316.146	40.45
316.36	36.35
316.573	128.51
316.787	42.5
317.001	95.74
317.214	28.16
317.428	140.8
317.641	-31.23
317.855	79.36
318.068	81.41
318.282	30.21
318.495	235
318.709	114.17
318.922	140.8
319.136	85.5
319.349	146.94
319.563	-51.71
319.776	144.89
319.99	-70.14
320.203	142.85
320.417	-0.51
320.63	103.93
320.843	157.18
321.057	95.74
321.27	40.45
321.483	46.59
321.697	146.94
321.91	15.87
322.124	71.17
322.337	175.61
322.55	38.4
322.763	87.55
322.977	26.11
323.19	-6.66
323.403	46.59
323.617	105.98
323.83	62.98
324.043	26.11
324.256	30.21
324.469	-82.43
324.683	165.37
324.896	40.45
325.109	101.89
325.322	7.68
325.535	95.74
325.748	89.6
325.962	93.69
326.175	83.45
326.388	62.98
326.601	157.18
326.814	44.54
327.027	26.11
327.24	151.04
327.453	-31.23
327.666	83.45
327.879	151.04
328.092	85.5
328.305	69.12
328.518	44.54
328.731	-37.38
328.944	58.88
329.157	48.64
329.37	-23.04
329.583	155.13
329.796	128.51
330.009	-2.56
330.222	48.64
330.435	110.08
330.648	130.56
330.861	30.21
331.073	81.41
331.286	50.69
331.499	58.88
331.712	-47.62
331.925	103.93
332.138	26.11
332.35	122.37
332.563	-29.18
332.776	157.18
332.989	-35.33
333.202	69.12
333.414	81.41
333.627	46.59
333.84	30.21
334.053	62.98
334.265	-6.66
334.478	44.54
334.691	42.5
334.903	13.82
335.116	42.5
335.329	46.59
335.541	17.92
335.754	163.33
335.966	9.73
336.179	-14.85
336.392	52.74
336.604	-41.47
336.817	134.65
337.029	44.54
337.242	38.4
337.454	46.59
337.667	93.69
337.88	38.4
338.092	77.31
338.305	136.7
338.517	40.45
338.729	81.41
338.942	118.27
339.154	-41.47
339.367	26.11
339.579	87.55
339.792	-25.09
340.004	62.98
340.217	-12.8
340.429	151.04
340.641	-80.38
340.854	42.5
341.066	22.02
341.278	153.09
341.491	198.14
341.703	130.56
341.915	-2.56
342.128	116.22
342.34	54.78
342.552	-20.99
342.764	32.26
342.977	-2.56
343.189	159.23
343.401	93.69
343.613	-2.56
343.826	-20.99
344.038	-59.9
344.25	83.45
344.462	22.02
344.674	32.26
344.886	77.31
345.099	22.02
345.311	60.93
345.523	36.35
345.735	-96.77
345.947	124.41
346.159	62.98
346.371	54.78
346.583	-12.8
346.795	179.71
347.007	32.26
347.219	54.78
347.431	9.73
347.643	60.93
347.855	32.26
348.067	169.47
348.279	9.73
348.491	-0.51
348.703	114.17
348.915	69.12
349.127	50.69
349.339	108.03
349.551	81.41
349.763	52.74
349.975	40.45
350.187	50.69
350.399	204.28
350.61	128.51
350.822	15.87
351.034	-37.38
351.246	54.78
351.458	48.64
351.669	54.78
351.881	89.6
352.093	110.08
352.305	65.02
352.517	26.11
352.728	116.22
352.94	110.08
353.152	22.02
353.363	9.73
353.575	69.12
353.787	228.86
353.999	44.54
354.21	189.95
354.422	1.54
354.633	40.45
354.845	38.4
355.057	136.7
355.268	60.93
355.48	122.37
355.692	11.78
355.903	30.21
356.115	-23.04
356.326	-47.62
356.538	214.52
356.749	50.69
356.961	28.16
357.172	5.63
357.384	-27.14
357.595	198.14
357.807	7.68
358.018	-29.18
358.23	-8.7
358.441	89.6
358.653	36.35
358.864	24.06
359.075	-31.23
359.287	69.12
359.498	105.98
359.709	93.69
359.921	110.08
360.132	69.12
360.344	34.3
360.555	-10.75
360.766	97.79
360.977	22.02
361.189	187.9
361.4	5.63
361.611	130.56
361.823	212.48
362.034	5.63
362.245	-94.72
362.456	97.79
362.667	71.17
362.879	30.21
363.09	-2.56
363.301	97.79
363.512	1.54
363.723	32.26
363.935	32.26
364.146	157.18
364.357	26.11
364.568	122.37
364.779	-41.47
364.99	187.9
365.201	-70.14
365.412	108.03
365.623	-23.04
365.834	122.37
366.045	32.26
366.256	91.65
366.467	34.3
366.678	48.64
366.889	58.88
367.1	-0.51
367.311	224.76
367.522	17.92
367.733	67.07
367.944	105.98
368.155	11.78
368.366	48.64
368.577	105.98
368.788	73.21
368.999	-29.18
369.209	67.07
369.42	226.81
369.631	269.82
369.842	19.97
370.053	3.58
370.264	118.27
370.474	3.58
370.685	67.07
370.896	-10.75
371.107	138.75
371.317	30.21
371.528	34.3
371.739	148.99
371.95	62.98
372.16	40.45
372.371	-55.81
372.582	-37.38
372.792	95.74
373.003	-25.09
373.214	9.73
373.424	85.5
373.635	-2.56
373.846	36.35
374.056	40.45
374.267	36.35
374.477	58.88
374.688	-45.57
374.898	52.74
375.109	75.26
375.319	75.26
375.53	128.51
375.74	132.61
375.951	97.79
376.161	105.98
376.372	103.93
376.582	-0.51
376.793	89.6
377.003	13.82
377.214	48.64
377.424	83.45
377.635	13.82
377.845	-6.66
378.055	122.37
378.266	9.73
378.476	-20.99
378.686	-12.8
378.897	13.82
379.107	114.17
379.317	91.65
379.528	9.73
379.738	136.7
379.948	-53.76
380.158	148.99
380.369	77.31
380.579	36.35
380.789	62.98
380.999	140.8
381.21	153.09
381.42	134.65
381.63	36.35
381.84	85.5
382.05	13.82
382.261	83.45
382.471	148.99
382.681	-8.7
382.891	169.47
383.101	46.59
383.311	-55.81
383.521	30.21
383.731	112.13
383.941	65.02
384.151	46.59
384.361	91.65
384.571	48.64
384.781	65.02
384.991	155.13
385.201	202.24
385.411	118.27
385.621	101.89
385.831	85.5
386.041	46.59
386.251	62.98
386.461	99.84
386.671	34.3
386.881	177.66
387.091	36.35
387.301	130.56
387.511	65.02
387.72	77.31
387.93	75.26
388.14	-53.76
388.35	97.79
388.56	146.94
388.769	192
388.979	99.84
389.189	36.35
389.399	52.74
389.609	60.93
389.818	151.04
390.028	69.12
390.238	81.41
390.447	22.02
390.657	60.93
390.867	71.17
391.076	-16.9
391.286	69.12
391.496	13.82
391.705	73.21
391.915	112.13
392.125	151.04
392.334	-14.85
392.544	144.89
392.753	114.17
392.963	-33.28
393.172	56.83
393.382	24.06
393.591	169.47
393.801	15.87
394.01	167.42
394.22	112.13
394.429	48.64
394.639	60.93
394.848	108.03
395.058	32.26
395.267	48.64
395.477	85.5
395.686	60.93
395.895	202.24
396.105	218.62
396.314	87.55
396.524	28.16
396.733	71.17
396.942	126.46
397.152	192
397.361	81.41
397.57	97.79
397.78	58.88
397.989	42.5
398.198	167.42
398.407	77.31
398.617	-29.18
398.826	58.88
399.035	15.87
399.244	140.8
399.453	93.69
399.663	-2.56
399.872	24.06
400.081	50.69
400.29	163.33
400.499	7.68
400.708	83.45
400.917	73.21
401.127	30.21
401.336	71.17
401.545	105.98
401.754	183.81
401.963	112.13
402.172	48.64
402.381	22.02
402.59	60.93
402.799	99.84
403.008	148.99
403.217	60.93
403.426	42.5
403.635	-57.86
403.844	3.58
404.053	58.88
404.262	13.82
404.471	206.33
404.68	138.75
404.888	26.11
405.097	89.6
405.306	54.78
405.515	52.74
405.724	19.97
405.933	101.89
406.142	99.84
406.35	163.33
406.559	5.63
406.768	3.58
406.977	155.13
407.185	36.35
407.394	73.21
407.603	-84.48
407.812	105.98
408.02	196.09
408.229	-10.75
408.438	77.31
408.646	-29.18
408.855	50.69
409.064	81.41
409.272	13.82
409.481	175.61
409.69	-57.86
409.898	-123.39
410.107	67.07
410.315	108.03
410.524	-0.51
410.733	81.41
410.941	79.36
411.15	138.75
411.358	11.78
411.567	148.99
411.775	22.02
411.984	73.21
412.192	108.03
412.401	28.16
412.609	185.85
412.818	81.41
413.026	83.45
413.234	-33.28
413.443	99.84
413.651	5.63
413.86	-25.09
414.068	189.95
414.276	185.85
414.485	-8.7
414.693	196.09
414.901	138.75
415.11	83.45
415.318	75.26
415.526	19.97
415.734	206.33
415.943	81.41
416.151	175.61
416.359	71.17
416.567	71.17
416.776	110.08
416.984	81.41
417.192	169.47
417.4	32.26
417.608	67.07
417.817	-23.04
418.025	103.93
418.233	120.32
418.441	22.02
418.649	-43.52
418.857	75.26
419.065	132.61
419.273	17.92
419.481	36.35
419.689	-6.66
419.897	11.78
420.105	-16.9
420.313	99.84
420.521	179.71
420.729	144.89
420.937	9.73
421.145	7.68
421.353	103.93
421.561	81.41
421.769	71.17
421.977	40.45
422.185	128.51
422.393	28.16
422.601	75.26
422.809	62.98
423.017	93.69
423.224	34.3
423.432	93.69
423.64	93.69
423.848	138.75
424.056	38.4
424.263	155.13
424.471	58.88
424.679	163.33
424.887	7.68
425.094	169.47
425.302	87.55
425.51	34.3
425.718	153.09
425.925	85.5
426.133	-0.51
426.341	257.53
426.548	9.73
426.756	44.54
426.964	144.89
427.171	-2.56
427.379	87.55
427.586	112.13
427.794	69.12
428.001	71.17
428.209	56.83
428.417	148.99
428.624	128.51
428.832	71.17
429.039	99.84
429.247	134.65
429.454	157.18
429.662	185.85
429.869	95.74
430.076	97.79
430.284	126.46
430.491	181.76
430.699	163.33
430.906	245.24
431.114	120.32
431.321	275.96
431.528	91.65
431.736	144.89
431.943	214.52
432.15	202.24
432.358	173.57
432.565	292.35
432.772	-8.7
432.979	97.79
433.187	69.12
433.394	212.48
433.601	126.46
433.808	245.24
434.016	192
434.223	151.04
434.43	175.61
434.637	230.91
434.844	208.38
435.052	185.85
435.259	216.57
435.466	241.15
435.673	220.67
435.88	263.68
436.087	337.4
436.294	255.48
436.501	230.91
436.708	224.76
436.915	265.72
437.122	294.4
437.329	153.09
437.537	282.11
437.743	290.3
437.95	355.83
438.157	286.2
438.364	259.58
438.571	306.68
438.778	357.88
438.985	429.56
439.192	421.37
439.399	321.02
439.606	402.94
439.813	542.2
440.02	617.97
440.227	544.25
440.433	421.37
440.64	392.7
440.847	425.47
441.054	470.52
441.261	617.97
441.467	568.82
441.674	513.53
441.881	638.45
442.088	468.47
442.294	574.97
442.501	615.93
442.708	720.37
442.914	665.08
443.121	703.99
443.328	802.29
443.534	787.96
443.741	792.05
443.948	570.87
444.154	818.68
444.361	914.93
444.568	779.76
444.774	826.87
444.981	798.2
445.187	970.23
445.394	970.23
445.6	902.64
445.807	998.9
446.013	1017.33
446.22	996.85
446.426	1125.87
446.633	1265.13
446.839	1367.53
447.046	1158.64
447.252	1310.19
447.459	1336.81
447.665	1340.91
447.871	1502.7
448.078	1586.66
448.284	1545.7
448.491	1584.62
448.697	1689.06
448.903	1725.93
449.11	1867.24
449.316	1742.31
449.522	1832.42
449.728	2022.88
449.935	2090.46
450.141	2063.84
450.347	2266.59
450.553	2166.24
450.76	2149.86
450.966	2342.36
451.172	2461.15
451.378	2473.43
451.584	2520.54
451.791	2721.24
451.997	2782.68
452.203	2930.13
452.409	3005.91
452.615	3153.36
452.821	2954.71
453.027	2956.75
453.233	3429.84
453.44	3380.68
453.646	3468.75
453.852	3485.13
454.058	3808.71
454.264	3814.85
454.47	4142.53
454.676	4203.97
454.882	4691.38
455.088	4437.44
455.294	4687.29
455.5	4847.03
455.705	5186.99
455.911	5033.4
456.117	5371.31
456.323	5459.37
456.529	5524.91
456.735	6057.38
456.941	6260.13
457.147	6530.46
457.352	6686.11
457.558	6716.83
457.764	7148.95
457.97	7443.85
458.176	7767.43
458.381	8050.05
458.587	8310.15
458.793	8592.76
458.999	8551.81
459.204	9676.14
459.41	9930.09
459.616	9901.42
459.821	10356.07
460.027	10820.95
460.233	11341.14
460.438	11482.45
460.644	12096.84
460.85	12324.16
461.055	12465.47
461.261	13309.24
461.466	13026.62
461.672	13434.16
461.878	14980.38
462.083	14605.6
462.289	14947.61
462.494	15553.81
462.7	15605.01
462.905	15906.06
463.111	17208.57
463.316	17876.21
463.522	18337
463.727	18801.89
463.932	19436.76
464.138	20284.62
464.343	21669.05
464.549	21447.86
464.754	23209.12
464.959	23362.72
465.165	23960.72
465.37	23960.72
465.575	23553.18
465.781	25353.34
465.986	26031.22
466.191	25660.54
466.397	25644.15
466.602	25062.53
466.807	26760.3
467.012	27200.61
467.218	27618.39
467.423	27620.44
467.628	28800.07
467.833	29817.91
468.038	29314.11
468.244	28951.62
468.449	30436.4
468.654	29678.65
