Data from USB4F104151__35__10-24-37-639.txt Node

Date: Wed Feb 26 10:24:37 EST 2025
User: louis
Spectrometer: USB4F10415
Trigger mode: 4
Integration Time (sec): 1.000000E-1
Scans to average: 1
Electric dark correction enabled: true
Nonlinearity correction enabled: false
Boxcar width: 0
XAxis mode: Wavelengths
Number of Pixels in Spectrum: 3648
>>>>>Begin Spectral Data<<<<<
178.204	-404.3
178.424	-404.3
178.644	-404.3
178.864	-402.26
179.084	-437.07
179.304	60.59
179.524	3.24
179.744	54.44
179.964	-15.19
180.184	-54.1
180.404	-4.95
180.624	5.29
180.844	-17.24
181.064	-27.48
181.283	-25.43
181.503	-7
181.723	27.82
181.943	-95.06
182.163	222.38
182.383	-25.43
182.602	60.59
182.822	205.99
183.042	74.92
183.262	-72.53
183.482	21.67
183.701	72.87
183.921	62.63
184.141	-0.85
184.361	150.7
184.58	165.03
184.8	64.68
185.02	52.39
185.239	109.74
185.459	152.74
185.679	89.26
185.898	-52.05
186.118	31.91
186.338	64.68
186.557	146.6
186.777	13.48
186.997	60.59
187.216	33.96
187.436	185.51
187.655	83.11
187.875	70.83
188.095	87.21
188.314	230.57
188.534	103.59
188.753	-4.95
188.973	134.31
189.192	124.07
189.412	21.67
189.631	-54.1
189.851	68.78
190.07	117.93
190.29	-31.57
190.509	33.96
190.729	25.77
190.948	181.42
191.168	224.42
191.387	46.25
191.607	21.67
191.826	93.35
192.045	81.07
192.265	83.11
192.484	109.74
192.704	52.39
192.923	-47.96
193.142	208.04
193.362	165.03
193.581	156.84
193.8	93.35
194.02	109.74
194.239	150.7
194.458	99.5
194.678	-25.43
194.897	48.3
195.116	83.11
195.335	58.54
195.555	95.4
195.774	-23.38
195.993	93.35
196.212	130.22
196.432	-47.96
196.651	-37.72
196.87	-23.38
197.089	249
197.308	146.6
197.528	81.07
197.747	-17.24
197.966	70.83
198.185	107.69
198.404	-21.33
198.623	160.94
198.842	140.46
199.062	152.74
199.281	126.12
199.5	56.49
199.719	109.74
199.938	87.21
200.157	46.25
200.376	79.02
200.595	218.28
200.814	81.07
201.033	-19.29
201.252	220.33
201.471	99.5
201.69	48.3
201.909	89.26
202.128	46.25
202.347	76.97
202.566	46.25
202.785	-95.06
203.004	9.39
203.223	224.42
203.442	68.78
203.661	17.58
203.879	79.02
204.098	181.42
204.317	-39.76
204.536	54.44
204.755	62.63
204.974	158.89
205.193	23.72
205.411	95.4
205.63	171.18
205.849	83.11
206.068	54.44
206.287	-62.29
206.505	103.59
206.724	130.22
206.943	-56.15
207.162	-2.9
207.381	105.64
207.599	42.15
207.818	46.25
208.037	15.53
208.255	72.87
208.474	79.02
208.693	76.97
208.911	-76.63
209.13	103.59
209.349	81.07
209.567	148.65
209.786	87.21
210.005	85.16
210.223	42.15
210.442	-54.1
210.661	7.34
210.879	175.27
211.098	48.3
211.316	-7
211.535	81.07
211.753	113.83
211.972	99.5
212.191	-23.38
212.409	-2.9
212.628	50.35
212.846	48.3
213.065	99.5
213.283	76.97
213.502	64.68
213.72	105.64
213.938	72.87
214.157	97.45
214.375	91.31
214.594	9.39
214.812	130.22
215.031	74.92
215.249	113.83
215.467	58.54
215.686	81.07
215.904	42.15
216.122	42.15
216.341	240.81
216.559	64.68
216.778	50.35
216.996	124.07
217.214	48.3
217.432	25.77
217.651	-88.92
217.869	117.93
218.087	91.31
218.306	-29.52
218.524	52.39
218.742	23.72
218.96	70.83
219.179	-23.38
219.397	54.44
219.615	226.47
219.833	76.97
220.051	-68.44
220.27	142.5
220.488	156.84
220.706	87.21
220.924	-39.76
221.142	29.87
221.36	93.35
221.578	83.11
221.796	-13.14
222.015	15.53
222.233	107.69
222.451	122.02
222.669	-15.19
222.887	62.63
223.105	89.26
223.323	54.44
223.541	9.39
223.759	70.83
223.977	66.73
224.195	165.03
224.413	119.98
224.631	107.69
224.849	128.17
225.067	224.42
225.285	58.54
225.503	103.59
225.721	-109.4
225.939	72.87
226.157	13.48
226.375	203.94
226.592	15.53
226.81	103.59
227.028	150.7
227.246	81.07
227.464	142.5
227.682	54.44
227.9	33.96
228.117	74.92
228.335	113.83
228.553	66.73
228.771	93.35
228.989	58.54
229.206	103.59
229.424	68.78
229.642	-25.43
229.86	21.67
230.077	189.61
230.295	50.35
230.513	154.79
230.731	134.31
230.948	216.23
231.166	134.31
231.384	72.87
231.601	19.63
231.819	230.57
232.037	11.43
232.254	-31.57
232.472	83.11
232.689	7.34
232.907	54.44
233.125	-13.14
233.342	60.59
233.56	-39.76
233.777	132.26
233.995	62.63
234.213	103.59
234.43	117.93
234.648	48.3
234.865	44.2
235.083	74.92
235.3	33.96
235.518	13.48
235.735	224.42
235.953	85.16
236.17	76.97
236.388	85.16
236.605	132.26
236.822	93.35
237.04	152.74
237.257	113.83
237.475	7.34
237.692	101.55
237.909	126.12
238.127	62.63
238.344	111.78
238.562	134.31
238.779	-76.63
238.996	9.39
239.214	15.53
239.431	197.8
239.648	38.06
239.865	83.11
240.083	95.4
240.3	3.24
240.517	-7
240.735	54.44
240.952	175.27
241.169	33.96
241.386	70.83
241.603	103.59
241.821	33.96
242.038	64.68
242.255	189.61
242.472	-66.39
242.689	91.31
242.907	81.07
243.124	89.26
243.341	9.39
243.558	-82.77
243.775	1.19
243.992	-72.53
244.209	142.5
244.426	212.14
244.643	11.43
244.86	33.96
245.078	144.55
245.295	36.01
245.512	13.48
245.729	-23.38
245.946	74.92
246.163	64.68
246.38	-0.85
246.597	99.5
246.814	62.63
247.031	46.25
247.248	38.06
247.464	132.26
247.681	33.96
247.898	142.5
248.115	54.44
248.332	-64.34
248.549	152.74
248.766	201.9
248.983	138.41
249.2	58.54
249.417	105.64
249.633	11.43
249.85	48.3
250.067	101.55
250.284	85.16
250.501	126.12
250.717	46.25
250.934	-15.19
251.151	15.53
251.368	33.96
251.585	99.5
251.801	62.63
252.018	-7
252.235	83.11
252.451	-0.85
252.668	44.2
252.885	89.26
253.102	97.45
253.318	38.06
253.535	-0.85
253.752	27.82
253.968	7.34
254.185	-0.85
254.401	76.97
254.618	56.49
254.835	-33.62
255.051	177.32
255.268	62.63
255.484	74.92
255.701	89.26
255.917	107.69
256.134	23.72
256.351	62.63
256.567	-23.38
256.784	9.39
257	-60.24
257.217	107.69
257.433	150.7
257.65	19.63
257.866	156.84
258.082	17.58
258.299	-9.05
258.515	126.12
258.732	42.15
258.948	-2.9
259.165	-25.43
259.381	25.77
259.597	107.69
259.814	17.58
260.03	44.2
260.246	56.49
260.463	201.9
260.679	195.75
260.895	97.45
261.112	91.31
261.328	60.59
261.544	91.31
261.761	179.37
261.977	-27.48
262.193	-76.63
262.409	64.68
262.626	122.02
262.842	66.73
263.058	11.43
263.274	97.45
263.49	68.78
263.707	113.83
263.923	132.26
264.139	-33.62
264.355	31.91
264.571	85.16
264.787	119.98
265.004	140.46
265.22	85.16
265.436	-25.43
265.652	13.48
265.868	109.74
266.084	21.67
266.3	101.55
266.516	-29.52
266.732	113.83
266.948	54.44
267.164	31.91
267.38	119.98
267.596	119.98
267.812	158.89
268.028	56.49
268.244	5.29
268.46	19.63
268.676	25.77
268.892	68.78
269.108	76.97
269.324	-4.95
269.54	21.67
269.756	74.92
269.972	-0.85
270.188	117.93
270.403	-13.14
270.619	27.82
270.835	109.74
271.051	124.07
271.267	33.96
271.483	-9.05
271.698	136.36
271.914	126.12
272.13	72.87
272.346	13.48
272.562	25.77
272.777	193.7
272.993	31.91
273.209	25.77
273.425	95.4
273.64	-17.24
273.856	11.43
274.072	48.3
274.287	33.96
274.503	128.17
274.719	119.98
274.934	-27.48
275.15	-37.72
275.366	56.49
275.581	-11.09
275.797	-9.05
276.012	58.54
276.228	15.53
276.444	58.54
276.659	62.63
276.875	-84.82
277.09	-13.14
277.306	60.59
277.521	140.46
277.737	50.35
277.952	62.63
278.168	50.35
278.383	62.63
278.599	83.11
278.814	85.16
279.03	21.67
279.245	242.85
279.461	87.21
279.676	60.59
279.892	-41.81
280.107	17.58
280.322	1.19
280.538	44.2
280.753	40.11
280.969	76.97
281.184	64.68
281.399	197.8
281.615	5.29
281.83	68.78
282.045	33.96
282.26	-45.91
282.476	107.69
282.691	89.26
282.906	50.35
283.122	68.78
283.337	-23.38
283.552	148.65
283.767	25.77
283.983	70.83
284.198	42.15
284.413	158.89
284.628	-15.19
284.843	113.83
285.058	111.78
285.274	-64.34
285.489	91.31
285.704	201.9
285.919	62.63
286.134	-25.43
286.349	46.25
286.564	48.3
286.779	93.35
286.995	50.35
287.21	21.67
287.425	132.26
287.64	81.07
287.855	93.35
288.07	-78.68
288.285	42.15
288.5	144.55
288.715	3.24
288.93	70.83
289.145	-0.85
289.36	29.87
289.575	-25.43
289.79	97.45
290.004	93.35
290.219	136.36
290.434	52.39
290.649	66.73
290.864	64.68
291.079	50.35
291.294	83.11
291.509	99.5
291.724	27.82
291.938	-50
292.153	33.96
292.368	23.72
292.583	25.77
292.798	89.26
293.012	146.6
293.227	46.25
293.442	-58.2
293.657	113.83
293.871	124.07
294.086	91.31
294.301	195.75
294.516	165.03
294.73	60.59
294.945	-23.38
295.16	-11.09
295.374	158.89
295.589	203.94
295.804	29.87
296.018	15.53
296.233	167.08
296.447	130.22
296.662	-13.14
296.877	126.12
297.091	64.68
297.306	66.73
297.52	-41.81
297.735	36.01
297.949	83.11
298.164	132.26
298.378	99.5
298.593	-2.9
298.807	-23.38
299.022	60.59
299.236	193.7
299.451	52.39
299.665	-45.91
299.88	83.11
300.094	99.5
300.309	-11.09
300.523	76.97
300.737	17.58
300.952	167.08
301.166	38.06
301.381	46.25
301.595	44.2
301.809	97.45
302.024	-43.86
302.238	7.34
302.452	138.41
302.667	122.02
302.881	187.56
303.095	113.83
303.309	72.87
303.524	25.77
303.738	38.06
303.952	-50
304.166	103.59
304.381	-66.39
304.595	115.88
304.809	52.39
305.023	91.31
305.237	-29.52
305.452	134.31
305.666	132.26
305.88	181.42
306.094	132.26
306.308	87.21
306.522	173.22
306.736	70.83
306.95	111.78
307.164	17.58
307.379	1.19
307.593	128.17
307.807	144.55
308.021	103.59
308.235	101.55
308.449	-39.76
308.663	-17.24
308.877	246.95
309.091	107.69
309.305	87.21
309.519	-66.39
309.733	103.59
309.947	13.48
310.161	79.02
310.374	126.12
310.588	132.26
310.802	44.2
311.016	9.39
311.23	76.97
311.444	-52.05
311.658	50.35
311.872	97.45
312.085	177.32
312.299	109.74
312.513	169.13
312.727	128.17
312.941	31.91
313.154	54.44
313.368	74.92
313.582	60.59
313.796	60.59
314.009	72.87
314.223	62.63
314.437	54.44
314.651	165.03
314.864	13.48
315.078	44.2
315.292	-138.07
315.505	5.29
315.719	95.4
315.933	95.4
316.146	101.55
316.36	-15.19
316.573	115.88
316.787	134.31
317.001	76.97
317.214	33.96
317.428	113.83
317.641	17.58
317.855	33.96
318.068	36.01
318.282	76.97
318.495	148.65
318.709	93.35
318.922	21.67
319.136	214.18
319.349	76.97
319.563	40.11
319.776	208.04
319.99	48.3
320.203	156.84
320.417	-11.09
320.63	111.78
320.843	201.9
321.057	85.16
321.27	93.35
321.483	31.91
321.697	144.55
321.91	156.84
322.124	87.21
322.337	87.21
322.55	36.01
322.763	52.39
322.977	68.78
323.19	27.82
323.403	68.78
323.617	87.21
323.83	117.93
324.043	87.21
324.256	76.97
324.469	-7
324.683	74.92
324.896	-60.24
325.109	27.82
325.322	-72.53
325.535	165.03
325.748	148.65
325.962	52.39
326.175	13.48
326.388	97.45
326.601	113.83
326.814	64.68
327.027	115.88
327.24	154.79
327.453	-27.48
327.666	85.16
327.879	79.02
328.092	-2.9
328.305	79.02
328.518	7.34
328.731	5.29
328.944	87.21
329.157	115.88
329.37	74.92
329.583	212.14
329.796	214.18
330.009	-11.09
330.222	52.39
330.435	156.84
330.648	93.35
330.861	187.56
331.073	50.35
331.286	113.83
331.499	89.26
331.712	-21.33
331.925	-2.9
332.138	21.67
332.35	109.74
332.563	122.02
332.776	105.64
332.989	-88.92
333.202	70.83
333.414	87.21
333.627	101.55
333.84	-0.85
334.053	56.49
334.265	-31.57
334.478	21.67
334.691	66.73
334.903	70.83
335.116	-17.24
335.329	27.82
335.541	83.11
335.754	62.63
335.966	7.34
336.179	15.53
336.392	50.35
336.604	29.87
336.817	115.88
337.029	58.54
337.242	15.53
337.454	101.55
337.667	122.02
337.88	199.85
338.092	115.88
338.305	124.07
338.517	27.82
338.729	130.22
338.942	124.07
339.154	-0.85
339.367	9.39
339.579	68.78
339.792	-11.09
340.004	21.67
340.217	5.29
340.429	128.17
340.641	-31.57
340.854	66.73
341.066	33.96
341.278	171.18
341.491	126.12
341.703	23.72
341.915	-23.38
342.128	115.88
342.34	60.59
342.552	-0.85
342.764	13.48
342.977	36.01
343.189	117.93
343.401	38.06
343.613	-11.09
343.826	19.63
344.038	-43.86
344.25	31.91
344.462	54.44
344.674	3.24
344.886	-0.85
345.099	138.41
345.311	144.55
345.523	103.59
345.735	-76.63
345.947	29.87
346.159	31.91
346.371	85.16
346.583	64.68
346.795	267.43
347.007	-9.05
347.219	99.5
347.431	50.35
347.643	64.68
347.855	103.59
348.067	46.25
348.279	17.58
348.491	29.87
348.703	113.83
348.915	38.06
349.127	1.19
349.339	99.5
349.551	21.67
349.763	62.63
349.975	-7
350.187	138.41
350.399	158.89
350.61	46.25
350.822	13.48
351.034	19.63
351.246	70.83
351.458	124.07
351.669	136.36
351.881	95.4
352.093	113.83
352.305	66.73
352.517	79.02
352.728	187.56
352.94	23.72
353.152	107.69
353.363	48.3
353.575	119.98
353.787	165.03
353.999	113.83
354.21	191.66
354.422	-27.48
354.633	38.06
354.845	21.67
355.057	68.78
355.268	44.2
355.48	138.41
355.692	13.48
355.903	66.73
356.115	19.63
356.326	3.24
356.538	216.23
356.749	3.24
356.961	99.5
357.172	107.69
357.384	33.96
357.595	199.85
357.807	25.77
358.018	42.15
358.23	91.31
358.441	119.98
358.653	124.07
358.864	33.96
359.075	-39.76
359.287	113.83
359.498	107.69
359.709	130.22
359.921	21.67
360.132	5.29
360.344	46.25
360.555	33.96
360.766	142.5
360.977	-9.05
361.189	130.22
361.4	56.49
361.611	146.6
361.823	74.92
362.034	119.98
362.245	-58.2
362.456	5.29
362.667	105.64
362.879	7.34
363.09	5.29
363.301	156.84
363.512	115.88
363.723	-23.38
363.935	-37.72
364.146	46.25
364.357	33.96
364.568	97.45
364.779	-64.34
364.99	185.51
365.201	17.58
365.412	72.87
365.623	-109.4
365.834	132.26
366.045	85.16
366.256	97.45
366.467	87.21
366.678	54.44
366.889	107.69
367.1	-35.67
367.311	165.03
367.522	79.02
367.733	42.15
367.944	-9.05
368.155	-7
368.366	85.16
368.577	115.88
368.788	152.74
368.999	44.2
369.209	46.25
369.42	140.46
369.631	292.01
369.842	58.54
370.053	38.06
370.264	122.02
370.474	11.43
370.685	109.74
370.896	40.11
371.107	83.11
371.317	136.36
371.528	40.11
371.739	177.32
371.95	66.73
372.16	70.83
372.371	-31.57
372.582	-35.67
372.792	62.63
373.003	74.92
373.214	89.26
373.424	136.36
373.635	50.35
373.846	115.88
374.056	134.31
374.267	21.67
374.477	60.59
374.688	-19.29
374.898	33.96
375.109	36.01
375.319	70.83
375.53	138.41
375.74	70.83
375.951	44.2
376.161	23.72
376.372	138.41
376.582	46.25
376.793	142.5
377.003	-27.48
377.214	36.01
377.424	62.63
377.635	87.21
377.845	3.24
378.055	197.8
378.266	-7
378.476	56.49
378.686	48.3
378.897	128.17
379.107	95.4
379.317	122.02
379.528	15.53
379.738	136.36
379.948	21.67
380.158	79.02
380.369	87.21
380.579	89.26
380.789	68.78
380.999	181.42
381.21	81.07
381.42	208.04
381.63	72.87
381.84	99.5
382.05	85.16
382.261	97.45
382.471	162.98
382.681	76.97
382.891	197.8
383.101	64.68
383.311	23.72
383.521	-25.43
383.731	109.74
383.941	150.7
384.151	99.5
384.361	-7
384.571	97.45
384.781	87.21
384.991	228.52
385.201	240.81
385.411	146.6
385.621	115.88
385.831	105.64
386.041	60.59
386.251	74.92
386.461	122.02
386.671	3.24
386.881	50.35
387.091	15.53
387.301	119.98
387.511	83.11
387.72	152.74
387.93	111.78
388.14	-27.48
388.35	60.59
388.56	119.98
388.769	167.08
388.979	70.83
389.189	1.19
389.399	44.2
389.609	136.36
389.818	111.78
390.028	58.54
390.238	79.02
390.447	-23.38
390.657	42.15
390.867	-11.09
391.076	-43.86
391.286	52.39
391.496	74.92
391.705	9.39
391.915	165.03
392.125	3.24
392.334	-0.85
392.544	124.07
392.753	62.63
392.963	-2.9
393.172	29.87
393.382	-23.38
393.591	89.26
393.801	52.39
394.01	142.5
394.22	74.92
394.429	42.15
394.639	13.48
394.848	46.25
395.058	122.02
395.267	54.44
395.477	83.11
395.686	128.17
395.895	246.95
396.105	236.71
396.314	42.15
396.524	62.63
396.733	-19.29
396.942	160.94
397.152	115.88
397.361	210.09
397.57	140.46
397.78	1.19
397.989	111.78
398.198	269.48
398.407	58.54
398.617	31.91
398.826	48.3
399.035	29.87
399.244	122.02
399.453	31.91
399.663	101.55
399.872	103.59
400.081	-23.38
400.29	113.83
400.499	31.91
400.708	117.93
400.917	11.43
401.127	93.35
401.336	-4.95
401.545	205.99
401.754	138.41
401.963	68.78
402.172	42.15
402.381	-29.52
402.59	-17.24
402.799	60.59
403.008	91.31
403.217	142.5
403.426	72.87
403.635	-37.72
403.844	36.01
404.053	56.49
404.262	11.43
404.471	253.09
404.68	87.21
404.888	46.25
405.097	13.48
405.306	208.04
405.515	154.79
405.724	19.63
405.933	91.31
406.142	109.74
406.35	119.98
406.559	23.72
406.768	7.34
406.977	240.81
407.185	130.22
407.394	52.39
407.603	-33.62
407.812	62.63
408.02	117.93
408.229	97.45
408.438	103.59
408.646	-35.67
408.855	-27.48
409.064	91.31
409.272	25.77
409.481	136.36
409.69	36.01
409.898	-7
410.107	111.78
410.315	185.51
410.524	62.63
410.733	101.55
410.941	83.11
411.15	83.11
411.358	113.83
411.567	165.03
411.775	83.11
411.984	72.87
412.192	126.12
412.401	-56.15
412.609	220.33
412.818	132.26
413.026	193.7
413.234	33.96
413.443	111.78
413.651	-19.29
413.86	70.83
414.068	60.59
414.276	138.41
414.485	-19.29
414.693	144.55
414.901	162.98
415.11	173.22
415.318	62.63
415.526	68.78
415.734	95.4
415.943	-23.38
416.151	189.61
416.359	-7
416.567	81.07
416.776	79.02
416.984	128.17
417.192	156.84
417.4	-27.48
417.608	54.44
417.817	-43.86
418.025	179.37
418.233	173.22
418.441	-13.14
418.649	9.39
418.857	72.87
419.065	111.78
419.273	38.06
419.481	103.59
419.689	33.96
419.897	19.63
420.105	-7
420.313	146.6
420.521	119.98
420.729	111.78
420.937	-0.85
421.145	58.54
421.353	205.99
421.561	185.51
421.769	93.35
421.977	-2.9
422.185	87.21
422.393	46.25
422.601	93.35
422.809	146.6
423.017	46.25
423.224	91.31
423.432	181.42
423.64	13.48
423.848	111.78
424.056	19.63
424.263	130.22
424.471	52.39
424.679	165.03
424.887	-115.54
425.094	152.74
425.302	115.88
425.51	52.39
425.718	197.8
425.925	83.11
426.133	85.16
426.341	246.95
426.548	105.64
426.756	107.69
426.964	132.26
427.171	9.39
427.379	148.65
427.586	42.15
427.794	132.26
428.001	140.46
428.209	122.02
428.417	240.81
428.624	177.32
428.832	175.27
429.039	146.6
429.247	146.6
429.454	79.02
429.662	220.33
429.869	81.07
430.076	158.89
430.284	165.03
430.491	205.99
430.699	148.65
430.906	179.37
431.114	177.32
431.321	115.88
431.528	74.92
431.736	146.6
431.943	228.52
432.15	140.46
432.358	197.8
432.565	263.33
432.772	40.11
432.979	275.62
433.187	179.37
433.394	205.99
433.601	167.08
433.808	179.37
434.016	253.09
434.223	197.8
434.43	185.51
434.637	267.43
434.844	257.19
435.052	185.51
435.259	214.18
435.466	255.14
435.673	199.85
435.88	332.97
436.087	347.3
436.294	296.1
436.501	318.63
436.708	263.33
436.915	320.68
437.122	398.5
437.329	300.2
437.537	308.39
437.743	275.62
437.95	361.64
438.157	396.45
438.364	421.03
438.571	486.56
438.778	480.42
438.985	451.75
439.192	445.6
439.399	406.69
439.606	515.23
439.813	578.72
440.02	582.82
440.227	742.56
440.433	588.96
440.64	603.3
440.847	541.86
441.054	642.21
441.261	763.04
441.467	693.41
441.674	711.84
441.881	754.85
442.088	625.83
442.294	769.18
442.501	744.61
442.708	914.59
442.914	763.04
443.121	969.88
443.328	826.53
443.534	986.27
443.741	867.49
443.948	847.01
444.154	1051.8
444.361	1143.96
444.568	1023.13
444.774	1006.75
444.981	1033.37
445.187	1291.41
445.394	1254.55
445.6	1129.63
445.807	1385.62
446.013	1217.69
446.22	1305.75
446.426	1526.93
446.633	1385.62
446.839	1686.67
447.046	1481.88
447.252	1719.44
447.459	1666.19
447.665	1754.26
447.871	1832.08
448.078	1934.48
448.284	1877.13
448.491	2063.5
448.697	2102.41
448.903	2159.75
449.11	2116.75
449.316	2208.9
449.522	2319.5
449.728	2413.7
449.935	2503.81
450.141	2610.31
450.347	2806.91
450.553	2641.03
450.76	2862.21
450.966	2909.31
451.172	2952.32
451.378	3232.89
451.584	3163.26
451.791	3511.41
451.997	3396.73
452.203	3587.19
452.409	3822.7
452.615	4056.17
452.821	3710.07
453.027	3900.53
453.233	4498.53
453.44	4293.74
453.646	4504.68
453.852	4572.26
454.058	4840.54
454.264	4783.2
454.47	5225.56
454.676	5354.58
454.882	5811.28
455.088	5571.67
455.294	5842
455.5	6265.93
455.705	6546.5
455.911	6460.49
456.117	6851.65
456.323	7078.97
456.529	6913.09
456.735	7597.11
456.941	7746.61
457.147	8184.88
457.352	8389.67
457.558	8627.24
457.764	8959.01
457.97	9348.12
458.176	9620.5
458.381	10185.74
458.587	10413.07
458.793	10912.77
458.999	10812.42
459.204	12178.42
459.41	12350.45
459.616	12403.69
459.821	13269.98
460.027	13589.47
460.233	14408.65
460.438	14369.74
460.644	15320
460.85	15354.82
461.055	15997.88
461.261	16786.35
461.466	16276.4
461.672	16827.31
461.878	18561.94
462.083	18406.29
462.289	18688.91
462.494	19800.96
462.7	19745.66
462.905	20081.53
463.111	21459.81
463.316	22889.29
463.522	22870.86
463.727	23966.52
463.932	24922.93
464.138	25320.23
464.343	26594.07
464.549	26579.73
464.754	28662.52
464.959	29555.43
465.165	29754.08
465.37	29924.07
465.575	29631.21
465.781	31713.99
465.986	32934.58
466.191	32395.96
466.397	32547.51
466.602	31867.59
466.807	33663.66
467.012	34015.91
467.218	34704.03
467.423	34747.03
467.628	35803.78
467.833	37587.57
468.038	36594.3
468.244	36270.72
468.449	37948.01
