Data from USB4F104151__41__10-24-59-037.txt Node

Date: Wed Feb 26 10:24:59 EST 2025
User: louis
Spectrometer: USB4F10415
Trigger mode: 4
Integration Time (sec): 1.000000E-1
Scans to average: 1
Electric dark correction enabled: true
Nonlinearity correction enabled: false
Boxcar width: 0
XAxis mode: Wavelengths
Number of Pixels in Spectrum: 3648
>>>>>Begin Spectral Data<<<<<
178.204	-348.84
178.424	-348.84
178.644	-348.84
178.864	-357.03
179.084	-434.85
179.304	-31.4
179.524	-88.75
179.744	13.65
179.964	73.04
180.184	-10.92
180.404	116.05
180.624	-98.99
180.844	50.52
181.064	-86.7
181.283	64.85
181.503	-8.87
181.723	7.51
181.943	-58.03
182.163	273.75
182.383	-29.35
182.602	91.48
182.822	173.39
183.042	146.77
183.262	73.04
183.482	-19.11
183.701	40.28
183.921	91.48
184.141	21.84
184.361	150.87
184.58	77.14
184.8	144.72
185.02	-47.79
185.239	130.39
185.459	122.2
185.679	189.78
185.898	-15.02
186.118	23.89
186.338	38.23
186.557	175.44
186.777	-45.74
186.997	-51.88
187.216	19.8
187.436	202.07
187.655	109.91
187.875	159.06
188.095	103.76
188.314	114
188.534	193.87
188.753	-25.26
188.973	128.34
189.192	169.3
189.412	66.9
189.631	95.57
189.851	128.34
190.07	181.59
190.29	-41.64
190.509	50.52
190.729	99.67
190.948	157.01
191.168	306.51
191.387	60.76
191.607	21.84
191.826	83.28
192.045	148.82
192.265	11.61
192.484	1.37
192.704	75.09
192.923	54.61
193.142	124.24
193.362	58.71
193.581	109.91
193.8	114
194.02	189.78
194.239	54.61
194.458	42.32
194.678	1.37
194.897	83.28
195.116	114
195.335	89.43
195.555	97.62
195.774	21.84
195.993	122.2
196.212	52.56
196.432	38.23
196.651	-58.03
196.87	27.99
197.089	290.13
197.308	132.44
197.528	148.82
197.747	-0.68
197.966	107.86
198.185	101.72
198.404	19.8
198.623	93.52
198.842	202.07
199.062	122.2
199.281	187.73
199.5	5.46
199.719	114
199.938	71
200.157	87.38
200.376	122.2
200.595	171.35
200.814	50.52
201.033	38.23
201.252	197.97
201.471	89.43
201.69	111.96
201.909	62.8
202.128	85.33
202.347	138.58
202.566	85.33
202.785	1.37
203.004	-2.73
203.223	298.32
203.442	73.04
203.661	27.99
203.879	62.8
204.098	89.43
204.317	21.84
204.536	128.34
204.755	148.82
204.974	148.82
205.193	11.61
205.411	185.68
205.63	165.2
205.849	89.43
206.068	71
206.287	-29.35
206.505	134.48
206.724	46.42
206.943	30.04
207.162	11.61
207.381	71
207.599	38.23
207.818	87.38
208.037	-17.07
208.255	27.99
208.474	114
208.693	93.52
208.911	60.76
209.13	152.91
209.349	111.96
209.567	159.06
209.786	105.81
210.005	111.96
210.223	87.38
210.442	-111.27
210.661	27.99
210.879	97.62
211.098	38.23
211.316	107.86
211.535	134.48
211.753	103.76
211.972	38.23
212.191	66.9
212.409	44.37
212.628	83.28
212.846	1.37
213.065	64.85
213.283	154.96
213.502	30.04
213.72	73.04
213.938	91.48
214.157	77.14
214.375	122.2
214.594	-0.68
214.812	75.09
215.031	11.61
215.249	114
215.467	107.86
215.686	95.57
215.904	107.86
216.122	-43.69
216.341	157.01
216.559	122.2
216.778	152.91
216.996	152.91
217.214	38.23
217.432	-0.68
217.651	5.46
217.869	66.9
218.087	154.96
218.306	87.38
218.524	114
218.742	142.68
218.96	58.71
219.179	30.04
219.397	50.52
219.615	259.41
219.833	126.29
220.051	46.42
220.27	89.43
220.488	122.2
220.706	118.1
220.924	-6.83
221.142	19.8
221.36	101.72
221.578	66.9
221.796	73.04
222.015	60.76
222.233	105.81
222.451	91.48
222.669	13.65
222.887	163.15
223.105	17.75
223.323	75.09
223.541	40.28
223.759	83.28
223.977	116.05
224.195	148.82
224.413	122.2
224.631	60.76
224.849	83.28
225.067	259.41
225.285	-0.68
225.503	1.37
225.721	-55.98
225.939	91.48
226.157	73.04
226.375	236.88
226.592	50.52
226.81	-31.4
227.028	167.25
227.246	204.11
227.464	79.19
227.682	120.15
227.9	91.48
228.117	105.81
228.335	136.53
228.553	109.91
228.771	91.48
228.989	54.61
229.206	120.15
229.424	81.24
229.642	-21.16
229.86	-25.26
230.077	118.1
230.295	93.52
230.513	116.05
230.731	15.7
230.948	144.72
231.166	275.79
231.384	15.7
231.601	-43.69
231.819	208.21
232.037	62.8
232.254	-47.79
232.472	114
232.689	40.28
232.907	154.96
233.125	21.84
233.342	21.84
233.56	-23.21
233.777	60.76
233.995	48.47
234.213	177.49
234.43	79.19
234.648	83.28
234.865	93.52
235.083	42.32
235.3	105.81
235.518	91.48
235.735	122.2
235.953	124.24
236.17	7.51
236.388	68.95
236.605	54.61
236.822	136.53
237.04	118.1
237.257	118.1
237.475	11.61
237.692	120.15
237.909	138.58
238.127	93.52
238.344	157.01
238.562	83.28
238.779	27.99
238.996	-4.78
239.214	91.48
239.431	122.2
239.648	-68.27
239.865	87.38
240.083	38.23
240.3	3.41
240.517	-0.68
240.735	32.08
240.952	118.1
241.169	62.8
241.386	30.04
241.603	101.72
241.821	-21.16
242.038	195.92
242.255	71
242.472	13.65
242.689	126.29
242.907	60.76
243.124	103.76
243.341	9.56
243.558	58.71
243.775	58.71
243.992	-53.93
244.209	165.2
244.426	179.54
244.643	71
244.86	23.89
245.078	140.63
245.295	50.52
245.512	-35.5
245.729	50.52
245.946	148.82
246.163	118.1
246.38	30.04
246.597	32.08
246.814	101.72
247.031	128.34
247.248	101.72
247.464	64.85
247.681	93.52
247.898	73.04
248.115	157.01
248.332	-19.11
248.549	212.31
248.766	167.25
248.983	163.15
249.2	116.05
249.417	50.52
249.633	5.46
249.85	50.52
250.067	116.05
250.284	79.19
250.501	173.39
250.717	32.08
250.934	27.99
251.151	87.38
251.368	97.62
251.585	136.53
251.801	54.61
252.018	-31.4
252.235	152.91
252.451	46.42
252.668	34.13
252.885	130.39
253.102	87.38
253.318	23.89
253.535	85.33
253.752	58.71
253.968	3.41
254.185	34.13
254.401	46.42
254.618	109.91
254.835	46.42
255.051	169.3
255.268	200.02
255.484	105.81
255.701	27.99
255.917	95.57
256.134	-21.16
256.351	71
256.567	11.61
256.784	105.81
257	-37.55
257.217	206.16
257.433	150.87
257.65	95.57
257.866	140.63
258.082	21.84
258.299	-8.87
258.515	85.33
258.732	36.18
258.948	-31.4
259.165	30.04
259.381	54.61
259.597	105.81
259.814	21.84
260.03	32.08
260.246	101.72
260.463	142.68
260.679	169.3
260.895	5.46
261.112	99.67
261.328	128.34
261.544	27.99
261.761	177.49
261.977	34.13
262.193	3.41
262.409	111.96
262.626	99.67
262.842	3.41
263.058	-0.68
263.274	56.66
263.49	105.81
263.707	130.39
263.923	138.58
264.139	-19.11
264.355	52.56
264.571	157.01
264.787	66.9
265.004	189.78
265.22	42.32
265.436	3.41
265.652	3.41
265.868	75.09
266.084	15.7
266.3	30.04
266.516	1.37
266.732	138.58
266.948	101.72
267.164	60.76
267.38	200.02
267.596	58.71
267.812	152.91
268.028	68.95
268.244	42.32
268.46	130.39
268.676	42.32
268.892	75.09
269.108	-0.68
269.324	50.52
269.54	34.13
269.756	183.63
269.972	-35.5
270.188	118.1
270.403	-17.07
270.619	89.43
270.835	130.39
271.051	-43.69
271.267	-2.73
271.483	36.18
271.698	75.09
271.914	48.47
272.13	107.86
272.346	60.76
272.562	120.15
272.777	173.39
272.993	27.99
273.209	17.75
273.425	21.84
273.64	7.51
273.856	177.49
274.072	42.32
274.287	1.37
274.503	130.39
274.719	120.15
274.934	40.28
275.15	-31.4
275.366	52.56
275.581	-80.55
275.797	-23.21
276.012	27.99
276.228	30.04
276.444	75.09
276.659	140.63
276.875	9.56
277.09	27.99
277.306	111.96
277.521	165.2
277.737	38.23
277.952	75.09
278.168	56.66
278.383	36.18
278.599	42.32
278.814	126.29
279.03	95.57
279.245	138.58
279.461	91.48
279.676	167.25
279.892	-53.93
280.107	30.04
280.322	114
280.538	95.57
280.753	-35.5
280.969	58.71
281.184	56.66
281.399	58.71
281.615	71
281.83	95.57
282.045	75.09
282.26	-19.11
282.476	17.75
282.691	81.24
282.906	118.1
283.122	85.33
283.337	40.28
283.552	122.2
283.767	-2.73
283.983	111.96
284.198	44.37
284.413	107.86
284.628	-19.11
284.843	132.44
285.058	87.38
285.274	56.66
285.489	-39.59
285.704	95.57
285.919	89.43
286.134	64.85
286.349	105.81
286.564	91.48
286.779	202.07
286.995	56.66
287.21	34.13
287.425	60.76
287.64	-10.92
287.855	85.33
288.07	-35.5
288.285	163.15
288.5	134.48
288.715	122.2
288.93	75.09
289.145	-8.87
289.36	138.58
289.575	56.66
289.79	195.92
290.004	21.84
290.219	161.11
290.434	44.37
290.649	58.71
290.864	60.76
291.079	118.1
291.294	134.48
291.509	30.04
291.724	83.28
291.938	21.84
292.153	83.28
292.368	-25.26
292.583	91.48
292.798	60.76
293.012	58.71
293.227	83.28
293.442	-0.68
293.657	179.54
293.871	120.15
294.086	136.53
294.301	179.54
294.516	136.53
294.73	75.09
294.945	-17.07
295.16	60.76
295.374	132.44
295.589	116.05
295.804	25.94
296.018	21.84
296.233	130.39
296.447	46.42
296.662	99.67
296.877	171.35
297.091	144.72
297.306	111.96
297.52	42.32
297.735	91.48
297.949	91.48
298.164	50.52
298.378	75.09
298.593	25.94
298.807	-21.16
299.022	11.61
299.236	148.82
299.451	25.94
299.665	64.85
299.88	5.46
300.094	73.04
300.309	-4.78
300.523	81.24
300.737	56.66
300.952	68.95
301.166	101.72
301.381	50.52
301.595	3.41
301.809	50.52
302.024	30.04
302.238	93.52
302.452	267.6
302.667	79.19
302.881	60.76
303.095	73.04
303.309	114
303.524	62.8
303.738	79.19
303.952	11.61
304.166	87.38
304.381	-80.55
304.595	238.93
304.809	38.23
305.023	25.94
305.237	-33.45
305.452	64.85
305.666	120.15
305.88	34.13
306.094	91.48
306.308	87.38
306.522	99.67
306.736	66.9
306.95	66.9
307.164	36.18
307.379	1.37
307.593	208.21
307.807	179.54
308.021	99.67
308.235	128.34
308.449	-76.46
308.663	62.8
308.877	247.12
309.091	111.96
309.305	159.06
309.519	-41.64
309.733	189.78
309.947	17.75
310.161	81.24
310.374	118.1
310.588	134.48
310.802	-41.64
311.016	-31.4
311.23	97.62
311.444	25.94
311.658	95.57
311.872	85.33
312.085	218.45
312.299	275.79
312.513	165.2
312.727	114
312.941	42.32
313.154	152.91
313.368	46.42
313.582	66.9
313.796	30.04
314.009	32.08
314.223	120.15
314.437	-31.4
314.651	126.29
314.864	93.52
315.078	97.62
315.292	1.37
315.505	40.28
315.719	93.52
315.933	85.33
316.146	48.47
316.36	1.37
316.573	126.29
316.787	75.09
317.001	97.62
317.214	17.75
317.428	48.47
317.641	34.13
317.855	30.04
318.068	64.85
318.282	77.14
318.495	177.49
318.709	89.43
318.922	93.52
319.136	138.58
319.349	116.05
319.563	64.85
319.776	93.52
319.99	-51.88
320.203	206.16
320.417	89.43
320.63	134.48
320.843	247.12
321.057	73.04
321.27	13.65
321.483	109.91
321.697	181.59
321.91	62.8
322.124	154.96
322.337	-29.35
322.55	7.51
322.763	64.85
322.977	27.99
323.19	-2.73
323.403	62.8
323.617	71
323.83	93.52
324.043	27.99
324.256	58.71
324.469	-2.73
324.683	132.44
324.896	17.75
325.109	122.2
325.322	-19.11
325.535	238.93
325.748	163.15
325.962	71
326.175	103.76
326.388	101.72
326.601	109.91
326.814	83.28
327.027	126.29
327.24	142.68
327.453	-88.75
327.666	118.1
327.879	177.49
328.092	130.39
328.305	46.42
328.518	114
328.731	107.86
328.944	97.62
329.157	93.52
329.37	97.62
329.583	224.59
329.796	146.77
330.009	-25.26
330.222	230.74
330.435	167.25
330.648	17.75
330.861	93.52
331.073	27.99
331.286	60.76
331.499	75.09
331.712	3.41
331.925	91.48
332.138	58.71
332.35	130.39
332.563	46.42
332.776	157.01
332.989	46.42
333.202	7.51
333.414	62.8
333.627	42.32
333.84	1.37
334.053	42.32
334.265	13.65
334.478	34.13
334.691	46.42
334.903	5.46
335.116	-19.11
335.329	11.61
335.541	193.87
335.754	173.39
335.966	111.96
336.179	64.85
336.392	34.13
336.604	81.24
336.817	187.73
337.029	126.29
337.242	40.28
337.454	103.76
337.667	136.53
337.88	144.72
338.092	111.96
338.305	44.37
338.517	15.7
338.729	64.85
338.942	148.82
339.154	15.7
339.367	5.46
339.579	93.52
339.792	-23.21
340.004	118.1
340.217	-4.78
340.429	173.39
340.641	15.7
340.854	-31.4
341.066	7.51
341.278	122.2
341.491	200.02
341.703	25.94
341.915	50.52
342.128	122.2
342.34	25.94
342.552	-8.87
342.764	23.89
342.977	58.71
343.189	-15.02
343.401	77.14
343.613	-10.92
343.826	54.61
344.038	-74.41
344.25	116.05
344.462	-10.92
344.674	116.05
344.886	25.94
345.099	105.81
345.311	171.35
345.523	93.52
345.735	-2.73
345.947	56.66
346.159	34.13
346.371	99.67
346.583	-31.4
346.795	163.15
347.007	46.42
347.219	64.85
347.431	56.66
347.643	77.14
347.855	-8.87
348.067	152.91
348.279	-25.26
348.491	56.66
348.703	165.2
348.915	42.32
349.127	-19.11
349.339	30.04
349.551	34.13
349.763	154.96
349.975	60.76
350.187	197.97
350.399	148.82
350.61	52.56
350.822	-41.64
351.034	93.52
351.246	126.29
351.458	146.77
351.669	46.42
351.881	152.91
352.093	193.87
352.305	144.72
352.517	21.84
352.728	128.34
352.94	75.09
353.152	122.2
353.363	-12.97
353.575	140.63
353.787	202.07
353.999	71
354.21	218.45
354.422	54.61
354.633	17.75
354.845	44.37
355.057	116.05
355.268	36.18
355.48	111.96
355.692	-58.03
355.903	54.61
356.115	54.61
356.326	-37.55
356.538	181.59
356.749	36.18
356.961	171.35
357.172	87.38
357.384	-27.31
357.595	218.45
357.807	87.38
358.018	32.08
358.23	64.85
358.441	140.63
358.653	152.91
358.864	-15.02
359.075	3.41
359.287	148.82
359.498	140.63
359.709	148.82
359.921	60.76
360.132	85.33
360.344	122.2
360.555	-29.35
360.766	23.89
360.977	66.9
361.189	159.06
361.4	34.13
361.611	128.34
361.823	144.72
362.034	54.61
362.245	-47.79
362.456	-37.55
362.667	79.19
362.879	-49.83
363.09	173.39
363.301	161.11
363.512	87.38
363.723	-27.31
363.935	1.37
364.146	91.48
364.357	62.8
364.568	73.04
364.779	-10.92
364.99	249.17
365.201	52.56
365.412	222.55
365.623	9.56
365.834	48.47
366.045	83.28
366.256	163.15
366.467	118.1
366.678	27.99
366.889	126.29
367.1	-23.21
367.311	83.28
367.522	15.7
367.733	124.24
367.944	177.49
368.155	128.34
368.366	144.72
368.577	140.63
368.788	175.44
368.999	71
369.209	93.52
369.42	210.26
369.631	269.65
369.842	136.53
370.053	-47.79
370.264	122.2
370.474	13.65
370.685	114
370.896	15.7
371.107	175.44
371.317	73.04
371.528	68.95
371.739	103.76
371.95	44.37
372.16	50.52
372.371	42.32
372.582	87.38
372.792	93.52
373.003	23.89
373.214	128.34
373.424	114
373.635	-6.83
373.846	134.48
374.056	93.52
374.267	64.85
374.477	73.04
374.688	13.65
374.898	107.86
375.109	93.52
375.319	46.42
375.53	132.44
375.74	154.96
375.951	56.66
376.161	116.05
376.372	189.78
376.582	56.66
376.793	114
377.003	-0.68
377.214	32.08
377.424	97.62
377.635	85.33
377.845	-37.55
378.055	122.2
378.266	-0.68
378.476	124.24
378.686	85.33
378.897	134.48
379.107	169.3
379.317	83.28
379.528	134.48
379.738	183.63
379.948	3.41
380.158	150.87
380.369	85.33
380.579	107.86
380.789	91.48
380.999	75.09
381.21	142.68
381.42	214.35
381.63	134.48
381.84	163.15
382.05	144.72
382.261	109.91
382.471	126.29
382.681	-0.68
382.891	238.93
383.101	17.75
383.311	-21.16
383.521	-15.02
383.731	189.78
383.941	163.15
384.151	5.46
384.361	71
384.571	116.05
384.781	25.94
384.991	159.06
385.201	89.43
385.411	107.86
385.621	85.33
385.831	109.91
386.041	56.66
386.251	62.8
386.461	159.06
386.671	60.76
386.881	48.47
387.091	34.13
387.301	175.44
387.511	126.29
387.72	-2.73
387.93	175.44
388.14	38.23
388.35	50.52
388.56	150.87
388.769	167.25
388.979	83.28
389.189	-47.79
389.399	54.61
389.609	114
389.818	150.87
390.028	50.52
390.238	122.2
390.447	-15.02
390.657	148.82
390.867	118.1
391.076	1.37
391.286	46.42
391.496	103.76
391.705	30.04
391.915	54.61
392.125	128.34
392.334	11.61
392.544	122.2
392.753	144.72
392.963	-74.41
393.172	101.72
393.382	25.94
393.591	210.26
393.801	-19.11
394.01	200.02
394.22	93.52
394.429	25.94
394.639	71
394.848	81.24
395.058	87.38
395.267	91.48
395.477	107.86
395.686	40.28
395.895	191.83
396.105	191.83
396.314	81.24
396.524	42.32
396.733	32.08
396.942	148.82
397.152	126.29
397.361	79.19
397.57	42.32
397.78	77.14
397.989	66.9
398.198	240.98
398.407	38.23
398.617	64.85
398.826	23.89
399.035	163.15
399.244	140.63
399.453	13.65
399.663	73.04
399.872	99.67
400.081	68.95
400.29	73.04
400.499	-4.78
400.708	114
400.917	68.95
401.127	30.04
401.336	13.65
401.545	202.07
401.754	146.77
401.963	132.44
402.172	-27.31
402.381	-2.73
402.59	44.37
402.799	62.8
403.008	132.44
403.217	107.86
403.426	73.04
403.635	1.37
403.844	85.33
404.053	54.61
404.262	52.56
404.471	154.96
404.68	116.05
404.888	62.8
405.097	40.28
405.306	56.66
405.515	107.86
405.724	89.43
405.933	122.2
406.142	75.09
406.35	167.25
406.559	32.08
406.768	77.14
406.977	193.87
407.185	109.91
407.394	15.7
407.603	-64.17
407.812	85.33
408.02	165.2
408.229	120.15
408.438	144.72
408.646	21.84
408.855	83.28
409.064	132.44
409.272	44.37
409.481	144.72
409.69	38.23
409.898	71
410.107	71
410.315	159.06
410.524	9.56
410.733	116.05
410.941	27.99
411.15	116.05
411.358	150.87
411.567	187.73
411.775	81.24
411.984	83.28
412.192	103.76
412.401	-43.69
412.609	175.44
412.818	132.44
413.026	52.56
413.234	-6.83
413.443	52.56
413.651	58.71
413.86	9.56
414.068	130.39
414.276	187.73
414.485	23.89
414.693	144.72
414.901	165.2
415.11	97.62
415.318	54.61
415.526	99.67
415.734	132.44
415.943	124.24
416.151	236.88
416.359	15.7
416.567	116.05
416.776	71
416.984	73.04
417.192	210.26
417.4	58.71
417.608	81.24
417.817	-19.11
418.025	167.25
418.233	220.5
418.441	83.28
418.649	15.7
418.857	93.52
419.065	124.24
419.273	-15.02
419.481	79.19
419.689	40.28
419.897	23.89
420.105	-15.02
420.313	114
420.521	114
420.729	163.15
420.937	91.48
421.145	13.65
421.353	79.19
421.561	187.73
421.769	15.7
421.977	73.04
422.185	122.2
422.393	32.08
422.601	173.39
422.809	111.96
423.017	163.15
423.224	101.72
423.432	173.39
423.64	-70.31
423.848	144.72
424.056	-2.73
424.263	148.82
424.471	48.47
424.679	191.83
424.887	97.62
425.094	138.58
425.302	93.52
425.51	38.23
425.718	120.15
425.925	30.04
426.133	54.61
426.341	150.87
426.548	40.28
426.756	36.18
426.964	128.34
427.171	87.38
427.379	89.43
427.586	122.2
427.794	132.44
428.001	109.91
428.209	138.58
428.417	132.44
428.624	148.82
428.832	50.52
429.039	144.72
429.247	85.33
429.454	124.24
429.662	220.5
429.869	103.76
430.076	152.91
430.284	130.39
430.491	255.31
430.699	111.96
430.906	154.96
431.114	171.35
431.321	85.33
431.528	144.72
431.736	105.81
431.943	99.67
432.15	197.97
432.358	214.35
432.565	257.36
432.772	-31.4
432.979	148.82
433.187	154.96
433.394	314.7
433.601	99.67
433.808	253.27
434.016	286.03
434.223	208.21
434.43	200.02
434.637	290.13
434.844	257.36
435.052	185.68
435.259	251.22
435.466	257.36
435.673	253.27
435.88	277.84
436.087	263.51
436.294	314.7
436.501	312.66
436.708	224.59
436.915	267.6
437.122	361.81
437.329	167.25
437.537	286.03
437.743	214.35
437.95	429.39
438.157	320.85
438.364	329.04
438.571	326.99
438.778	324.94
438.985	427.34
439.192	451.92
439.399	408.91
439.606	441.68
439.813	494.93
440.02	437.58
440.227	560.46
440.433	531.79
440.64	480.59
440.847	423.25
441.054	423.25
441.261	626
441.467	599.37
441.674	511.31
441.881	703.82
442.088	458.06
442.294	595.28
442.501	699.72
442.708	703.82
442.914	630.09
443.121	761.16
443.328	673.1
443.534	800.07
443.741	763.21
443.948	660.81
444.154	740.68
444.361	1004.87
444.568	900.42
444.774	857.42
444.981	853.32
445.187	951.62
445.394	886.09
445.6	859.46
445.807	1015.11
446.013	1082.69
446.22	1045.83
446.426	1080.64
446.633	1135.94
446.839	1269.06
447.046	1187.14
447.252	1289.54
447.459	1312.07
447.665	1387.84
447.871	1586.49
448.078	1611.07
448.284	1533.25
448.491	1627.45
448.697	1715.52
448.903	1719.61
449.11	1715.52
449.316	1744.19
449.522	2008.37
449.728	2037.05
449.935	1936.7
450.141	2086.2
450.347	2225.46
450.553	2149.68
450.76	2215.22
450.966	2336.05
451.172	2508.08
451.378	2503.98
451.584	2544.94
451.791	2800.94
451.997	2768.17
452.203	2800.94
452.409	2989.35
452.615	3167.52
452.821	3140.9
453.027	2993.45
453.233	3622.17
453.44	3310.88
453.646	3677.47
453.852	3851.55
454.058	3734.81
454.264	3874.07
454.47	4273.43
454.676	4236.56
454.882	4705.55
455.088	4416.79
455.294	4611.34
455.5	4990.22
455.705	5147.91
455.911	5297.41
456.117	5467.39
456.323	5629.18
456.529	5674.24
456.735	6155.51
456.941	6235.38
457.147	6417.65
457.352	6694.13
457.558	6675.7
457.764	7425.25
457.97	7404.77
458.176	7537.89
458.381	8103.13
458.587	8408.28
458.793	8631.51
458.999	8617.17
459.204	9546.95
459.41	9942.21
459.616	9895.1
459.821	10359.99
460.027	11041.96
460.233	11240.62
460.438	11486.37
460.644	11994.27
460.85	12299.42
461.055	12504.21
461.261	13206.67
461.466	13079.69
461.672	13513.86
461.878	14916.72
462.083	14597.24
462.289	15080.56
462.494	15662.18
462.7	15752.29
462.905	15977.57
463.111	17146.96
463.316	18064.45
463.522	18285.63
463.727	19051.57
463.932	19729.45
464.138	20247.58
464.343	21193.75
464.549	21128.21
464.754	23014.39
464.959	23618.54
465.165	23917.54
465.37	23849.96
465.575	23872.49
465.781	25150.42
465.986	25899.98
466.191	25717.71
466.397	25693.13
466.602	25287.64
466.807	26915.77
467.012	27143.1
467.218	27798.45
467.423	27704.24
467.628	28611.49
467.833	29686.67
468.038	29115.29
468.244	28744.61
468.449	30163.85
468.654	29686.67
468.859	29598.61
