Data from USB4F104151__72__11-31-02-363.txt Node

Date: Wed Feb 26 11:31:02 EST 2025
User: louis
Spectrometer: USB4F10415
Trigger mode: 4
Integration Time (sec): 1.000000E-1
Scans to average: 1
Electric dark correction enabled: true
Nonlinearity correction enabled: false
Boxcar width: 0
XAxis mode: Wavelengths
Number of Pixels in Spectrum: 3648
>>>>>Begin Spectral Data<<<<<
178.204	-353.45
178.424	-353.45
178.644	-353.45
178.864	-406.69
179.084	-369.83
179.304	58.2
179.524	-70.83
179.744	-11.43
179.964	17.24
180.184	103.25
180.404	54.1
180.624	-15.53
180.844	-40.11
181.064	-40.11
181.283	31.57
181.503	-109.74
181.723	23.38
181.943	-167.08
182.163	238.42
182.383	11.09
182.602	43.86
182.822	197.46
183.042	174.93
183.262	-38.06
183.482	111.44
183.701	66.39
183.921	64.34
184.141	-60.59
184.361	-5.29
184.58	33.62
184.8	66.39
185.02	78.68
185.239	136.02
185.459	33.62
185.679	82.77
185.898	-66.73
186.118	58.2
186.338	52.05
186.557	97.11
186.777	-7.34
186.997	31.57
187.216	45.91
187.436	197.46
187.655	56.15
187.875	90.96
188.095	86.87
188.314	123.73
188.534	203.6
188.753	-70.83
188.973	127.83
189.192	211.79
189.412	39.76
189.631	50
189.851	113.49
190.07	64.34
190.29	-15.53
190.509	82.77
190.729	76.63
190.948	111.44
191.168	230.23
191.387	197.46
191.607	72.53
191.826	105.3
192.045	2.9
192.265	-33.96
192.484	78.68
192.704	-19.63
192.923	-21.67
193.142	179.03
193.362	195.41
193.581	181.07
193.8	136.02
194.02	185.17
194.239	74.58
194.458	13.14
194.678	52.05
194.897	11.09
195.116	117.59
195.335	45.91
195.555	37.72
195.774	13.14
195.993	127.83
196.212	-1.19
196.432	41.81
196.651	52.05
196.87	31.57
197.089	213.84
197.308	150.36
197.528	107.35
197.747	-38.06
197.966	47.96
198.185	207.7
198.404	-17.58
198.623	131.92
198.842	123.73
199.062	119.64
199.281	95.06
199.5	50
199.719	148.31
199.938	152.4
200.157	111.44
200.376	50
200.595	39.76
200.814	29.52
201.033	-27.82
201.252	224.08
201.471	140.12
201.69	70.48
201.909	88.92
202.128	103.25
202.347	148.31
202.566	121.68
202.785	-33.96
203.004	70.48
203.223	195.41
203.442	33.62
203.661	-23.72
203.879	117.59
204.098	152.4
204.317	-46.25
204.536	133.97
204.755	64.34
204.974	121.68
205.193	37.72
205.411	211.79
205.63	74.58
205.849	76.63
206.068	39.76
206.287	-17.58
206.505	174.93
206.724	52.05
206.943	82.77
207.162	90.96
207.381	234.32
207.599	142.16
207.818	-9.39
208.037	-52.39
208.255	35.67
208.474	140.12
208.693	50
208.911	54.1
209.13	121.68
209.349	111.44
209.567	150.36
209.786	97.11
210.005	93.01
210.223	93.01
210.442	-36.01
210.661	-33.96
210.879	50
211.098	-21.67
211.316	119.64
211.535	148.31
211.753	17.24
211.972	68.44
212.191	9.05
212.409	27.48
212.628	197.46
212.846	47.96
213.065	17.24
213.283	80.72
213.502	27.48
213.72	64.34
213.938	37.72
214.157	-17.58
214.375	97.11
214.594	-66.73
214.812	74.58
215.031	50
215.249	68.44
215.467	107.35
215.686	88.92
215.904	95.06
216.122	29.52
216.341	172.88
216.559	4.95
216.778	68.44
216.996	105.3
217.214	-15.53
217.432	62.29
217.651	50
217.869	86.87
218.087	174.93
218.306	-27.82
218.524	72.53
218.742	17.24
218.96	90.96
219.179	52.05
219.397	-62.63
219.615	324.43
219.833	82.77
220.051	4.95
220.27	115.54
220.488	121.68
220.706	50
220.924	19.29
221.142	41.81
221.36	84.82
221.578	41.81
221.796	68.44
222.015	64.34
222.233	86.87
222.451	160.59
222.669	-62.63
222.887	111.44
223.105	21.33
223.323	88.92
223.541	-25.77
223.759	78.68
223.977	115.54
224.195	248.66
224.413	78.68
224.631	76.63
224.849	107.35
225.067	201.55
225.285	15.19
225.503	-15.53
225.721	-128.17
225.939	76.63
226.157	54.1
226.375	250.71
226.592	37.72
226.81	-38.06
227.028	54.1
227.246	148.31
227.464	90.96
227.682	115.54
227.9	121.68
228.117	111.44
228.335	47.96
228.553	-7.34
228.771	74.58
228.989	70.48
229.206	64.34
229.424	25.43
229.642	-42.15
229.86	31.57
230.077	140.12
230.295	47.96
230.513	123.73
230.731	115.54
230.948	181.07
231.166	172.88
231.384	-7.34
231.601	-7.34
231.819	166.74
232.037	-95.4
232.254	-122.02
232.472	11.09
232.689	23.38
232.907	99.16
233.125	37.72
233.342	-52.39
233.56	72.53
233.777	-15.53
233.995	86.87
234.213	68.44
234.43	56.15
234.648	76.63
234.865	-76.97
235.083	123.73
235.3	90.96
235.518	101.2
235.735	58.2
235.953	86.87
236.17	78.68
236.388	19.29
236.605	78.68
236.822	76.63
237.04	174.93
237.257	27.48
237.475	13.14
237.692	72.53
237.909	109.4
238.127	-5.29
238.344	133.97
238.562	88.92
238.779	31.57
238.996	-40.11
239.214	-3.24
239.431	52.05
239.648	107.35
239.865	146.26
240.083	119.64
240.3	66.39
240.517	58.2
240.735	56.15
240.952	144.21
241.169	140.12
241.386	90.96
241.603	2.9
241.821	-25.77
242.038	140.12
242.255	129.88
242.472	13.14
242.689	52.05
242.907	90.96
243.124	97.11
243.341	23.38
243.558	54.1
243.775	-9.39
243.992	31.57
244.209	72.53
244.426	226.13
244.643	172.88
244.86	27.48
245.078	115.54
245.295	66.39
245.512	121.68
245.729	80.72
245.946	84.82
246.163	-15.53
246.38	58.2
246.597	35.67
246.814	95.06
247.031	113.49
247.248	56.15
247.464	78.68
247.681	88.92
247.898	37.72
248.115	72.53
248.332	-13.48
248.549	129.88
248.766	86.87
248.983	172.88
249.2	70.48
249.417	158.55
249.633	50
249.85	93.01
250.067	58.2
250.284	78.68
250.501	74.58
250.717	78.68
250.934	54.1
251.151	-3.24
251.368	21.33
251.585	29.52
251.801	70.48
252.018	-85.16
252.235	129.88
252.451	-21.67
252.668	11.09
252.885	146.26
253.102	133.97
253.318	4.95
253.535	60.24
253.752	-19.63
253.968	-23.72
254.185	-76.97
254.401	45.91
254.618	72.53
254.835	-44.2
255.051	201.55
255.268	11.09
255.484	64.34
255.701	35.67
255.917	150.36
256.134	-72.87
256.351	31.57
256.567	-68.78
256.784	66.39
257	-40.11
257.217	166.74
257.433	125.78
257.65	52.05
257.866	209.75
258.082	-42.15
258.299	66.39
258.515	4.95
258.732	-21.67
258.948	4.95
259.165	31.57
259.381	-9.39
259.597	111.44
259.814	23.38
260.03	-11.43
260.246	43.86
260.463	27.48
260.679	90.96
260.895	74.58
261.112	66.39
261.328	21.33
261.544	41.81
261.761	138.07
261.977	-56.49
262.193	-66.73
262.409	170.83
262.626	99.16
262.842	29.52
263.058	-21.67
263.274	-1.19
263.49	-54.44
263.707	146.26
263.923	121.68
264.139	-64.68
264.355	54.1
264.571	117.59
264.787	172.88
265.004	224.08
265.22	66.39
265.436	13.14
265.652	93.01
265.868	66.39
266.084	17.24
266.3	84.82
266.516	-70.83
266.732	95.06
266.948	9.05
267.164	-29.87
267.38	111.44
267.596	11.09
267.812	88.92
268.028	117.59
268.244	52.05
268.46	84.82
268.676	-7.34
268.892	56.15
269.108	76.63
269.324	-29.87
269.54	-1.19
269.756	131.92
269.972	-138.41
270.188	80.72
270.403	21.33
270.619	-13.48
270.835	129.88
271.051	45.91
271.267	4.95
271.483	-21.67
271.698	54.1
271.914	84.82
272.13	-17.58
272.346	31.57
272.562	21.33
272.777	160.59
272.993	33.62
273.209	9.05
273.425	60.24
273.64	-40.11
273.856	60.24
274.072	-29.87
274.287	13.14
274.503	64.34
274.719	19.29
274.934	7
275.15	-115.88
275.366	-7.34
275.581	-3.24
275.797	13.14
276.012	158.55
276.228	33.62
276.444	25.43
276.659	162.64
276.875	27.48
277.09	39.76
277.306	54.1
277.521	17.24
277.737	52.05
277.952	150.36
278.168	45.91
278.383	41.81
278.599	97.11
278.814	113.49
279.03	31.57
279.245	162.64
279.461	68.44
279.676	78.68
279.892	-89.26
280.107	-15.53
280.322	-1.19
280.538	56.15
280.753	54.1
280.969	64.34
281.184	76.63
281.399	82.77
281.615	72.53
281.83	115.54
282.045	-36.01
282.26	-31.91
282.476	-36.01
282.691	127.83
282.906	13.14
283.122	50
283.337	-15.53
283.552	107.35
283.767	-33.96
283.983	90.96
284.198	101.2
284.413	84.82
284.628	-13.48
284.843	13.14
285.058	58.2
285.274	86.87
285.489	13.14
285.704	226.13
285.919	-27.82
286.134	117.59
286.349	131.92
286.564	-11.43
286.779	111.44
286.995	72.53
287.21	-3.24
287.425	176.98
287.64	-15.53
287.855	2.9
288.07	-23.72
288.285	66.39
288.5	152.4
288.715	111.44
288.93	13.14
289.145	2.9
289.36	93.01
289.575	35.67
289.79	187.22
290.004	-7.34
290.219	160.59
290.434	107.35
290.649	19.29
290.864	74.58
291.079	-3.24
291.294	86.87
291.509	66.39
291.724	19.29
291.938	86.87
292.153	64.34
292.368	68.44
292.583	45.91
292.798	88.92
293.012	90.96
293.227	70.48
293.442	2.9
293.657	66.39
293.871	138.07
294.086	146.26
294.301	183.12
294.516	211.79
294.73	107.35
294.945	21.33
295.16	9.05
295.374	154.45
295.589	66.39
295.804	-3.24
296.018	41.81
296.233	117.59
296.447	45.91
296.662	95.06
296.877	99.16
297.091	113.49
297.306	68.44
297.52	54.1
297.735	74.58
297.949	45.91
298.164	9.05
298.378	105.3
298.593	-15.53
298.807	33.62
299.022	37.72
299.236	72.53
299.451	88.92
299.665	11.09
299.88	21.33
300.094	76.63
300.309	-1.19
300.523	15.19
300.737	41.81
300.952	95.06
301.166	84.82
301.381	-27.82
301.595	13.14
301.809	54.1
302.024	56.15
302.238	27.48
302.452	72.53
302.667	47.96
302.881	162.64
303.095	172.88
303.309	72.53
303.524	7
303.738	-7.34
303.952	-42.15
304.166	133.97
304.381	-109.74
304.595	82.77
304.809	-17.58
305.023	113.49
305.237	56.15
305.452	13.14
305.666	84.82
305.88	88.92
306.094	125.78
306.308	86.87
306.522	74.58
306.736	39.76
306.95	115.54
307.164	62.29
307.379	-23.72
307.593	162.64
307.807	99.16
308.021	52.05
308.235	109.4
308.449	-56.49
308.663	72.53
308.877	185.17
309.091	90.96
309.305	56.15
309.519	-119.98
309.733	113.49
309.947	0.85
310.161	9.05
310.374	144.21
310.588	185.17
310.802	-31.91
311.016	33.62
311.23	107.35
311.444	7
311.658	97.11
311.872	101.2
312.085	152.4
312.299	162.64
312.513	109.4
312.727	15.19
312.941	-1.19
313.154	76.63
313.368	78.68
313.582	74.58
313.796	103.25
314.009	84.82
314.223	162.64
314.437	88.92
314.651	119.64
314.864	21.33
315.078	11.09
315.292	-60.59
315.505	74.58
315.719	107.35
315.933	105.3
316.146	-3.24
316.36	7
316.573	125.78
316.787	179.03
317.001	68.44
317.214	9.05
317.428	80.72
317.641	15.19
317.855	64.34
318.068	0.85
318.282	50
318.495	226.13
318.709	105.3
318.922	11.09
319.136	185.17
319.349	111.44
319.563	13.14
319.776	119.64
319.99	4.95
320.203	142.16
320.417	-13.48
320.63	76.63
320.843	164.69
321.057	56.15
321.27	27.48
321.483	97.11
321.697	148.31
321.91	74.58
322.124	0.85
322.337	68.44
322.55	60.24
322.763	41.81
322.977	88.92
323.19	-1.19
323.403	35.67
323.617	127.83
323.83	152.4
324.043	107.35
324.256	72.53
324.469	-7.34
324.683	156.5
324.896	-9.39
325.109	19.29
325.322	-46.25
325.535	123.73
325.748	117.59
325.962	13.14
326.175	68.44
326.388	95.06
326.601	111.44
326.814	84.82
327.027	70.48
327.24	129.88
327.453	-113.83
327.666	47.96
327.879	150.36
328.092	58.2
328.305	82.77
328.518	76.63
328.731	19.29
328.944	-40.11
329.157	101.2
329.37	41.81
329.583	199.51
329.796	156.5
330.009	33.62
330.222	68.44
330.435	50
330.648	19.29
330.861	105.3
331.073	0.85
331.286	148.31
331.499	-13.48
331.712	35.67
331.925	-44.2
332.138	31.57
332.35	160.59
332.563	29.52
332.776	176.98
332.989	35.67
333.202	50
333.414	88.92
333.627	25.43
333.84	-33.96
334.053	33.62
334.265	21.33
334.478	109.4
334.691	-21.67
334.903	23.38
335.116	19.29
335.329	35.67
335.541	58.2
335.754	68.44
335.966	117.59
336.179	27.48
336.392	-62.63
336.604	9.05
336.817	43.86
337.029	99.16
337.242	62.29
337.454	74.58
337.667	54.1
337.88	176.98
338.092	95.06
338.305	117.59
338.517	-25.77
338.729	160.59
338.942	142.16
339.154	-40.11
339.367	-83.11
339.579	76.63
339.792	-44.2
340.004	99.16
340.217	0.85
340.429	-11.43
340.641	-9.39
340.854	-40.11
341.066	56.15
341.278	50
341.491	158.55
341.703	93.01
341.915	-48.3
342.128	88.92
342.34	47.96
342.552	-46.25
342.764	99.16
342.977	86.87
343.189	7
343.401	-44.2
343.613	-9.39
343.826	50
344.038	23.38
344.25	70.48
344.462	-48.3
344.674	140.12
344.886	95.06
345.099	115.54
345.311	82.77
345.523	2.9
345.735	-99.5
345.947	117.59
346.159	37.72
346.371	21.33
346.583	15.19
346.795	193.36
347.007	72.53
347.219	78.68
347.431	70.48
347.643	217.94
347.855	-50.35
348.067	187.22
348.279	-13.48
348.491	37.72
348.703	133.97
348.915	2.9
349.127	-19.63
349.339	13.14
349.551	-68.78
349.763	70.48
349.975	82.77
350.187	189.27
350.399	115.54
350.61	136.02
350.822	-13.48
351.034	86.87
351.246	78.68
351.458	93.01
351.669	144.21
351.881	101.2
352.093	138.07
352.305	129.88
352.517	146.26
352.728	66.39
352.94	27.48
353.152	82.77
353.363	17.24
353.575	72.53
353.787	213.84
353.999	140.12
354.21	133.97
354.422	-31.91
354.633	58.2
354.845	-33.96
355.057	127.83
355.268	115.54
355.48	105.3
355.692	21.33
355.903	17.24
356.115	-58.54
356.326	-52.39
356.538	136.02
356.749	138.07
356.961	238.42
357.172	35.67
357.384	-21.67
357.595	207.7
357.807	-15.53
358.018	27.48
358.23	47.96
358.441	203.6
358.653	82.77
358.864	58.2
359.075	50
359.287	84.82
359.498	58.2
359.709	125.78
359.921	23.38
360.132	99.16
360.344	-11.43
360.555	35.67
360.766	113.49
360.977	23.38
361.189	39.76
361.4	-1.19
361.611	76.63
361.823	45.91
362.034	58.2
362.245	-50.35
362.456	95.06
362.667	78.68
362.879	-50.35
363.09	86.87
363.301	74.58
363.512	82.77
363.723	13.14
363.935	19.29
364.146	156.5
364.357	58.2
364.568	-44.2
364.779	19.29
364.99	170.83
365.201	35.67
365.412	187.22
365.623	-15.53
365.834	90.96
366.045	62.29
366.256	113.49
366.467	52.05
366.678	35.67
366.889	72.53
367.1	93.01
367.311	164.69
367.522	9.05
367.733	58.2
367.944	97.11
368.155	31.57
368.366	133.97
368.577	68.44
368.788	97.11
368.999	70.48
369.209	76.63
369.42	248.66
369.631	215.89
369.842	50
370.053	0.85
370.264	154.45
370.474	-23.72
370.685	21.33
370.896	56.15
371.107	93.01
371.317	50
371.528	88.92
371.739	203.6
371.95	82.77
372.16	117.59
372.371	-50.35
372.582	-89.26
372.792	133.97
373.003	88.92
373.214	50
373.424	111.44
373.635	-40.11
373.846	195.41
374.056	70.48
374.267	88.92
374.477	115.54
374.688	93.01
374.898	74.58
375.109	17.24
375.319	115.54
375.53	56.15
375.74	101.2
375.951	17.24
376.161	-27.82
376.372	123.73
376.582	23.38
376.793	88.92
377.003	2.9
377.214	33.62
377.424	166.74
377.635	86.87
377.845	41.81
378.055	138.07
378.266	-21.67
378.476	47.96
378.686	80.72
378.897	52.05
379.107	37.72
379.317	105.3
379.528	33.62
379.738	90.96
379.948	-48.3
380.158	99.16
380.369	43.86
380.579	84.82
380.789	-25.77
380.999	90.96
381.21	146.26
381.42	162.64
381.63	117.59
381.84	179.03
382.05	66.39
382.261	205.65
382.471	189.27
382.681	-54.44
382.891	201.55
383.101	70.48
383.311	15.19
383.521	50
383.731	156.5
383.941	109.4
384.151	60.24
384.361	31.57
384.571	74.58
384.781	95.06
384.991	158.55
385.201	162.64
385.411	103.25
385.621	146.26
385.831	105.3
386.041	66.39
386.251	2.9
386.461	101.2
386.671	54.1
386.881	76.63
387.091	-27.82
387.301	138.07
387.511	121.68
387.72	101.2
387.93	82.77
388.14	-70.83
388.35	-13.48
388.56	162.64
388.769	136.02
388.979	13.14
389.189	86.87
389.399	58.2
389.609	70.48
389.818	99.16
390.028	95.06
390.238	203.6
390.447	39.76
390.657	-23.72
390.867	37.72
391.076	-7.34
391.286	164.69
391.496	47.96
391.705	56.15
391.915	76.63
392.125	181.07
392.334	-44.2
392.544	222.03
392.753	25.43
392.963	-66.73
393.172	66.39
393.382	-19.63
393.591	207.7
393.801	66.39
394.01	224.08
394.22	189.27
394.429	31.57
394.639	107.35
394.848	82.77
395.058	80.72
395.267	17.24
395.477	45.91
395.686	113.49
395.895	269.14
396.105	238.42
396.314	58.2
396.524	86.87
396.733	101.2
396.942	129.88
397.152	62.29
397.361	189.27
397.57	78.68
397.78	45.91
397.989	35.67
398.198	207.7
398.407	74.58
398.617	31.57
398.826	78.68
399.035	9.05
399.244	160.59
399.453	45.91
399.663	37.72
399.872	74.58
400.081	9.05
400.29	119.64
400.499	-7.34
400.708	176.98
400.917	82.77
401.127	60.24
401.336	-38.06
401.545	131.92
401.754	144.21
401.963	125.78
402.172	4.95
402.381	56.15
402.59	80.72
402.799	76.63
403.008	166.74
403.217	76.63
403.426	138.07
403.635	-33.96
403.844	64.34
404.053	70.48
404.262	39.76
404.471	138.07
404.68	101.2
404.888	90.96
405.097	2.9
405.306	37.72
405.515	127.83
405.724	31.57
405.933	47.96
406.142	27.48
406.35	93.01
406.559	99.16
406.768	117.59
406.977	215.89
407.185	58.2
407.394	76.63
407.603	-19.63
407.812	52.05
408.02	84.82
408.229	41.81
408.438	58.2
408.646	-52.39
408.855	76.63
409.064	47.96
409.272	33.62
409.481	125.78
409.69	-15.53
409.898	-1.19
410.107	66.39
410.315	76.63
410.524	-23.72
410.733	74.58
410.941	58.2
411.15	105.3
411.358	185.17
411.567	136.02
411.775	78.68
411.984	72.53
412.192	97.11
412.401	19.29
412.609	152.4
412.818	197.46
413.026	103.25
413.234	47.96
413.443	117.59
413.651	17.24
413.86	45.91
414.068	148.31
414.276	166.74
414.485	-1.19
414.693	308.05
414.901	205.65
415.11	113.49
415.318	60.24
415.526	29.52
415.734	131.92
415.943	111.44
416.151	121.68
416.359	37.72
416.567	74.58
416.776	144.21
416.984	140.12
417.192	230.23
417.4	21.33
417.608	27.48
417.817	-56.49
418.025	97.11
418.233	156.5
418.441	64.34
418.649	-17.58
418.857	45.91
419.065	107.35
419.273	109.4
419.481	62.29
419.689	27.48
419.897	-5.29
420.105	-7.34
420.313	150.36
420.521	131.92
420.729	201.55
420.937	-25.77
421.145	31.57
421.353	121.68
421.561	172.88
421.769	136.02
421.977	-1.19
422.185	174.93
422.393	41.81
422.601	113.49
422.809	82.77
423.017	97.11
423.224	66.39
423.432	131.92
423.64	60.24
423.848	88.92
424.056	-7.34
424.263	45.91
424.471	111.44
424.679	140.12
424.887	7
425.094	146.26
425.302	62.29
425.51	64.34
425.718	74.58
425.925	43.86
426.133	-64.68
426.341	140.12
426.548	90.96
426.756	58.2
426.964	74.58
427.171	25.43
427.379	64.34
427.586	31.57
427.794	101.2
428.001	148.31
428.209	64.34
428.417	324.43
428.624	88.92
428.832	74.58
429.039	119.64
429.247	78.68
429.454	107.35
429.662	97.11
429.869	168.79
430.076	119.64
430.284	191.31
430.491	168.79
430.699	144.21
430.906	172.88
431.114	111.44
431.321	144.21
431.528	140.12
431.736	70.48
431.943	113.49
432.15	105.3
432.358	181.07
432.565	203.6
432.772	-44.2
432.979	258.9
433.187	168.79
433.394	152.4
433.601	29.52
433.808	191.31
434.016	240.47
434.223	119.64
434.43	170.83
434.637	244.56
434.844	230.23
435.052	193.36
435.259	207.7
435.466	240.47
435.673	244.56
435.88	265.04
436.087	238.42
436.294	283.47
436.501	281.43
436.708	174.93
436.915	121.68
437.122	324.43
437.329	179.03
437.537	168.79
437.743	271.19
437.95	379.73
438.157	250.71
438.364	271.19
438.571	287.57
438.778	365.39
438.985	334.67
439.192	418.64
439.399	273.23
439.606	234.32
439.813	396.11
440.02	457.55
440.227	475.98
440.433	459.6
440.64	424.78
440.847	398.16
441.054	416.59
441.261	568.14
441.467	418.64
441.674	322.38
441.881	602.96
442.088	457.55
442.294	617.29
442.501	684.87
442.708	572.24
442.914	514.89
443.121	688.97
443.328	654.16
443.534	758.6
443.741	676.68
443.948	480.08
444.154	688.97
444.361	877.38
444.568	744.27
444.774	830.28
444.981	658.25
445.187	877.38
445.394	820.04
445.6	875.34
445.807	990.02
446.013	965.45
446.22	873.29
446.426	1094.47
446.633	1100.61
446.839	1268.55
447.046	987.97
447.252	1153.86
447.459	1190.72
447.665	1147.72
447.871	1346.37
448.078	1452.86
448.284	1291.07
448.491	1524.54
448.697	1620.8
448.903	1579.84
449.11	1577.79
449.316	1573.69
449.522	1686.33
449.728	1737.53
449.935	1915.7
450.141	1809.21
450.347	2065.21
450.553	1991.48
450.76	2042.68
450.966	2026.29
451.172	2145.08
451.378	2310.96
451.584	2212.66
451.791	2526
451.997	2601.77
452.203	2597.68
452.409	2677.55
452.615	2880.3
452.821	2743.08
453.027	2730.8
453.233	3193.64
453.44	2986.79
453.646	3199.78
453.852	3314.47
454.058	3365.67
454.264	3562.27
454.47	3734.3
454.676	3814.17
454.882	4299.54
455.088	3980.06
455.294	4403.99
455.5	4543.25
455.705	4809.48
455.911	4719.37
456.117	5034.76
456.323	5219.08
456.529	5034.76
456.735	5577.47
456.941	5542.66
457.147	5862.14
457.352	6073.08
457.558	6144.76
457.764	6695.66
457.97	6773.49
458.176	7150.31
458.381	7328.49
458.587	7676.64
458.793	8082.14
458.999	7998.17
459.204	9081.55
459.41	9280.2
459.616	9210.57
459.821	9573.06
460.027	9902.78
460.233	10414.77
460.438	10545.84
460.644	11121.32
460.85	11176.62
461.055	11678.37
461.261	12282.52
461.466	12087.96
461.672	12243.61
461.878	13820.55
462.083	13507.21
462.289	13843.07
462.494	14490.23
462.7	14465.66
462.905	14756.47
463.111	15942.24
463.316	16755.29
463.522	17132.11
463.727	17492.55
463.932	18139.71
464.138	18545.21
464.343	19538.48
464.549	19683.88
464.754	20906.52
464.959	21449.23
465.165	22008.33
465.37	21924.36
465.575	22018.57
465.781	23171.57
465.986	23980.52
466.191	23646.7
466.397	23685.61
466.602	23521.77
466.807	24814.04
467.012	24981.98
467.218	25039.32
467.423	25369.04
467.628	26173.89
467.833	27374
468.038	26902.97
468.244	26337.73
468.449	27693.49
468.654	27494.83
468.859	27314.61
469.064	27136.44
469.269	26708.41
