Data from USB4F104151__14__11-24-26-707.txt Node

Date: Wed Feb 26 11:24:26 EST 2025
User: louis
Spectrometer: USB4F10415
Trigger mode: 4
Integration Time (sec): 1.000000E-1
Scans to average: 1
Electric dark correction enabled: true
Nonlinearity correction enabled: false
Boxcar width: 0
XAxis mode: Wavelengths
Number of Pixels in Spectrum: 3648
>>>>>Begin Spectral Data<<<<<
178.204	-308.22
178.424	-308.22
178.644	-308.22
178.864	-410.62
179.084	-431.1
179.304	13.31
179.524	-54.27
179.744	9.22
179.964	48.13
180.184	7.17
180.404	35.84
180.624	-58.37
180.844	-91.13
181.064	-35.84
181.283	33.79
181.503	5.12
181.723	87.04
181.943	-111.61
182.163	222.2
182.383	27.65
182.602	46.08
182.822	105.47
183.042	62.46
183.262	44.03
183.482	56.32
183.701	52.22
183.921	46.08
184.141	-25.6
184.361	89.09
184.58	89.09
184.8	113.66
185.02	35.84
185.239	154.62
185.459	105.47
185.679	150.53
185.898	-13.31
186.118	134.14
186.338	60.42
186.557	74.75
186.777	-25.6
186.997	48.13
187.216	25.6
187.436	209.92
187.655	123.9
187.875	68.61
188.095	72.7
188.314	265.21
188.534	66.56
188.753	-125.95
188.973	76.8
189.192	230.4
189.412	-29.7
189.631	39.94
189.851	-9.22
190.07	222.2
190.29	-17.41
190.509	21.5
190.729	101.37
190.948	191.49
191.168	183.29
191.387	50.18
191.607	50.18
191.826	66.56
192.045	21.5
192.265	-19.46
192.484	74.75
192.704	60.42
192.923	-66.56
193.142	205.82
193.362	111.61
193.581	140.29
193.8	74.75
194.02	115.71
194.239	13.31
194.458	125.95
194.678	31.74
194.897	9.22
195.116	113.66
195.335	152.57
195.555	74.75
195.774	62.46
195.993	175.1
196.212	101.37
196.432	-50.18
196.651	-84.99
196.87	54.27
197.089	218.11
197.308	-11.26
197.528	37.89
197.747	-60.42
197.966	39.94
198.185	123.9
198.404	-29.7
198.623	117.76
198.842	138.24
199.062	150.53
199.281	107.52
199.5	109.57
199.719	68.61
199.938	56.32
200.157	74.75
200.376	193.53
200.595	150.53
200.814	97.28
201.033	-15.36
201.252	140.29
201.471	-70.65
201.69	109.57
201.909	41.98
202.128	107.52
202.347	121.85
202.566	-11.26
202.785	-23.55
203.004	-5.12
203.223	224.25
203.442	46.08
203.661	17.41
203.879	35.84
204.098	109.57
204.317	46.08
204.536	107.52
204.755	142.33
204.974	121.85
205.193	74.75
205.411	222.2
205.63	68.61
205.849	95.23
206.068	44.03
206.287	-33.79
206.505	160.77
206.724	44.03
206.943	1.02
207.162	11.26
207.381	119.81
207.599	46.08
207.818	66.56
208.037	19.46
208.255	33.79
208.474	5.12
208.693	29.7
208.911	91.13
209.13	84.99
209.349	97.28
209.567	111.61
209.786	68.61
210.005	64.51
210.223	37.89
210.442	-62.46
210.661	76.8
210.879	91.13
211.098	89.09
211.316	58.37
211.535	5.12
211.753	64.51
211.972	76.8
212.191	23.55
212.409	29.7
212.628	109.57
212.846	41.98
213.065	19.46
213.283	166.91
213.502	15.36
213.72	91.13
213.938	64.51
214.157	27.65
214.375	48.13
214.594	3.07
214.812	154.62
215.031	95.23
215.249	23.55
215.467	93.18
215.686	39.94
215.904	123.9
216.122	121.85
216.341	74.75
216.559	48.13
216.778	134.14
216.996	103.42
217.214	27.65
217.432	15.36
217.651	-29.7
217.869	7.17
218.087	99.33
218.306	52.22
218.524	101.37
218.742	60.42
218.96	134.14
219.179	37.89
219.397	-15.36
219.615	259.07
219.833	136.19
220.051	-25.6
220.27	154.62
220.488	140.29
220.706	41.98
220.924	-11.26
221.142	-1.02
221.36	78.85
221.578	87.04
221.796	76.8
222.015	23.55
222.233	50.18
222.451	132.09
222.669	27.65
222.887	125.95
223.105	11.26
223.323	58.37
223.541	-5.12
223.759	54.27
223.977	33.79
224.195	195.58
224.413	84.99
224.631	46.08
224.849	113.66
225.067	244.73
225.285	66.56
225.503	37.89
225.721	-39.94
225.939	-17.41
226.157	-17.41
226.375	236.54
226.592	56.32
226.81	15.36
227.028	162.81
227.246	144.38
227.464	72.7
227.682	162.81
227.9	87.04
228.117	68.61
228.335	111.61
228.553	17.41
228.771	60.42
228.989	52.22
229.206	111.61
229.424	50.18
229.642	35.84
229.86	29.7
230.077	150.53
230.295	95.23
230.513	148.48
230.731	119.81
230.948	230.4
231.166	136.19
231.384	-37.89
231.601	37.89
231.819	142.33
232.037	-56.32
232.254	-19.46
232.472	95.23
232.689	9.22
232.907	25.6
233.125	78.85
233.342	97.28
233.56	-35.84
233.777	60.42
233.995	107.52
234.213	134.14
234.43	109.57
234.648	-13.31
234.865	52.22
235.083	68.61
235.3	3.07
235.518	125.95
235.735	201.72
235.953	84.99
236.17	105.47
236.388	7.17
236.605	115.71
236.822	166.91
237.04	89.09
237.257	-29.7
237.475	19.46
237.692	52.22
237.909	97.28
238.127	60.42
238.344	76.8
238.562	5.12
238.779	-29.7
238.996	-50.18
239.214	56.32
239.431	150.53
239.648	1.02
239.865	82.94
240.083	105.47
240.3	7.17
240.517	-54.27
240.735	87.04
240.952	187.39
241.169	80.89
241.386	107.52
241.603	29.7
241.821	-9.22
242.038	87.04
242.255	148.48
242.472	19.46
242.689	78.85
242.907	107.52
243.124	60.42
243.341	3.07
243.558	15.36
243.775	7.17
243.992	-52.22
244.209	93.18
244.426	162.81
244.643	68.61
244.86	-35.84
245.078	68.61
245.295	58.37
245.512	58.37
245.729	13.31
245.946	117.76
246.163	64.51
246.38	64.51
246.597	35.84
246.814	95.23
247.031	7.17
247.248	84.99
247.464	78.85
247.681	95.23
247.898	146.43
248.115	84.99
248.332	31.74
248.549	177.15
248.766	185.34
248.983	37.89
249.2	27.65
249.417	132.09
249.633	-52.22
249.85	74.75
250.067	82.94
250.284	123.9
250.501	105.47
250.717	25.6
250.934	-29.7
251.151	35.84
251.368	31.74
251.585	11.26
251.801	25.6
252.018	35.84
252.235	115.71
252.451	-21.5
252.668	3.07
252.885	72.7
253.102	117.76
253.318	-5.12
253.535	-13.31
253.752	97.28
253.968	54.27
254.185	5.12
254.401	-23.55
254.618	123.9
254.835	-25.6
255.051	121.85
255.268	64.51
255.484	66.56
255.701	56.32
255.917	115.71
256.134	27.65
256.351	103.42
256.567	-1.02
256.784	29.7
257	3.07
257.217	181.25
257.433	97.28
257.65	99.33
257.866	117.76
258.082	-74.75
258.299	-7.17
258.515	33.79
258.732	97.28
258.948	66.56
259.165	107.52
259.381	-7.17
259.597	68.61
259.814	89.09
260.03	-7.17
260.246	-3.07
260.463	187.39
260.679	87.04
260.895	80.89
261.112	44.03
261.328	74.75
261.544	13.31
261.761	97.28
261.977	25.6
262.193	-72.7
262.409	105.47
262.626	58.37
262.842	60.42
263.058	-5.12
263.274	117.76
263.49	21.5
263.707	160.77
263.923	111.61
264.139	-52.22
264.355	91.13
264.571	123.9
264.787	164.86
265.004	156.67
265.22	25.6
265.436	25.6
265.652	23.55
265.868	50.18
266.084	48.13
266.3	13.31
266.516	9.22
266.732	66.56
266.948	35.84
267.164	84.99
267.38	60.42
267.596	154.62
267.812	199.68
268.028	-25.6
268.244	76.8
268.46	76.8
268.676	-21.5
268.892	97.28
269.108	9.22
269.324	-50.18
269.54	-3.07
269.756	50.18
269.972	29.7
270.188	39.94
270.403	-7.17
270.619	60.42
270.835	142.33
271.051	56.32
271.267	9.22
271.483	17.41
271.698	148.48
271.914	50.18
272.13	103.42
272.346	39.94
272.562	89.09
272.777	195.58
272.993	99.33
273.209	125.95
273.425	62.46
273.64	-3.07
273.856	39.94
274.072	66.56
274.287	-52.22
274.503	64.51
274.719	91.13
274.934	11.26
275.15	-15.36
275.366	-29.7
275.581	-5.12
275.797	-5.12
276.012	-58.37
276.228	41.98
276.444	21.5
276.659	117.76
276.875	23.55
277.09	76.8
277.306	-21.5
277.521	74.75
277.737	97.28
277.952	87.04
278.168	-21.5
278.383	78.85
278.599	37.89
278.814	50.18
279.03	31.74
279.245	150.53
279.461	115.71
279.676	125.95
279.892	-1.02
280.107	33.79
280.322	-54.27
280.538	105.47
280.753	52.22
280.969	82.94
281.184	54.27
281.399	107.52
281.615	41.98
281.83	123.9
282.045	1.02
282.26	35.84
282.476	-15.36
282.691	70.65
282.906	78.85
283.122	60.42
283.337	7.17
283.552	97.28
283.767	-15.36
283.983	146.43
284.198	19.46
284.413	64.51
284.628	-11.26
284.843	154.62
285.058	50.18
285.274	1.02
285.489	19.46
285.704	113.66
285.919	11.26
286.134	44.03
286.349	60.42
286.564	58.37
286.779	132.09
286.995	74.75
287.21	-58.37
287.425	105.47
287.64	3.07
287.855	56.32
288.07	-35.84
288.285	103.42
288.5	125.95
288.715	105.47
288.93	-25.6
289.145	41.98
289.36	117.76
289.575	19.46
289.79	136.19
290.004	-19.46
290.219	138.24
290.434	-1.02
290.649	109.57
290.864	48.13
291.079	44.03
291.294	168.96
291.509	138.24
291.724	58.37
291.938	121.85
292.153	119.81
292.368	-15.36
292.583	76.8
292.798	158.72
293.012	72.7
293.227	44.03
293.442	58.37
293.657	97.28
293.871	146.43
294.086	154.62
294.301	142.33
294.516	95.23
294.73	58.37
294.945	-1.02
295.16	56.32
295.374	68.61
295.589	130.05
295.804	5.12
296.018	80.89
296.233	181.25
296.447	70.65
296.662	50.18
296.877	158.72
297.091	56.32
297.306	39.94
297.52	31.74
297.735	136.19
297.949	44.03
298.164	74.75
298.378	117.76
298.593	-7.17
298.807	9.22
299.022	27.65
299.236	119.81
299.451	11.26
299.665	58.37
299.88	25.6
300.094	21.5
300.309	72.7
300.523	89.09
300.737	33.79
300.952	154.62
301.166	93.18
301.381	23.55
301.595	-21.5
301.809	19.46
302.024	119.81
302.238	3.07
302.452	185.34
302.667	134.14
302.881	205.82
303.095	136.19
303.309	7.17
303.524	60.42
303.738	56.32
303.952	-23.55
304.166	91.13
304.381	-27.65
304.595	177.15
304.809	-37.89
305.023	11.26
305.237	-13.31
305.452	60.42
305.666	89.09
305.88	121.85
306.094	138.24
306.308	134.14
306.522	105.47
306.736	66.56
306.95	103.42
307.164	60.42
307.379	68.61
307.593	41.98
307.807	130.05
308.021	130.05
308.235	87.04
308.449	-50.18
308.663	-29.7
308.877	261.12
309.091	93.18
309.305	97.28
309.519	-52.22
309.733	183.29
309.947	-17.41
310.161	132.09
310.374	93.18
310.588	105.47
310.802	-41.98
311.016	-7.17
311.23	109.57
311.444	-5.12
311.658	50.18
311.872	115.71
312.085	146.43
312.299	164.86
312.513	117.76
312.727	13.31
312.941	-46.08
313.154	13.31
313.368	78.85
313.582	97.28
313.796	117.76
314.009	-1.02
314.223	37.89
314.437	97.28
314.651	142.33
314.864	-35.84
315.078	-1.02
315.292	-31.74
315.505	41.98
315.719	115.71
315.933	54.27
316.146	78.85
316.36	-15.36
316.573	201.72
316.787	35.84
317.001	70.65
317.214	-15.36
317.428	9.22
317.641	-54.27
317.855	54.27
318.068	11.26
318.282	52.22
318.495	144.38
318.709	76.8
318.922	1.02
319.136	152.57
319.349	181.25
319.563	23.55
319.776	70.65
319.99	-64.51
320.203	113.66
320.417	54.27
320.63	17.41
320.843	181.25
321.057	125.95
321.27	19.46
321.483	35.84
321.697	226.3
321.91	56.32
322.124	107.52
322.337	19.46
322.55	1.02
322.763	58.37
322.977	17.41
323.19	3.07
323.403	15.36
323.617	37.89
323.83	109.57
324.043	-41.98
324.256	93.18
324.469	-74.75
324.683	113.66
324.896	-25.6
325.109	76.8
325.322	-37.89
325.535	162.81
325.748	99.33
325.962	52.22
326.175	95.23
326.388	136.19
326.601	191.49
326.814	50.18
327.027	11.26
327.24	179.2
327.453	-87.04
327.666	142.33
327.879	228.35
328.092	46.08
328.305	84.99
328.518	29.7
328.731	-11.26
328.944	62.46
329.157	70.65
329.37	29.7
329.583	130.05
329.796	207.87
330.009	-27.65
330.222	95.23
330.435	179.2
330.648	35.84
330.861	105.47
331.073	111.61
331.286	72.7
331.499	74.75
331.712	1.02
331.925	-1.02
332.138	125.95
332.35	158.72
332.563	101.37
332.776	99.33
332.989	-60.42
333.202	52.22
333.414	39.94
333.627	74.75
333.84	56.32
334.053	82.94
334.265	-1.02
334.478	-39.94
334.691	39.94
334.903	52.22
335.116	89.09
335.329	27.65
335.541	128
335.754	146.43
335.966	-56.32
336.179	56.32
336.392	44.03
336.604	64.51
336.817	103.42
337.029	58.37
337.242	44.03
337.454	84.99
337.667	64.51
337.88	175.1
338.092	97.28
338.305	80.89
338.517	56.32
338.729	173.05
338.942	72.7
339.154	-21.5
339.367	-62.46
339.579	68.61
339.792	7.17
340.004	156.67
340.217	9.22
340.429	103.42
340.641	-13.31
340.854	-19.46
341.066	-3.07
341.278	91.13
341.491	263.16
341.703	80.89
341.915	-25.6
342.128	105.47
342.34	82.94
342.552	9.22
342.764	56.32
342.977	74.75
343.189	82.94
343.401	64.51
343.613	-109.57
343.826	52.22
344.038	-31.74
344.25	84.99
344.462	-29.7
344.674	76.8
344.886	-27.65
345.099	56.32
345.311	76.8
345.523	54.27
345.735	-84.99
345.947	68.61
346.159	72.7
346.371	68.61
346.583	76.8
346.795	230.4
347.007	44.03
347.219	89.09
347.431	31.74
347.643	209.92
347.855	-11.26
348.067	99.33
348.279	5.12
348.491	156.67
348.703	109.57
348.915	-37.89
349.127	-29.7
349.339	111.61
349.551	-19.46
349.763	103.42
349.975	7.17
350.187	109.57
350.399	142.33
350.61	91.13
350.822	-7.17
351.034	41.98
351.246	27.65
351.458	99.33
351.669	115.71
351.881	87.04
352.093	82.94
352.305	70.65
352.517	82.94
352.728	113.66
352.94	99.33
353.152	41.98
353.363	23.55
353.575	101.37
353.787	162.81
353.999	130.05
354.21	193.53
354.422	-17.41
354.633	35.84
354.845	17.41
355.057	66.56
355.268	70.65
355.48	123.9
355.692	44.03
355.903	56.32
356.115	-19.46
356.326	1.02
356.538	201.72
356.749	82.94
356.961	160.77
357.172	13.31
357.384	1.02
357.595	295.93
357.807	-5.12
358.018	-37.89
358.23	58.37
358.441	199.68
358.653	56.32
358.864	19.46
359.075	5.12
359.287	60.42
359.498	115.71
359.709	119.81
359.921	95.23
360.132	9.22
360.344	19.46
360.555	-9.22
360.766	25.6
360.977	7.17
361.189	181.25
361.4	87.04
361.611	101.37
361.823	93.18
362.034	121.85
362.245	-58.37
362.456	27.65
362.667	113.66
362.879	21.5
363.09	197.63
363.301	39.94
363.512	54.27
363.723	39.94
363.935	35.84
364.146	91.13
364.357	31.74
364.568	54.27
364.779	-7.17
364.99	179.2
365.201	1.02
365.412	175.1
365.623	-48.13
365.834	99.33
366.045	72.7
366.256	138.24
366.467	68.61
366.678	87.04
366.889	29.7
367.1	-5.12
367.311	82.94
367.522	-74.75
367.733	101.37
367.944	99.33
368.155	23.55
368.366	74.75
368.577	66.56
368.788	158.72
368.999	37.89
369.209	84.99
369.42	181.25
369.631	252.92
369.842	173.05
370.053	44.03
370.264	189.44
370.474	-5.12
370.685	33.79
370.896	54.27
371.107	97.28
371.317	125.95
371.528	70.65
371.739	177.15
371.95	9.22
372.16	93.18
372.371	-97.28
372.582	68.61
372.792	50.18
373.003	89.09
373.214	70.65
373.424	70.65
373.635	-17.41
373.846	123.9
374.056	9.22
374.267	-7.17
374.477	-70.65
374.688	125.95
374.898	117.76
375.109	109.57
375.319	76.8
375.53	121.85
375.74	60.42
375.951	25.6
376.161	154.62
376.372	105.47
376.582	15.36
376.793	33.79
377.003	95.23
377.214	21.5
377.424	134.14
377.635	50.18
377.845	19.46
378.055	166.91
378.266	35.84
378.476	80.89
378.686	82.94
378.897	39.94
379.107	164.86
379.317	70.65
379.528	-25.6
379.738	162.81
379.948	-99.33
380.158	78.85
380.369	33.79
380.579	31.74
380.789	-13.31
380.999	142.33
381.21	72.7
381.42	193.53
381.63	29.7
381.84	125.95
382.05	101.37
382.261	173.05
382.471	113.66
382.681	-39.94
382.891	123.9
383.101	84.99
383.311	-23.55
383.521	-33.79
383.731	179.2
383.941	181.25
384.151	41.98
384.361	50.18
384.571	115.71
384.781	109.57
384.991	259.07
385.201	271.36
385.411	136.19
385.621	-48.13
385.831	-15.36
386.041	89.09
386.251	140.29
386.461	152.57
386.671	41.98
386.881	115.71
387.091	-37.89
387.301	117.76
387.511	101.37
387.72	80.89
387.93	154.62
388.14	-64.51
388.35	95.23
388.56	154.62
388.769	152.57
388.979	58.37
389.189	52.22
389.399	97.28
389.609	150.53
389.818	68.61
390.028	123.9
390.238	78.85
390.447	21.5
390.657	70.65
390.867	-13.31
391.076	-41.98
391.286	78.85
391.496	29.7
391.705	37.89
391.915	121.85
392.125	99.33
392.334	-3.07
392.544	207.87
392.753	72.7
392.963	-7.17
393.172	128
393.382	39.94
393.591	181.25
393.801	48.13
394.01	103.42
394.22	58.37
394.429	84.99
394.639	41.98
394.848	37.89
395.058	84.99
395.267	60.42
395.477	68.61
395.686	72.7
395.895	209.92
396.105	171.01
396.314	58.37
396.524	136.19
396.733	111.61
396.942	150.53
397.152	84.99
397.361	148.48
397.57	62.46
397.78	74.75
397.989	177.15
398.198	214.01
398.407	76.8
398.617	11.26
398.826	52.22
399.035	37.89
399.244	164.86
399.453	93.18
399.663	-1.02
399.872	130.05
400.081	3.07
400.29	162.81
400.499	19.46
400.708	97.28
400.917	66.56
401.127	23.55
401.336	9.22
401.545	220.16
401.754	82.94
401.963	142.33
402.172	1.02
402.381	-52.22
402.59	39.94
402.799	76.8
403.008	173.05
403.217	27.65
403.426	132.09
403.635	-15.36
403.844	60.42
404.053	5.12
404.262	54.27
404.471	207.87
404.68	93.18
404.888	3.07
405.097	-3.07
405.306	50.18
405.515	125.95
405.724	-15.36
405.933	138.24
406.142	80.89
406.35	121.85
406.559	52.22
406.768	72.7
406.977	166.91
407.185	60.42
407.394	123.9
407.603	-62.46
407.812	150.53
408.02	93.18
408.229	113.66
408.438	44.03
408.646	3.07
408.855	87.04
409.064	33.79
409.272	140.29
409.481	121.85
409.69	87.04
409.898	-29.7
410.107	41.98
410.315	152.57
410.524	-9.22
410.733	54.27
410.941	70.65
411.15	64.51
411.358	113.66
411.567	158.72
411.775	109.57
411.984	74.75
412.192	66.56
412.401	27.65
412.609	240.64
412.818	72.7
413.026	72.7
413.234	-5.12
413.443	52.22
413.651	78.85
413.86	56.32
414.068	113.66
414.276	214.01
414.485	5.12
414.693	173.05
414.901	123.9
415.11	84.99
415.318	56.32
415.526	66.56
415.734	209.92
415.943	68.61
416.151	197.63
416.359	27.65
416.567	74.75
416.776	72.7
416.984	119.81
417.192	187.39
417.4	44.03
417.608	-19.46
417.817	-25.6
418.025	101.37
418.233	128
418.441	-70.65
418.649	-23.55
418.857	54.27
419.065	72.7
419.273	19.46
419.481	91.13
419.689	21.5
419.897	13.31
420.105	76.8
420.313	142.33
420.521	111.61
420.729	128
420.937	29.7
421.145	-31.74
421.353	117.76
421.561	195.58
421.769	58.37
421.977	11.26
422.185	119.81
422.393	117.76
422.601	93.18
422.809	84.99
423.017	70.65
423.224	130.05
423.432	220.16
423.64	76.8
423.848	121.85
424.056	3.07
424.263	193.53
424.471	35.84
424.679	232.44
424.887	3.07
425.094	177.15
425.302	125.95
425.51	44.03
425.718	113.66
425.925	82.94
426.133	17.41
426.341	263.16
426.548	107.52
426.756	15.36
426.964	111.61
427.171	48.13
427.379	101.37
427.586	74.75
427.794	84.99
428.001	181.25
428.209	78.85
428.417	134.14
428.624	148.48
428.832	105.47
429.039	171.01
429.247	99.33
429.454	74.75
429.662	218.11
429.869	160.77
430.076	187.39
430.284	109.57
430.491	271.36
430.699	197.63
430.906	252.92
431.114	168.96
431.321	177.15
431.528	171.01
431.736	128
431.943	201.72
432.15	271.36
432.358	259.07
432.565	302.08
432.772	99.33
432.979	238.59
433.187	128
433.394	201.72
433.601	119.81
433.808	259.07
434.016	289.79
434.223	218.11
434.43	242.68
434.637	240.64
434.844	343.03
435.052	291.84
435.259	379.9
435.466	277.5
435.673	306.17
435.88	326.65
436.087	381.95
436.294	365.56
436.501	408.57
436.708	410.62
436.915	320.51
437.122	396.28
437.329	293.88
437.537	347.13
437.743	361.47
437.95	457.72
438.157	390.14
438.364	383.99
438.571	406.52
438.778	445.43
438.985	408.57
439.192	543.74
439.399	433.15
439.606	484.34
439.813	531.45
440.02	650.23
440.227	658.42
440.433	566.26
440.64	551.93
440.847	531.45
441.054	680.95
441.261	840.69
441.467	781.3
441.674	644.09
441.881	664.57
442.088	758.77
442.294	807.92
442.501	910.32
442.708	842.74
442.914	824.31
443.121	928.75
443.328	875.51
443.534	1016.82
443.741	936.95
443.948	902.13
444.154	1027.06
444.361	1176.56
444.568	1061.87
444.774	1162.22
444.981	1047.54
445.187	1246.19
445.394	1311.72
445.6	1256.43
445.807	1463.27
446.013	1360.88
446.22	1295.34
446.426	1555.43
446.633	1569.77
446.839	1752.04
447.046	1463.27
447.252	1790.95
447.459	1801.19
447.665	1659.88
447.871	1985.51
448.078	2065.38
448.284	2034.66
448.491	2192.35
448.697	2218.97
448.903	2454.49
449.11	2198.49
449.316	2427.87
449.522	2511.83
449.728	2704.34
449.935	2816.98
450.141	2548.7
450.347	3007.44
450.553	2837.46
450.76	2937.81
450.966	3228.62
451.172	3142.61
451.378	3357.64
451.584	3374.03
451.791	3658.7
451.997	3761.09
452.203	3914.69
452.409	4047.81
452.615	4301.76
452.821	4178.88
453.027	4201.41
453.233	4660.15
453.44	4516.8
453.646	4746.17
453.852	4914.1
454.058	5231.54
454.264	5288.88
454.47	5782.44
454.676	5788.58
454.882	6232.99
455.088	5872.55
455.294	6216.61
455.5	6599.58
455.705	7046.04
455.911	7107.48
456.117	7154.58
456.323	7465.87
456.529	7420.81
456.735	8178.56
456.941	8444.8
457.147	8684.41
457.352	8969.08
457.558	9040.76
457.764	9665.39
457.97	10017.64
458.176	10326.88
458.381	10888.03
458.587	11205.46
458.793	11760.46
458.999	11735.88
459.204	13116.22
459.41	13458.23
459.616	13415.22
459.821	13906.73
460.027	14711.58
460.233	15506.2
460.438	15229.72
460.644	16468.74
460.85	16614.15
461.055	17050.36
461.261	17998.57
461.466	17855.22
461.672	18162.41
461.878	20054.73
462.083	19856.08
462.289	20204.24
462.494	21258.94
462.7	21183.16
462.905	21373.63
463.111	23675.54
463.316	24226.45
463.522	24664.71
463.727	25631.35
463.932	26530.41
464.138	27523.68
464.343	28549.71
464.549	29010.5
464.754	30812.71
464.959	31498.78
465.165	32033.3
465.37	31629.85
465.575	32117.27
465.781	33894.91
465.986	35090.92
466.191	34515.44
466.397	35068.39
466.602	34058.74
466.807	35906.01
467.012	36604.37
467.218	37474.76
467.423	37251.53
467.628	38803.89
467.833	40333.72
468.038	39643.56
468.244	39037.36
468.449	41114
468.654	39825.82
