Data from USB4F104151__57__11-30-47-165.txt Node

Date: Wed Feb 26 11:30:47 EST 2025
User: louis
Spectrometer: USB4F10415
Trigger mode: 4
Integration Time (sec): 1.000000E-1
Scans to average: 1
Electric dark correction enabled: true
Nonlinearity correction enabled: false
Boxcar width: 0
XAxis mode: Wavelengths
Number of Pixels in Spectrum: 3648
>>>>>Begin Spectral Data<<<<<
178.204	-450.55
178.424	-450.55
178.644	-450.55
178.864	-342.01
179.084	-387.07
179.304	-36.86
179.524	24.58
179.744	24.58
179.964	-10.24
180.184	-4.1
180.404	79.87
180.624	-59.39
180.844	-24.58
181.064	-71.68
181.283	59.39
181.503	-43.01
181.723	61.44
181.943	-71.68
182.163	194.56
182.383	-53.25
182.602	81.92
182.822	102.4
183.042	90.11
183.262	57.34
183.482	55.3
183.701	36.86
183.921	20.48
184.141	-77.82
184.361	106.49
184.58	40.96
184.8	12.29
185.02	-51.2
185.239	122.88
185.459	151.55
185.679	120.83
185.898	-57.34
186.118	36.86
186.338	57.34
186.557	79.87
186.777	-116.73
186.997	-63.49
187.216	12.29
187.436	163.84
187.655	104.45
187.875	77.82
188.095	-4.1
188.314	94.21
188.534	118.78
188.753	-18.43
188.973	108.54
189.192	233.47
189.412	28.67
189.631	20.48
189.851	100.35
190.07	215.04
190.29	-90.11
190.509	65.54
190.729	36.86
190.948	118.78
191.168	260.09
191.387	96.25
191.607	28.67
191.826	114.69
192.045	77.82
192.265	28.67
192.484	40.96
192.704	16.38
192.923	-81.92
193.142	202.75
193.362	108.54
193.581	212.99
193.8	67.58
194.02	145.41
194.239	57.34
194.458	98.3
194.678	4.1
194.897	-38.91
195.116	36.86
195.335	55.3
195.555	98.3
195.774	22.53
195.993	104.45
196.212	69.63
196.432	-20.48
196.651	28.67
196.87	51.2
197.089	266.24
197.308	55.3
197.528	36.86
197.747	-12.29
197.966	57.34
198.185	114.69
198.404	0
198.623	118.78
198.842	135.17
199.062	139.26
199.281	92.16
199.5	18.43
199.719	106.49
199.938	100.35
200.157	40.96
200.376	124.93
200.595	131.07
200.814	118.78
201.033	-8.19
201.252	137.21
201.471	137.21
201.69	34.82
201.909	145.41
202.128	77.82
202.347	122.88
202.566	2.05
202.785	-65.53
203.004	-18.43
203.223	280.57
203.442	20.48
203.661	-79.87
203.879	131.07
204.098	116.73
204.317	18.43
204.536	81.92
204.755	153.6
204.974	124.93
205.193	-16.38
205.411	131.07
205.63	69.63
205.849	114.69
206.068	77.82
206.287	4.1
206.505	38.91
206.724	73.73
206.943	24.58
207.162	0
207.381	59.39
207.599	61.44
207.818	-38.91
208.037	22.53
208.255	-28.67
208.474	24.58
208.693	43.01
208.911	53.25
209.13	92.16
209.349	135.17
209.567	110.59
209.786	79.87
210.005	133.12
210.223	65.54
210.442	-61.44
210.661	14.34
210.879	0
211.098	28.67
211.316	49.15
211.535	114.69
211.753	100.35
211.972	174.08
212.191	-8.19
212.409	55.3
212.628	161.79
212.846	22.53
213.065	53.25
213.283	131.07
213.502	38.91
213.72	-2.05
213.938	63.49
214.157	61.44
214.375	102.4
214.594	-12.29
214.812	129.02
215.031	45.06
215.249	77.82
215.467	94.21
215.686	47.1
215.904	63.49
216.122	139.26
216.341	135.17
216.559	40.96
216.778	116.73
216.996	147.45
217.214	20.48
217.432	30.72
217.651	-43.01
217.869	16.38
218.087	20.48
218.306	77.82
218.524	12.29
218.742	28.67
218.96	45.06
219.179	-10.24
219.397	98.3
219.615	176.13
219.833	108.54
220.051	-6.14
220.27	57.34
220.488	120.83
220.706	69.63
220.924	-8.19
221.142	49.15
221.36	65.54
221.578	120.83
221.796	40.96
222.015	77.82
222.233	40.96
222.451	61.44
222.669	-81.92
222.887	120.83
223.105	-18.43
223.323	61.44
223.541	2.05
223.759	-4.1
223.977	34.82
224.195	143.36
224.413	67.58
224.631	36.86
224.849	94.21
225.067	251.9
225.285	22.53
225.503	0
225.721	-59.39
225.939	40.96
226.157	69.63
226.375	290.81
226.592	-71.68
226.81	26.62
227.028	81.92
227.246	96.25
227.464	22.53
227.682	81.92
227.9	172.03
228.117	79.87
228.335	151.55
228.553	38.91
228.771	53.25
228.989	90.11
229.206	45.06
229.424	-71.68
229.642	55.3
229.86	22.53
230.077	147.45
230.295	-36.86
230.513	196.61
230.731	106.49
230.948	163.84
231.166	153.6
231.384	38.91
231.601	2.05
231.819	186.37
232.037	65.54
232.254	-45.06
232.472	20.48
232.689	-30.72
232.907	102.4
233.125	22.53
233.342	28.67
233.56	34.82
233.777	32.77
233.995	-49.15
234.213	135.17
234.43	8.19
234.648	45.06
234.865	79.87
235.083	61.44
235.3	0
235.518	53.25
235.735	124.93
235.953	47.1
236.17	57.34
236.388	57.34
236.605	110.59
236.822	126.97
237.04	176.13
237.257	83.97
237.475	20.48
237.692	22.53
237.909	65.54
238.127	4.1
238.344	102.4
238.562	126.97
238.779	-14.34
238.996	-4.1
239.214	67.58
239.431	57.34
239.648	-40.96
239.865	100.35
240.083	92.16
240.3	-2.05
240.517	-53.25
240.735	32.77
240.952	137.21
241.169	53.25
241.386	53.25
241.603	57.34
241.821	28.67
242.038	126.97
242.255	139.26
242.472	-45.06
242.689	43.01
242.907	153.6
243.124	79.87
243.341	36.86
243.558	-28.67
243.775	-47.1
243.992	-90.11
244.209	-30.72
244.426	149.5
244.643	10.24
244.86	43.01
245.078	190.46
245.295	24.58
245.512	30.72
245.729	-43.01
245.946	65.54
246.163	73.73
246.38	81.92
246.597	40.96
246.814	-2.05
247.031	-65.53
247.248	32.77
247.464	61.44
247.681	20.48
247.898	106.49
248.115	92.16
248.332	-63.49
248.549	122.88
248.766	165.89
248.983	112.64
249.2	90.11
249.417	227.32
249.633	51.2
249.85	104.45
250.067	92.16
250.284	57.34
250.501	149.5
250.717	-6.14
250.934	28.67
251.151	43.01
251.368	-2.05
251.585	83.97
251.801	71.68
252.018	16.38
252.235	124.93
252.451	-24.58
252.668	30.72
252.885	79.87
253.102	36.86
253.318	49.15
253.535	22.53
253.752	51.2
253.968	45.06
254.185	24.58
254.401	18.43
254.618	20.48
254.835	59.39
255.051	182.27
255.268	43.01
255.484	67.58
255.701	18.43
255.917	18.43
256.134	-86.01
256.351	24.58
256.567	-75.77
256.784	65.54
257	-38.91
257.217	129.02
257.433	2.05
257.65	57.34
257.866	110.59
258.082	-38.91
258.299	-6.14
258.515	102.4
258.732	24.58
258.948	32.77
259.165	73.73
259.381	16.38
259.597	77.82
259.814	51.2
260.03	55.3
260.246	-26.62
260.463	106.49
260.679	165.89
260.895	65.54
261.112	124.93
261.328	16.38
261.544	16.38
261.761	239.61
261.977	45.06
262.193	-55.3
262.409	126.97
262.626	67.58
262.842	-4.1
263.058	-40.96
263.274	190.46
263.49	49.15
263.707	51.2
263.923	55.3
264.139	-71.68
264.355	65.54
264.571	94.21
264.787	81.92
265.004	75.77
265.22	81.92
265.436	-43.01
265.652	18.43
265.868	98.3
266.084	36.86
266.3	8.19
266.516	53.25
266.732	30.72
266.948	79.87
267.164	16.38
267.38	98.3
267.596	57.34
267.812	131.07
268.028	32.77
268.244	28.67
268.46	51.2
268.676	47.1
268.892	94.21
269.108	2.05
269.324	-77.82
269.54	55.3
269.756	94.21
269.972	-26.62
270.188	0
270.403	4.1
270.619	26.62
270.835	94.21
271.051	36.86
271.267	-24.58
271.483	75.77
271.698	96.25
271.914	38.91
272.13	61.44
272.346	0
272.562	106.49
272.777	98.3
272.993	118.78
273.209	8.19
273.425	77.82
273.64	-65.53
273.856	90.11
274.072	-49.15
274.287	10.24
274.503	102.4
274.719	77.82
274.934	10.24
275.15	-18.43
275.366	14.34
275.581	63.49
275.797	34.82
276.012	122.88
276.228	51.2
276.444	102.4
276.659	184.32
276.875	2.05
277.09	4.1
277.306	75.77
277.521	34.82
277.737	47.1
277.952	120.83
278.168	10.24
278.383	57.34
278.599	92.16
278.814	79.87
279.03	26.62
279.245	161.79
279.461	55.3
279.676	137.21
279.892	-47.1
280.107	-4.1
280.322	-71.68
280.538	108.54
280.753	-18.43
280.969	49.15
281.184	137.21
281.399	104.45
281.615	45.06
281.83	67.58
282.045	-77.82
282.26	-32.77
282.476	81.92
282.691	126.97
282.906	141.31
283.122	-8.19
283.337	-26.62
283.552	6.14
283.767	-16.38
283.983	133.12
284.198	16.38
284.413	65.54
284.628	20.48
284.843	22.53
285.058	88.06
285.274	53.25
285.489	32.77
285.704	186.37
285.919	12.29
286.134	4.1
286.349	30.72
286.564	100.35
286.779	120.83
286.995	20.48
287.21	-18.43
287.425	30.72
287.64	-22.53
287.855	88.06
288.07	30.72
288.285	67.58
288.5	143.36
288.715	67.58
288.93	67.58
289.145	34.82
289.36	77.82
289.575	22.53
289.79	135.17
290.004	-12.29
290.219	83.97
290.434	12.29
290.649	-14.34
290.864	-6.14
291.079	65.54
291.294	63.49
291.509	118.78
291.724	75.77
291.938	16.38
292.153	49.15
292.368	55.3
292.583	47.1
292.798	43.01
293.012	28.67
293.227	96.25
293.442	49.15
293.657	28.67
293.871	122.88
294.086	153.6
294.301	305.15
294.516	124.93
294.73	47.1
294.945	-28.67
295.16	98.3
295.374	94.21
295.589	120.83
295.804	-47.1
296.018	49.15
296.233	98.3
296.447	51.2
296.662	47.1
296.877	63.49
297.091	90.11
297.306	16.38
297.52	51.2
297.735	67.58
297.949	59.39
298.164	88.06
298.378	86.01
298.593	-2.05
298.807	24.58
299.022	22.53
299.236	206.84
299.451	-22.53
299.665	12.29
299.88	-12.29
300.094	92.16
300.309	38.91
300.523	143.36
300.737	-14.34
300.952	112.64
301.166	57.34
301.381	12.29
301.595	32.77
301.809	86.01
302.024	-28.67
302.238	81.92
302.452	110.59
302.667	65.54
302.881	120.83
303.095	141.31
303.309	32.77
303.524	45.06
303.738	81.92
303.952	0
304.166	20.48
304.381	-40.96
304.595	151.55
304.809	28.67
305.023	51.2
305.237	69.63
305.452	-26.62
305.666	114.69
305.88	40.96
306.094	120.83
306.308	65.54
306.522	112.64
306.736	133.12
306.95	104.45
307.164	20.48
307.379	-6.14
307.593	194.56
307.807	81.92
308.021	139.26
308.235	104.45
308.449	-40.96
308.663	61.44
308.877	223.23
309.091	98.3
309.305	75.77
309.519	-79.87
309.733	81.92
309.947	-40.96
310.161	94.21
310.374	67.58
310.588	174.08
310.802	6.14
311.016	8.19
311.23	73.73
311.444	47.1
311.658	26.62
311.872	124.93
312.085	159.74
312.299	63.49
312.513	124.93
312.727	45.06
312.941	-8.19
313.154	90.11
313.368	45.06
313.582	73.73
313.796	83.97
314.009	143.36
314.223	122.88
314.437	38.91
314.651	57.34
314.864	-40.96
315.078	20.48
315.292	-18.43
315.505	32.77
315.719	94.21
315.933	40.96
316.146	2.05
316.36	20.48
316.573	151.55
316.787	102.4
317.001	67.58
317.214	28.67
317.428	36.86
317.641	-18.43
317.855	32.77
318.068	20.48
318.282	32.77
318.495	145.41
318.709	47.1
318.922	40.96
319.136	88.06
319.349	102.4
319.563	65.54
319.776	92.16
319.99	-34.82
320.203	108.54
320.417	71.68
320.63	122.88
320.843	147.45
321.057	32.77
321.27	14.34
321.483	32.77
321.697	172.03
321.91	67.58
322.124	40.96
322.337	45.06
322.55	22.53
322.763	100.35
322.977	0
323.19	16.38
323.403	49.15
323.617	10.24
323.83	126.97
324.043	-75.77
324.256	110.59
324.469	-10.24
324.683	155.65
324.896	4.1
325.109	-36.86
325.322	0
325.535	90.11
325.748	116.73
325.962	12.29
326.175	104.45
326.388	71.68
326.601	53.25
326.814	24.58
327.027	51.2
327.24	92.16
327.453	-45.06
327.666	73.73
327.879	143.36
328.092	92.16
328.305	53.25
328.518	-47.1
328.731	-28.67
328.944	26.62
329.157	83.97
329.37	-30.72
329.583	176.13
329.796	149.5
330.009	16.38
330.222	96.25
330.435	55.3
330.648	108.54
330.861	40.96
331.073	47.1
331.286	57.34
331.499	94.21
331.712	-12.29
331.925	124.93
332.138	12.29
332.35	124.93
332.563	53.25
332.776	176.13
332.989	-8.19
333.202	32.77
333.414	49.15
333.627	102.4
333.84	71.68
334.053	20.48
334.265	-71.68
334.478	-32.77
334.691	75.77
334.903	32.77
335.116	69.63
335.329	38.91
335.541	8.19
335.754	88.06
335.966	12.29
336.179	75.77
336.392	22.53
336.604	10.24
336.817	12.29
337.029	40.96
337.242	24.58
337.454	129.02
337.667	18.43
337.88	215.04
338.092	92.16
338.305	118.78
338.517	77.82
338.729	71.68
338.942	219.13
339.154	26.62
339.367	-65.53
339.579	30.72
339.792	-32.77
340.004	24.58
340.217	-36.86
340.429	-26.62
340.641	-24.58
340.854	-8.19
341.066	135.17
341.278	57.34
341.491	153.6
341.703	69.63
341.915	30.72
342.128	137.21
342.34	75.77
342.552	24.58
342.764	30.72
342.977	8.19
343.189	22.53
343.401	36.86
343.613	-49.15
343.826	53.25
344.038	43.01
344.25	57.34
344.462	45.06
344.674	45.06
344.886	-32.77
345.099	55.3
345.311	108.54
345.523	81.92
345.735	-65.53
345.947	79.87
346.159	-2.05
346.371	32.77
346.583	47.1
346.795	235.52
347.007	26.62
347.219	98.3
347.431	-51.2
347.643	112.64
347.855	-8.19
348.067	114.69
348.279	-116.73
348.491	16.38
348.703	53.25
348.915	10.24
349.127	8.19
349.339	22.53
349.551	126.97
349.763	98.3
349.975	2.05
350.187	124.93
350.399	131.07
350.61	96.25
350.822	-4.1
351.034	133.12
351.246	-14.34
351.458	96.25
351.669	40.96
351.881	75.77
352.093	135.17
352.305	219.13
352.517	12.29
352.728	155.65
352.94	45.06
353.152	57.34
353.363	-18.43
353.575	83.97
353.787	196.61
353.999	196.61
354.21	178.17
354.422	16.38
354.633	40.96
354.845	63.49
355.057	77.82
355.268	63.49
355.48	96.25
355.692	-73.73
355.903	34.82
356.115	-49.15
356.326	-59.39
356.538	122.88
356.749	88.06
356.961	143.36
357.172	53.25
357.384	-57.34
357.595	126.97
357.807	51.2
358.018	73.73
358.23	0
358.441	204.8
358.653	153.6
358.864	12.29
359.075	-24.58
359.287	61.44
359.498	122.88
359.709	196.61
359.921	2.05
360.132	86.01
360.344	8.19
360.555	114.69
360.766	65.54
360.977	20.48
361.189	88.06
361.4	-10.24
361.611	180.22
361.823	120.83
362.034	51.2
362.245	-16.38
362.456	20.48
362.667	161.79
362.879	-30.72
363.09	18.43
363.301	86.01
363.512	96.25
363.723	-26.62
363.935	47.1
364.146	112.64
364.357	57.34
364.568	98.3
364.779	-43.01
364.99	169.98
365.201	36.86
365.412	75.77
365.623	-28.67
365.834	100.35
366.045	16.38
366.256	71.68
366.467	28.67
366.678	40.96
366.889	77.82
367.1	8.19
367.311	112.64
367.522	-18.43
367.733	86.01
367.944	141.31
368.155	53.25
368.366	81.92
368.577	110.59
368.788	57.34
368.999	-14.34
369.209	-55.3
369.42	247.8
369.631	212.99
369.842	94.21
370.053	45.06
370.264	98.3
370.474	-47.1
370.685	102.4
370.896	92.16
371.107	98.3
371.317	163.84
371.528	-30.72
371.739	163.84
371.95	83.97
372.16	49.15
372.371	-24.58
372.582	2.05
372.792	16.38
373.003	26.62
373.214	20.48
373.424	90.11
373.635	-36.86
373.846	77.82
374.056	69.63
374.267	131.07
374.477	92.16
374.688	-16.38
374.898	104.45
375.109	65.54
375.319	47.1
375.53	118.78
375.74	114.69
375.951	28.67
376.161	96.25
376.372	141.31
376.582	8.19
376.793	53.25
377.003	26.62
377.214	71.68
377.424	90.11
377.635	131.07
377.845	-24.58
378.055	18.43
378.266	-40.96
378.476	-8.19
378.686	118.78
378.897	92.16
379.107	124.93
379.317	98.3
379.528	16.38
379.738	118.78
379.948	18.43
380.158	92.16
380.369	81.92
380.579	104.45
380.789	-14.34
380.999	114.69
381.21	94.21
381.42	145.41
381.63	28.67
381.84	96.25
382.05	176.13
382.261	141.31
382.471	180.22
382.681	92.16
382.891	178.17
383.101	61.44
383.311	-38.91
383.521	-8.19
383.731	129.02
383.941	161.79
384.151	126.97
384.361	36.86
384.571	92.16
384.781	67.58
384.991	233.47
385.201	73.73
385.411	49.15
385.621	71.68
385.831	63.49
386.041	47.1
386.251	16.38
386.461	92.16
386.671	53.25
386.881	126.97
387.091	75.77
387.301	79.87
387.511	104.45
387.72	47.1
387.93	92.16
388.14	-16.38
388.35	34.82
388.56	88.06
388.769	188.41
388.979	28.67
389.189	38.91
389.399	47.1
389.609	61.44
389.818	129.02
390.028	18.43
390.238	92.16
390.447	36.86
390.657	69.63
390.867	43.01
391.076	-34.82
391.286	8.19
391.496	22.53
391.705	65.54
391.915	75.77
392.125	102.4
392.334	-8.19
392.544	126.97
392.753	49.15
392.963	-10.24
393.172	30.72
393.382	100.35
393.591	176.13
393.801	-2.05
394.01	190.46
394.22	137.21
394.429	51.2
394.639	77.82
394.848	55.3
395.058	63.49
395.267	-14.34
395.477	77.82
395.686	32.77
395.895	184.32
396.105	88.06
396.314	106.49
396.524	36.86
396.733	73.73
396.942	81.92
397.152	104.45
397.361	194.56
397.57	106.49
397.78	45.06
397.989	47.1
398.198	225.28
398.407	28.67
398.617	43.01
398.826	110.59
399.035	49.15
399.244	169.98
399.453	-22.53
399.663	47.1
399.872	94.21
400.081	-38.91
400.29	182.27
400.499	10.24
400.708	188.41
400.917	14.34
401.127	88.06
401.336	143.36
401.545	161.79
401.754	167.93
401.963	34.82
402.172	-4.1
402.381	-81.92
402.59	22.53
402.799	38.91
403.008	147.45
403.217	83.97
403.426	94.21
403.635	-20.48
403.844	-2.05
404.053	32.77
404.262	16.38
404.471	223.23
404.68	28.67
404.888	79.87
405.097	8.19
405.306	30.72
405.515	75.77
405.724	22.53
405.933	98.3
406.142	16.38
406.35	116.73
406.559	47.1
406.768	110.59
406.977	206.84
407.185	55.3
407.394	51.2
407.603	-28.67
407.812	81.92
408.02	147.45
408.229	67.58
408.438	49.15
408.646	-79.87
408.855	-14.34
409.064	137.21
409.272	-2.05
409.481	71.68
409.69	16.38
409.898	26.62
410.107	53.25
410.315	135.17
410.524	-18.43
410.733	71.68
410.941	-36.86
411.15	96.25
411.358	129.02
411.567	137.21
411.775	47.1
411.984	67.58
412.192	79.87
412.401	45.06
412.609	178.17
412.818	163.84
413.026	-12.29
413.234	4.1
413.443	6.14
413.651	-30.72
413.86	34.82
414.068	212.99
414.276	126.97
414.485	-4.1
414.693	143.36
414.901	182.27
415.11	135.17
415.318	43.01
415.526	139.26
415.734	102.4
415.943	71.68
416.151	147.45
416.359	20.48
416.567	38.91
416.776	141.31
416.984	116.73
417.192	155.65
417.4	16.38
417.608	10.24
417.817	94.21
418.025	83.97
418.233	210.94
418.441	-47.1
418.649	0
418.857	100.35
419.065	165.89
419.273	-18.43
419.481	110.59
419.689	53.25
419.897	20.48
420.105	6.14
420.313	55.3
420.521	178.17
420.729	200.7
420.937	10.24
421.145	55.3
421.353	63.49
421.561	188.41
421.769	112.64
421.977	20.48
422.185	102.4
422.393	81.92
422.601	139.26
422.809	106.49
423.017	-43.01
423.224	71.68
423.432	184.32
423.64	16.38
423.848	161.79
424.056	-4.1
424.263	188.41
424.471	65.54
424.679	126.97
424.887	-8.19
425.094	137.21
425.302	106.49
425.51	98.3
425.718	122.88
425.925	53.25
426.133	4.1
426.341	229.37
426.548	65.54
426.756	112.64
426.964	94.21
427.171	86.01
427.379	77.82
427.586	26.62
427.794	161.79
428.001	159.74
428.209	69.63
428.417	186.37
428.624	135.17
428.832	165.89
429.039	116.73
429.247	94.21
429.454	110.59
429.662	282.62
429.869	129.02
430.076	161.79
430.284	184.32
430.491	153.6
430.699	210.94
430.906	286.72
431.114	118.78
431.321	131.07
431.528	59.39
431.736	192.51
431.943	169.98
432.15	202.75
432.358	180.22
432.565	253.95
432.772	59.39
432.979	262.14
433.187	90.11
433.394	247.8
433.601	102.4
433.808	155.65
434.016	225.28
434.223	208.89
434.43	194.56
434.637	374.78
434.844	212.99
435.052	251.9
435.259	260.09
435.466	223.23
435.673	278.52
435.88	303.1
436.087	337.91
436.294	225.28
436.501	360.44
436.708	290.81
436.915	337.91
437.122	303.1
437.329	229.37
437.537	360.44
437.743	378.87
437.95	401.4
438.157	286.72
438.364	305.15
438.571	327.67
438.778	452.6
438.985	385.02
439.192	440.31
439.399	360.44
439.606	481.27
439.813	573.43
440.02	616.44
440.227	555
440.433	569.34
440.64	471.03
440.847	503.8
441.054	624.63
441.261	657.4
441.467	497.66
441.674	583.67
441.881	686.07
442.088	583.67
442.294	692.21
442.501	655.35
442.708	845.81
442.914	600.05
443.121	800.76
443.328	835.57
443.534	921.59
443.741	1013.74
443.948	788.47
444.154	974.83
444.361	1089.52
444.568	974.83
444.774	1007.6
444.981	950.26
445.187	1026.03
445.394	1054.7
445.6	1003.5
445.807	1257.45
446.013	1249.26
446.22	1167.34
446.426	1384.43
446.633	1443.82
446.839	1626.09
447.046	1392.62
447.252	1583.08
447.459	1540.07
447.665	1607.66
447.871	1845.22
448.078	1808.36
448.284	1869.8
448.491	1888.23
448.697	1982.43
448.903	2174.94
449.11	2107.36
449.316	2113.5
449.522	2256.86
449.728	2435.03
449.935	2461.66
450.141	2465.75
450.347	2691.03
450.553	2588.63
450.76	2752.47
450.966	2725.85
451.172	2858.96
451.378	3104.72
451.584	3059.67
451.791	3405.77
451.997	3317.71
452.203	3516.36
452.409	3637.19
452.615	3960.77
452.821	3712.97
453.027	3719.11
453.233	4251.58
453.44	4024.26
453.646	4329.41
453.852	4530.11
454.058	4638.65
454.264	4812.73
454.47	5214.13
454.676	5191.6
454.882	5506.99
455.088	5402.54
455.294	5590.95
455.5	6039.46
455.705	6297.5
455.911	6537.12
456.117	6430.62
456.323	6840.22
456.529	6897.56
456.735	7499.66
456.941	7737.23
457.147	7987.08
457.352	8073.09
457.558	8288.13
457.764	8908.66
457.97	9148.28
458.176	9561.97
458.381	9918.31
458.587	10153.83
458.793	10837.85
458.999	10686.3
459.204	11910.99
459.41	12414.79
459.616	12222.28
459.821	12986.17
460.027	13647.66
460.233	14235.43
460.438	14173.99
460.644	15091.48
460.85	15091.48
461.055	15775.5
461.261	16451.33
461.466	16170.76
461.672	16295.69
461.878	18290.41
462.083	18308.84
462.289	18444.01
462.494	19435.22
462.7	19504.85
462.905	19838.67
463.111	21264.06
463.316	22611.62
463.522	22830.76
463.727	23574.17
463.932	24571.53
464.138	25101.95
464.343	26433.13
464.549	26203.76
464.754	28395.09
464.959	29032
465.165	29795.9
465.37	29331.01
465.575	29257.28
465.781	31165.99
465.986	32370.19
466.191	31655.45
466.397	31987.22
466.602	31321.63
466.807	33080.84
467.012	33342.98
467.218	33961.47
467.423	34465.27
467.628	35089.9
467.833	36832.72
468.038	36169.18
468.244	35507.68
468.449	37477.83
468.654	36765.13
468.859	36279.77
469.064	36908.49
469.269	35773.92
