Data from USB4F104151__118__10-39-42-401.txt Node

Date: Wed Feb 26 10:39:42 EST 2025
User: louis
Spectrometer: USB4F10415
Trigger mode: 4
Integration Time (sec): 1.000000E-1
Scans to average: 1
Electric dark correction enabled: true
Nonlinearity correction enabled: false
Boxcar width: 0
XAxis mode: Wavelengths
Number of Pixels in Spectrum: 3648
>>>>>Begin Spectral Data<<<<<
178.204	-383.48
178.424	-383.48
178.644	-383.48
178.864	-461.3
179.084	-344.57
179.304	34.3
179.524	-25.09
179.744	-35.33
179.964	11.78
180.184	13.82
180.404	42.5
180.624	-12.8
180.844	9.73
181.064	5.63
181.283	-53.76
181.503	-14.85
181.723	24.06
181.943	-27.14
182.163	230.91
182.383	-53.76
182.602	67.07
182.822	194.05
183.042	142.85
183.262	-51.71
183.482	-33.28
183.701	15.87
183.921	83.45
184.141	42.5
184.361	77.31
184.58	52.74
184.8	85.5
185.02	-35.33
185.239	148.99
185.459	101.89
185.679	138.75
185.898	-23.04
186.118	91.65
186.338	34.3
186.557	157.18
186.777	15.87
186.997	-12.8
187.216	15.87
187.436	165.37
187.655	34.3
187.875	19.97
188.095	-14.85
188.314	183.81
188.534	58.88
188.753	-37.38
188.973	99.84
189.192	194.05
189.412	105.98
189.631	77.31
189.851	130.56
190.07	116.22
190.29	-107.01
190.509	11.78
190.729	124.41
190.948	202.24
191.168	220.67
191.387	71.17
191.607	-2.56
191.826	91.65
192.045	28.16
192.265	-39.42
192.484	52.74
192.704	46.59
192.923	-6.66
193.142	142.85
193.362	99.84
193.581	56.83
193.8	-23.04
194.02	110.08
194.239	103.93
194.458	134.65
194.678	85.5
194.897	44.54
195.116	1.54
195.335	62.98
195.555	93.69
195.774	13.82
195.993	198.14
196.212	44.54
196.432	99.84
196.651	-37.38
196.87	13.82
197.089	232.96
197.308	36.35
197.528	108.03
197.747	1.54
197.966	65.02
198.185	185.85
198.404	-51.71
198.623	7.68
198.842	132.61
199.062	56.83
199.281	148.99
199.5	54.78
199.719	89.6
199.938	46.59
200.157	128.51
200.376	148.99
200.595	126.46
200.814	83.45
201.033	-23.04
201.252	91.65
201.471	71.17
201.69	56.83
201.909	52.74
202.128	189.95
202.347	189.95
202.566	15.87
202.785	-113.15
203.004	50.69
203.223	185.85
203.442	19.97
203.661	-74.24
203.879	3.58
204.098	222.72
204.317	34.3
204.536	108.03
204.755	38.4
204.974	128.51
205.193	24.06
205.411	151.04
205.63	122.37
205.849	73.21
206.068	-43.52
206.287	-10.75
206.505	103.93
206.724	38.4
206.943	-23.04
207.162	1.54
207.381	77.31
207.599	9.73
207.818	73.21
208.037	79.36
208.255	54.78
208.474	44.54
208.693	65.02
208.911	26.11
209.13	128.51
209.349	112.13
209.567	114.17
209.786	67.07
210.005	116.22
210.223	122.37
210.442	-92.67
210.661	19.97
210.879	30.21
211.098	-12.8
211.316	56.83
211.535	46.59
211.753	34.3
211.972	85.5
212.191	60.93
212.409	42.5
212.628	105.98
212.846	-10.75
213.065	77.31
213.283	73.21
213.502	77.31
213.72	95.74
213.938	15.87
214.157	46.59
214.375	99.84
214.594	65.02
214.812	79.36
215.031	-41.47
215.249	-49.66
215.467	52.74
215.686	79.36
215.904	85.5
216.122	87.55
216.341	200.19
216.559	71.17
216.778	105.98
216.996	89.6
217.214	3.58
217.432	13.82
217.651	-64
217.869	69.12
218.087	91.65
218.306	87.55
218.524	-0.51
218.742	36.35
218.96	108.03
219.179	87.55
219.397	-23.04
219.615	259.58
219.833	79.36
220.051	-23.04
220.27	87.55
220.488	101.89
220.706	124.41
220.924	-43.52
221.142	-55.81
221.36	132.61
221.578	52.74
221.796	-8.7
222.015	46.59
222.233	52.74
222.451	138.75
222.669	-98.81
222.887	112.13
223.105	-45.57
223.323	56.83
223.541	-39.42
223.759	58.88
223.977	-0.51
224.195	194.05
224.413	83.45
224.631	50.69
224.849	24.06
225.067	210.43
225.285	73.21
225.503	120.32
225.721	1.54
225.939	85.5
226.157	54.78
226.375	228.86
226.592	-12.8
226.81	-29.18
227.028	114.17
227.246	81.41
227.464	34.3
227.682	101.89
227.9	60.93
228.117	19.97
228.335	62.98
228.553	50.69
228.771	24.06
228.989	122.37
229.206	67.07
229.424	24.06
229.642	-10.75
229.86	-45.57
230.077	77.31
230.295	46.59
230.513	132.61
230.731	103.93
230.948	101.89
231.166	241.15
231.384	97.79
231.601	30.21
231.819	169.47
232.037	-2.56
232.254	3.58
232.472	19.97
232.689	54.78
232.907	95.74
233.125	-12.8
233.342	58.88
233.56	11.78
233.777	24.06
233.995	60.93
234.213	112.13
234.43	42.5
234.648	95.74
234.865	3.58
235.083	85.5
235.3	38.4
235.518	65.02
235.735	126.46
235.953	103.93
236.17	75.26
236.388	40.45
236.605	-18.94
236.822	42.5
237.04	132.61
237.257	-31.23
237.475	-23.04
237.692	44.54
237.909	91.65
238.127	103.93
238.344	24.06
238.562	87.55
238.779	-20.99
238.996	-29.18
239.214	5.63
239.431	118.27
239.648	77.31
239.865	62.98
240.083	110.08
240.3	36.35
240.517	9.73
240.735	58.88
240.952	105.98
241.169	124.41
241.386	134.65
241.603	73.21
241.821	-41.47
242.038	67.07
242.255	148.99
242.472	-59.9
242.689	83.45
242.907	83.45
243.124	87.55
243.341	28.16
243.558	-72.19
243.775	-2.56
243.992	-16.9
244.209	130.56
244.426	173.57
244.643	54.78
244.86	5.63
245.078	95.74
245.295	56.83
245.512	112.13
245.729	-35.33
245.946	161.28
246.163	65.02
246.38	93.69
246.597	58.88
246.814	54.78
247.031	75.26
247.248	67.07
247.464	26.11
247.681	24.06
247.898	50.69
248.115	83.45
248.332	-53.76
248.549	198.14
248.766	91.65
248.983	19.97
249.2	36.35
249.417	54.78
249.633	15.87
249.85	22.02
250.067	-12.8
250.284	124.41
250.501	46.59
250.717	54.78
250.934	36.35
251.151	-74.24
251.368	-8.7
251.585	30.21
251.801	87.55
252.018	7.68
252.235	114.17
252.451	-37.38
252.668	26.11
252.885	62.98
253.102	81.41
253.318	36.35
253.535	-33.28
253.752	-33.28
253.968	-45.57
254.185	-111.1
254.401	-25.09
254.618	79.36
254.835	52.74
255.051	91.65
255.268	99.84
255.484	-23.04
255.701	62.98
255.917	5.63
256.134	81.41
256.351	15.87
256.567	-29.18
256.784	7.68
257	-72.19
257.217	124.41
257.433	118.27
257.65	89.6
257.866	144.89
258.082	-104.96
258.299	-0.51
258.515	93.69
258.732	75.26
258.948	-20.99
259.165	26.11
259.381	22.02
259.597	108.03
259.814	13.82
260.03	58.88
260.246	32.26
260.463	128.51
260.679	155.13
260.895	1.54
261.112	91.65
261.328	99.84
261.544	1.54
261.761	97.79
261.977	32.26
262.193	-16.9
262.409	105.98
262.626	73.21
262.842	67.07
263.058	54.78
263.274	79.36
263.49	62.98
263.707	75.26
263.923	65.02
264.139	-115.2
264.355	67.07
264.571	161.28
264.787	73.21
265.004	144.89
265.22	17.92
265.436	-2.56
265.652	17.92
265.868	46.59
266.084	30.21
266.3	81.41
266.516	-6.66
266.732	71.17
266.948	7.68
267.164	-37.38
267.38	91.65
267.596	126.46
267.812	196.09
268.028	36.35
268.244	15.87
268.46	19.97
268.676	-23.04
268.892	-10.75
269.108	50.69
269.324	-78.33
269.54	32.26
269.756	99.84
269.972	-61.95
270.188	58.88
270.403	-2.56
270.619	5.63
270.835	38.4
271.051	15.87
271.267	-18.94
271.483	3.58
271.698	95.74
271.914	22.02
272.13	58.88
272.346	13.82
272.562	69.12
272.777	128.51
272.993	26.11
273.209	-61.95
273.425	110.08
273.64	-125.44
273.856	116.22
274.072	15.87
274.287	-55.81
274.503	124.41
274.719	26.11
274.934	-45.57
275.15	-45.57
275.366	7.68
275.581	-35.33
275.797	36.35
276.012	48.64
276.228	67.07
276.444	110.08
276.659	120.32
276.875	-16.9
277.09	-72.19
277.306	28.16
277.521	144.89
277.737	36.35
277.952	69.12
278.168	-27.14
278.383	50.69
278.599	87.55
278.814	116.22
279.03	87.55
279.245	151.04
279.461	36.35
279.676	56.83
279.892	-16.9
280.107	-14.85
280.322	3.58
280.538	83.45
280.753	58.88
280.969	73.21
281.184	105.98
281.399	120.32
281.615	62.98
281.83	91.65
282.045	-74.24
282.26	-37.38
282.476	87.55
282.691	108.03
282.906	120.32
283.122	32.26
283.337	-55.81
283.552	52.74
283.767	38.4
283.983	110.08
284.198	-59.9
284.413	122.37
284.628	19.97
284.843	5.63
285.058	48.64
285.274	5.63
285.489	11.78
285.704	71.17
285.919	-37.38
286.134	15.87
286.349	77.31
286.564	81.41
286.779	212.48
286.995	52.74
287.21	-47.62
287.425	1.54
287.64	48.64
287.855	52.74
288.07	-14.85
288.285	142.85
288.5	181.76
288.715	148.99
288.93	75.26
289.145	13.82
289.36	75.26
289.575	56.83
289.79	85.5
290.004	-37.38
290.219	118.27
290.434	38.4
290.649	7.68
290.864	40.45
291.079	-70.14
291.294	38.4
291.509	38.4
291.724	-20.99
291.938	17.92
292.153	-25.09
292.368	46.59
292.583	58.88
292.798	65.02
293.012	73.21
293.227	73.21
293.442	58.88
293.657	118.27
293.871	173.57
294.086	42.5
294.301	196.09
294.516	118.27
294.73	24.06
294.945	-18.94
295.16	30.21
295.374	142.85
295.589	194.05
295.804	54.78
296.018	85.5
296.233	52.74
296.447	24.06
296.662	-14.85
296.877	122.37
297.091	30.21
297.306	-18.94
297.52	30.21
297.735	48.64
297.949	-14.85
298.164	-41.47
298.378	60.93
298.593	-20.99
298.807	-51.71
299.022	58.88
299.236	120.32
299.451	1.54
299.665	46.59
299.88	71.17
300.094	130.56
300.309	9.73
300.523	99.84
300.737	17.92
300.952	85.5
301.166	128.51
301.381	-0.51
301.595	-25.09
301.809	62.98
302.024	-6.66
302.238	-14.85
302.452	167.42
302.667	26.11
302.881	159.23
303.095	148.99
303.309	28.16
303.524	-43.52
303.738	-0.51
303.952	22.02
304.166	56.83
304.381	-49.66
304.595	116.22
304.809	-10.75
305.023	-78.33
305.237	-14.85
305.452	-68.09
305.666	95.74
305.88	58.88
306.094	73.21
306.308	19.97
306.522	60.93
306.736	32.26
306.95	138.75
307.164	116.22
307.379	56.83
307.593	151.04
307.807	81.41
308.021	173.57
308.235	46.59
308.449	-43.52
308.663	-0.51
308.877	230.91
309.091	-12.8
309.305	36.35
309.519	-43.52
309.733	159.23
309.947	-53.76
310.161	108.03
310.374	110.08
310.588	110.08
310.802	-8.7
311.016	28.16
311.23	118.27
311.444	-61.95
311.658	-12.8
311.872	108.03
312.085	136.7
312.299	163.33
312.513	157.18
312.727	81.41
312.941	-8.7
313.154	95.74
313.368	11.78
313.582	48.64
313.796	54.78
314.009	65.02
314.223	144.89
314.437	75.26
314.651	79.36
314.864	48.64
315.078	-31.23
315.292	-31.23
315.505	11.78
315.719	87.55
315.933	60.93
316.146	-14.85
316.36	-39.42
316.573	163.33
316.787	85.5
317.001	56.83
317.214	-4.61
317.428	153.09
317.641	-35.33
317.855	58.88
318.068	128.51
318.282	130.56
318.495	216.57
318.709	30.21
318.922	11.78
319.136	97.79
319.349	108.03
319.563	69.12
319.776	108.03
319.99	-86.53
320.203	91.65
320.417	-10.75
320.63	103.93
320.843	161.28
321.057	105.98
321.27	17.92
321.483	95.74
321.697	77.31
321.91	50.69
322.124	91.65
322.337	67.07
322.55	44.54
322.763	73.21
322.977	22.02
323.19	-16.9
323.403	36.35
323.617	67.07
323.83	69.12
324.043	54.78
324.256	7.68
324.469	-27.14
324.683	208.38
324.896	26.11
325.109	52.74
325.322	-23.04
325.535	77.31
325.748	99.84
325.962	83.45
326.175	-39.42
326.388	62.98
326.601	159.23
326.814	5.63
327.027	46.59
327.24	159.23
327.453	1.54
327.666	97.79
327.879	181.76
328.092	71.17
328.305	13.82
328.518	56.83
328.731	-8.7
328.944	50.69
329.157	97.79
329.37	-59.9
329.583	83.45
329.796	110.08
330.009	-199.16
330.222	40.45
330.435	185.85
330.648	-4.61
330.861	79.36
331.073	67.07
331.286	97.79
331.499	30.21
331.712	-45.57
331.925	40.45
332.138	52.74
332.35	62.98
332.563	-0.51
332.776	167.42
332.989	-49.66
333.202	24.06
333.414	75.26
333.627	-10.75
333.84	-39.42
334.053	46.59
334.265	15.87
334.478	3.58
334.691	1.54
334.903	71.17
335.116	17.92
335.329	36.35
335.541	116.22
335.754	212.48
335.966	-66.05
336.179	44.54
336.392	15.87
336.604	77.31
336.817	128.51
337.029	83.45
337.242	-27.14
337.454	157.18
337.667	34.3
337.88	177.66
338.092	56.83
338.305	46.59
338.517	9.73
338.729	116.22
338.942	128.51
339.154	-51.71
339.367	-0.51
339.579	67.07
339.792	9.73
340.004	19.97
340.217	34.3
340.429	30.21
340.641	-43.52
340.854	22.02
341.066	-14.85
341.278	177.66
341.491	194.05
341.703	95.74
341.915	-45.57
342.128	163.33
342.34	103.93
342.552	-6.66
342.764	77.31
342.977	60.93
343.189	22.02
343.401	110.08
343.613	-35.33
343.826	-0.51
344.038	9.73
344.25	-8.7
344.462	-29.18
344.674	42.5
344.886	46.59
345.099	75.26
345.311	128.51
345.523	30.21
345.735	-45.57
345.947	-12.8
346.159	116.22
346.371	30.21
346.583	17.92
346.795	196.09
347.007	-14.85
347.219	75.26
347.431	-8.7
347.643	116.22
347.855	-45.57
348.067	99.84
348.279	-20.99
348.491	36.35
348.703	89.6
348.915	19.97
349.127	-14.85
349.339	46.59
349.551	-4.61
349.763	73.21
349.975	87.55
350.187	56.83
350.399	134.65
350.61	212.48
350.822	-16.9
351.034	108.03
351.246	28.16
351.458	93.69
351.669	97.79
351.881	5.63
352.093	148.99
352.305	142.85
352.517	75.26
352.728	69.12
352.94	101.89
353.152	-0.51
353.363	-0.51
353.575	62.98
353.787	153.09
353.999	28.16
354.21	171.52
354.422	-10.75
354.633	5.63
354.845	-6.66
355.057	60.93
355.268	40.45
355.48	134.65
355.692	-23.04
355.903	93.69
356.115	-53.76
356.326	-68.09
356.538	134.65
356.749	120.32
356.961	126.46
357.172	89.6
357.384	-64
357.595	222.72
357.807	22.02
358.018	3.58
358.23	30.21
358.441	165.37
358.653	138.75
358.864	13.82
359.075	28.16
359.287	26.11
359.498	85.5
359.709	42.5
359.921	67.07
360.132	56.83
360.344	69.12
360.555	19.97
360.766	15.87
360.977	52.74
361.189	79.36
361.4	67.07
361.611	110.08
361.823	118.27
362.034	42.5
362.245	-90.62
362.456	52.74
362.667	54.78
362.879	13.82
363.09	-14.85
363.301	46.59
363.512	-37.38
363.723	-10.75
363.935	17.92
364.146	144.89
364.357	7.68
364.568	108.03
364.779	-55.81
364.99	85.5
365.201	-27.14
365.412	118.27
365.623	-127.49
365.834	71.17
366.045	19.97
366.256	103.93
366.467	163.33
366.678	105.98
366.889	1.54
367.1	5.63
367.311	85.5
367.522	3.58
367.733	99.84
367.944	77.31
368.155	36.35
368.366	71.17
368.577	214.52
368.788	138.75
368.999	26.11
369.209	95.74
369.42	146.94
369.631	261.63
369.842	89.6
370.053	-10.75
370.264	97.79
370.474	62.98
370.685	19.97
370.896	19.97
371.107	120.32
371.317	62.98
371.528	56.83
371.739	183.81
371.95	44.54
372.16	118.27
372.371	-78.33
372.582	-10.75
372.792	83.45
373.003	28.16
373.214	1.54
373.424	110.08
373.635	36.35
373.846	173.57
374.056	9.73
374.267	42.5
374.477	34.3
374.688	1.54
374.898	30.21
375.109	24.06
375.319	67.07
375.53	56.83
375.74	32.26
375.951	44.54
376.161	67.07
376.372	75.26
376.582	-72.19
376.793	83.45
377.003	-31.23
377.214	-68.09
377.424	1.54
377.635	140.8
377.845	-29.18
378.055	153.09
378.266	-23.04
378.476	73.21
378.686	54.78
378.897	69.12
379.107	56.83
379.317	77.31
379.528	-10.75
379.738	28.16
379.948	-33.28
380.158	87.55
380.369	5.63
380.579	124.41
380.789	11.78
380.999	95.74
381.21	144.89
381.42	210.43
381.63	24.06
381.84	69.12
382.05	79.36
382.261	177.66
382.471	138.75
382.681	71.17
382.891	157.18
383.101	42.5
383.311	-41.47
383.521	22.02
383.731	85.5
383.941	81.41
384.151	5.63
384.361	-51.71
384.571	44.54
384.781	108.03
384.991	230.91
385.201	161.28
385.411	87.55
385.621	110.08
385.831	97.79
386.041	40.45
386.251	69.12
386.461	116.22
386.671	75.26
386.881	36.35
387.091	42.5
387.301	183.81
387.511	73.21
387.72	73.21
387.93	120.32
388.14	-86.53
388.35	15.87
388.56	67.07
388.769	87.55
388.979	34.3
389.189	3.58
389.399	71.17
389.609	120.32
389.818	132.61
390.028	132.61
390.238	24.06
390.447	87.55
390.657	1.54
390.867	26.11
391.076	7.68
391.286	40.45
391.496	11.78
391.705	95.74
391.915	81.41
392.125	112.13
392.334	17.92
392.544	153.09
392.753	19.97
392.963	-23.04
393.172	44.54
393.382	48.64
393.591	202.24
393.801	9.73
394.01	138.75
394.22	54.78
394.429	7.68
394.639	36.35
394.848	28.16
395.058	112.13
395.267	58.88
395.477	46.59
395.686	83.45
395.895	241.15
396.105	232.96
396.314	54.78
396.524	24.06
396.733	83.45
396.942	120.32
397.152	97.79
397.361	136.7
397.57	81.41
397.78	28.16
397.989	42.5
398.198	189.95
398.407	87.55
398.617	-18.94
398.826	42.5
399.035	52.74
399.244	81.41
399.453	19.97
399.663	56.83
399.872	128.51
400.081	-0.51
400.29	187.9
400.499	-84.48
400.708	105.98
400.917	-16.9
401.127	-53.76
401.336	-27.14
401.545	128.51
401.754	175.61
401.963	144.89
402.172	30.21
402.381	22.02
402.59	65.02
402.799	34.3
403.008	83.45
403.217	60.93
403.426	116.22
403.635	-53.76
403.844	-43.52
404.053	40.45
404.262	22.02
404.471	175.61
404.68	56.83
404.888	46.59
405.097	-10.75
405.306	79.36
405.515	138.75
405.724	15.87
405.933	112.13
406.142	22.02
406.35	105.98
406.559	40.45
406.768	97.79
406.977	224.76
407.185	11.78
407.394	48.64
407.603	-6.66
407.812	38.4
408.02	153.09
408.229	26.11
408.438	155.13
408.646	-23.04
408.855	46.59
409.064	108.03
409.272	11.78
409.481	48.64
409.69	34.3
409.898	-12.8
410.107	189.95
410.315	67.07
410.524	-14.85
410.733	-18.94
410.941	1.54
411.15	128.51
411.358	105.98
411.567	114.17
411.775	56.83
411.984	99.84
412.192	81.41
412.401	60.93
412.609	148.99
412.818	108.03
413.026	103.93
413.234	-16.9
413.443	58.88
413.651	62.98
413.86	77.31
414.068	116.22
414.276	169.47
414.485	69.12
414.693	183.81
414.901	122.37
415.11	97.79
415.318	91.65
415.526	54.78
415.734	112.13
415.943	40.45
416.151	151.04
416.359	48.64
416.567	142.85
416.776	95.74
416.984	83.45
417.192	173.57
417.4	-0.51
417.608	79.36
417.817	-37.38
418.025	97.79
418.233	157.18
418.441	60.93
418.649	-33.28
418.857	114.17
419.065	126.46
419.273	15.87
419.481	85.5
419.689	97.79
419.897	3.58
420.105	-18.94
420.313	97.79
420.521	120.32
420.729	56.83
420.937	30.21
421.145	-27.14
421.353	73.21
421.561	120.32
421.769	26.11
421.977	26.11
422.185	122.37
422.393	15.87
422.601	87.55
422.809	62.98
423.017	26.11
423.224	81.41
423.432	85.5
423.64	52.74
423.848	157.18
424.056	-53.76
424.263	157.18
424.471	71.17
424.679	69.12
424.887	-37.38
425.094	48.64
425.302	134.65
425.51	93.69
425.718	208.38
425.925	30.21
426.133	-35.33
426.341	210.43
426.548	42.5
426.756	44.54
426.964	120.32
427.171	9.73
427.379	17.92
427.586	48.64
427.794	93.69
428.001	153.09
428.209	97.79
428.417	103.93
428.624	163.33
428.832	196.09
429.039	95.74
429.247	32.26
429.454	108.03
429.662	187.9
429.869	103.93
430.076	138.75
430.284	148.99
430.491	110.08
430.699	130.56
430.906	249.34
431.114	87.55
431.321	157.18
431.528	169.47
431.736	169.47
431.943	136.7
432.15	95.74
432.358	159.23
432.565	214.52
432.772	-68.09
432.979	183.81
433.187	112.13
433.394	210.43
433.601	105.98
433.808	171.52
434.016	183.81
434.223	224.76
434.43	224.76
434.637	296.44
434.844	243.2
435.052	179.71
435.259	208.38
435.466	263.68
435.673	214.52
435.88	296.44
436.087	343.55
436.294	288.25
436.501	261.63
436.708	257.53
436.915	280.06
437.122	306.68
437.329	171.52
437.537	255.48
437.743	275.96
437.95	376.31
438.157	288.25
438.364	290.3
438.571	407.03
438.778	452.09
438.985	396.79
439.192	482.81
439.399	357.88
439.606	316.92
439.813	454.14
440.02	544.25
440.227	386.55
440.433	437.75
440.64	460.28
440.847	335.35
441.054	472.57
441.261	538.1
441.467	615.93
441.674	333.31
441.881	579.06
442.088	534.01
442.294	587.26
442.501	615.93
442.708	677.37
442.914	525.82
443.121	708.09
443.328	710.13
443.534	749.04
443.741	751.09
443.948	640.5
444.154	755.19
444.361	953.84
444.568	763.38
444.774	933.36
444.981	755.19
445.187	986.61
445.394	855.54
445.6	843.25
445.807	996.85
446.013	925.17
446.22	1025.52
446.426	1093.1
446.633	1181.17
446.839	1256.94
447.046	1144.3
447.252	1314.28
447.459	1287.66
447.665	1322.48
447.871	1385.96
448.078	1533.42
448.284	1617.38
448.491	1701.35
448.697	1725.93
448.903	1725.93
449.11	1857
449.316	1617.38
449.522	1979.87
449.728	1990.11
449.935	2072.03
450.141	2043.36
450.347	2229.73
450.553	2117.09
450.76	2160.1
450.966	2381.28
451.172	2405.85
451.378	2491.87
451.584	2498.01
451.791	2790.87
451.997	2774.49
452.203	2901.46
452.409	2926.04
452.615	3163.6
452.821	2921.94
453.027	3050.96
453.233	3483.08
453.44	3294.67
453.646	3335.63
453.852	3702.22
454.058	3909.06
454.264	3861.96
454.47	4259.26
454.676	4160.96
454.882	4459.96
455.088	4494.78
455.294	4656.57
455.5	4971.96
455.705	5107.12
455.911	5178.8
456.117	5367.21
456.323	5662.12
456.529	5486
456.735	6063.52
456.941	6172.07
457.147	6364.57
457.352	6813.08
457.558	6845.85
457.764	7194
457.97	7421.33
458.176	7718.28
458.381	8052.1
458.587	8334.72
458.793	8752.51
458.999	8799.61
459.204	9788.78
459.41	10014.06
459.616	9950.57
459.821	10632.54
460.027	11005.27
460.233	11433.3
460.438	11429.2
460.644	12232.01
460.85	12219.72
461.055	12805.44
461.261	13260.09
461.466	12965.18
461.672	13268.28
461.878	14779.68
462.083	14701.86
462.289	14822.69
462.494	15629.59
462.7	15705.36
462.905	15858.96
463.111	17083.64
463.316	18105.58
463.522	18431.21
463.727	18773.22
463.932	19578.07
464.138	20317.39
464.343	21249.21
464.549	21511.35
464.754	22934.69
464.959	23563.42
465.165	23698.58
465.37	23692.44
465.575	23938.19
465.781	25410.68
465.986	25861.24
466.191	25732.22
466.397	25859.19
466.602	25279.61
466.807	26600.55
467.012	27194.47
467.218	27518.04
467.423	27978.84
467.628	28417.1
467.833	30055.48
468.038	29486.14
468.244	28814.41
468.449	30293.04
468.654	29764.67
