Data from USB4F104151__105__10-35-50-726.txt Node

Date: Wed Feb 26 10:35:50 EST 2025
User: louis
Spectrometer: USB4F10415
Trigger mode: 4
Integration Time (sec): 1.000000E-1
Scans to average: 1
Electric dark correction enabled: true
Nonlinearity correction enabled: false
Boxcar width: 0
XAxis mode: Wavelengths
Number of Pixels in Spectrum: 3648
>>>>>Begin Spectral Data<<<<<
178.204	-435.36
178.424	-435.36
178.644	-435.36
178.864	-392.36
179.084	-394.4
179.304	9.05
179.524	-44.2
179.744	-31.91
179.964	58.2
180.184	4.95
180.404	-11.43
180.624	-33.96
180.844	60.24
181.064	-117.93
181.283	33.62
181.503	15.19
181.723	58.2
181.943	-54.44
182.163	191.31
182.383	-13.48
182.602	99.16
182.822	54.1
183.042	50
183.262	15.19
183.482	-25.77
183.701	-56.49
183.921	72.53
184.141	-85.16
184.361	84.82
184.58	86.87
184.8	21.33
185.02	72.53
185.239	37.72
185.459	86.87
185.679	113.49
185.898	-113.83
186.118	37.72
186.338	62.29
186.557	103.25
186.777	-7.34
186.997	4.95
187.216	21.33
187.436	144.21
187.655	129.88
187.875	150.36
188.095	43.86
188.314	123.73
188.534	125.78
188.753	-66.73
188.973	105.3
189.192	127.83
189.412	-27.82
189.631	50
189.851	58.2
190.07	148.31
190.29	21.33
190.509	-40.11
190.729	45.91
190.948	150.36
191.168	238.42
191.387	47.96
191.607	-31.91
191.826	56.15
192.045	-19.63
192.265	15.19
192.484	82.77
192.704	64.34
192.923	-33.96
193.142	183.12
193.362	115.54
193.581	64.34
193.8	54.1
194.02	99.16
194.239	37.72
194.458	226.13
194.678	-3.24
194.897	7
195.116	54.1
195.335	82.77
195.555	66.39
195.774	17.24
195.993	97.11
196.212	23.38
196.432	52.05
196.651	-60.59
196.87	41.81
197.089	213.84
197.308	27.48
197.528	88.92
197.747	-81.07
197.966	58.2
198.185	29.52
198.404	-58.54
198.623	70.48
198.842	205.65
199.062	21.33
199.281	113.49
199.5	-5.29
199.719	86.87
199.938	125.78
200.157	56.15
200.376	121.68
200.595	156.5
200.814	78.68
201.033	47.96
201.252	133.97
201.471	41.81
201.69	31.57
201.909	74.58
202.128	82.77
202.347	39.76
202.566	-23.72
202.785	-27.82
203.004	-19.63
203.223	226.13
203.442	78.68
203.661	-44.2
203.879	99.16
204.098	99.16
204.317	33.62
204.536	103.25
204.755	4.95
204.974	164.69
205.193	72.53
205.411	133.97
205.63	54.1
205.849	56.15
206.068	-17.58
206.287	15.19
206.505	164.69
206.724	0.85
206.943	88.92
207.162	-50.35
207.381	95.06
207.599	21.33
207.818	131.92
208.037	29.52
208.255	123.73
208.474	4.95
208.693	15.19
208.911	27.48
209.13	88.92
209.349	64.34
209.567	152.4
209.786	160.59
210.005	70.48
210.223	50
210.442	-107.69
210.661	52.05
210.879	74.58
211.098	31.57
211.316	47.96
211.535	131.92
211.753	33.62
211.972	33.62
212.191	39.76
212.409	25.43
212.628	197.46
212.846	-15.53
213.065	78.68
213.283	121.68
213.502	2.9
213.72	97.11
213.938	-27.82
214.157	60.24
214.375	156.5
214.594	9.05
214.812	76.63
215.031	103.25
215.249	111.44
215.467	9.05
215.686	56.15
215.904	39.76
216.122	117.59
216.341	203.6
216.559	35.67
216.778	138.07
216.996	138.07
217.214	-1.19
217.432	9.05
217.651	-38.06
217.869	15.19
218.087	80.72
218.306	13.14
218.524	31.57
218.742	-3.24
218.96	70.48
219.179	9.05
219.397	84.82
219.615	170.83
219.833	66.39
220.051	2.9
220.27	140.12
220.488	125.78
220.706	29.52
220.924	-5.29
221.142	13.14
221.36	90.96
221.578	84.82
221.796	21.33
222.015	19.29
222.233	-9.39
222.451	191.31
222.669	-85.16
222.887	181.07
223.105	58.2
223.323	-27.82
223.541	13.14
223.759	78.68
223.977	97.11
224.195	185.17
224.413	105.3
224.631	136.02
224.849	105.3
225.067	275.28
225.285	-17.58
225.503	27.48
225.721	-109.74
225.939	70.48
226.157	72.53
226.375	234.32
226.592	-48.3
226.81	-9.39
227.028	95.06
227.246	101.2
227.464	72.53
227.682	117.59
227.9	37.72
228.117	82.77
228.335	31.57
228.553	-15.53
228.771	-21.67
228.989	119.64
229.206	84.82
229.424	72.53
229.642	-56.49
229.86	-76.97
230.077	86.87
230.295	15.19
230.513	133.97
230.731	70.48
230.948	170.83
231.166	152.4
231.384	-25.77
231.601	-52.39
231.819	133.97
232.037	11.09
232.254	2.9
232.472	27.48
232.689	68.44
232.907	78.68
233.125	47.96
233.342	-68.78
233.56	58.2
233.777	-13.48
233.995	56.15
234.213	140.12
234.43	93.01
234.648	58.2
234.865	35.67
235.083	164.69
235.3	60.24
235.518	80.72
235.735	176.98
235.953	129.88
236.17	47.96
236.388	23.38
236.605	105.3
236.822	123.73
237.04	70.48
237.257	64.34
237.475	0.85
237.692	56.15
237.909	136.02
238.127	11.09
238.344	66.39
238.562	41.81
238.779	2.9
238.996	-52.39
239.214	93.01
239.431	90.96
239.648	35.67
239.865	123.73
240.083	93.01
240.3	7
240.517	-19.63
240.735	-17.58
240.952	162.64
241.169	86.87
241.386	133.97
241.603	-21.67
241.821	15.19
242.038	115.54
242.255	158.55
242.472	35.67
242.689	123.73
242.907	86.87
243.124	99.16
243.341	-1.19
243.558	29.52
243.775	-31.91
243.992	-66.73
244.209	146.26
244.426	133.97
244.643	111.44
244.86	93.01
245.078	115.54
245.295	101.2
245.512	86.87
245.729	-27.82
245.946	168.79
246.163	70.48
246.38	-15.53
246.597	162.64
246.814	2.9
247.031	70.48
247.248	47.96
247.464	138.07
247.681	52.05
247.898	4.95
248.115	95.06
248.332	70.48
248.549	117.59
248.766	127.83
248.983	131.92
249.2	54.1
249.417	136.02
249.633	2.9
249.85	107.35
250.067	-11.43
250.284	-3.24
250.501	70.48
250.717	35.67
250.934	45.91
251.151	27.48
251.368	72.53
251.585	45.91
251.801	99.16
252.018	-36.01
252.235	84.82
252.451	-87.21
252.668	27.48
252.885	109.4
253.102	152.4
253.318	15.19
253.535	25.43
253.752	41.81
253.968	47.96
254.185	-58.54
254.401	62.29
254.618	90.96
254.835	29.52
255.051	170.83
255.268	115.54
255.484	111.44
255.701	43.86
255.917	164.69
256.134	9.05
256.351	4.95
256.567	-1.19
256.784	13.14
257	-74.92
257.217	90.96
257.433	45.91
257.65	58.2
257.866	95.06
258.082	-91.31
258.299	-50.35
258.515	97.11
258.732	-31.91
258.948	21.33
259.165	52.05
259.381	-15.53
259.597	88.92
259.814	33.62
260.03	35.67
260.246	7
260.463	242.51
260.679	131.92
260.895	50
261.112	66.39
261.328	64.34
261.544	-31.91
261.761	170.83
261.977	41.81
262.193	-29.87
262.409	142.16
262.626	39.76
262.842	0.85
263.058	29.52
263.274	105.3
263.49	70.48
263.707	41.81
263.923	144.21
264.139	-76.97
264.355	13.14
264.571	58.2
264.787	66.39
265.004	162.64
265.22	-15.53
265.436	-56.49
265.652	45.91
265.868	90.96
266.084	9.05
266.3	23.38
266.516	-31.91
266.732	31.57
266.948	39.76
267.164	-13.48
267.38	109.4
267.596	93.01
267.812	199.51
268.028	52.05
268.244	23.38
268.46	103.25
268.676	15.19
268.892	115.54
269.108	15.19
269.324	-19.63
269.54	-3.24
269.756	90.96
269.972	-56.49
270.188	23.38
270.403	-15.53
270.619	-7.34
270.835	15.19
271.051	-21.67
271.267	86.87
271.483	70.48
271.698	181.07
271.914	97.11
272.13	39.76
272.346	80.72
272.562	109.4
272.777	195.41
272.993	-48.3
273.209	-19.63
273.425	52.05
273.64	-44.2
273.856	133.97
274.072	-15.53
274.287	-44.2
274.503	101.2
274.719	107.35
274.934	-25.77
275.15	-11.43
275.366	41.81
275.581	15.19
275.797	27.48
276.012	29.52
276.228	-74.92
276.444	21.33
276.659	166.74
276.875	-42.15
277.09	47.96
277.306	19.29
277.521	66.39
277.737	93.01
277.952	101.2
278.168	82.77
278.383	86.87
278.599	25.43
278.814	74.58
279.03	45.91
279.245	222.03
279.461	56.15
279.676	97.11
279.892	-40.11
280.107	70.48
280.322	-27.82
280.538	45.91
280.753	72.53
280.969	131.92
281.184	13.14
281.399	209.75
281.615	-11.43
281.83	107.35
282.045	-89.26
282.26	-11.43
282.476	19.29
282.691	33.62
282.906	107.35
283.122	66.39
283.337	-74.92
283.552	33.62
283.767	-9.39
283.983	84.82
284.198	-27.82
284.413	127.83
284.628	-3.24
284.843	80.72
285.058	125.78
285.274	19.29
285.489	70.48
285.704	103.25
285.919	-42.15
286.134	37.72
286.349	41.81
286.564	-74.92
286.779	93.01
286.995	47.96
287.21	-9.39
287.425	142.16
287.64	-64.68
287.855	47.96
288.07	-48.3
288.285	205.65
288.5	68.44
288.715	29.52
288.93	41.81
289.145	88.92
289.36	90.96
289.575	-33.96
289.79	117.59
290.004	-29.87
290.219	125.78
290.434	19.29
290.649	-79.02
290.864	25.43
291.079	84.82
291.294	60.24
291.509	66.39
291.724	56.15
291.938	-5.29
292.153	47.96
292.368	82.77
292.583	103.25
292.798	97.11
293.012	-38.06
293.227	19.29
293.442	-27.82
293.657	90.96
293.871	90.96
294.086	29.52
294.301	244.56
294.516	129.88
294.73	78.68
294.945	13.14
295.16	4.95
295.374	111.44
295.589	68.44
295.804	-36.01
296.018	66.39
296.233	127.83
296.447	21.33
296.662	39.76
296.877	80.72
297.091	70.48
297.306	23.38
297.52	45.91
297.735	88.92
297.949	62.29
298.164	72.53
298.378	121.68
298.593	27.48
298.807	-52.39
299.022	25.43
299.236	119.64
299.451	39.76
299.665	-13.48
299.88	29.52
300.094	62.29
300.309	0.85
300.523	105.3
300.737	-3.24
300.952	88.92
301.166	74.58
301.381	-56.49
301.595	31.57
301.809	41.81
302.024	7
302.238	9.05
302.452	138.07
302.667	35.67
302.881	66.39
303.095	88.92
303.309	76.63
303.524	60.24
303.738	90.96
303.952	17.24
304.166	54.1
304.381	-130.22
304.595	140.12
304.809	2.9
305.023	19.29
305.237	-31.91
305.452	17.24
305.666	133.97
305.88	93.01
306.094	136.02
306.308	33.62
306.522	99.16
306.736	56.15
306.95	127.83
307.164	9.05
307.379	33.62
307.593	72.53
307.807	117.59
308.021	82.77
308.235	101.2
308.449	2.9
308.663	37.72
308.877	152.4
309.091	58.2
309.305	27.48
309.519	-144.55
309.733	131.92
309.947	-44.2
310.161	105.3
310.374	99.16
310.588	148.31
310.802	-33.96
311.016	9.05
311.23	60.24
311.444	33.62
311.658	27.48
311.872	183.12
312.085	152.4
312.299	121.68
312.513	99.16
312.727	58.2
312.941	-13.48
313.154	47.96
313.368	80.72
313.582	39.76
313.796	123.73
314.009	23.38
314.223	150.36
314.437	68.44
314.651	105.3
314.864	-66.73
315.078	0.85
315.292	-76.97
315.505	45.91
315.719	156.5
315.933	78.68
316.146	19.29
316.36	-13.48
316.573	109.4
316.787	101.2
317.001	27.48
317.214	-40.11
317.428	56.15
317.641	7
317.855	19.29
318.068	13.14
318.282	17.24
318.495	156.5
318.709	150.36
318.922	23.38
319.136	242.51
319.349	68.44
319.563	7
319.776	76.63
319.99	50
320.203	168.79
320.417	45.91
320.63	45.91
320.843	228.18
321.057	54.1
321.27	-9.39
321.483	70.48
321.697	129.88
321.91	66.39
322.124	99.16
322.337	109.4
322.55	9.05
322.763	-11.43
322.977	-9.39
323.19	-15.53
323.403	23.38
323.617	9.05
323.83	125.78
324.043	39.76
324.256	43.86
324.469	21.33
324.683	127.83
324.896	31.57
325.109	123.73
325.322	-85.16
325.535	52.05
325.748	201.55
325.962	43.86
326.175	43.86
326.388	82.77
326.601	148.31
326.814	-46.25
327.027	107.35
327.24	142.16
327.453	-64.68
327.666	76.63
327.879	113.49
328.092	58.2
328.305	95.06
328.518	11.09
328.731	27.48
328.944	27.48
329.157	117.59
329.37	-36.01
329.583	179.03
329.796	101.2
330.009	33.62
330.222	62.29
330.435	-13.48
330.648	109.4
330.861	45.91
331.073	31.57
331.286	158.55
331.499	47.96
331.712	29.52
331.925	70.48
332.138	31.57
332.35	105.3
332.563	35.67
332.776	136.02
332.989	62.29
333.202	23.38
333.414	56.15
333.627	56.15
333.84	93.01
334.053	39.76
334.265	11.09
334.478	97.11
334.691	56.15
334.903	33.62
335.116	45.91
335.329	9.05
335.541	0.85
335.754	179.03
335.966	0.85
336.179	0.85
336.392	47.96
336.604	45.91
336.817	172.88
337.029	41.81
337.242	43.86
337.454	121.68
337.667	-15.53
337.88	95.06
338.092	74.58
338.305	93.01
338.517	25.43
338.729	54.1
338.942	203.6
339.154	-48.3
339.367	-54.44
339.579	17.24
339.792	-29.87
340.004	56.15
340.217	21.33
340.429	35.67
340.641	11.09
340.854	-56.49
341.066	13.14
341.278	140.12
341.491	144.21
341.703	25.43
341.915	-1.19
342.128	117.59
342.34	138.07
342.552	-87.21
342.764	4.95
342.977	21.33
343.189	144.21
343.401	88.92
343.613	-23.72
343.826	70.48
344.038	43.86
344.25	113.49
344.462	82.77
344.674	66.39
344.886	74.58
345.099	72.53
345.311	64.34
345.523	-3.24
345.735	-36.01
345.947	68.44
346.159	11.09
346.371	25.43
346.583	62.29
346.795	160.59
347.007	64.34
347.219	82.77
347.431	-23.72
347.643	90.96
347.855	-7.34
348.067	152.4
348.279	4.95
348.491	0.85
348.703	107.35
348.915	27.48
349.127	-46.25
349.339	250.71
349.551	35.67
349.763	119.64
349.975	64.34
350.187	148.31
350.399	154.45
350.61	82.77
350.822	11.09
351.034	60.24
351.246	35.67
351.458	-27.82
351.669	170.83
351.881	105.3
352.093	113.49
352.305	99.16
352.517	31.57
352.728	164.69
352.94	74.58
353.152	72.53
353.363	-38.06
353.575	133.97
353.787	125.78
353.999	117.59
354.21	195.41
354.422	39.76
354.633	-23.72
354.845	31.57
355.057	13.14
355.268	68.44
355.48	45.91
355.692	-9.39
355.903	97.11
356.115	-27.82
356.326	35.67
356.538	191.31
356.749	133.97
356.961	181.07
357.172	17.24
357.384	7
357.595	299.86
357.807	-40.11
358.018	37.72
358.23	43.86
358.441	117.59
358.653	78.68
358.864	99.16
359.075	17.24
359.287	62.29
359.498	150.36
359.709	90.96
359.921	119.64
360.132	29.52
360.344	-1.19
360.555	-25.77
360.766	-3.24
360.977	62.29
361.189	142.16
361.4	45.91
361.611	129.88
361.823	148.31
362.034	19.29
362.245	-85.16
362.456	72.53
362.667	90.96
362.879	-42.15
363.09	35.67
363.301	45.91
363.512	101.2
363.723	74.58
363.935	62.29
364.146	58.2
364.357	37.72
364.568	70.48
364.779	9.05
364.99	119.64
365.201	37.72
365.412	181.07
365.623	-27.82
365.834	80.72
366.045	45.91
366.256	86.87
366.467	66.39
366.678	19.29
366.889	27.48
367.1	41.81
367.311	152.4
367.522	-3.24
367.733	150.36
367.944	27.48
368.155	15.19
368.366	107.35
368.577	176.98
368.788	121.68
368.999	50
369.209	80.72
369.42	195.41
369.631	189.27
369.842	133.97
370.053	-21.67
370.264	60.24
370.474	-9.39
370.685	62.29
370.896	-11.43
371.107	62.29
371.317	64.34
371.528	33.62
371.739	179.03
371.95	119.64
372.16	25.43
372.371	19.29
372.582	-11.43
372.792	68.44
373.003	29.52
373.214	74.58
373.424	41.81
373.635	-36.01
373.846	146.26
374.056	68.44
374.267	66.39
374.477	29.52
374.688	97.11
374.898	127.83
375.109	127.83
375.319	52.05
375.53	101.2
375.74	113.49
375.951	-3.24
376.161	43.86
376.372	123.73
376.582	11.09
376.793	119.64
377.003	4.95
377.214	52.05
377.424	123.73
377.635	136.02
377.845	27.48
378.055	123.73
378.266	13.14
378.476	21.33
378.686	131.92
378.897	82.77
379.107	133.97
379.317	43.86
379.528	-36.01
379.738	152.4
379.948	-50.35
380.158	47.96
380.369	33.62
380.579	9.05
380.789	29.52
380.999	109.4
381.21	109.4
381.42	215.89
381.63	-27.82
381.84	62.29
382.05	76.63
382.261	78.68
382.471	187.22
382.681	56.15
382.891	262.99
383.101	35.67
383.311	-50.35
383.521	31.57
383.731	95.06
383.941	189.27
384.151	15.19
384.361	17.24
384.571	45.91
384.781	88.92
384.991	136.02
385.201	183.12
385.411	150.36
385.621	52.05
385.831	78.68
386.041	90.96
386.251	66.39
386.461	129.88
386.671	19.29
386.881	54.1
387.091	31.57
387.301	119.64
387.511	19.29
387.72	115.54
387.93	105.3
388.14	-66.73
388.35	4.95
388.56	88.92
388.769	56.15
388.979	17.24
389.189	-23.72
389.399	-11.43
389.609	99.16
389.818	136.02
390.028	52.05
390.238	113.49
390.447	-23.72
390.657	93.01
390.867	33.62
391.076	-46.25
391.286	39.76
391.496	7
391.705	88.92
391.915	101.2
392.125	129.88
392.334	-40.11
392.544	179.03
392.753	64.34
392.963	-83.11
393.172	50
393.382	37.72
393.591	111.44
393.801	76.63
394.01	152.4
394.22	111.44
394.429	58.2
394.639	29.52
394.848	103.25
395.058	103.25
395.267	-29.87
395.477	131.92
395.686	54.1
395.895	230.23
396.105	193.36
396.314	56.15
396.524	146.26
396.733	68.44
396.942	138.07
397.152	107.35
397.361	176.98
397.57	39.76
397.78	29.52
397.989	142.16
398.198	195.41
398.407	52.05
398.617	0.85
398.826	4.95
399.035	-29.87
399.244	111.44
399.453	41.81
399.663	117.59
399.872	54.1
400.081	-79.02
400.29	74.58
400.499	23.38
400.708	107.35
400.917	105.3
401.127	54.1
401.336	0.85
401.545	226.13
401.754	95.06
401.963	107.35
402.172	-17.58
402.381	-25.77
402.59	13.14
402.799	64.34
403.008	15.19
403.217	88.92
403.426	41.81
403.635	-25.77
403.844	41.81
404.053	2.9
404.262	7
404.471	166.74
404.68	29.52
404.888	50
405.097	50
405.306	50
405.515	144.21
405.724	72.53
405.933	162.64
406.142	144.21
406.35	160.59
406.559	117.59
406.768	50
406.977	211.79
407.185	127.83
407.394	86.87
407.603	54.1
407.812	90.96
408.02	74.58
408.229	86.87
408.438	21.33
408.646	29.52
408.855	27.48
409.064	121.68
409.272	68.44
409.481	111.44
409.69	-13.48
409.898	-91.31
410.107	78.68
410.315	123.73
410.524	-56.49
410.733	160.59
410.941	105.3
411.15	136.02
411.358	50
411.567	191.31
411.775	113.49
411.984	76.63
412.192	115.54
412.401	0.85
412.609	193.36
412.818	236.37
413.026	105.3
413.234	54.1
413.443	56.15
413.651	21.33
413.86	37.72
414.068	121.68
414.276	136.02
414.485	-11.43
414.693	127.83
414.901	195.41
415.11	9.05
415.318	72.53
415.526	72.53
415.734	88.92
415.943	156.5
416.151	162.64
416.359	64.34
416.567	62.29
416.776	144.21
416.984	99.16
417.192	131.92
417.4	64.34
417.608	58.2
417.817	31.57
418.025	140.12
418.233	99.16
418.441	9.05
418.649	-46.25
418.857	76.63
419.065	103.25
419.273	88.92
419.481	133.97
419.689	117.59
419.897	-11.43
420.105	21.33
420.313	179.03
420.521	166.74
420.729	129.88
420.937	88.92
421.145	-25.77
421.353	7
421.561	209.75
421.769	95.06
421.977	80.72
422.185	105.3
422.393	58.2
422.601	95.06
422.809	131.92
423.017	43.86
423.224	80.72
423.432	142.16
423.64	4.95
423.848	84.82
424.056	0.85
424.263	168.79
424.471	121.68
424.679	207.7
424.887	2.9
425.094	258.9
425.302	74.58
425.51	144.21
425.718	52.05
425.925	115.54
426.133	33.62
426.341	248.66
426.548	33.62
426.756	117.59
426.964	93.01
427.171	62.29
427.379	84.82
427.586	23.38
427.794	117.59
428.001	121.68
428.209	33.62
428.417	189.27
428.624	170.83
428.832	172.88
429.039	166.74
429.247	123.73
429.454	123.73
429.662	279.38
429.869	111.44
430.076	230.23
430.284	146.26
430.491	201.55
430.699	97.11
430.906	172.88
431.114	162.64
431.321	144.21
431.528	131.92
431.736	158.55
431.943	183.12
432.15	121.68
432.358	222.03
432.565	271.19
432.772	54.1
432.979	213.84
433.187	93.01
433.394	299.86
433.601	86.87
433.808	215.89
434.016	291.66
434.223	189.27
434.43	207.7
434.637	297.81
434.844	275.28
435.052	246.61
435.259	262.99
435.466	299.86
435.673	279.38
435.88	310.1
436.087	310.1
436.294	291.66
436.501	346.96
436.708	279.38
436.915	271.19
437.122	342.86
437.329	199.51
437.537	346.96
437.743	316.24
437.95	451.41
438.157	396.11
438.364	381.78
438.571	295.76
438.778	441.17
438.985	516.94
439.192	486.22
439.399	394.06
439.606	484.17
439.813	449.36
440.02	529.23
440.227	609.1
440.433	543.57
440.64	555.85
440.847	484.17
441.054	547.66
441.261	674.64
441.467	645.96
441.674	607.05
441.881	713.55
442.088	596.81
442.294	717.64
442.501	824.14
442.708	756.55
442.914	779.08
443.121	873.29
443.328	774.99
443.534	922.44
443.741	910.15
443.948	832.33
444.154	963.4
444.361	1186.63
444.568	985.93
444.774	1014.6
444.981	936.78
445.187	1121.09
445.394	1129.28
445.6	1256.26
445.807	1215.3
446.013	1313.6
446.22	1211.2
446.426	1366.85
446.633	1506.11
446.839	1669.95
447.046	1416
447.252	1641.28
447.459	1645.37
447.665	1639.23
447.871	1813.31
448.078	1925.94
448.284	1850.17
448.491	2018.1
448.697	2030.39
448.903	2130.74
449.11	2116.41
449.316	2083.64
449.522	2313.01
449.728	2452.27
449.935	2556.72
450.141	2544.43
450.347	2773.8
450.553	2646.83
450.76	2810.67
450.966	3017.51
451.172	2886.44
451.378	3091.24
451.584	3199.78
451.791	3373.86
451.997	3492.64
452.203	3613.47
452.409	3666.72
452.615	3873.56
452.821	3631.9
453.027	3783.45
453.233	4217.62
453.44	4281.11
453.646	4326.16
453.852	4664.08
454.058	4678.41
454.264	4915.98
454.47	5085.96
454.676	5221.13
454.882	5602.05
455.088	5432.07
455.294	5753.6
455.5	6243.06
455.705	6488.82
455.911	6476.53
456.117	6679.28
456.323	7043.82
456.529	6927.08
456.735	7475.94
456.941	7613.15
457.147	8080.09
457.352	8231.64
457.558	8354.52
457.764	8837.84
457.97	9210.57
458.176	9523.91
458.381	10144.44
458.587	10017.47
458.793	10666.67
458.999	10699.44
459.204	12018.33
459.41	12563.09
459.616	12325.53
459.821	13009.55
460.027	13716.1
460.233	14160.51
460.438	14301.82
460.644	15075.95
460.85	15299.18
461.055	15802.98
461.261	16415.32
461.466	16208.48
461.672	16407.13
461.878	18668.09
462.083	18326.08
462.289	18539.07
462.494	19583.53
462.7	19442.22
462.905	19868.2
463.111	21426.7
463.316	22227.46
463.522	22706.68
463.727	23421.42
463.932	24355.3
464.138	25164.25
464.343	26323.4
464.549	26360.26
464.754	28475.81
464.959	28961.18
465.165	29612.43
465.37	29157.78
465.575	28973.47
465.781	31312.25
465.986	32278.89
466.191	31625.59
466.397	32444.77
466.602	31248.76
466.807	32618.85
467.012	33347.93
467.218	34132.3
467.423	34468.17
467.628	35051.84
467.833	36952.35
468.038	36190.51
468.244	35428.66
468.449	37308.7
468.654	36385.07
468.859	36913.44
469.064	36804.9
469.269	35768.63
