Data from USB4F104151__59__11-30-49-665.txt Node

Date: Wed Feb 26 11:30:49 EST 2025
User: louis
Spectrometer: USB4F10415
Trigger mode: 4
Integration Time (sec): 1.000000E-1
Scans to average: 1
Electric dark correction enabled: true
Nonlinearity correction enabled: false
Boxcar width: 0
XAxis mode: Wavelengths
Number of Pixels in Spectrum: 3648
>>>>>Begin Spectral Data<<<<<
178.204	-418.98
178.424	-418.98
178.644	-418.98
178.864	-404.64
179.084	-388.26
179.304	-1.19
179.524	-58.54
179.744	86.87
179.964	64.34
180.184	-33.96
180.404	15.19
180.624	25.43
180.844	-13.48
181.064	-64.68
181.283	-52.39
181.503	-46.25
181.723	78.68
181.943	-105.64
182.163	195.41
182.383	-72.87
182.602	52.05
182.822	193.36
183.042	117.59
183.262	4.95
183.482	-42.15
183.701	23.38
183.921	80.72
184.141	-11.43
184.361	97.11
184.58	45.91
184.8	52.05
185.02	-38.06
185.239	136.02
185.459	9.05
185.679	138.07
185.898	-68.78
186.118	60.24
186.338	7
186.557	103.25
186.777	-113.83
186.997	-56.49
187.216	27.48
187.436	199.51
187.655	115.54
187.875	82.77
188.095	99.16
188.314	88.92
188.534	140.12
188.753	33.62
188.973	103.25
189.192	215.89
189.412	25.43
189.631	88.92
189.851	162.64
190.07	138.07
190.29	-68.78
190.509	-3.24
190.729	29.52
190.948	162.64
191.168	283.47
191.387	109.4
191.607	-7.34
191.826	72.53
192.045	76.63
192.265	13.14
192.484	37.72
192.704	-11.43
192.923	-15.53
193.142	201.55
193.362	62.29
193.581	84.82
193.8	158.55
194.02	103.25
194.239	58.2
194.458	80.72
194.678	-33.96
194.897	11.09
195.116	21.33
195.335	84.82
195.555	115.54
195.774	13.14
195.993	179.03
196.212	27.48
196.432	37.72
196.651	-5.29
196.87	37.72
197.089	275.28
197.308	35.67
197.528	119.64
197.747	-54.44
197.966	84.82
198.185	109.4
198.404	-29.87
198.623	50
198.842	142.16
199.062	174.93
199.281	168.79
199.5	25.43
199.719	50
199.938	54.1
200.157	90.96
200.376	158.55
200.595	107.35
200.814	-36.01
201.033	27.48
201.252	127.83
201.471	109.4
201.69	160.59
201.909	17.24
202.128	205.65
202.347	111.44
202.566	21.33
202.785	31.57
203.004	70.48
203.223	254.8
203.442	-9.39
203.661	-117.93
203.879	93.01
204.098	158.55
204.317	-54.44
204.536	101.2
204.755	64.34
204.974	105.3
205.193	50
205.411	129.88
205.63	142.16
205.849	58.2
206.068	2.9
206.287	-1.19
206.505	154.45
206.724	170.83
206.943	25.43
207.162	-3.24
207.381	101.2
207.599	70.48
207.818	47.96
208.037	-15.53
208.255	37.72
208.474	-46.25
208.693	76.63
208.911	33.62
209.13	88.92
209.349	45.91
209.567	117.59
209.786	21.33
210.005	95.06
210.223	41.81
210.442	-31.91
210.661	68.44
210.879	78.68
211.098	-23.72
211.316	68.44
211.535	82.77
211.753	70.48
211.972	47.96
212.191	-15.53
212.409	64.34
212.628	50
212.846	-23.72
213.065	-23.72
213.283	95.06
213.502	95.06
213.72	-50.35
213.938	33.62
214.157	47.96
214.375	164.69
214.594	-25.77
214.812	125.78
215.031	-9.39
215.249	58.2
215.467	54.1
215.686	95.06
215.904	23.38
216.122	50
216.341	164.69
216.559	21.33
216.778	179.03
216.996	127.83
217.214	21.33
217.432	-15.53
217.651	-62.63
217.869	64.34
218.087	95.06
218.306	45.91
218.524	52.05
218.742	39.76
218.96	88.92
219.179	-42.15
219.397	41.81
219.615	248.66
219.833	74.58
220.051	-7.34
220.27	103.25
220.488	111.44
220.706	88.92
220.924	0.85
221.142	50
221.36	95.06
221.578	7
221.796	39.76
222.015	76.63
222.233	121.68
222.451	213.84
222.669	17.24
222.887	78.68
223.105	-7.34
223.323	39.76
223.541	-5.29
223.759	154.45
223.977	50
224.195	219.99
224.413	43.86
224.631	31.57
224.849	74.58
225.067	232.27
225.285	0.85
225.503	-36.01
225.721	-95.4
225.939	33.62
226.157	47.96
226.375	275.28
226.592	-60.59
226.81	72.53
227.028	58.2
227.246	125.78
227.464	105.3
227.682	121.68
227.9	78.68
228.117	54.1
228.335	84.82
228.553	99.16
228.771	43.86
228.989	50
229.206	97.11
229.424	-44.2
229.642	47.96
229.86	0.85
230.077	99.16
230.295	54.1
230.513	78.68
230.731	93.01
230.948	222.03
231.166	185.17
231.384	11.09
231.601	25.43
231.819	95.06
232.037	88.92
232.254	-1.19
232.472	27.48
232.689	-17.58
232.907	70.48
233.125	25.43
233.342	37.72
233.56	-11.43
233.777	45.91
233.995	-19.63
234.213	113.49
234.43	60.24
234.648	21.33
234.865	52.05
235.083	52.05
235.3	31.57
235.518	123.73
235.735	144.21
235.953	45.91
236.17	138.07
236.388	27.48
236.605	45.91
236.822	127.83
237.04	211.79
237.257	76.63
237.475	-72.87
237.692	62.29
237.909	80.72
238.127	-9.39
238.344	84.82
238.562	-11.43
238.779	-31.91
238.996	-42.15
239.214	-21.67
239.431	72.53
239.648	-7.34
239.865	41.81
240.083	101.2
240.3	23.38
240.517	4.95
240.735	58.2
240.952	117.59
241.169	41.81
241.386	121.68
241.603	-58.54
241.821	-50.35
242.038	105.3
242.255	107.35
242.472	23.38
242.689	123.73
242.907	103.25
243.124	43.86
243.341	66.39
243.558	-11.43
243.775	-40.11
243.992	-76.97
244.209	117.59
244.426	133.97
244.643	80.72
244.86	25.43
245.078	148.31
245.295	43.86
245.512	68.44
245.729	29.52
245.946	111.44
246.163	19.29
246.38	60.24
246.597	54.1
246.814	41.81
247.031	99.16
247.248	21.33
247.464	90.96
247.681	133.97
247.898	95.06
248.115	95.06
248.332	-36.01
248.549	78.68
248.766	99.16
248.983	82.77
249.2	62.29
249.417	95.06
249.633	15.19
249.85	109.4
250.067	80.72
250.284	78.68
250.501	35.67
250.717	109.4
250.934	29.52
251.151	23.38
251.368	47.96
251.585	125.78
251.801	41.81
252.018	-48.3
252.235	90.96
252.451	-1.19
252.668	103.25
252.885	185.17
253.102	60.24
253.318	7
253.535	9.05
253.752	-44.2
253.968	25.43
254.185	-99.5
254.401	72.53
254.618	174.93
254.835	88.92
255.051	82.77
255.268	56.15
255.484	101.2
255.701	-48.3
255.917	78.68
256.134	-33.96
256.351	-11.43
256.567	13.14
256.784	64.34
257	-76.97
257.217	109.4
257.433	107.35
257.65	37.72
257.866	68.44
258.082	-7.34
258.299	-23.72
258.515	-27.82
258.732	62.29
258.948	-7.34
259.165	133.97
259.381	-40.11
259.597	72.53
259.814	70.48
260.03	15.19
260.246	27.48
260.463	125.78
260.679	123.73
260.895	103.25
261.112	82.77
261.328	50
261.544	-23.72
261.761	156.5
261.977	50
262.193	-17.58
262.409	70.48
262.626	13.14
262.842	11.09
263.058	29.52
263.274	107.35
263.49	107.35
263.707	62.29
263.923	142.16
264.139	-60.59
264.355	127.83
264.571	111.44
264.787	45.91
265.004	148.31
265.22	19.29
265.436	-46.25
265.652	43.86
265.868	47.96
266.084	9.05
266.3	2.9
266.516	-19.63
266.732	72.53
266.948	33.62
267.164	-15.53
267.38	95.06
267.596	80.72
267.812	181.07
268.028	93.01
268.244	43.86
268.46	33.62
268.676	-11.43
268.892	60.24
269.108	41.81
269.324	-58.54
269.54	29.52
269.756	84.82
269.972	-89.26
270.188	37.72
270.403	23.38
270.619	-5.29
270.835	19.29
271.051	43.86
271.267	74.58
271.483	-1.19
271.698	185.17
271.914	142.16
272.13	95.06
272.346	35.67
272.562	70.48
272.777	136.02
272.993	-3.24
273.209	64.34
273.425	76.63
273.64	-76.97
273.856	101.2
274.072	-29.87
274.287	-62.63
274.503	58.2
274.719	41.81
274.934	54.1
275.15	-83.11
275.366	60.24
275.581	-13.48
275.797	52.05
276.012	66.39
276.228	15.19
276.444	84.82
276.659	39.76
276.875	-38.06
277.09	4.95
277.306	11.09
277.521	115.54
277.737	17.24
277.952	78.68
278.168	70.48
278.383	52.05
278.599	41.81
278.814	54.1
279.03	62.29
279.245	97.11
279.461	21.33
279.676	56.15
279.892	-64.68
280.107	27.48
280.322	-42.15
280.538	60.24
280.753	29.52
280.969	54.1
281.184	37.72
281.399	152.4
281.615	54.1
281.83	88.92
282.045	-66.73
282.26	-11.43
282.476	-7.34
282.691	101.2
282.906	105.3
283.122	86.87
283.337	78.68
283.552	64.34
283.767	72.53
283.983	123.73
284.198	-3.24
284.413	101.2
284.628	-5.29
284.843	52.05
285.058	50
285.274	21.33
285.489	-11.43
285.704	154.45
285.919	21.33
286.134	93.01
286.349	19.29
286.564	78.68
286.779	136.02
286.995	7
287.21	-97.45
287.425	121.68
287.64	-42.15
287.855	52.05
288.07	-81.07
288.285	129.88
288.5	101.2
288.715	41.81
288.93	-5.29
289.145	68.44
289.36	101.2
289.575	76.63
289.79	148.31
290.004	50
290.219	90.96
290.434	-25.77
290.649	-64.68
290.864	76.63
291.079	47.96
291.294	84.82
291.509	76.63
291.724	80.72
291.938	21.33
292.153	154.45
292.368	56.15
292.583	54.1
292.798	113.49
293.012	66.39
293.227	86.87
293.442	-21.67
293.657	109.4
293.871	119.64
294.086	78.68
294.301	117.59
294.516	101.2
294.73	80.72
294.945	-62.63
295.16	47.96
295.374	105.3
295.589	129.88
295.804	-42.15
296.018	78.68
296.233	154.45
296.447	93.01
296.662	11.09
296.877	146.26
297.091	60.24
297.306	131.92
297.52	25.43
297.735	82.77
297.949	72.53
298.164	58.2
298.378	54.1
298.593	-48.3
298.807	-66.73
299.022	13.14
299.236	101.2
299.451	-15.53
299.665	39.76
299.88	64.34
300.094	84.82
300.309	131.92
300.523	21.33
300.737	17.24
300.952	72.53
301.166	88.92
301.381	-25.77
301.595	39.76
301.809	25.43
302.024	70.48
302.238	-85.16
302.452	119.64
302.667	15.19
302.881	154.45
303.095	74.58
303.309	17.24
303.524	-62.63
303.738	25.43
303.952	41.81
304.166	111.44
304.381	-158.89
304.595	207.7
304.809	7
305.023	86.87
305.237	27.48
305.452	17.24
305.666	138.07
305.88	88.92
306.094	41.81
306.308	95.06
306.522	105.3
306.736	58.2
306.95	115.54
307.164	45.91
307.379	-13.48
307.593	117.59
307.807	176.98
308.021	123.73
308.235	115.54
308.449	-62.63
308.663	125.78
308.877	205.65
309.091	113.49
309.305	41.81
309.519	-89.26
309.733	152.4
309.947	-21.67
310.161	76.63
310.374	123.73
310.588	123.73
310.802	-101.55
311.016	9.05
311.23	52.05
311.444	-70.83
311.658	15.19
311.872	236.37
312.085	119.64
312.299	164.69
312.513	172.88
312.727	109.4
312.941	-40.11
313.154	21.33
313.368	31.57
313.582	23.38
313.796	-3.24
314.009	17.24
314.223	160.59
314.437	15.19
314.651	150.36
314.864	54.1
315.078	-15.53
315.292	19.29
315.505	25.43
315.719	64.34
315.933	131.92
316.146	9.05
316.36	15.19
316.573	52.05
316.787	152.4
317.001	136.02
317.214	43.86
317.428	37.72
317.641	-58.54
317.855	95.06
318.068	107.35
318.282	62.29
318.495	213.84
318.709	21.33
318.922	168.79
319.136	138.07
319.349	131.92
319.563	54.1
319.776	39.76
319.99	-62.63
320.203	170.83
320.417	15.19
320.63	105.3
320.843	285.52
321.057	39.76
321.27	-50.35
321.483	52.05
321.697	164.69
321.91	95.06
322.124	205.65
322.337	70.48
322.55	-76.97
322.763	97.11
322.977	4.95
323.19	37.72
323.403	15.19
323.617	62.29
323.83	107.35
324.043	15.19
324.256	88.92
324.469	-13.48
324.683	230.23
324.896	7
325.109	4.95
325.322	52.05
325.535	95.06
325.748	150.36
325.962	33.62
326.175	47.96
326.388	90.96
326.601	144.21
326.814	-44.2
327.027	80.72
327.24	109.4
327.453	-33.96
327.666	82.77
327.879	133.97
328.092	-27.82
328.305	68.44
328.518	60.24
328.731	11.09
328.944	31.57
329.157	101.2
329.37	43.86
329.583	219.99
329.796	199.51
330.009	-144.55
330.222	140.12
330.435	191.31
330.648	2.9
330.861	88.92
331.073	52.05
331.286	64.34
331.499	21.33
331.712	29.52
331.925	31.57
332.138	-25.77
332.35	99.16
332.563	-25.77
332.776	113.49
332.989	-40.11
333.202	39.76
333.414	19.29
333.627	2.9
333.84	-46.25
334.053	97.11
334.265	-42.15
334.478	43.86
334.691	31.57
334.903	27.48
335.116	-25.77
335.329	15.19
335.541	179.03
335.754	123.73
335.966	-36.01
336.179	58.2
336.392	99.16
336.604	93.01
336.817	158.55
337.029	90.96
337.242	41.81
337.454	146.26
337.667	80.72
337.88	109.4
338.092	72.53
338.305	99.16
338.517	74.58
338.729	64.34
338.942	193.36
339.154	7
339.367	19.29
339.579	9.05
339.792	19.29
340.004	109.4
340.217	-38.06
340.429	70.48
340.641	11.09
340.854	35.67
341.066	31.57
341.278	117.59
341.491	185.17
341.703	56.15
341.915	-23.72
342.128	115.54
342.34	-21.67
342.552	-1.19
342.764	88.92
342.977	45.91
343.189	113.49
343.401	17.24
343.613	-56.49
343.826	78.68
344.038	-48.3
344.25	45.91
344.462	17.24
344.674	82.77
344.886	31.57
345.099	13.14
345.311	70.48
345.523	19.29
345.735	-85.16
345.947	-11.43
346.159	117.59
346.371	101.2
346.583	62.29
346.795	203.6
347.007	33.62
347.219	68.44
347.431	43.86
347.643	78.68
347.855	56.15
348.067	133.97
348.279	-50.35
348.491	68.44
348.703	107.35
348.915	-5.29
349.127	23.38
349.339	90.96
349.551	17.24
349.763	123.73
349.975	88.92
350.187	148.31
350.399	150.36
350.61	29.52
350.822	39.76
351.034	-23.72
351.246	95.06
351.458	88.92
351.669	68.44
351.881	99.16
352.093	158.55
352.305	52.05
352.517	93.01
352.728	107.35
352.94	2.9
353.152	72.53
353.363	58.2
353.575	29.52
353.787	150.36
353.999	107.35
354.21	129.88
354.422	11.09
354.633	39.76
354.845	29.52
355.057	45.91
355.268	0.85
355.48	72.53
355.692	-7.34
355.903	78.68
356.115	-1.19
356.326	-101.55
356.538	185.17
356.749	50
356.961	146.26
357.172	101.2
357.384	93.01
357.595	185.17
357.807	19.29
358.018	33.62
358.23	78.68
358.441	211.79
358.653	60.24
358.864	17.24
359.075	-38.06
359.287	43.86
359.498	99.16
359.709	56.15
359.921	47.96
360.132	56.15
360.344	52.05
360.555	117.59
360.766	140.12
360.977	109.4
361.189	152.4
361.4	-52.39
361.611	164.69
361.823	158.55
362.034	9.05
362.245	-29.87
362.456	9.05
362.667	82.77
362.879	2.9
363.09	90.96
363.301	86.87
363.512	97.11
363.723	9.05
363.935	-33.96
364.146	133.97
364.357	-52.39
364.568	50
364.779	-7.34
364.99	82.77
365.201	4.95
365.412	119.64
365.623	-17.58
365.834	64.34
366.045	90.96
366.256	45.91
366.467	99.16
366.678	119.64
366.889	86.87
367.1	17.24
367.311	133.97
367.522	19.29
367.733	74.58
367.944	109.4
368.155	47.96
368.366	11.09
368.577	74.58
368.788	160.59
368.999	-62.63
369.209	43.86
369.42	189.27
369.631	265.04
369.842	109.4
370.053	-7.34
370.264	154.45
370.474	56.15
370.685	37.72
370.896	50
371.107	127.83
371.317	90.96
371.528	-15.53
371.739	99.16
371.95	144.21
372.16	95.06
372.371	-40.11
372.582	9.05
372.792	129.88
373.003	123.73
373.214	70.48
373.424	115.54
373.635	-15.53
373.846	109.4
374.056	-9.39
374.267	-3.24
374.477	109.4
374.688	-52.39
374.898	140.12
375.109	152.4
375.319	86.87
375.53	138.07
375.74	64.34
375.951	58.2
376.161	50
376.372	90.96
376.582	39.76
376.793	56.15
377.003	-58.54
377.214	31.57
377.424	33.62
377.635	25.43
377.845	88.92
378.055	150.36
378.266	-56.49
378.476	-13.48
378.686	19.29
378.897	4.95
379.107	115.54
379.317	52.05
379.528	25.43
379.738	160.59
379.948	-25.77
380.158	99.16
380.369	37.72
380.579	35.67
380.789	105.3
380.999	144.21
381.21	70.48
381.42	238.42
381.63	84.82
381.84	70.48
382.05	95.06
382.261	111.44
382.471	211.79
382.681	66.39
382.891	217.94
383.101	15.19
383.311	-15.53
383.521	50
383.731	82.77
383.941	111.44
384.151	11.09
384.361	62.29
384.571	99.16
384.781	62.29
384.991	142.16
385.201	211.79
385.411	144.21
385.621	97.11
385.831	95.06
386.041	74.58
386.251	66.39
386.461	150.36
386.671	41.81
386.881	-3.24
387.091	129.88
387.301	142.16
387.511	4.95
387.72	111.44
387.93	111.44
388.14	-101.55
388.35	156.5
388.56	113.49
388.769	230.23
388.979	-5.29
389.189	21.33
389.399	66.39
389.609	58.2
389.818	201.55
390.028	90.96
390.238	-60.59
390.447	-62.63
390.657	66.39
390.867	54.1
391.076	-97.45
391.286	95.06
391.496	11.09
391.705	56.15
391.915	80.72
392.125	131.92
392.334	2.9
392.544	80.72
392.753	7
392.963	37.72
393.172	74.58
393.382	-56.49
393.591	162.64
393.801	142.16
394.01	133.97
394.22	103.25
394.429	25.43
394.639	-36.01
394.848	117.59
395.058	72.53
395.267	125.78
395.477	103.25
395.686	76.63
395.895	185.17
396.105	203.6
396.314	43.86
396.524	90.96
396.733	29.52
396.942	76.63
397.152	80.72
397.361	158.55
397.57	56.15
397.78	160.59
397.989	90.96
398.198	142.16
398.407	-11.43
398.617	58.2
398.826	47.96
399.035	47.96
399.244	183.12
399.453	70.48
399.663	74.58
399.872	43.86
400.081	-29.87
400.29	121.68
400.499	-70.83
400.708	84.82
400.917	41.81
401.127	31.57
401.336	111.44
401.545	142.16
401.754	168.79
401.963	123.73
402.172	60.24
402.381	35.67
402.59	84.82
402.799	105.3
403.008	84.82
403.217	70.48
403.426	54.1
403.635	-83.11
403.844	23.38
404.053	50
404.262	-11.43
404.471	230.23
404.68	90.96
404.888	115.54
405.097	70.48
405.306	2.9
405.515	162.64
405.724	23.38
405.933	72.53
406.142	78.68
406.35	172.88
406.559	25.43
406.768	62.29
406.977	160.59
407.185	150.36
407.394	70.48
407.603	-23.72
407.812	54.1
408.02	142.16
408.229	101.2
408.438	43.86
408.646	-42.15
408.855	64.34
409.064	95.06
409.272	17.24
409.481	86.87
409.69	23.38
409.898	4.95
410.107	54.1
410.315	97.11
410.524	23.38
410.733	121.68
410.941	121.68
411.15	56.15
411.358	148.31
411.567	144.21
411.775	-5.29
411.984	52.05
412.192	156.5
412.401	19.29
412.609	283.47
412.818	103.25
413.026	78.68
413.234	62.29
413.443	78.68
413.651	-15.53
413.86	9.05
414.068	197.46
414.276	217.94
414.485	-13.48
414.693	287.57
414.901	172.88
415.11	43.86
415.318	-1.19
415.526	50
415.734	97.11
415.943	74.58
416.151	74.58
416.359	97.11
416.567	103.25
416.776	103.25
416.984	90.96
417.192	211.79
417.4	11.09
417.608	43.86
417.817	11.09
418.025	160.59
418.233	170.83
418.441	4.95
418.649	58.2
418.857	23.38
419.065	168.79
419.273	54.1
419.481	72.53
419.689	88.92
419.897	-11.43
420.105	50
420.313	109.4
420.521	146.26
420.729	160.59
420.937	45.91
421.145	15.19
421.353	78.68
421.561	152.4
421.769	119.64
421.977	60.24
422.185	86.87
422.393	105.3
422.601	176.98
422.809	113.49
423.017	119.64
423.224	78.68
423.432	119.64
423.64	54.1
423.848	246.61
424.056	-89.26
424.263	140.12
424.471	35.67
424.679	193.36
424.887	35.67
425.094	189.27
425.302	47.96
425.51	-46.25
425.718	211.79
425.925	101.2
426.133	19.29
426.341	217.94
426.548	90.96
426.756	90.96
426.964	70.48
427.171	-58.54
427.379	31.57
427.586	140.12
427.794	164.69
428.001	201.55
428.209	62.29
428.417	234.32
428.624	148.31
428.832	189.27
429.039	90.96
429.247	90.96
429.454	127.83
429.662	226.13
429.869	152.4
430.076	93.01
430.284	68.44
430.491	183.12
430.699	140.12
430.906	246.61
431.114	136.02
431.321	166.74
431.528	131.92
431.736	179.03
431.943	306
432.15	183.12
432.358	285.52
432.565	289.62
432.772	103.25
432.979	219.99
433.187	183.12
433.394	303.95
433.601	72.53
433.808	322.38
434.016	258.9
434.223	240.47
434.43	242.51
434.637	394.06
434.844	273.23
435.052	308.05
435.259	299.86
435.466	402.26
435.673	275.28
435.88	279.38
436.087	439.12
436.294	439.12
436.501	381.78
436.708	287.57
436.915	355.15
437.122	451.41
437.329	289.62
437.537	361.3
437.743	273.23
437.95	500.56
438.157	389.97
438.364	518.99
438.571	488.27
438.778	549.71
438.985	607.05
439.192	559.95
439.399	512.85
439.606	637.77
439.813	648.01
440.02	639.82
440.227	756.55
440.433	738.12
440.64	631.63
440.847	521.04
441.054	764.75
441.261	817.99
441.467	811.85
441.674	664.4
441.881	750.41
442.088	785.23
442.294	897.86
442.501	922.44
442.708	922.44
442.914	955.21
443.121	971.59
443.328	1022.79
443.534	1080.13
443.741	1106.76
443.948	1117
444.154	1270.59
444.361	1440.58
444.568	1311.55
444.774	1299.27
444.981	1200.96
445.187	1407.81
445.394	1329.99
445.6	1424.19
445.807	1688.38
446.013	1516.35
446.22	1567.55
446.426	1680.19
446.633	1751.87
446.839	2040.63
447.046	1717.05
447.252	2061.11
447.459	1958.71
447.665	1952.57
447.871	2192.18
448.078	2265.91
448.284	2337.59
448.491	2362.16
448.697	2589.49
448.903	2655.02
449.11	2706.22
449.316	2763.56
449.522	2947.88
449.728	2898.73
449.935	3132.2
450.141	3142.44
450.347	3359.52
450.553	3322.66
450.76	3506.98
450.966	3732.25
451.172	3609.37
451.378	3943.19
451.584	3912.47
451.791	4289.3
451.997	4381.46
452.203	4461.33
452.409	4702.99
452.615	4911.88
452.821	4739.85
453.027	4598.54
453.233	5395.2
453.44	5309.19
453.646	5579.52
453.852	5679.87
454.058	6099.7
454.264	6169.34
454.47	6646.51
454.676	6757.1
454.882	7293.67
455.088	6812.4
455.294	7338.73
455.5	7959.26
455.705	8291.03
455.911	8286.93
456.117	8446.68
456.323	8745.68
456.529	8807.12
456.735	9663.17
456.941	9806.53
457.147	10146.49
457.352	10457.78
457.558	10828.46
457.764	11379.37
457.97	11676.32
458.176	12094.11
458.381	12925.58
458.587	12898.96
458.793	13650.57
458.999	13793.92
459.204	15288.94
459.41	16122.46
459.616	15737.45
459.821	16661.08
460.027	17361.48
460.233	18129.47
460.438	18166.34
460.644	19167.79
460.85	19413.55
461.055	20320.8
461.261	21084.69
461.466	20812.31
461.672	21203.47
461.878	23601.65
462.083	23325.17
462.289	23994.86
462.494	25065.94
462.7	25061.85
462.905	25500.11
463.111	27785.65
463.316	28615.07
463.522	29747.6
463.727	30419.33
463.932	31711.6
464.138	32553.32
464.343	33927.5
464.549	33909.07
464.754	35850.55
464.959	37081.38
465.165	37560.6
465.37	37323.04
465.575	37759.25
465.781	40028.4
465.986	41552.09
466.191	40380.65
466.397	41191.65
466.602	40042.74
466.807	42592.46
467.012	42932.42
467.218	43575.48
467.423	43745.47
467.628	44841.13
467.833	47392.9
468.038	46557.33
468.244	45791.39
468.449	47437.95
468.654	47147.14
468.859	46663.82
469.064	46833.8
