Data from USB4F104151__33__09-26-56-911.txt Node

Date: Wed Feb 26 09:26:56 EST 2025
User: louis
Spectrometer: USB4F10415
Trigger mode: 4
Integration Time (sec): 1.000000E-1
Scans to average: 1
Electric dark correction enabled: true
Nonlinearity correction enabled: false
Boxcar width: 0
XAxis mode: Wavelengths
Number of Pixels in Spectrum: 3648
>>>>>Begin Spectral Data<<<<<
178.204	-354.3
178.424	-354.3
178.644	-354.3
178.864	-354.3
179.084	-329.72
179.304	16.38
179.524	-71.68
179.744	-6.14
179.964	73.73
180.184	26.62
180.404	-14.34
180.624	24.58
180.844	-2.05
181.064	-59.39
181.283	34.82
181.503	-36.86
181.723	14.34
181.943	-81.92
182.163	118.78
182.383	4.1
182.602	55.3
182.822	182.27
183.042	38.91
183.262	-26.62
183.482	-38.91
183.701	116.73
183.921	38.91
184.141	-51.2
184.361	155.65
184.58	18.43
184.8	65.54
185.02	30.72
185.239	71.68
185.459	-6.14
185.679	126.97
185.898	-6.14
186.118	90.11
186.338	106.49
186.557	149.5
186.777	51.2
186.997	28.67
187.216	69.63
187.436	169.98
187.655	149.5
187.875	51.2
188.095	26.62
188.314	92.16
188.534	141.31
188.753	-36.86
188.973	114.69
189.192	96.25
189.412	0
189.631	20.48
189.851	67.58
190.07	182.27
190.29	-88.06
190.509	47.1
190.729	55.3
190.948	188.41
191.168	270.33
191.387	63.49
191.607	30.72
191.826	96.25
192.045	51.2
192.265	-34.82
192.484	73.73
192.704	81.92
192.923	-83.97
193.142	223.23
193.362	141.31
193.581	141.31
193.8	79.87
194.02	92.16
194.239	55.3
194.458	120.83
194.678	38.91
194.897	10.24
195.116	55.3
195.335	92.16
195.555	30.72
195.774	16.38
195.993	59.39
196.212	18.43
196.432	16.38
196.651	47.1
196.87	36.86
197.089	237.56
197.308	124.93
197.528	49.15
197.747	-18.43
197.966	100.35
198.185	112.64
198.404	-65.53
198.623	-6.14
198.842	167.93
199.062	124.93
199.281	116.73
199.5	18.43
199.719	57.34
199.938	116.73
200.157	112.64
200.376	32.77
200.595	169.98
200.814	83.97
201.033	-6.14
201.252	112.64
201.471	55.3
201.69	34.82
201.909	98.3
202.128	184.32
202.347	90.11
202.566	67.58
202.785	10.24
203.004	-26.62
203.223	178.17
203.442	26.62
203.661	-36.86
203.879	-71.68
204.098	108.54
204.317	-20.48
204.536	102.4
204.755	92.16
204.974	108.54
205.193	59.39
205.411	190.46
205.63	139.26
205.849	137.21
206.068	47.1
206.287	-16.38
206.505	34.82
206.724	59.39
206.943	67.58
207.162	26.62
207.381	122.88
207.599	-47.1
207.818	28.67
208.037	38.91
208.255	-32.77
208.474	18.43
208.693	43.01
208.911	20.48
209.13	18.43
209.349	149.5
209.567	155.65
209.786	59.39
210.005	98.3
210.223	26.62
210.442	-49.15
210.661	51.2
210.879	86.01
211.098	38.91
211.316	-6.14
211.535	106.49
211.753	73.73
211.972	92.16
212.191	-14.34
212.409	34.82
212.628	118.78
212.846	-71.68
213.065	2.05
213.283	118.78
213.502	-49.15
213.72	8.19
213.938	38.91
214.157	26.62
214.375	120.83
214.594	4.1
214.812	67.58
215.031	-12.29
215.249	14.34
215.467	88.06
215.686	-40.96
215.904	100.35
216.122	98.3
216.341	100.35
216.559	122.88
216.778	122.88
216.996	40.96
217.214	-16.38
217.432	47.1
217.651	-40.96
217.869	92.16
218.087	-10.24
218.306	20.48
218.524	16.38
218.742	49.15
218.96	120.83
219.179	47.1
219.397	47.1
219.615	182.27
219.833	20.48
220.051	-8.19
220.27	59.39
220.488	165.89
220.706	14.34
220.924	40.96
221.142	18.43
221.36	22.53
221.578	32.77
221.796	26.62
222.015	90.11
222.233	14.34
222.451	124.93
222.669	18.43
222.887	81.92
223.105	-32.77
223.323	49.15
223.541	0
223.759	6.14
223.977	43.01
224.195	182.27
224.413	139.26
224.631	57.34
224.849	30.72
225.067	247.8
225.285	26.62
225.503	-8.19
225.721	-108.54
225.939	153.6
226.157	34.82
226.375	223.23
226.592	-22.53
226.81	4.1
227.028	118.78
227.246	126.97
227.464	16.38
227.682	108.54
227.9	2.05
228.117	57.34
228.335	28.67
228.553	49.15
228.771	120.83
228.989	110.59
229.206	-47.1
229.424	55.3
229.642	34.82
229.86	18.43
230.077	196.61
230.295	57.34
230.513	120.83
230.731	63.49
230.948	249.85
231.166	69.63
231.384	6.14
231.601	20.48
231.819	122.88
232.037	-49.15
232.254	34.82
232.472	-18.43
232.689	18.43
232.907	75.77
233.125	22.53
233.342	45.06
233.56	-32.77
233.777	28.67
233.995	69.63
234.213	141.31
234.43	51.2
234.648	86.01
234.865	-59.39
235.083	106.49
235.3	36.86
235.518	176.13
235.735	153.6
235.953	75.77
236.17	8.19
236.388	83.97
236.605	-12.29
236.822	194.56
237.04	106.49
237.257	86.01
237.475	8.19
237.692	67.58
237.909	108.54
238.127	-24.58
238.344	75.77
238.562	14.34
238.779	-45.06
238.996	-63.49
239.214	59.39
239.431	83.97
239.648	38.91
239.865	59.39
240.083	88.06
240.3	2.05
240.517	18.43
240.735	-28.67
240.952	141.31
241.169	73.73
241.386	32.77
241.603	129.02
241.821	-18.43
242.038	57.34
242.255	81.92
242.472	-100.35
242.689	81.92
242.907	32.77
243.124	110.59
243.341	-22.53
243.558	34.82
243.775	-75.77
243.992	-22.53
244.209	26.62
244.426	180.22
244.643	36.86
244.86	73.73
245.078	34.82
245.295	133.12
245.512	22.53
245.729	-22.53
245.946	55.3
246.163	73.73
246.38	18.43
246.597	61.44
246.814	28.67
247.031	22.53
247.248	34.82
247.464	55.3
247.681	63.49
247.898	57.34
248.115	137.21
248.332	-30.72
248.549	143.36
248.766	98.3
248.983	96.25
249.2	49.15
249.417	75.77
249.633	16.38
249.85	63.49
250.067	8.19
250.284	43.01
250.501	63.49
250.717	141.31
250.934	-79.87
251.151	26.62
251.368	47.1
251.585	92.16
251.801	65.54
252.018	67.58
252.235	83.97
252.451	-88.06
252.668	30.72
252.885	141.31
253.102	69.63
253.318	32.77
253.535	-10.24
253.752	51.2
253.968	24.58
254.185	10.24
254.401	36.86
254.618	104.45
254.835	-32.77
255.051	126.97
255.268	100.35
255.484	108.54
255.701	2.05
255.917	55.3
256.134	-18.43
256.351	-14.34
256.567	43.01
256.784	-18.43
257	-55.3
257.217	100.35
257.433	79.87
257.65	51.2
257.866	71.68
258.082	-16.38
258.299	-38.91
258.515	98.3
258.732	-53.25
258.948	8.19
259.165	30.72
259.381	-55.3
259.597	59.39
259.814	-34.82
260.03	-34.82
260.246	-6.14
260.463	83.97
260.679	77.82
260.895	83.97
261.112	65.54
261.328	-26.62
261.544	34.82
261.761	237.56
261.977	-34.82
262.193	51.2
262.409	104.45
262.626	116.73
262.842	108.54
263.058	-26.62
263.274	51.2
263.49	59.39
263.707	49.15
263.923	34.82
264.139	-40.96
264.355	49.15
264.571	100.35
264.787	43.01
265.004	81.92
265.22	67.58
265.436	18.43
265.652	75.77
265.868	133.12
266.084	-38.91
266.3	65.54
266.516	0
266.732	83.97
266.948	-24.58
267.164	71.68
267.38	135.17
267.596	61.44
267.812	174.08
268.028	59.39
268.244	43.01
268.46	67.58
268.676	-14.34
268.892	43.01
269.108	40.96
269.324	12.29
269.54	0
269.756	133.12
269.972	-36.86
270.188	10.24
270.403	-65.53
270.619	36.86
270.835	43.01
271.051	32.77
271.267	16.38
271.483	14.34
271.698	43.01
271.914	96.25
272.13	28.67
272.346	18.43
272.562	69.63
272.777	157.69
272.993	6.14
273.209	34.82
273.425	116.73
273.64	-8.19
273.856	96.25
274.072	30.72
274.287	2.05
274.503	43.01
274.719	73.73
274.934	43.01
275.15	-79.87
275.366	120.83
275.581	61.44
275.797	34.82
276.012	79.87
276.228	69.63
276.444	51.2
276.659	141.31
276.875	-63.49
277.09	36.86
277.306	-2.05
277.521	139.26
277.737	92.16
277.952	92.16
278.168	59.39
278.383	-59.39
278.599	51.2
278.814	83.97
279.03	22.53
279.245	225.28
279.461	59.39
279.676	47.1
279.892	-12.29
280.107	8.19
280.322	26.62
280.538	47.1
280.753	6.14
280.969	86.01
281.184	51.2
281.399	137.21
281.615	55.3
281.83	28.67
282.045	18.43
282.26	-4.1
282.476	67.58
282.691	51.2
282.906	8.19
283.122	22.53
283.337	43.01
283.552	18.43
283.767	59.39
283.983	94.21
284.198	-16.38
284.413	34.82
284.628	-12.29
284.843	32.77
285.058	96.25
285.274	32.77
285.489	-71.68
285.704	65.54
285.919	-18.43
286.134	51.2
286.349	81.92
286.564	6.14
286.779	108.54
286.995	49.15
287.21	-73.73
287.425	157.69
287.64	10.24
287.855	100.35
288.07	30.72
288.285	200.7
288.5	100.35
288.715	149.5
288.93	24.58
289.145	81.92
289.36	92.16
289.575	63.49
289.79	131.07
290.004	79.87
290.219	63.49
290.434	88.06
290.649	18.43
290.864	43.01
291.079	53.25
291.294	26.62
291.509	88.06
291.724	38.91
291.938	96.25
292.153	98.3
292.368	6.14
292.583	2.05
292.798	14.34
293.012	51.2
293.227	-6.14
293.442	22.53
293.657	55.3
293.871	118.78
294.086	55.3
294.301	118.78
294.516	133.12
294.73	30.72
294.945	-45.06
295.16	2.05
295.374	141.31
295.589	59.39
295.804	55.3
296.018	32.77
296.233	145.41
296.447	26.62
296.662	14.34
296.877	94.21
297.091	69.63
297.306	51.2
297.52	0
297.735	30.72
297.949	32.77
298.164	51.2
298.378	92.16
298.593	-32.77
298.807	-28.67
299.022	75.77
299.236	169.98
299.451	75.77
299.665	2.05
299.88	26.62
300.094	2.05
300.309	6.14
300.523	96.25
300.737	59.39
300.952	20.48
301.166	-6.14
301.381	-28.67
301.595	-18.43
301.809	10.24
302.024	2.05
302.238	32.77
302.452	61.44
302.667	92.16
302.881	153.6
303.095	81.92
303.309	141.31
303.524	-22.53
303.738	53.25
303.952	10.24
304.166	106.49
304.381	-38.91
304.595	149.5
304.809	4.1
305.023	51.2
305.237	79.87
305.452	36.86
305.666	100.35
305.88	133.12
306.094	114.69
306.308	63.49
306.522	106.49
306.736	79.87
306.95	194.56
307.164	-47.1
307.379	18.43
307.593	124.93
307.807	165.89
308.021	112.64
308.235	53.25
308.449	4.1
308.663	20.48
308.877	212.99
309.091	47.1
309.305	100.35
309.519	-63.49
309.733	153.6
309.947	-79.87
310.161	71.68
310.374	96.25
310.588	161.79
310.802	-6.14
311.016	-16.38
311.23	69.63
311.444	-43.01
311.658	-34.82
311.872	153.6
312.085	49.15
312.299	126.97
312.513	108.54
312.727	118.78
312.941	30.72
313.154	49.15
313.368	-14.34
313.582	67.58
313.796	114.69
314.009	6.14
314.223	120.83
314.437	59.39
314.651	67.58
314.864	14.34
315.078	-71.68
315.292	24.58
315.505	-14.34
315.719	83.97
315.933	112.64
316.146	28.67
316.36	-98.3
316.573	129.02
316.787	88.06
317.001	63.49
317.214	30.72
317.428	12.29
317.641	-16.38
317.855	-75.77
318.068	98.3
318.282	143.36
318.495	126.97
318.709	90.11
318.922	88.06
319.136	100.35
319.349	-10.24
319.563	2.05
319.776	143.36
319.99	-110.59
320.203	63.49
320.417	-47.1
320.63	188.41
320.843	79.87
321.057	104.45
321.27	34.82
321.483	83.97
321.697	116.73
321.91	112.64
322.124	45.06
322.337	124.93
322.55	26.62
322.763	22.53
322.977	-6.14
323.19	-59.39
323.403	73.73
323.617	38.91
323.83	186.37
324.043	24.58
324.256	45.06
324.469	-43.01
324.683	157.69
324.896	69.63
325.109	69.63
325.322	-59.39
325.535	131.07
325.748	118.78
325.962	47.1
326.175	90.11
326.388	51.2
326.601	112.64
326.814	40.96
327.027	-10.24
327.24	159.74
327.453	-8.19
327.666	34.82
327.879	165.89
328.092	61.44
328.305	71.68
328.518	24.58
328.731	-38.91
328.944	-24.58
329.157	-14.34
329.37	18.43
329.583	186.37
329.796	212.99
330.009	-96.25
330.222	153.6
330.435	120.83
330.648	75.77
330.861	12.29
331.073	-8.19
331.286	77.82
331.499	81.92
331.712	40.96
331.925	59.39
332.138	0
332.35	149.5
332.563	-83.97
332.776	182.27
332.989	-20.48
333.202	18.43
333.414	49.15
333.627	32.77
333.84	34.82
334.053	139.26
334.265	-75.77
334.478	-24.58
334.691	43.01
334.903	22.53
335.116	14.34
335.329	-36.86
335.541	34.82
335.754	165.89
335.966	73.73
336.179	16.38
336.392	16.38
336.604	79.87
336.817	79.87
337.029	79.87
337.242	67.58
337.454	81.92
337.667	30.72
337.88	133.12
338.092	92.16
338.305	55.3
338.517	59.39
338.729	110.59
338.942	131.07
339.154	4.1
339.367	34.82
339.579	-2.05
339.792	6.14
340.004	83.97
340.217	65.54
340.429	108.54
340.641	-40.96
340.854	14.34
341.066	18.43
341.278	116.73
341.491	178.17
341.703	14.34
341.915	-12.29
342.128	106.49
342.34	139.26
342.552	-83.97
342.764	2.05
342.977	-6.14
343.189	47.1
343.401	53.25
343.613	10.24
343.826	77.82
344.038	32.77
344.25	92.16
344.462	36.86
344.674	126.97
344.886	-26.62
345.099	47.1
345.311	63.49
345.523	86.01
345.735	-24.58
345.947	108.54
346.159	49.15
346.371	10.24
346.583	10.24
346.795	227.32
347.007	10.24
347.219	86.01
347.431	83.97
347.643	129.02
347.855	38.91
348.067	153.6
348.279	-112.64
348.491	45.06
348.703	55.3
348.915	-34.82
349.127	16.38
349.339	81.92
349.551	-32.77
349.763	108.54
349.975	22.53
350.187	112.64
350.399	139.26
350.61	108.54
350.822	43.01
351.034	57.34
351.246	43.01
351.458	176.13
351.669	100.35
351.881	65.54
352.093	155.65
352.305	133.12
352.517	51.2
352.728	79.87
352.94	118.78
353.152	94.21
353.363	-6.14
353.575	18.43
353.787	108.54
353.999	96.25
354.21	198.65
354.422	104.45
354.633	-2.05
354.845	47.1
355.057	43.01
355.268	40.96
355.48	110.59
355.692	-67.58
355.903	-16.38
356.115	-12.29
356.326	-90.11
356.538	133.12
356.749	90.11
356.961	178.17
357.172	40.96
357.384	51.2
357.595	239.61
357.807	20.48
358.018	71.68
358.23	-38.91
358.441	198.65
358.653	79.87
358.864	40.96
359.075	-22.53
359.287	81.92
359.498	71.68
359.709	159.74
359.921	71.68
360.132	20.48
360.344	-18.43
360.555	-6.14
360.766	112.64
360.977	83.97
361.189	22.53
361.4	106.49
361.611	43.01
361.823	110.59
362.034	45.06
362.245	-2.05
362.456	63.49
362.667	43.01
362.879	12.29
363.09	114.69
363.301	43.01
363.512	90.11
363.723	-47.1
363.935	-47.1
364.146	161.79
364.357	6.14
364.568	114.69
364.779	24.58
364.99	83.97
365.201	18.43
365.412	139.26
365.623	-55.3
365.834	71.68
366.045	51.2
366.256	83.97
366.467	149.5
366.678	4.1
366.889	79.87
367.1	-8.19
367.311	51.2
367.522	63.49
367.733	38.91
367.944	108.54
368.155	26.62
368.366	40.96
368.577	180.22
368.788	100.35
368.999	-10.24
369.209	18.43
369.42	182.27
369.631	194.56
369.842	112.64
370.053	-14.34
370.264	81.92
370.474	36.86
370.685	145.41
370.896	71.68
371.107	108.54
371.317	145.41
371.528	43.01
371.739	59.39
371.95	77.82
372.16	133.12
372.371	-22.53
372.582	34.82
372.792	77.82
373.003	34.82
373.214	69.63
373.424	49.15
373.635	45.06
373.846	159.74
374.056	55.3
374.267	26.62
374.477	112.64
374.688	-47.1
374.898	26.62
375.109	86.01
375.319	157.69
375.53	131.07
375.74	45.06
375.951	-2.05
376.161	4.1
376.372	133.12
376.582	26.62
376.793	88.06
377.003	22.53
377.214	49.15
377.424	81.92
377.635	40.96
377.845	32.77
378.055	133.12
378.266	0
378.476	26.62
378.686	34.82
378.897	34.82
379.107	112.64
379.317	131.07
379.528	0
379.738	75.77
379.948	-6.14
380.158	126.97
380.369	47.1
380.579	88.06
380.789	100.35
380.999	92.16
381.21	88.06
381.42	133.12
381.63	-8.19
381.84	65.54
382.05	104.45
382.261	88.06
382.471	133.12
382.681	47.1
382.891	149.5
383.101	149.5
383.311	-49.15
383.521	18.43
383.731	98.3
383.941	131.07
384.151	26.62
384.361	-4.1
384.571	120.83
384.781	96.25
384.991	151.55
385.201	178.17
385.411	98.3
385.621	40.96
385.831	26.62
386.041	-2.05
386.251	30.72
386.461	139.26
386.671	71.68
386.881	57.34
387.091	36.86
387.301	182.27
387.511	12.29
387.72	49.15
387.93	112.64
388.14	0
388.35	77.82
388.56	135.17
388.769	137.21
388.979	90.11
389.189	-2.05
389.399	36.86
389.609	153.6
389.818	126.97
390.028	75.77
390.238	30.72
390.447	51.2
390.657	47.1
390.867	28.67
391.076	-22.53
391.286	75.77
391.496	24.58
391.705	92.16
391.915	118.78
392.125	126.97
392.334	16.38
392.544	100.35
392.753	-22.53
392.963	6.14
393.172	45.06
393.382	67.58
393.591	147.45
393.801	38.91
394.01	198.65
394.22	100.35
394.429	8.19
394.639	110.59
394.848	-14.34
395.058	51.2
395.267	26.62
395.477	133.12
395.686	34.82
395.895	172.03
396.105	153.6
396.314	67.58
396.524	18.43
396.733	-10.24
396.942	106.49
397.152	141.31
397.361	180.22
397.57	86.01
397.78	43.01
397.989	73.73
398.198	227.32
398.407	51.2
398.617	8.19
398.826	79.87
399.035	14.34
399.244	129.02
399.453	47.1
399.663	57.34
399.872	24.58
400.081	38.91
400.29	83.97
400.499	-6.14
400.708	165.89
400.917	22.53
401.127	49.15
401.336	-2.05
401.545	112.64
401.754	86.01
401.963	59.39
402.172	-8.19
402.381	-71.68
402.59	-65.53
402.799	69.63
403.008	100.35
403.217	34.82
403.426	14.34
403.635	-96.25
403.844	59.39
404.053	126.97
404.262	51.2
404.471	198.65
404.68	24.58
404.888	12.29
405.097	20.48
405.306	55.3
405.515	71.68
405.724	57.34
405.933	149.5
406.142	94.21
406.35	153.6
406.559	34.82
406.768	131.07
406.977	149.5
407.185	100.35
407.394	114.69
407.603	-14.34
407.812	118.78
408.02	153.6
408.229	30.72
408.438	63.49
408.646	-55.3
408.855	43.01
409.064	108.54
409.272	10.24
409.481	94.21
409.69	92.16
409.898	16.38
410.107	83.97
410.315	92.16
410.524	26.62
410.733	40.96
410.941	47.1
411.15	112.64
411.358	77.82
411.567	229.37
411.775	55.3
411.984	0
412.192	149.5
412.401	18.43
412.609	215.04
412.818	110.59
413.026	92.16
413.234	14.34
413.443	45.06
413.651	-18.43
413.86	88.06
414.068	165.89
414.276	178.17
414.485	-6.14
414.693	206.84
414.901	161.79
415.11	104.45
415.318	112.64
415.526	40.96
415.734	110.59
415.943	96.25
416.151	124.93
416.359	59.39
416.567	63.49
416.776	106.49
416.984	120.83
417.192	176.13
417.4	86.01
417.608	108.54
417.817	-43.01
418.025	141.31
418.233	133.12
418.441	16.38
418.649	-36.86
418.857	28.67
419.065	120.83
419.273	6.14
419.481	155.65
419.689	51.2
419.897	71.68
420.105	-8.19
420.313	178.17
420.521	108.54
420.729	169.98
420.937	-34.82
421.145	22.53
421.353	104.45
421.561	147.45
421.769	92.16
421.977	79.87
422.185	135.17
422.393	26.62
422.601	137.21
422.809	65.54
423.017	86.01
423.224	116.73
423.432	24.58
423.64	32.77
423.848	167.93
424.056	67.58
424.263	81.92
424.471	59.39
424.679	204.8
424.887	32.77
425.094	157.69
425.302	100.35
425.51	-38.91
425.718	165.89
425.925	116.73
426.133	-40.96
426.341	202.75
426.548	102.4
426.756	90.11
426.964	124.93
427.171	83.97
427.379	96.25
427.586	22.53
427.794	77.82
428.001	186.37
428.209	92.16
428.417	135.17
428.624	141.31
428.832	153.6
429.039	126.97
429.247	81.92
429.454	69.63
429.662	256
429.869	253.95
430.076	92.16
430.284	192.51
430.491	120.83
430.699	124.93
430.906	243.71
431.114	124.93
431.321	155.65
431.528	110.59
431.736	122.88
431.943	200.7
432.15	190.46
432.358	180.22
432.565	227.32
432.772	96.25
432.979	180.22
433.187	145.41
433.394	169.98
433.601	194.56
433.808	305.15
434.016	251.9
434.223	235.52
434.43	212.99
434.637	251.9
434.844	247.8
435.052	260.09
435.259	296.96
435.466	325.63
435.673	288.76
435.88	286.72
436.087	362.49
436.294	352.25
436.501	329.72
436.708	260.09
436.915	274.43
437.122	411.64
437.329	256
437.537	358.39
437.743	376.83
437.95	497.66
438.157	405.5
438.364	389.11
438.571	487.42
438.778	468.98
438.985	516.09
439.192	518.14
439.399	452.6
439.606	505.85
439.813	583.67
440.02	626.68
440.227	630.77
440.433	649.21
440.64	638.97
440.847	509.94
441.054	606.2
441.261	759.8
441.467	780.28
441.674	632.82
441.881	681.97
442.088	780.28
442.294	731.12
442.501	845.81
442.708	866.29
442.914	851.96
443.121	983.02
443.328	960.5
443.534	1050.61
443.741	950.26
443.948	931.83
444.154	964.59
444.361	1243.12
444.568	1140.72
444.774	1023.98
444.981	1083.38
445.187	1255.4
445.394	1220.59
445.6	1222.64
445.807	1482.73
446.013	1398.76
446.22	1384.43
446.426	1544.17
446.633	1640.42
446.839	1746.92
447.046	1558.5
447.252	1832.93
447.459	1859.56
447.665	1640.42
447.871	1910.75
448.078	1998.82
448.284	1904.61
448.491	2113.5
448.697	2279.39
448.903	2367.45
449.11	2428.89
449.316	2342.88
449.522	2494.43
449.728	2557.91
449.935	2656.22
450.141	2676.7
450.347	3104.72
450.553	2916.31
450.76	3100.62
450.966	3090.38
451.172	3151.82
451.378	3391.44
451.584	3366.86
451.791	3669.96
451.997	3913.67
452.203	3768.26
452.409	4071.36
452.615	4306.88
452.821	4130.75
453.027	4179.9
453.233	4722.62
453.44	4626.36
453.646	5003.19
453.852	5044.15
454.058	5250.99
454.264	5482.41
454.47	5666.73
454.676	5459.88
454.882	6299.55
455.088	6090.66
455.294	6148
455.5	6698.91
455.705	6909.85
455.911	7004.05
456.117	7323.54
456.323	7511.95
456.529	7536.52
456.735	8206.21
456.941	8492.93
457.147	8888.18
457.352	8877.94
457.558	9179
457.764	9713.52
457.97	10002.28
458.176	10442.59
458.381	11003.74
458.587	11128.66
458.793	11745.1
458.999	11892.55
459.204	13072.18
459.41	13672.24
459.616	13377.33
459.821	14145.32
460.027	15011.61
460.233	15517.46
460.438	15478.55
460.644	16451.33
460.85	16660.23
461.055	17041.15
461.261	17895.15
461.466	17819.38
461.672	18056.94
461.878	20209.36
462.083	19984.08
462.289	20510.41
462.494	21110.46
462.7	21331.64
462.905	21714.61
463.111	23621.27
463.316	24592.01
463.522	25044.61
463.727	25654.9
463.932	26834.53
464.138	27672.15
464.343	28646.99
464.549	28706.38
464.754	30805.55
464.959	31819.29
465.165	32341.52
465.37	32220.69
465.575	32075.29
465.781	34393.59
465.986	35302.89
466.191	34840.04
466.397	34979.31
466.602	34434.55
466.807	36113.88
467.012	36527.57
467.218	37201.35
467.423	37463.49
467.628	38657.46
467.833	40398.23
468.038	39507.37
468.244	39198.12
468.449	41000.33
468.654	40404.38
468.859	40293.79
469.064	40342.94
469.269	38878.64
