Data from USB4F104151__77__10-33-10-943.txt Node

Date: Wed Feb 26 10:33:10 EST 2025
User: louis
Spectrometer: USB4F10415
Trigger mode: 4
Integration Time (sec): 1.000000E-1
Scans to average: 1
Electric dark correction enabled: true
Nonlinearity correction enabled: false
Boxcar width: 0
XAxis mode: Wavelengths
Number of Pixels in Spectrum: 3648
>>>>>Begin Spectral Data<<<<<
178.204	-431.1
178.424	-431.1
178.644	-431.1
178.864	-361.47
179.084	-439.29
179.304	9.22
179.524	-56.32
179.744	25.6
179.964	7.17
180.184	99.33
180.404	78.85
180.624	60.42
180.844	-74.75
181.064	-87.04
181.283	54.27
181.503	-52.22
181.723	-64.51
181.943	-31.74
182.163	199.68
182.383	-82.94
182.602	17.41
182.822	107.52
183.042	54.27
183.262	-23.55
183.482	-1.02
183.701	33.79
183.921	7.17
184.141	-7.17
184.361	136.19
184.58	66.56
184.8	37.89
185.02	-11.26
185.239	162.81
185.459	48.13
185.679	58.37
185.898	-25.6
186.118	50.18
186.338	48.13
186.557	105.47
186.777	7.17
186.997	-7.17
187.216	-15.36
187.436	214.01
187.655	56.32
187.875	123.9
188.095	15.36
188.314	185.34
188.534	105.47
188.753	-3.07
188.973	76.8
189.192	175.1
189.412	-5.12
189.631	29.7
189.851	87.04
190.07	187.39
190.29	-39.94
190.509	27.65
190.729	48.13
190.948	140.29
191.168	238.59
191.387	160.77
191.607	37.89
191.826	52.22
192.045	60.42
192.265	54.27
192.484	33.79
192.704	13.31
192.923	-29.7
193.142	252.92
193.362	207.87
193.581	152.57
193.8	99.33
194.02	101.37
194.239	27.65
194.458	111.61
194.678	9.22
194.897	-3.07
195.116	148.48
195.335	-13.31
195.555	58.37
195.774	66.56
195.993	177.15
196.212	29.7
196.432	-27.65
196.651	13.31
196.87	13.31
197.089	224.25
197.308	93.18
197.528	144.38
197.747	-17.41
197.966	21.5
198.185	173.05
198.404	-1.02
198.623	105.47
198.842	74.75
199.062	70.65
199.281	128
199.5	35.84
199.719	56.32
199.938	52.22
200.157	62.46
200.376	162.81
200.595	84.99
200.814	-3.07
201.033	-1.02
201.252	171.01
201.471	39.94
201.69	130.05
201.909	-3.07
202.128	132.09
202.347	64.51
202.566	37.89
202.785	-56.32
203.004	23.55
203.223	199.68
203.442	103.42
203.661	27.65
203.879	33.79
204.098	199.68
204.317	58.37
204.536	62.46
204.755	115.71
204.974	205.82
205.193	25.6
205.411	121.85
205.63	109.57
205.849	21.5
206.068	3.07
206.287	-64.51
206.505	154.62
206.724	80.89
206.943	44.03
207.162	-25.6
207.381	82.94
207.599	15.36
207.818	-33.79
208.037	-60.42
208.255	35.84
208.474	72.7
208.693	17.41
208.911	-64.51
209.13	60.42
209.349	76.8
209.567	99.33
209.786	93.18
210.005	111.61
210.223	72.7
210.442	-87.04
210.661	9.22
210.879	123.9
211.098	62.46
211.316	142.33
211.535	60.42
211.753	93.18
211.972	66.56
212.191	37.89
212.409	-7.17
212.628	144.38
212.846	-35.84
213.065	64.51
213.283	84.99
213.502	50.18
213.72	54.27
213.938	74.75
214.157	31.74
214.375	121.85
214.594	103.42
214.812	101.37
215.031	-17.41
215.249	5.12
215.467	60.42
215.686	19.46
215.904	7.17
216.122	74.75
216.341	132.09
216.559	44.03
216.778	183.29
216.996	138.24
217.214	-29.7
217.432	52.22
217.651	-9.22
217.869	21.5
218.087	39.94
218.306	37.89
218.524	3.07
218.742	-17.41
218.96	23.55
219.179	89.09
219.397	7.17
219.615	252.92
219.833	117.76
220.051	60.42
220.27	99.33
220.488	123.9
220.706	80.89
220.924	-54.27
221.142	-35.84
221.36	148.48
221.578	-27.65
221.796	99.33
222.015	68.61
222.233	27.65
222.451	228.35
222.669	17.41
222.887	99.33
223.105	-58.37
223.323	5.12
223.541	-89.09
223.759	173.05
223.977	76.8
224.195	166.91
224.413	87.04
224.631	62.46
224.849	80.89
225.067	195.58
225.285	1.02
225.503	-50.18
225.721	-117.76
225.939	7.17
226.157	50.18
226.375	197.63
226.592	31.74
226.81	23.55
227.028	140.29
227.246	113.66
227.464	115.71
227.682	74.75
227.9	31.74
228.117	148.48
228.335	46.08
228.553	27.65
228.771	-29.7
228.989	31.74
229.206	119.81
229.424	11.26
229.642	48.13
229.86	-74.75
230.077	99.33
230.295	29.7
230.513	21.5
230.731	91.13
230.948	158.72
231.166	158.72
231.384	3.07
231.601	7.17
231.819	146.43
232.037	-56.32
232.254	-33.79
232.472	-64.51
232.689	70.65
232.907	74.75
233.125	-54.27
233.342	-3.07
233.56	-48.13
233.777	21.5
233.995	76.8
234.213	109.57
234.43	60.42
234.648	66.56
234.865	46.08
235.083	72.7
235.3	37.89
235.518	152.57
235.735	105.47
235.953	80.89
236.17	-17.41
236.388	62.46
236.605	25.6
236.822	101.37
237.04	187.39
237.257	50.18
237.475	5.12
237.692	72.7
237.909	125.95
238.127	-1.02
238.344	128
238.562	58.37
238.779	-74.75
238.996	7.17
239.214	183.29
239.431	109.57
239.648	-11.26
239.865	27.65
240.083	80.89
240.3	-48.13
240.517	19.46
240.735	60.42
240.952	132.09
241.169	39.94
241.386	44.03
241.603	95.23
241.821	-99.33
242.038	123.9
242.255	93.18
242.472	-3.07
242.689	60.42
242.907	99.33
243.124	52.22
243.341	-44.03
243.558	-25.6
243.775	-82.94
243.992	-72.7
244.209	82.94
244.426	158.72
244.643	152.57
244.86	25.6
245.078	152.57
245.295	31.74
245.512	44.03
245.729	-13.31
245.946	140.29
246.163	91.13
246.38	31.74
246.597	132.09
246.814	76.8
247.031	84.99
247.248	19.46
247.464	9.22
247.681	46.08
247.898	80.89
248.115	37.89
248.332	-15.36
248.549	187.39
248.766	125.95
248.983	46.08
249.2	199.68
249.417	93.18
249.633	-46.08
249.85	62.46
250.067	-37.89
250.284	-46.08
250.501	76.8
250.717	138.24
250.934	-27.65
251.151	46.08
251.368	52.22
251.585	-1.02
251.801	56.32
252.018	-1.02
252.235	142.33
252.451	-25.6
252.668	37.89
252.885	134.14
253.102	13.31
253.318	-27.65
253.535	78.85
253.752	31.74
253.968	13.31
254.185	-44.03
254.401	48.13
254.618	107.52
254.835	41.98
255.051	115.71
255.268	105.47
255.484	48.13
255.701	17.41
255.917	7.17
256.134	-7.17
256.351	27.65
256.567	1.02
256.784	13.31
257	-50.18
257.217	19.46
257.433	134.14
257.65	39.94
257.866	207.87
258.082	-37.89
258.299	11.26
258.515	50.18
258.732	-1.02
258.948	46.08
259.165	97.28
259.381	1.02
259.597	33.79
259.814	58.37
260.03	33.79
260.246	78.85
260.463	158.72
260.679	138.24
260.895	35.84
261.112	187.39
261.328	21.5
261.544	-5.12
261.761	142.33
261.977	-15.36
262.193	-46.08
262.409	160.77
262.626	29.7
262.842	78.85
263.058	-13.31
263.274	97.28
263.49	84.99
263.707	37.89
263.923	134.14
264.139	-23.55
264.355	48.13
264.571	152.57
264.787	74.75
265.004	150.53
265.22	-25.6
265.436	41.98
265.652	37.89
265.868	60.42
266.084	-84.99
266.3	-1.02
266.516	25.6
266.732	9.22
266.948	99.33
267.164	-29.7
267.38	76.8
267.596	125.95
267.812	123.9
268.028	72.7
268.244	44.03
268.46	52.22
268.676	31.74
268.892	78.85
269.108	-21.5
269.324	-5.12
269.54	-56.32
269.756	113.66
269.972	-37.89
270.188	72.7
270.403	19.46
270.619	-19.46
270.835	60.42
271.051	-15.36
271.267	-1.02
271.483	-1.02
271.698	101.37
271.914	62.46
272.13	52.22
272.346	-13.31
272.562	89.09
272.777	130.05
272.993	5.12
273.209	35.84
273.425	72.7
273.64	-35.84
273.856	64.51
274.072	-76.8
274.287	-11.26
274.503	21.5
274.719	31.74
274.934	58.37
275.15	-54.27
275.366	21.5
275.581	-31.74
275.797	-48.13
276.012	56.32
276.228	54.27
276.444	80.89
276.659	154.62
276.875	-29.7
277.09	19.46
277.306	25.6
277.521	48.13
277.737	64.51
277.952	162.81
278.168	68.61
278.383	78.85
278.599	-13.31
278.814	115.71
279.03	50.18
279.245	134.14
279.461	56.32
279.676	101.37
279.892	-113.66
280.107	-1.02
280.322	-9.22
280.538	50.18
280.753	-46.08
280.969	70.65
281.184	5.12
281.399	111.61
281.615	33.79
281.83	107.52
282.045	-54.27
282.26	-13.31
282.476	19.46
282.691	101.37
282.906	78.85
283.122	31.74
283.337	-11.26
283.552	41.98
283.767	3.07
283.983	121.85
284.198	11.26
284.413	35.84
284.628	-105.47
284.843	93.18
285.058	52.22
285.274	-19.46
285.489	-21.5
285.704	44.03
285.919	-21.5
286.134	3.07
286.349	80.89
286.564	-66.56
286.779	113.66
286.995	-37.89
287.21	19.46
287.425	95.23
287.64	3.07
287.855	-3.07
288.07	-54.27
288.285	60.42
288.5	66.56
288.715	48.13
288.93	80.89
289.145	-93.18
289.36	74.75
289.575	27.65
289.79	68.61
290.004	-33.79
290.219	58.37
290.434	46.08
290.649	58.37
290.864	-3.07
291.079	48.13
291.294	48.13
291.509	52.22
291.724	5.12
291.938	-29.7
292.153	50.18
292.368	54.27
292.583	37.89
292.798	62.46
293.012	74.75
293.227	84.99
293.442	41.98
293.657	119.81
293.871	154.62
294.086	52.22
294.301	191.49
294.516	111.61
294.73	64.51
294.945	41.98
295.16	9.22
295.374	148.48
295.589	74.75
295.804	35.84
296.018	70.65
296.233	82.94
296.447	113.66
296.662	-9.22
296.877	109.57
297.091	56.32
297.306	68.61
297.52	-19.46
297.735	19.46
297.949	93.18
298.164	84.99
298.378	23.55
298.593	39.94
298.807	-15.36
299.022	-5.12
299.236	166.91
299.451	1.02
299.665	25.6
299.88	19.46
300.094	9.22
300.309	84.99
300.523	64.51
300.737	52.22
300.952	62.46
301.166	80.89
301.381	-62.46
301.595	-15.36
301.809	-1.02
302.024	62.46
302.238	1.02
302.452	181.25
302.667	27.65
302.881	189.44
303.095	56.32
303.309	101.37
303.524	50.18
303.738	113.66
303.952	-66.56
304.166	33.79
304.381	-62.46
304.595	138.24
304.809	-23.55
305.023	-11.26
305.237	95.23
305.452	-1.02
305.666	130.05
305.88	78.85
306.094	132.09
306.308	134.14
306.522	89.09
306.736	64.51
306.95	97.28
307.164	15.36
307.379	44.03
307.593	171.01
307.807	60.42
308.021	89.09
308.235	132.09
308.449	-44.03
308.663	11.26
308.877	195.58
309.091	25.6
309.305	132.09
309.519	1.02
309.733	89.09
309.947	-39.94
310.161	119.81
310.374	72.7
310.588	156.67
310.802	-41.98
311.016	54.27
311.23	89.09
311.444	-25.6
311.658	7.17
311.872	87.04
312.085	130.05
312.299	160.77
312.513	119.81
312.727	-3.07
312.941	44.03
313.154	44.03
313.368	5.12
313.582	35.84
313.796	39.94
314.009	3.07
314.223	146.43
314.437	23.55
314.651	84.99
314.864	44.03
315.078	11.26
315.292	39.94
315.505	35.84
315.719	87.04
315.933	150.53
316.146	-19.46
316.36	-58.37
316.573	87.04
316.787	52.22
317.001	31.74
317.214	-17.41
317.428	5.12
317.641	-68.61
317.855	-25.6
318.068	89.09
318.282	95.23
318.495	222.2
318.709	70.65
318.922	33.79
319.136	150.53
319.349	111.61
319.563	19.46
319.776	87.04
319.99	-84.99
320.203	82.94
320.417	48.13
320.63	132.09
320.843	123.9
321.057	113.66
321.27	-25.6
321.483	23.55
321.697	117.76
321.91	25.6
322.124	84.99
322.337	60.42
322.55	-19.46
322.763	35.84
322.977	-62.46
323.19	21.5
323.403	74.75
323.617	62.46
323.83	44.03
324.043	5.12
324.256	58.37
324.469	-3.07
324.683	117.76
324.896	31.74
325.109	-9.22
325.322	-62.46
325.535	72.7
325.748	82.94
325.962	97.28
326.175	80.89
326.388	64.51
326.601	93.18
326.814	64.51
327.027	-29.7
327.24	136.19
327.453	-76.8
327.666	125.95
327.879	154.62
328.092	66.56
328.305	27.65
328.518	-15.36
328.731	-17.41
328.944	41.98
329.157	91.13
329.37	1.02
329.583	216.06
329.796	160.77
330.009	-68.61
330.222	91.13
330.435	158.72
330.648	58.37
330.861	62.46
331.073	76.8
331.286	76.8
331.499	33.79
331.712	-31.74
331.925	44.03
332.138	25.6
332.35	101.37
332.563	-91.13
332.776	156.67
332.989	-25.6
333.202	-62.46
333.414	44.03
333.627	70.65
333.84	54.27
334.053	27.65
334.265	11.26
334.478	-7.17
334.691	19.46
334.903	117.76
335.116	19.46
335.329	66.56
335.541	44.03
335.754	203.77
335.966	5.12
336.179	50.18
336.392	52.22
336.604	3.07
336.817	117.76
337.029	41.98
337.242	-9.22
337.454	93.18
337.667	93.18
337.88	130.05
338.092	91.13
338.305	80.89
338.517	-5.12
338.729	119.81
338.942	115.71
339.154	-54.27
339.367	-60.42
339.579	31.74
339.792	-13.31
340.004	68.61
340.217	25.6
340.429	91.13
340.641	15.36
340.854	-101.37
341.066	23.55
341.278	138.24
341.491	152.57
341.703	39.94
341.915	89.09
342.128	52.22
342.34	125.95
342.552	-21.5
342.764	78.85
342.977	29.7
343.189	125.95
343.401	39.94
343.613	-3.07
343.826	78.85
344.038	-54.27
344.25	29.7
344.462	-60.42
344.674	35.84
344.886	-1.02
345.099	41.98
345.311	64.51
345.523	27.65
345.735	-33.79
345.947	119.81
346.159	37.89
346.371	23.55
346.583	23.55
346.795	136.19
347.007	-7.17
347.219	87.04
347.431	60.42
347.643	60.42
347.855	-17.41
348.067	87.04
348.279	-52.22
348.491	87.04
348.703	54.27
348.915	7.17
349.127	13.31
349.339	99.33
349.551	21.5
349.763	58.37
349.975	95.23
350.187	107.52
350.399	105.47
350.61	74.75
350.822	58.37
351.034	17.41
351.246	52.22
351.458	60.42
351.669	97.28
351.881	99.33
352.093	166.91
352.305	154.62
352.517	87.04
352.728	148.48
352.94	70.65
353.152	50.18
353.363	11.26
353.575	80.89
353.787	164.86
353.999	35.84
354.21	166.91
354.422	-41.98
354.633	23.55
354.845	21.5
355.057	46.08
355.268	25.6
355.48	115.71
355.692	-50.18
355.903	-15.36
356.115	-105.47
356.326	-76.8
356.538	105.47
356.749	11.26
356.961	138.24
357.172	84.99
357.384	-56.32
357.595	179.2
357.807	56.32
358.018	37.89
358.23	46.08
358.441	281.6
358.653	37.89
358.864	-1.02
359.075	48.13
359.287	80.89
359.498	46.08
359.709	48.13
359.921	23.55
360.132	46.08
360.344	21.5
360.555	-29.7
360.766	87.04
360.977	11.26
361.189	48.13
361.4	33.79
361.611	93.18
361.823	103.42
362.034	87.04
362.245	-46.08
362.456	54.27
362.667	76.8
362.879	11.26
363.09	23.55
363.301	80.89
363.512	50.18
363.723	-17.41
363.935	-1.02
364.146	56.32
364.357	62.46
364.568	99.33
364.779	-78.85
364.99	166.91
365.201	17.41
365.412	97.28
365.623	-37.89
365.834	93.18
366.045	82.94
366.256	41.98
366.467	41.98
366.678	31.74
366.889	54.27
367.1	52.22
367.311	130.05
367.522	-17.41
367.733	78.85
367.944	41.98
368.155	9.22
368.366	138.24
368.577	70.65
368.788	113.66
368.999	31.74
369.209	46.08
369.42	201.72
369.631	195.58
369.842	117.76
370.053	7.17
370.264	87.04
370.474	-72.7
370.685	44.03
370.896	99.33
371.107	138.24
371.317	-11.26
371.528	27.65
371.739	193.53
371.95	15.36
372.16	72.7
372.371	-87.04
372.582	7.17
372.792	35.84
373.003	68.61
373.214	87.04
373.424	64.51
373.635	-76.8
373.846	91.13
374.056	105.47
374.267	101.37
374.477	84.99
374.688	-9.22
374.898	138.24
375.109	72.7
375.319	17.41
375.53	89.09
375.74	148.48
375.951	-5.12
376.161	68.61
376.372	76.8
376.582	3.07
376.793	107.52
377.003	-37.89
377.214	-33.79
377.424	50.18
377.635	33.79
377.845	-50.18
378.055	150.53
378.266	-44.03
378.476	50.18
378.686	58.37
378.897	48.13
379.107	78.85
379.317	91.13
379.528	-13.31
379.738	95.23
379.948	-21.5
380.158	164.86
380.369	11.26
380.579	29.7
380.789	9.22
380.999	84.99
381.21	216.06
381.42	224.25
381.63	-66.56
381.84	107.52
382.05	27.65
382.261	78.85
382.471	117.76
382.681	15.36
382.891	158.72
383.101	87.04
383.311	15.36
383.521	58.37
383.731	136.19
383.941	72.7
384.151	21.5
384.361	48.13
384.571	25.6
384.781	25.6
384.991	187.39
385.201	132.09
385.411	74.75
385.621	46.08
385.831	58.37
386.041	146.43
386.251	56.32
386.461	39.94
386.671	19.46
386.881	109.57
387.091	-27.65
387.301	158.72
387.511	19.46
387.72	140.29
387.93	177.15
388.14	27.65
388.35	44.03
388.56	142.33
388.769	158.72
388.979	119.81
389.189	46.08
389.399	68.61
389.609	58.37
389.818	1.02
390.028	15.36
390.238	72.7
390.447	9.22
390.657	117.76
390.867	64.51
391.076	-37.89
391.286	84.99
391.496	9.22
391.705	-13.31
391.915	144.38
392.125	140.29
392.334	95.23
392.544	146.43
392.753	-25.6
392.963	58.37
393.172	64.51
393.382	27.65
393.591	119.81
393.801	-19.46
394.01	136.19
394.22	115.71
394.429	-58.37
394.639	78.85
394.848	19.46
395.058	17.41
395.267	72.7
395.477	82.94
395.686	66.56
395.895	216.06
396.105	189.44
396.314	117.76
396.524	105.47
396.733	91.13
396.942	99.33
397.152	44.03
397.361	58.37
397.57	25.6
397.78	50.18
397.989	72.7
398.198	173.05
398.407	-29.7
398.617	91.13
398.826	117.76
399.035	44.03
399.244	95.23
399.453	70.65
399.663	-9.22
399.872	-11.26
400.081	-80.89
400.29	222.2
400.499	35.84
400.708	5.12
400.917	101.37
401.127	7.17
401.336	64.51
401.545	168.96
401.754	121.85
401.963	113.66
402.172	11.26
402.381	33.79
402.59	56.32
402.799	19.46
403.008	107.52
403.217	48.13
403.426	84.99
403.635	-25.6
403.844	-23.55
404.053	-11.26
404.262	39.94
404.471	185.34
404.68	150.53
404.888	33.79
405.097	13.31
405.306	9.22
405.515	37.89
405.724	-1.02
405.933	84.99
406.142	70.65
406.35	201.72
406.559	87.04
406.768	125.95
406.977	173.05
407.185	50.18
407.394	109.57
407.603	41.98
407.812	70.65
408.02	164.86
408.229	-7.17
408.438	33.79
408.646	-46.08
408.855	66.56
409.064	68.61
409.272	33.79
409.481	107.52
409.69	31.74
409.898	15.36
410.107	117.76
410.315	164.86
410.524	-48.13
410.733	117.76
410.941	31.74
411.15	62.46
411.358	154.62
411.567	179.2
411.775	54.27
411.984	19.46
412.192	72.7
412.401	48.13
412.609	152.57
412.818	138.24
413.026	39.94
413.234	-9.22
413.443	19.46
413.651	21.5
413.86	-25.6
414.068	11.26
414.276	177.15
414.485	58.37
414.693	195.58
414.901	199.68
415.11	50.18
415.318	48.13
415.526	146.43
415.734	189.44
415.943	89.09
416.151	64.51
416.359	72.7
416.567	128
416.776	183.29
416.984	84.99
417.192	220.16
417.4	39.94
417.608	-44.03
417.817	-37.89
418.025	13.31
418.233	209.92
418.441	-5.12
418.649	1.02
418.857	89.09
419.065	171.01
419.273	5.12
419.481	13.31
419.689	52.22
419.897	29.7
420.105	-91.13
420.313	39.94
420.521	101.37
420.729	158.72
420.937	46.08
421.145	-41.98
421.353	95.23
421.561	197.63
421.769	15.36
421.977	-3.07
422.185	125.95
422.393	76.8
422.601	158.72
422.809	95.23
423.017	-15.36
423.224	109.57
423.432	70.65
423.64	93.18
423.848	144.38
424.056	-37.89
424.263	156.67
424.471	95.23
424.679	148.48
424.887	-31.74
425.094	154.62
425.302	60.42
425.51	39.94
425.718	185.34
425.925	117.76
426.133	-37.89
426.341	240.64
426.548	68.61
426.756	72.7
426.964	111.61
427.171	62.46
427.379	74.75
427.586	1.02
427.794	173.05
428.001	209.92
428.209	105.47
428.417	191.49
428.624	142.33
428.832	203.77
429.039	123.9
429.247	142.33
429.454	162.81
429.662	199.68
429.869	123.9
430.076	179.2
430.284	105.47
430.491	128
430.699	60.42
430.906	222.2
431.114	109.57
431.321	97.28
431.528	132.09
431.736	99.33
431.943	119.81
432.15	158.72
432.358	168.96
432.565	232.44
432.772	-21.5
432.979	224.25
433.187	109.57
433.394	173.05
433.601	111.61
433.808	195.58
434.016	281.6
434.223	224.25
434.43	162.81
434.637	238.59
434.844	287.74
435.052	201.72
435.259	242.68
435.466	193.53
435.673	187.39
435.88	248.83
436.087	314.36
436.294	289.79
436.501	308.22
436.708	226.3
436.915	273.4
437.122	416.76
437.329	275.45
437.537	355.32
437.743	312.32
437.95	386.04
438.157	318.46
438.364	420.86
438.571	320.51
438.778	386.04
438.985	418.81
439.192	418.81
439.399	443.39
439.606	416.76
439.813	482.3
440.02	578.55
440.227	531.45
440.433	543.74
440.64	488.44
440.847	420.86
441.054	531.45
441.261	599.03
441.467	623.61
441.674	435.19
441.881	656.37
442.088	570.36
442.294	644.09
442.501	764.92
442.708	723.96
442.914	674.81
443.121	826.36
443.328	848.88
443.534	801.78
443.741	795.64
443.948	764.92
444.154	895.99
444.361	951.28
444.568	820.21
444.774	973.81
444.981	777.2
445.187	1063.92
445.394	1061.87
445.6	1012.72
445.807	1188.85
446.013	1141.74
446.22	1166.32
446.426	1156.08
446.633	1326.06
446.839	1557.48
447.046	1213.42
447.252	1543.14
447.459	1383.4
447.665	1592.3
447.871	1518.57
448.078	1743.85
448.284	1674.21
448.491	1764.33
448.697	1960.93
448.903	1938.4
449.11	1973.22
449.316	1962.98
449.522	2120.67
449.728	2184.16
449.935	2276.32
450.141	2237.41
450.347	2456.54
450.553	2528.22
450.76	2438.11
450.966	2608.09
451.172	2716.63
451.378	2776.02
451.584	2808.79
451.791	3113.94
451.997	3115.98
452.203	3183.57
452.409	3402.7
452.615	3562.44
452.821	3296.21
453.027	3396.56
453.233	3861.45
453.44	3779.53
453.646	3908.55
453.852	4115.39
454.058	4215.74
454.264	4447.16
454.47	4737.98
454.676	4678.58
454.882	5063.6
455.088	5049.27
455.294	5475.24
455.5	5458.86
455.705	5800.87
455.911	5903.27
456.117	5888.93
456.323	6187.94
456.529	6230.94
456.735	6601.63
456.941	6945.69
457.147	7259.03
457.352	7541.64
457.558	7551.88
457.764	8215.43
457.97	8412.03
458.176	8762.23
458.381	8983.41
458.587	9083.77
458.793	9749.36
458.999	9558.89
459.204	10812.25
459.41	11279.19
459.616	10865.5
459.821	11782.99
460.027	12190.53
460.233	12710.72
460.438	12671.81
460.644	13531.95
460.85	13685.55
461.055	14052.14
461.261	14801.69
461.466	14373.67
461.672	14977.82
461.878	16571.14
462.083	16552.71
462.289	16802.56
462.494	17375.99
462.7	17484.53
462.905	17859.31
463.111	19131.1
463.316	20284.11
463.522	20607.69
463.727	21013.18
463.932	22164.14
464.138	22688.42
464.343	23759.51
464.549	23798.42
464.754	25361.02
464.959	26016.37
465.165	26557.03
465.37	26425.96
465.575	26641
465.781	28164.69
465.986	29356.61
466.191	28424.78
466.397	28971.59
466.602	28379.73
466.807	29749.82
467.012	30290.48
467.218	30896.68
467.423	30712.36
467.628	31724.06
467.833	33239.56
468.038	32561.68
468.244	31758.88
468.449	33808.89
468.654	33212.93
468.859	33303.04
469.064	33307.14
