Data from USB4F104151__32__09-26-53-012.txt Node

Date: Wed Feb 26 09:26:53 EST 2025
User: louis
Spectrometer: USB4F10415
Trigger mode: 4
Integration Time (sec): 1.000000E-1
Scans to average: 1
Electric dark correction enabled: true
Nonlinearity correction enabled: false
Boxcar width: 0
XAxis mode: Wavelengths
Number of Pixels in Spectrum: 3648
>>>>>Begin Spectral Data<<<<<
178.204	-350.54
178.424	-350.54
178.644	-350.54
178.864	-352.59
179.084	-350.54
179.304	-8.53
179.524	3.75
179.744	-16.73
179.964	106.15
180.184	-10.58
180.404	22.19
180.624	-0.34
180.844	-31.06
181.064	-51.54
181.283	-6.49
181.503	-29.01
181.723	22.19
181.943	-117.08
182.163	196.26
182.383	-0.34
182.602	83.63
182.822	181.93
183.042	63.15
183.262	-0.34
183.482	38.57
183.701	-39.25
183.921	-14.68
184.141	-20.82
184.361	44.71
184.58	-6.49
184.8	22.19
185.02	42.67
185.239	65.19
185.459	30.38
185.679	165.54
185.898	-35.16
186.118	50.86
186.338	89.77
186.557	116.39
186.777	-24.92
186.997	79.53
187.216	59.05
187.436	169.64
187.655	91.82
187.875	46.76
188.095	46.76
188.314	75.43
188.534	140.97
188.753	-55.64
188.973	177.83
189.192	183.98
189.412	50.86
189.631	-22.87
189.851	5.8
190.07	183.98
190.29	-22.87
190.509	-8.53
190.729	46.76
190.948	102.06
191.168	196.26
191.387	54.95
191.607	-14.68
191.826	83.63
192.045	81.58
192.265	-14.68
192.484	65.19
192.704	85.67
192.923	-14.68
193.142	95.91
193.362	7.85
193.581	118.44
193.8	30.38
194.02	7.85
194.239	-4.44
194.458	38.57
194.678	-14.68
194.897	26.28
195.116	40.62
195.335	54.95
195.555	145.06
195.774	91.82
195.993	26.28
196.212	26.28
196.432	24.23
196.651	-65.88
196.87	-39.25
197.089	130.73
197.308	83.63
197.528	50.86
197.747	-14.68
197.966	59.05
198.185	138.92
198.404	-0.34
198.623	104.11
198.842	89.77
199.062	57
199.281	149.16
199.5	-22.87
199.719	67.24
199.938	95.91
200.157	87.72
200.376	65.19
200.595	112.3
200.814	89.77
201.033	7.85
201.252	104.11
201.471	18.09
201.69	128.68
201.909	1.71
202.128	65.19
202.347	44.71
202.566	59.05
202.785	-108.88
203.004	24.23
203.223	212.65
203.442	50.86
203.661	-51.54
203.879	54.95
204.098	38.57
204.317	-10.58
204.536	114.34
204.755	102.06
204.974	108.2
205.193	34.47
205.411	186.02
205.63	149.16
205.849	7.85
206.068	-65.88
206.287	-2.39
206.505	85.67
206.724	-31.06
206.943	-47.44
207.162	50.86
207.381	73.39
207.599	5.8
207.818	-0.34
208.037	-0.34
208.255	-39.25
208.474	48.81
208.693	38.57
208.911	91.82
209.13	124.58
209.349	161.45
209.567	63.15
209.786	59.05
210.005	100.01
210.223	20.14
210.442	-119.12
210.661	61.1
210.879	5.8
211.098	1.71
211.316	69.29
211.535	73.39
211.753	40.62
211.972	18.09
212.191	71.34
212.409	-29.01
212.628	116.39
212.846	-84.31
213.065	-6.49
213.283	87.72
213.502	44.71
213.72	65.19
213.938	63.15
214.157	-35.16
214.375	169.64
214.594	16.04
214.812	79.53
215.031	-8.53
215.249	-39.25
215.467	63.15
215.686	77.48
215.904	42.67
216.122	50.86
216.341	145.06
216.559	97.96
216.778	138.92
216.996	149.16
217.214	20.14
217.432	1.71
217.651	-47.44
217.869	34.47
218.087	-6.49
218.306	-41.3
218.524	32.43
218.742	-8.53
218.96	79.53
219.179	20.14
219.397	28.33
219.615	186.02
219.833	75.43
220.051	-35.16
220.27	77.48
220.488	59.05
220.706	52.91
220.924	5.8
221.142	24.23
221.36	81.58
221.578	54.95
221.796	11.95
222.015	-6.49
222.233	5.8
222.451	130.73
222.669	-8.53
222.887	38.57
223.105	34.47
223.323	-2.39
223.541	5.8
223.759	91.82
223.977	32.43
224.195	163.5
224.413	83.63
224.631	38.57
224.849	91.82
225.067	97.96
225.285	26.28
225.503	-35.16
225.721	13.99
225.939	9.9
226.157	34.47
226.375	196.26
226.592	-14.68
226.81	18.09
227.028	181.93
227.246	167.59
227.464	40.62
227.682	71.34
227.9	106.15
228.117	44.71
228.335	32.43
228.553	-22.87
228.771	18.09
228.989	81.58
229.206	-16.73
229.424	30.38
229.642	-22.87
229.86	-14.68
230.077	69.29
230.295	75.43
230.513	50.86
230.731	52.91
230.948	114.34
231.166	130.73
231.384	5.8
231.601	-33.11
231.819	177.83
232.037	22.19
232.254	-88.4
232.472	44.71
232.689	34.47
232.907	61.1
233.125	-2.39
233.342	-63.83
233.56	-0.34
233.777	26.28
233.995	91.82
234.213	83.63
234.43	93.87
234.648	36.52
234.865	-39.25
235.083	42.67
235.3	54.95
235.518	-16.73
235.735	157.35
235.953	169.64
236.17	38.57
236.388	-4.44
236.605	-10.58
236.822	192.17
237.04	67.24
237.257	71.34
237.475	9.9
237.692	-12.63
237.909	26.28
238.127	-31.06
238.344	32.43
238.562	75.43
238.779	-63.83
238.996	-43.35
239.214	18.09
239.431	69.29
239.648	-41.3
239.865	138.92
240.083	65.19
240.3	22.19
240.517	-4.44
240.735	9.9
240.952	110.25
241.169	48.81
241.386	-12.63
241.603	48.81
241.821	3.75
242.038	71.34
242.255	91.82
242.472	-35.16
242.689	91.82
242.907	136.87
243.124	104.11
243.341	32.43
243.558	26.28
243.775	-35.16
243.992	-6.49
244.209	61.1
244.426	198.31
244.643	-2.39
244.86	71.34
245.078	81.58
245.295	9.9
245.512	24.23
245.729	-0.34
245.946	59.05
246.163	30.38
246.38	-10.58
246.597	9.9
246.814	11.95
247.031	42.67
247.248	48.81
247.464	130.73
247.681	61.1
247.898	67.24
248.115	83.63
248.332	-51.54
248.549	130.73
248.766	89.77
248.983	-14.68
249.2	57
249.417	163.5
249.633	26.28
249.85	57
250.067	-18.77
250.284	-18.77
250.501	69.29
250.717	50.86
250.934	-29.01
251.151	-8.53
251.368	-6.49
251.585	57
251.801	-24.92
252.018	28.33
252.235	57
252.451	-18.77
252.668	-18.77
252.885	91.82
253.102	20.14
253.318	1.71
253.535	-18.77
253.752	-12.63
253.968	-57.68
254.185	-47.44
254.401	-14.68
254.618	24.23
254.835	-6.49
255.051	63.15
255.268	75.43
255.484	28.33
255.701	-2.39
255.917	26.28
256.134	-39.25
256.351	-4.44
256.567	-45.4
256.784	-31.06
257	-57.68
257.217	122.54
257.433	87.72
257.65	36.52
257.866	143.02
258.082	-92.5
258.299	-82.26
258.515	59.05
258.732	-69.97
258.948	-8.53
259.165	9.9
259.381	11.95
259.597	50.86
259.814	42.67
260.03	18.09
260.246	50.86
260.463	153.26
260.679	61.1
260.895	-6.49
261.112	54.95
261.328	130.73
261.544	-20.82
261.761	112.3
261.977	24.23
262.193	-47.44
262.409	38.57
262.626	95.91
262.842	18.09
263.058	-98.64
263.274	79.53
263.49	38.57
263.707	26.28
263.923	116.39
264.139	-35.16
264.355	112.3
264.571	173.74
264.787	46.76
265.004	149.16
265.22	59.05
265.436	-33.11
265.652	-72.02
265.868	-6.49
266.084	-51.54
266.3	34.47
266.516	-84.31
266.732	7.85
266.948	-6.49
267.164	-16.73
267.38	124.58
267.596	40.62
267.812	173.74
268.028	32.43
268.244	-6.49
268.46	9.9
268.676	32.43
268.892	7.85
269.108	-59.73
269.324	-78.16
269.54	-69.97
269.756	138.92
269.972	-72.02
270.188	-26.96
270.403	-57.68
270.619	-2.39
270.835	34.47
271.051	61.1
271.267	-20.82
271.483	-10.58
271.698	-8.53
271.914	40.62
272.13	-0.34
272.346	-47.44
272.562	-41.3
272.777	97.96
272.993	48.81
273.209	-16.73
273.425	46.76
273.64	-47.44
273.856	26.28
274.072	-8.53
274.287	-37.2
274.503	124.58
274.719	57
274.934	-37.2
275.15	-49.49
275.366	24.23
275.581	-26.96
275.797	-69.97
276.012	48.81
276.228	-29.01
276.444	116.39
276.659	116.39
276.875	-0.34
277.09	54.95
277.306	61.1
277.521	100.01
277.737	-16.73
277.952	54.95
278.168	108.2
278.383	-16.73
278.599	5.8
278.814	65.19
279.03	52.91
279.245	67.24
279.461	36.52
279.676	91.82
279.892	7.85
280.107	-49.49
280.322	-29.01
280.538	87.72
280.753	-106.84
280.969	75.43
281.184	48.81
281.399	100.01
281.615	52.91
281.83	20.14
282.045	-14.68
282.26	-82.26
282.476	63.15
282.691	59.05
282.906	79.53
283.122	9.9
283.337	-67.92
283.552	46.76
283.767	-16.73
283.983	9.9
284.198	75.43
284.413	83.63
284.628	-88.4
284.843	30.38
285.058	38.57
285.274	16.04
285.489	9.9
285.704	102.06
285.919	9.9
286.134	13.99
286.349	24.23
286.564	18.09
286.779	149.16
286.995	42.67
287.21	-49.49
287.425	89.77
287.64	-61.78
287.855	42.67
288.07	-98.64
288.285	145.06
288.5	140.97
288.715	36.52
288.93	112.3
289.145	-6.49
289.36	54.95
289.575	50.86
289.79	132.78
290.004	9.9
290.219	71.34
290.434	-43.35
290.649	-35.16
290.864	-0.34
291.079	52.91
291.294	22.19
291.509	108.2
291.724	42.67
291.938	7.85
292.153	28.33
292.368	-8.53
292.583	13.99
292.798	122.54
293.012	118.44
293.227	124.58
293.442	28.33
293.657	120.49
293.871	124.58
294.086	11.95
294.301	181.93
294.516	108.2
294.73	108.2
294.945	-63.83
295.16	9.9
295.374	91.82
295.589	100.01
295.804	16.04
296.018	-2.39
296.233	83.63
296.447	38.57
296.662	7.85
296.877	106.15
297.091	52.91
297.306	34.47
297.52	34.47
297.735	112.3
297.949	24.23
298.164	-26.96
298.378	52.91
298.593	-55.64
298.807	-69.97
299.022	-65.88
299.236	169.64
299.451	104.11
299.665	13.99
299.88	67.24
300.094	18.09
300.309	20.14
300.523	-0.34
300.737	79.53
300.952	63.15
301.166	57
301.381	13.99
301.595	-45.4
301.809	75.43
302.024	5.8
302.238	-2.39
302.452	79.53
302.667	42.67
302.881	32.43
303.095	75.43
303.309	61.1
303.524	16.04
303.738	-6.49
303.952	-121.17
304.166	140.97
304.381	-143.7
304.595	36.52
304.809	50.86
305.023	-10.58
305.237	50.86
305.452	-4.44
305.666	32.43
305.88	95.91
306.094	91.82
306.308	-33.11
306.522	108.2
306.736	48.81
306.95	118.44
307.164	-16.73
307.379	-29.01
307.593	95.91
307.807	108.2
308.021	9.9
308.235	73.39
308.449	-53.59
308.663	26.28
308.877	140.97
309.091	30.38
309.305	65.19
309.519	-88.4
309.733	108.2
309.947	-12.63
310.161	122.54
310.374	112.3
310.588	128.68
310.802	-31.06
311.016	-39.25
311.23	71.34
311.444	11.95
311.658	-8.53
311.872	52.91
312.085	100.01
312.299	83.63
312.513	112.3
312.727	57
312.941	-24.92
313.154	30.38
313.368	54.95
313.582	22.19
313.796	63.15
314.009	-37.2
314.223	147.11
314.437	16.04
314.651	106.15
314.864	-80.21
315.078	-33.11
315.292	-47.44
315.505	-22.87
315.719	-0.34
315.933	57
316.146	54.95
316.36	22.19
316.573	59.05
316.787	54.95
317.001	61.1
317.214	-98.64
317.428	100.01
317.641	-29.01
317.855	57
318.068	26.28
318.282	28.33
318.495	159.4
318.709	-2.39
318.922	16.04
319.136	138.92
319.349	93.87
319.563	1.71
319.776	128.68
319.99	-37.2
320.203	54.95
320.417	22.19
320.63	-6.49
320.843	120.49
321.057	120.49
321.27	65.19
321.483	89.77
321.697	81.58
321.91	18.09
322.124	-10.58
322.337	67.24
322.55	-33.11
322.763	7.85
322.977	50.86
323.19	7.85
323.403	57
323.617	50.86
323.83	140.97
324.043	22.19
324.256	30.38
324.469	-18.77
324.683	83.63
324.896	-2.39
325.109	13.99
325.322	-143.7
325.535	46.76
325.748	73.39
325.962	-22.87
326.175	24.23
326.388	69.29
326.601	108.2
326.814	-33.11
327.027	91.82
327.24	147.11
327.453	-59.73
327.666	48.81
327.879	69.29
328.092	50.86
328.305	85.67
328.518	67.24
328.731	18.09
328.944	-37.2
329.157	13.99
329.37	34.47
329.583	188.07
329.796	116.39
330.009	-63.83
330.222	91.82
330.435	104.11
330.648	13.99
330.861	-0.34
331.073	50.86
331.286	38.57
331.499	18.09
331.712	-24.92
331.925	42.67
332.138	79.53
332.35	83.63
332.563	-55.64
332.776	32.43
332.989	20.14
333.202	-12.63
333.414	9.9
333.627	34.47
333.84	-8.53
334.053	-57.68
334.265	7.85
334.478	-14.68
334.691	-20.82
334.903	34.47
335.116	-33.11
335.329	-14.68
335.541	22.19
335.754	110.25
335.966	-0.34
336.179	26.28
336.392	73.39
336.604	24.23
336.817	59.05
337.029	-14.68
337.242	-14.68
337.454	28.33
337.667	-127.32
337.88	65.19
338.092	-22.87
338.305	116.39
338.517	1.71
338.729	83.63
338.942	116.39
339.154	-29.01
339.367	-39.25
339.579	34.47
339.792	24.23
340.004	59.05
340.217	-92.5
340.429	67.24
340.641	26.28
340.854	48.81
341.066	36.52
341.278	136.87
341.491	95.91
341.703	54.95
341.915	-14.68
342.128	149.16
342.34	93.87
342.552	-6.49
342.764	18.09
342.977	-8.53
343.189	63.15
343.401	63.15
343.613	-117.08
343.826	26.28
344.038	-22.87
344.25	48.81
344.462	-55.64
344.674	97.96
344.886	11.95
345.099	67.24
345.311	28.33
345.523	-24.92
345.735	-61.78
345.947	30.38
346.159	18.09
346.371	-14.68
346.583	67.24
346.795	192.17
347.007	-16.73
347.219	63.15
347.431	-24.92
347.643	89.77
347.855	-74.07
348.067	100.01
348.279	-88.4
348.491	-20.82
348.703	147.11
348.915	102.06
349.127	-51.54
349.339	44.71
349.551	11.95
349.763	100.01
349.975	91.82
350.187	130.73
350.399	100.01
350.61	75.43
350.822	34.47
351.034	69.29
351.246	-61.78
351.458	42.67
351.669	18.09
351.881	128.68
352.093	71.34
352.305	83.63
352.517	54.95
352.728	26.28
352.94	108.2
353.152	54.95
353.363	-137.56
353.575	120.49
353.787	126.63
353.999	9.9
354.21	102.06
354.422	1.71
354.633	34.47
354.845	-53.59
355.057	34.47
355.268	13.99
355.48	93.87
355.692	-39.25
355.903	38.57
356.115	-94.55
356.326	-106.84
356.538	61.1
356.749	75.43
356.961	102.06
357.172	13.99
357.384	-0.34
357.595	153.26
357.807	46.76
358.018	24.23
358.23	26.28
358.441	124.58
358.653	108.2
358.864	-18.77
359.075	-49.49
359.287	28.33
359.498	44.71
359.709	30.38
359.921	-18.77
360.132	85.67
360.344	3.75
360.555	50.86
360.766	13.99
360.977	26.28
361.189	79.53
361.4	46.76
361.611	163.5
361.823	110.25
362.034	-0.34
362.245	-110.93
362.456	-8.53
362.667	61.1
362.879	5.8
363.09	57
363.301	22.19
363.512	7.85
363.723	24.23
363.935	-90.45
364.146	65.19
364.357	-35.16
364.568	63.15
364.779	-82.26
364.99	83.63
365.201	34.47
365.412	89.77
365.623	-92.5
365.834	67.24
366.045	9.9
366.256	30.38
366.467	42.67
366.678	-12.63
366.889	-18.77
367.1	-14.68
367.311	140.97
367.522	-14.68
367.733	132.78
367.944	-18.77
368.155	9.9
368.366	65.19
368.577	32.43
368.788	124.58
368.999	22.19
369.209	26.28
369.42	222.89
369.631	167.59
369.842	54.95
370.053	-0.34
370.264	-8.53
370.474	-26.96
370.685	3.75
370.896	16.04
371.107	85.67
371.317	54.95
371.528	38.57
371.739	104.11
371.95	28.33
372.16	91.82
372.371	-139.6
372.582	-18.77
372.792	91.82
373.003	24.23
373.214	-37.2
373.424	69.29
373.635	-43.35
373.846	79.53
374.056	42.67
374.267	-14.68
374.477	91.82
374.688	-6.49
374.898	-18.77
375.109	48.81
375.319	57
375.53	3.75
375.74	7.85
375.951	-51.54
376.161	38.57
376.372	134.82
376.582	-24.92
376.793	87.72
377.003	7.85
377.214	36.52
377.424	100.01
377.635	61.1
377.845	32.43
378.055	116.39
378.266	-51.54
378.476	59.05
378.686	97.96
378.897	67.24
379.107	112.3
379.317	24.23
379.528	-35.16
379.738	95.91
379.948	-88.4
380.158	81.58
380.369	48.81
380.579	159.4
380.789	69.29
380.999	40.62
381.21	87.72
381.42	173.74
381.63	28.33
381.84	130.73
382.05	59.05
382.261	118.44
382.471	118.44
382.681	18.09
382.891	93.87
383.101	44.71
383.311	-117.08
383.521	-26.96
383.731	26.28
383.941	46.76
384.151	81.58
384.361	71.34
384.571	59.05
384.781	38.57
384.991	218.79
385.201	147.11
385.411	42.67
385.621	63.15
385.831	7.85
386.041	-8.53
386.251	-20.82
386.461	126.63
386.671	-8.53
386.881	38.57
387.091	16.04
387.301	112.3
387.511	34.47
387.72	179.88
387.93	30.38
388.14	-35.16
388.35	71.34
388.56	57
388.769	63.15
388.979	71.34
389.189	32.43
389.399	-37.2
389.609	100.01
389.818	126.63
390.028	32.43
390.238	18.09
390.447	9.9
390.657	46.76
390.867	54.95
391.076	-14.68
391.286	16.04
391.496	-4.44
391.705	52.91
391.915	87.72
392.125	79.53
392.334	1.71
392.544	63.15
392.753	40.62
392.963	-4.44
393.172	46.76
393.382	9.9
393.591	134.82
393.801	-22.87
394.01	104.11
394.22	85.67
394.429	-37.2
394.639	26.28
394.848	-22.87
395.058	40.62
395.267	30.38
395.477	97.96
395.686	20.14
395.895	118.44
396.105	177.83
396.314	126.63
396.524	3.75
396.733	18.09
396.942	79.53
397.152	26.28
397.361	153.26
397.57	97.96
397.78	9.9
397.989	100.01
398.198	181.93
398.407	26.28
398.617	3.75
398.826	-31.06
399.035	-31.06
399.244	110.25
399.453	-16.73
399.663	79.53
399.872	34.47
400.081	-22.87
400.29	73.39
400.499	-6.49
400.708	116.39
400.917	1.71
401.127	11.95
401.336	-41.3
401.545	128.68
401.754	93.87
401.963	87.72
402.172	-49.49
402.381	-16.73
402.59	30.38
402.799	9.9
403.008	87.72
403.217	71.34
403.426	16.04
403.635	-18.77
403.844	34.47
404.053	9.9
404.262	7.85
404.471	128.68
404.68	42.67
404.888	46.76
405.097	-10.58
405.306	-22.87
405.515	9.9
405.724	50.86
405.933	50.86
406.142	24.23
406.35	190.12
406.559	-20.82
406.768	52.91
406.977	140.97
407.185	-16.73
407.394	65.19
407.603	-24.92
407.812	1.71
408.02	97.96
408.229	54.95
408.438	-8.53
408.646	-20.82
408.855	40.62
409.064	16.04
409.272	-8.53
409.481	77.48
409.69	71.34
409.898	63.15
410.107	9.9
410.315	79.53
410.524	16.04
410.733	24.23
410.941	42.67
411.15	42.67
411.358	132.78
411.567	67.24
411.775	-2.39
411.984	48.81
412.192	67.24
412.401	-33.11
412.609	173.74
412.818	112.3
413.026	122.54
413.234	16.04
413.443	-12.63
413.651	54.95
413.86	7.85
414.068	128.68
414.276	155.3
414.485	-0.34
414.693	97.96
414.901	202.41
415.11	54.95
415.318	22.19
415.526	5.8
415.734	100.01
415.943	50.86
416.151	126.63
416.359	106.15
416.567	57
416.776	104.11
416.984	48.81
417.192	89.77
417.4	-35.16
417.608	11.95
417.817	-86.36
418.025	40.62
418.233	147.11
418.441	-53.59
418.649	-51.54
418.857	50.86
419.065	126.63
419.273	20.14
419.481	50.86
419.689	89.77
419.897	73.39
420.105	-16.73
420.313	18.09
420.521	132.78
420.729	69.29
420.937	-35.16
421.145	-22.87
421.353	57
421.561	208.55
421.769	-4.44
421.977	-10.58
422.185	52.91
422.393	-37.2
422.601	110.25
422.809	120.49
423.017	59.05
423.224	75.43
423.432	108.2
423.64	32.43
423.848	106.15
424.056	-43.35
424.263	13.99
424.471	34.47
424.679	57
424.887	32.43
425.094	106.15
425.302	87.72
425.51	-10.58
425.718	75.43
425.925	97.96
426.133	9.9
426.341	196.26
426.548	42.67
426.756	-0.34
426.964	59.05
427.171	-18.77
427.379	71.34
427.586	67.24
427.794	75.43
428.001	186.02
428.209	67.24
428.417	71.34
428.624	75.43
428.832	59.05
429.039	65.19
429.247	102.06
429.454	65.19
429.662	122.54
429.869	132.78
430.076	124.58
430.284	52.91
430.491	116.39
430.699	161.45
430.906	126.63
431.114	83.63
431.321	28.33
431.528	147.11
431.736	128.68
431.943	100.01
432.15	-8.53
432.358	155.3
432.565	190.12
432.772	-41.3
432.979	151.21
433.187	83.63
433.394	71.34
433.601	89.77
433.808	130.73
434.016	183.98
434.223	181.93
434.43	167.59
434.637	200.36
434.844	269.99
435.052	59.05
435.259	171.69
435.466	206.5
435.673	138.92
435.88	188.07
436.087	245.41
436.294	206.5
436.501	159.4
436.708	130.73
436.915	206.5
437.122	247.46
437.329	169.64
437.537	265.89
437.743	233.13
437.95	317.09
438.157	259.75
438.364	278.18
438.571	226.98
438.778	378.53
438.985	333.48
439.192	278.18
439.399	241.32
439.606	319.14
439.813	429.73
440.02	448.16
440.227	489.12
440.433	370.34
440.64	364.2
440.847	360.1
441.054	413.35
441.261	534.18
441.467	448.16
441.674	390.82
441.881	460.45
442.088	476.84
442.294	581.28
442.501	556.71
442.708	599.71
442.914	493.22
443.121	538.27
443.328	685.73
443.534	640.67
443.741	542.37
443.948	560.8
444.154	605.86
444.361	845.47
444.568	804.51
444.774	792.22
444.981	612
445.187	845.47
445.394	765.6
445.6	751.26
445.807	972.44
446.013	806.56
446.22	794.27
446.426	919.2
446.633	1054.36
446.839	1128.09
447.046	911
447.252	1103.51
447.459	1164.95
447.665	1130.14
447.871	1316.5
448.078	1367.7
448.284	1343.13
448.491	1312.41
448.697	1447.57
448.903	1560.21
449.11	1529.49
449.316	1433.24
449.522	1689.23
449.728	1752.72
449.935	1832.59
450.141	1744.53
450.347	2004.62
450.553	1902.22
450.76	1955.47
450.966	2127.5
451.172	2147.98
451.378	2205.32
451.584	2203.27
451.791	2416.26
451.997	2381.45
452.203	2481.8
452.409	2641.54
452.615	2717.31
452.821	2563.72
453.027	2639.49
453.233	3077.76
453.44	2897.53
453.646	3038.84
453.852	3325.56
454.058	3329.66
454.264	3434.1
454.47	3704.43
454.676	3692.15
454.882	4023.92
455.088	3731.06
455.294	3956.33
455.5	4236.91
455.705	4513.38
455.911	4712.03
456.117	4634.21
456.323	4822.63
456.529	4826.72
456.735	5316.19
456.941	5463.64
457.147	5736.02
457.352	5766.74
457.558	5836.37
457.764	6344.27
457.97	6286.92
458.176	6686.28
458.381	7142.97
458.587	7298.62
458.793	7599.67
458.999	7464.5
459.204	8472.11
459.41	8853.03
459.616	8437.29
459.821	9197.09
460.027	9377.31
460.233	10053.14
460.438	9913.88
460.644	10577.42
460.85	10653.19
461.055	11083.27
461.261	11824.63
461.466	11165.18
461.672	11660.79
461.878	12885.48
462.083	12811.75
462.289	13080.04
462.494	13508.06
462.7	13825.5
462.905	13821.4
463.111	15142.34
463.316	16022.97
463.522	16383.41
463.727	16790.95
463.932	17329.57
464.138	17587.61
464.343	18531.73
464.549	18576.78
464.754	19901.82
464.959	20546.93
465.165	20870.51
465.37	20774.25
465.575	20788.59
465.781	22136.15
465.986	22697.3
466.191	22721.87
466.397	22828.37
466.602	22023.51
466.807	23469.38
467.012	23737.66
467.218	24096.06
467.423	24139.07
467.628	24919.34
467.833	26029.34
468.038	25748.77
468.244	25257.26
468.449	26424.6
468.654	26254.62
468.859	26199.32
469.064	26260.76
469.269	25099.56
469.474	25632.04
469.679	26215.71
469.885	25769.25
