Data from USB4F104151__89__11-31-38-059.txt Node

Date: Wed Feb 26 11:31:38 EST 2025
User: louis
Spectrometer: USB4F10415
Trigger mode: 4
Integration Time (sec): 1.000000E-1
Scans to average: 1
Electric dark correction enabled: true
Nonlinearity correction enabled: false
Boxcar width: 0
XAxis mode: Wavelengths
Number of Pixels in Spectrum: 3648
>>>>>Begin Spectral Data<<<<<
178.204	-440.14
178.424	-440.14
178.644	-440.14
178.864	-421.71
179.084	-403.28
179.304	2.22
179.524	-24.4
179.744	59.56
179.964	28.84
180.184	37.03
180.404	55.47
180.624	-106.32
180.844	-42.84
181.064	-20.31
181.283	-5.97
181.503	-38.74
181.723	55.47
181.943	-139.09
182.163	200.87
182.383	-1.88
182.602	53.42
182.822	155.82
183.042	57.51
183.262	-48.98
183.482	104.62
183.701	47.27
183.921	45.23
184.141	-24.4
184.361	49.32
184.58	49.32
184.8	28.84
185.02	-34.64
185.239	63.66
185.459	41.13
185.679	65.71
185.898	-126.8
186.118	53.42
186.338	-24.4
186.557	104.62
186.777	-59.22
186.997	-44.88
187.216	30.89
187.436	137.38
187.655	55.47
187.875	34.99
188.095	49.32
188.314	90.28
188.534	49.32
188.753	34.99
188.973	123.05
189.192	155.82
189.412	-85.84
189.631	-12.12
189.851	-16.21
190.07	100.52
190.29	-42.84
190.509	28.84
190.729	4.27
190.948	164.01
191.168	159.91
191.387	53.42
191.607	-91.99
191.826	-20.31
192.045	-8.02
192.265	-12.12
192.484	77.99
192.704	16.55
192.923	-81.75
193.142	155.82
193.362	92.33
193.581	92.33
193.8	20.65
194.02	71.85
194.239	43.18
194.458	39.08
194.678	77.99
194.897	28.84
195.116	20.65
195.335	65.71
195.555	39.08
195.774	-20.31
195.993	18.6
196.212	14.51
196.432	10.41
196.651	-22.36
196.87	28.84
197.089	243.88
197.308	47.27
197.528	88.23
197.747	-30.55
197.966	39.08
198.185	164.01
198.404	-28.5
198.623	131.24
198.842	125.1
199.062	170.15
199.281	30.89
199.5	69.8
199.719	41.13
199.938	45.23
200.157	104.62
200.376	135.34
200.595	116.9
200.814	10.41
201.033	30.89
201.252	176.3
201.471	32.94
201.69	39.08
201.909	2.22
202.128	86.19
202.347	69.8
202.566	-26.45
202.785	-108.37
203.004	-53.08
203.223	194.73
203.442	16.55
203.661	-40.79
203.879	67.75
204.098	118.95
204.317	-59.22
204.536	6.31
204.755	57.51
204.974	106.67
205.193	-32.6
205.411	26.79
205.63	155.82
205.849	108.71
206.068	-30.55
206.287	-118.61
206.505	88.23
206.724	57.51
206.943	39.08
207.162	-36.69
207.381	30.89
207.599	-38.74
207.818	53.42
208.037	-26.45
208.255	39.08
208.474	43.18
208.693	45.23
208.911	-34.64
209.13	137.38
209.349	51.37
209.567	41.13
209.786	18.6
210.005	77.99
210.223	-32.6
210.442	-83.8
210.661	39.08
210.879	55.47
211.098	41.13
211.316	47.27
211.535	121
211.753	30.89
211.972	28.84
212.191	-8.02
212.409	-85.84
212.628	100.52
212.846	-16.21
213.065	49.32
213.283	112.81
213.502	82.09
213.72	16.55
213.938	-24.4
214.157	16.55
214.375	118.95
214.594	92.33
214.812	28.84
215.031	-59.22
215.249	-5.97
215.467	30.89
215.686	51.37
215.904	32.94
216.122	-5.97
216.341	96.43
216.559	71.85
216.778	47.27
216.996	116.9
217.214	-3.93
217.432	-12.12
217.651	-149.33
217.869	-26.45
218.087	-22.36
218.306	-18.26
218.524	22.7
218.742	28.84
218.96	86.19
219.179	8.36
219.397	-16.21
219.615	237.74
219.833	135.34
220.051	-28.5
220.27	45.23
220.488	118.95
220.706	67.75
220.924	-28.5
221.142	28.84
221.36	10.41
221.578	16.55
221.796	-10.07
222.015	10.41
222.233	4.27
222.451	155.82
222.669	-22.36
222.887	84.14
223.105	-20.31
223.323	30.89
223.541	14.51
223.759	37.03
223.977	4.27
224.195	166.06
224.413	88.23
224.631	-18.26
224.849	43.18
225.067	196.78
225.285	34.99
225.503	-24.4
225.721	-135
225.939	-46.93
226.157	-63.32
226.375	194.73
226.592	26.79
226.81	-100.18
227.028	131.24
227.246	139.43
227.464	2.22
227.682	90.28
227.9	59.56
228.117	41.13
228.335	63.66
228.553	12.46
228.771	-28.5
228.989	34.99
229.206	100.52
229.424	-5.97
229.642	2.22
229.86	-55.12
230.077	45.23
230.295	4.27
230.513	118.95
230.731	45.23
230.948	102.57
231.166	164.01
231.384	-1.88
231.601	-53.08
231.819	118.95
232.037	-10.07
232.254	16.55
232.472	-36.69
232.689	-3.93
232.907	34.99
233.125	-26.45
233.342	-3.93
233.56	51.37
233.777	16.55
233.995	75.95
234.213	137.38
234.43	133.29
234.648	47.27
234.865	-30.55
235.083	47.27
235.3	164.01
235.518	47.27
235.735	14.51
235.953	45.23
236.17	4.27
236.388	14.51
236.605	82.09
236.822	135.34
237.04	92.33
237.257	69.8
237.475	-91.99
237.692	-10.07
237.909	55.47
238.127	-3.93
238.344	37.03
238.562	63.66
238.779	0.17
238.996	-100.18
239.214	63.66
239.431	96.43
239.648	-5.97
239.865	41.13
240.083	61.61
240.3	-55.12
240.517	-51.03
240.735	-30.55
240.952	168.1
241.169	49.32
241.386	49.32
241.603	4.27
241.821	-75.6
242.038	96.43
242.255	88.23
242.472	-75.6
242.689	100.52
242.907	98.47
243.124	-24.4
243.341	30.89
243.558	20.65
243.775	-48.98
243.992	37.03
244.209	73.9
244.426	139.43
244.643	30.89
244.86	-20.31
245.078	139.43
245.295	55.47
245.512	61.61
245.729	-26.45
245.946	51.37
246.163	75.95
246.38	63.66
246.597	53.42
246.814	-16.21
247.031	49.32
247.248	47.27
247.464	92.33
247.681	-1.88
247.898	47.27
248.115	0.17
248.332	-5.97
248.549	94.38
248.766	180.39
248.983	71.85
249.2	34.99
249.417	8.36
249.633	14.51
249.85	104.62
250.067	0.17
250.284	-16.21
250.501	32.94
250.717	90.28
250.934	-69.46
251.151	26.79
251.368	34.99
251.585	80.04
251.801	32.94
252.018	-55.12
252.235	88.23
252.451	-30.55
252.668	20.65
252.885	123.05
253.102	24.75
253.318	-22.36
253.535	-61.27
253.752	-14.17
253.968	-30.55
254.185	-128.85
254.401	32.94
254.618	4.27
254.835	-51.03
255.051	141.48
255.268	90.28
255.484	2.22
255.701	67.75
255.917	82.09
256.134	28.84
256.351	-16.21
256.567	-81.75
256.784	-57.17
257	-69.46
257.217	77.99
257.433	61.61
257.65	22.7
257.866	180.39
258.082	-61.27
258.299	49.32
258.515	102.57
258.732	-34.64
258.948	-10.07
259.165	-22.36
259.381	0.17
259.597	61.61
259.814	-3.93
260.03	30.89
260.246	-18.26
260.463	133.29
260.679	164.01
260.895	71.85
261.112	41.13
261.328	-20.31
261.544	12.46
261.761	88.23
261.977	-14.17
262.193	-77.65
262.409	94.38
262.626	-26.45
262.842	-14.17
263.058	-48.98
263.274	114.86
263.49	55.47
263.707	151.72
263.923	82.09
264.139	-59.22
264.355	45.23
264.571	75.95
264.787	104.62
265.004	166.06
265.22	71.85
265.436	4.27
265.652	63.66
265.868	-12.12
266.084	22.7
266.3	37.03
266.516	-79.7
266.732	43.18
266.948	-18.26
267.164	-32.6
267.38	133.29
267.596	55.47
267.812	123.05
268.028	-3.93
268.244	10.41
268.46	32.94
268.676	-5.97
268.892	20.65
269.108	-38.74
269.324	-24.4
269.54	-5.97
269.756	86.19
269.972	-75.6
270.188	73.9
270.403	-145.24
270.619	53.42
270.835	28.84
271.051	39.08
271.267	-59.22
271.483	-36.69
271.698	16.55
271.914	108.71
272.13	-18.26
272.346	-10.07
272.562	6.31
272.777	73.9
272.993	-61.27
273.209	-59.22
273.425	37.03
273.64	-79.7
273.856	37.03
274.072	-57.17
274.287	-32.6
274.503	71.85
274.719	82.09
274.934	8.36
275.15	-114.52
275.366	14.51
275.581	55.47
275.797	77.99
276.012	-42.84
276.228	18.6
276.444	34.99
276.659	131.24
276.875	2.22
277.09	10.41
277.306	77.99
277.521	-16.21
277.737	67.75
277.952	102.57
278.168	43.18
278.383	61.61
278.599	-42.84
278.814	137.38
279.03	24.75
279.245	20.65
279.461	100.52
279.676	65.71
279.892	-63.32
280.107	16.55
280.322	-36.69
280.538	61.61
280.753	-96.08
280.969	30.89
281.184	32.94
281.399	219.3
281.615	-40.79
281.83	43.18
282.045	-48.98
282.26	-110.42
282.476	4.27
282.691	63.66
282.906	14.51
283.122	131.24
283.337	-10.07
283.552	127.14
283.767	-36.69
283.983	69.8
284.198	8.36
284.413	71.85
284.628	-16.21
284.843	37.03
285.058	47.27
285.274	-42.84
285.489	-96.08
285.704	106.67
285.919	2.22
286.134	-44.88
286.349	-83.8
286.564	61.61
286.779	55.47
286.995	32.94
287.21	-53.08
287.425	22.7
287.64	-38.74
287.855	18.6
288.07	-73.56
288.285	121
288.5	135.34
288.715	90.28
288.93	26.79
289.145	-12.12
289.36	59.56
289.575	-36.69
289.79	80.04
290.004	8.36
290.219	110.76
290.434	26.79
290.649	-40.79
290.864	-10.07
291.079	45.23
291.294	18.6
291.509	34.99
291.724	-34.64
291.938	-16.21
292.153	123.05
292.368	26.79
292.583	123.05
292.798	90.28
293.012	24.75
293.227	34.99
293.442	14.51
293.657	22.7
293.871	118.95
294.086	26.79
294.301	96.43
294.516	67.75
294.73	-5.97
294.945	-10.07
295.16	49.32
295.374	141.48
295.589	-16.21
295.804	-89.94
296.018	4.27
296.233	112.81
296.447	47.27
296.662	-18.26
296.877	102.57
297.091	96.43
297.306	-65.36
297.52	-10.07
297.735	37.03
297.949	51.37
298.164	53.42
298.378	26.79
298.593	-89.94
298.807	-14.17
299.022	28.84
299.236	118.95
299.451	2.22
299.665	-38.74
299.88	84.14
300.094	18.6
300.309	75.95
300.523	-16.21
300.737	-12.12
300.952	18.6
301.166	24.75
301.381	-83.8
301.595	-10.07
301.809	30.89
302.024	45.23
302.238	-18.26
302.452	139.43
302.667	69.8
302.881	100.52
303.095	59.56
303.309	77.99
303.524	-53.08
303.738	-12.12
303.952	-1.88
304.166	61.61
304.381	-159.57
304.595	188.58
304.809	-51.03
305.023	57.51
305.237	0.17
305.452	-46.93
305.666	-22.36
305.88	88.23
306.094	92.33
306.308	65.71
306.522	53.42
306.736	69.8
306.95	116.9
307.164	-51.03
307.379	34.99
307.593	112.81
307.807	63.66
308.021	18.6
308.235	20.65
308.449	-67.41
308.663	73.9
308.877	219.3
309.091	51.37
309.305	16.55
309.519	-182.1
309.733	145.58
309.947	-26.45
310.161	90.28
310.374	106.67
310.588	151.72
310.802	-12.12
311.016	59.56
311.23	8.36
311.444	-61.27
311.658	88.23
311.872	123.05
312.085	143.53
312.299	86.19
312.513	118.95
312.727	6.31
312.941	-20.31
313.154	32.94
313.368	-3.93
313.582	16.55
313.796	59.56
314.009	-14.17
314.223	186.54
314.437	43.18
314.651	63.66
314.864	-106.32
315.078	-22.36
315.292	-18.26
315.505	-96.08
315.719	30.89
315.933	8.36
316.146	-98.13
316.36	-51.03
316.573	92.33
316.787	37.03
317.001	71.85
317.214	-8.02
317.428	4.27
317.641	-30.55
317.855	-10.07
318.068	20.65
318.282	80.04
318.495	129.19
318.709	73.9
318.922	12.46
319.136	104.62
319.349	172.2
319.563	-28.5
319.776	151.72
319.99	-46.93
320.203	155.82
320.417	32.94
320.63	94.38
320.843	192.68
321.057	10.41
321.27	2.22
321.483	43.18
321.697	123.05
321.91	102.57
322.124	102.57
322.337	100.52
322.55	-36.69
322.763	45.23
322.977	-46.93
323.19	-16.21
323.403	-16.21
323.617	53.42
323.83	166.06
324.043	-10.07
324.256	45.23
324.469	-102.23
324.683	88.23
324.896	94.38
325.109	24.75
325.322	-34.64
325.535	118.95
325.748	-12.12
325.962	43.18
326.175	92.33
326.388	57.51
326.601	57.51
326.814	-20.31
327.027	-14.17
327.24	188.58
327.453	-94.04
327.666	98.47
327.879	141.48
328.092	61.61
328.305	-8.02
328.518	39.08
328.731	-46.93
328.944	26.79
329.157	86.19
329.37	-85.84
329.583	133.29
329.796	116.9
330.009	-77.65
330.222	94.38
330.435	112.81
330.648	-1.88
330.861	26.79
331.073	98.47
331.286	86.19
331.499	22.7
331.712	-12.12
331.925	-8.02
332.138	41.13
332.35	32.94
332.563	-26.45
332.776	106.67
332.989	-5.97
333.202	51.37
333.414	-63.32
333.627	45.23
333.84	18.6
334.053	94.38
334.265	-16.21
334.478	-46.93
334.691	24.75
334.903	-10.07
335.116	16.55
335.329	53.42
335.541	73.9
335.754	141.48
335.966	-48.98
336.179	-22.36
336.392	14.51
336.604	16.55
336.817	86.19
337.029	82.09
337.242	69.8
337.454	96.43
337.667	-3.93
337.88	161.96
338.092	77.99
338.305	108.71
338.517	-16.21
338.729	108.71
338.942	108.71
339.154	-53.08
339.367	-69.46
339.579	26.79
339.792	-12.12
340.004	20.65
340.217	-24.4
340.429	-22.36
340.641	-34.64
340.854	24.75
341.066	-12.12
341.278	147.62
341.491	151.72
341.703	55.47
341.915	14.51
342.128	53.42
342.34	88.23
342.552	-1.88
342.764	106.67
342.977	-14.17
343.189	0.17
343.401	10.41
343.613	-22.36
343.826	43.18
344.038	-38.74
344.25	73.9
344.462	22.7
344.674	32.94
344.886	34.99
345.099	28.84
345.311	45.23
345.523	24.75
345.735	-59.22
345.947	57.51
346.159	110.76
346.371	-10.07
346.583	28.84
346.795	196.78
347.007	-34.64
347.219	49.32
347.431	-20.31
347.643	73.9
347.855	-46.93
348.067	127.14
348.279	2.22
348.491	-20.31
348.703	121
348.915	75.95
349.127	-26.45
349.339	49.32
349.551	12.46
349.763	143.53
349.975	2.22
350.187	73.9
350.399	125.1
350.61	75.95
350.822	-3.93
351.034	41.13
351.246	41.13
351.458	34.99
351.669	49.32
351.881	80.04
352.093	65.71
352.305	92.33
352.517	55.47
352.728	80.04
352.94	47.27
353.152	139.43
353.363	-114.52
353.575	53.42
353.787	178.34
353.999	20.65
354.21	180.39
354.422	-55.12
354.633	63.66
354.845	55.47
355.057	37.03
355.268	139.43
355.48	110.76
355.692	-89.94
355.903	37.03
356.115	-79.7
356.326	-186.19
356.538	106.67
356.749	-59.22
356.961	127.14
357.172	-40.79
357.384	-110.42
357.595	147.62
357.807	10.41
358.018	-8.02
358.23	20.65
358.441	118.95
358.653	67.75
358.864	8.36
359.075	-51.03
359.287	24.75
359.498	102.57
359.709	24.75
359.921	43.18
360.132	0.17
360.344	-12.12
360.555	-42.84
360.766	47.27
360.977	-59.22
361.189	12.46
361.4	34.99
361.611	65.71
361.823	41.13
362.034	-36.69
362.245	-112.47
362.456	-12.12
362.667	96.43
362.879	-59.22
363.09	47.27
363.301	69.8
363.512	-34.64
363.723	-128.85
363.935	-30.55
364.146	63.66
364.357	-12.12
364.568	47.27
364.779	-42.84
364.99	53.42
365.201	-32.6
365.412	57.51
365.623	-8.02
365.834	55.47
366.045	-20.31
366.256	147.62
366.467	77.99
366.678	0.17
366.889	-18.26
367.1	-69.46
367.311	96.43
367.522	-10.07
367.733	75.95
367.944	24.75
368.155	-36.69
368.366	61.61
368.577	94.38
368.788	94.38
368.999	-38.74
369.209	80.04
369.42	188.58
369.631	161.96
369.842	116.9
370.053	8.36
370.264	67.75
370.474	-61.27
370.685	102.57
370.896	49.32
371.107	116.9
371.317	45.23
371.528	45.23
371.739	184.49
371.95	57.51
372.16	67.75
372.371	-57.17
372.582	-26.45
372.792	57.51
373.003	24.75
373.214	6.31
373.424	84.14
373.635	-81.75
373.846	112.81
374.056	67.75
374.267	82.09
374.477	30.89
374.688	-87.89
374.898	69.8
375.109	-3.93
375.319	57.51
375.53	118.95
375.74	116.9
375.951	-94.04
376.161	77.99
376.372	67.75
376.582	32.94
376.793	45.23
377.003	-26.45
377.214	4.27
377.424	47.27
377.635	-42.84
377.845	-44.88
378.055	104.62
378.266	-3.93
378.476	-32.6
378.686	6.31
378.897	20.65
379.107	43.18
379.317	51.37
379.528	10.41
379.738	51.37
379.948	-30.55
380.158	77.99
380.369	51.37
380.579	49.32
380.789	67.75
380.999	77.99
381.21	168.1
381.42	145.58
381.63	41.13
381.84	41.13
382.05	55.47
382.261	98.47
382.471	69.8
382.681	39.08
382.891	127.14
383.101	-40.79
383.311	20.65
383.521	0.17
383.731	106.67
383.941	73.9
384.151	61.61
384.361	22.7
384.571	61.61
384.781	34.99
384.991	153.77
385.201	59.56
385.411	53.42
385.621	63.66
385.831	53.42
386.041	0.17
386.251	34.99
386.461	106.67
386.671	-30.55
386.881	57.51
387.091	-22.36
387.301	129.19
387.511	-34.64
387.72	10.41
387.93	88.23
388.14	-40.79
388.35	65.71
388.56	49.32
388.769	92.33
388.979	61.61
389.189	-59.22
389.399	75.95
389.609	4.27
389.818	188.58
390.028	34.99
390.238	16.55
390.447	-53.08
390.657	114.86
390.867	-44.88
391.076	18.6
391.286	69.8
391.496	26.79
391.705	39.08
391.915	57.51
392.125	116.9
392.334	-32.6
392.544	133.29
392.753	82.09
392.963	-28.5
393.172	32.94
393.382	12.46
393.591	116.9
393.801	-26.45
394.01	135.34
394.22	82.09
394.429	55.47
394.639	49.32
394.848	75.95
395.058	-36.69
395.267	-57.17
395.477	45.23
395.686	100.52
395.895	243.88
396.105	153.77
396.314	41.13
396.524	8.36
396.733	-12.12
396.942	90.28
397.152	116.9
397.361	71.85
397.57	88.23
397.78	37.03
397.989	71.85
398.198	184.49
398.407	22.7
398.617	45.23
398.826	34.99
399.035	-14.17
399.244	129.19
399.453	18.6
399.663	28.84
399.872	43.18
400.081	28.84
400.29	125.1
400.499	-24.4
400.708	80.04
400.917	-73.56
401.127	-77.65
401.336	-26.45
401.545	145.58
401.754	184.49
401.963	116.9
402.172	-14.17
402.381	-48.98
402.59	-12.12
402.799	69.8
403.008	61.61
403.217	30.89
403.426	94.38
403.635	-48.98
403.844	82.09
404.053	-1.88
404.262	24.75
404.471	51.37
404.68	80.04
404.888	37.03
405.097	-5.97
405.306	65.71
405.515	43.18
405.724	75.95
405.933	159.91
406.142	37.03
406.35	39.08
406.559	-89.94
406.768	65.71
406.977	135.34
407.185	18.6
407.394	20.65
407.603	-30.55
407.812	59.56
408.02	77.99
408.229	-3.93
408.438	28.84
408.646	-73.56
408.855	37.03
409.064	63.66
409.272	-20.31
409.481	80.04
409.69	37.03
409.898	-14.17
410.107	57.51
410.315	77.99
410.524	53.42
410.733	106.67
410.941	-30.55
411.15	123.05
411.358	0.17
411.567	135.34
411.775	73.9
411.984	45.23
412.192	102.57
412.401	53.42
412.609	180.39
412.818	45.23
413.026	57.51
413.234	51.37
413.443	26.79
413.651	-65.36
413.86	47.27
414.068	57.51
414.276	98.47
414.485	73.9
414.693	116.9
414.901	166.06
415.11	6.31
415.318	121
415.526	69.8
415.734	194.73
415.943	82.09
416.151	194.73
416.359	94.38
416.567	67.75
416.776	125.1
416.984	184.49
417.192	131.24
417.4	-53.08
417.608	-28.5
417.817	-14.17
418.025	59.56
418.233	178.34
418.441	-20.31
418.649	-36.69
418.857	141.48
419.065	184.49
419.273	-3.93
419.481	28.84
419.689	71.85
419.897	28.84
420.105	-55.12
420.313	114.86
420.521	151.72
420.729	180.39
420.937	20.65
421.145	-18.26
421.353	166.06
421.561	170.15
421.769	-5.97
421.977	-40.79
422.185	77.99
422.393	4.27
422.601	75.95
422.809	14.51
423.017	-26.45
423.224	153.77
423.432	57.51
423.64	2.22
423.848	219.3
424.056	-40.79
424.263	34.99
424.471	-51.03
424.679	116.9
424.887	-24.4
425.094	178.34
425.302	73.9
425.51	37.03
425.718	100.52
425.925	110.76
426.133	4.27
426.341	157.86
426.548	57.51
426.756	61.61
426.964	104.62
427.171	6.31
427.379	164.01
427.586	92.33
427.794	121
428.001	121
428.209	55.47
428.417	164.01
428.624	118.95
428.832	98.47
429.039	67.75
429.247	24.75
429.454	147.62
429.662	137.38
429.869	174.25
430.076	59.56
430.284	121
430.491	166.06
430.699	73.9
430.906	207.02
431.114	26.79
431.321	116.9
431.528	82.09
431.736	155.82
431.943	178.34
432.15	176.3
432.358	108.71
432.565	227.5
432.772	-59.22
432.979	110.76
433.187	112.81
433.394	182.44
433.601	80.04
433.808	145.58
434.016	252.07
434.223	229.54
434.43	86.19
434.637	250.02
434.844	286.89
435.052	151.72
435.259	161.96
435.466	254.12
435.673	176.3
435.88	219.3
436.087	268.45
436.294	409.76
436.501	301.22
436.708	266.41
436.915	241.83
437.122	321.7
437.329	247.97
437.537	315.56
437.743	250.02
437.95	395.43
438.157	354.47
438.364	360.61
438.571	336.04
438.778	460.96
438.985	379.04
439.192	440.48
439.399	354.47
439.606	383.14
439.813	524.45
440.02	510.11
440.227	559.27
440.433	551.07
440.64	446.63
440.847	436.39
441.054	561.31
441.261	723.1
441.467	594.08
441.674	520.35
441.881	628.9
442.088	618.66
442.294	647.33
442.501	690.34
442.708	737.44
442.914	719.01
443.121	729.25
443.328	805.02
443.534	854.17
443.741	864.41
443.948	708.77
444.154	860.32
444.361	1038.49
444.568	934.04
444.774	860.32
444.981	868.51
445.187	1087.64
445.394	1028.25
445.6	999.58
445.807	1206.42
446.013	1112.22
446.22	1046.68
446.426	1253.53
446.633	1409.17
446.839	1550.48
447.046	1269.91
447.252	1460.37
447.459	1507.48
447.665	1536.15
447.871	1654.93
448.078	1788.05
448.284	1763.47
448.491	1833.1
448.697	1882.25
448.903	1915.02
449.11	1976.46
449.316	1890.45
449.522	2130.06
449.728	2291.85
449.935	2197.64
450.141	2297.99
450.347	2666.63
450.553	2445.45
450.76	2566.28
450.966	2713.73
451.172	2746.5
451.378	2801.79
451.584	2941.05
451.791	3158.14
451.997	3225.72
452.203	3266.68
452.409	3557.49
452.615	3532.92
452.821	3551.35
453.027	3684.47
453.233	4098.16
453.44	3872.88
453.646	4087.92
453.852	4194.41
454.058	4321.38
454.264	4563.05
454.47	4900.96
454.676	4802.66
454.882	5281.88
455.088	5105.76
455.294	5263.45
455.5	5757.01
455.705	6041.68
455.911	5900.37
456.117	6367.31
456.323	6463.56
456.529	6416.46
456.735	7055.42
456.941	7174.21
457.147	7622.71
457.352	7737.4
457.558	7786.55
457.764	8591.4
457.97	8585.26
458.176	9033.76
458.381	9435.16
458.587	9789.46
458.793	10100.75
458.999	10024.98
459.204	11501.56
459.41	11687.93
459.616	11673.59
459.821	12380.14
460.027	12771.3
460.233	13295.58
460.438	13387.74
460.644	14424.01
460.85	14301.14
461.055	14983.11
461.261	15564.73
461.466	15421.38
461.672	15701.95
461.878	17500.06
462.083	16940.97
462.289	17571.74
462.494	18298.77
462.7	18481.04
462.905	18577.3
463.111	19844.99
463.316	21225.32
463.522	21399.4
463.727	22194.01
463.932	23447.36
464.138	23547.72
464.343	24864.56
464.549	24905.52
464.754	26627.86
464.959	27461.38
465.165	27514.63
465.37	27901.7
465.575	27629.32
465.781	29681.38
465.986	30480.09
466.191	30002.91
466.397	30430.94
466.602	29683.43
466.807	31131.34
467.012	31508.17
467.218	32257.73
467.423	32263.87
467.628	33140.4
467.833	34772.63
468.038	34268.83
468.244	33504.94
