Data from USB4F104151__79__10-33-50-138.txt Node

Date: Wed Feb 26 10:33:50 EST 2025
User: louis
Spectrometer: USB4F10415
Trigger mode: 4
Integration Time (sec): 1.000000E-1
Scans to average: 1
Electric dark correction enabled: true
Nonlinearity correction enabled: false
Boxcar width: 0
XAxis mode: Wavelengths
Number of Pixels in Spectrum: 3648
>>>>>Begin Spectral Data<<<<<
178.204	-359.42
178.424	-359.42
178.644	-359.42
178.864	-371.71
179.084	-367.61
179.304	-25.6
179.524	-35.84
179.744	50.18
179.964	89.09
180.184	19.46
180.404	25.6
180.624	-15.36
180.844	-1.02
181.064	-97.28
181.283	33.79
181.503	-7.17
181.723	-35.84
181.943	-1.02
182.163	222.2
182.383	5.12
182.602	72.7
182.822	177.15
183.042	177.15
183.262	31.74
183.482	56.32
183.701	23.55
183.921	160.77
184.141	-9.22
184.361	168.96
184.58	52.22
184.8	37.89
185.02	-9.22
185.239	119.81
185.459	89.09
185.679	89.09
185.898	-103.42
186.118	93.18
186.338	72.7
186.557	-11.26
186.777	19.46
186.997	37.89
187.216	9.22
187.436	123.9
187.655	168.96
187.875	91.13
188.095	130.05
188.314	236.54
188.534	84.99
188.753	11.26
188.973	99.33
189.192	222.2
189.412	-19.46
189.631	103.42
189.851	103.42
190.07	160.77
190.29	-50.18
190.509	95.23
190.729	80.89
190.948	105.47
191.168	220.16
191.387	41.98
191.607	72.7
191.826	74.75
192.045	130.05
192.265	48.13
192.484	74.75
192.704	107.52
192.923	-21.5
193.142	222.2
193.362	193.53
193.581	70.65
193.8	41.98
194.02	82.94
194.239	130.05
194.458	82.94
194.678	64.51
194.897	91.13
195.116	132.09
195.335	146.43
195.555	97.28
195.774	39.94
195.993	130.05
196.212	99.33
196.432	1.02
196.651	-54.27
196.87	35.84
197.089	177.15
197.308	72.7
197.528	80.89
197.747	1.02
197.966	109.57
198.185	203.77
198.404	35.84
198.623	109.57
198.842	84.99
199.062	158.72
199.281	72.7
199.5	93.18
199.719	95.23
199.938	103.42
200.157	72.7
200.376	68.61
200.595	246.78
200.814	97.28
201.033	29.7
201.252	224.25
201.471	7.17
201.69	115.71
201.909	78.85
202.128	168.96
202.347	105.47
202.566	76.8
202.785	-9.22
203.004	41.98
203.223	230.4
203.442	50.18
203.661	-95.23
203.879	39.94
204.098	107.52
204.317	-9.22
204.536	179.2
204.755	179.2
204.974	152.57
205.193	23.55
205.411	138.24
205.63	74.75
205.849	70.65
206.068	-3.07
206.287	39.94
206.505	154.62
206.724	87.04
206.943	37.89
207.162	17.41
207.381	66.56
207.599	17.41
207.818	74.75
208.037	31.74
208.255	60.42
208.474	109.57
208.693	19.46
208.911	48.13
209.13	113.66
209.349	52.22
209.567	134.14
209.786	130.05
210.005	84.99
210.223	56.32
210.442	3.07
210.661	1.02
210.879	62.46
211.098	68.61
211.316	64.51
211.535	121.85
211.753	29.7
211.972	29.7
212.191	9.22
212.409	87.04
212.628	252.92
212.846	-19.46
213.065	56.32
213.283	117.76
213.502	66.56
213.72	97.28
213.938	54.27
214.157	39.94
214.375	89.09
214.594	-37.89
214.812	146.43
215.031	1.02
215.249	95.23
215.467	97.28
215.686	138.24
215.904	105.47
216.122	-1.02
216.341	144.38
216.559	74.75
216.778	142.33
216.996	195.58
217.214	78.85
217.432	3.07
217.651	-56.32
217.869	70.65
218.087	68.61
218.306	31.74
218.524	13.31
218.742	68.61
218.96	105.47
219.179	62.46
219.397	74.75
219.615	240.64
219.833	123.9
220.051	58.37
220.27	140.29
220.488	64.51
220.706	89.09
220.924	48.13
221.142	15.36
221.36	87.04
221.578	136.19
221.796	89.09
222.015	9.22
222.233	89.09
222.451	152.57
222.669	103.42
222.887	132.09
223.105	70.65
223.323	15.36
223.541	68.61
223.759	39.94
223.977	44.03
224.195	173.05
224.413	158.72
224.631	62.46
224.849	123.9
225.067	214.01
225.285	-25.6
225.503	44.03
225.721	-91.13
225.939	76.8
226.157	76.8
226.375	123.9
226.592	66.56
226.81	117.76
227.028	230.4
227.246	117.76
227.464	146.43
227.682	134.14
227.9	134.14
228.117	70.65
228.335	140.29
228.553	33.79
228.771	-1.02
228.989	-31.74
229.206	70.65
229.424	39.94
229.642	19.46
229.86	-7.17
230.077	142.33
230.295	64.51
230.513	162.81
230.731	87.04
230.948	197.63
231.166	183.29
231.384	48.13
231.601	89.09
231.819	226.3
232.037	39.94
232.254	-15.36
232.472	48.13
232.689	37.89
232.907	156.67
233.125	70.65
233.342	-3.07
233.56	35.84
233.777	9.22
233.995	52.22
234.213	93.18
234.43	156.67
234.648	66.56
234.865	-13.31
235.083	29.7
235.3	25.6
235.518	111.61
235.735	197.63
235.953	60.42
236.17	37.89
236.388	109.57
236.605	21.5
236.822	132.09
237.04	111.61
237.257	66.56
237.475	15.36
237.692	91.13
237.909	68.61
238.127	52.22
238.344	52.22
238.562	93.18
238.779	-52.22
238.996	-7.17
239.214	74.75
239.431	93.18
239.648	97.28
239.865	93.18
240.083	142.33
240.3	-1.02
240.517	87.04
240.735	56.32
240.952	158.72
241.169	3.07
241.386	134.14
241.603	60.42
241.821	-29.7
242.038	130.05
242.255	130.05
242.472	13.31
242.689	76.8
242.907	107.52
243.124	62.46
243.341	74.75
243.558	64.51
243.775	21.5
243.992	15.36
244.209	39.94
244.426	121.85
244.643	95.23
244.86	23.55
245.078	93.18
245.295	91.13
245.512	89.09
245.729	21.5
245.946	128
246.163	109.57
246.38	41.98
246.597	76.8
246.814	39.94
247.031	70.65
247.248	1.02
247.464	95.23
247.681	62.46
247.898	105.47
248.115	121.85
248.332	-50.18
248.549	158.72
248.766	240.64
248.983	105.47
249.2	15.36
249.417	99.33
249.633	13.31
249.85	89.09
250.067	44.03
250.284	89.09
250.501	109.57
250.717	125.95
250.934	97.28
251.151	80.89
251.368	35.84
251.585	117.76
251.801	97.28
252.018	74.75
252.235	140.29
252.451	46.08
252.668	35.84
252.885	93.18
253.102	15.36
253.318	17.41
253.535	1.02
253.752	52.22
253.968	56.32
254.185	-50.18
254.401	9.22
254.618	109.57
254.835	21.5
255.051	152.57
255.268	191.49
255.484	113.66
255.701	66.56
255.917	74.75
256.134	-1.02
256.351	97.28
256.567	-37.89
256.784	9.22
257	-52.22
257.217	84.99
257.433	148.48
257.65	119.81
257.866	216.06
258.082	-29.7
258.299	-56.32
258.515	91.13
258.732	97.28
258.948	29.7
259.165	52.22
259.381	-35.84
259.597	171.01
259.814	-21.5
260.03	33.79
260.246	44.03
260.463	156.67
260.679	154.62
260.895	82.94
261.112	-9.22
261.328	35.84
261.544	-3.07
261.761	168.96
261.977	46.08
262.193	-29.7
262.409	156.67
262.626	11.26
262.842	37.89
263.058	27.65
263.274	158.72
263.49	46.08
263.707	171.01
263.923	105.47
264.139	-80.89
264.355	76.8
264.571	162.81
264.787	11.26
265.004	164.86
265.22	54.27
265.436	3.07
265.652	66.56
265.868	76.8
266.084	-95.23
266.3	33.79
266.516	-33.79
266.732	33.79
266.948	66.56
267.164	103.42
267.38	-33.79
267.596	134.14
267.812	203.77
268.028	39.94
268.244	7.17
268.46	89.09
268.676	82.94
268.892	66.56
269.108	21.5
269.324	-46.08
269.54	-3.07
269.756	97.28
269.972	15.36
270.188	111.61
270.403	-15.36
270.619	80.89
270.835	109.57
271.051	39.94
271.267	76.8
271.483	21.5
271.698	103.42
271.914	121.85
272.13	58.37
272.346	1.02
272.562	142.33
272.777	177.15
272.993	41.98
273.209	-35.84
273.425	142.33
273.64	-9.22
273.856	160.77
274.072	-17.41
274.287	-21.5
274.503	23.55
274.719	121.85
274.934	44.03
275.15	-46.08
275.366	89.09
275.581	-29.7
275.797	35.84
276.012	74.75
276.228	52.22
276.444	60.42
276.659	140.29
276.875	39.94
277.09	74.75
277.306	58.37
277.521	50.18
277.737	99.33
277.952	111.61
278.168	109.57
278.383	48.13
278.599	111.61
278.814	128
279.03	78.85
279.245	162.81
279.461	29.7
279.676	173.05
279.892	27.65
280.107	33.79
280.322	46.08
280.538	37.89
280.753	-17.41
280.969	78.85
281.184	35.84
281.399	207.87
281.615	70.65
281.83	44.03
282.045	-11.26
282.26	76.8
282.476	35.84
282.691	74.75
282.906	150.53
283.122	82.94
283.337	-1.02
283.552	101.37
283.767	33.79
283.983	142.33
284.198	46.08
284.413	146.43
284.628	13.31
284.843	19.46
285.058	134.14
285.274	39.94
285.489	17.41
285.704	150.53
285.919	74.75
286.134	-1.02
286.349	64.51
286.564	78.85
286.779	171.01
286.995	84.99
287.21	72.7
287.425	66.56
287.64	3.07
287.855	93.18
288.07	-72.7
288.285	105.47
288.5	76.8
288.715	76.8
288.93	46.08
289.145	7.17
289.36	58.37
289.575	76.8
289.79	140.29
290.004	50.18
290.219	99.33
290.434	-13.31
290.649	7.17
290.864	-13.31
291.079	46.08
291.294	64.51
291.509	11.26
291.724	39.94
291.938	15.36
292.153	72.7
292.368	72.7
292.583	78.85
292.798	82.94
293.012	115.71
293.227	113.66
293.442	-15.36
293.657	136.19
293.871	125.95
294.086	97.28
294.301	162.81
294.516	152.57
294.73	-1.02
294.945	-15.36
295.16	31.74
295.374	189.44
295.589	179.2
295.804	-19.46
296.018	29.7
296.233	132.09
296.447	111.61
296.662	74.75
296.877	113.66
297.091	177.15
297.306	21.5
297.52	56.32
297.735	119.81
297.949	70.65
298.164	68.61
298.378	37.89
298.593	9.22
298.807	68.61
299.022	95.23
299.236	134.14
299.451	54.27
299.665	46.08
299.88	76.8
300.094	87.04
300.309	91.13
300.523	37.89
300.737	52.22
300.952	80.89
301.166	95.23
301.381	-39.94
301.595	91.13
301.809	91.13
302.024	58.37
302.238	-39.94
302.452	130.05
302.667	123.9
302.881	82.94
303.095	50.18
303.309	70.65
303.524	23.55
303.738	21.5
303.952	9.22
304.166	152.57
304.381	-87.04
304.595	171.01
304.809	7.17
305.023	13.31
305.237	101.37
305.452	74.75
305.666	113.66
305.88	113.66
306.094	101.37
306.308	89.09
306.522	128
306.736	33.79
306.95	87.04
307.164	-21.5
307.379	3.07
307.593	115.71
307.807	107.52
308.021	148.48
308.235	37.89
308.449	-105.47
308.663	35.84
308.877	177.15
309.091	50.18
309.305	144.38
309.519	21.5
309.733	162.81
309.947	-15.36
310.161	138.24
310.374	72.7
310.588	156.67
310.802	11.26
311.016	15.36
311.23	97.28
311.444	52.22
311.658	103.42
311.872	117.76
312.085	160.77
312.299	144.38
312.513	148.48
312.727	56.32
312.941	-82.94
313.154	130.05
313.368	119.81
313.582	84.99
313.796	48.13
314.009	93.18
314.223	168.96
314.437	128
314.651	64.51
314.864	-9.22
315.078	19.46
315.292	46.08
315.505	-21.5
315.719	52.22
315.933	123.9
316.146	50.18
316.36	-54.27
316.573	162.81
316.787	128
317.001	33.79
317.214	29.7
317.428	39.94
317.641	-27.65
317.855	39.94
318.068	72.7
318.282	148.48
318.495	242.68
318.709	103.42
318.922	72.7
319.136	205.82
319.349	162.81
319.563	-15.36
319.776	113.66
319.99	-15.36
320.203	113.66
320.417	80.89
320.63	150.53
320.843	50.18
321.057	37.89
321.27	107.52
321.483	166.91
321.697	158.72
321.91	125.95
322.124	103.42
322.337	168.96
322.55	-21.5
322.763	72.7
322.977	39.94
323.19	19.46
323.403	164.86
323.617	70.65
323.83	205.82
324.043	31.74
324.256	142.33
324.469	-19.46
324.683	146.43
324.896	29.7
325.109	68.61
325.322	-15.36
325.535	152.57
325.748	166.91
325.962	64.51
326.175	58.37
326.388	37.89
326.601	191.49
326.814	37.89
327.027	-19.46
327.24	146.43
327.453	-35.84
327.666	48.13
327.879	191.49
328.092	140.29
328.305	105.47
328.518	-64.51
328.731	31.74
328.944	27.65
329.157	11.26
329.37	62.46
329.583	216.06
329.796	205.82
330.009	39.94
330.222	62.46
330.435	166.91
330.648	72.7
330.861	95.23
331.073	95.23
331.286	48.13
331.499	56.32
331.712	52.22
331.925	39.94
332.138	-5.12
332.35	140.29
332.563	11.26
332.776	158.72
332.989	9.22
333.202	52.22
333.414	80.89
333.627	64.51
333.84	29.7
334.053	78.85
334.265	70.65
334.478	113.66
334.691	25.6
334.903	132.09
335.116	-17.41
335.329	54.27
335.541	113.66
335.754	216.06
335.966	15.36
336.179	-19.46
336.392	58.37
336.604	52.22
336.817	154.62
337.029	11.26
337.242	41.98
337.454	115.71
337.667	33.79
337.88	125.95
338.092	91.13
338.305	-15.36
338.517	37.89
338.729	72.7
338.942	154.62
339.154	-15.36
339.367	-31.74
339.579	105.47
339.792	35.84
340.004	119.81
340.217	70.65
340.429	-3.07
340.641	27.65
340.854	23.55
341.066	130.05
341.278	154.62
341.491	220.16
341.703	80.89
341.915	60.42
342.128	95.23
342.34	78.85
342.552	25.6
342.764	25.6
342.977	54.27
343.189	128
343.401	84.99
343.613	-21.5
343.826	80.89
344.038	27.65
344.25	66.56
344.462	-19.46
344.674	95.23
344.886	11.26
345.099	72.7
345.311	146.43
345.523	29.7
345.735	-58.37
345.947	95.23
346.159	113.66
346.371	140.29
346.583	31.74
346.795	162.81
347.007	5.12
347.219	89.09
347.431	70.65
347.643	134.14
347.855	52.22
348.067	70.65
348.279	-17.41
348.491	44.03
348.703	148.48
348.915	44.03
349.127	91.13
349.339	66.56
349.551	111.61
349.763	97.28
349.975	27.65
350.187	132.09
350.399	80.89
350.61	19.46
350.822	111.61
351.034	46.08
351.246	54.27
351.458	60.42
351.669	166.91
351.881	68.61
352.093	171.01
352.305	84.99
352.517	68.61
352.728	76.8
352.94	87.04
353.152	128
353.363	-70.65
353.575	76.8
353.787	148.48
353.999	105.47
354.21	209.92
354.422	-33.79
354.633	117.76
354.845	48.13
355.057	76.8
355.268	48.13
355.48	179.2
355.692	58.37
355.903	121.85
356.115	-13.31
356.326	-60.42
356.538	136.19
356.749	146.43
356.961	236.54
357.172	-52.22
357.384	-56.32
357.595	248.83
357.807	56.32
358.018	29.7
358.23	107.52
358.441	191.49
358.653	105.47
358.864	134.14
359.075	-21.5
359.287	84.99
359.498	179.2
359.709	115.71
359.921	87.04
360.132	58.37
360.344	54.27
360.555	-17.41
360.766	97.28
360.977	78.85
361.189	164.86
361.4	5.12
361.611	107.52
361.823	205.82
362.034	164.86
362.245	9.22
362.456	82.94
362.667	115.71
362.879	31.74
363.09	-1.02
363.301	97.28
363.512	134.14
363.723	25.6
363.935	37.89
364.146	78.85
364.357	-27.65
364.568	78.85
364.779	-3.07
364.99	144.38
365.201	-11.26
365.412	121.85
365.623	-76.8
365.834	105.47
366.045	132.09
366.256	109.57
366.467	144.38
366.678	35.84
366.889	1.02
367.1	72.7
367.311	125.95
367.522	31.74
367.733	48.13
367.944	152.57
368.155	80.89
368.366	128
368.577	78.85
368.788	150.53
368.999	93.18
369.209	128
369.42	128
369.631	201.72
369.842	103.42
370.053	31.74
370.264	76.8
370.474	19.46
370.685	168.96
370.896	87.04
371.107	185.34
371.317	97.28
371.528	101.37
371.739	140.29
371.95	97.28
372.16	148.48
372.371	11.26
372.582	19.46
372.792	150.53
373.003	56.32
373.214	82.94
373.424	97.28
373.635	105.47
373.846	140.29
374.056	70.65
374.267	138.24
374.477	84.99
374.688	72.7
374.898	173.05
375.109	91.13
375.319	107.52
375.53	105.47
375.74	113.66
375.951	111.61
376.161	54.27
376.372	128
376.582	52.22
376.793	27.65
377.003	68.61
377.214	58.37
377.424	39.94
377.635	105.47
377.845	27.65
378.055	179.2
378.266	56.32
378.476	17.41
378.686	150.53
378.897	97.28
379.107	128
379.317	84.99
379.528	62.46
379.738	113.66
379.948	54.27
380.158	148.48
380.369	140.29
380.579	-5.12
380.789	21.5
380.999	105.47
381.21	93.18
381.42	207.87
381.63	82.94
381.84	146.43
382.05	25.6
382.261	115.71
382.471	166.91
382.681	11.26
382.891	142.33
383.101	76.8
383.311	-48.13
383.521	39.94
383.731	166.91
383.941	72.7
384.151	-3.07
384.361	113.66
384.571	97.28
384.781	107.52
384.991	162.81
385.201	158.72
385.411	154.62
385.621	123.9
385.831	68.61
386.041	119.81
386.251	50.18
386.461	115.71
386.671	109.57
386.881	58.37
387.091	70.65
387.301	109.57
387.511	95.23
387.72	115.71
387.93	154.62
388.14	-9.22
388.35	70.65
388.56	101.37
388.769	119.81
388.979	60.42
389.189	-46.08
389.399	70.65
389.609	95.23
389.818	95.23
390.028	89.09
390.238	154.62
390.447	-13.31
390.657	113.66
390.867	-7.17
391.076	-13.31
391.286	76.8
391.496	31.74
391.705	50.18
391.915	121.85
392.125	173.05
392.334	19.46
392.544	164.86
392.753	19.46
392.963	54.27
393.172	97.28
393.382	130.05
393.591	160.77
393.801	56.32
394.01	179.2
394.22	168.96
394.429	64.51
394.639	78.85
394.848	224.25
395.058	68.61
395.267	89.09
395.477	148.48
395.686	44.03
395.895	211.96
396.105	201.72
396.314	138.24
396.524	95.23
396.733	44.03
396.942	82.94
397.152	144.38
397.361	109.57
397.57	115.71
397.78	31.74
397.989	78.85
398.198	254.97
398.407	58.37
398.617	89.09
398.826	37.89
399.035	76.8
399.244	152.57
399.453	35.84
399.663	146.43
399.872	78.85
400.081	-9.22
400.29	158.72
400.499	37.89
400.708	158.72
400.917	107.52
401.127	130.05
401.336	50.18
401.545	195.58
401.754	134.14
401.963	70.65
402.172	5.12
402.381	78.85
402.59	80.89
402.799	111.61
403.008	166.91
403.217	148.48
403.426	60.42
403.635	-5.12
403.844	54.27
404.053	58.37
404.262	33.79
404.471	254.97
404.68	130.05
404.888	7.17
405.097	46.08
405.306	-1.02
405.515	72.7
405.724	-29.7
405.933	154.62
406.142	109.57
406.35	128
406.559	95.23
406.768	7.17
406.977	138.24
407.185	128
407.394	62.46
407.603	-54.27
407.812	97.28
408.02	132.09
408.229	29.7
408.438	68.61
408.646	-72.7
408.855	35.84
409.064	62.46
409.272	50.18
409.481	103.42
409.69	31.74
409.898	25.6
410.107	103.42
410.315	105.47
410.524	82.94
410.733	-19.46
410.941	48.13
411.15	82.94
411.358	132.09
411.567	41.98
411.775	56.32
411.984	105.47
412.192	115.71
412.401	11.26
412.609	152.57
412.818	224.25
413.026	148.48
413.234	89.09
413.443	23.55
413.651	-50.18
413.86	66.56
414.068	132.09
414.276	183.29
414.485	68.61
414.693	195.58
414.901	164.86
415.11	105.47
415.318	70.65
415.526	84.99
415.734	146.43
415.943	78.85
416.151	101.37
416.359	31.74
416.567	138.24
416.776	103.42
416.984	115.71
417.192	234.49
417.4	93.18
417.608	35.84
417.817	48.13
418.025	128
418.233	185.34
418.441	60.42
418.649	-7.17
418.857	111.61
419.065	64.51
419.273	66.56
419.481	144.38
419.689	-15.36
419.897	58.37
420.105	41.98
420.313	191.49
420.521	187.39
420.729	207.87
420.937	19.46
421.145	-25.6
421.353	95.23
421.561	109.57
421.769	13.31
421.977	74.75
422.185	140.29
422.393	70.65
422.601	152.57
422.809	109.57
423.017	89.09
423.224	121.85
423.432	58.37
423.64	80.89
423.848	171.01
424.056	87.04
424.263	101.37
424.471	66.56
424.679	119.81
424.887	-33.79
425.094	175.1
425.302	74.75
425.51	-1.02
425.718	150.53
425.925	93.18
426.133	13.31
426.341	261.12
426.548	37.89
426.756	97.28
426.964	82.94
427.171	31.74
427.379	82.94
427.586	64.51
427.794	148.48
428.001	123.9
428.209	97.28
428.417	222.2
428.624	175.1
428.832	125.95
429.039	119.81
429.247	130.05
429.454	91.13
429.662	230.4
429.869	175.1
430.076	160.77
430.284	175.1
430.491	224.25
430.699	148.48
430.906	257.02
431.114	199.68
431.321	76.8
431.528	103.42
431.736	216.06
431.943	199.68
432.15	254.97
432.358	162.81
432.565	232.44
432.772	31.74
432.979	216.06
433.187	56.32
433.394	222.2
433.601	84.99
433.808	216.06
434.016	283.64
434.223	220.16
434.43	171.01
434.637	226.3
434.844	259.07
435.052	244.73
435.259	248.83
435.466	259.07
435.673	279.55
435.88	287.74
436.087	293.88
436.294	259.07
436.501	310.27
436.708	187.39
436.915	261.12
437.122	386.04
437.329	285.69
437.537	353.27
437.743	347.13
437.95	406.52
438.157	383.99
438.364	287.74
438.571	336.89
438.778	379.9
438.985	427
439.192	467.96
439.399	381.95
439.606	494.58
439.813	508.92
440.02	603.13
440.227	549.88
440.433	531.45
440.64	476.15
440.847	478.2
441.054	607.22
441.261	664.57
441.467	650.23
441.674	513.02
441.881	670.71
442.088	648.18
442.294	644.09
442.501	760.82
442.708	736.24
442.914	623.61
443.121	756.72
443.328	816.12
443.534	879.6
443.741	875.51
443.948	697.33
444.154	949.23
444.361	1061.87
444.568	924.66
444.774	898.03
444.981	822.26
445.187	1149.93
445.394	1090.54
445.6	982
445.807	1178.61
446.013	1121.26
446.22	1139.69
446.426	1229.81
446.633	1332.2
446.839	1508.33
447.046	1194.99
447.252	1389.55
447.459	1348.59
447.665	1383.4
447.871	1663.97
448.078	1663.97
448.284	1539.05
448.491	1797.09
448.697	1924.07
448.903	1895.4
449.11	1915.87
449.316	1967.07
449.522	1960.93
449.728	2200.54
449.935	2094.05
450.141	2241.5
450.347	2454.49
450.553	2321.37
450.76	2460.63
450.966	2638.81
451.172	2601.94
451.378	2751.45
451.584	2816.98
451.791	2980.82
451.997	3107.79
452.203	3007.44
452.409	3288.01
452.615	3384.27
452.821	3343.31
453.027	3382.22
453.233	3810.25
453.44	3627.98
453.646	3961.8
453.852	4068.29
454.058	4244.42
454.264	4336.57
454.47	4651.96
454.676	4635.58
454.882	5053.36
455.088	4791.22
455.294	5110.71
455.5	5520.3
455.705	5860.26
455.911	5800.87
456.117	5747.62
456.323	6134.69
456.529	6054.82
456.735	6593.44
456.941	6814.62
457.147	7019.41
457.352	7412.62
457.558	7476.11
457.764	8242.05
457.97	8240
458.176	8207.23
458.381	8889.21
458.587	9038.71
458.793	9540.46
458.999	9450.35
459.204	10738.52
459.41	11019.1
459.616	11049.82
459.821	11342.67
460.027	11932.49
460.233	12622.66
460.438	12667.71
460.644	13095.74
460.85	13538.1
461.055	14091.05
461.261	14768.93
461.466	14474.02
461.672	14775.07
461.878	16409.35
462.083	16200.46
462.289	16538.37
462.494	17281.78
462.7	17347.32
462.905	17474.29
463.111	18952.93
463.316	20185.8
463.522	20163.28
463.727	20699.84
463.932	21920.43
464.138	22158
464.343	23007.9
464.549	23169.69
464.754	24969.86
464.959	25700.98
465.165	26092.15
465.37	26051.19
465.575	26065.52
465.781	27726.42
465.986	28947.01
466.191	27980.37
466.397	28207.7
466.602	27658.84
466.807	28957.25
467.012	29858.36
467.218	30167.6
467.423	30233.14
467.628	31396.38
467.833	32469.52
468.038	31879.71
468.244	31566.37
468.449	33370.63
468.654	32446.99
468.859	32205.33
