Data from USB4F104151__60__10-26-30-727.txt Node

Date: Wed Feb 26 10:26:30 EST 2025
User: louis
Spectrometer: USB4F10415
Trigger mode: 4
Integration Time (sec): 1.000000E-1
Scans to average: 1
Electric dark correction enabled: true
Nonlinearity correction enabled: false
Boxcar width: 0
XAxis mode: Wavelengths
Number of Pixels in Spectrum: 3648
>>>>>Begin Spectral Data<<<<<
178.204	-379.39
178.424	-379.39
178.644	-379.39
178.864	-375.29
179.084	-369.15
179.304	-29.18
179.524	-76.29
179.744	3.58
179.964	5.63
180.184	58.88
180.404	13.82
180.624	17.92
180.844	60.93
181.064	-53.76
181.283	28.16
181.503	-57.86
181.723	28.16
181.943	-64
182.163	118.27
182.383	-41.47
182.602	105.98
182.822	126.46
183.042	85.5
183.262	15.87
183.482	34.3
183.701	26.11
183.921	-10.75
184.141	-55.81
184.361	93.69
184.58	56.83
184.8	58.88
185.02	-0.51
185.239	101.89
185.459	7.68
185.679	99.84
185.898	-55.81
186.118	67.07
186.338	56.83
186.557	46.59
186.777	1.54
186.997	-45.57
187.216	97.79
187.436	192
187.655	105.98
187.875	52.74
188.095	56.83
188.314	60.93
188.534	101.89
188.753	-68.09
188.973	122.37
189.192	101.89
189.412	15.87
189.631	38.4
189.851	13.82
190.07	212.48
190.29	-31.23
190.509	9.73
190.729	-25.09
190.948	93.69
191.168	278.01
191.387	73.21
191.607	-20.99
191.826	91.65
192.045	99.84
192.265	67.07
192.484	75.26
192.704	9.73
192.923	38.4
193.142	189.95
193.362	71.17
193.581	112.13
193.8	58.88
194.02	99.84
194.239	40.45
194.458	52.74
194.678	58.88
194.897	13.82
195.116	91.65
195.335	44.54
195.555	99.84
195.774	46.59
195.993	62.98
196.212	19.97
196.432	28.16
196.651	-45.57
196.87	15.87
197.089	249.34
197.308	89.6
197.528	22.02
197.747	60.93
197.966	120.32
198.185	171.52
198.404	11.78
198.623	67.07
198.842	122.37
199.062	124.41
199.281	71.17
199.5	34.3
199.719	48.64
199.938	28.16
200.157	81.41
200.376	151.04
200.595	163.33
200.814	69.12
201.033	48.64
201.252	120.32
201.471	85.5
201.69	144.89
201.909	79.36
202.128	136.7
202.347	65.02
202.566	87.55
202.785	-66.05
203.004	-45.57
203.223	308.73
203.442	-6.66
203.661	-8.7
203.879	-4.61
204.098	128.51
204.317	-64
204.536	71.17
204.755	26.11
204.974	-0.51
205.193	36.35
205.411	142.85
205.63	22.02
205.849	50.69
206.068	87.55
206.287	-25.09
206.505	87.55
206.724	50.69
206.943	1.54
207.162	-51.71
207.381	110.08
207.599	26.11
207.818	48.64
208.037	-51.71
208.255	-12.8
208.474	60.93
208.693	40.45
208.911	-51.71
209.13	75.26
209.349	110.08
209.567	77.31
209.786	132.61
210.005	132.61
210.223	40.45
210.442	-76.29
210.661	40.45
210.879	52.74
211.098	-0.51
211.316	42.5
211.535	73.21
211.753	97.79
211.972	62.98
212.191	13.82
212.409	26.11
212.628	56.83
212.846	-18.94
213.065	52.74
213.283	151.04
213.502	32.26
213.72	79.36
213.938	15.87
214.157	-88.57
214.375	40.45
214.594	-2.56
214.812	81.41
215.031	77.31
215.249	97.79
215.467	17.92
215.686	103.93
215.904	157.18
216.122	7.68
216.341	163.33
216.559	40.45
216.778	69.12
216.996	81.41
217.214	7.68
217.432	-35.33
217.651	-45.57
217.869	91.65
218.087	15.87
218.306	-2.56
218.524	60.93
218.742	85.5
218.96	112.13
219.179	42.5
219.397	-6.66
219.615	325.12
219.833	105.98
220.051	48.64
220.27	34.3
220.488	134.65
220.706	120.32
220.924	40.45
221.142	3.58
221.36	144.89
221.578	15.87
221.796	22.02
222.015	75.26
222.233	83.45
222.451	146.94
222.669	36.35
222.887	36.35
223.105	24.06
223.323	56.83
223.541	-27.14
223.759	105.98
223.977	-18.94
224.195	159.23
224.413	142.85
224.631	24.06
224.849	108.03
225.067	161.28
225.285	-16.9
225.503	71.17
225.721	-156.16
225.939	7.68
226.157	-29.18
226.375	187.9
226.592	24.06
226.81	58.88
227.028	65.02
227.246	140.8
227.464	89.6
227.682	151.04
227.9	44.54
228.117	9.73
228.335	112.13
228.553	136.7
228.771	95.74
228.989	81.41
229.206	87.55
229.424	-45.57
229.642	-10.75
229.86	13.82
230.077	136.7
230.295	46.59
230.513	138.75
230.731	77.31
230.948	198.14
231.166	224.76
231.384	-53.76
231.601	-10.75
231.819	85.5
232.037	-4.61
232.254	-41.47
232.472	17.92
232.689	42.5
232.907	110.08
233.125	28.16
233.342	-2.56
233.56	15.87
233.777	24.06
233.995	75.26
234.213	108.03
234.43	73.21
234.648	50.69
234.865	-27.14
235.083	91.65
235.3	110.08
235.518	122.37
235.735	122.37
235.953	32.26
236.17	46.59
236.388	62.98
236.605	7.68
236.822	83.45
237.04	157.18
237.257	19.97
237.475	-74.24
237.692	83.45
237.909	71.17
238.127	11.78
238.344	101.89
238.562	71.17
238.779	-20.99
238.996	-16.9
239.214	40.45
239.431	-10.75
239.648	56.83
239.865	114.17
240.083	89.6
240.3	9.73
240.517	-57.86
240.735	44.54
240.952	157.18
241.169	40.45
241.386	134.65
241.603	38.4
241.821	-76.29
242.038	83.45
242.255	38.4
242.472	9.73
242.689	17.92
242.907	48.64
243.124	83.45
243.341	24.06
243.558	11.78
243.775	-25.09
243.992	-47.62
244.209	44.54
244.426	87.55
244.643	89.6
244.86	24.06
245.078	132.61
245.295	89.6
245.512	-8.7
245.729	40.45
245.946	34.3
246.163	65.02
246.38	-12.8
246.597	-45.57
246.814	1.54
247.031	19.97
247.248	-12.8
247.464	-8.7
247.681	36.35
247.898	99.84
248.115	60.93
248.332	24.06
248.549	132.61
248.766	175.61
248.983	91.65
249.2	42.5
249.417	99.84
249.633	54.78
249.85	167.42
250.067	65.02
250.284	62.98
250.501	67.07
250.717	73.21
250.934	-61.95
251.151	46.59
251.368	-16.9
251.585	52.74
251.801	34.3
252.018	-66.05
252.235	46.59
252.451	-43.52
252.668	-10.75
252.885	157.18
253.102	44.54
253.318	-10.75
253.535	38.4
253.752	52.74
253.968	3.58
254.185	-27.14
254.401	11.78
254.618	58.88
254.835	32.26
255.051	71.17
255.268	75.26
255.484	26.11
255.701	7.68
255.917	-12.8
256.134	-12.8
256.351	26.11
256.567	7.68
256.784	52.74
257	32.26
257.217	36.35
257.433	97.79
257.65	54.78
257.866	56.83
258.082	40.45
258.299	54.78
258.515	146.94
258.732	-23.04
258.948	19.97
259.165	11.78
259.381	-55.81
259.597	26.11
259.814	54.78
260.03	-10.75
260.246	19.97
260.463	108.03
260.679	130.56
260.895	97.79
261.112	56.83
261.328	52.74
261.544	15.87
261.761	173.57
261.977	40.45
262.193	-47.62
262.409	169.47
262.626	77.31
262.842	9.73
263.058	-66.05
263.274	40.45
263.49	73.21
263.707	30.21
263.923	136.7
264.139	-31.23
264.355	54.78
264.571	101.89
264.787	151.04
265.004	130.56
265.22	-6.66
265.436	-72.19
265.652	-2.56
265.868	52.74
266.084	-57.86
266.3	-0.51
266.516	-53.76
266.732	85.5
266.948	52.74
267.164	3.58
267.38	93.69
267.596	116.22
267.812	142.85
268.028	42.5
268.244	22.02
268.46	36.35
268.676	22.02
268.892	56.83
269.108	-10.75
269.324	-14.85
269.54	17.92
269.756	93.69
269.972	-12.8
270.188	85.5
270.403	3.58
270.619	7.68
270.835	77.31
271.051	69.12
271.267	-64
271.483	22.02
271.698	130.56
271.914	118.27
272.13	-37.38
272.346	-18.94
272.562	71.17
272.777	144.89
272.993	-33.28
273.209	1.54
273.425	83.45
273.64	-31.23
273.856	73.21
274.072	24.06
274.287	-72.19
274.503	120.32
274.719	155.13
274.934	32.26
275.15	-98.81
275.366	120.32
275.581	26.11
275.797	77.31
276.012	73.21
276.228	-51.71
276.444	42.5
276.659	48.64
276.875	-25.09
277.09	3.58
277.306	38.4
277.521	181.76
277.737	19.97
277.952	136.7
278.168	19.97
278.383	48.64
278.599	-0.51
278.814	93.69
279.03	-18.94
279.245	99.84
279.461	34.3
279.676	89.6
279.892	24.06
280.107	-78.33
280.322	-35.33
280.538	93.69
280.753	-33.28
280.969	-16.9
281.184	91.65
281.399	56.83
281.615	89.6
281.83	-23.04
282.045	22.02
282.26	-6.66
282.476	19.97
282.691	99.84
282.906	50.69
283.122	-2.56
283.337	-2.56
283.552	44.54
283.767	36.35
283.983	148.99
284.198	-4.61
284.413	73.21
284.628	-18.94
284.843	30.21
285.058	126.46
285.274	-2.56
285.489	-16.9
285.704	163.33
285.919	73.21
286.134	-29.18
286.349	77.31
286.564	15.87
286.779	122.37
286.995	48.64
287.21	-61.95
287.425	50.69
287.64	-29.18
287.855	19.97
288.07	-41.47
288.285	140.8
288.5	87.55
288.715	46.59
288.93	73.21
289.145	-53.76
289.36	77.31
289.575	42.5
289.79	-6.66
290.004	-35.33
290.219	105.98
290.434	13.82
290.649	-74.24
290.864	-8.7
291.079	30.21
291.294	34.3
291.509	11.78
291.724	44.54
291.938	-16.9
292.153	7.68
292.368	17.92
292.583	95.74
292.798	83.45
293.012	116.22
293.227	69.12
293.442	105.98
293.657	85.5
293.871	114.17
294.086	44.54
294.301	192
294.516	105.98
294.73	83.45
294.945	-41.47
295.16	85.5
295.374	196.09
295.589	144.89
295.804	-10.75
296.018	26.11
296.233	163.33
296.447	77.31
296.662	24.06
296.877	216.57
297.091	99.84
297.306	56.83
297.52	46.59
297.735	30.21
297.949	19.97
298.164	44.54
298.378	65.02
298.593	-94.72
298.807	-88.57
299.022	46.59
299.236	75.26
299.451	3.58
299.665	30.21
299.88	93.69
300.094	40.45
300.309	40.45
300.523	118.27
300.737	19.97
300.952	36.35
301.166	69.12
301.381	30.21
301.595	-8.7
301.809	62.98
302.024	24.06
302.238	-31.23
302.452	128.51
302.667	28.16
302.881	130.56
303.095	196.09
303.309	46.59
303.524	-8.7
303.738	34.3
303.952	38.4
304.166	52.74
304.381	-109.05
304.595	206.33
304.809	-29.18
305.023	40.45
305.237	38.4
305.452	50.69
305.666	79.36
305.88	85.5
306.094	71.17
306.308	103.93
306.522	77.31
306.736	153.09
306.95	105.98
307.164	3.58
307.379	36.35
307.593	36.35
307.807	142.85
308.021	116.22
308.235	54.78
308.449	-31.23
308.663	108.03
308.877	153.09
309.091	30.21
309.305	5.63
309.519	-76.29
309.733	148.99
309.947	-35.33
310.161	60.93
310.374	81.41
310.588	81.41
310.802	-98.81
311.016	38.4
311.23	28.16
311.444	9.73
311.658	73.21
311.872	151.04
312.085	155.13
312.299	122.37
312.513	85.5
312.727	34.3
312.941	-61.95
313.154	97.79
313.368	54.78
313.582	95.74
313.796	60.93
314.009	26.11
314.223	114.17
314.437	85.5
314.651	-4.61
314.864	-80.38
315.078	-51.71
315.292	-18.94
315.505	65.02
315.719	62.98
315.933	83.45
316.146	-0.51
316.36	-6.66
316.573	157.18
316.787	50.69
317.001	56.83
317.214	-8.7
317.428	1.54
317.641	-33.28
317.855	91.65
318.068	40.45
318.282	48.64
318.495	212.48
318.709	103.93
318.922	71.17
319.136	136.7
319.349	103.93
319.563	-4.61
319.776	32.26
319.99	-41.47
320.203	81.41
320.417	-29.18
320.63	167.42
320.843	151.04
321.057	-6.66
321.27	46.59
321.483	71.17
321.697	118.27
321.91	-16.9
322.124	7.68
322.337	44.54
322.55	93.69
322.763	48.64
322.977	46.59
323.19	-6.66
323.403	71.17
323.617	97.79
323.83	144.89
324.043	22.02
324.256	38.4
324.469	-43.52
324.683	192
324.896	30.21
325.109	65.02
325.322	-35.33
325.535	73.21
325.748	77.31
325.962	-12.8
326.175	54.78
326.388	32.26
326.601	226.81
326.814	32.26
327.027	26.11
327.24	136.7
327.453	-25.09
327.666	71.17
327.879	99.84
328.092	114.17
328.305	62.98
328.518	-47.62
328.731	87.55
328.944	28.16
329.157	112.13
329.37	1.54
329.583	159.23
329.796	85.5
330.009	-35.33
330.222	83.45
330.435	81.41
330.648	67.07
330.861	65.02
331.073	110.08
331.286	-29.18
331.499	77.31
331.712	-82.43
331.925	-25.09
332.138	3.58
332.35	52.74
332.563	-59.9
332.776	124.41
332.989	-43.52
333.202	83.45
333.414	17.92
333.627	75.26
333.84	-18.94
334.053	13.82
334.265	-2.56
334.478	-92.67
334.691	-23.04
334.903	48.64
335.116	1.54
335.329	46.59
335.541	60.93
335.754	148.99
335.966	24.06
336.179	28.16
336.392	46.59
336.604	73.21
336.817	124.41
337.029	75.26
337.242	77.31
337.454	140.8
337.667	-20.99
337.88	42.5
338.092	97.79
338.305	85.5
338.517	-0.51
338.729	101.89
338.942	128.51
339.154	15.87
339.367	-18.94
339.579	103.93
339.792	-35.33
340.004	157.18
340.217	3.58
340.429	138.75
340.641	-70.14
340.854	26.11
341.066	69.12
341.278	105.98
341.491	253.44
341.703	3.58
341.915	34.3
342.128	81.41
342.34	50.69
342.552	-14.85
342.764	101.89
342.977	3.58
343.189	79.36
343.401	58.88
343.613	-49.66
343.826	50.69
344.038	-53.76
344.25	-33.28
344.462	69.12
344.674	116.22
344.886	26.11
345.099	75.26
345.311	42.5
345.523	22.02
345.735	-141.82
345.947	60.93
346.159	83.45
346.371	62.98
346.583	-23.04
346.795	249.34
347.007	38.4
347.219	155.13
347.431	56.83
347.643	73.21
347.855	-18.94
348.067	101.89
348.279	24.06
348.491	71.17
348.703	50.69
348.915	58.88
349.127	-59.9
349.339	-4.61
349.551	-74.24
349.763	95.74
349.975	34.3
350.187	105.98
350.399	122.37
350.61	79.36
350.822	-33.28
351.034	91.65
351.246	122.37
351.458	30.21
351.669	44.54
351.881	112.13
352.093	134.65
352.305	185.85
352.517	126.46
352.728	146.94
352.94	46.59
353.152	118.27
353.363	-16.9
353.575	34.3
353.787	144.89
353.999	22.02
354.21	173.57
354.422	-70.14
354.633	101.89
354.845	7.68
355.057	44.54
355.268	71.17
355.48	105.98
355.692	-72.19
355.903	95.74
356.115	-72.19
356.326	-43.52
356.538	81.41
356.749	52.74
356.961	161.28
357.172	30.21
357.384	19.97
357.595	179.71
357.807	32.26
358.018	-8.7
358.23	3.58
358.441	212.48
358.653	112.13
358.864	56.83
359.075	-6.66
359.287	34.3
359.498	175.61
359.709	151.04
359.921	44.54
360.132	142.85
360.344	46.59
360.555	34.3
360.766	103.93
360.977	46.59
361.189	136.7
361.4	81.41
361.611	138.75
361.823	99.84
362.034	3.58
362.245	-12.8
362.456	-14.85
362.667	77.31
362.879	-55.81
363.09	122.37
363.301	101.89
363.512	50.69
363.723	5.63
363.935	81.41
364.146	159.23
364.357	32.26
364.568	89.6
364.779	-0.51
364.99	130.56
365.201	30.21
365.412	54.78
365.623	-133.63
365.834	75.26
366.045	-12.8
366.256	89.6
366.467	38.4
366.678	19.97
366.889	36.35
367.1	-35.33
367.311	126.46
367.522	48.64
367.733	73.21
367.944	132.61
368.155	-2.56
368.366	44.54
368.577	22.02
368.788	81.41
368.999	-66.05
369.209	13.82
369.42	210.43
369.631	230.91
369.842	62.98
370.053	67.07
370.264	185.85
370.474	-23.04
370.685	36.35
370.896	99.84
371.107	151.04
371.317	71.17
371.528	19.97
371.739	138.75
371.95	138.75
372.16	87.55
372.371	-47.62
372.582	42.5
372.792	87.55
373.003	-23.04
373.214	103.93
373.424	99.84
373.635	22.02
373.846	110.08
374.056	62.98
374.267	-16.9
374.477	144.89
374.688	22.02
374.898	54.78
375.109	5.63
375.319	44.54
375.53	67.07
375.74	75.26
375.951	52.74
376.161	44.54
376.372	85.5
376.582	-70.14
376.793	50.69
377.003	32.26
377.214	-18.94
377.424	142.85
377.635	56.83
377.845	15.87
378.055	110.08
378.266	-33.28
378.476	3.58
378.686	89.6
378.897	22.02
379.107	157.18
379.317	-33.28
379.528	13.82
379.738	134.65
379.948	-88.57
380.158	40.45
380.369	79.36
380.579	105.98
380.789	46.59
380.999	105.98
381.21	32.26
381.42	212.48
381.63	69.12
381.84	124.41
382.05	13.82
382.261	167.42
382.471	151.04
382.681	-6.66
382.891	167.42
383.101	132.61
383.311	56.83
383.521	38.4
383.731	165.37
383.941	81.41
384.151	-27.14
384.361	26.11
384.571	48.64
384.781	71.17
384.991	226.81
385.201	171.52
385.411	151.04
385.621	-0.51
385.831	28.16
386.041	142.85
386.251	13.82
386.461	163.33
386.671	114.17
386.881	5.63
387.091	30.21
387.301	89.6
387.511	7.68
387.72	97.79
387.93	157.18
388.14	-84.48
388.35	30.21
388.56	-18.94
388.769	103.93
388.979	110.08
389.189	9.73
389.399	75.26
389.609	19.97
389.818	112.13
390.028	108.03
390.238	179.71
390.447	-0.51
390.657	28.16
390.867	-0.51
391.076	-59.9
391.286	62.98
391.496	128.51
391.705	62.98
391.915	97.79
392.125	69.12
392.334	-8.7
392.544	185.85
392.753	56.83
392.963	-59.9
393.172	77.31
393.382	-51.71
393.591	83.45
393.801	-18.94
394.01	142.85
394.22	75.26
394.429	9.73
394.639	28.16
394.848	85.5
395.058	32.26
395.267	83.45
395.477	22.02
395.686	56.83
395.895	218.62
396.105	169.47
396.314	44.54
396.524	54.78
396.733	24.06
396.942	136.7
397.152	40.45
397.361	138.75
397.57	83.45
397.78	-35.33
397.989	73.21
398.198	212.48
398.407	91.65
398.617	40.45
398.826	22.02
399.035	26.11
399.244	120.32
399.453	95.74
399.663	9.73
399.872	52.74
400.081	-43.52
400.29	128.51
400.499	-45.57
400.708	65.02
400.917	60.93
401.127	85.5
401.336	1.54
401.545	177.66
401.754	50.69
401.963	108.03
402.172	5.63
402.381	-25.09
402.59	24.06
402.799	19.97
403.008	97.79
403.217	85.5
403.426	40.45
403.635	-61.95
403.844	15.87
404.053	52.74
404.262	44.54
404.471	196.09
404.68	60.93
404.888	19.97
405.097	93.69
405.306	120.32
405.515	85.5
405.724	58.88
405.933	163.33
406.142	138.75
406.35	118.27
406.559	15.87
406.768	69.12
406.977	175.61
407.185	17.92
407.394	69.12
407.603	-33.28
407.812	87.55
408.02	134.65
408.229	-16.9
408.438	132.61
408.646	69.12
408.855	48.64
409.064	56.83
409.272	50.69
409.481	83.45
409.69	7.68
409.898	46.59
410.107	118.27
410.315	163.33
410.524	-6.66
410.733	15.87
410.941	32.26
411.15	181.76
411.358	120.32
411.567	116.22
411.775	77.31
411.984	48.64
412.192	99.84
412.401	3.58
412.609	192
412.818	179.71
413.026	97.79
413.234	97.79
413.443	85.5
413.651	28.16
413.86	42.5
414.068	120.32
414.276	130.56
414.485	11.78
414.693	85.5
414.901	144.89
415.11	13.82
415.318	77.31
415.526	58.88
415.734	206.33
415.943	163.33
416.151	132.61
416.359	50.69
416.567	56.83
416.776	136.7
416.984	126.46
417.192	192
417.4	3.58
417.608	83.45
417.817	-14.85
418.025	108.03
418.233	185.85
418.441	9.73
418.649	-16.9
418.857	95.74
419.065	132.61
419.273	42.5
419.481	52.74
419.689	50.69
419.897	32.26
420.105	-78.33
420.313	153.09
420.521	89.6
420.729	163.33
420.937	7.68
421.145	32.26
421.353	-6.66
421.561	185.85
421.769	62.98
421.977	89.6
422.185	138.75
422.393	5.63
422.601	151.04
422.809	132.61
423.017	108.03
423.224	77.31
423.432	79.36
423.64	15.87
423.848	148.99
424.056	-2.56
424.263	138.75
424.471	126.46
424.679	228.86
424.887	28.16
425.094	157.18
425.302	134.65
425.51	60.93
425.718	97.79
425.925	112.13
426.133	42.5
426.341	222.72
426.548	52.74
426.756	-8.7
426.964	187.9
427.171	34.3
427.379	126.46
427.586	38.4
427.794	40.45
428.001	179.71
428.209	136.7
428.417	214.52
428.624	179.71
428.832	108.03
429.039	73.21
429.247	93.69
429.454	118.27
429.662	189.95
429.869	183.81
430.076	163.33
430.284	65.02
430.491	204.28
430.699	155.13
430.906	243.2
431.114	187.9
431.321	196.09
431.528	169.47
431.736	153.09
431.943	169.47
432.15	200.19
432.358	198.14
432.565	259.58
432.772	-31.23
432.979	245.24
433.187	173.57
433.394	228.86
433.601	151.04
433.808	235
434.016	255.48
434.223	224.76
434.43	175.61
434.637	327.16
434.844	366.07
435.052	245.24
435.259	329.21
435.466	333.31
435.673	327.16
435.88	271.87
436.087	370.17
436.294	404.99
436.501	323.07
436.708	308.73
436.915	357.88
437.122	482.81
437.329	310.78
437.537	335.35
437.743	370.17
437.95	519.67
438.157	388.6
438.364	435.71
438.571	456.19
438.778	509.43
438.985	474.62
439.192	523.77
439.399	421.37
439.606	546.3
439.813	607.73
440.02	654.84
440.227	701.94
440.433	697.85
440.64	501.24
440.847	624.12
441.054	689.65
441.261	769.52
441.467	646.65
441.674	798.2
441.881	824.82
442.088	703.99
442.294	822.77
442.501	972.27
442.708	964.08
442.914	939.51
443.121	984.56
443.328	1041.9
443.534	1095.15
443.741	1035.76
443.948	914.93
444.154	1019.38
444.361	1285.61
444.568	1150.45
444.774	1199.6
444.981	1029.62
445.187	1289.71
445.394	1359.34
445.6	1353.2
445.807	1582.57
446.013	1449.45
446.22	1426.92
446.426	1570.28
446.633	1660.39
446.839	1813.99
447.046	1627.62
447.252	1848.8
447.459	1887.72
447.665	1945.06
447.871	2104.8
448.078	2295.26
448.284	2176.48
448.491	2399.71
448.697	2395.61
448.903	2450.91
449.11	2481.63
449.316	2598.36
449.522	2797.01
449.728	2756.05
449.935	2835.92
450.141	2909.65
450.347	3245.52
450.553	3065.3
450.76	3179.98
450.966	3251.66
451.172	3513.8
451.378	3558.86
451.584	3691.98
451.791	3950.02
451.997	4033.99
452.203	4085.19
452.409	4126.15
452.615	4519.36
452.821	4300.22
453.027	4433.34
453.233	4926.9
453.44	4773.3
453.646	5092.79
453.852	5250.48
454.058	5365.17
454.264	5668.27
454.47	6061.48
454.676	5993.89
454.882	6477.21
455.088	6247.84
455.294	6684.06
455.5	7157.14
455.705	7568.78
455.911	7427.47
456.117	7669.13
456.323	8193.41
456.529	7998.85
456.735	8924.54
456.941	9127.28
457.147	9301.36
457.352	9579.89
457.558	9858.41
457.764	10546.53
457.97	10669.41
458.176	10947.93
458.381	11648.33
458.587	11910.47
458.793	12295.49
458.999	12301.64
459.204	13886.76
459.41	14437.67
459.616	14208.3
459.821	14970.14
460.027	15600.91
460.233	16413.96
460.438	16645.38
460.644	17347.83
460.85	17695.99
461.055	18027.76
461.261	19428.57
461.466	18795.75
461.672	19080.41
461.878	21384.38
462.083	20950.21
462.289	21710
462.494	22709.41
462.7	22279.34
462.905	23110.82
463.111	24996.99
463.316	25787.51
463.522	26401.9
463.727	27327.58
463.932	28148.82
464.138	29256.77
464.343	30389.3
464.549	30473.26
464.754	32920.59
464.959	33502.21
465.165	34202.61
465.37	34165.75
465.575	33991.67
465.781	36320.21
465.986	37682.11
466.191	36987.85
466.397	37446.6
466.602	36467.67
466.807	38687.67
467.012	39224.23
467.218	39601.06
467.423	39543.72
467.628	41085.84
467.833	43230.06
468.038	42169.21
468.244	41128.84
468.449	43533.16
468.654	42894.19
468.859	42648.44
469.064	43021.17
469.269	41933.7
