Data from USB4F104151__8__10-22-55-051.txt Node

Date: Wed Feb 26 10:22:55 EST 2025
User: louis
Spectrometer: USB4F10415
Trigger mode: 4
Integration Time (sec): 1.000000E-1
Scans to average: 1
Electric dark correction enabled: true
Nonlinearity correction enabled: false
Boxcar width: 0
XAxis mode: Wavelengths
Number of Pixels in Spectrum: 3648
>>>>>Begin Spectral Data<<<<<
178.204	-488.27
178.424	-488.27
178.644	-488.27
178.864	-375.63
179.084	-379.73
179.304	1.19
179.524	29.87
179.744	-19.29
179.964	13.48
180.184	81.07
180.404	64.68
180.624	15.53
180.844	5.29
181.064	-111.44
181.283	21.67
181.503	-95.06
181.723	-7
181.943	-21.33
182.163	144.55
182.383	-50
182.602	62.63
182.822	95.4
183.042	38.06
183.262	-33.62
183.482	-9.05
183.701	-0.85
183.921	83.11
184.141	-133.97
184.361	5.29
184.58	40.11
184.8	40.11
185.02	-0.85
185.239	95.4
185.459	31.91
185.679	11.43
185.898	-84.82
186.118	44.2
186.338	1.19
186.557	29.87
186.777	-27.48
186.997	7.34
187.216	40.11
187.436	169.13
187.655	97.45
187.875	38.06
188.095	-27.48
188.314	103.59
188.534	70.83
188.753	-80.72
188.973	189.61
189.192	115.88
189.412	-21.33
189.631	5.29
189.851	99.5
190.07	91.31
190.29	-27.48
190.509	-27.48
190.729	-9.05
190.948	146.6
191.168	216.23
191.387	-13.14
191.607	1.19
191.826	7.34
192.045	15.53
192.265	62.63
192.484	-13.14
192.704	-33.62
192.923	-56.15
193.142	208.04
193.362	29.87
193.581	103.59
193.8	25.77
194.02	101.55
194.239	19.63
194.458	119.98
194.678	1.19
194.897	56.49
195.116	9.39
195.335	56.49
195.555	17.58
195.774	56.49
195.993	107.69
196.212	-7
196.432	-29.52
196.651	62.63
196.87	-29.52
197.089	201.9
197.308	-56.15
197.528	27.82
197.747	-13.14
197.966	36.01
198.185	156.84
198.404	-9.05
198.623	117.93
198.842	109.74
199.062	91.31
199.281	91.31
199.5	-25.43
199.719	72.87
199.938	19.63
200.157	107.69
200.376	83.11
200.595	177.32
200.814	27.82
201.033	23.72
201.252	128.17
201.471	62.63
201.69	52.39
201.909	31.91
202.128	99.5
202.347	56.49
202.566	36.01
202.785	-88.92
203.004	-90.96
203.223	259.24
203.442	-52.05
203.661	-4.95
203.879	21.67
204.098	95.4
204.317	-17.24
204.536	89.26
204.755	3.24
204.974	83.11
205.193	-70.48
205.411	169.13
205.63	154.79
205.849	31.91
206.068	33.96
206.287	-68.44
206.505	136.36
206.724	-17.24
206.943	-13.14
207.162	-72.53
207.381	154.79
207.599	-70.48
207.818	-45.91
208.037	-15.19
208.255	-2.9
208.474	31.91
208.693	27.82
208.911	-9.05
209.13	33.96
209.349	-7
209.567	74.92
209.786	36.01
210.005	13.48
210.223	27.82
210.442	-72.53
210.661	33.96
210.879	17.58
211.098	-43.86
211.316	25.77
211.535	91.31
211.753	38.06
211.972	79.02
212.191	-31.57
212.409	-17.24
212.628	-0.85
212.846	-136.02
213.065	85.16
213.283	115.88
213.502	-50
213.72	-15.19
213.938	23.72
214.157	1.19
214.375	27.82
214.594	21.67
214.812	115.88
215.031	33.96
215.249	58.54
215.467	-33.62
215.686	9.39
215.904	95.4
216.122	15.53
216.341	128.17
216.559	5.29
216.778	122.02
216.996	97.45
217.214	-58.2
217.432	44.2
217.651	-35.67
217.869	11.43
218.087	-50
218.306	-7
218.524	44.2
218.742	36.01
218.96	97.45
219.179	33.96
219.397	-58.2
219.615	156.84
219.833	107.69
220.051	-17.24
220.27	146.6
220.488	29.87
220.706	107.69
220.924	-0.85
221.142	48.3
221.36	52.39
221.578	46.25
221.796	1.19
222.015	-76.63
222.233	25.77
222.451	160.94
222.669	-56.15
222.887	11.43
223.105	-9.05
223.323	56.49
223.541	-27.48
223.759	60.59
223.977	-47.96
224.195	142.5
224.413	46.25
224.631	29.87
224.849	60.59
225.067	171.18
225.285	23.72
225.503	29.87
225.721	-148.31
225.939	15.53
226.157	-7
226.375	158.89
226.592	1.19
226.81	-11.09
227.028	99.5
227.246	95.4
227.464	52.39
227.682	115.88
227.9	33.96
228.117	11.43
228.335	148.65
228.553	-31.57
228.771	36.01
228.989	38.06
229.206	83.11
229.424	52.39
229.642	-37.72
229.86	-19.29
230.077	119.98
230.295	13.48
230.513	132.26
230.731	13.48
230.948	124.07
231.166	97.45
231.384	-4.95
231.601	-17.24
231.819	195.75
232.037	-9.05
232.254	-23.38
232.472	-0.85
232.689	-21.33
232.907	134.31
233.125	21.67
233.342	11.43
233.56	-58.2
233.777	52.39
233.995	-95.06
234.213	97.45
234.43	134.31
234.648	23.72
234.865	87.21
235.083	79.02
235.3	3.24
235.518	113.83
235.735	134.31
235.953	52.39
236.17	-4.95
236.388	31.91
236.605	27.82
236.822	111.78
237.04	64.68
237.257	101.55
237.475	-25.43
237.692	66.73
237.909	160.94
238.127	-23.38
238.344	7.34
238.562	1.19
238.779	-150.36
238.996	-23.38
239.214	38.06
239.431	38.06
239.648	-19.29
239.865	111.78
240.083	44.2
240.3	48.3
240.517	-56.15
240.735	89.26
240.952	140.46
241.169	70.83
241.386	3.24
241.603	-31.57
241.821	-97.11
242.038	95.4
242.255	83.11
242.472	-99.16
242.689	54.44
242.907	1.19
243.124	36.01
243.341	25.77
243.558	-33.62
243.775	-43.86
243.992	-27.48
244.209	38.06
244.426	91.31
244.643	9.39
244.86	23.72
245.078	72.87
245.295	1.19
245.512	40.11
245.729	-35.67
245.946	40.11
246.163	70.83
246.38	-50
246.597	56.49
246.814	-7
247.031	-21.33
247.248	-0.85
247.464	42.15
247.681	-4.95
247.898	54.44
248.115	52.39
248.332	5.29
248.549	154.79
248.766	107.69
248.983	-0.85
249.2	36.01
249.417	13.48
249.633	17.58
249.85	-13.14
250.067	36.01
250.284	152.74
250.501	25.77
250.717	54.44
250.934	-9.05
251.151	-37.72
251.368	-9.05
251.585	124.07
251.801	-7
252.018	-76.63
252.235	115.88
252.451	-148.31
252.668	25.77
252.885	9.39
253.102	-11.09
253.318	-88.92
253.535	7.34
253.752	58.54
253.968	-11.09
254.185	-109.4
254.401	27.82
254.618	-45.91
254.835	-17.24
255.051	113.83
255.268	79.02
255.484	117.93
255.701	29.87
255.917	19.63
256.134	3.24
256.351	15.53
256.567	17.58
256.784	-2.9
257	-90.96
257.217	99.5
257.433	50.35
257.65	-19.29
257.866	87.21
258.082	-50
258.299	15.53
258.515	1.19
258.732	-56.15
258.948	13.48
259.165	87.21
259.381	-101.2
259.597	25.77
259.814	1.19
260.03	-2.9
260.246	-58.2
260.463	25.77
260.679	70.83
260.895	48.3
261.112	25.77
261.328	-39.76
261.544	-25.43
261.761	109.74
261.977	-21.33
262.193	-29.52
262.409	31.91
262.626	7.34
262.842	99.5
263.058	9.39
263.274	70.83
263.49	83.11
263.707	54.44
263.923	97.45
264.139	-121.68
264.355	-25.43
264.571	101.55
264.787	79.02
265.004	105.64
265.22	-11.09
265.436	29.87
265.652	-25.43
265.868	5.29
266.084	-113.49
266.3	5.29
266.516	-64.34
266.732	48.3
266.948	38.06
267.164	23.72
267.38	128.17
267.596	25.77
267.812	132.26
268.028	27.82
268.244	46.25
268.46	21.67
268.676	-95.06
268.892	68.78
269.108	5.29
269.324	-80.72
269.54	-68.44
269.756	72.87
269.972	-54.1
270.188	60.59
270.403	-27.48
270.619	-7
270.835	-4.95
271.051	76.97
271.267	-27.48
271.483	-23.38
271.698	66.73
271.914	50.35
272.13	52.39
272.346	36.01
272.562	52.39
272.777	60.59
272.993	13.48
273.209	52.39
273.425	11.43
273.64	-82.77
273.856	91.31
274.072	-39.76
274.287	-72.53
274.503	70.83
274.719	70.83
274.934	-7
275.15	-60.24
275.366	-15.19
275.581	21.67
275.797	-29.52
276.012	44.2
276.228	17.58
276.444	-54.1
276.659	173.22
276.875	-41.81
277.09	-2.9
277.306	48.3
277.521	38.06
277.737	62.63
277.952	76.97
278.168	68.78
278.383	-21.33
278.599	33.96
278.814	128.17
279.03	1.19
279.245	93.35
279.461	7.34
279.676	117.93
279.892	-37.72
280.107	-105.3
280.322	-7
280.538	89.26
280.753	-41.81
280.969	36.01
281.184	42.15
281.399	97.45
281.615	-37.72
281.83	42.15
282.045	-86.87
282.26	-11.09
282.476	15.53
282.691	91.31
282.906	89.26
283.122	81.07
283.337	-4.95
283.552	-2.9
283.767	19.63
283.983	85.16
284.198	21.67
284.413	52.39
284.628	-80.72
284.843	52.39
285.058	7.34
285.274	-9.05
285.489	-68.44
285.704	138.41
285.919	17.58
286.134	-2.9
286.349	7.34
286.564	-45.91
286.779	117.93
286.995	21.67
287.21	-125.78
287.425	-0.85
287.64	-41.81
287.855	-78.68
288.07	-43.86
288.285	79.02
288.5	95.4
288.715	-43.86
288.93	1.19
289.145	-11.09
289.36	173.22
289.575	21.67
289.79	124.07
290.004	48.3
290.219	136.36
290.434	-21.33
290.649	-9.05
290.864	-17.24
291.079	13.48
291.294	21.67
291.509	107.69
291.724	46.25
291.938	56.49
292.153	17.58
292.368	7.34
292.583	93.35
292.798	72.87
293.012	-13.14
293.227	107.69
293.442	-4.95
293.657	38.06
293.871	144.55
294.086	81.07
294.301	144.55
294.516	38.06
294.73	50.35
294.945	15.53
295.16	9.39
295.374	79.02
295.589	85.16
295.804	-39.76
296.018	36.01
296.233	138.41
296.447	97.45
296.662	52.39
296.877	126.12
297.091	81.07
297.306	-0.85
297.52	38.06
297.735	93.35
297.949	31.91
298.164	76.97
298.378	-11.09
298.593	-103.25
298.807	1.19
299.022	-0.85
299.236	107.69
299.451	-15.19
299.665	-19.29
299.88	-15.19
300.094	68.78
300.309	5.29
300.523	33.96
300.737	-11.09
300.952	5.29
301.166	19.63
301.381	-31.57
301.595	-9.05
301.809	95.4
302.024	40.11
302.238	38.06
302.452	87.21
302.667	91.31
302.881	124.07
303.095	128.17
303.309	70.83
303.524	36.01
303.738	-4.95
303.952	-7
304.166	62.63
304.381	-172.88
304.595	68.78
304.809	-45.91
305.023	9.39
305.237	-0.85
305.452	-47.96
305.666	62.63
305.88	70.83
306.094	109.74
306.308	-56.15
306.522	62.63
306.736	66.73
306.95	85.16
307.164	56.49
307.379	19.63
307.593	44.2
307.807	185.51
308.021	44.2
308.235	-29.52
308.449	-23.38
308.663	64.68
308.877	201.9
309.091	-2.9
309.305	-23.38
309.519	-76.63
309.733	144.55
309.947	-58.2
310.161	17.58
310.374	-23.38
310.588	97.45
310.802	-64.34
311.016	-9.05
311.23	66.73
311.444	-21.33
311.658	13.48
311.872	109.74
312.085	142.5
312.299	62.63
312.513	68.78
312.727	-15.19
312.941	1.19
313.154	52.39
313.368	42.15
313.582	15.53
313.796	56.49
314.009	46.25
314.223	171.18
314.437	44.2
314.651	85.16
314.864	-60.24
315.078	13.48
315.292	-109.4
315.505	-9.05
315.719	72.87
315.933	21.67
316.146	33.96
316.36	-52.05
316.573	107.69
316.787	72.87
317.001	103.59
317.214	-52.05
317.428	-15.19
317.641	-33.62
317.855	29.87
318.068	-9.05
318.282	58.54
318.495	117.93
318.709	3.24
318.922	31.91
319.136	119.98
319.349	107.69
319.563	-58.2
319.776	126.12
319.99	-68.44
320.203	99.5
320.417	44.2
320.63	132.26
320.843	136.36
321.057	5.29
321.27	-0.85
321.483	31.91
321.697	105.64
321.91	56.49
322.124	-33.62
322.337	56.49
322.55	-76.63
322.763	-62.29
322.977	-2.9
323.19	-78.68
323.403	-50
323.617	76.97
323.83	93.35
324.043	52.39
324.256	76.97
324.469	-19.29
324.683	91.31
324.896	-33.62
325.109	46.25
325.322	-82.77
325.535	29.87
325.748	-15.19
325.962	-50
326.175	-4.95
326.388	-25.43
326.601	107.69
326.814	-11.09
327.027	103.59
327.24	119.98
327.453	-95.06
327.666	-11.09
327.879	113.83
328.092	115.88
328.305	68.78
328.518	-19.29
328.731	-35.67
328.944	-7
329.157	29.87
329.37	-78.68
329.583	171.18
329.796	146.6
330.009	-82.77
330.222	93.35
330.435	124.07
330.648	62.63
330.861	48.3
331.073	-2.9
331.286	87.21
331.499	7.34
331.712	-60.24
331.925	66.73
332.138	17.58
332.35	-7
332.563	19.63
332.776	128.17
332.989	-56.15
333.202	9.39
333.414	70.83
333.627	31.91
333.84	5.29
334.053	-4.95
334.265	-4.95
334.478	-19.29
334.691	-25.43
334.903	3.24
335.116	-31.57
335.329	19.63
335.541	119.98
335.754	87.21
335.966	-62.29
336.179	38.06
336.392	36.01
336.604	-4.95
336.817	40.11
337.029	72.87
337.242	25.77
337.454	105.64
337.667	21.67
337.88	185.51
338.092	31.91
338.305	62.63
338.517	-58.2
338.729	105.64
338.942	95.4
339.154	-23.38
339.367	-70.48
339.579	70.83
339.792	1.19
340.004	60.59
340.217	-17.24
340.429	29.87
340.641	-72.53
340.854	-41.81
341.066	-4.95
341.278	62.63
341.491	97.45
341.703	-15.19
341.915	-88.92
342.128	117.93
342.34	167.08
342.552	-74.58
342.764	-31.57
342.977	11.43
343.189	89.26
343.401	119.98
343.613	-90.96
343.826	11.43
344.038	-64.34
344.25	1.19
344.462	44.2
344.674	17.58
344.886	-2.9
345.099	93.35
345.311	76.97
345.523	-47.96
345.735	-88.92
345.947	138.41
346.159	33.96
346.371	-76.63
346.583	21.67
346.795	177.32
347.007	64.68
347.219	54.44
347.431	1.19
347.643	83.11
347.855	48.3
348.067	93.35
348.279	-13.14
348.491	-19.29
348.703	-2.9
348.915	-4.95
349.127	-105.3
349.339	-17.24
349.551	-21.33
349.763	-27.48
349.975	-43.86
350.187	36.01
350.399	122.02
350.61	93.35
350.822	38.06
351.034	62.63
351.246	124.07
351.458	52.39
351.669	99.5
351.881	27.82
352.093	62.63
352.305	103.59
352.517	-23.38
352.728	122.02
352.94	23.72
353.152	7.34
353.363	-58.2
353.575	62.63
353.787	130.22
353.999	31.91
354.21	132.26
354.422	-50
354.633	-31.57
354.845	-43.86
355.057	50.35
355.268	-9.05
355.48	21.67
355.692	-21.33
355.903	95.4
356.115	-35.67
356.326	-52.05
356.538	111.78
356.749	142.5
356.961	38.06
357.172	36.01
357.384	-4.95
357.595	185.51
357.807	-29.52
358.018	-2.9
358.23	-52.05
358.441	48.3
358.653	38.06
358.864	-33.62
359.075	-84.82
359.287	38.06
359.498	74.92
359.709	115.88
359.921	-17.24
360.132	-2.9
360.344	11.43
360.555	42.15
360.766	19.63
360.977	3.24
361.189	50.35
361.4	-17.24
361.611	101.55
361.823	81.07
362.034	-11.09
362.245	-41.81
362.456	93.35
362.667	62.63
362.879	-13.14
363.09	68.78
363.301	54.44
363.512	44.2
363.723	-64.34
363.935	-41.81
364.146	66.73
364.357	9.39
364.568	-29.52
364.779	-127.83
364.99	85.16
365.201	-93.01
365.412	165.03
365.623	-64.34
365.834	42.15
366.045	13.48
366.256	-19.29
366.467	79.02
366.678	-11.09
366.889	21.67
367.1	-52.05
367.311	36.01
367.522	-107.35
367.733	74.92
367.944	62.63
368.155	46.25
368.366	70.83
368.577	109.74
368.788	115.88
368.999	25.77
369.209	36.01
369.42	138.41
369.631	179.37
369.842	64.68
370.053	25.77
370.264	54.44
370.474	-11.09
370.685	40.11
370.896	107.69
371.107	109.74
371.317	19.63
371.528	3.24
371.739	111.78
371.95	101.55
372.16	27.82
372.371	-70.48
372.582	-29.52
372.792	50.35
373.003	7.34
373.214	91.31
373.424	119.98
373.635	-97.11
373.846	179.37
374.056	11.43
374.267	-33.62
374.477	36.01
374.688	-47.96
374.898	52.39
375.109	-23.38
375.319	-72.53
375.53	144.55
375.74	97.45
375.951	-0.85
376.161	72.87
376.372	64.68
376.582	31.91
376.793	85.16
377.003	-31.57
377.214	-45.91
377.424	23.72
377.635	48.3
377.845	-50
378.055	33.96
378.266	-105.3
378.476	115.88
378.686	3.24
378.897	-13.14
379.107	68.78
379.317	36.01
379.528	-50
379.738	5.29
379.948	-131.92
380.158	171.18
380.369	36.01
380.579	66.73
380.789	23.72
380.999	79.02
381.21	122.02
381.42	132.26
381.63	25.77
381.84	105.64
382.05	146.6
382.261	93.35
382.471	79.02
382.681	3.24
382.891	162.98
383.101	134.31
383.311	-39.76
383.521	-25.43
383.731	-13.14
383.941	79.02
384.151	-29.52
384.361	64.68
384.571	81.07
384.781	50.35
384.991	83.11
385.201	162.98
385.411	48.3
385.621	91.31
385.831	40.11
386.041	54.44
386.251	-33.62
386.461	-43.86
386.671	-4.95
386.881	-39.76
387.091	-72.53
387.301	117.93
387.511	58.54
387.72	68.78
387.93	95.4
388.14	-111.44
388.35	64.68
388.56	25.77
388.769	89.26
388.979	109.74
389.189	-45.91
389.399	44.2
389.609	52.39
389.818	103.59
390.028	38.06
390.238	42.15
390.447	66.73
390.657	-7
390.867	29.87
391.076	-84.82
391.286	5.29
391.496	-35.67
391.705	-62.29
391.915	181.42
392.125	97.45
392.334	-41.81
392.544	103.59
392.753	9.39
392.963	-115.54
393.172	42.15
393.382	-13.14
393.591	146.6
393.801	-23.38
394.01	197.8
394.22	62.63
394.429	56.49
394.639	-47.96
394.848	31.91
395.058	99.5
395.267	-19.29
395.477	33.96
395.686	48.3
395.895	150.7
396.105	232.62
396.314	48.3
396.524	1.19
396.733	-2.9
396.942	130.22
397.152	-43.86
397.361	1.19
397.57	44.2
397.78	5.29
397.989	38.06
398.198	181.42
398.407	-0.85
398.617	15.53
398.826	40.11
399.035	7.34
399.244	85.16
399.453	13.48
399.663	-0.85
399.872	-9.05
400.081	-43.86
400.29	85.16
400.499	-15.19
400.708	54.44
400.917	13.48
401.127	-13.14
401.336	11.43
401.545	115.88
401.754	54.44
401.963	107.69
402.172	-35.67
402.381	-33.62
402.59	-0.85
402.799	-17.24
403.008	38.06
403.217	60.59
403.426	83.11
403.635	-80.72
403.844	-23.38
404.053	74.92
404.262	11.43
404.471	160.94
404.68	50.35
404.888	50.35
405.097	-0.85
405.306	-21.33
405.515	95.4
405.724	42.15
405.933	27.82
406.142	52.39
406.35	36.01
406.559	36.01
406.768	-15.19
406.977	83.11
407.185	36.01
407.394	5.29
407.603	-62.29
407.812	128.17
408.02	81.07
408.229	38.06
408.438	74.92
408.646	7.34
408.855	-23.38
409.064	7.34
409.272	58.54
409.481	87.21
409.69	-47.96
409.898	-97.11
410.107	62.63
410.315	74.92
410.524	-37.72
410.733	11.43
410.941	3.24
411.15	91.31
411.358	66.73
411.567	179.37
411.775	85.16
411.984	17.58
412.192	132.26
412.401	-31.57
412.609	85.16
412.818	173.22
413.026	66.73
413.234	5.29
413.443	-35.67
413.651	7.34
413.86	46.25
414.068	142.5
414.276	107.69
414.485	-35.67
414.693	119.98
414.901	111.78
415.11	23.72
415.318	103.59
415.526	58.54
415.734	70.83
415.943	25.77
416.151	146.6
416.359	-43.86
416.567	64.68
416.776	130.22
416.984	68.78
417.192	193.7
417.4	-47.96
417.608	9.39
417.817	-80.72
418.025	109.74
418.233	130.22
418.441	23.72
418.649	13.48
418.857	29.87
419.065	136.36
419.273	62.63
419.481	-7
419.689	-66.39
419.897	21.67
420.105	-88.92
420.313	81.07
420.521	74.92
420.729	128.17
420.937	33.96
421.145	31.91
421.353	-7
421.561	119.98
421.769	46.25
421.977	-54.1
422.185	81.07
422.393	27.82
422.601	171.18
422.809	74.92
423.017	68.78
423.224	79.02
423.432	224.42
423.64	25.77
423.848	119.98
424.056	-11.09
424.263	122.02
424.471	52.39
424.679	99.5
424.887	-39.76
425.094	154.79
425.302	87.21
425.51	5.29
425.718	-0.85
425.925	3.24
426.133	-9.05
426.341	197.8
426.548	50.35
426.756	46.25
426.964	93.35
427.171	-45.91
427.379	68.78
427.586	38.06
427.794	83.11
428.001	124.07
428.209	66.73
428.417	148.65
428.624	52.39
428.832	70.83
429.039	-0.85
429.247	64.68
429.454	99.5
429.662	228.52
429.869	44.2
430.076	109.74
430.284	132.26
430.491	160.94
430.699	115.88
430.906	195.75
431.114	119.98
431.321	111.78
431.528	76.97
431.736	154.79
431.943	101.55
432.15	95.4
432.358	175.27
432.565	212.14
432.772	9.39
432.979	232.62
433.187	181.42
433.394	224.42
433.601	46.25
433.808	136.36
434.016	222.38
434.223	187.56
434.43	171.18
434.637	224.42
434.844	246.95
435.052	220.33
435.259	230.57
435.466	214.18
435.673	273.57
435.88	269.48
436.087	220.33
436.294	271.53
436.501	269.48
436.708	230.57
436.915	212.14
437.122	294.05
437.329	187.56
437.537	142.5
437.743	289.96
437.95	324.77
438.157	242.85
438.364	238.76
438.571	271.53
438.778	345.25
438.985	341.16
439.192	339.11
439.399	367.78
439.606	351.4
439.813	494.76
440.02	509.09
440.227	584.87
440.433	459.94
440.64	375.97
440.847	427.17
441.054	582.82
441.261	578.72
441.467	539.81
441.674	496.8
441.881	625.83
442.088	433.32
442.294	611.49
442.501	660.64
442.708	730.27
442.914	623.78
443.121	638.11
443.328	636.06
443.534	763.04
443.741	717.98
443.948	648.35
444.154	804
444.361	959.64
444.568	773.28
444.774	808.09
444.981	826.53
445.187	1025.18
445.394	994.46
445.6	914.59
445.807	990.36
446.013	1055.9
446.22	998.56
446.426	1094.81
446.633	1154.2
446.839	1375.38
447.046	1170.58
447.252	1453.2
447.459	1244.31
447.665	1397.91
447.871	1500.31
448.078	1612.95
448.284	1688.72
448.491	1664.15
448.697	1760.4
448.903	1807.5
449.11	1918.09
449.316	1791.12
449.522	1950.86
449.728	2088.07
449.935	2000.01
450.141	2079.88
450.347	2362.5
450.553	2215.05
450.76	2241.67
450.966	2485.38
451.172	2438.28
451.378	2589.83
451.584	2622.59
451.791	2993.28
451.997	2944.13
452.203	3157.11
452.409	3128.44
452.615	3261.56
452.821	3110.01
453.027	3216.51
453.233	3736.69
453.44	3540.08
453.646	3646.58
453.852	3794.03
454.058	4000.88
454.264	4195.43
454.47	4465.77
454.676	4260.97
454.882	4670.56
455.088	4514.92
455.294	4838.5
455.5	5215.32
455.705	5510.23
455.911	5512.28
456.117	5528.66
456.323	5985.36
456.529	5860.43
456.735	6360.14
456.941	6818.88
457.147	6736.96
457.352	6964.29
457.558	7109.69
457.764	7705.65
457.97	7773.24
458.176	8131.63
458.381	8297.52
458.587	8610.86
458.793	9141.28
458.999	9055.26
459.204	10124.3
459.41	10578.95
459.616	10261.52
459.821	11072.51
460.027	11537.4
460.233	12053.49
460.438	12336.11
460.644	12727.27
460.85	13071.33
461.055	13556.7
461.261	13921.24
461.466	13777.88
461.672	14017.49
461.878	15627.2
462.083	15250.37
462.289	15819.71
462.494	16692.14
462.7	16544.69
462.905	16647.08
463.111	18076.57
463.316	18983.82
463.522	19157.89
463.727	19999.61
463.932	20798.32
464.138	21484.39
464.343	22047.58
464.549	22231.9
464.754	23935.81
464.959	24771.38
465.165	24908.59
465.37	25246.51
465.575	24812.34
465.781	26596.12
465.986	27173.64
466.191	26743.57
466.397	27069.2
466.602	26778.39
466.807	28273.4
467.012	28158.72
467.218	28816.11
467.423	28902.13
467.628	29893.35
467.833	31195.85
468.038	30421.72
468.244	30276.32
468.449	31701.7
468.654	31029.97
468.859	31085.26
469.064	31083.22
469.269	30421.72
469.474	30481.11
