Data from USB4F104151__115__10-36-30-022.txt Node

Date: Wed Feb 26 10:36:30 EST 2025
User: louis
Spectrometer: USB4F10415
Trigger mode: 4
Integration Time (sec): 1.000000E-1
Scans to average: 1
Electric dark correction enabled: true
Nonlinearity correction enabled: false
Boxcar width: 0
XAxis mode: Wavelengths
Number of Pixels in Spectrum: 3648
>>>>>Begin Spectral Data<<<<<
178.204	-337.4
178.424	-337.4
178.644	-337.4
178.864	-396.79
179.084	-386.55
179.304	33.28
179.524	-7.68
179.744	2.56
179.964	-24.06
180.184	35.33
180.404	-11.78
180.624	-5.63
180.844	-13.82
181.064	-62.98
181.283	27.14
181.503	-17.92
181.723	45.57
181.943	-3.58
182.163	174.59
182.383	43.52
182.602	45.57
182.822	154.11
183.042	53.76
183.262	-22.02
183.482	-15.87
183.701	55.81
183.921	-15.87
184.141	20.99
184.361	25.09
184.58	115.2
184.8	86.53
185.02	59.9
185.239	125.44
185.459	33.28
185.679	156.16
185.898	-79.36
186.118	37.38
186.338	80.38
186.557	193.02
186.777	-44.54
186.997	90.62
187.216	41.47
187.436	207.36
187.655	59.9
187.875	33.28
188.095	61.95
188.314	182.78
188.534	147.97
188.753	-46.59
188.973	150.01
189.192	86.53
189.412	33.28
189.631	14.85
189.851	29.18
190.07	115.2
190.29	6.66
190.509	2.56
190.729	43.52
190.948	121.34
191.168	299.52
191.387	84.48
191.607	39.42
191.826	18.94
192.045	86.53
192.265	6.66
192.484	70.14
192.704	-40.45
192.923	-32.26
193.142	156.16
193.362	55.81
193.581	180.73
193.8	86.53
194.02	76.29
194.239	29.18
194.458	76.29
194.678	125.44
194.897	57.86
195.116	57.86
195.335	127.49
195.555	88.57
195.774	27.14
195.993	174.59
196.212	49.66
196.432	45.57
196.651	-7.68
196.87	29.18
197.089	236.03
197.308	117.25
197.528	47.62
197.747	-46.59
197.966	55.81
198.185	193.02
198.404	66.05
198.623	150.01
198.842	123.39
199.062	113.15
199.281	119.29
199.5	96.77
199.719	102.91
199.938	125.44
200.157	111.1
200.376	111.1
200.595	94.72
200.814	61.95
201.033	20.99
201.252	176.64
201.471	66.05
201.69	143.87
201.909	70.14
202.128	49.66
202.347	14.85
202.566	-5.63
202.785	-97.79
203.004	-108.03
203.223	309.76
203.442	57.86
203.661	14.85
203.879	88.57
204.098	137.73
204.317	41.47
204.536	133.63
204.755	80.38
204.974	96.77
205.193	53.76
205.411	131.58
205.63	168.45
205.849	152.06
206.068	53.76
206.287	2.56
206.505	170.49
206.724	86.53
206.943	66.05
207.162	20.99
207.381	113.15
207.599	31.23
207.818	55.81
208.037	-13.82
208.255	80.38
208.474	68.09
208.693	133.63
208.911	57.86
209.13	168.45
209.349	113.15
209.567	102.91
209.786	147.97
210.005	76.29
210.223	-13.82
210.442	-93.69
210.661	59.9
210.879	14.85
211.098	113.15
211.316	64
211.535	61.95
211.753	27.14
211.972	111.1
212.191	35.33
212.409	-1.54
212.628	94.72
212.846	64
213.065	57.86
213.283	119.29
213.502	33.28
213.72	10.75
213.938	-22.02
214.157	39.42
214.375	170.49
214.594	68.09
214.812	57.86
215.031	25.09
215.249	37.38
215.467	117.25
215.686	6.66
215.904	86.53
216.122	78.33
216.341	184.83
216.559	31.23
216.778	203.26
216.996	182.78
217.214	12.8
217.432	45.57
217.651	-71.17
217.869	127.49
218.087	31.23
218.306	90.62
218.524	72.19
218.742	-30.21
218.96	78.33
219.179	-77.31
219.397	86.53
219.615	170.49
219.833	55.81
220.051	43.52
220.27	45.57
220.488	178.69
220.706	94.72
220.924	31.23
221.142	-19.97
221.36	150.01
221.578	29.18
221.796	72.19
222.015	70.14
222.233	90.62
222.451	158.21
222.669	-50.69
222.887	119.29
223.105	84.48
223.323	57.86
223.541	-36.35
223.759	0.51
223.977	39.42
224.195	123.39
224.413	92.67
224.631	76.29
224.849	51.71
225.067	246.27
225.285	53.76
225.503	-54.78
225.721	-32.26
225.939	100.86
226.157	37.38
226.375	217.6
226.592	-3.58
226.81	84.48
227.028	154.11
227.246	154.11
227.464	66.05
227.682	141.82
227.9	74.24
228.117	123.39
228.335	180.73
228.553	61.95
228.771	86.53
228.989	121.34
229.206	41.47
229.424	-3.58
229.642	107.01
229.86	33.28
230.077	104.96
230.295	31.23
230.513	66.05
230.731	104.96
230.948	190.97
231.166	168.45
231.384	64
231.601	-46.59
231.819	168.45
232.037	0.51
232.254	-71.17
232.472	201.21
232.689	43.52
232.907	145.92
233.125	39.42
233.342	-9.73
233.56	53.76
233.777	61.95
233.995	43.52
234.213	72.19
234.43	92.67
234.648	25.09
234.865	20.99
235.083	66.05
235.3	117.25
235.518	117.25
235.735	117.25
235.953	45.57
236.17	-40.45
236.388	102.91
236.605	102.91
236.822	154.11
237.04	135.68
237.257	123.39
237.475	-5.63
237.692	39.42
237.909	53.76
238.127	-38.4
238.344	64
238.562	70.14
238.779	-26.11
238.996	57.86
239.214	57.86
239.431	109.05
239.648	16.9
239.865	133.63
240.083	107.01
240.3	14.85
240.517	-32.26
240.735	158.21
240.952	193.02
241.169	80.38
241.386	135.68
241.603	64
241.821	-26.11
242.038	80.38
242.255	166.4
242.472	-1.54
242.689	59.9
242.907	96.77
243.124	90.62
243.341	20.99
243.558	80.38
243.775	-19.97
243.992	47.62
244.209	121.34
244.426	158.21
244.643	84.48
244.86	20.99
245.078	131.58
245.295	25.09
245.512	43.52
245.729	49.66
245.946	53.76
246.163	2.56
246.38	39.42
246.597	-36.35
246.814	129.53
247.031	31.23
247.248	68.09
247.464	66.05
247.681	-32.26
247.898	90.62
248.115	129.53
248.332	-56.83
248.549	147.97
248.766	209.4
248.983	23.04
249.2	100.86
249.417	102.91
249.633	55.81
249.85	39.42
250.067	94.72
250.284	25.09
250.501	-13.82
250.717	86.53
250.934	-69.12
251.151	-5.63
251.368	49.66
251.585	49.66
251.801	23.04
252.018	-75.26
252.235	84.48
252.451	10.75
252.668	70.14
252.885	119.29
253.102	57.86
253.318	98.81
253.535	20.99
253.752	35.33
253.968	33.28
254.185	-26.11
254.401	-1.54
254.618	98.81
254.835	-38.4
255.051	178.69
255.268	55.81
255.484	90.62
255.701	92.67
255.917	119.29
256.134	-15.87
256.351	80.38
256.567	-60.93
256.784	27.14
257	-71.17
257.217	186.88
257.433	96.77
257.65	86.53
257.866	113.15
258.082	-11.78
258.299	41.47
258.515	20.99
258.732	31.23
258.948	20.99
259.165	64
259.381	12.8
259.597	117.25
259.814	61.95
260.03	10.75
260.246	61.95
260.463	119.29
260.679	49.66
260.895	-17.92
261.112	86.53
261.328	35.33
261.544	-19.97
261.761	244.22
261.977	43.52
262.193	-36.35
262.409	104.96
262.626	37.38
262.842	90.62
263.058	23.04
263.274	102.91
263.49	23.04
263.707	68.09
263.923	139.77
264.139	27.14
264.355	20.99
264.571	86.53
264.787	111.1
265.004	47.62
265.22	53.76
265.436	29.18
265.652	43.52
265.868	35.33
266.084	-46.59
266.3	2.56
266.516	37.38
266.732	61.95
266.948	59.9
267.164	53.76
267.38	115.2
267.596	92.67
267.812	205.31
268.028	78.33
268.244	61.95
268.46	70.14
268.676	88.57
268.892	64
269.108	-58.88
269.324	12.8
269.54	-54.78
269.756	174.59
269.972	-26.11
270.188	49.66
270.403	-75.26
270.619	27.14
270.835	43.52
271.051	59.9
271.267	-7.68
271.483	119.29
271.698	109.05
271.914	86.53
272.13	86.53
272.346	68.09
272.562	76.29
272.777	137.73
272.993	47.62
273.209	76.29
273.425	104.96
273.64	-34.3
273.856	160.25
274.072	45.57
274.287	-28.16
274.503	129.53
274.719	33.28
274.934	72.19
275.15	-46.59
275.366	-9.73
275.581	-26.11
275.797	59.9
276.012	25.09
276.228	6.66
276.444	0.51
276.659	92.67
276.875	-7.68
277.09	96.77
277.306	-22.02
277.521	43.52
277.737	37.38
277.952	27.14
278.168	117.25
278.383	68.09
278.599	70.14
278.814	68.09
279.03	-13.82
279.245	197.12
279.461	86.53
279.676	102.91
279.892	-7.68
280.107	-48.64
280.322	27.14
280.538	59.9
280.753	-17.92
280.969	70.14
281.184	55.81
281.399	111.1
281.615	111.1
281.83	127.49
282.045	-11.78
282.26	37.38
282.476	102.91
282.691	113.15
282.906	78.33
283.122	-13.82
283.337	-73.21
283.552	90.62
283.767	33.28
283.983	111.1
284.198	129.53
284.413	111.1
284.628	-77.31
284.843	41.47
285.058	90.62
285.274	-38.4
285.489	-62.98
285.704	96.77
285.919	12.8
286.134	45.57
286.349	29.18
286.564	94.72
286.779	117.25
286.995	-28.16
287.21	-44.54
287.425	137.73
287.64	29.18
287.855	37.38
288.07	2.56
288.285	92.67
288.5	96.77
288.715	131.58
288.93	41.47
289.145	-52.74
289.36	150.01
289.575	-54.78
289.79	221.69
290.004	6.66
290.219	107.01
290.434	31.23
290.649	10.75
290.864	14.85
291.079	59.9
291.294	176.64
291.509	90.62
291.724	31.23
291.938	70.14
292.153	94.72
292.368	4.61
292.583	129.53
292.798	64
293.012	57.86
293.227	43.52
293.442	-48.64
293.657	47.62
293.871	143.87
294.086	33.28
294.301	129.53
294.516	238.08
294.73	53.76
294.945	-32.26
295.16	-15.87
295.374	172.54
295.589	127.49
295.804	-24.06
296.018	6.66
296.233	72.19
296.447	135.68
296.662	-48.64
296.877	174.59
297.091	86.53
297.306	37.38
297.52	25.09
297.735	96.77
297.949	39.42
298.164	-9.73
298.378	41.47
298.593	4.61
298.807	90.62
299.022	82.43
299.236	248.32
299.451	10.75
299.665	41.47
299.88	31.23
300.094	49.66
300.309	12.8
300.523	72.19
300.737	31.23
300.952	100.86
301.166	88.57
301.381	-34.3
301.595	16.9
301.809	115.2
302.024	72.19
302.238	6.66
302.452	145.92
302.667	-24.06
302.881	201.21
303.095	98.81
303.309	49.66
303.524	-34.3
303.738	-13.82
303.952	23.04
304.166	51.71
304.381	-120.32
304.595	156.16
304.809	45.57
305.023	29.18
305.237	12.8
305.452	18.94
305.666	70.14
305.88	82.43
306.094	55.81
306.308	55.81
306.522	133.63
306.736	68.09
306.95	72.19
307.164	2.56
307.379	27.14
307.593	164.35
307.807	176.64
308.021	64
308.235	76.29
308.449	-13.82
308.663	-5.63
308.877	254.46
309.091	121.34
309.305	96.77
309.519	-93.69
309.733	115.2
309.947	-126.46
310.161	59.9
310.374	166.4
310.588	82.43
310.802	-11.78
311.016	31.23
311.23	68.09
311.444	-30.21
311.658	2.56
311.872	98.81
312.085	168.45
312.299	178.69
312.513	111.1
312.727	64
312.941	-24.06
313.154	178.69
313.368	80.38
313.582	-15.87
313.796	43.52
314.009	51.71
314.223	117.25
314.437	68.09
314.651	111.1
314.864	33.28
315.078	80.38
315.292	0.51
315.505	41.47
315.719	117.25
315.933	57.86
316.146	4.61
316.36	-3.58
316.573	141.82
316.787	45.57
317.001	96.77
317.214	10.75
317.428	160.25
317.641	-24.06
317.855	74.24
318.068	47.62
318.282	84.48
318.495	186.88
318.709	80.38
318.922	31.23
319.136	186.88
319.349	190.97
319.563	0.51
319.776	117.25
319.99	-48.64
320.203	121.34
320.417	147.97
320.63	82.43
320.843	197.12
321.057	113.15
321.27	39.42
321.483	127.49
321.697	182.78
321.91	64
322.124	80.38
322.337	29.18
322.55	-9.73
322.763	35.33
322.977	55.81
323.19	18.94
323.403	125.44
323.617	49.66
323.83	104.96
324.043	39.42
324.256	88.57
324.469	-75.26
324.683	133.63
324.896	45.57
325.109	78.33
325.322	-9.73
325.535	94.72
325.748	59.9
325.962	45.57
326.175	100.86
326.388	137.73
326.601	160.25
326.814	23.04
327.027	41.47
327.24	145.92
327.453	-1.54
327.666	102.91
327.879	186.88
328.092	92.67
328.305	84.48
328.518	33.28
328.731	25.09
328.944	29.18
329.157	125.44
329.37	25.09
329.583	229.88
329.796	64
330.009	-5.63
330.222	125.44
330.435	123.39
330.648	59.9
330.861	113.15
331.073	221.69
331.286	109.05
331.499	92.67
331.712	14.85
331.925	23.04
332.138	18.94
332.35	107.01
332.563	29.18
332.776	168.45
332.989	-5.63
333.202	-34.3
333.414	74.24
333.627	47.62
333.84	29.18
334.053	150.01
334.265	64
334.478	-1.54
334.691	123.39
334.903	-17.92
335.116	55.81
335.329	47.62
335.541	70.14
335.754	217.6
335.966	-3.58
336.179	-3.58
336.392	-7.68
336.604	-5.63
336.817	109.05
337.029	102.91
337.242	-7.68
337.454	143.87
337.667	27.14
337.88	209.4
338.092	174.59
338.305	61.95
338.517	-13.82
338.729	135.68
338.942	213.5
339.154	45.57
339.367	41.47
339.579	66.05
339.792	-19.97
340.004	131.58
340.217	29.18
340.429	-11.78
340.641	-3.58
340.854	8.7
341.066	49.66
341.278	166.4
341.491	166.4
341.703	66.05
341.915	-46.59
342.128	123.39
342.34	8.7
342.552	18.94
342.764	23.04
342.977	4.61
343.189	41.47
343.401	47.62
343.613	-22.02
343.826	59.9
344.038	51.71
344.25	156.16
344.462	78.33
344.674	14.85
344.886	20.99
345.099	115.2
345.311	78.33
345.523	74.24
345.735	-11.78
345.947	66.05
346.159	59.9
346.371	68.09
346.583	47.62
346.795	221.69
347.007	41.47
347.219	115.2
347.431	59.9
347.643	162.3
347.855	-32.26
348.067	59.9
348.279	-36.35
348.491	66.05
348.703	90.62
348.915	35.33
349.127	4.61
349.339	20.99
349.551	-7.68
349.763	43.52
349.975	96.77
350.187	135.68
350.399	145.92
350.61	64
350.822	18.94
351.034	78.33
351.246	115.2
351.458	6.66
351.669	72.19
351.881	131.58
352.093	94.72
352.305	162.3
352.517	45.57
352.728	135.68
352.94	55.81
353.152	96.77
353.363	12.8
353.575	35.33
353.787	195.07
353.999	2.56
354.21	174.59
354.422	-5.63
354.633	84.48
354.845	-24.06
355.057	115.2
355.268	84.48
355.48	92.67
355.692	-118.27
355.903	141.82
356.115	-30.21
356.326	-155.13
356.538	184.83
356.749	92.67
356.961	143.87
357.172	57.86
357.384	12.8
357.595	236.03
357.807	109.05
358.018	-15.87
358.23	96.77
358.441	125.44
358.653	72.19
358.864	16.9
359.075	12.8
359.287	86.53
359.498	100.86
359.709	117.25
359.921	100.86
360.132	74.24
360.344	37.38
360.555	-3.58
360.766	59.9
360.977	61.95
361.189	90.62
361.4	117.25
361.611	123.39
361.823	102.91
362.034	158.21
362.245	-40.45
362.456	-36.35
362.667	107.01
362.879	-56.83
363.09	29.18
363.301	55.81
363.512	145.92
363.723	18.94
363.935	4.61
364.146	80.38
364.357	31.23
364.568	113.15
364.779	16.9
364.99	186.88
365.201	33.28
365.412	160.25
365.623	18.94
365.834	61.95
366.045	78.33
366.256	98.81
366.467	102.91
366.678	-22.02
366.889	102.91
367.1	20.99
367.311	244.22
367.522	4.61
367.733	35.33
367.944	53.76
368.155	70.14
368.366	61.95
368.577	117.25
368.788	186.88
368.999	51.71
369.209	8.7
369.42	197.12
369.631	215.55
369.842	102.91
370.053	76.29
370.264	102.91
370.474	2.56
370.685	92.67
370.896	53.76
371.107	100.86
371.317	182.78
371.528	66.05
371.739	123.39
371.95	117.25
372.16	66.05
372.371	-87.55
372.582	12.8
372.792	80.38
373.003	86.53
373.214	92.67
373.424	74.24
373.635	23.04
373.846	178.69
374.056	68.09
374.267	0.51
374.477	133.63
374.688	0.51
374.898	49.66
375.109	57.86
375.319	92.67
375.53	170.49
375.74	145.92
375.951	14.85
376.161	96.77
376.372	168.45
376.582	27.14
376.793	113.15
377.003	45.57
377.214	31.23
377.424	98.81
377.635	59.9
377.845	4.61
378.055	113.15
378.266	-3.58
378.476	37.38
378.686	119.29
378.897	68.09
379.107	125.44
379.317	223.74
379.528	33.28
379.738	74.24
379.948	-83.45
380.158	76.29
380.369	86.53
380.579	115.2
380.789	64
380.999	152.06
381.21	102.91
381.42	211.45
381.63	51.71
381.84	109.05
382.05	143.87
382.261	117.25
382.471	182.78
382.681	-17.92
382.891	231.93
383.101	35.33
383.311	-22.02
383.521	-7.68
383.731	72.19
383.941	94.72
384.151	104.96
384.361	88.57
384.571	100.86
384.781	74.24
384.991	160.25
385.201	164.35
385.411	113.15
385.621	96.77
385.831	61.95
386.041	127.49
386.251	45.57
386.461	78.33
386.671	20.99
386.881	117.25
387.091	96.77
387.301	98.81
387.511	23.04
387.72	129.53
387.93	41.47
388.14	-85.5
388.35	111.1
388.56	102.91
388.769	162.3
388.979	41.47
389.189	-7.68
389.399	41.47
389.609	102.91
389.818	102.91
390.028	141.82
390.238	51.71
390.447	-30.21
390.657	49.66
390.867	29.18
391.076	53.76
391.286	129.53
391.496	86.53
391.705	25.09
391.915	156.16
392.125	147.97
392.334	80.38
392.544	84.48
392.753	-1.54
392.963	-13.82
393.172	68.09
393.382	12.8
393.591	250.36
393.801	-42.5
394.01	272.89
394.22	131.58
394.429	90.62
394.639	88.57
394.848	94.72
395.058	92.67
395.267	29.18
395.477	176.64
395.686	39.42
395.895	217.6
396.105	299.52
396.314	74.24
396.524	57.86
396.733	88.57
396.942	178.69
397.152	96.77
397.361	72.19
397.57	4.61
397.78	0.51
397.989	45.57
398.198	197.12
398.407	31.23
398.617	129.53
398.826	20.99
399.035	72.19
399.244	129.53
399.453	117.25
399.663	98.81
399.872	127.49
400.081	-5.63
400.29	158.21
400.499	-93.69
400.708	135.68
400.917	78.33
401.127	74.24
401.336	10.75
401.545	225.79
401.754	207.36
401.963	90.62
402.172	33.28
402.381	4.61
402.59	-17.92
402.799	80.38
403.008	125.44
403.217	90.62
403.426	86.53
403.635	-7.68
403.844	84.48
404.053	-13.82
404.262	25.09
404.471	264.7
404.68	121.34
404.888	88.57
405.097	72.19
405.306	119.29
405.515	57.86
405.724	16.9
405.933	131.58
406.142	141.82
406.35	172.54
406.559	43.52
406.768	127.49
406.977	168.45
407.185	74.24
407.394	129.53
407.603	41.47
407.812	96.77
408.02	160.25
408.229	29.18
408.438	86.53
408.646	-15.87
408.855	55.81
409.064	64
409.272	41.47
409.481	143.87
409.69	4.61
409.898	78.33
410.107	141.82
410.315	129.53
410.524	82.43
410.733	2.56
410.941	74.24
411.15	90.62
411.358	125.44
411.567	193.02
411.775	-17.92
411.984	74.24
412.192	68.09
412.401	45.57
412.609	152.06
412.818	139.77
413.026	115.2
413.234	39.42
413.443	45.57
413.651	33.28
413.86	6.66
414.068	195.07
414.276	201.21
414.485	47.62
414.693	178.69
414.901	190.97
415.11	84.48
415.318	59.9
415.526	20.99
415.734	45.57
415.943	111.1
416.151	219.64
416.359	70.14
416.567	109.05
416.776	84.48
416.984	129.53
417.192	160.25
417.4	-69.12
417.608	23.04
417.817	61.95
418.025	131.58
418.233	164.35
418.441	-17.92
418.649	4.61
418.857	88.57
419.065	104.96
419.273	66.05
419.481	94.72
419.689	57.86
419.897	-40.45
420.105	-34.3
420.313	135.68
420.521	158.21
420.729	190.97
420.937	0.51
421.145	20.99
421.353	94.72
421.561	215.55
421.769	127.49
421.977	86.53
422.185	102.91
422.393	41.47
422.601	203.26
422.809	78.33
423.017	92.67
423.224	109.05
423.432	162.3
423.64	20.99
423.848	174.59
424.056	61.95
424.263	180.73
424.471	104.96
424.679	145.92
424.887	-32.26
425.094	117.25
425.302	197.12
425.51	72.19
425.718	113.15
425.925	76.29
426.133	53.76
426.341	233.98
426.548	102.91
426.756	49.66
426.964	135.68
427.171	145.92
427.379	12.8
427.586	104.96
427.794	92.67
428.001	279.04
428.209	113.15
428.417	174.59
428.624	90.62
428.832	246.27
429.039	141.82
429.247	82.43
429.454	133.63
429.662	250.36
429.869	182.78
430.076	176.64
430.284	125.44
430.491	276.99
430.699	162.3
430.906	252.41
431.114	164.35
431.321	182.78
431.528	229.88
431.736	258.56
431.943	188.93
432.15	227.84
432.358	266.75
432.565	365.05
432.772	102.91
432.979	328.19
433.187	51.71
433.394	279.04
433.601	190.97
433.808	270.84
434.016	328.19
434.223	229.88
434.43	258.56
434.637	324.09
434.844	297.47
435.052	332.28
435.259	322.04
435.466	344.57
435.673	346.62
435.88	406.01
436.087	449.02
436.294	436.73
436.501	444.92
436.708	389.63
436.915	422.39
437.122	530.94
437.329	381.43
437.537	365.05
437.743	467.45
437.95	512.5
438.157	518.65
438.364	530.94
438.571	512.5
438.778	657.91
438.985	604.66
439.192	584.18
439.399	567.8
439.606	645.62
439.813	702.97
440.02	752.12
440.227	821.75
440.433	752.12
440.64	809.46
440.847	745.97
441.054	752.12
441.261	952.82
441.467	977.39
441.674	834.04
441.881	1026.54
442.088	899.57
442.294	940.53
442.501	1018.35
442.708	1073.65
442.914	1042.93
443.121	1157.61
443.328	1135.09
443.534	1243.63
443.741	1282.54
443.948	1077.74
444.154	1380.84
444.361	1497.58
444.568	1391.08
444.774	1382.89
444.981	1444.33
445.187	1692.13
445.394	1655.27
445.6	1511.91
445.807	1819.11
446.013	1636.84
446.22	1681.89
446.426	1884.64
446.633	1950.18
446.839	2142.69
447.046	1976.8
447.252	2245.09
447.459	2216.41
447.665	2144.74
447.871	2353.63
448.078	2572.76
448.284	2535.9
448.491	2695.64
448.697	2755.03
448.903	2922.96
449.11	2959.83
449.316	3111.38
449.522	3203.54
449.728	3281.36
449.935	3461.58
450.141	3463.63
450.347	3533.26
450.553	3580.36
450.76	3715.53
450.966	3920.32
451.172	3998.15
451.378	4356.54
451.584	4325.82
451.791	4481.47
451.997	4766.14
452.203	4706.74
452.409	5077.43
452.615	5278.13
452.821	5140.91
453.027	5140.91
453.233	5843.37
453.44	5757.35
453.646	5927.33
453.852	6418.85
454.058	6529.44
454.264	6695.32
454.47	7154.07
454.676	7311.76
454.882	7852.42
455.088	7596.43
455.294	8065.41
455.5	8259.97
455.705	8851.83
455.911	8741.24
456.117	9019.77
456.323	9546.09
456.529	9462.13
456.735	10156.39
456.941	10631.52
457.147	10864.99
457.352	11223.38
457.558	11501.9
457.764	12095.82
457.97	12720.45
458.176	13080.89
458.381	13705.52
458.587	13719.85
458.793	14739.74
458.999	14686.5
459.204	16484.61
459.41	16916.73
459.616	16703.75
459.821	17780.98
460.027	18546.92
460.233	19343.58
460.438	19507.41
460.644	20687.04
460.85	20756.68
461.055	21547.19
461.261	22692.01
461.466	22024.37
461.672	22517.93
461.878	25299.07
462.083	24893.57
462.289	25536.63
462.494	26384.49
462.7	26763.37
462.905	27250.78
463.111	29452.35
463.316	30644.27
463.522	31103.01
463.727	32088.09
463.932	33257.48
464.138	34332.66
464.343	36261.85
464.549	36134.87
464.754	38565.81
464.959	39616.42
465.165	40439.7
465.37	40128.41
465.575	39778.21
465.781	42471.29
465.986	43738.98
466.191	43253.61
466.397	43511.66
466.602	42448.76
466.807	44889.94
467.012	45856.58
467.218	46266.17
467.423	46640.95
467.628	47714.09
467.833	50093.83
468.038	49311.5
468.244	48308
