Data from USB4F104151__108__10-36-14-322.txt Node

Date: Wed Feb 26 10:36:14 EST 2025
User: louis
Spectrometer: USB4F10415
Trigger mode: 4
Integration Time (sec): 1.000000E-1
Scans to average: 1
Electric dark correction enabled: true
Nonlinearity correction enabled: false
Boxcar width: 0
XAxis mode: Wavelengths
Number of Pixels in Spectrum: 3648
>>>>>Begin Spectral Data<<<<<
178.204	-416.93
178.424	-416.93
178.644	-416.93
178.864	-388.26
179.084	-378.02
179.304	-27.82
179.524	-48.3
179.744	-11.43
179.964	45.91
180.184	37.72
180.404	50
180.624	-46.25
180.844	-13.48
181.064	-72.87
181.283	33.62
181.503	-33.96
181.723	86.87
181.943	-150.7
182.163	215.89
182.383	-40.11
182.602	70.48
182.822	199.51
183.042	54.1
183.262	-19.63
183.482	47.96
183.701	13.14
183.921	74.58
184.141	-13.48
184.361	33.62
184.58	39.76
184.8	60.24
185.02	17.24
185.239	82.77
185.459	162.64
185.679	246.61
185.898	-50.35
186.118	33.62
186.338	95.06
186.557	56.15
186.777	2.9
186.997	-3.24
187.216	68.44
187.436	189.27
187.655	131.92
187.875	64.34
188.095	-7.34
188.314	64.34
188.534	115.54
188.753	35.67
188.973	125.78
189.192	228.18
189.412	29.52
189.631	72.53
189.851	45.91
190.07	185.17
190.29	-64.68
190.509	-9.39
190.729	41.81
190.948	66.39
191.168	254.8
191.387	99.16
191.607	70.48
191.826	74.58
192.045	107.35
192.265	66.39
192.484	113.49
192.704	47.96
192.923	-11.43
193.142	162.64
193.362	107.35
193.581	156.5
193.8	70.48
194.02	97.11
194.239	45.91
194.458	50
194.678	9.05
194.897	45.91
195.116	103.25
195.335	66.39
195.555	47.96
195.774	-76.97
195.993	156.5
196.212	39.76
196.432	29.52
196.651	2.9
196.87	58.2
197.089	195.41
197.308	117.59
197.528	121.68
197.747	-21.67
197.966	82.77
198.185	140.12
198.404	-38.06
198.623	148.31
198.842	117.59
199.062	140.12
199.281	144.21
199.5	74.58
199.719	123.73
199.938	133.97
200.157	125.78
200.376	88.92
200.595	105.3
200.814	58.2
201.033	23.38
201.252	123.73
201.471	72.53
201.69	60.24
201.909	2.9
202.128	101.2
202.347	125.78
202.566	62.29
202.785	-76.97
203.004	58.2
203.223	252.75
203.442	47.96
203.661	4.95
203.879	76.63
204.098	224.08
204.317	4.95
204.536	152.4
204.755	95.06
204.974	17.24
205.193	72.53
205.411	138.07
205.63	82.77
205.849	78.68
206.068	21.33
206.287	23.38
206.505	90.96
206.724	21.33
206.943	-5.29
207.162	2.9
207.381	148.31
207.599	-64.68
207.818	66.39
208.037	-27.82
208.255	99.16
208.474	-29.87
208.693	101.2
208.911	-13.48
209.13	131.92
209.349	88.92
209.567	0.85
209.786	207.7
210.005	105.3
210.223	70.48
210.442	-89.26
210.661	7
210.879	127.83
211.098	9.05
211.316	84.82
211.535	29.52
211.753	109.4
211.972	131.92
212.191	37.72
212.409	66.39
212.628	82.77
212.846	17.24
213.065	25.43
213.283	111.44
213.502	13.14
213.72	70.48
213.938	62.29
214.157	62.29
214.375	72.53
214.594	27.48
214.812	148.31
215.031	19.29
215.249	23.38
215.467	54.1
215.686	62.29
215.904	52.05
216.122	9.05
216.341	125.78
216.559	101.2
216.778	187.22
216.996	136.02
217.214	23.38
217.432	7
217.651	-25.77
217.869	31.57
218.087	103.25
218.306	4.95
218.524	-3.24
218.742	-7.34
218.96	95.06
219.179	50
219.397	56.15
219.615	226.13
219.833	109.4
220.051	17.24
220.27	172.88
220.488	113.49
220.706	88.92
220.924	-42.15
221.142	-58.54
221.36	17.24
221.578	64.34
221.796	107.35
222.015	66.39
222.233	4.95
222.451	123.73
222.669	-27.82
222.887	113.49
223.105	39.76
223.323	15.19
223.541	-27.82
223.759	54.1
223.977	-1.19
224.195	168.79
224.413	35.67
224.631	68.44
224.849	47.96
225.067	215.89
225.285	33.62
225.503	-33.96
225.721	-38.06
225.939	74.58
226.157	47.96
226.375	254.8
226.592	52.05
226.81	27.48
227.028	70.48
227.246	74.58
227.464	109.4
227.682	164.69
227.9	58.2
228.117	160.59
228.335	123.73
228.553	21.33
228.771	-46.25
228.989	19.29
229.206	45.91
229.424	60.24
229.642	43.86
229.86	-54.44
230.077	152.4
230.295	80.72
230.513	129.88
230.731	56.15
230.948	115.54
231.166	236.37
231.384	37.72
231.601	41.81
231.819	230.23
232.037	2.9
232.254	9.05
232.472	23.38
232.689	70.48
232.907	140.12
233.125	21.33
233.342	-13.48
233.56	33.62
233.777	74.58
233.995	29.52
234.213	82.77
234.43	29.52
234.648	76.63
234.865	-5.29
235.083	70.48
235.3	13.14
235.518	123.73
235.735	156.5
235.953	109.4
236.17	62.29
236.388	-3.24
236.605	21.33
236.822	129.88
237.04	99.16
237.257	45.91
237.475	-38.06
237.692	29.52
237.909	158.55
238.127	9.05
238.344	97.11
238.562	-9.39
238.779	23.38
238.996	-3.24
239.214	123.73
239.431	84.82
239.648	99.16
239.865	93.01
240.083	123.73
240.3	52.05
240.517	-5.29
240.735	74.58
240.952	70.48
241.169	97.11
241.386	68.44
241.603	13.14
241.821	117.59
242.038	156.5
242.255	129.88
242.472	4.95
242.689	78.68
242.907	93.01
243.124	86.87
243.341	21.33
243.558	-101.55
243.775	-66.73
243.992	-87.21
244.209	113.49
244.426	129.88
244.643	84.82
244.86	-1.19
245.078	72.53
245.295	25.43
245.512	0.85
245.729	93.01
245.946	121.68
246.163	136.02
246.38	2.9
246.597	86.87
246.814	31.57
247.031	17.24
247.248	7
247.464	115.54
247.681	64.34
247.898	129.88
248.115	60.24
248.332	-38.06
248.549	168.79
248.766	238.42
248.983	101.2
249.2	107.35
249.417	162.64
249.633	33.62
249.85	21.33
250.067	52.05
250.284	70.48
250.501	11.09
250.717	140.12
250.934	23.38
251.151	90.96
251.368	160.59
251.585	33.62
251.801	47.96
252.018	15.19
252.235	113.49
252.451	-17.58
252.668	4.95
252.885	140.12
253.102	115.54
253.318	27.48
253.535	33.62
253.752	-5.29
253.968	99.16
254.185	-83.11
254.401	111.44
254.618	25.43
254.835	54.1
255.051	142.16
255.268	129.88
255.484	86.87
255.701	45.91
255.917	117.59
256.134	-7.34
256.351	39.76
256.567	11.09
256.784	68.44
257	-62.63
257.217	113.49
257.433	115.54
257.65	62.29
257.866	213.84
258.082	0.85
258.299	9.05
258.515	43.86
258.732	21.33
258.948	-87.21
259.165	76.63
259.381	86.87
259.597	179.03
259.814	52.05
260.03	-44.2
260.246	52.05
260.463	138.07
260.679	195.41
260.895	125.78
261.112	170.83
261.328	72.53
261.544	25.43
261.761	172.88
261.977	-19.63
262.193	-38.06
262.409	164.69
262.626	62.29
262.842	39.76
263.058	29.52
263.274	82.77
263.49	121.68
263.707	154.45
263.923	125.78
264.139	-83.11
264.355	68.44
264.571	95.06
264.787	72.53
265.004	86.87
265.22	25.43
265.436	-23.72
265.652	52.05
265.868	-27.82
266.084	-3.24
266.3	50
266.516	-19.63
266.732	50
266.948	17.24
267.164	23.38
267.38	111.44
267.596	113.49
267.812	191.31
268.028	64.34
268.244	19.29
268.46	-15.53
268.676	47.96
268.892	76.63
269.108	-52.39
269.324	11.09
269.54	-15.53
269.756	142.16
269.972	-72.87
270.188	82.77
270.403	-38.06
270.619	-23.72
270.835	111.44
271.051	125.78
271.267	45.91
271.483	-15.53
271.698	215.89
271.914	68.44
272.13	-11.43
272.346	-15.53
272.562	25.43
272.777	121.68
272.993	64.34
273.209	78.68
273.425	86.87
273.64	2.9
273.856	80.72
274.072	-48.3
274.287	27.48
274.503	105.3
274.719	95.06
274.934	9.05
275.15	-23.72
275.366	-85.16
275.581	-33.96
275.797	84.82
276.012	93.01
276.228	-17.58
276.444	25.43
276.659	123.73
276.875	-52.39
277.09	41.81
277.306	19.29
277.521	84.82
277.737	13.14
277.952	74.58
278.168	29.52
278.383	121.68
278.599	29.52
278.814	136.02
279.03	52.05
279.245	138.07
279.461	70.48
279.676	160.59
279.892	-81.07
280.107	-21.67
280.322	-42.15
280.538	7
280.753	62.29
280.969	107.35
281.184	93.01
281.399	154.45
281.615	103.25
281.83	74.58
282.045	-31.91
282.26	45.91
282.476	107.35
282.691	109.4
282.906	99.16
283.122	84.82
283.337	-54.44
283.552	99.16
283.767	0.85
283.983	35.67
284.198	68.44
284.413	72.53
284.628	-21.67
284.843	105.3
285.058	105.3
285.274	-19.63
285.489	33.62
285.704	152.4
285.919	13.14
286.134	-25.77
286.349	29.52
286.564	4.95
286.779	123.73
286.995	2.9
287.21	-105.64
287.425	82.77
287.64	-19.63
287.855	90.96
288.07	-23.72
288.285	154.45
288.5	50
288.715	82.77
288.93	58.2
289.145	27.48
289.36	97.11
289.575	23.38
289.79	111.44
290.004	7
290.219	125.78
290.434	-40.11
290.649	-9.39
290.864	25.43
291.079	-21.67
291.294	117.59
291.509	70.48
291.724	50
291.938	99.16
292.153	111.44
292.368	78.68
292.583	52.05
292.798	90.96
293.012	56.15
293.227	66.39
293.442	54.1
293.657	37.72
293.871	172.88
294.086	78.68
294.301	215.89
294.516	111.44
294.73	74.58
294.945	-27.82
295.16	64.34
295.374	121.68
295.589	86.87
295.804	-58.54
296.018	7
296.233	101.2
296.447	47.96
296.662	33.62
296.877	176.98
297.091	99.16
297.306	54.1
297.52	17.24
297.735	125.78
297.949	93.01
298.164	9.05
298.378	144.21
298.593	-42.15
298.807	4.95
299.022	82.77
299.236	195.41
299.451	23.38
299.665	19.29
299.88	0.85
300.094	160.59
300.309	45.91
300.523	68.44
300.737	-3.24
300.952	76.63
301.166	74.58
301.381	72.53
301.595	31.57
301.809	41.81
302.024	-29.87
302.238	-25.77
302.452	144.21
302.667	66.39
302.881	144.21
303.095	166.74
303.309	76.63
303.524	-13.48
303.738	76.63
303.952	21.33
304.166	45.91
304.381	-50.35
304.595	191.31
304.809	-107.69
305.023	82.77
305.237	33.62
305.452	58.2
305.666	152.4
305.88	54.1
306.094	54.1
306.308	41.81
306.522	93.01
306.736	109.4
306.95	105.3
307.164	23.38
307.379	-1.19
307.593	187.22
307.807	119.64
308.021	84.82
308.235	54.1
308.449	-48.3
308.663	-11.43
308.877	222.03
309.091	68.44
309.305	125.78
309.519	-93.35
309.733	82.77
309.947	-46.25
310.161	111.44
310.374	82.77
310.588	156.5
310.802	-1.19
311.016	15.19
311.23	50
311.444	-3.24
311.658	13.14
311.872	123.73
312.085	162.64
312.299	152.4
312.513	183.12
312.727	0.85
312.941	-1.19
313.154	25.43
313.368	76.63
313.582	31.57
313.796	82.77
314.009	7
314.223	144.21
314.437	76.63
314.651	138.07
314.864	25.43
315.078	2.9
315.292	-27.82
315.505	37.72
315.719	107.35
315.933	72.53
316.146	29.52
316.36	-7.34
316.573	160.59
316.787	56.15
317.001	76.63
317.214	21.33
317.428	80.72
317.641	-40.11
317.855	50
318.068	29.52
318.282	68.44
318.495	146.26
318.709	50
318.922	158.55
319.136	136.02
319.349	176.98
319.563	39.76
319.776	82.77
319.99	0.85
320.203	103.25
320.417	107.35
320.63	136.02
320.843	123.73
321.057	-17.58
321.27	72.53
321.483	152.4
321.697	142.16
321.91	80.72
322.124	146.26
322.337	103.25
322.55	99.16
322.763	84.82
322.977	45.91
323.19	-9.39
323.403	74.58
323.617	144.21
323.83	148.31
324.043	70.48
324.256	-9.39
324.469	-27.82
324.683	168.79
324.896	70.48
325.109	17.24
325.322	-5.29
325.535	29.52
325.748	68.44
325.962	64.34
326.175	9.05
326.388	11.09
326.601	109.4
326.814	23.38
327.027	101.2
327.24	66.39
327.453	-97.45
327.666	99.16
327.879	209.75
328.092	111.44
328.305	146.26
328.518	-7.34
328.731	9.05
328.944	41.81
329.157	154.45
329.37	107.35
329.583	238.42
329.796	129.88
330.009	-46.25
330.222	140.12
330.435	125.78
330.648	66.39
330.861	80.72
331.073	68.44
331.286	119.64
331.499	45.91
331.712	-54.44
331.925	23.38
332.138	66.39
332.35	105.3
332.563	-11.43
332.776	150.36
332.989	-7.34
333.202	-56.49
333.414	88.92
333.627	78.68
333.84	58.2
334.053	146.26
334.265	19.29
334.478	76.63
334.691	47.96
334.903	58.2
335.116	15.19
335.329	33.62
335.541	68.44
335.754	123.73
335.966	21.33
336.179	88.92
336.392	4.95
336.604	41.81
336.817	97.11
337.029	45.91
337.242	56.15
337.454	119.64
337.667	88.92
337.88	138.07
338.092	142.16
338.305	45.91
338.517	-7.34
338.729	121.68
338.942	72.53
339.154	-17.58
339.367	0.85
339.579	115.54
339.792	-44.2
340.004	50
340.217	78.68
340.429	54.1
340.641	-58.54
340.854	-44.2
341.066	37.72
341.278	111.44
341.491	140.12
341.703	25.43
341.915	-44.2
342.128	113.49
342.34	105.3
342.552	-40.11
342.764	35.67
342.977	62.29
343.189	127.83
343.401	29.52
343.613	-40.11
343.826	27.48
344.038	-13.48
344.25	-7.34
344.462	43.86
344.674	95.06
344.886	9.05
345.099	35.67
345.311	45.91
345.523	31.57
345.735	25.43
345.947	84.82
346.159	-7.34
346.371	2.9
346.583	121.68
346.795	244.56
347.007	21.33
347.219	82.77
347.431	80.72
347.643	105.3
347.855	78.68
348.067	54.1
348.279	-31.91
348.491	86.87
348.703	76.63
348.915	76.63
349.127	31.57
349.339	72.53
349.551	-11.43
349.763	115.54
349.975	47.96
350.187	62.29
350.399	86.87
350.61	56.15
350.822	39.76
351.034	101.2
351.246	56.15
351.458	95.06
351.669	86.87
351.881	111.44
352.093	95.06
352.305	148.31
352.517	76.63
352.728	199.51
352.94	111.44
353.152	43.86
353.363	-7.34
353.575	60.24
353.787	117.59
353.999	136.02
354.21	103.25
354.422	-25.77
354.633	54.1
354.845	33.62
355.057	82.77
355.268	62.29
355.48	119.64
355.692	37.72
355.903	-1.19
356.115	-33.96
356.326	-13.48
356.538	185.17
356.749	72.53
356.961	172.88
357.172	25.43
357.384	19.29
357.595	199.51
357.807	-19.63
358.018	66.39
358.23	64.34
358.441	199.51
358.653	70.48
358.864	-13.48
359.075	23.38
359.287	88.92
359.498	129.88
359.709	133.97
359.921	37.72
360.132	97.11
360.344	97.11
360.555	64.34
360.766	45.91
360.977	2.9
361.189	158.55
361.4	21.33
361.611	164.69
361.823	115.54
362.034	33.62
362.245	35.67
362.456	90.96
362.667	90.96
362.879	-31.91
363.09	93.01
363.301	103.25
363.512	54.1
363.723	15.19
363.935	23.38
364.146	123.73
364.357	35.67
364.568	80.72
364.779	-21.67
364.99	154.45
365.201	-66.73
365.412	150.36
365.623	21.33
365.834	113.49
366.045	-25.77
366.256	103.25
366.467	33.62
366.678	66.39
366.889	58.2
367.1	41.81
367.311	82.77
367.522	15.19
367.733	72.53
367.944	90.96
368.155	-15.53
368.366	76.63
368.577	150.36
368.788	119.64
368.999	-44.2
369.209	19.29
369.42	213.84
369.631	252.75
369.842	154.45
370.053	41.81
370.264	121.68
370.474	29.52
370.685	41.81
370.896	84.82
371.107	121.68
371.317	7
371.528	21.33
371.739	68.44
371.95	90.96
372.16	90.96
372.371	-54.44
372.582	56.15
372.792	127.83
373.003	78.68
373.214	54.1
373.424	133.97
373.635	-66.73
373.846	162.64
374.056	37.72
374.267	82.77
374.477	86.87
374.688	41.81
374.898	101.2
375.109	54.1
375.319	103.25
375.53	121.68
375.74	68.44
375.951	47.96
376.161	115.54
376.372	95.06
376.582	25.43
376.793	115.54
377.003	-48.3
377.214	35.67
377.424	50
377.635	66.39
377.845	23.38
378.055	209.75
378.266	-50.35
378.476	47.96
378.686	80.72
378.897	78.68
379.107	103.25
379.317	-29.87
379.528	66.39
379.738	109.4
379.948	62.29
380.158	125.78
380.369	23.38
380.579	66.39
380.789	74.58
380.999	138.07
381.21	117.59
381.42	250.71
381.63	33.62
381.84	70.48
382.05	109.4
382.261	193.36
382.471	162.64
382.681	39.76
382.891	131.92
383.101	80.72
383.311	70.48
383.521	50
383.731	21.33
383.941	66.39
384.151	90.96
384.361	23.38
384.571	60.24
384.781	93.01
384.991	199.51
385.201	205.65
385.411	154.45
385.621	99.16
385.831	117.59
386.041	43.86
386.251	115.54
386.461	113.49
386.671	4.95
386.881	90.96
387.091	105.3
387.301	86.87
387.511	56.15
387.72	76.63
387.93	150.36
388.14	-54.44
388.35	21.33
388.56	203.6
388.769	146.26
388.979	84.82
389.189	-9.39
389.399	60.24
389.609	95.06
389.818	109.4
390.028	119.64
390.238	115.54
390.447	-64.68
390.657	88.92
390.867	29.52
391.076	-52.39
391.286	78.68
391.496	41.81
391.705	70.48
391.915	123.73
392.125	133.97
392.334	45.91
392.544	179.03
392.753	131.92
392.963	47.96
393.172	56.15
393.382	9.05
393.591	170.83
393.801	9.05
394.01	166.74
394.22	29.52
394.429	90.96
394.639	78.68
394.848	39.76
395.058	52.05
395.267	25.43
395.477	107.35
395.686	17.24
395.895	158.55
396.105	181.07
396.314	70.48
396.524	72.53
396.733	-25.77
396.942	115.54
397.152	39.76
397.361	119.64
397.57	70.48
397.78	54.1
397.989	47.96
398.198	131.92
398.407	21.33
398.617	133.97
398.826	70.48
399.035	68.44
399.244	160.59
399.453	80.72
399.663	11.09
399.872	72.53
400.081	-25.77
400.29	107.35
400.499	45.91
400.708	88.92
400.917	25.43
401.127	43.86
401.336	4.95
401.545	189.27
401.754	185.17
401.963	164.69
402.172	-52.39
402.381	21.33
402.59	13.14
402.799	11.09
403.008	140.12
403.217	101.2
403.426	107.35
403.635	15.19
403.844	-11.43
404.053	37.72
404.262	29.52
404.471	113.49
404.68	74.58
404.888	95.06
405.097	13.14
405.306	105.3
405.515	72.53
405.724	11.09
405.933	129.88
406.142	74.58
406.35	181.07
406.559	17.24
406.768	43.86
406.977	205.65
407.185	41.81
407.394	41.81
407.603	54.1
407.812	146.26
408.02	164.69
408.229	35.67
408.438	84.82
408.646	-113.83
408.855	-7.34
409.064	88.92
409.272	109.4
409.481	95.06
409.69	41.81
409.898	4.95
410.107	72.53
410.315	133.97
410.524	21.33
410.733	113.49
410.941	64.34
411.15	105.3
411.358	142.16
411.567	101.2
411.775	39.76
411.984	45.91
412.192	181.07
412.401	90.96
412.609	258.9
412.818	107.35
413.026	148.31
413.234	19.29
413.443	72.53
413.651	-64.68
413.86	127.83
414.068	176.98
414.276	183.12
414.485	84.82
414.693	176.98
414.901	246.61
415.11	129.88
415.318	23.38
415.526	97.11
415.734	162.64
415.943	105.3
416.151	211.79
416.359	2.9
416.567	2.9
416.776	148.31
416.984	179.03
417.192	156.5
417.4	39.76
417.608	70.48
417.817	-23.72
418.025	162.64
418.233	156.5
418.441	23.38
418.649	19.29
418.857	43.86
419.065	160.59
419.273	52.05
419.481	68.44
419.689	68.44
419.897	11.09
420.105	25.43
420.313	156.5
420.521	170.83
420.729	215.89
420.937	-9.39
421.145	-50.35
421.353	195.41
421.561	144.21
421.769	119.64
421.977	-44.2
422.185	162.64
422.393	80.72
422.601	160.59
422.809	99.16
423.017	99.16
423.224	88.92
423.432	140.12
423.64	88.92
423.848	164.69
424.056	31.57
424.263	131.92
424.471	9.05
424.679	193.36
424.887	25.43
425.094	240.47
425.302	154.45
425.51	62.29
425.718	226.13
425.925	144.21
426.133	66.39
426.341	240.47
426.548	66.39
426.756	99.16
426.964	144.21
427.171	66.39
427.379	142.16
427.586	148.31
427.794	107.35
428.001	131.92
428.209	148.31
428.417	156.5
428.624	146.26
428.832	109.4
429.039	78.68
429.247	113.49
429.454	70.48
429.662	228.18
429.869	152.4
430.076	201.55
430.284	168.79
430.491	234.32
430.699	148.31
430.906	281.43
431.114	166.74
431.321	191.31
431.528	144.21
431.736	215.89
431.943	150.36
432.15	248.66
432.358	170.83
432.565	275.28
432.772	86.87
432.979	271.19
433.187	174.93
433.394	275.28
433.601	158.55
433.808	256.85
434.016	293.71
434.223	326.48
434.43	197.46
434.637	340.82
434.844	285.52
435.052	179.03
435.259	344.91
435.466	322.38
435.673	240.47
435.88	336.72
436.087	306
436.294	389.97
436.501	355.15
436.708	281.43
436.915	338.77
437.122	463.69
437.329	262.99
437.537	338.77
437.743	334.67
437.95	410.45
438.157	402.26
438.364	344.91
438.571	336.72
438.778	430.93
438.985	463.69
439.192	514.89
439.399	381.78
439.606	510.8
439.813	555.85
440.02	568.14
440.227	686.92
440.433	607.05
440.64	559.95
440.847	521.04
441.054	598.86
441.261	658.25
441.467	547.66
441.674	594.76
441.881	805.71
442.088	625.48
442.294	762.7
442.501	877.38
442.708	811.85
442.914	895.82
443.121	820.04
443.328	846.66
443.534	996.17
443.741	807.75
443.948	813.9
444.154	975.69
444.361	1153.86
444.568	1053.51
444.774	1100.61
444.981	1008.45
445.187	1194.82
445.394	1133.38
445.6	1100.61
445.807	1229.63
446.013	1276.74
446.22	1196.87
446.426	1418.05
446.633	1542.97
446.839	1715
447.046	1432.38
447.252	1723.2
447.459	1715
447.665	1610.56
447.871	1694.52
448.078	1954.62
448.284	1839.93
448.491	2075.45
448.697	2143.03
448.903	2124.6
449.11	2286.39
449.316	2218.8
449.522	2308.91
449.728	2444.08
449.935	2497.33
450.141	2607.92
450.347	2841.39
450.553	2556.72
450.76	2720.56
450.966	2874.15
451.172	2994.98
451.378	3062.57
451.584	3263.27
451.791	3353.38
451.997	3498.78
452.203	3539.74
452.409	3863.32
452.615	4025.11
452.821	3801.88
453.027	3691.29
453.233	4463.38
453.44	4287.25
453.646	4539.15
453.852	4709.13
454.058	4702.99
454.264	4801.29
454.47	5255.94
454.676	5237.51
454.882	5632.77
455.088	5425.92
455.294	5636.86
455.5	6103.8
455.705	6546.16
455.911	6488.82
456.117	6777.58
456.323	6963.95
456.529	6918.89
456.735	7588.58
456.941	7711.46
457.147	8231.64
457.352	8344.28
457.558	8686.29
457.764	9081.55
457.97	9190.09
458.176	9708.23
458.381	10105.53
458.587	10476.21
458.793	10996.4
458.999	10734.26
459.204	12161.69
459.41	12462.74
459.616	12337.82
459.821	13169.29
460.027	13513.35
460.233	14393.98
460.438	14346.87
460.644	15063.66
460.85	15166.06
461.055	15800.93
461.261	16712.28
461.466	16382.56
461.672	16413.27
461.878	18389.56
462.083	18305.6
462.289	18831.93
462.494	19354.16
462.7	19788.33
462.905	19937.83
463.111	21156.37
463.316	22718.97
463.522	22884.86
463.727	23976.42
463.932	24719.84
464.138	25264.6
464.343	26307.01
464.549	26585.54
464.754	28547.49
464.959	29464.98
465.165	29761.94
465.37	29712.78
465.575	29510.04
465.781	31474.04
465.986	32567.65
466.191	32047.47
466.397	32379.24
466.602	31439.22
466.807	33552.73
467.012	33816.91
467.218	34701.64
467.423	34679.11
467.628	35844.4
467.833	37298.46
468.038	36634.92
468.244	36317.48
468.449	37923.09
468.654	36960.55
468.859	37126.43
469.064	37302.56
