Data from USB4F104151__13__10-23-11-349.txt Node

Date: Wed Feb 26 10:23:11 EST 2025
User: louis
Spectrometer: USB4F10415
Trigger mode: 4
Integration Time (sec): 1.000000E-1
Scans to average: 1
Electric dark correction enabled: true
Nonlinearity correction enabled: false
Boxcar width: 0
XAxis mode: Wavelengths
Number of Pixels in Spectrum: 3648
>>>>>Begin Spectral Data<<<<<
178.204	-409.42
178.424	-409.42
178.644	-409.42
178.864	-358.22
179.084	-358.22
179.304	20.65
179.524	-22.36
179.744	-8.02
179.964	55.47
180.184	26.79
180.404	-18.26
180.624	6.31
180.844	16.55
181.064	-46.93
181.283	-12.12
181.503	-22.36
181.723	4.27
181.943	-137.04
182.163	227.5
182.383	-59.22
182.602	90.28
182.822	112.81
183.042	28.84
183.262	20.65
183.482	20.65
183.701	75.95
183.921	84.14
184.141	-69.46
184.361	98.47
184.58	-1.88
184.8	-1.88
185.02	39.08
185.239	77.99
185.459	98.47
185.679	143.53
185.898	-75.6
186.118	22.7
186.338	92.33
186.557	108.71
186.777	-34.64
186.997	-77.65
187.216	73.9
187.436	225.45
187.655	69.8
187.875	108.71
188.095	59.56
188.314	121
188.534	110.76
188.753	34.99
188.973	80.04
189.192	123.05
189.412	43.18
189.631	63.66
189.851	47.27
190.07	147.62
190.29	-42.84
190.509	82.09
190.729	118.95
190.948	139.43
191.168	268.45
191.387	108.71
191.607	-28.5
191.826	69.8
192.045	22.7
192.265	-51.03
192.484	57.51
192.704	65.71
192.923	-24.4
193.142	252.07
193.362	145.58
193.581	100.52
193.8	41.13
194.02	57.51
194.239	98.47
194.458	88.23
194.678	37.03
194.897	69.8
195.116	45.23
195.335	20.65
195.555	14.51
195.774	4.27
195.993	65.71
196.212	34.99
196.432	-14.17
196.651	26.79
196.87	77.99
197.089	268.45
197.308	149.67
197.528	73.9
197.747	2.22
197.966	53.42
198.185	186.54
198.404	63.66
198.623	145.58
198.842	151.72
199.062	149.67
199.281	180.39
199.5	67.75
199.719	80.04
199.938	157.86
200.157	86.19
200.376	24.75
200.595	102.57
200.814	37.03
201.033	-36.69
201.252	131.24
201.471	55.47
201.69	110.76
201.909	47.27
202.128	192.68
202.347	75.95
202.566	57.51
202.785	-40.79
203.004	69.8
203.223	237.74
203.442	71.85
203.661	-20.31
203.879	61.61
204.098	180.39
204.317	-38.74
204.536	143.53
204.755	84.14
204.974	100.52
205.193	-8.02
205.411	133.29
205.63	133.29
205.849	59.56
206.068	-1.88
206.287	-42.84
206.505	118.95
206.724	-10.07
206.943	-30.55
207.162	-46.93
207.381	77.99
207.599	2.22
207.818	22.7
208.037	-75.6
208.255	39.08
208.474	51.37
208.693	131.24
208.911	18.6
209.13	100.52
209.349	118.95
209.567	65.71
209.786	67.75
210.005	63.66
210.223	51.37
210.442	-110.42
210.661	30.89
210.879	32.94
211.098	-67.41
211.316	96.43
211.535	102.57
211.753	82.09
211.972	41.13
212.191	121
212.409	16.55
212.628	16.55
212.846	2.22
213.065	-5.97
213.283	137.38
213.502	92.33
213.72	26.79
213.938	-5.97
214.157	82.09
214.375	63.66
214.594	28.84
214.812	94.38
215.031	80.04
215.249	37.03
215.467	112.81
215.686	-26.45
215.904	55.47
216.122	0.17
216.341	213.16
216.559	47.27
216.778	143.53
216.996	112.81
217.214	12.46
217.432	-28.5
217.651	37.03
217.869	8.36
218.087	61.61
218.306	18.6
218.524	88.23
218.742	112.81
218.96	151.72
219.179	43.18
219.397	24.75
219.615	252.07
219.833	94.38
220.051	-48.98
220.27	121
220.488	141.48
220.706	26.79
220.924	-20.31
221.142	94.38
221.36	133.29
221.578	67.75
221.796	30.89
222.015	65.71
222.233	77.99
222.451	131.24
222.669	80.04
222.887	123.05
223.105	-38.74
223.323	34.99
223.541	39.08
223.759	49.32
223.977	47.27
224.195	133.29
224.413	127.14
224.631	94.38
224.849	43.18
225.067	239.78
225.285	24.75
225.503	-100.18
225.721	-57.17
225.939	55.47
226.157	14.51
226.375	278.69
226.592	-79.7
226.81	125.1
227.028	151.72
227.246	114.86
227.464	67.75
227.682	137.38
227.9	88.23
228.117	80.04
228.335	10.41
228.553	24.75
228.771	24.75
228.989	71.85
229.206	57.51
229.424	-18.26
229.642	61.61
229.86	-46.93
230.077	221.35
230.295	69.8
230.513	114.86
230.731	90.28
230.948	192.68
231.166	174.25
231.384	-14.17
231.601	-20.31
231.819	215.21
232.037	22.7
232.254	-130.9
232.472	16.55
232.689	32.94
232.907	18.6
233.125	37.03
233.342	6.31
233.56	49.32
233.777	53.42
233.995	18.6
234.213	139.43
234.43	28.84
234.648	8.36
234.865	-20.31
235.083	106.67
235.3	20.65
235.518	110.76
235.735	217.26
235.953	147.62
236.17	22.7
236.388	12.46
236.605	18.6
236.822	114.86
237.04	157.86
237.257	47.27
237.475	-28.5
237.692	57.51
237.909	112.81
238.127	-14.17
238.344	84.14
238.562	71.85
238.779	-38.74
238.996	20.65
239.214	20.65
239.431	51.37
239.648	-16.21
239.865	82.09
240.083	43.18
240.3	-36.69
240.517	-75.6
240.735	82.09
240.952	121
241.169	131.24
241.386	102.57
241.603	96.43
241.821	24.75
242.038	98.47
242.255	86.19
242.472	14.51
242.689	61.61
242.907	80.04
243.124	32.94
243.341	20.65
243.558	-10.07
243.775	0.17
243.992	-10.07
244.209	94.38
244.426	182.44
244.643	86.19
244.86	18.6
245.078	98.47
245.295	104.62
245.512	65.71
245.729	49.32
245.946	-5.97
246.163	90.28
246.38	100.52
246.597	80.04
246.814	84.14
247.031	14.51
247.248	67.75
247.464	49.32
247.681	34.99
247.898	65.71
248.115	84.14
248.332	47.27
248.549	116.9
248.766	241.83
248.983	88.23
249.2	108.71
249.417	125.1
249.633	16.55
249.85	100.52
250.067	90.28
250.284	20.65
250.501	143.53
250.717	49.32
250.934	-22.36
251.151	24.75
251.368	8.36
251.585	94.38
251.801	47.27
252.018	12.46
252.235	219.3
252.451	-48.98
252.668	2.22
252.885	217.26
253.102	-24.4
253.318	-3.93
253.535	28.84
253.752	-87.89
253.968	8.36
254.185	-44.88
254.401	-10.07
254.618	161.96
254.835	16.55
255.051	123.05
255.268	92.33
255.484	-12.12
255.701	26.79
255.917	71.85
256.134	-38.74
256.351	32.94
256.567	-53.08
256.784	16.55
257	-46.93
257.217	145.58
257.433	18.6
257.65	-18.26
257.866	121
258.082	-30.55
258.299	-40.79
258.515	82.09
258.732	-8.02
258.948	-3.93
259.165	65.71
259.381	-65.36
259.597	53.42
259.814	28.84
260.03	112.81
260.246	57.51
260.463	178.34
260.679	172.2
260.895	63.66
261.112	57.51
261.328	92.33
261.544	30.89
261.761	254.12
261.977	65.71
262.193	-51.03
262.409	159.91
262.626	82.09
262.842	94.38
263.058	10.41
263.274	75.95
263.49	28.84
263.707	135.34
263.923	139.43
264.139	-40.79
264.355	69.8
264.571	157.86
264.787	98.47
265.004	192.68
265.22	49.32
265.436	30.89
265.652	-1.88
265.868	102.57
266.084	-34.64
266.3	125.1
266.516	43.18
266.732	137.38
266.948	32.94
267.164	-51.03
267.38	96.43
267.596	118.95
267.812	213.16
268.028	94.38
268.244	34.99
268.46	49.32
268.676	43.18
268.892	45.23
269.108	28.84
269.324	10.41
269.54	-26.45
269.756	8.36
269.972	-67.41
270.188	-57.17
270.403	-24.4
270.619	-8.02
270.835	129.19
271.051	90.28
271.267	51.37
271.483	20.65
271.698	155.82
271.914	65.71
272.13	59.56
272.346	2.22
272.562	149.67
272.777	141.48
272.993	61.61
273.209	-24.4
273.425	104.62
273.64	12.46
273.856	59.56
274.072	41.13
274.287	8.36
274.503	143.53
274.719	92.33
274.934	69.8
275.15	-26.45
275.366	32.94
275.581	-22.36
275.797	51.37
276.012	-5.97
276.228	18.6
276.444	88.23
276.659	131.24
276.875	16.55
277.09	57.51
277.306	22.7
277.521	98.47
277.737	18.6
277.952	159.91
278.168	57.51
278.383	69.8
278.599	92.33
278.814	149.67
279.03	2.22
279.245	123.05
279.461	110.76
279.676	149.67
279.892	-130.9
280.107	-55.12
280.322	-40.79
280.538	53.42
280.753	-34.64
280.969	84.14
281.184	45.23
281.399	202.92
281.615	34.99
281.83	61.61
282.045	-40.79
282.26	-30.55
282.476	0.17
282.691	114.86
282.906	108.71
283.122	6.31
283.337	10.41
283.552	53.42
283.767	-53.08
283.983	100.52
284.198	82.09
284.413	51.37
284.628	-38.74
284.843	71.85
285.058	151.72
285.274	0.17
285.489	49.32
285.704	94.38
285.919	53.42
286.134	100.52
286.349	92.33
286.564	6.31
286.779	114.86
286.995	84.14
287.21	-69.46
287.425	65.71
287.64	0.17
287.855	67.75
288.07	-34.64
288.285	108.71
288.5	118.95
288.715	123.05
288.93	80.04
289.145	73.9
289.36	135.34
289.575	55.47
289.79	34.99
290.004	41.13
290.219	127.14
290.434	18.6
290.649	-53.08
290.864	-34.64
291.079	61.61
291.294	43.18
291.509	26.79
291.724	67.75
291.938	22.7
292.153	37.03
292.368	-1.88
292.583	49.32
292.798	73.9
293.012	71.85
293.227	82.09
293.442	-3.93
293.657	98.47
293.871	108.71
294.086	55.47
294.301	151.72
294.516	106.67
294.73	104.62
294.945	-32.6
295.16	47.27
295.374	170.15
295.589	96.43
295.804	59.56
296.018	18.6
296.233	155.82
296.447	39.08
296.662	16.55
296.877	121
297.091	14.51
297.306	4.27
297.52	34.99
297.735	77.99
297.949	73.9
298.164	53.42
298.378	75.95
298.593	-81.75
298.807	18.6
299.022	-16.21
299.236	139.43
299.451	39.08
299.665	26.79
299.88	20.65
300.094	135.34
300.309	123.05
300.523	61.61
300.737	20.65
300.952	104.62
301.166	77.99
301.381	-104.28
301.595	6.31
301.809	59.56
302.024	43.18
302.238	-40.79
302.452	141.48
302.667	61.61
302.881	153.77
303.095	86.19
303.309	65.71
303.524	59.56
303.738	30.89
303.952	14.51
304.166	71.85
304.381	-75.6
304.595	147.62
304.809	2.22
305.023	90.28
305.237	37.03
305.452	63.66
305.666	57.51
305.88	92.33
306.094	90.28
306.308	110.76
306.522	55.47
306.736	30.89
306.95	80.04
307.164	-22.36
307.379	32.94
307.593	151.72
307.807	153.77
308.021	84.14
308.235	114.86
308.449	-71.51
308.663	69.8
308.877	157.86
309.091	59.56
309.305	61.61
309.519	-89.94
309.733	192.68
309.947	-42.84
310.161	18.6
310.374	53.42
310.588	57.51
310.802	18.6
311.016	18.6
311.23	32.94
311.444	-3.93
311.658	53.42
311.872	157.86
312.085	143.53
312.299	229.54
312.513	82.09
312.727	-30.55
312.941	61.61
313.154	22.7
313.368	145.58
313.582	94.38
313.796	43.18
314.009	-32.6
314.223	94.38
314.437	114.86
314.651	80.04
314.864	-34.64
315.078	6.31
315.292	26.79
315.505	39.08
315.719	61.61
315.933	106.67
316.146	-22.36
316.36	-8.02
316.573	90.28
316.787	92.33
317.001	18.6
317.214	-18.26
317.428	90.28
317.641	-32.6
317.855	24.75
318.068	51.37
318.282	55.47
318.495	137.38
318.709	57.51
318.922	-3.93
319.136	77.99
319.349	139.43
319.563	-48.98
319.776	112.81
319.99	-73.56
320.203	133.29
320.417	55.47
320.63	69.8
320.843	188.58
321.057	22.7
321.27	32.94
321.483	149.67
321.697	233.64
321.91	41.13
322.124	90.28
322.337	75.95
322.55	-8.02
322.763	28.84
322.977	49.32
323.19	18.6
323.403	61.61
323.617	12.46
323.83	63.66
324.043	141.48
324.256	98.47
324.469	4.27
324.683	121
324.896	26.79
325.109	57.51
325.322	-12.12
325.535	133.29
325.748	96.43
325.962	-36.69
326.175	104.62
326.388	73.9
326.601	147.62
326.814	-65.36
327.027	47.27
327.24	159.91
327.453	-118.61
327.666	45.23
327.879	121
328.092	73.9
328.305	69.8
328.518	92.33
328.731	55.47
328.944	49.32
329.157	88.23
329.37	6.31
329.583	319.65
329.796	164.01
330.009	-67.41
330.222	159.91
330.435	75.95
330.648	80.04
330.861	4.27
331.073	43.18
331.286	104.62
331.499	34.99
331.712	-40.79
331.925	90.28
332.138	47.27
332.35	121
332.563	-28.5
332.776	92.33
332.989	-57.17
333.202	12.46
333.414	26.79
333.627	26.79
333.84	49.32
334.053	77.99
334.265	-3.93
334.478	47.27
334.691	168.1
334.903	90.28
335.116	24.75
335.329	47.27
335.541	88.23
335.754	161.96
335.966	28.84
336.179	43.18
336.392	28.84
336.604	55.47
336.817	114.86
337.029	82.09
337.242	71.85
337.454	80.04
337.667	59.56
337.88	170.15
338.092	45.23
338.305	53.42
338.517	2.22
338.729	92.33
338.942	172.2
339.154	-51.03
339.367	-67.41
339.579	57.51
339.792	18.6
340.004	94.38
340.217	10.41
340.429	-20.31
340.641	53.42
340.854	-51.03
341.066	61.61
341.278	127.14
341.491	176.3
341.703	71.85
341.915	-55.12
342.128	116.9
342.34	67.75
342.552	8.36
342.764	47.27
342.977	32.94
343.189	104.62
343.401	24.75
343.613	-44.88
343.826	8.36
344.038	20.65
344.25	37.03
344.462	32.94
344.674	114.86
344.886	26.79
345.099	90.28
345.311	104.62
345.523	32.94
345.735	-67.41
345.947	24.75
346.159	63.66
346.371	32.94
346.583	55.47
346.795	237.74
347.007	28.84
347.219	92.33
347.431	43.18
347.643	237.74
347.855	-22.36
348.067	141.48
348.279	-38.74
348.491	77.99
348.703	110.76
348.915	114.86
349.127	12.46
349.339	94.38
349.551	-30.55
349.763	71.85
349.975	30.89
350.187	125.1
350.399	100.52
350.61	80.04
350.822	6.31
351.034	18.6
351.246	49.32
351.458	114.86
351.669	49.32
351.881	49.32
352.093	135.34
352.305	102.57
352.517	139.43
352.728	131.24
352.94	37.03
353.152	53.42
353.363	-12.12
353.575	143.53
353.787	161.96
353.999	88.23
354.21	133.29
354.422	-71.51
354.633	-10.07
354.845	63.66
355.057	59.56
355.268	71.85
355.48	127.14
355.692	-55.12
355.903	43.18
356.115	-8.02
356.326	-61.27
356.538	47.27
356.749	77.99
356.961	125.1
357.172	39.08
357.384	-24.4
357.595	159.91
357.807	28.84
358.018	-32.6
358.23	61.61
358.441	184.49
358.653	67.75
358.864	53.42
359.075	43.18
359.287	49.32
359.498	168.1
359.709	41.13
359.921	30.89
360.132	151.72
360.344	39.08
360.555	-36.69
360.766	84.14
360.977	-12.12
361.189	174.25
361.4	47.27
361.611	102.57
361.823	88.23
362.034	67.75
362.245	8.36
362.456	94.38
362.667	108.71
362.879	-51.03
363.09	108.71
363.301	141.48
363.512	71.85
363.723	45.23
363.935	-51.03
364.146	125.1
364.357	57.51
364.568	98.47
364.779	-8.02
364.99	100.52
365.201	-30.55
365.412	84.14
365.623	-20.31
365.834	106.67
366.045	143.53
366.256	118.95
366.467	125.1
366.678	32.94
366.889	28.84
367.1	-5.97
367.311	200.87
367.522	73.9
367.733	86.19
367.944	116.9
368.155	43.18
368.366	43.18
368.577	145.58
368.788	147.62
368.999	-53.08
369.209	86.19
369.42	217.26
369.631	241.83
369.842	100.52
370.053	34.99
370.264	172.2
370.474	-46.93
370.685	63.66
370.896	53.42
371.107	84.14
371.317	106.67
371.528	2.22
371.739	143.53
371.95	106.67
372.16	82.09
372.371	-12.12
372.582	32.94
372.792	67.75
373.003	129.19
373.214	135.34
373.424	106.67
373.635	8.36
373.846	108.71
374.056	88.23
374.267	34.99
374.477	0.17
374.688	43.18
374.898	94.38
375.109	59.56
375.319	26.79
375.53	63.66
375.74	92.33
375.951	18.6
376.161	59.56
376.372	129.19
376.582	10.41
376.793	30.89
377.003	-22.36
377.214	-34.64
377.424	127.14
377.635	6.31
377.845	28.84
378.055	145.58
378.266	20.65
378.476	51.37
378.686	59.56
378.897	57.51
379.107	86.19
379.317	112.81
379.528	-34.64
379.738	55.47
379.948	30.89
380.158	69.8
380.369	118.95
380.579	96.43
380.789	112.81
380.999	80.04
381.21	47.27
381.42	268.45
381.63	94.38
381.84	69.8
382.05	30.89
382.261	145.58
382.471	102.57
382.681	2.22
382.891	116.9
383.101	86.19
383.311	57.51
383.521	0.17
383.731	125.1
383.941	133.29
384.151	80.04
384.361	55.47
384.571	51.37
384.781	94.38
384.991	112.81
385.201	211.11
385.411	92.33
385.621	90.28
385.831	55.47
386.041	-34.64
386.251	84.14
386.461	100.52
386.671	34.99
386.881	102.57
387.091	18.6
387.301	102.57
387.511	59.56
387.72	47.27
387.93	121
388.14	-63.32
388.35	123.05
388.56	129.19
388.769	118.95
388.979	57.51
389.189	8.36
389.399	110.76
389.609	28.84
389.818	147.62
390.028	-10.07
390.238	127.14
390.447	-26.45
390.657	28.84
390.867	4.27
391.076	-51.03
391.286	61.61
391.496	37.03
391.705	80.04
391.915	80.04
392.125	135.34
392.334	47.27
392.544	106.67
392.753	65.71
392.963	-30.55
393.172	41.13
393.382	2.22
393.591	256.17
393.801	69.8
394.01	231.59
394.22	116.9
394.429	24.75
394.639	39.08
394.848	71.85
395.058	157.86
395.267	24.75
395.477	170.15
395.686	90.28
395.895	219.3
396.105	213.16
396.314	94.38
396.524	82.09
396.733	57.51
396.942	131.24
397.152	55.47
397.361	143.53
397.57	133.29
397.78	116.9
397.989	116.9
398.198	157.86
398.407	30.89
398.617	37.03
398.826	-10.07
399.035	55.47
399.244	166.06
399.453	88.23
399.663	-8.02
399.872	75.95
400.081	-40.79
400.29	133.29
400.499	16.55
400.708	106.67
400.917	77.99
401.127	24.75
401.336	88.23
401.545	166.06
401.754	168.1
401.963	102.57
402.172	-55.12
402.381	-10.07
402.59	16.55
402.799	90.28
403.008	176.3
403.217	73.9
403.426	147.62
403.635	-3.93
403.844	88.23
404.053	-34.64
404.262	88.23
404.471	207.02
404.68	108.71
404.888	49.32
405.097	51.37
405.306	43.18
405.515	63.66
405.724	45.23
405.933	141.48
406.142	-14.17
406.35	71.85
406.559	14.51
406.768	53.42
406.977	172.2
407.185	127.14
407.394	69.8
407.603	-53.08
407.812	135.34
408.02	159.91
408.229	59.56
408.438	10.41
408.646	-16.21
408.855	82.09
409.064	121
409.272	39.08
409.481	127.14
409.69	-32.6
409.898	-69.46
410.107	84.14
410.315	92.33
410.524	6.31
410.733	94.38
410.941	20.65
411.15	80.04
411.358	82.09
411.567	147.62
411.775	112.81
411.984	100.52
412.192	86.19
412.401	69.8
412.609	194.73
412.818	67.75
413.026	127.14
413.234	10.41
413.443	45.23
413.651	67.75
413.86	67.75
414.068	82.09
414.276	182.44
414.485	39.08
414.693	104.62
414.901	178.34
415.11	67.75
415.318	61.61
415.526	51.37
415.734	178.34
415.943	129.19
416.151	98.47
416.359	102.57
416.567	121
416.776	147.62
416.984	71.85
417.192	168.1
417.4	32.94
417.608	-12.12
417.817	-53.08
418.025	127.14
418.233	202.92
418.441	-22.36
418.649	-79.7
418.857	123.05
419.065	131.24
419.273	16.55
419.481	14.51
419.689	116.9
419.897	127.14
420.105	-46.93
420.313	75.95
420.521	221.35
420.729	110.76
420.937	47.27
421.145	30.89
421.353	143.53
421.561	88.23
421.769	94.38
421.977	110.76
422.185	98.47
422.393	53.42
422.601	139.43
422.809	37.03
423.017	55.47
423.224	12.46
423.432	231.59
423.64	47.27
423.848	137.38
424.056	-8.02
424.263	159.91
424.471	131.24
424.679	102.57
424.887	24.75
425.094	114.86
425.302	59.56
425.51	90.28
425.718	123.05
425.925	98.47
426.133	-5.97
426.341	243.88
426.548	-10.07
426.756	22.7
426.964	145.58
427.171	28.84
427.379	129.19
427.586	96.43
427.794	135.34
428.001	141.48
428.209	22.7
428.417	161.96
428.624	168.1
428.832	168.1
429.039	59.56
429.247	-3.93
429.454	123.05
429.662	178.34
429.869	112.81
430.076	116.9
430.284	67.75
430.491	153.77
430.699	202.92
430.906	161.96
431.114	153.77
431.321	80.04
431.528	155.82
431.736	194.73
431.943	170.15
432.15	178.34
432.358	141.48
432.565	260.26
432.772	-51.03
432.979	180.39
433.187	143.53
433.394	141.48
433.601	125.1
433.808	155.82
434.016	262.31
434.223	231.59
434.43	127.14
434.637	225.45
434.844	270.5
435.052	258.21
435.259	262.31
435.466	252.07
435.673	159.91
435.88	149.67
436.087	305.32
436.294	241.83
436.501	424.1
436.708	237.74
436.915	352.42
437.122	321.7
437.329	278.69
437.537	293.03
437.743	270.5
437.95	407.72
438.157	288.93
438.364	336.04
438.571	342.18
438.778	338.09
438.985	485.54
439.192	493.73
439.399	413.86
439.606	381.09
439.813	549.03
440.02	463.01
440.227	585.89
440.433	485.54
440.64	452.77
440.847	417.96
441.054	454.82
441.261	559.27
441.467	559.27
441.674	579.75
441.881	628.9
442.088	506.02
442.294	716.96
442.501	698.53
442.708	721.06
442.914	700.58
443.121	757.92
443.328	762.02
443.534	882.85
443.741	835.74
443.948	700.58
444.154	872.61
444.361	1061.02
444.568	936.09
444.774	942.24
444.981	862.37
445.187	995.48
445.394	983.2
445.6	1134.75
445.807	1136.79
446.013	1036.44
446.22	1058.97
446.426	1251.48
446.633	1319.06
446.839	1509.52
447.046	1259.67
447.252	1517.72
447.459	1411.22
447.665	1446.04
447.871	1611.92
448.078	1663.12
448.284	1595.54
448.491	1773.71
448.697	1859.73
448.903	1992.84
449.11	1876.11
449.316	1929.36
449.522	2015.37
449.728	2115.72
449.935	2347.14
450.141	2230.41
450.347	2379.91
450.553	2353.29
450.76	2455.69
450.966	2494.6
451.172	2734.21
451.378	2740.35
451.584	3006.59
451.791	3037.31
451.997	3092.6
452.203	3043.45
452.409	3317.88
452.615	3491.96
452.821	3334.26
453.027	3367.03
453.233	3866.74
453.44	3653.75
453.646	3909.74
453.852	4036.72
454.058	4290.67
454.264	4241.51
454.47	4769.89
454.676	4823.14
454.882	5105.76
455.088	4849.76
455.294	5216.35
455.5	5523.54
455.705	5718.1
455.911	5765.2
456.117	5984.34
456.323	6125.65
456.529	6107.21
456.735	6805.57
456.941	6776.9
457.147	7125.05
457.352	7256.12
457.558	7458.87
457.764	8015.92
457.97	8146.99
458.176	8431.66
458.381	8960.03
458.587	9037.86
458.793	9441.31
458.999	9314.33
459.204	10582.03
459.41	11223.04
459.616	10831.88
459.821	11718.65
460.027	12130.29
460.233	12466.16
460.438	12535.79
460.644	13256.67
460.85	13389.79
461.055	14026.71
461.261	14569.42
461.466	14194.64
461.672	14653.39
461.878	16476.08
462.083	16207.8
462.289	16283.57
462.494	16957.35
462.7	17344.42
462.905	17346.47
463.111	18892.68
463.316	19681.15
463.522	20057.98
463.727	20897.64
463.932	21538.66
464.138	22265.69
464.343	23224.14
464.549	23201.61
464.754	24891.18
464.959	25722.66
465.165	26197.79
465.37	25808.67
465.575	26122.01
465.781	27614.98
465.986	28368.63
466.191	28153.6
466.397	28411.64
466.602	27576.07
466.807	29466.35
467.012	29632.23
467.218	30226.14
467.423	30451.42
467.628	31309.52
467.833	32460.48
468.038	31880.9
468.244	31813.32
468.449	32982.71
468.654	32382.65
