Data from USB4F104151__56__10-26-10-330.txt Node

Date: Wed Feb 26 10:26:10 EST 2025
User: louis
Spectrometer: USB4F10415
Trigger mode: 4
Integration Time (sec): 1.000000E-1
Scans to average: 1
Electric dark correction enabled: true
Nonlinearity correction enabled: false
Boxcar width: 0
XAxis mode: Wavelengths
Number of Pixels in Spectrum: 3648
>>>>>Begin Spectral Data<<<<<
178.204	-391.33
178.424	-391.33
178.644	-391.33
178.864	-336.04
179.084	-417.96
179.304	-39.08
179.524	-39.08
179.744	5.97
179.964	28.5
180.184	-2.22
180.404	71.51
180.624	-53.42
180.844	-63.66
181.064	-53.42
181.283	110.42
181.503	-26.79
181.723	61.27
181.943	-47.27
182.163	235.35
182.383	-10.41
182.602	178
182.822	186.19
183.042	118.61
183.262	-69.8
183.482	-12.46
183.701	94.04
183.921	44.88
184.141	-20.65
184.361	110.42
184.58	87.89
184.8	100.18
185.02	53.08
185.239	73.56
185.459	114.52
185.679	108.37
185.898	-127.14
186.118	85.84
186.338	63.32
186.557	122.71
186.777	-26.79
186.997	-6.31
187.216	34.64
187.436	227.15
187.655	122.71
187.875	116.56
188.095	5.97
188.314	137.04
188.534	71.51
188.753	16.21
188.973	53.08
189.192	173.91
189.412	10.07
189.631	81.75
189.851	157.52
190.07	139.09
190.29	-18.6
190.509	-28.84
190.729	16.21
190.948	85.84
191.168	245.59
191.387	55.12
191.607	32.6
191.826	3.93
192.045	100.18
192.265	40.79
192.484	69.46
192.704	55.12
192.923	-94.38
193.142	206.67
193.362	85.84
193.581	110.42
193.8	36.69
194.02	110.42
194.239	24.4
194.458	155.47
194.678	65.36
194.897	1.88
195.116	-4.27
195.335	94.04
195.555	98.13
195.774	-32.94
195.993	135
196.212	16.21
196.432	-45.23
196.651	-51.37
196.87	32.6
197.089	298.83
197.308	118.61
197.528	36.69
197.747	-69.8
197.966	48.98
198.185	178
198.404	3.93
198.623	163.67
198.842	169.81
199.062	120.66
199.281	94.04
199.5	20.31
199.719	100.18
199.938	55.12
200.157	89.94
200.376	116.56
200.595	102.23
200.814	73.56
201.033	-10.41
201.252	171.86
201.471	69.46
201.69	67.41
201.909	-0.17
202.128	83.8
202.347	100.18
202.566	53.08
202.785	-82.09
203.004	26.45
203.223	290.64
203.442	-45.23
203.661	-55.47
203.879	106.32
204.098	126.8
204.317	1.88
204.536	98.13
204.755	40.79
204.974	153.43
205.193	10.07
205.411	204.63
205.63	94.04
205.849	85.84
206.068	24.4
206.287	-18.6
206.505	159.57
206.724	73.56
206.943	42.84
207.162	10.07
207.381	57.17
207.599	155.47
207.818	73.56
208.037	18.26
208.255	-12.46
208.474	40.79
208.693	104.28
208.911	26.45
209.13	124.76
209.349	116.56
209.567	79.7
209.786	163.67
210.005	53.08
210.223	81.75
210.442	-34.99
210.661	79.7
210.879	124.76
211.098	73.56
211.316	91.99
211.535	106.32
211.753	120.66
211.972	38.74
212.191	24.4
212.409	38.74
212.628	73.56
212.846	32.6
213.065	34.64
213.283	122.71
213.502	81.75
213.72	85.84
213.938	-34.99
214.157	51.03
214.375	122.71
214.594	94.04
214.812	112.47
215.031	96.08
215.249	91.99
215.467	26.45
215.686	40.79
215.904	34.64
216.122	20.31
216.341	83.8
216.559	26.45
216.778	135
216.996	202.58
217.214	61.27
217.432	85.84
217.651	-53.42
217.869	159.57
218.087	83.8
218.306	-30.89
218.524	96.08
218.742	14.17
218.96	124.76
219.179	22.36
219.397	102.23
219.615	237.39
219.833	46.93
220.051	-0.17
220.27	24.4
220.488	141.14
220.706	59.22
220.924	61.27
221.142	-47.27
221.36	-6.31
221.578	94.04
221.796	-2.22
222.015	8.02
222.233	85.84
222.451	85.84
222.669	-43.18
222.887	59.22
223.105	-51.37
223.323	32.6
223.541	-75.95
223.759	85.84
223.977	42.84
224.195	276.31
224.413	18.26
224.631	-8.36
224.849	12.12
225.067	231.25
225.285	73.56
225.503	81.75
225.721	-67.75
225.939	65.36
226.157	94.04
226.375	85.84
226.592	-16.55
226.81	42.84
227.028	114.52
227.246	98.13
227.464	38.74
227.682	91.99
227.9	200.53
228.117	34.64
228.335	100.18
228.553	71.51
228.771	96.08
228.989	106.32
229.206	63.32
229.424	-0.17
229.642	-43.18
229.86	-0.17
230.077	132.95
230.295	-30.89
230.513	73.56
230.731	67.41
230.948	274.26
231.166	184.15
231.384	83.8
231.601	34.64
231.819	151.38
232.037	-49.32
232.254	-20.65
232.472	44.88
232.689	-4.27
232.907	32.6
233.125	-22.7
233.342	-0.17
233.56	26.45
233.777	3.93
233.995	22.36
234.213	81.75
234.43	48.98
234.648	89.94
234.865	104.28
235.083	100.18
235.3	44.88
235.518	77.65
235.735	235.35
235.953	77.65
236.17	48.98
236.388	40.79
236.605	12.12
236.822	102.23
237.04	157.52
237.257	-49.32
237.475	5.97
237.692	89.94
237.909	98.13
238.127	-26.79
238.344	28.5
238.562	71.51
238.779	40.79
238.996	-20.65
239.214	114.52
239.431	89.94
239.648	-6.31
239.865	118.61
240.083	106.32
240.3	46.93
240.517	-16.55
240.735	51.03
240.952	126.8
241.169	59.22
241.386	106.32
241.603	75.6
241.821	-4.27
242.038	120.66
242.255	81.75
242.472	-49.32
242.689	145.24
242.907	114.52
243.124	59.22
243.341	48.98
243.558	44.88
243.775	-26.79
243.992	-94.38
244.209	126.8
244.426	137.04
244.643	55.12
244.86	73.56
245.078	110.42
245.295	87.89
245.512	48.98
245.729	32.6
245.946	67.41
246.163	71.51
246.38	38.74
246.597	30.55
246.814	116.56
247.031	106.32
247.248	83.8
247.464	94.04
247.681	20.31
247.898	63.32
248.115	75.6
248.332	-26.79
248.549	63.32
248.766	175.95
248.983	104.28
249.2	98.13
249.417	83.8
249.633	-8.36
249.85	114.52
250.067	98.13
250.284	61.27
250.501	157.52
250.717	112.47
250.934	28.5
251.151	3.93
251.368	63.32
251.585	94.04
251.801	87.89
252.018	-22.7
252.235	143.19
252.451	-14.51
252.668	3.93
252.885	118.61
253.102	59.22
253.318	14.17
253.535	-24.75
253.752	12.12
253.968	42.84
254.185	-57.51
254.401	55.12
254.618	128.85
254.835	16.21
255.051	149.33
255.268	48.98
255.484	36.69
255.701	69.46
255.917	108.37
256.134	-34.99
256.351	-2.22
256.567	-26.79
256.784	77.65
257	-57.51
257.217	178
257.433	63.32
257.65	83.8
257.866	126.8
258.082	-4.27
258.299	-6.31
258.515	130.9
258.732	32.6
258.948	-59.56
259.165	173.91
259.381	-10.41
259.597	46.93
259.814	65.36
260.03	-4.27
260.246	75.6
260.463	120.66
260.679	182.1
260.895	75.6
261.112	96.08
261.328	34.64
261.544	-135.34
261.761	153.43
261.977	40.79
262.193	36.69
262.409	106.32
262.626	61.27
262.842	3.93
263.058	32.6
263.274	169.81
263.49	65.36
263.707	169.81
263.923	126.8
264.139	-34.99
264.355	81.75
264.571	110.42
264.787	57.17
265.004	153.43
265.22	38.74
265.436	-37.03
265.652	8.02
265.868	18.26
266.084	-61.61
266.3	51.03
266.516	-51.37
266.732	-18.6
266.948	102.23
267.164	10.07
267.38	102.23
267.596	112.47
267.812	204.63
268.028	71.51
268.244	106.32
268.46	55.12
268.676	-75.95
268.892	18.26
269.108	20.31
269.324	24.4
269.54	40.79
269.756	14.17
269.972	-28.84
270.188	-41.13
270.403	-20.65
270.619	59.22
270.835	173.91
271.051	61.27
271.267	20.31
271.483	12.12
271.698	75.6
271.914	61.27
272.13	98.13
272.346	-0.17
272.562	73.56
272.777	116.56
272.993	46.93
273.209	-18.6
273.425	59.22
273.64	1.88
273.856	126.8
274.072	-10.41
274.287	8.02
274.503	85.84
274.719	100.18
274.934	16.21
275.15	-80.04
275.366	14.17
275.581	-0.17
275.797	20.31
276.012	110.42
276.228	5.97
276.444	8.02
276.659	147.28
276.875	-39.08
277.09	-14.51
277.306	30.55
277.521	3.93
277.737	79.7
277.952	65.36
278.168	94.04
278.383	104.28
278.599	73.56
278.814	157.52
279.03	55.12
279.245	200.53
279.461	53.08
279.676	126.8
279.892	-59.56
280.107	-90.28
280.322	-30.89
280.538	24.4
280.753	-49.32
280.969	120.66
281.184	81.75
281.399	153.43
281.615	-41.13
281.83	51.03
282.045	12.12
282.26	89.94
282.476	171.86
282.691	73.56
282.906	-16.55
283.122	12.12
283.337	-18.6
283.552	48.98
283.767	48.98
283.983	137.04
284.198	59.22
284.413	143.19
284.628	12.12
284.843	77.65
285.058	44.88
285.274	16.21
285.489	-80.04
285.704	171.86
285.919	-22.7
286.134	55.12
286.349	81.75
286.564	20.31
286.779	79.7
286.995	44.88
287.21	-63.66
287.425	48.98
287.64	5.97
287.855	55.12
288.07	-59.56
288.285	108.37
288.5	186.19
288.715	59.22
288.93	46.93
289.145	-77.99
289.36	81.75
289.575	51.03
289.79	116.56
290.004	59.22
290.219	202.58
290.434	94.04
290.649	-30.89
290.864	-18.6
291.079	42.84
291.294	63.32
291.509	71.51
291.724	-14.51
291.938	28.5
292.153	42.84
292.368	36.69
292.583	61.27
292.798	40.79
293.012	102.23
293.227	83.8
293.442	24.4
293.657	77.65
293.871	155.47
294.086	-20.65
294.301	202.58
294.516	163.67
294.73	5.97
294.945	38.74
295.16	-24.75
295.374	85.84
295.589	180.05
295.804	-20.65
296.018	73.56
296.233	153.43
296.447	57.17
296.662	-34.99
296.877	186.19
297.091	141.14
297.306	65.36
297.52	-24.75
297.735	38.74
297.949	24.4
298.164	36.69
298.378	34.64
298.593	40.79
298.807	-0.17
299.022	51.03
299.236	132.95
299.451	57.17
299.665	28.5
299.88	48.98
300.094	114.52
300.309	67.41
300.523	106.32
300.737	14.17
300.952	32.6
301.166	120.66
301.381	12.12
301.595	42.84
301.809	59.22
302.024	8.02
302.238	-43.18
302.452	137.04
302.667	40.79
302.881	194.39
303.095	126.8
303.309	87.89
303.524	53.08
303.738	83.8
303.952	106.32
304.166	-22.7
304.381	-73.9
304.595	71.51
304.809	18.26
305.023	79.7
305.237	40.79
305.452	42.84
305.666	102.23
305.88	67.41
306.094	106.32
306.308	87.89
306.522	112.47
306.736	81.75
306.95	85.84
307.164	22.36
307.379	34.64
307.593	157.52
307.807	171.86
308.021	106.32
308.235	16.21
308.449	-24.75
308.663	106.32
308.877	247.63
309.091	94.04
309.305	83.8
309.519	-110.76
309.733	182.1
309.947	-32.94
310.161	122.71
310.374	63.32
310.588	122.71
310.802	-32.94
311.016	14.17
311.23	89.94
311.444	10.07
311.658	53.08
311.872	130.9
312.085	186.19
312.299	106.32
312.513	87.89
312.727	-90.28
312.941	1.88
313.154	100.18
313.368	55.12
313.582	83.8
313.796	57.17
314.009	-39.08
314.223	102.23
314.437	36.69
314.651	126.8
314.864	3.93
315.078	-2.22
315.292	-0.17
315.505	69.46
315.719	65.36
315.933	81.75
316.146	28.5
316.36	38.74
316.573	120.66
316.787	98.13
317.001	102.23
317.214	-49.32
317.428	91.99
317.641	57.17
317.855	20.31
318.068	42.84
318.282	51.03
318.495	178
318.709	143.19
318.922	12.12
319.136	67.41
319.349	139.09
319.563	8.02
319.776	75.6
319.99	-20.65
320.203	141.14
320.417	73.56
320.63	67.41
320.843	198.48
321.057	61.27
321.27	48.98
321.483	149.33
321.697	186.19
321.91	73.56
322.124	73.56
322.337	81.75
322.55	28.5
322.763	73.56
322.977	30.55
323.19	-2.22
323.403	8.02
323.617	116.56
323.83	108.37
324.043	94.04
324.256	73.56
324.469	-12.46
324.683	94.04
324.896	51.03
325.109	106.32
325.322	-0.17
325.535	149.33
325.748	110.42
325.962	18.26
326.175	-4.27
326.388	51.03
326.601	126.8
326.814	46.93
327.027	106.32
327.24	151.38
327.453	-53.42
327.666	40.79
327.879	98.13
328.092	51.03
328.305	53.08
328.518	51.03
328.731	18.26
328.944	73.56
329.157	71.51
329.37	20.31
329.583	208.72
329.796	167.76
330.009	-71.85
330.222	126.8
330.435	141.14
330.648	67.41
330.861	139.09
331.073	89.94
331.286	67.41
331.499	46.93
331.712	-20.65
331.925	108.37
332.138	130.9
332.35	73.56
332.563	46.93
332.776	173.91
332.989	-61.61
333.202	24.4
333.414	20.31
333.627	-8.36
333.84	-12.46
334.053	83.8
334.265	-45.23
334.478	44.88
334.691	16.21
334.903	-24.75
335.116	28.5
335.329	32.6
335.541	122.71
335.754	192.34
335.966	-20.65
336.179	61.27
336.392	57.17
336.604	91.99
336.817	71.51
337.029	89.94
337.242	40.79
337.454	53.08
337.667	157.52
337.88	114.52
338.092	42.84
338.305	65.36
338.517	14.17
338.729	73.56
338.942	241.49
339.154	5.97
339.367	57.17
339.579	100.18
339.792	-16.55
340.004	65.36
340.217	69.46
340.429	98.13
340.641	3.93
340.854	-47.27
341.066	36.69
341.278	153.43
341.491	159.57
341.703	77.65
341.915	-2.22
342.128	-0.17
342.34	40.79
342.552	-24.75
342.764	40.79
342.977	89.94
343.189	98.13
343.401	44.88
343.613	-80.04
343.826	61.27
344.038	-55.47
344.25	118.61
344.462	-4.27
344.674	77.65
344.886	83.8
345.099	87.89
345.311	178
345.523	79.7
345.735	-94.38
345.947	20.31
346.159	30.55
346.371	61.27
346.583	22.36
346.795	116.56
347.007	-34.99
347.219	69.46
347.431	30.55
347.643	139.09
347.855	20.31
348.067	188.24
348.279	-10.41
348.491	-18.6
348.703	114.52
348.915	24.4
349.127	-4.27
349.339	46.93
349.551	-67.75
349.763	42.84
349.975	75.6
350.187	69.46
350.399	108.37
350.61	108.37
350.822	-18.6
351.034	73.56
351.246	1.88
351.458	102.23
351.669	87.89
351.881	98.13
352.093	147.28
352.305	61.27
352.517	159.57
352.728	135
352.94	65.36
353.152	110.42
353.363	16.21
353.575	132.95
353.787	196.43
353.999	98.13
354.21	100.18
354.422	-53.42
354.633	3.93
354.845	40.79
355.057	36.69
355.268	73.56
355.48	206.67
355.692	-2.22
355.903	128.85
356.115	24.4
356.326	-82.09
356.538	137.04
356.749	63.32
356.961	167.76
357.172	96.08
357.384	-49.32
357.595	218.96
357.807	22.36
358.018	-47.27
358.23	48.98
358.441	165.71
358.653	151.38
358.864	102.23
359.075	-20.65
359.287	91.99
359.498	71.51
359.709	96.08
359.921	55.12
360.132	108.37
360.344	18.26
360.555	-10.41
360.766	20.31
360.977	24.4
361.189	155.47
361.4	-69.8
361.611	184.15
361.823	118.61
362.034	83.8
362.245	-45.23
362.456	48.98
362.667	46.93
362.879	-61.61
363.09	153.43
363.301	124.76
363.512	67.41
363.723	40.79
363.935	36.69
364.146	118.61
364.357	104.28
364.568	20.31
364.779	-8.36
364.99	196.43
365.201	73.56
365.412	171.86
365.623	-86.19
365.834	77.65
366.045	65.36
366.256	94.04
366.467	12.12
366.678	26.45
366.889	89.94
367.1	-28.84
367.311	206.67
367.522	-34.99
367.733	44.88
367.944	110.42
368.155	32.6
368.366	81.75
368.577	161.62
368.788	130.9
368.999	-18.6
369.209	75.6
369.42	208.72
369.631	274.26
369.842	108.37
370.053	38.74
370.264	122.71
370.474	-41.13
370.685	65.36
370.896	42.84
371.107	106.32
371.317	79.7
371.528	26.45
371.739	100.18
371.95	122.71
372.16	180.05
372.371	-26.79
372.582	34.64
372.792	36.69
373.003	210.77
373.214	102.23
373.424	108.37
373.635	10.07
373.846	120.66
374.056	104.28
374.267	79.7
374.477	75.6
374.688	57.17
374.898	100.18
375.109	-30.89
375.319	32.6
375.53	114.52
375.74	75.6
375.951	75.6
376.161	53.08
376.372	155.47
376.582	-12.46
376.793	120.66
377.003	-67.75
377.214	53.08
377.424	124.76
377.635	8.02
377.845	91.99
378.055	42.84
378.266	30.55
378.476	75.6
378.686	28.5
378.897	67.41
379.107	139.09
379.317	149.33
379.528	5.97
379.738	18.26
379.948	22.36
380.158	106.32
380.369	63.32
380.579	83.8
380.789	114.52
380.999	28.5
381.21	126.8
381.42	198.48
381.63	38.74
381.84	175.95
382.05	65.36
382.261	87.89
382.471	126.8
382.681	12.12
382.891	175.95
383.101	91.99
383.311	-18.6
383.521	-12.46
383.731	96.08
383.941	75.6
384.151	48.98
384.361	34.64
384.571	22.36
384.781	55.12
384.991	235.35
385.201	227.15
385.411	139.09
385.621	96.08
385.831	96.08
386.041	65.36
386.251	-6.31
386.461	79.7
386.671	28.5
386.881	63.32
387.091	77.65
387.301	118.61
387.511	57.17
387.72	79.7
387.93	28.5
388.14	-34.99
388.35	53.08
388.56	118.61
388.769	73.56
388.979	34.64
389.189	26.45
389.399	42.84
389.609	151.38
389.818	83.8
390.028	139.09
390.238	53.08
390.447	65.36
390.657	147.28
390.867	75.6
391.076	-30.89
391.286	141.14
391.496	53.08
391.705	141.14
391.915	32.6
392.125	130.9
392.334	28.5
392.544	137.04
392.753	46.93
392.963	32.6
393.172	69.46
393.382	24.4
393.591	175.95
393.801	-20.65
394.01	132.95
394.22	14.17
394.429	16.21
394.639	14.17
394.848	28.5
395.058	12.12
395.267	36.69
395.477	184.15
395.686	69.46
395.895	192.34
396.105	206.67
396.314	106.32
396.524	8.02
396.733	36.69
396.942	128.85
397.152	153.43
397.361	151.38
397.57	71.51
397.78	79.7
397.989	130.9
398.198	184.15
398.407	57.17
398.617	38.74
398.826	85.84
399.035	20.31
399.244	137.04
399.453	83.8
399.663	53.08
399.872	83.8
400.081	-32.94
400.29	94.04
400.499	-26.79
400.708	206.67
400.917	149.33
401.127	16.21
401.336	-0.17
401.545	135
401.754	141.14
401.963	233.3
402.172	26.45
402.381	-16.55
402.59	28.5
402.799	51.03
403.008	110.42
403.217	81.75
403.426	46.93
403.635	34.64
403.844	28.5
404.053	30.55
404.262	40.79
404.471	171.86
404.68	81.75
404.888	132.95
405.097	10.07
405.306	73.56
405.515	91.99
405.724	89.94
405.933	128.85
406.142	40.79
406.35	202.58
406.559	79.7
406.768	75.6
406.977	233.3
407.185	85.84
407.394	34.64
407.603	-18.6
407.812	81.75
408.02	137.04
408.229	34.64
408.438	108.37
408.646	16.21
408.855	81.75
409.064	85.84
409.272	48.98
409.481	98.13
409.69	-2.22
409.898	32.6
410.107	32.6
410.315	116.56
410.524	-30.89
410.733	110.42
410.941	8.02
411.15	116.56
411.358	139.09
411.567	188.24
411.775	79.7
411.984	24.4
412.192	147.28
412.401	18.26
412.609	126.8
412.818	180.05
413.026	106.32
413.234	59.22
413.443	48.98
413.651	42.84
413.86	32.6
414.068	141.14
414.276	182.1
414.485	16.21
414.693	204.63
414.901	235.35
415.11	120.66
415.318	69.46
415.526	36.69
415.734	89.94
415.943	104.28
416.151	132.95
416.359	28.5
416.567	67.41
416.776	128.85
416.984	114.52
417.192	178
417.4	-18.6
417.608	-0.17
417.817	-20.65
418.025	118.61
418.233	169.81
418.441	-10.41
418.649	1.88
418.857	98.13
419.065	126.8
419.273	-6.31
419.481	81.75
419.689	102.23
419.897	-10.41
420.105	-47.27
420.313	159.57
420.521	231.25
420.729	196.43
420.937	77.65
421.145	18.26
421.353	59.22
421.561	194.39
421.769	87.89
421.977	-10.41
422.185	145.24
422.393	67.41
422.601	98.13
422.809	130.9
423.017	38.74
423.224	141.14
423.432	163.67
423.64	55.12
423.848	200.53
424.056	63.32
424.263	130.9
424.471	46.93
424.679	132.95
424.887	-22.7
425.094	120.66
425.302	57.17
425.51	32.6
425.718	34.64
425.925	69.46
426.133	114.52
426.341	173.91
426.548	79.7
426.756	188.24
426.964	94.04
427.171	67.41
427.379	114.52
427.586	124.76
427.794	141.14
428.001	149.33
428.209	159.57
428.417	192.34
428.624	171.86
428.832	202.58
429.039	128.85
429.247	178
429.454	139.09
429.662	313.17
429.869	169.81
430.076	112.47
430.284	153.43
430.491	155.47
430.699	192.34
430.906	264.02
431.114	186.19
431.321	190.29
431.528	163.67
431.736	157.52
431.943	218.96
432.15	149.33
432.358	155.47
432.565	247.63
432.772	3.93
432.979	274.26
433.187	153.43
433.394	221.01
433.601	132.95
433.808	325.46
434.016	243.54
434.223	329.55
434.43	204.63
434.637	319.31
434.844	292.69
435.052	286.54
435.259	298.83
435.466	286.54
435.673	229.2
435.88	366.42
436.087	388.94
436.294	405.33
436.501	399.18
436.708	356.18
436.915	405.33
437.122	399.18
437.329	366.42
437.537	421.71
437.743	419.66
437.95	548.68
438.157	505.68
438.364	386.9
438.571	481.1
438.778	474.96
438.985	569.16
439.192	509.77
439.399	517.97
439.606	509.77
439.813	585.55
440.02	675.66
440.227	735.05
440.433	673.61
440.64	575.31
440.847	563.02
441.054	692.04
441.261	773.96
441.467	685.9
441.674	661.32
441.881	773.96
442.088	726.86
442.294	857.93
442.501	839.5
442.708	939.85
442.914	888.65
443.121	1015.62
443.328	964.42
443.534	1120.07
443.741	1062.73
443.948	1056.58
444.154	1115.97
444.361	1216.32
444.568	1120.07
444.774	1244.99
444.981	1163.08
445.187	1410.88
445.394	1351.49
445.6	1314.63
445.807	1587.01
446.013	1521.47
446.22	1468.22
446.426	1664.83
446.633	1744.7
446.839	1888.06
447.046	1724.22
447.252	1820.47
447.459	1822.52
447.665	2021.17
447.871	2203.44
448.078	2221.88
448.284	2213.68
448.491	2277.17
448.697	2455.34
448.903	2531.12
449.11	2572.08
449.316	2590.51
449.522	2789.16
449.728	2862.89
449.935	3036.97
450.141	3096.36
450.347	3190.56
450.553	3112.74
450.76	3176.23
450.966	3577.63
451.172	3454.75
451.378	3632.93
451.584	3669.79
451.791	3966.74
451.997	4165.4
452.203	4034.33
452.409	4437.78
452.615	4511.5
452.821	4456.21
453.027	4628.24
453.233	5078.79
453.44	4978.44
453.646	5099.27
453.852	5314.31
454.058	5740.29
454.264	5854.97
454.47	6174.46
454.676	6268.66
454.882	6960.88
455.088	6416.12
455.294	6803.18
455.5	7268.07
455.705	7624.42
455.911	7603.94
456.117	7833.31
456.323	8408.79
456.529	8263.38
456.735	8906.45
456.941	9115.34
457.147	9524.93
457.352	9791.17
457.558	9965.25
457.764	10583.73
457.97	10978.99
458.176	11134.64
458.381	11810.47
458.587	12005.02
458.793	12625.56
458.999	12711.57
459.204	14386.81
459.41	14814.84
459.616	14333.56
459.821	15416.94
460.027	16152.16
460.233	16850.52
460.438	16989.78
460.644	17712.71
460.85	18226.75
461.055	18738.74
461.261	19746.34
461.466	19121.71
461.672	19682.86
461.878	21816.84
462.083	21730.83
462.289	22130.18
462.494	22941.18
462.7	23004.66
462.905	23418.35
463.111	25517.52
463.316	26832.32
463.522	27057.59
463.727	28030.38
463.932	29423
464.138	29904.27
464.343	31210.87
464.549	31397.24
464.754	33391.96
464.959	34301.26
465.165	34979.14
465.37	34501.96
465.575	34749.76
465.781	36939.04
465.986	38044.94
466.191	37569.82
466.397	38083.86
466.602	36867.36
466.807	39120.13
467.012	40099.06
467.218	40637.67
467.423	40846.57
467.628	41694.43
467.833	44344.5
468.038	43271.36
468.244	42132.69
468.449	44704.94
