Data from USB4F104151__23__09-26-04-717.txt Node

Date: Wed Feb 26 09:26:04 EST 2025
User: louis
Spectrometer: USB4F10415
Trigger mode: 4
Integration Time (sec): 1.000000E-1
Scans to average: 1
Electric dark correction enabled: true
Nonlinearity correction enabled: false
Boxcar width: 0
XAxis mode: Wavelengths
Number of Pixels in Spectrum: 3648
>>>>>Begin Spectral Data<<<<<
178.204	-366.07
178.424	-366.07
178.644	-366.07
178.864	-308.73
179.084	-374.27
179.304	-48.64
179.524	37.38
179.744	16.9
179.964	53.76
180.184	-15.87
180.404	-5.63
180.624	-40.45
180.844	35.33
181.064	-71.17
181.283	41.47
181.503	-34.3
181.723	31.23
181.943	-110.08
182.163	156.16
182.383	-36.35
182.602	47.62
182.822	139.77
183.042	64
183.262	-56.83
183.482	-46.59
183.701	64
183.921	27.14
184.141	-24.06
184.361	84.48
184.58	76.29
184.8	-7.68
185.02	-24.06
185.239	-17.92
185.459	-38.4
185.679	64
185.898	-71.17
186.118	109.05
186.338	-7.68
186.557	59.9
186.777	-79.36
186.997	16.9
187.216	74.24
187.436	139.77
187.655	57.86
187.875	100.86
188.095	41.47
188.314	98.81
188.534	53.76
188.753	-85.5
188.973	84.48
189.192	20.99
189.412	2.56
189.631	80.38
189.851	18.94
190.07	137.73
190.29	-34.3
190.509	4.61
190.729	27.14
190.948	80.38
191.168	162.3
191.387	100.86
191.607	25.09
191.826	8.7
192.045	6.66
192.265	23.04
192.484	59.9
192.704	59.9
192.923	-7.68
193.142	98.81
193.362	125.44
193.581	88.57
193.8	98.81
194.02	59.9
194.239	68.09
194.458	68.09
194.678	4.61
194.897	-44.54
195.116	72.19
195.335	18.94
195.555	55.81
195.774	-19.97
195.993	125.44
196.212	-28.16
196.432	-56.83
196.651	-3.58
196.87	-3.58
197.089	152.06
197.308	121.34
197.528	29.18
197.747	-105.98
197.966	49.66
198.185	139.77
198.404	-30.21
198.623	29.18
198.842	125.44
199.062	86.53
199.281	35.33
199.5	39.42
199.719	104.96
199.938	43.52
200.157	104.96
200.376	43.52
200.595	109.05
200.814	-15.87
201.033	-26.11
201.252	164.35
201.471	6.66
201.69	80.38
201.909	-42.5
202.128	4.61
202.347	-22.02
202.566	25.09
202.785	-105.98
203.004	-30.21
203.223	205.31
203.442	6.66
203.661	-71.17
203.879	113.15
204.098	57.86
204.317	-42.5
204.536	119.29
204.755	10.75
204.974	121.34
205.193	2.56
205.411	84.48
205.63	84.48
205.849	33.28
206.068	-52.74
206.287	-1.54
206.505	72.19
206.724	53.76
206.943	-56.83
207.162	-5.63
207.381	35.33
207.599	8.7
207.818	-17.92
208.037	-38.4
208.255	47.62
208.474	88.57
208.693	78.33
208.911	-30.21
209.13	10.75
209.349	55.81
209.567	82.43
209.786	100.86
210.005	-48.64
210.223	27.14
210.442	-17.92
210.661	45.57
210.879	-44.54
211.098	31.23
211.316	35.33
211.535	92.67
211.753	-9.73
211.972	33.28
212.191	8.7
212.409	37.38
212.628	20.99
212.846	4.61
213.065	51.71
213.283	96.77
213.502	59.9
213.72	70.14
213.938	31.23
214.157	-15.87
214.375	37.38
214.594	39.42
214.812	57.86
215.031	-17.92
215.249	16.9
215.467	33.28
215.686	64
215.904	43.52
216.122	84.48
216.341	76.29
216.559	20.99
216.778	68.09
216.996	176.64
217.214	49.66
217.432	-24.06
217.651	8.7
217.869	90.62
218.087	-56.83
218.306	51.71
218.524	107.01
218.742	27.14
218.96	109.05
219.179	49.66
219.397	2.56
219.615	129.53
219.833	2.56
220.051	-3.58
220.27	107.01
220.488	115.2
220.706	2.56
220.924	-40.45
221.142	-7.68
221.36	6.66
221.578	70.14
221.796	2.56
222.015	-5.63
222.233	27.14
222.451	150.01
222.669	-5.63
222.887	74.24
223.105	-3.58
223.323	-24.06
223.541	-42.5
223.759	61.95
223.977	-5.63
224.195	166.4
224.413	100.86
224.631	35.33
224.849	68.09
225.067	166.4
225.285	76.29
225.503	-19.97
225.721	-87.55
225.939	68.09
226.157	59.9
226.375	231.93
226.592	-34.3
226.81	18.94
227.028	18.94
227.246	170.49
227.464	27.14
227.682	70.14
227.9	45.57
228.117	92.67
228.335	25.09
228.553	8.7
228.771	-17.92
228.989	37.38
229.206	66.05
229.424	31.23
229.642	-69.12
229.86	-144.89
230.077	61.95
230.295	14.85
230.513	76.29
230.731	-5.63
230.948	117.25
231.166	131.58
231.384	-42.5
231.601	39.42
231.819	229.88
232.037	35.33
232.254	8.7
232.472	-38.4
232.689	33.28
232.907	55.81
233.125	10.75
233.342	-26.11
233.56	10.75
233.777	-40.45
233.995	-87.55
234.213	125.44
234.43	76.29
234.648	55.81
234.865	18.94
235.083	-26.11
235.3	31.23
235.518	37.38
235.735	125.44
235.953	55.81
236.17	14.85
236.388	0.51
236.605	113.15
236.822	14.85
237.04	68.09
237.257	25.09
237.475	-54.78
237.692	96.77
237.909	76.29
238.127	2.56
238.344	35.33
238.562	61.95
238.779	-42.5
238.996	-103.93
239.214	-24.06
239.431	51.71
239.648	-15.87
239.865	70.14
240.083	64
240.3	-1.54
240.517	-40.45
240.735	33.28
240.952	51.71
241.169	33.28
241.386	41.47
241.603	31.23
241.821	-67.07
242.038	10.75
242.255	166.4
242.472	-56.83
242.689	27.14
242.907	117.25
243.124	59.9
243.341	-38.4
243.558	-24.06
243.775	-48.64
243.992	-42.5
244.209	39.42
244.426	141.82
244.643	18.94
244.86	68.09
245.078	57.86
245.295	68.09
245.512	4.61
245.729	90.62
245.946	53.76
246.163	18.94
246.38	16.9
246.597	76.29
246.814	8.7
247.031	-1.54
247.248	33.28
247.464	64
247.681	-13.82
247.898	14.85
248.115	119.29
248.332	-62.98
248.549	92.67
248.766	92.67
248.983	53.76
249.2	86.53
249.417	18.94
249.633	55.81
249.85	-1.54
250.067	0.51
250.284	55.81
250.501	154.11
250.717	31.23
250.934	-71.17
251.151	29.18
251.368	66.05
251.585	27.14
251.801	33.28
252.018	70.14
252.235	59.9
252.451	-91.65
252.668	6.66
252.885	84.48
253.102	64
253.318	-38.4
253.535	23.04
253.752	-32.26
253.968	27.14
254.185	-40.45
254.401	-34.3
254.618	113.15
254.835	-38.4
255.051	98.81
255.268	-7.68
255.484	84.48
255.701	33.28
255.917	123.39
256.134	-38.4
256.351	51.71
256.567	-26.11
256.784	68.09
257	4.61
257.217	74.24
257.433	121.34
257.65	14.85
257.866	131.58
258.082	-30.21
258.299	-30.21
258.515	4.61
258.732	12.8
258.948	-79.36
259.165	43.52
259.381	-75.26
259.597	102.91
259.814	53.76
260.03	-1.54
260.246	70.14
260.463	74.24
260.679	84.48
260.895	20.99
261.112	-24.06
261.328	41.47
261.544	23.04
261.761	125.44
261.977	-54.78
262.193	-30.21
262.409	80.38
262.626	43.52
262.842	23.04
263.058	33.28
263.274	147.97
263.49	39.42
263.707	51.71
263.923	31.23
264.139	-40.45
264.355	14.85
264.571	156.16
264.787	39.42
265.004	164.35
265.22	12.8
265.436	47.62
265.652	-58.88
265.868	109.05
266.084	-22.02
266.3	20.99
266.516	-24.06
266.732	-30.21
266.948	31.23
267.164	33.28
267.38	107.01
267.596	18.94
267.812	145.92
268.028	31.23
268.244	0.51
268.46	84.48
268.676	-22.02
268.892	117.25
269.108	-22.02
269.324	18.94
269.54	23.04
269.756	84.48
269.972	-26.11
270.188	-40.45
270.403	-38.4
270.619	43.52
270.835	23.04
271.051	35.33
271.267	14.85
271.483	-26.11
271.698	102.91
271.914	35.33
272.13	39.42
272.346	8.7
272.562	-11.78
272.777	117.25
272.993	-36.35
273.209	-17.92
273.425	68.09
273.64	-44.54
273.856	8.7
274.072	25.09
274.287	-62.98
274.503	53.76
274.719	156.16
274.934	-65.02
275.15	-120.32
275.366	23.04
275.581	-54.78
275.797	14.85
276.012	-1.54
276.228	-3.58
276.444	-22.02
276.659	51.71
276.875	-13.82
277.09	41.47
277.306	16.9
277.521	139.77
277.737	57.86
277.952	33.28
278.168	119.29
278.383	25.09
278.599	-13.82
278.814	174.59
279.03	23.04
279.245	59.9
279.461	68.09
279.676	102.91
279.892	-26.11
280.107	18.94
280.322	-42.5
280.538	135.68
280.753	-5.63
280.969	-75.26
281.184	49.66
281.399	213.5
281.615	66.05
281.83	45.57
282.045	-15.87
282.26	-1.54
282.476	88.57
282.691	59.9
282.906	45.57
283.122	76.29
283.337	-7.68
283.552	57.86
283.767	27.14
283.983	45.57
284.198	-26.11
284.413	90.62
284.628	-54.78
284.843	14.85
285.058	-7.68
285.274	-46.59
285.489	-22.02
285.704	55.81
285.919	12.8
286.134	12.8
286.349	-1.54
286.564	64
286.779	92.67
286.995	-62.98
287.21	23.04
287.425	100.86
287.64	14.85
287.855	64
288.07	-5.63
288.285	92.67
288.5	33.28
288.715	8.7
288.93	20.99
289.145	51.71
289.36	66.05
289.575	68.09
289.79	49.66
290.004	-79.36
290.219	119.29
290.434	-19.97
290.649	-17.92
290.864	-13.82
291.079	45.57
291.294	57.86
291.509	6.66
291.724	-54.78
291.938	-5.63
292.153	12.8
292.368	23.04
292.583	39.42
292.798	102.91
293.012	80.38
293.227	25.09
293.442	2.56
293.657	51.71
293.871	76.29
294.086	18.94
294.301	168.45
294.516	64
294.73	25.09
294.945	27.14
295.16	-34.3
295.374	133.63
295.589	145.92
295.804	25.09
296.018	-83.45
296.233	49.66
296.447	10.75
296.662	31.23
296.877	121.34
297.091	92.67
297.306	-7.68
297.52	-5.63
297.735	-24.06
297.949	-5.63
298.164	2.56
298.378	2.56
298.593	8.7
298.807	-30.21
299.022	47.62
299.236	96.77
299.451	33.28
299.665	-3.58
299.88	10.75
300.094	-40.45
300.309	51.71
300.523	-3.58
300.737	18.94
300.952	68.09
301.166	70.14
301.381	12.8
301.595	10.75
301.809	35.33
302.024	-3.58
302.238	-34.3
302.452	90.62
302.667	6.66
302.881	104.96
303.095	100.86
303.309	2.56
303.524	-22.02
303.738	-22.02
303.952	-48.64
304.166	70.14
304.381	-116.22
304.595	102.91
304.809	-30.21
305.023	-15.87
305.237	8.7
305.452	20.99
305.666	35.33
305.88	76.29
306.094	150.01
306.308	66.05
306.522	14.85
306.736	-22.02
306.95	80.38
307.164	43.52
307.379	35.33
307.593	195.07
307.807	82.43
308.021	113.15
308.235	16.9
308.449	-138.75
308.663	-32.26
308.877	207.36
309.091	39.42
309.305	68.09
309.519	-44.54
309.733	98.81
309.947	-87.55
310.161	14.85
310.374	117.25
310.588	53.76
310.802	27.14
311.016	20.99
311.23	20.99
311.444	-85.5
311.658	0.51
311.872	66.05
312.085	18.94
312.299	104.96
312.513	82.43
312.727	70.14
312.941	-87.55
313.154	115.2
313.368	41.47
313.582	20.99
313.796	100.86
314.009	27.14
314.223	-22.02
314.437	18.94
314.651	121.34
314.864	59.9
315.078	16.9
315.292	-42.5
315.505	-50.69
315.719	-30.21
315.933	-7.68
316.146	-83.45
316.36	-22.02
316.573	80.38
316.787	-22.02
317.001	6.66
317.214	59.9
317.428	43.52
317.641	-83.45
317.855	-67.07
318.068	33.28
318.282	2.56
318.495	172.54
318.709	-9.73
318.922	8.7
319.136	94.72
319.349	172.54
319.563	-22.02
319.776	47.62
319.99	-34.3
320.203	-1.54
320.417	2.56
320.63	25.09
320.843	123.39
321.057	59.9
321.27	18.94
321.483	57.86
321.697	131.58
321.91	107.01
322.124	74.24
322.337	16.9
322.55	-15.87
322.763	86.53
322.977	74.24
323.19	-58.88
323.403	51.71
323.617	107.01
323.83	86.53
324.043	16.9
324.256	14.85
324.469	-95.74
324.683	64
324.896	47.62
325.109	18.94
325.322	-26.11
325.535	43.52
325.748	84.48
325.962	14.85
326.175	-1.54
326.388	80.38
326.601	96.77
326.814	41.47
327.027	35.33
327.24	190.97
327.453	-34.3
327.666	53.76
327.879	104.96
328.092	86.53
328.305	55.81
328.518	-48.64
328.731	25.09
328.944	-42.5
329.157	41.47
329.37	-24.06
329.583	178.69
329.796	135.68
330.009	-11.78
330.222	119.29
330.435	-3.58
330.648	16.9
330.861	35.33
331.073	16.9
331.286	10.75
331.499	-5.63
331.712	-46.59
331.925	16.9
332.138	6.66
332.35	84.48
332.563	43.52
332.776	31.23
332.989	2.56
333.202	-40.45
333.414	47.62
333.627	-13.82
333.84	27.14
334.053	-22.02
334.265	-67.07
334.478	-62.98
334.691	41.47
334.903	23.04
335.116	16.9
335.329	6.66
335.541	90.62
335.754	31.23
335.966	-24.06
336.179	-52.74
336.392	33.28
336.604	27.14
336.817	16.9
337.029	90.62
337.242	-9.73
337.454	49.66
337.667	-30.21
337.88	127.49
338.092	76.29
338.305	88.57
338.517	-62.98
338.729	68.09
338.942	74.24
339.154	-77.31
339.367	16.9
339.579	55.81
339.792	-44.54
340.004	-17.92
340.217	-87.55
340.429	-46.59
340.641	-58.88
340.854	-67.07
341.066	-24.06
341.278	123.39
341.491	141.82
341.703	-67.07
341.915	-22.02
342.128	72.19
342.34	25.09
342.552	-71.17
342.764	115.2
342.977	-24.06
343.189	20.99
343.401	49.66
343.613	-79.36
343.826	16.9
344.038	-32.26
344.25	107.01
344.462	-13.82
344.674	41.47
344.886	18.94
345.099	12.8
345.311	61.95
345.523	-34.3
345.735	-34.3
345.947	35.33
346.159	25.09
346.371	109.05
346.583	10.75
346.795	150.01
347.007	-89.6
347.219	43.52
347.431	6.66
347.643	37.38
347.855	68.09
348.067	125.44
348.279	-65.02
348.491	47.62
348.703	92.67
348.915	4.61
349.127	-48.64
349.339	31.23
349.551	-13.82
349.763	98.81
349.975	23.04
350.187	98.81
350.399	92.67
350.61	66.05
350.822	-1.54
351.034	55.81
351.246	70.14
351.458	98.81
351.669	0.51
351.881	129.53
352.093	41.47
352.305	113.15
352.517	2.56
352.728	98.81
352.94	23.04
353.152	115.2
353.363	-42.5
353.575	68.09
353.787	164.35
353.999	59.9
354.21	45.57
354.422	-13.82
354.633	23.04
354.845	80.38
355.057	88.57
355.268	-75.26
355.48	113.15
355.692	-34.3
355.903	-30.21
356.115	-52.74
356.326	-122.37
356.538	82.43
356.749	59.9
356.961	117.25
357.172	117.25
357.384	10.75
357.595	170.49
357.807	27.14
358.018	-36.35
358.23	-5.63
358.441	125.44
358.653	76.29
358.864	10.75
359.075	-1.54
359.287	102.91
359.498	109.05
359.709	115.2
359.921	-11.78
360.132	76.29
360.344	4.61
360.555	-30.21
360.766	92.67
360.977	82.43
361.189	35.33
361.4	16.9
361.611	53.76
361.823	31.23
362.034	55.81
362.245	-62.98
362.456	-1.54
362.667	-36.35
362.879	-22.02
363.09	-9.73
363.301	33.28
363.512	2.56
363.723	-24.06
363.935	49.66
364.146	41.47
364.357	-40.45
364.568	39.42
364.779	-34.3
364.99	51.71
365.201	25.09
365.412	74.24
365.623	-62.98
365.834	57.86
366.045	18.94
366.256	70.14
366.467	2.56
366.678	2.56
366.889	-30.21
367.1	-46.59
367.311	104.96
367.522	78.33
367.733	29.18
367.944	18.94
368.155	-36.35
368.366	47.62
368.577	55.81
368.788	96.77
368.999	-67.07
369.209	43.52
369.42	231.93
369.631	186.88
369.842	57.86
370.053	100.86
370.264	107.01
370.474	31.23
370.685	109.05
370.896	-32.26
371.107	55.81
371.317	59.9
371.528	23.04
371.739	10.75
371.95	68.09
372.16	119.29
372.371	-62.98
372.582	12.8
372.792	90.62
373.003	117.25
373.214	16.9
373.424	86.53
373.635	35.33
373.846	152.06
374.056	70.14
374.267	2.56
374.477	20.99
374.688	-44.54
374.898	10.75
375.109	-85.5
375.319	125.44
375.53	78.33
375.74	78.33
375.951	-19.97
376.161	64
376.372	29.18
376.582	-1.54
376.793	2.56
377.003	-13.82
377.214	10.75
377.424	88.57
377.635	31.23
377.845	-38.4
378.055	88.57
378.266	-132.61
378.476	-19.97
378.686	64
378.897	37.38
379.107	121.34
379.317	-1.54
379.528	10.75
379.738	14.85
379.948	-54.78
380.158	74.24
380.369	8.7
380.579	96.77
380.789	-15.87
380.999	109.05
381.21	78.33
381.42	111.1
381.63	-17.92
381.84	84.48
382.05	104.96
382.261	80.38
382.471	131.58
382.681	-5.63
382.891	98.81
383.101	12.8
383.311	2.56
383.521	43.52
383.731	35.33
383.941	68.09
384.151	166.4
384.361	37.38
384.571	14.85
384.781	76.29
384.991	131.58
385.201	113.15
385.411	29.18
385.621	-13.82
385.831	84.48
386.041	18.94
386.251	-22.02
386.461	96.77
386.671	100.86
386.881	84.48
387.091	-1.54
387.301	45.57
387.511	-7.68
387.72	98.81
387.93	123.39
388.14	-24.06
388.35	92.67
388.56	0.51
388.769	117.25
388.979	61.95
389.189	-52.74
389.399	121.34
389.609	70.14
389.818	113.15
390.028	31.23
390.238	102.91
390.447	-15.87
390.657	76.29
390.867	8.7
391.076	-40.45
391.286	8.7
391.496	61.95
391.705	39.42
391.915	51.71
392.125	80.38
392.334	-30.21
392.544	68.09
392.753	33.28
392.963	-71.17
393.172	121.34
393.382	-95.74
393.591	59.9
393.801	-13.82
394.01	49.66
394.22	53.76
394.429	-30.21
394.639	-62.98
394.848	-19.97
395.058	68.09
395.267	43.52
395.477	70.14
395.686	18.94
395.895	158.21
396.105	137.73
396.314	45.57
396.524	51.71
396.733	-32.26
396.942	152.06
397.152	18.94
397.361	176.64
397.57	18.94
397.78	10.75
397.989	92.67
398.198	104.96
398.407	23.04
398.617	35.33
398.826	10.75
399.035	-13.82
399.244	78.33
399.453	-38.4
399.663	76.29
399.872	86.53
400.081	-42.5
400.29	125.44
400.499	6.66
400.708	100.86
400.917	25.09
401.127	-13.82
401.336	-24.06
401.545	141.82
401.754	98.81
401.963	72.19
402.172	-15.87
402.381	-71.17
402.59	6.66
402.799	31.23
403.008	27.14
403.217	55.81
403.426	55.81
403.635	-22.02
403.844	33.28
404.053	18.94
404.262	6.66
404.471	84.48
404.68	49.66
404.888	-46.59
405.097	10.75
405.306	18.94
405.515	-5.63
405.724	18.94
405.933	100.86
406.142	37.38
406.35	51.71
406.559	68.09
406.768	39.42
406.977	154.11
407.185	100.86
407.394	14.85
407.603	-38.4
407.812	37.38
408.02	68.09
408.229	4.61
408.438	31.23
408.646	2.56
408.855	-7.68
409.064	27.14
409.272	-26.11
409.481	55.81
409.69	16.9
409.898	-56.83
410.107	39.42
410.315	14.85
410.524	-19.97
410.733	72.19
410.941	-67.07
411.15	41.47
411.358	37.38
411.567	162.3
411.775	82.43
411.984	84.48
412.192	14.85
412.401	8.7
412.609	219.64
412.818	76.29
413.026	76.29
413.234	-3.58
413.443	-67.07
413.651	-11.78
413.86	-38.4
414.068	156.16
414.276	172.54
414.485	-13.82
414.693	170.49
414.901	133.63
415.11	117.25
415.318	8.7
415.526	14.85
415.734	143.87
415.943	-7.68
416.151	135.68
416.359	33.28
416.567	51.71
416.776	117.25
416.984	78.33
417.192	131.58
417.4	-48.64
417.608	-26.11
417.817	-15.87
418.025	127.49
418.233	168.45
418.441	-69.12
418.649	12.8
418.857	-5.63
419.065	53.76
419.273	86.53
419.481	-50.69
419.689	18.94
419.897	-54.78
420.105	-95.74
420.313	100.86
420.521	109.05
420.729	109.05
420.937	-1.54
421.145	-116.22
421.353	207.36
421.561	137.73
421.769	27.14
421.977	6.66
422.185	66.05
422.393	14.85
422.601	68.09
422.809	-13.82
423.017	25.09
423.224	37.38
423.432	14.85
423.64	27.14
423.848	176.64
424.056	59.9
424.263	35.33
424.471	6.66
424.679	141.82
424.887	-38.4
425.094	88.57
425.302	98.81
425.51	23.04
425.718	98.81
425.925	84.48
426.133	18.94
426.341	229.88
426.548	-38.4
426.756	20.99
426.964	145.92
427.171	-36.35
427.379	123.39
427.586	43.52
427.794	45.57
428.001	141.82
428.209	68.09
428.417	133.63
428.624	64
428.832	84.48
429.039	109.05
429.247	53.76
429.454	98.81
429.662	182.78
429.869	37.38
430.076	123.39
430.284	152.06
430.491	174.59
430.699	117.25
430.906	172.54
431.114	18.94
431.321	92.67
431.528	-22.02
431.736	84.48
431.943	133.63
432.15	109.05
432.358	195.07
432.565	227.84
432.772	10.75
432.979	176.64
433.187	107.01
433.394	174.59
433.601	98.81
433.808	320
434.016	178.69
434.223	182.78
434.43	176.64
434.637	166.4
434.844	264.7
435.052	221.69
435.259	162.3
435.466	207.36
435.673	178.69
435.88	256.51
436.087	205.31
436.294	233.98
436.501	301.56
436.708	266.75
436.915	326.14
437.122	262.65
437.329	221.69
437.537	262.65
437.743	231.93
437.95	334.33
438.157	334.33
438.364	311.8
438.571	313.85
438.778	346.62
438.985	313.85
439.192	297.47
439.399	289.28
439.606	442.87
439.813	467.45
440.02	485.88
440.227	563.7
440.433	518.65
440.64	440.83
440.847	449.02
441.054	543.22
441.261	602.61
441.467	526.84
441.674	539.13
441.881	567.8
442.088	506.36
442.294	614.9
442.501	670.2
442.708	707.06
442.914	682.49
443.121	754.16
443.328	682.49
443.534	821.75
443.741	752.12
443.948	707.06
444.154	772.6
444.361	1024.5
444.568	907.76
444.774	879.09
444.981	877.04
445.187	1085.94
445.394	1083.89
445.6	1038.83
445.807	1149.42
446.013	1235.44
446.22	1065.46
446.426	1243.63
446.633	1239.53
446.839	1364.46
447.046	1169.9
447.252	1505.77
447.459	1448.43
447.665	1460.71
447.871	1679.85
448.078	1759.72
448.284	1694.18
448.491	1743.33
448.697	1765.86
448.903	1878.5
449.11	2001.38
449.316	1892.84
449.522	2134.5
449.728	2204.13
449.935	2322.91
450.141	2144.74
450.347	2384.35
450.553	2464.22
450.76	2357.72
450.966	2544.09
451.172	2636.25
451.378	2689.49
451.584	2787.8
451.791	2894.29
451.997	3094.99
452.203	3146.19
452.409	3318.22
452.615	3430.86
452.821	3473.87
453.027	3492.3
453.233	3817.93
453.44	3697.1
453.646	3819.97
453.852	3994.05
454.058	4250.05
454.264	4583.87
454.47	4608.44
454.676	4657.59
454.882	5155.25
455.088	4694.46
455.294	5038.52
455.5	5587.37
455.705	5867.94
455.911	5880.23
456.117	6138.27
456.323	6115.75
456.529	6168.99
456.735	6519.2
456.941	7006.61
457.147	7192.98
457.352	7295.38
457.558	7559.56
457.764	8075.65
457.97	8145.28
458.176	8481.15
458.381	9124.21
458.587	9070.97
458.793	9697.64
458.999	9550.19
459.204	10852.7
459.41	11143.51
459.616	10897.75
459.821	11931.98
460.027	12167.49
460.233	12589.38
460.438	12785.98
460.644	13463.86
460.85	13650.22
461.055	14227.75
461.261	15130.91
461.466	14698.78
461.672	14792.99
461.878	16703.75
462.083	16478.47
462.289	16726.27
462.494	17410.29
462.7	17533.17
462.905	17684.72
463.111	19112.16
463.316	20084.94
463.522	20478.15
463.727	21151.93
463.932	22024.37
464.138	22849.7
464.343	23715.99
464.549	23783.57
464.754	25383.04
464.959	26148.98
465.165	26493.04
465.37	26712.17
465.575	26290.29
465.781	28280.91
465.986	28799.05
466.191	28594.25
466.397	28672.07
466.602	28215.38
466.807	30148.66
467.012	30410.8
467.218	30812.2
467.423	30957.61
467.628	31678.49
467.833	33447.94
468.038	32792.59
468.244	32016.41
468.449	34093.05
468.654	33550.34
468.859	33505.28
469.064	33327.11
469.269	32116.76
469.474	32933.9
469.679	33323.01
469.885	32927.75
