Data from USB4F104151__80__11-31-26-761.txt Node

Date: Wed Feb 26 11:31:26 EST 2025
User: louis
Spectrometer: USB4F10415
Trigger mode: 4
Integration Time (sec): 1.000000E-1
Scans to average: 1
Electric dark correction enabled: true
Nonlinearity correction enabled: false
Boxcar width: 0
XAxis mode: Wavelengths
Number of Pixels in Spectrum: 3648
>>>>>Begin Spectral Data<<<<<
178.204	-399.7
178.424	-399.7
178.644	-399.7
178.864	-395.6
179.084	-373.07
179.304	-6.49
179.524	16.04
179.744	-6.49
179.964	11.95
180.184	44.71
180.404	24.23
180.624	-51.54
180.844	32.43
181.064	-61.78
181.283	40.62
181.503	-100.69
181.723	57
181.943	-47.44
182.163	153.26
182.383	-26.96
182.602	126.63
182.822	206.5
183.042	63.15
183.262	24.23
183.482	-18.77
183.701	75.43
183.921	30.38
184.141	-39.25
184.361	83.63
184.58	52.91
184.8	40.62
185.02	40.62
185.239	192.17
185.459	102.06
185.679	50.86
185.898	-69.97
186.118	100.01
186.338	116.39
186.557	118.44
186.777	-35.16
186.997	38.57
187.216	75.43
187.436	200.36
187.655	9.9
187.875	145.06
188.095	44.71
188.314	202.41
188.534	159.4
188.753	-45.4
188.973	171.69
189.192	198.31
189.412	-18.77
189.631	69.29
189.851	167.59
190.07	202.41
190.29	28.33
190.509	32.43
190.729	-33.11
190.948	181.93
191.168	272.04
191.387	106.15
191.607	100.01
191.826	143.02
192.045	83.63
192.265	-2.39
192.484	16.04
192.704	147.11
192.923	-110.93
193.142	255.65
193.362	120.49
193.581	165.54
193.8	85.67
194.02	93.87
194.239	77.48
194.458	9.9
194.678	44.71
194.897	22.19
195.116	102.06
195.335	112.3
195.555	118.44
195.774	7.85
195.993	118.44
196.212	95.91
196.432	1.71
196.651	-16.73
196.87	54.95
197.089	216.74
197.308	104.11
197.528	149.16
197.747	-24.92
197.966	67.24
198.185	231.08
198.404	-31.06
198.623	136.87
198.842	126.63
199.062	118.44
199.281	93.87
199.5	83.63
199.719	126.63
199.938	147.11
200.157	87.72
200.376	91.82
200.595	112.3
200.814	114.34
201.033	11.95
201.252	229.03
201.471	95.91
201.69	183.98
201.909	57
202.128	114.34
202.347	124.58
202.566	32.43
202.785	-26.96
203.004	-4.44
203.223	282.28
203.442	69.29
203.661	26.28
203.879	57
204.098	118.44
204.317	-63.83
204.536	89.77
204.755	69.29
204.974	63.15
205.193	52.91
205.411	95.91
205.63	40.62
205.849	93.87
206.068	-29.01
206.287	-35.16
206.505	95.91
206.724	13.99
206.943	-8.53
207.162	-45.4
207.381	161.45
207.599	69.29
207.818	126.63
208.037	-8.53
208.255	7.85
208.474	34.47
208.693	73.39
208.911	3.75
209.13	153.26
209.349	89.77
209.567	177.83
209.786	114.34
210.005	91.82
210.223	79.53
210.442	-96.6
210.661	44.71
210.879	128.68
211.098	93.87
211.316	73.39
211.535	67.24
211.753	30.38
211.972	128.68
212.191	91.82
212.409	48.81
212.628	85.67
212.846	9.9
213.065	34.47
213.283	104.11
213.502	-0.34
213.72	57
213.938	7.85
214.157	-0.34
214.375	138.92
214.594	50.86
214.812	91.82
215.031	48.81
215.249	57
215.467	83.63
215.686	104.11
215.904	126.63
216.122	42.67
216.341	61.1
216.559	67.24
216.778	157.35
216.996	143.02
217.214	44.71
217.432	93.87
217.651	-37.2
217.869	100.01
218.087	36.52
218.306	-12.63
218.524	87.72
218.742	3.75
218.96	149.16
219.179	85.67
219.397	24.23
219.615	188.07
219.833	165.54
220.051	-20.82
220.27	124.58
220.488	106.15
220.706	126.63
220.924	32.43
221.142	-47.44
221.36	112.3
221.578	102.06
221.796	147.11
222.015	36.52
222.233	48.81
222.451	83.63
222.669	-47.44
222.887	85.67
223.105	13.99
223.323	54.95
223.541	-10.58
223.759	63.15
223.977	93.87
224.195	179.88
224.413	69.29
224.631	110.25
224.849	102.06
225.067	237.22
225.285	97.96
225.503	28.33
225.721	-172.37
225.939	-0.34
226.157	102.06
226.375	173.74
226.592	22.19
226.81	75.43
227.028	116.39
227.246	145.06
227.464	120.49
227.682	91.82
227.9	157.35
228.117	87.72
228.335	85.67
228.553	22.19
228.771	50.86
228.989	130.73
229.206	75.43
229.424	-4.44
229.642	1.71
229.86	-29.01
230.077	177.83
230.295	75.43
230.513	188.07
230.731	124.58
230.948	167.59
231.166	151.21
231.384	104.11
231.601	54.95
231.819	222.89
232.037	67.24
232.254	18.09
232.472	61.1
232.689	93.87
232.907	140.97
233.125	-51.54
233.342	-18.77
233.56	16.04
233.777	44.71
233.995	-20.82
234.213	130.73
234.43	171.69
234.648	46.76
234.865	104.11
235.083	108.2
235.3	151.21
235.518	114.34
235.735	120.49
235.953	54.95
236.17	61.1
236.388	-22.87
236.605	95.91
236.822	73.39
237.04	155.3
237.257	57
237.475	28.33
237.692	69.29
237.909	97.96
238.127	-57.68
238.344	108.2
238.562	77.48
238.779	-37.2
238.996	-88.4
239.214	40.62
239.431	50.86
239.648	7.85
239.865	102.06
240.083	112.3
240.3	28.33
240.517	-4.44
240.735	36.52
240.952	159.4
241.169	22.19
241.386	44.71
241.603	20.14
241.821	-43.35
242.038	167.59
242.255	114.34
242.472	16.04
242.689	93.87
242.907	110.25
243.124	171.69
243.341	71.34
243.558	26.28
243.775	16.04
243.992	-20.82
244.209	130.73
244.426	163.5
244.643	75.43
244.86	67.24
245.078	155.3
245.295	65.19
245.512	40.62
245.729	50.86
245.946	63.15
246.163	69.29
246.38	-35.16
246.597	26.28
246.814	89.77
247.031	95.91
247.248	11.95
247.464	104.11
247.681	57
247.898	59.05
248.115	1.71
248.332	-6.49
248.549	190.12
248.766	186.02
248.983	108.2
249.2	175.78
249.417	161.45
249.633	11.95
249.85	79.53
250.067	79.53
250.284	-8.53
250.501	104.11
250.717	188.07
250.934	-69.97
251.151	87.72
251.368	59.05
251.585	67.24
251.801	-10.58
252.018	-43.35
252.235	87.72
252.451	5.8
252.668	22.19
252.885	210.6
253.102	81.58
253.318	-20.82
253.535	-4.44
253.752	34.47
253.968	79.53
254.185	-41.3
254.401	63.15
254.618	110.25
254.835	32.43
255.051	155.3
255.268	-20.82
255.484	108.2
255.701	-0.34
255.917	26.28
256.134	30.38
256.351	24.23
256.567	16.04
256.784	100.01
257	-65.88
257.217	95.91
257.433	83.63
257.65	-4.44
257.866	208.55
258.082	44.71
258.299	-10.58
258.515	134.82
258.732	16.04
258.948	16.04
259.165	71.34
259.381	-24.92
259.597	32.43
259.814	-26.96
260.03	77.48
260.246	20.14
260.463	118.44
260.679	165.54
260.895	130.73
261.112	67.24
261.328	-43.35
261.544	11.95
261.761	134.82
261.977	-4.44
262.193	-37.2
262.409	161.45
262.626	63.15
262.842	36.52
263.058	-51.54
263.274	67.24
263.49	11.95
263.707	173.74
263.923	149.16
264.139	-63.83
264.355	89.77
264.571	161.45
264.787	89.77
265.004	136.87
265.22	91.82
265.436	7.85
265.652	161.45
265.868	124.58
266.084	-18.77
266.3	32.43
266.516	-49.49
266.732	102.06
266.948	32.43
267.164	32.43
267.38	183.98
267.596	118.44
267.812	147.11
268.028	118.44
268.244	16.04
268.46	93.87
268.676	67.24
268.892	110.25
269.108	40.62
269.324	13.99
269.54	-37.2
269.756	171.69
269.972	-55.64
270.188	69.29
270.403	-20.82
270.619	100.01
270.835	106.15
271.051	114.34
271.267	36.52
271.483	54.95
271.698	102.06
271.914	147.11
272.13	108.2
272.346	87.72
272.562	108.2
272.777	190.12
272.993	71.34
273.209	16.04
273.425	126.63
273.64	-4.44
273.856	126.63
274.072	-33.11
274.287	-18.77
274.503	114.34
274.719	93.87
274.934	-6.49
275.15	-26.96
275.366	97.96
275.581	16.04
275.797	44.71
276.012	61.1
276.228	13.99
276.444	30.38
276.659	79.53
276.875	-35.16
277.09	42.67
277.306	36.52
277.521	52.91
277.737	30.38
277.952	126.63
278.168	102.06
278.383	11.95
278.599	24.23
278.814	89.77
279.03	9.9
279.245	124.58
279.461	61.1
279.676	112.3
279.892	-59.73
280.107	-2.39
280.322	-49.49
280.538	110.25
280.753	52.91
280.969	110.25
281.184	54.95
281.399	167.59
281.615	7.85
281.83	124.58
282.045	36.52
282.26	9.9
282.476	11.95
282.691	134.82
282.906	85.67
283.122	110.25
283.337	-4.44
283.552	85.67
283.767	-6.49
283.983	87.72
284.198	147.11
284.413	116.39
284.628	-39.25
284.843	91.82
285.058	79.53
285.274	106.15
285.489	3.75
285.704	171.69
285.919	22.19
286.134	73.39
286.349	-12.63
286.564	65.19
286.779	143.02
286.995	67.24
287.21	-31.06
287.425	91.82
287.64	52.91
287.855	128.68
288.07	-55.64
288.285	175.78
288.5	145.06
288.715	106.15
288.93	11.95
289.145	-43.35
289.36	130.73
289.575	77.48
289.79	151.21
290.004	-4.44
290.219	71.34
290.434	16.04
290.649	42.67
290.864	7.85
291.079	71.34
291.294	40.62
291.509	7.85
291.724	34.47
291.938	65.19
292.153	-20.82
292.368	87.72
292.583	104.11
292.798	136.87
293.012	100.01
293.227	65.19
293.442	24.23
293.657	138.92
293.871	112.3
294.086	81.58
294.301	202.41
294.516	54.95
294.73	9.9
294.945	71.34
295.16	42.67
295.374	67.24
295.589	97.96
295.804	-51.54
296.018	9.9
296.233	87.72
296.447	95.91
296.662	-31.06
296.877	177.83
297.091	124.58
297.306	104.11
297.52	46.76
297.735	75.43
297.949	73.39
298.164	54.95
298.378	63.15
298.593	7.85
298.807	38.57
299.022	-6.49
299.236	194.22
299.451	-4.44
299.665	73.39
299.88	3.75
300.094	11.95
300.309	93.87
300.523	79.53
300.737	36.52
300.952	61.1
301.166	108.2
301.381	22.19
301.595	50.86
301.809	40.62
302.024	-37.2
302.238	-39.25
302.452	173.74
302.667	5.8
302.881	104.11
303.095	177.83
303.309	26.28
303.524	48.81
303.738	5.8
303.952	5.8
304.166	95.91
304.381	-49.49
304.595	179.88
304.809	73.39
305.023	18.09
305.237	97.96
305.452	50.86
305.666	112.3
305.88	130.73
306.094	157.35
306.308	93.87
306.522	104.11
306.736	128.68
306.95	112.3
307.164	75.43
307.379	77.48
307.593	91.82
307.807	151.21
308.021	134.82
308.235	61.1
308.449	-80.21
308.663	75.43
308.877	255.65
309.091	102.06
309.305	89.77
309.519	-26.96
309.733	83.63
309.947	-24.92
310.161	138.92
310.374	59.05
310.588	151.21
310.802	-29.01
311.016	65.19
311.23	87.72
311.444	16.04
311.658	3.75
311.872	120.49
312.085	143.02
312.299	206.5
312.513	204.46
312.727	40.62
312.941	-14.68
313.154	124.58
313.368	16.04
313.582	9.9
313.796	16.04
314.009	44.71
314.223	167.59
314.437	124.58
314.651	42.67
314.864	26.28
315.078	28.33
315.292	40.62
315.505	-20.82
315.719	138.92
315.933	106.15
316.146	71.34
316.36	-43.35
316.573	81.58
316.787	138.92
317.001	108.2
317.214	-20.82
317.428	114.34
317.641	3.75
317.855	9.9
318.068	52.91
318.282	-12.63
318.495	169.64
318.709	93.87
318.922	85.67
319.136	239.27
319.349	126.63
319.563	-2.39
319.776	83.63
319.99	18.09
320.203	173.74
320.417	28.33
320.63	100.01
320.843	175.78
321.057	16.04
321.27	112.3
321.483	128.68
321.697	149.16
321.91	73.39
322.124	83.63
322.337	134.82
322.55	9.9
322.763	85.67
322.977	73.39
323.19	-0.34
323.403	77.48
323.617	183.98
323.83	46.76
324.043	-22.87
324.256	26.28
324.469	-63.83
324.683	93.87
324.896	130.73
325.109	-4.44
325.322	-92.5
325.535	89.77
325.748	118.44
325.962	54.95
326.175	38.57
326.388	130.73
326.601	130.73
326.814	38.57
327.027	1.71
327.24	134.82
327.453	-119.12
327.666	130.73
327.879	165.54
328.092	77.48
328.305	50.86
328.518	-35.16
328.731	20.14
328.944	32.43
329.157	188.07
329.37	-29.01
329.583	165.54
329.796	149.16
330.009	-4.44
330.222	40.62
330.435	124.58
330.648	108.2
330.861	120.49
331.073	140.97
331.286	122.54
331.499	7.85
331.712	-24.92
331.925	-10.58
332.138	48.81
332.35	110.25
332.563	-24.92
332.776	192.17
332.989	-2.39
333.202	48.81
333.414	63.15
333.627	54.95
333.84	26.28
334.053	83.63
334.265	61.1
334.478	-24.92
334.691	112.3
334.903	52.91
335.116	38.57
335.329	36.52
335.541	26.28
335.754	188.07
335.966	87.72
336.179	44.71
336.392	40.62
336.604	93.87
336.817	114.34
337.029	95.91
337.242	95.91
337.454	151.21
337.667	71.34
337.88	210.6
338.092	192.17
338.305	36.52
338.517	71.34
338.729	106.15
338.942	100.01
339.154	-61.78
339.367	46.76
339.579	38.57
339.792	-2.39
340.004	91.82
340.217	67.24
340.429	85.67
340.641	-24.92
340.854	28.33
341.066	3.75
341.278	153.26
341.491	183.98
341.703	50.86
341.915	-69.97
342.128	151.21
342.34	54.95
342.552	-39.25
342.764	18.09
342.977	24.23
343.189	28.33
343.401	61.1
343.613	40.62
343.826	91.82
344.038	9.9
344.25	91.82
344.462	75.43
344.674	136.87
344.886	52.91
345.099	54.95
345.311	65.19
345.523	77.48
345.735	-41.3
345.947	130.73
346.159	100.01
346.371	-6.49
346.583	28.33
346.795	214.7
347.007	13.99
347.219	130.73
347.431	77.48
347.643	169.64
347.855	67.24
348.067	120.49
348.279	-6.49
348.491	-33.11
348.703	149.16
348.915	-45.4
349.127	-14.68
349.339	85.67
349.551	48.81
349.763	181.93
349.975	-2.39
350.187	116.39
350.399	175.78
350.61	130.73
350.822	-14.68
351.034	83.63
351.246	42.67
351.458	36.52
351.669	91.82
351.881	116.39
352.093	61.1
352.305	220.84
352.517	67.24
352.728	128.68
352.94	89.77
353.152	83.63
353.363	-72.02
353.575	24.23
353.787	181.93
353.999	93.87
354.21	208.55
354.422	-10.58
354.633	50.86
354.845	73.39
355.057	34.47
355.268	48.81
355.48	124.58
355.692	-41.3
355.903	24.23
356.115	13.99
356.326	-98.64
356.538	167.59
356.749	95.91
356.961	186.02
357.172	85.67
357.384	-20.82
357.595	245.41
357.807	18.09
358.018	-18.77
358.23	-10.58
358.441	134.82
358.653	97.96
358.864	13.99
359.075	50.86
359.287	73.39
359.498	134.82
359.709	93.87
359.921	-4.44
360.132	91.82
360.344	3.75
360.555	22.19
360.766	59.05
360.977	18.09
361.189	114.34
361.4	42.67
361.611	132.78
361.823	134.82
362.034	89.77
362.245	-39.25
362.456	67.24
362.667	91.82
362.879	-35.16
363.09	81.58
363.301	112.3
363.512	71.34
363.723	-0.34
363.935	20.14
364.146	136.87
364.357	42.67
364.568	69.29
364.779	9.9
364.99	83.63
365.201	61.1
365.412	192.17
365.623	-47.44
365.834	95.91
366.045	46.76
366.256	30.38
366.467	147.11
366.678	50.86
366.889	59.05
367.1	-39.25
367.311	95.91
367.522	-29.01
367.733	132.78
367.944	67.24
368.155	-14.68
368.366	95.91
368.577	179.88
368.788	116.39
368.999	28.33
369.209	36.52
369.42	222.89
369.631	231.08
369.842	122.54
370.053	13.99
370.264	138.92
370.474	-26.96
370.685	93.87
370.896	85.67
371.107	138.92
371.317	138.92
371.528	32.43
371.739	177.83
371.95	124.58
372.16	183.98
372.371	-16.73
372.582	65.19
372.792	149.16
373.003	124.58
373.214	167.59
373.424	46.76
373.635	16.04
373.846	114.34
374.056	130.73
374.267	147.11
374.477	149.16
374.688	13.99
374.898	132.78
375.109	69.29
375.319	89.77
375.53	173.74
375.74	132.78
375.951	-31.06
376.161	52.91
376.372	93.87
376.582	-20.82
376.793	83.63
377.003	-8.53
377.214	34.47
377.424	104.11
377.635	1.71
377.845	-26.96
378.055	50.86
378.266	28.33
378.476	44.71
378.686	87.72
378.897	42.67
379.107	114.34
379.317	75.43
379.528	-16.73
379.738	112.3
379.948	54.95
380.158	134.82
380.369	118.44
380.579	155.3
380.789	59.05
380.999	157.35
381.21	147.11
381.42	249.51
381.63	85.67
381.84	145.06
382.05	97.96
382.261	93.87
382.471	212.65
382.681	140.97
382.891	173.74
383.101	128.68
383.311	26.28
383.521	3.75
383.731	155.3
383.941	210.6
384.151	83.63
384.361	-10.58
384.571	-26.96
384.781	106.15
384.991	239.27
385.201	181.93
385.411	54.95
385.621	91.82
385.831	38.57
386.041	1.71
386.251	-14.68
386.461	204.46
386.671	102.06
386.881	102.06
387.091	48.81
387.301	177.83
387.511	32.43
387.72	102.06
387.93	61.1
388.14	-18.77
388.35	106.15
388.56	161.45
388.769	134.82
388.979	48.81
389.189	40.62
389.399	61.1
389.609	134.82
389.818	181.93
390.028	106.15
390.238	46.76
390.447	3.75
390.657	136.87
390.867	32.43
391.076	-53.59
391.286	9.9
391.496	32.43
391.705	-18.77
391.915	140.97
392.125	149.16
392.334	-6.49
392.544	138.92
392.753	61.1
392.963	13.99
393.172	110.25
393.382	22.19
393.591	177.83
393.801	79.53
394.01	155.3
394.22	145.06
394.429	32.43
394.639	153.26
394.848	85.67
395.058	118.44
395.267	67.24
395.477	153.26
395.686	108.2
395.895	239.27
396.105	192.17
396.314	106.15
396.524	69.29
396.733	40.62
396.942	114.34
397.152	61.1
397.361	155.3
397.57	77.48
397.78	83.63
397.989	26.28
398.198	165.54
398.407	106.15
398.617	46.76
398.826	24.23
399.035	28.33
399.244	61.1
399.453	28.33
399.663	73.39
399.872	87.72
400.081	9.9
400.29	177.83
400.499	-41.3
400.708	126.63
400.917	46.76
401.127	52.91
401.336	-16.73
401.545	165.54
401.754	149.16
401.963	114.34
402.172	-31.06
402.381	-29.01
402.59	77.48
402.799	3.75
403.008	95.91
403.217	34.47
403.426	97.96
403.635	9.9
403.844	46.76
404.053	75.43
404.262	63.15
404.471	218.79
404.68	153.26
404.888	128.68
405.097	89.77
405.306	42.67
405.515	118.44
405.724	50.86
405.933	91.82
406.142	116.39
406.35	124.58
406.559	71.34
406.768	91.82
406.977	196.26
407.185	138.92
407.394	208.55
407.603	34.47
407.812	136.87
408.02	132.78
408.229	32.43
408.438	83.63
408.646	-16.73
408.855	24.23
409.064	67.24
409.272	61.1
409.481	71.34
409.69	-61.78
409.898	75.43
410.107	63.15
410.315	132.78
410.524	-41.3
410.733	89.77
410.941	52.91
411.15	104.11
411.358	91.82
411.567	93.87
411.775	40.62
411.984	34.47
412.192	130.73
412.401	65.19
412.609	173.74
412.818	151.21
413.026	89.77
413.234	140.97
413.443	87.72
413.651	89.77
413.86	44.71
414.068	140.97
414.276	196.26
414.485	81.58
414.693	257.7
414.901	161.45
415.11	206.5
415.318	71.34
415.526	83.63
415.734	130.73
415.943	38.57
416.151	206.5
416.359	102.06
416.567	28.33
416.776	77.48
416.984	153.26
417.192	118.44
417.4	54.95
417.608	65.19
417.817	61.1
418.025	120.49
418.233	200.36
418.441	1.71
418.649	-41.3
418.857	104.11
419.065	167.59
419.273	34.47
419.481	93.87
419.689	89.77
419.897	38.57
420.105	13.99
420.313	73.39
420.521	212.65
420.729	124.58
420.937	75.43
421.145	34.47
421.353	161.45
421.561	120.49
421.769	155.3
421.977	-18.77
422.185	102.06
422.393	18.09
422.601	177.83
422.809	167.59
423.017	73.39
423.224	159.4
423.432	44.71
423.64	126.63
423.848	85.67
424.056	65.19
424.263	120.49
424.471	81.58
424.679	149.16
424.887	-12.63
425.094	216.74
425.302	124.58
425.51	104.11
425.718	108.2
425.925	110.25
426.133	22.19
426.341	173.74
426.548	46.76
426.756	61.1
426.964	134.82
427.171	48.81
427.379	140.97
427.586	20.14
427.794	91.82
428.001	118.44
428.209	110.25
428.417	179.88
428.624	116.39
428.832	165.54
429.039	151.21
429.247	145.06
429.454	138.92
429.662	233.13
429.869	190.12
430.076	136.87
430.284	175.78
430.491	134.82
430.699	136.87
430.906	251.56
431.114	161.45
431.321	159.4
431.528	93.87
431.736	140.97
431.943	235.18
432.15	173.74
432.358	265.89
432.565	345.77
432.772	61.1
432.979	192.17
433.187	122.54
433.394	206.5
433.601	110.25
433.808	239.27
434.016	276.13
434.223	192.17
434.43	222.89
434.637	249.51
434.844	325.29
435.052	276.13
435.259	229.03
435.466	313
435.673	308.9
435.88	267.94
436.087	374.44
436.294	349.86
436.501	321.19
436.708	300.71
436.915	265.89
437.122	386.72
437.329	308.9
437.537	337.57
437.743	407.2
437.95	442.02
438.157	313
438.364	329.38
438.571	366.25
438.778	487.08
438.985	442.02
439.192	458.4
439.399	364.2
439.606	458.4
439.813	585.38
440.02	601.76
440.227	634.53
440.433	599.71
440.64	542.37
440.847	454.31
441.054	614.05
441.261	685.73
441.467	681.63
441.674	568.99
441.881	738.98
442.088	642.72
442.294	808.61
442.501	806.56
442.708	872.09
442.914	724.64
443.121	896.67
443.328	814.75
443.534	956.06
443.741	892.57
443.948	738.98
444.154	980.64
444.361	1103.51
444.568	1070.75
444.774	1144.47
444.981	990.88
445.187	1271.45
445.394	1095.32
445.6	1246.87
445.807	1332.89
446.013	1341.08
446.22	1212.06
446.426	1322.65
446.633	1435.28
446.839	1644.18
447.046	1394.33
447.252	1674.9
447.459	1621.65
447.665	1592.98
447.871	1736.34
448.078	1848.97
448.284	1896.08
448.491	2002.57
448.697	2092.68
448.903	2256.52
449.11	2201.23
449.316	2160.27
449.522	2291.34
449.728	2360.97
449.935	2434.69
450.141	2571.91
450.347	2793.09
450.553	2549.38
450.76	2653.83
450.966	2928.25
451.172	2870.91
451.378	3174.01
451.584	3155.58
451.791	3307.13
451.997	3401.33
452.203	3563.12
452.409	3608.18
452.615	3905.14
452.821	3735.15
453.027	3794.54
453.233	4298.35
453.44	4335.21
453.646	4470.37
453.852	4574.82
454.058	4847.2
454.264	4816.48
454.47	5351
454.676	5271.13
454.882	5713.49
455.088	5566.04
455.294	5981.78
455.5	6170.19
455.705	6520.39
455.911	6542.92
456.117	6661.7
456.323	6907.46
456.529	7079.49
456.735	7489.08
456.941	7714.36
457.147	8013.36
457.352	8263.21
457.558	8719.91
457.764	9125.41
457.97	9332.25
458.176	9688.6
458.381	10155.54
458.587	10538.51
458.793	10905.09
458.999	10716.68
459.204	12131.83
459.41	12645.87
459.616	12271.09
459.821	13106.66
460.027	13731.29
460.233	14325.2
460.438	14605.77
460.644	15234.5
460.85	15277.51
461.055	15674.81
461.261	16651.69
461.466	16463.28
461.672	16534.96
461.878	19021.19
462.083	18511.25
462.289	18855.31
462.494	19563.9
462.7	20098.42
462.905	19985.79
463.111	21704.03
463.316	22928.72
463.522	23194.95
463.727	23569.73
463.932	25093.42
464.138	25746.72
464.343	26559.77
464.549	27002.13
464.754	28910.83
464.959	29416.68
465.165	30217.44
465.37	29490.41
465.575	29975.78
465.781	31587.53
465.986	32453.82
466.191	32478.4
466.397	32816.31
466.602	31671.5
466.807	33666.22
467.012	34106.53
467.218	34550.94
467.423	35263.63
467.628	35767.43
467.833	37225.59
