Data from USB4F104151__87__10-34-38-333.txt Node

Date: Wed Feb 26 10:34:38 EST 2025
User: louis
Spectrometer: USB4F10415
Trigger mode: 4
Integration Time (sec): 1.000000E-1
Scans to average: 1
Electric dark correction enabled: true
Nonlinearity correction enabled: false
Boxcar width: 0
XAxis mode: Wavelengths
Number of Pixels in Spectrum: 3648
>>>>>Begin Spectral Data<<<<<
178.204	-355.15
178.424	-355.15
178.644	-355.15
178.864	-394.06
179.084	-371.54
179.304	7.34
179.524	-56.15
179.744	-13.14
179.964	25.77
180.184	36.01
180.404	-0.85
180.624	-25.43
180.844	-7
181.064	-15.19
181.283	38.06
181.503	-33.62
181.723	44.2
181.943	-70.48
182.163	146.6
182.383	-66.39
182.602	38.06
182.822	171.18
183.042	7.34
183.262	-60.24
183.482	-0.85
183.701	50.35
183.921	36.01
184.141	15.53
184.361	76.97
184.58	64.68
184.8	119.98
185.02	25.77
185.239	74.92
185.459	91.31
185.679	109.74
185.898	-39.76
186.118	42.15
186.338	27.82
186.557	140.46
186.777	29.87
186.997	1.19
187.216	66.73
187.436	128.17
187.655	58.54
187.875	113.83
188.095	64.68
188.314	177.32
188.534	99.5
188.753	-37.72
188.973	54.44
189.192	175.27
189.412	-39.76
189.631	38.06
189.851	66.73
190.07	140.46
190.29	58.54
190.509	3.24
190.729	23.72
190.948	210.09
191.168	197.8
191.387	68.78
191.607	-35.67
191.826	95.4
192.045	74.92
192.265	52.39
192.484	60.59
192.704	58.54
192.923	36.01
193.142	183.46
193.362	11.43
193.581	181.42
193.8	58.54
194.02	74.92
194.239	-11.09
194.458	115.88
194.678	-21.33
194.897	-17.24
195.116	29.87
195.335	52.39
195.555	56.49
195.774	-50
195.993	11.43
196.212	42.15
196.432	-0.85
196.651	5.29
196.87	52.39
197.089	142.5
197.308	70.83
197.528	83.11
197.747	-113.49
197.966	40.11
198.185	126.12
198.404	-58.2
198.623	70.83
198.842	203.94
199.062	109.74
199.281	29.87
199.5	91.31
199.719	70.83
199.938	81.07
200.157	58.54
200.376	173.22
200.595	126.12
200.814	23.72
201.033	-33.62
201.252	203.94
201.471	19.63
201.69	111.78
201.909	46.25
202.128	128.17
202.347	111.78
202.566	66.73
202.785	-86.87
203.004	-29.52
203.223	263.33
203.442	-33.62
203.661	-15.19
203.879	-0.85
204.098	119.98
204.317	-7
204.536	46.25
204.755	134.31
204.974	138.41
205.193	-31.57
205.411	91.31
205.63	136.36
205.849	105.64
206.068	7.34
206.287	-25.43
206.505	95.4
206.724	48.3
206.943	21.67
207.162	13.48
207.381	46.25
207.599	-21.33
207.818	7.34
208.037	-35.67
208.255	81.07
208.474	128.17
208.693	-11.09
208.911	31.91
209.13	117.93
209.349	148.65
209.567	31.91
209.786	58.54
210.005	79.02
210.223	62.63
210.442	-84.82
210.661	-9.05
210.879	44.2
211.098	-0.85
211.316	93.35
211.535	21.67
211.753	7.34
211.972	113.83
212.191	3.24
212.409	66.73
212.628	91.31
212.846	54.44
213.065	50.35
213.283	119.98
213.502	-11.09
213.72	44.2
213.938	68.78
214.157	1.19
214.375	142.5
214.594	33.96
214.812	124.07
215.031	52.39
215.249	107.69
215.467	132.26
215.686	13.48
215.904	36.01
216.122	68.78
216.341	132.26
216.559	3.24
216.778	117.93
216.996	210.09
217.214	-11.09
217.432	-4.95
217.651	-37.72
217.869	-9.05
218.087	42.15
218.306	23.72
218.524	99.5
218.742	87.21
218.96	140.46
219.179	13.48
219.397	87.21
219.615	212.14
219.833	76.97
220.051	-25.43
220.27	124.07
220.488	132.26
220.706	95.4
220.924	85.16
221.142	83.11
221.36	50.35
221.578	56.49
221.796	50.35
222.015	-27.48
222.233	89.26
222.451	124.07
222.669	-25.43
222.887	50.35
223.105	-70.48
223.323	13.48
223.541	3.24
223.759	97.45
223.977	23.72
224.195	224.42
224.413	107.69
224.631	21.67
224.849	60.59
225.067	136.36
225.285	-17.24
225.503	48.3
225.721	-80.72
225.939	58.54
226.157	91.31
226.375	242.85
226.592	-23.38
226.81	-17.24
227.028	150.7
227.246	197.8
227.464	124.07
227.682	76.97
227.9	122.02
228.117	136.36
228.335	74.92
228.553	38.06
228.771	58.54
228.989	50.35
229.206	89.26
229.424	-27.48
229.642	50.35
229.86	-103.25
230.077	179.37
230.295	31.91
230.513	44.2
230.731	58.54
230.948	173.22
231.166	193.7
231.384	64.68
231.601	-39.76
231.819	148.65
232.037	-56.15
232.254	9.39
232.472	31.91
232.689	23.72
232.907	122.02
233.125	-15.19
233.342	46.25
233.56	-23.38
233.777	19.63
233.995	-25.43
234.213	105.64
234.43	115.88
234.648	17.58
234.865	1.19
235.083	46.25
235.3	9.39
235.518	68.78
235.735	74.92
235.953	36.01
236.17	25.77
236.388	-54.1
236.605	87.21
236.822	152.74
237.04	146.6
237.257	158.89
237.475	1.19
237.692	9.39
237.909	60.59
238.127	-7
238.344	36.01
238.562	17.58
238.779	-13.14
238.996	-70.48
239.214	17.58
239.431	21.67
239.648	-21.33
239.865	95.4
240.083	27.82
240.3	17.58
240.517	33.96
240.735	42.15
240.952	109.74
241.169	44.2
241.386	95.4
241.603	44.2
241.821	-95.06
242.038	109.74
242.255	68.78
242.472	-17.24
242.689	38.06
242.907	109.74
243.124	38.06
243.341	87.21
243.558	-2.9
243.775	-103.25
243.992	-50
244.209	109.74
244.426	181.42
244.643	7.34
244.86	-15.19
245.078	117.93
245.295	50.35
245.512	7.34
245.729	54.44
245.946	56.49
246.163	99.5
246.38	-2.9
246.597	62.63
246.814	36.01
247.031	83.11
247.248	-43.86
247.464	109.74
247.681	-11.09
247.898	52.39
248.115	111.78
248.332	-33.62
248.549	101.55
248.766	189.61
248.983	56.49
249.2	70.83
249.417	134.31
249.633	-43.86
249.85	66.73
250.067	-45.91
250.284	64.68
250.501	38.06
250.717	72.87
250.934	-62.29
251.151	52.39
251.368	33.96
251.585	36.01
251.801	21.67
252.018	5.29
252.235	95.4
252.451	-45.91
252.668	107.69
252.885	101.55
253.102	70.83
253.318	11.43
253.535	-39.76
253.752	-13.14
253.968	-23.38
254.185	-23.38
254.401	56.49
254.618	40.11
254.835	21.67
255.051	42.15
255.268	126.12
255.484	-27.48
255.701	25.77
255.917	74.92
256.134	23.72
256.351	83.11
256.567	5.29
256.784	-29.52
257	-86.87
257.217	130.22
257.433	95.4
257.65	-15.19
257.866	115.88
258.082	-54.1
258.299	-74.58
258.515	48.3
258.732	21.67
258.948	-39.76
259.165	70.83
259.381	-66.39
259.597	15.53
259.814	-31.57
260.03	-35.67
260.246	-15.19
260.463	134.31
260.679	152.74
260.895	38.06
261.112	44.2
261.328	48.3
261.544	-25.43
261.761	142.5
261.977	11.43
262.193	31.91
262.409	138.41
262.626	76.97
262.842	19.63
263.058	11.43
263.274	150.7
263.49	27.82
263.707	72.87
263.923	72.87
264.139	-45.91
264.355	40.11
264.571	107.69
264.787	13.48
265.004	103.59
265.22	85.16
265.436	-7
265.652	38.06
265.868	11.43
266.084	-142.16
266.3	17.58
266.516	-37.72
266.732	64.68
266.948	46.25
267.164	13.48
267.38	97.45
267.596	89.26
267.812	85.16
268.028	58.54
268.244	25.77
268.46	44.2
268.676	-4.95
268.892	15.53
269.108	21.67
269.324	-72.53
269.54	-21.33
269.756	81.07
269.972	-95.06
270.188	-19.29
270.403	33.96
270.619	68.78
270.835	21.67
271.051	50.35
271.267	13.48
271.483	-29.52
271.698	83.11
271.914	31.91
272.13	68.78
272.346	-37.72
272.562	70.83
272.777	132.26
272.993	-19.29
273.209	-27.48
273.425	91.31
273.64	-58.2
273.856	115.88
274.072	-19.29
274.287	-7
274.503	167.08
274.719	70.83
274.934	44.2
275.15	-93.01
275.366	-0.85
275.581	27.82
275.797	-39.76
276.012	-15.19
276.228	-52.05
276.444	11.43
276.659	111.78
276.875	11.43
277.09	76.97
277.306	1.19
277.521	23.72
277.737	48.3
277.952	109.74
278.168	31.91
278.383	64.68
278.599	83.11
278.814	91.31
279.03	29.87
279.245	232.62
279.461	17.58
279.676	62.63
279.892	-82.77
280.107	-78.68
280.322	64.68
280.538	5.29
280.753	-7
280.969	97.45
281.184	-19.29
281.399	132.26
281.615	-33.62
281.83	11.43
282.045	5.29
282.26	40.11
282.476	5.29
282.691	146.6
282.906	109.74
283.122	-35.67
283.337	17.58
283.552	97.45
283.767	-15.19
283.983	128.17
284.198	58.54
284.413	115.88
284.628	-136.02
284.843	40.11
285.058	93.35
285.274	-29.52
285.489	-43.86
285.704	167.08
285.919	66.73
286.134	11.43
286.349	81.07
286.564	21.67
286.779	70.83
286.995	25.77
287.21	-27.48
287.425	9.39
287.64	-45.91
287.855	54.44
288.07	-80.72
288.285	158.89
288.5	128.17
288.715	97.45
288.93	122.02
289.145	-2.9
289.36	117.93
289.575	-31.57
289.79	40.11
290.004	27.82
290.219	134.31
290.434	-56.15
290.649	21.67
290.864	70.83
291.079	70.83
291.294	107.69
291.509	21.67
291.724	89.26
291.938	-23.38
292.153	42.15
292.368	74.92
292.583	89.26
292.798	17.58
293.012	117.93
293.227	66.73
293.442	13.48
293.657	58.54
293.871	146.6
294.086	42.15
294.301	203.94
294.516	150.7
294.73	91.31
294.945	21.67
295.16	-0.85
295.374	105.64
295.589	83.11
295.804	-15.19
296.018	56.49
296.233	124.07
296.447	-0.85
296.662	46.25
296.877	156.84
297.091	42.15
297.306	13.48
297.52	40.11
297.735	113.83
297.949	17.58
298.164	81.07
298.378	85.16
298.593	-68.44
298.807	-15.19
299.022	15.53
299.236	140.46
299.451	-35.67
299.665	-4.95
299.88	74.92
300.094	105.64
300.309	-27.48
300.523	-7
300.737	66.73
300.952	62.63
301.166	44.2
301.381	-9.05
301.595	13.48
301.809	70.83
302.024	-7
302.238	-15.19
302.452	117.93
302.667	76.97
302.881	38.06
303.095	89.26
303.309	46.25
303.524	13.48
303.738	-23.38
303.952	33.96
304.166	146.6
304.381	-74.58
304.595	142.5
304.809	-60.24
305.023	36.01
305.237	-37.72
305.452	95.4
305.666	74.92
305.88	97.45
306.094	81.07
306.308	38.06
306.522	76.97
306.736	91.31
306.95	119.98
307.164	-19.29
307.379	38.06
307.593	130.22
307.807	113.83
308.021	160.94
308.235	74.92
308.449	-47.96
308.663	-60.24
308.877	195.75
309.091	76.97
309.305	74.92
309.519	-50
309.733	154.79
309.947	-88.92
310.161	19.63
310.374	60.59
310.588	89.26
310.802	1.19
311.016	50.35
311.23	142.5
311.444	-0.85
311.658	-31.57
311.872	148.65
312.085	134.31
312.299	107.69
312.513	187.56
312.727	-13.14
312.941	-7
313.154	81.07
313.368	21.67
313.582	64.68
313.796	-47.96
314.009	81.07
314.223	181.42
314.437	-23.38
314.651	113.83
314.864	-47.96
315.078	36.01
315.292	-33.62
315.505	23.72
315.719	15.53
315.933	62.63
316.146	-56.15
316.36	40.11
316.573	130.22
316.787	134.31
317.001	103.59
317.214	-11.09
317.428	46.25
317.641	31.91
317.855	36.01
318.068	109.74
318.282	48.3
318.495	87.21
318.709	54.44
318.922	48.3
319.136	113.83
319.349	91.31
319.563	9.39
319.776	33.96
319.99	-101.2
320.203	48.3
320.417	9.39
320.63	132.26
320.843	103.59
321.057	13.48
321.27	9.39
321.483	93.35
321.697	124.07
321.91	58.54
322.124	-23.38
322.337	103.59
322.55	-27.48
322.763	44.2
322.977	56.49
323.19	23.72
323.403	72.87
323.617	189.61
323.83	128.17
324.043	-27.48
324.256	21.67
324.469	-45.91
324.683	74.92
324.896	31.91
325.109	15.53
325.322	-133.97
325.535	117.93
325.748	113.83
325.962	-25.43
326.175	76.97
326.388	21.67
326.601	150.7
326.814	64.68
327.027	23.72
327.24	197.8
327.453	-41.81
327.666	48.3
327.879	105.64
328.092	64.68
328.305	95.4
328.518	-29.52
328.731	46.25
328.944	70.83
329.157	103.59
329.37	-27.48
329.583	62.63
329.796	199.85
330.009	-88.92
330.222	87.21
330.435	165.03
330.648	44.2
330.861	79.02
331.073	119.98
331.286	83.11
331.499	31.91
331.712	44.2
331.925	27.82
332.138	54.44
332.35	130.22
332.563	-15.19
332.776	138.41
332.989	-60.24
333.202	-64.34
333.414	144.55
333.627	31.91
333.84	76.97
334.053	3.24
334.265	13.48
334.478	-9.05
334.691	56.49
334.903	97.45
335.116	-25.43
335.329	-13.14
335.541	91.31
335.754	134.31
335.966	-29.52
336.179	29.87
336.392	9.39
336.604	36.01
336.817	128.17
337.029	62.63
337.242	3.24
337.454	140.46
337.667	46.25
337.88	101.55
338.092	70.83
338.305	103.59
338.517	5.29
338.729	72.87
338.942	68.78
339.154	-95.06
339.367	11.43
339.579	95.4
339.792	-27.48
340.004	56.49
340.217	46.25
340.429	130.22
340.641	-45.91
340.854	-72.53
341.066	-58.2
341.278	68.78
341.491	148.65
341.703	48.3
341.915	36.01
342.128	148.65
342.34	40.11
342.552	-74.58
342.764	29.87
342.977	52.39
343.189	111.78
343.401	107.69
343.613	-127.83
343.826	11.43
344.038	7.34
344.25	87.21
344.462	21.67
344.674	46.25
344.886	-31.57
345.099	74.92
345.311	99.5
345.523	-13.14
345.735	-35.67
345.947	25.77
346.159	81.07
346.371	29.87
346.583	15.53
346.795	257.19
347.007	-50
347.219	62.63
347.431	11.43
347.643	105.64
347.855	17.58
348.067	126.12
348.279	-7
348.491	19.63
348.703	64.68
348.915	89.26
349.127	-47.96
349.339	25.77
349.551	38.06
349.763	36.01
349.975	-39.76
350.187	122.02
350.399	160.94
350.61	107.69
350.822	38.06
351.034	42.15
351.246	23.72
351.458	148.65
351.669	54.44
351.881	93.35
352.093	97.45
352.305	142.5
352.517	130.22
352.728	150.7
352.94	124.07
353.152	81.07
353.363	-76.63
353.575	95.4
353.787	93.35
353.999	11.43
354.21	179.37
354.422	-50
354.633	36.01
354.845	66.73
355.057	17.58
355.268	117.93
355.48	79.02
355.692	-70.48
355.903	-19.29
356.115	5.29
356.326	-62.29
356.538	29.87
356.749	136.36
356.961	181.42
357.172	-31.57
357.384	-41.81
357.595	212.14
357.807	40.11
358.018	-19.29
358.23	31.91
358.441	175.27
358.653	119.98
358.864	95.4
359.075	-47.96
359.287	46.25
359.498	87.21
359.709	97.45
359.921	58.54
360.132	68.78
360.344	33.96
360.555	-25.43
360.766	48.3
360.977	46.25
361.189	91.31
361.4	13.48
361.611	109.74
361.823	72.87
362.034	48.3
362.245	-43.86
362.456	25.77
362.667	91.31
362.879	-43.86
363.09	74.92
363.301	72.87
363.512	103.59
363.723	19.63
363.935	-25.43
364.146	79.02
364.357	-25.43
364.568	150.7
364.779	-29.52
364.99	111.78
365.201	-7
365.412	124.07
365.623	-41.81
365.834	60.59
366.045	1.19
366.256	72.87
366.467	44.2
366.678	-13.14
366.889	31.91
367.1	-23.38
367.311	91.31
367.522	-74.58
367.733	74.92
367.944	54.44
368.155	58.54
368.366	111.78
368.577	171.18
368.788	122.02
368.999	25.77
369.209	95.4
369.42	167.08
369.631	208.04
369.842	95.4
370.053	-4.95
370.264	31.91
370.474	31.91
370.685	70.83
370.896	31.91
371.107	79.02
371.317	23.72
371.528	-45.91
371.739	97.45
371.95	42.15
372.16	140.46
372.371	17.58
372.582	-60.24
372.792	115.88
373.003	3.24
373.214	74.92
373.424	29.87
373.635	-19.29
373.846	140.46
374.056	134.31
374.267	85.16
374.477	62.63
374.688	38.06
374.898	56.49
375.109	36.01
375.319	70.83
375.53	136.36
375.74	144.55
375.951	19.63
376.161	54.44
376.372	68.78
376.582	31.91
376.793	68.78
377.003	29.87
377.214	-52.05
377.424	-21.33
377.635	62.63
377.845	11.43
378.055	111.78
378.266	-64.34
378.476	72.87
378.686	13.48
378.897	83.11
379.107	195.75
379.317	52.39
379.528	-29.52
379.738	95.4
379.948	-62.29
380.158	79.02
380.369	50.35
380.579	72.87
380.789	54.44
380.999	33.96
381.21	101.55
381.42	134.31
381.63	48.3
381.84	17.58
382.05	74.92
382.261	154.79
382.471	138.41
382.681	-80.72
382.891	105.64
383.101	33.96
383.311	-97.11
383.521	-56.15
383.731	72.87
383.941	113.83
384.151	48.3
384.361	-29.52
384.571	27.82
384.781	64.68
384.991	261.29
385.201	132.26
385.411	130.22
385.621	56.49
385.831	27.82
386.041	44.2
386.251	29.87
386.461	95.4
386.671	3.24
386.881	58.54
387.091	21.67
387.301	140.46
387.511	-52.05
387.72	-9.05
387.93	21.67
388.14	-113.49
388.35	126.12
388.56	79.02
388.769	142.5
388.979	-58.2
389.189	-27.48
389.399	54.44
389.609	117.93
389.818	36.01
390.028	62.63
390.238	64.68
390.447	-39.76
390.657	68.78
390.867	44.2
391.076	27.82
391.286	87.21
391.496	48.3
391.705	29.87
391.915	177.32
392.125	115.88
392.334	36.01
392.544	66.73
392.753	17.58
392.963	-127.83
393.172	33.96
393.382	-62.29
393.591	292.01
393.801	25.77
394.01	154.79
394.22	54.44
394.429	1.19
394.639	-0.85
394.848	68.78
395.058	144.55
395.267	-15.19
395.477	64.68
395.686	33.96
395.895	146.6
396.105	238.76
396.314	62.63
396.524	-60.24
396.733	13.48
396.942	101.55
397.152	91.31
397.361	107.69
397.57	103.59
397.78	66.73
397.989	11.43
398.198	208.04
398.407	134.31
398.617	105.64
398.826	62.63
399.035	42.15
399.244	150.7
399.453	68.78
399.663	52.39
399.872	46.25
400.081	-58.2
400.29	101.55
400.499	-66.39
400.708	79.02
400.917	23.72
401.127	36.01
401.336	-31.57
401.545	128.17
401.754	154.79
401.963	74.92
402.172	21.67
402.381	-60.24
402.59	27.82
402.799	29.87
403.008	136.36
403.217	42.15
403.426	72.87
403.635	-41.81
403.844	31.91
404.053	54.44
404.262	46.25
404.471	122.02
404.68	81.07
404.888	27.82
405.097	40.11
405.306	70.83
405.515	40.11
405.724	-62.29
405.933	113.83
406.142	68.78
406.35	113.83
406.559	95.4
406.768	119.98
406.977	183.46
407.185	29.87
407.394	91.31
407.603	7.34
407.812	36.01
408.02	109.74
408.229	23.72
408.438	74.92
408.646	1.19
408.855	64.68
409.064	105.64
409.272	19.63
409.481	103.59
409.69	-21.33
409.898	-9.05
410.107	115.88
410.315	109.74
410.524	-2.9
410.733	111.78
410.941	36.01
411.15	117.93
411.358	76.97
411.567	97.45
411.775	11.43
411.984	56.49
412.192	140.46
412.401	-21.33
412.609	58.54
412.818	99.5
413.026	130.22
413.234	-7
413.443	74.92
413.651	-58.2
413.86	54.44
414.068	130.22
414.276	160.94
414.485	-76.63
414.693	212.14
414.901	101.55
415.11	109.74
415.318	93.35
415.526	17.58
415.734	64.68
415.943	11.43
416.151	160.94
416.359	83.11
416.567	38.06
416.776	99.5
416.984	68.78
417.192	177.32
417.4	23.72
417.608	-11.09
417.817	-2.9
418.025	62.63
418.233	173.22
418.441	-19.29
418.649	-74.58
418.857	15.53
419.065	85.16
419.273	-93.01
419.481	-25.43
419.689	38.06
419.897	-15.19
420.105	-86.87
420.313	140.46
420.521	76.97
420.729	111.78
420.937	25.77
421.145	-41.81
421.353	130.22
421.561	140.46
421.769	50.35
421.977	56.49
422.185	134.31
422.393	25.77
422.601	70.83
422.809	62.63
423.017	42.15
423.224	17.58
423.432	85.16
423.64	-45.91
423.848	93.35
424.056	25.77
424.263	167.08
424.471	9.39
424.679	50.35
424.887	-84.82
425.094	72.87
425.302	81.07
425.51	64.68
425.718	105.64
425.925	27.82
426.133	-50
426.341	134.31
426.548	38.06
426.756	62.63
426.964	150.7
427.171	-54.1
427.379	50.35
427.586	64.68
427.794	50.35
428.001	72.87
428.209	81.07
428.417	122.02
428.624	115.88
428.832	74.92
429.039	1.19
429.247	54.44
429.454	103.59
429.662	148.65
429.869	115.88
430.076	62.63
430.284	48.3
430.491	171.18
430.699	62.63
430.906	103.59
431.114	74.92
431.321	83.11
431.528	91.31
431.736	95.4
431.943	105.64
432.15	138.41
432.358	201.9
432.565	185.51
432.772	-121.68
432.979	111.78
433.187	38.06
433.394	62.63
433.601	29.87
433.808	173.22
434.016	136.36
434.223	76.97
434.43	99.5
434.637	154.79
434.844	169.13
435.052	117.93
435.259	105.64
435.466	165.03
435.673	160.94
435.88	140.46
436.087	189.61
436.294	158.89
436.501	126.12
436.708	205.99
436.915	101.55
437.122	185.51
437.329	109.74
437.537	115.88
437.743	158.89
437.95	148.65
438.157	111.78
438.364	140.46
438.571	124.07
438.778	169.13
438.985	232.62
439.192	199.85
439.399	140.46
439.606	165.03
439.813	171.18
440.02	251.05
440.227	351.4
440.433	191.66
440.64	230.57
440.847	193.7
441.054	324.77
441.261	349.35
441.467	320.68
441.674	259.24
441.881	322.73
442.088	306.34
442.294	339.11
442.501	390.31
442.708	396.45
442.914	259.24
443.121	341.16
443.328	339.11
443.534	398.5
443.741	361.64
443.948	294.05
444.154	384.16
444.361	482.47
444.568	421.03
444.774	367.78
444.981	357.54
445.187	539.81
445.394	480.42
445.6	515.23
445.807	580.77
446.013	492.71
446.22	445.6
446.426	584.87
446.633	584.87
446.839	722.08
447.046	486.56
447.252	709.79
447.459	648.35
447.665	650.4
447.871	760.99
448.078	804
448.284	804
448.491	830.62
448.697	801.95
448.903	906.4
449.11	926.88
449.316	844.96
449.522	1006.75
449.728	971.93
449.935	967.84
450.141	990.36
450.347	1170.58
450.553	1064.09
450.76	1164.44
450.966	1121.43
451.172	1166.49
451.378	1270.94
451.584	1287.32
451.791	1438.87
451.997	1402.01
452.203	1539.22
452.409	1539.22
452.615	1645.71
452.821	1518.74
453.027	1549.46
453.233	1838.22
453.44	1614.99
453.646	1729.68
453.852	1887.37
454.058	1883.28
454.264	1883.28
454.47	2227.34
454.676	2178.19
454.882	2256.01
455.088	2227.34
455.294	2229.38
455.5	2475.14
455.705	2659.46
455.911	2688.13
456.117	2501.76
456.323	2694.27
456.529	2792.58
456.735	2976.89
456.941	3056.76
457.147	3366.01
457.352	3327.1
457.558	3329.14
457.764	3679.35
457.97	3767.41
458.176	3826.8
458.381	4115.56
458.587	4361.32
458.793	4351.08
458.999	4355.18
459.204	4840.54
459.41	4942.94
459.616	5006.43
459.821	5119.07
460.027	5454.94
460.233	5686.36
460.438	5672.02
460.644	6130.77
460.85	6077.52
461.055	6339.66
461.261	6644.81
461.466	6634.57
461.672	6523.98
461.878	7423.03
462.083	7420.99
462.289	7251
462.494	7719.99
462.7	7808.05
462.905	7869.49
463.111	8422.44
463.316	9075.74
463.522	9174.05
463.727	9427.99
463.932	9714.71
464.138	10050.58
464.343	10320.91
464.549	10533.9
464.754	11359.23
464.959	11672.57
465.165	11672.57
465.37	11740.15
465.575	11629.56
465.781	12415.98
465.986	12839.91
466.191	12737.51
466.397	12628.97
466.602	12755.94
466.807	13112.29
467.012	13468.64
467.218	13849.56
467.423	13687.77
467.628	14134.23
467.833	14640.08
468.038	14498.77
468.244	14025.68
468.449	14961.61
468.654	14783.43
468.859	14906.31
469.064	14783.43
469.269	14369.74
469.474	14459.85
