Data from USB4F104151__57__10-26-13-230.txt Node

Date: Wed Feb 26 10:26:13 EST 2025
User: louis
Spectrometer: USB4F10415
Trigger mode: 4
Integration Time (sec): 1.000000E-1
Scans to average: 1
Electric dark correction enabled: true
Nonlinearity correction enabled: false
Boxcar width: 0
XAxis mode: Wavelengths
Number of Pixels in Spectrum: 3648
>>>>>Begin Spectral Data<<<<<
178.204	-403.62
178.424	-403.62
178.644	-403.62
178.864	-428.2
179.084	-346.28
179.304	-4.27
179.524	-10.41
179.744	-28.84
179.964	10.07
180.184	83.8
180.404	28.5
180.624	-94.38
180.844	61.27
181.064	-51.37
181.283	-4.27
181.503	-20.65
181.723	30.55
181.943	-104.62
182.163	165.71
182.383	-59.56
182.602	53.08
182.822	108.37
183.042	69.46
183.262	-39.08
183.482	40.79
183.701	91.99
183.921	12.12
184.141	-39.08
184.361	59.22
184.58	30.55
184.8	36.69
185.02	-51.37
185.239	91.99
185.459	120.66
185.679	102.23
185.898	-90.28
186.118	132.95
186.338	89.94
186.557	94.04
186.777	-26.79
186.997	20.31
187.216	26.45
187.436	96.08
187.655	69.46
187.875	87.89
188.095	28.5
188.314	145.24
188.534	106.32
188.753	-65.71
188.973	36.69
189.192	163.67
189.412	-32.94
189.631	-86.19
189.851	79.7
190.07	124.76
190.29	-86.19
190.509	-6.31
190.729	75.6
190.948	61.27
191.168	266.07
191.387	104.28
191.607	3.93
191.826	46.93
192.045	42.84
192.265	14.17
192.484	130.9
192.704	67.41
192.923	-53.42
193.142	202.58
193.362	104.28
193.581	128.85
193.8	61.27
194.02	122.71
194.239	67.41
194.458	73.56
194.678	69.46
194.897	48.98
195.116	65.36
195.335	110.42
195.555	-28.84
195.774	26.45
195.993	28.5
196.212	16.21
196.432	63.32
196.651	42.84
196.87	34.64
197.089	194.39
197.308	34.64
197.528	26.45
197.747	-55.47
197.966	5.97
198.185	124.76
198.404	-71.85
198.623	100.18
198.842	34.64
199.062	28.5
199.281	79.7
199.5	1.88
199.719	81.75
199.938	124.76
200.157	28.5
200.376	75.6
200.595	114.52
200.814	96.08
201.033	-37.03
201.252	116.56
201.471	32.6
201.69	32.6
201.909	-8.36
202.128	202.58
202.347	40.79
202.566	22.36
202.785	-18.6
203.004	-63.66
203.223	180.05
203.442	-12.46
203.661	-55.47
203.879	40.79
204.098	155.47
204.317	26.45
204.536	157.52
204.755	34.64
204.974	141.14
205.193	-26.79
205.411	94.04
205.63	81.75
205.849	42.84
206.068	-55.47
206.287	-28.84
206.505	190.29
206.724	46.93
206.943	20.31
207.162	-4.27
207.381	114.52
207.599	26.45
207.818	69.46
208.037	-14.51
208.255	-8.36
208.474	67.41
208.693	73.56
208.911	14.17
209.13	55.12
209.349	57.17
209.567	106.32
209.786	104.28
210.005	96.08
210.223	63.32
210.442	-110.76
210.661	-2.22
210.879	40.79
211.098	89.94
211.316	10.07
211.535	30.55
211.753	46.93
211.972	61.27
212.191	-6.31
212.409	38.74
212.628	48.98
212.846	-20.65
213.065	85.84
213.283	145.24
213.502	65.36
213.72	28.5
213.938	69.46
214.157	-8.36
214.375	141.14
214.594	32.6
214.812	102.23
215.031	65.36
215.249	-30.89
215.467	61.27
215.686	89.94
215.904	44.88
216.122	157.52
216.341	96.08
216.559	51.03
216.778	77.65
216.996	171.86
217.214	-55.47
217.432	-2.22
217.651	-90.28
217.869	51.03
218.087	44.88
218.306	48.98
218.524	5.97
218.742	96.08
218.96	75.6
219.179	5.97
219.397	48.98
219.615	253.78
219.833	63.32
220.051	-28.84
220.27	122.71
220.488	55.12
220.706	63.32
220.924	-12.46
221.142	46.93
221.36	85.84
221.578	139.09
221.796	34.64
222.015	-24.75
222.233	36.69
222.451	218.96
222.669	-32.94
222.887	83.8
223.105	8.02
223.323	14.17
223.541	18.26
223.759	79.7
223.977	40.79
224.195	149.33
224.413	34.64
224.631	3.93
224.849	116.56
225.067	229.2
225.285	-80.04
225.503	-12.46
225.721	-24.75
225.939	57.17
226.157	57.17
226.375	251.73
226.592	22.36
226.81	-16.55
227.028	85.84
227.246	173.91
227.464	108.37
227.682	137.04
227.9	108.37
228.117	77.65
228.335	77.65
228.553	67.41
228.771	30.55
228.989	48.98
229.206	42.84
229.424	3.93
229.642	132.95
229.86	8.02
230.077	122.71
230.295	-53.42
230.513	106.32
230.731	89.94
230.948	216.91
231.166	147.28
231.384	18.26
231.601	-118.95
231.819	122.71
232.037	5.97
232.254	-57.51
232.472	36.69
232.689	81.75
232.907	118.61
233.125	-10.41
233.342	-2.22
233.56	-8.36
233.777	8.02
233.995	53.08
234.213	38.74
234.43	91.99
234.648	16.21
234.865	-14.51
235.083	124.76
235.3	63.32
235.518	26.45
235.735	118.61
235.953	53.08
236.17	40.79
236.388	12.12
236.605	63.32
236.822	132.95
237.04	61.27
237.257	16.21
237.475	3.93
237.692	46.93
237.909	30.55
238.127	-12.46
238.344	145.24
238.562	71.51
238.779	16.21
238.996	-71.85
239.214	65.36
239.431	159.57
239.648	-8.36
239.865	44.88
240.083	18.26
240.3	10.07
240.517	36.69
240.735	96.08
240.952	122.71
241.169	91.99
241.386	14.17
241.603	81.75
241.821	-14.51
242.038	91.99
242.255	130.9
242.472	-39.08
242.689	85.84
242.907	65.36
243.124	55.12
243.341	44.88
243.558	38.74
243.775	-55.47
243.992	-47.27
244.209	100.18
244.426	196.43
244.643	98.13
244.86	128.85
245.078	85.84
245.295	67.41
245.512	-10.41
245.729	42.84
245.946	104.28
246.163	36.69
246.38	3.93
246.597	106.32
246.814	116.56
247.031	34.64
247.248	59.22
247.464	75.6
247.681	112.47
247.898	20.31
248.115	26.45
248.332	67.41
248.549	102.23
248.766	124.76
248.983	61.27
249.2	153.43
249.417	114.52
249.633	24.4
249.85	57.17
250.067	69.46
250.284	24.4
250.501	44.88
250.717	12.12
250.934	-45.23
251.151	75.6
251.368	-10.41
251.585	59.22
251.801	55.12
252.018	-71.85
252.235	79.7
252.451	1.88
252.668	20.31
252.885	157.52
253.102	26.45
253.318	32.6
253.535	-18.6
253.752	3.93
253.968	-20.65
254.185	-51.37
254.401	61.27
254.618	57.17
254.835	38.74
255.051	175.95
255.268	53.08
255.484	-28.84
255.701	16.21
255.917	67.41
256.134	-10.41
256.351	48.98
256.567	-100.52
256.784	44.88
257	-84.14
257.217	128.85
257.433	124.76
257.65	26.45
257.866	83.8
258.082	-6.31
258.299	22.36
258.515	5.97
258.732	-53.42
258.948	-20.65
259.165	89.94
259.381	32.6
259.597	81.75
259.814	-20.65
260.03	14.17
260.246	-26.79
260.463	149.33
260.679	155.47
260.895	32.6
261.112	46.93
261.328	-8.36
261.544	65.36
261.761	112.47
261.977	24.4
262.193	-30.89
262.409	38.74
262.626	79.7
262.842	8.02
263.058	46.93
263.274	55.12
263.49	-12.46
263.707	77.65
263.923	36.69
264.139	-135.34
264.355	67.41
264.571	57.17
264.787	89.94
265.004	114.52
265.22	48.98
265.436	-12.46
265.652	40.79
265.868	53.08
266.084	-43.18
266.3	42.84
266.516	-34.99
266.732	-6.31
266.948	36.69
267.164	22.36
267.38	106.32
267.596	44.88
267.812	147.28
268.028	18.26
268.244	40.79
268.46	34.64
268.676	-63.66
268.892	116.56
269.108	-118.95
269.324	-2.22
269.54	-86.19
269.756	165.71
269.972	-131.24
270.188	-37.03
270.403	-37.03
270.619	8.02
270.835	69.46
271.051	-10.41
271.267	-61.61
271.483	-24.75
271.698	75.6
271.914	137.04
272.13	-8.36
272.346	26.45
272.562	28.5
272.777	67.41
272.993	-24.75
273.209	14.17
273.425	46.93
273.64	-75.95
273.856	104.28
274.072	-2.22
274.287	-22.7
274.503	122.71
274.719	8.02
274.934	-75.95
275.15	-65.71
275.366	3.93
275.581	-28.84
275.797	63.32
276.012	153.43
276.228	-0.17
276.444	63.32
276.659	116.56
276.875	8.02
277.09	69.46
277.306	1.88
277.521	108.37
277.737	69.46
277.952	122.71
278.168	3.93
278.383	36.69
278.599	104.28
278.814	89.94
279.03	18.26
279.245	178
279.461	104.28
279.676	46.93
279.892	-110.76
280.107	-114.86
280.322	3.93
280.538	63.32
280.753	-55.47
280.969	22.36
281.184	32.6
281.399	114.52
281.615	44.88
281.83	75.6
282.045	1.88
282.26	-43.18
282.476	87.89
282.691	94.04
282.906	55.12
283.122	94.04
283.337	-26.79
283.552	57.17
283.767	-24.75
283.983	175.95
284.198	-12.46
284.413	180.05
284.628	-65.71
284.843	3.93
285.058	48.98
285.274	-53.42
285.489	-45.23
285.704	184.15
285.919	-43.18
286.134	32.6
286.349	46.93
286.564	30.55
286.779	147.28
286.995	46.93
287.21	-61.61
287.425	67.41
287.64	18.26
287.855	120.66
288.07	14.17
288.285	126.8
288.5	128.85
288.715	96.08
288.93	38.74
289.145	-16.55
289.36	61.27
289.575	24.4
289.79	186.19
290.004	16.21
290.219	110.42
290.434	-77.99
290.649	-43.18
290.864	-18.6
291.079	69.46
291.294	-4.27
291.509	124.76
291.724	16.21
291.938	-0.17
292.153	114.52
292.368	81.75
292.583	104.28
292.798	71.51
293.012	75.6
293.227	16.21
293.442	-24.75
293.657	40.79
293.871	137.04
294.086	42.84
294.301	206.67
294.516	192.34
294.73	22.36
294.945	-12.46
295.16	-22.7
295.374	-10.41
295.589	167.76
295.804	-6.31
296.018	98.13
296.233	149.33
296.447	67.41
296.662	28.5
296.877	106.32
297.091	98.13
297.306	26.45
297.52	53.08
297.735	141.14
297.949	83.8
298.164	59.22
298.378	69.46
298.593	-61.61
298.807	40.79
299.022	57.17
299.236	94.04
299.451	36.69
299.665	40.79
299.88	79.7
300.094	81.75
300.309	20.31
300.523	34.64
300.737	26.45
300.952	69.46
301.166	48.98
301.381	-12.46
301.595	1.88
301.809	24.4
302.024	71.51
302.238	-0.17
302.452	30.55
302.667	14.17
302.881	118.61
303.095	57.17
303.309	32.6
303.524	-28.84
303.738	18.26
303.952	-37.03
304.166	32.6
304.381	-47.27
304.595	139.09
304.809	40.79
305.023	14.17
305.237	-18.6
305.452	18.26
305.666	34.64
305.88	73.56
306.094	167.76
306.308	65.36
306.522	34.64
306.736	85.84
306.95	157.52
307.164	77.65
307.379	-4.27
307.593	165.71
307.807	91.99
308.021	22.36
308.235	65.36
308.449	-65.71
308.663	-10.41
308.877	182.1
309.091	18.26
309.305	91.99
309.519	-24.75
309.733	91.99
309.947	-104.62
310.161	18.26
310.374	10.07
310.588	75.6
310.802	-22.7
311.016	-43.18
311.23	44.88
311.444	-12.46
311.658	-41.13
311.872	163.67
312.085	87.89
312.299	175.95
312.513	73.56
312.727	26.45
312.941	18.26
313.154	48.98
313.368	63.32
313.582	89.94
313.796	91.99
314.009	69.46
314.223	89.94
314.437	94.04
314.651	110.42
314.864	10.07
315.078	-28.84
315.292	-26.79
315.505	34.64
315.719	108.37
315.933	32.6
316.146	-26.79
316.36	-61.61
316.573	139.09
316.787	42.84
317.001	48.98
317.214	16.21
317.428	61.27
317.641	-16.55
317.855	-41.13
318.068	22.36
318.282	73.56
318.495	110.42
318.709	102.23
318.922	-28.84
319.136	96.08
319.349	14.17
319.563	12.12
319.776	114.52
319.99	-41.13
320.203	122.71
320.417	98.13
320.63	73.56
320.843	184.15
321.057	63.32
321.27	-30.89
321.483	46.93
321.697	155.47
321.91	73.56
322.124	51.03
322.337	42.84
322.55	-37.03
322.763	-22.7
322.977	-2.22
323.19	-32.94
323.403	83.8
323.617	30.55
323.83	147.28
324.043	100.18
324.256	3.93
324.469	12.12
324.683	38.74
324.896	28.5
325.109	-12.46
325.322	-47.27
325.535	163.67
325.748	122.71
325.962	-41.13
326.175	32.6
326.388	48.98
326.601	75.6
326.814	24.4
327.027	36.69
327.24	69.46
327.453	-92.33
327.666	67.41
327.879	61.27
328.092	106.32
328.305	151.38
328.518	8.02
328.731	14.17
328.944	-18.6
329.157	73.56
329.37	16.21
329.583	192.34
329.796	173.91
330.009	-47.27
330.222	73.56
330.435	48.98
330.648	53.08
330.861	69.46
331.073	79.7
331.286	94.04
331.499	81.75
331.712	-73.9
331.925	14.17
332.138	190.29
332.35	57.17
332.563	-73.9
332.776	126.8
332.989	-59.56
333.202	-32.94
333.414	28.5
333.627	124.76
333.84	34.64
334.053	1.88
334.265	48.98
334.478	-53.42
334.691	42.84
334.903	16.21
335.116	-14.51
335.329	26.45
335.541	61.27
335.754	126.8
335.966	14.17
336.179	32.6
336.392	16.21
336.604	44.88
336.817	14.17
337.029	112.47
337.242	63.32
337.454	73.56
337.667	22.36
337.88	102.23
338.092	-16.55
338.305	22.36
338.517	53.08
338.729	81.75
338.942	147.28
339.154	-59.56
339.367	1.88
339.579	57.17
339.792	-108.71
340.004	122.71
340.217	-69.8
340.429	67.41
340.641	20.31
340.854	44.88
341.066	-18.6
341.278	81.75
341.491	100.18
341.703	57.17
341.915	-20.65
342.128	71.51
342.34	81.75
342.552	-28.84
342.764	26.45
342.977	-39.08
343.189	44.88
343.401	46.93
343.613	-53.42
343.826	20.31
344.038	30.55
344.25	-10.41
344.462	-51.37
344.674	55.12
344.886	32.6
345.099	-0.17
345.311	36.69
345.523	-16.55
345.735	-39.08
345.947	128.85
346.159	-30.89
346.371	-2.22
346.583	-14.51
346.795	180.05
347.007	38.74
347.219	75.6
347.431	-6.31
347.643	104.28
347.855	8.02
348.067	163.67
348.279	-53.42
348.491	36.69
348.703	94.04
348.915	22.36
349.127	-22.7
349.339	137.04
349.551	18.26
349.763	38.74
349.975	53.08
350.187	100.18
350.399	67.41
350.61	12.12
350.822	46.93
351.034	61.27
351.246	14.17
351.458	63.32
351.669	73.56
351.881	79.7
352.093	20.31
352.305	87.89
352.517	83.8
352.728	91.99
352.94	65.36
353.152	65.36
353.363	3.93
353.575	67.41
353.787	225.11
353.999	14.17
354.21	114.52
354.422	16.21
354.633	16.21
354.845	75.6
355.057	3.93
355.268	116.56
355.48	94.04
355.692	-26.79
355.903	36.69
356.115	-49.32
356.326	-129.19
356.538	139.09
356.749	75.6
356.961	122.71
357.172	1.88
357.384	51.03
357.595	157.52
357.807	14.17
358.018	-94.38
358.23	83.8
358.441	198.48
358.653	36.69
358.864	-84.14
359.075	12.12
359.287	-10.41
359.498	-24.75
359.709	116.56
359.921	44.88
360.132	100.18
360.344	55.12
360.555	55.12
360.766	87.89
360.977	20.31
361.189	87.89
361.4	28.5
361.611	120.66
361.823	98.13
362.034	69.46
362.245	-43.18
362.456	30.55
362.667	55.12
362.879	30.55
363.09	42.84
363.301	38.74
363.512	46.93
363.723	-82.09
363.935	-53.42
364.146	38.74
364.357	24.4
364.568	26.45
364.779	-73.9
364.99	87.89
365.201	12.12
365.412	106.32
365.623	-131.24
365.834	128.85
366.045	-8.36
366.256	53.08
366.467	128.85
366.678	3.93
366.889	-2.22
367.1	-41.13
367.311	167.76
367.522	77.65
367.733	81.75
367.944	36.69
368.155	16.21
368.366	102.23
368.577	87.89
368.788	63.32
368.999	8.02
369.209	24.4
369.42	235.35
369.631	194.39
369.842	40.79
370.053	59.22
370.264	42.84
370.474	-10.41
370.685	151.38
370.896	18.26
371.107	85.84
371.317	94.04
371.528	38.74
371.739	167.76
371.95	102.23
372.16	96.08
372.371	-32.94
372.582	-28.84
372.792	75.6
373.003	81.75
373.214	44.88
373.424	51.03
373.635	-26.79
373.846	132.95
374.056	96.08
374.267	63.32
374.477	63.32
374.688	18.26
374.898	-10.41
375.109	46.93
375.319	94.04
375.53	96.08
375.74	61.27
375.951	65.36
376.161	46.93
376.372	159.57
376.582	-102.57
376.793	81.75
377.003	26.45
377.214	16.21
377.424	163.67
377.635	-0.17
377.845	-45.23
378.055	104.28
378.266	-125.1
378.476	16.21
378.686	69.46
378.897	53.08
379.107	98.13
379.317	57.17
379.528	20.31
379.738	81.75
379.948	-14.51
380.158	32.6
380.369	44.88
380.579	126.8
380.789	14.17
380.999	48.98
381.21	46.93
381.42	221.01
381.63	12.12
381.84	53.08
382.05	59.22
382.261	192.34
382.471	94.04
382.681	-16.55
382.891	147.28
383.101	91.99
383.311	-88.23
383.521	14.17
383.731	85.84
383.941	96.08
384.151	100.18
384.361	16.21
384.571	16.21
384.781	75.6
384.991	153.43
385.201	145.24
385.411	61.27
385.621	114.52
385.831	79.7
386.041	36.69
386.251	53.08
386.461	94.04
386.671	36.69
386.881	53.08
387.091	-6.31
387.301	94.04
387.511	-34.99
387.72	55.12
387.93	57.17
388.14	-90.28
388.35	77.65
388.56	171.86
388.769	178
388.979	12.12
389.189	-26.79
389.399	71.51
389.609	128.85
389.818	106.32
390.028	44.88
390.238	42.84
390.447	-12.46
390.657	-2.22
390.867	-22.7
391.076	-30.89
391.286	73.56
391.496	28.5
391.705	18.26
391.915	116.56
392.125	98.13
392.334	16.21
392.544	153.43
392.753	18.26
392.963	-104.62
393.172	36.69
393.382	20.31
393.591	194.39
393.801	16.21
394.01	137.04
394.22	55.12
394.429	18.26
394.639	40.79
394.848	100.18
395.058	24.4
395.267	16.21
395.477	130.9
395.686	36.69
395.895	231.25
396.105	196.43
396.314	59.22
396.524	-30.89
396.733	-14.51
396.942	163.67
397.152	112.47
397.361	87.89
397.57	69.46
397.78	77.65
397.989	63.32
398.198	182.1
398.407	65.36
398.617	48.98
398.826	44.88
399.035	-12.46
399.244	89.94
399.453	40.79
399.663	120.66
399.872	67.41
400.081	-41.13
400.29	108.37
400.499	-77.99
400.708	132.95
400.917	18.26
401.127	79.7
401.336	14.17
401.545	163.67
401.754	94.04
401.963	137.04
402.172	-12.46
402.381	-84.14
402.59	28.5
402.799	135
403.008	71.51
403.217	5.97
403.426	83.8
403.635	-32.94
403.844	38.74
404.053	-43.18
404.262	20.31
404.471	130.9
404.68	24.4
404.888	57.17
405.097	28.5
405.306	79.7
405.515	122.71
405.724	34.64
405.933	114.52
406.142	91.99
406.35	102.23
406.559	44.88
406.768	51.03
406.977	102.23
407.185	100.18
407.394	38.74
407.603	-16.55
407.812	-10.41
408.02	130.9
408.229	116.56
408.438	-41.13
408.646	-2.22
408.855	42.84
409.064	44.88
409.272	26.45
409.481	81.75
409.69	48.98
409.898	-39.08
410.107	106.32
410.315	75.6
410.524	44.88
410.733	59.22
410.941	-0.17
411.15	53.08
411.358	83.8
411.567	161.62
411.775	36.69
411.984	71.51
412.192	157.52
412.401	-34.99
412.609	137.04
412.818	71.51
413.026	104.28
413.234	3.93
413.443	51.03
413.651	14.17
413.86	-26.79
414.068	132.95
414.276	139.09
414.485	-45.23
414.693	120.66
414.901	196.43
415.11	65.36
415.318	28.5
415.526	26.45
415.734	87.89
415.943	48.98
416.151	104.28
416.359	55.12
416.567	128.85
416.776	155.47
416.984	116.56
417.192	178
417.4	3.93
417.608	87.89
417.817	5.97
418.025	157.52
418.233	167.76
418.441	51.03
418.649	-34.99
418.857	128.85
419.065	171.86
419.273	-22.7
419.481	106.32
419.689	55.12
419.897	53.08
420.105	61.27
420.313	87.89
420.521	223.06
420.729	175.95
420.937	-47.27
421.145	77.65
421.353	91.99
421.561	110.42
421.769	77.65
421.977	48.98
422.185	120.66
422.393	20.31
422.601	102.23
422.809	116.56
423.017	42.84
423.224	55.12
423.432	102.23
423.64	44.88
423.848	83.8
424.056	48.98
424.263	44.88
424.471	-2.22
424.679	61.27
424.887	67.41
425.094	182.1
425.302	167.76
425.51	-45.23
425.718	71.51
425.925	98.13
426.133	-47.27
426.341	184.15
426.548	149.33
426.756	34.64
426.964	157.52
427.171	38.74
427.379	46.93
427.586	38.74
427.794	71.51
428.001	196.43
428.209	81.75
428.417	73.56
428.624	147.28
428.832	83.8
429.039	89.94
429.247	98.13
429.454	116.56
429.662	190.29
429.869	102.23
430.076	130.9
430.284	128.85
430.491	173.91
430.699	151.38
430.906	225.11
431.114	59.22
431.321	151.38
431.528	91.99
431.736	153.43
431.943	116.56
432.15	163.67
432.358	178
432.565	276.31
432.772	-67.75
432.979	126.8
433.187	118.61
433.394	231.25
433.601	106.32
433.808	268.11
434.016	257.87
434.223	130.9
434.43	243.54
434.637	261.97
434.844	251.73
435.052	241.49
435.259	282.45
435.466	257.87
435.673	229.2
435.88	319.31
436.087	286.54
436.294	278.35
436.501	317.26
436.708	239.44
436.915	317.26
437.122	376.66
437.329	284.5
437.537	298.83
437.743	290.64
437.95	364.37
438.157	337.74
438.364	298.83
438.571	390.99
438.778	446.29
438.985	409.42
439.192	454.48
439.399	472.91
439.606	352.08
439.813	481.1
440.02	595.79
440.227	573.26
440.433	579.4
440.64	497.49
440.847	499.53
441.054	583.5
441.261	780.11
441.467	546.64
441.674	599.88
441.881	698.19
442.088	698.19
442.294	653.13
442.501	737.1
442.708	702.28
442.914	712.52
443.121	806.73
443.328	765.77
443.534	925.51
443.741	804.68
443.948	720.71
444.154	927.56
444.361	1218.37
444.568	857.93
444.774	970.57
444.981	950.09
445.187	1122.12
445.394	1107.78
445.6	1103.68
445.807	1322.82
446.013	1122.12
446.22	1075.01
446.426	1253.19
446.633	1367.87
446.839	1527.61
447.046	1294.15
447.252	1593.15
447.459	1449.79
447.665	1550.14
447.871	1652.54
448.078	1855.29
448.284	1802.04
448.491	1824.57
448.697	1992.5
448.903	2037.56
449.11	2045.75
449.316	1929.02
449.522	2309.94
449.728	2174.77
449.935	2326.32
450.141	2350.9
450.347	2592.56
450.553	2451.25
450.76	2625.33
450.966	2672.43
451.172	2772.78
451.378	3004.2
451.584	2907.94
451.791	3231.52
451.997	3313.44
452.203	3295.01
452.409	3528.48
452.615	3768.09
452.821	3483.42
453.027	3688.22
453.233	4069.14
453.44	3915.55
453.646	4212.5
453.852	4372.24
454.058	4468.5
454.264	4654.86
454.47	4912.91
454.676	5035.78
454.882	5365.51
455.088	5136.13
455.294	5332.74
455.5	5863.16
455.705	6233.85
455.911	6092.54
456.117	6280.95
456.323	6579.95
456.529	6573.81
456.735	7038.7
456.941	7311.08
457.147	7808.73
457.352	7796.45
457.558	8085.21
457.764	8488.66
457.97	8914.64
458.176	8894.16
458.381	9371.33
458.587	9750.21
458.793	10092.22
458.999	10350.26
459.204	11353.77
459.41	11781.79
459.616	11540.13
459.821	12304.03
460.027	12617.36
460.233	13467.27
460.438	13479.56
460.644	14409.34
460.85	14536.31
461.055	15040.11
461.261	15490.66
461.466	15367.79
461.672	15529.58
461.878	17485.39
462.083	17120.85
462.289	17729.09
462.494	18257.47
462.7	18517.56
462.905	18589.24
463.111	20125.22
463.316	21116.44
463.522	21610
463.727	22058.5
463.932	23301.62
464.138	23639.53
464.343	24776.16
464.549	24880.6
464.754	26910.14
464.959	27268.53
465.165	27913.64
465.37	27622.83
465.575	27909.55
465.781	29513.11
465.986	30612.87
466.191	29889.93
466.397	30365.06
466.602	29560.21
466.807	31341.94
467.012	32058.73
467.218	32456.04
467.423	32572.77
467.628	33092.96
467.833	34743.62
468.038	34524.49
468.244	33447.25
468.449	35190.08
468.654	34542.92
