Data from USB4F104151__45__10-25-13-535.txt Node

Date: Wed Feb 26 10:25:13 EST 2025
User: louis
Spectrometer: USB4F10415
Trigger mode: 4
Integration Time (sec): 1.000000E-1
Scans to average: 1
Electric dark correction enabled: true
Nonlinearity correction enabled: false
Boxcar width: 0
XAxis mode: Wavelengths
Number of Pixels in Spectrum: 3648
>>>>>Begin Spectral Data<<<<<
178.204	-419.49
178.424	-419.49
178.644	-419.49
178.864	-401.06
179.084	-427.68
179.304	-44.71
179.524	33.11
179.744	39.25
179.964	69.97
180.184	-30.38
180.404	-7.85
180.624	20.82
180.844	-83.63
181.064	-32.43
181.283	41.3
181.503	-46.76
181.723	41.3
181.943	-36.52
182.163	98.64
182.383	55.64
182.602	74.07
182.822	172.37
183.042	69.97
183.262	-52.91
183.482	16.73
183.701	8.53
183.921	96.6
184.141	4.44
184.361	98.64
184.58	92.5
184.8	123.22
185.02	-1.71
185.239	131.41
185.459	123.22
185.679	162.13
185.898	-151.21
186.118	94.55
186.338	69.97
186.557	104.79
186.777	26.96
186.997	16.73
187.216	55.64
187.436	176.47
187.655	53.59
187.875	74.07
188.095	29.01
188.314	121.17
188.534	108.88
188.753	-16.04
188.973	162.13
189.192	129.36
189.412	59.73
189.631	51.54
189.851	43.35
190.07	227.67
190.29	-36.52
190.509	-5.8
190.729	10.58
190.948	108.88
191.168	176.47
191.387	78.16
191.607	2.39
191.826	55.64
192.045	59.73
192.265	0.34
192.484	135.51
192.704	69.97
192.923	-36.52
193.142	194.9
193.362	160.08
193.581	137.56
193.8	72.02
194.02	102.74
194.239	43.35
194.458	98.64
194.678	104.79
194.897	59.73
195.116	86.36
195.335	94.55
195.555	51.54
195.774	20.82
195.993	125.27
196.212	53.59
196.432	-44.71
196.651	-11.95
196.87	24.92
197.089	178.51
197.308	90.45
197.528	102.74
197.747	20.82
197.966	96.6
198.185	123.22
198.404	20.82
198.623	74.07
198.842	108.88
199.062	84.31
199.281	110.93
199.5	94.55
199.719	49.49
199.938	53.59
200.157	112.98
200.376	8.53
200.595	102.74
200.814	0.34
201.033	-34.47
201.252	184.66
201.471	69.97
201.69	115.03
201.909	41.3
202.128	104.79
202.347	127.32
202.566	82.26
202.785	-52.91
203.004	49.49
203.223	239.95
203.442	22.87
203.661	-30.38
203.879	137.56
204.098	141.65
204.317	-3.75
204.536	96.6
204.755	57.68
204.974	96.6
205.193	22.87
205.411	188.75
205.63	106.84
205.849	29.01
206.068	72.02
206.287	31.06
206.505	160.08
206.724	133.46
206.943	49.49
207.162	4.44
207.381	63.83
207.599	12.63
207.818	18.77
208.037	47.44
208.255	88.4
208.474	72.02
208.693	63.83
208.911	41.3
209.13	49.49
209.349	86.36
209.567	57.68
209.786	78.16
210.005	72.02
210.223	72.02
210.442	-77.48
210.661	-30.38
210.879	88.4
211.098	45.4
211.316	41.3
211.535	104.79
211.753	94.55
211.972	39.25
212.191	-1.71
212.409	41.3
212.628	127.32
212.846	-48.81
213.065	61.78
213.283	123.22
213.502	108.88
213.72	98.64
213.938	0.34
214.157	20.82
214.375	141.65
214.594	117.08
214.812	4.44
215.031	-5.8
215.249	61.78
215.467	133.46
215.686	29.01
215.904	129.36
216.122	80.21
216.341	139.6
216.559	67.92
216.778	182.61
216.996	139.6
217.214	0.34
217.432	-38.57
217.651	29.01
217.869	98.64
218.087	-9.9
218.306	35.16
218.524	123.22
218.742	106.84
218.96	80.21
219.179	-32.43
219.397	-5.8
219.615	252.24
219.833	162.13
220.051	20.82
220.27	100.69
220.488	-7.85
220.706	14.68
220.924	24.92
221.142	29.01
221.36	57.68
221.578	158.03
221.796	22.87
222.015	65.88
222.233	29.01
222.451	121.17
222.669	-46.76
222.887	86.36
223.105	-1.71
223.323	37.2
223.541	-95.91
223.759	106.84
223.977	33.11
224.195	145.75
224.413	20.82
224.631	33.11
224.849	110.93
225.067	205.14
225.285	90.45
225.503	-50.86
225.721	-149.16
225.939	29.01
226.157	82.26
226.375	250.19
226.592	45.4
226.81	-5.8
227.028	76.12
227.246	82.26
227.464	-40.62
227.682	47.44
227.9	108.88
228.117	-22.19
228.335	155.99
228.553	96.6
228.771	61.78
228.989	78.16
229.206	115.03
229.424	-18.09
229.642	47.44
229.86	-7.85
230.077	186.71
230.295	131.41
230.513	115.03
230.731	143.7
230.948	190.8
231.166	115.03
231.384	4.44
231.601	-1.71
231.819	102.74
232.037	-9.9
232.254	-32.43
232.472	94.55
232.689	10.58
232.907	90.45
233.125	-9.9
233.342	8.53
233.56	16.73
233.777	0.34
233.995	-48.81
234.213	78.16
234.43	94.55
234.648	-26.28
234.865	8.53
235.083	72.02
235.3	55.64
235.518	63.83
235.735	201.04
235.953	59.73
236.17	31.06
236.388	65.88
236.605	78.16
236.822	155.99
237.04	170.32
237.257	49.49
237.475	6.49
237.692	-9.9
237.909	45.4
238.127	24.92
238.344	117.08
238.562	14.68
238.779	-46.76
238.996	-36.52
239.214	16.73
239.431	108.88
239.648	39.25
239.865	65.88
240.083	65.88
240.3	6.49
240.517	-42.67
240.735	100.69
240.952	100.69
241.169	86.36
241.386	59.73
241.603	26.96
241.821	-69.29
242.038	106.84
242.255	67.92
242.472	-87.72
242.689	117.08
242.907	63.83
243.124	49.49
243.341	72.02
243.558	16.73
243.775	-24.23
243.992	-16.04
244.209	69.97
244.426	168.27
244.643	125.27
244.86	45.4
245.078	143.7
245.295	127.32
245.512	133.46
245.729	8.53
245.946	112.98
246.163	106.84
246.38	35.16
246.597	108.88
246.814	-50.86
247.031	-32.43
247.248	-24.23
247.464	33.11
247.681	45.4
247.898	162.13
248.115	90.45
248.332	14.68
248.549	153.94
248.766	123.22
248.983	47.44
249.2	31.06
249.417	39.25
249.633	-36.52
249.85	51.54
250.067	37.2
250.284	47.44
250.501	67.92
250.717	51.54
250.934	20.82
251.151	24.92
251.368	-34.47
251.585	69.97
251.801	69.97
252.018	65.88
252.235	117.08
252.451	14.68
252.668	-63.15
252.885	76.12
253.102	55.64
253.318	-50.86
253.535	-11.95
253.752	29.01
253.968	90.45
254.185	-34.47
254.401	12.63
254.618	61.78
254.835	-1.71
255.051	127.32
255.268	102.74
255.484	10.58
255.701	41.3
255.917	47.44
256.134	22.87
256.351	31.06
256.567	-9.9
256.784	55.64
257	-11.95
257.217	117.08
257.433	59.73
257.65	35.16
257.866	35.16
258.082	-1.71
258.299	-18.09
258.515	6.49
258.732	-22.19
258.948	-7.85
259.165	63.83
259.381	-1.71
259.597	80.21
259.814	6.49
260.03	35.16
260.246	2.39
260.463	119.12
260.679	178.51
260.895	100.69
261.112	37.2
261.328	-3.75
261.544	-91.82
261.761	176.47
261.977	29.01
262.193	-69.29
262.409	61.78
262.626	47.44
262.842	8.53
263.058	-104.11
263.274	96.6
263.49	90.45
263.707	86.36
263.923	123.22
264.139	-97.96
264.355	-11.95
264.571	112.98
264.787	74.07
265.004	192.85
265.22	49.49
265.436	74.07
265.652	-1.71
265.868	76.12
266.084	-11.95
266.3	4.44
266.516	-11.95
266.732	106.84
266.948	82.26
267.164	-24.23
267.38	61.78
267.596	86.36
267.812	164.18
268.028	41.3
268.244	-13.99
268.46	82.26
268.676	-46.76
268.892	80.21
269.108	-22.19
269.324	-1.71
269.54	-59.05
269.756	61.78
269.972	-67.24
270.188	37.2
270.403	-63.15
270.619	8.53
270.835	12.63
271.051	10.58
271.267	-5.8
271.483	-24.23
271.698	108.88
271.914	94.55
272.13	-16.04
272.346	18.77
272.562	92.5
272.777	125.27
272.993	45.4
273.209	-13.99
273.425	104.79
273.64	-67.24
273.856	72.02
274.072	39.25
274.287	-42.67
274.503	51.54
274.719	22.87
274.934	-20.14
275.15	-30.38
275.366	94.55
275.581	37.2
275.797	45.4
276.012	67.92
276.228	-65.19
276.444	0.34
276.659	100.69
276.875	-1.71
277.09	41.3
277.306	-13.99
277.521	31.06
277.737	69.97
277.952	147.8
278.168	18.77
278.383	29.01
278.599	2.39
278.814	86.36
279.03	-16.04
279.245	137.56
279.461	10.58
279.676	76.12
279.892	-61.1
280.107	0.34
280.322	37.2
280.538	65.88
280.753	115.03
280.969	-3.75
281.184	-7.85
281.399	192.85
281.615	16.73
281.83	59.73
282.045	-71.34
282.26	31.06
282.476	39.25
282.691	141.65
282.906	-18.09
283.122	22.87
283.337	35.16
283.552	86.36
283.767	6.49
283.983	80.21
284.198	49.49
284.413	106.84
284.628	24.92
284.843	63.83
285.058	90.45
285.274	0.34
285.489	-9.9
285.704	57.68
285.919	67.92
286.134	-1.71
286.349	100.69
286.564	65.88
286.779	137.56
286.995	45.4
287.21	-75.43
287.425	61.78
287.64	4.44
287.855	82.26
288.07	-32.43
288.285	102.74
288.5	127.32
288.715	180.56
288.93	22.87
289.145	14.68
289.36	39.25
289.575	2.39
289.79	123.22
290.004	-1.71
290.219	74.07
290.434	-26.28
290.649	-1.71
290.864	-7.85
291.079	53.59
291.294	67.92
291.509	53.59
291.724	88.4
291.938	-75.43
292.153	67.92
292.368	-11.95
292.583	82.26
292.798	74.07
293.012	110.93
293.227	123.22
293.442	-54.95
293.657	59.73
293.871	133.46
294.086	-18.09
294.301	147.8
294.516	155.99
294.73	96.6
294.945	43.35
295.16	0.34
295.374	86.36
295.589	186.71
295.804	12.63
296.018	92.5
296.233	168.27
296.447	47.44
296.662	-16.04
296.877	55.64
297.091	112.98
297.306	-48.81
297.52	22.87
297.735	63.83
297.949	37.2
298.164	41.3
298.378	55.64
298.593	-169.64
298.807	-91.82
299.022	24.92
299.236	86.36
299.451	86.36
299.665	-11.95
299.88	65.88
300.094	121.17
300.309	22.87
300.523	53.59
300.737	57.68
300.952	121.17
301.166	0.34
301.381	8.53
301.595	69.97
301.809	88.4
302.024	49.49
302.238	47.44
302.452	205.14
302.667	-13.99
302.881	162.13
303.095	104.79
303.309	33.11
303.524	20.82
303.738	61.78
303.952	-11.95
304.166	78.16
304.381	-91.82
304.595	92.5
304.809	8.53
305.023	10.58
305.237	67.92
305.452	33.11
305.666	63.83
305.88	59.73
306.094	76.12
306.308	43.35
306.522	84.31
306.736	-30.38
306.95	24.92
307.164	4.44
307.379	29.01
307.593	143.7
307.807	153.94
308.021	84.31
308.235	125.27
308.449	-61.1
308.663	37.2
308.877	205.14
309.091	55.64
309.305	125.27
309.519	-44.71
309.733	137.56
309.947	-54.95
310.161	92.5
310.374	123.22
310.588	86.36
310.802	-46.76
311.016	-20.14
311.23	80.21
311.444	-52.91
311.658	-7.85
311.872	153.94
312.085	84.31
312.299	76.12
312.513	88.4
312.727	47.44
312.941	-61.1
313.154	94.55
313.368	135.51
313.582	53.59
313.796	80.21
314.009	8.53
314.223	143.7
314.437	80.21
314.651	127.32
314.864	-73.39
315.078	16.73
315.292	33.11
315.505	-48.81
315.719	76.12
315.933	82.26
316.146	-28.33
316.36	-26.28
316.573	106.84
316.787	-1.71
317.001	80.21
317.214	-34.47
317.428	-1.71
317.641	-73.39
317.855	8.53
318.068	41.3
318.282	92.5
318.495	98.64
318.709	51.54
318.922	74.07
319.136	139.6
319.349	155.99
319.563	59.73
319.776	137.56
319.99	-65.19
320.203	104.79
320.417	59.73
320.63	72.02
320.843	280.91
321.057	39.25
321.27	47.44
321.483	49.49
321.697	104.79
321.91	59.73
322.124	82.26
322.337	35.16
322.55	43.35
322.763	18.77
322.977	14.68
323.19	26.96
323.403	35.16
323.617	49.49
323.83	104.79
324.043	53.59
324.256	98.64
324.469	-24.23
324.683	145.75
324.896	0.34
325.109	67.92
325.322	-52.91
325.535	123.22
325.748	168.27
325.962	8.53
326.175	98.64
326.388	61.78
326.601	94.55
326.814	80.21
327.027	24.92
327.24	104.79
327.453	-97.96
327.666	74.07
327.879	82.26
328.092	155.99
328.305	41.3
328.518	-40.62
328.731	-48.81
328.944	-22.19
329.157	94.55
329.37	-13.99
329.583	168.27
329.796	117.08
330.009	-147.11
330.222	33.11
330.435	39.25
330.648	-24.23
330.861	45.4
331.073	33.11
331.286	67.92
331.499	41.3
331.712	8.53
331.925	76.12
332.138	35.16
332.35	104.79
332.563	41.3
332.776	110.93
332.989	-75.43
333.202	18.77
333.414	108.88
333.627	57.68
333.84	-11.95
334.053	104.79
334.265	37.2
334.478	-38.57
334.691	41.3
334.903	49.49
335.116	6.49
335.329	2.39
335.541	162.13
335.754	194.9
335.966	-30.38
336.179	78.16
336.392	8.53
336.604	102.74
336.817	78.16
337.029	39.25
337.242	53.59
337.454	57.68
337.667	4.44
337.88	82.26
338.092	86.36
338.305	102.74
338.517	6.49
338.729	102.74
338.942	74.07
339.154	-16.04
339.367	-83.63
339.579	65.88
339.792	57.68
340.004	100.69
340.217	61.78
340.429	16.73
340.641	-24.23
340.854	18.77
341.066	18.77
341.278	117.08
341.491	184.66
341.703	29.01
341.915	12.63
342.128	160.08
342.34	26.96
342.552	-38.57
342.764	-9.9
342.977	8.53
343.189	86.36
343.401	12.63
343.613	-63.15
343.826	61.78
344.038	14.68
344.25	98.64
344.462	18.77
344.674	43.35
344.886	26.96
345.099	74.07
345.311	74.07
345.523	67.92
345.735	-114.34
345.947	53.59
346.159	57.68
346.371	18.77
346.583	-16.04
346.795	145.75
347.007	6.49
347.219	41.3
347.431	33.11
347.643	135.51
347.855	55.64
348.067	51.54
348.279	-13.99
348.491	-7.85
348.703	10.58
348.915	37.2
349.127	20.82
349.339	100.69
349.551	-9.9
349.763	194.9
349.975	-48.81
350.187	47.44
350.399	115.03
350.61	172.37
350.822	-30.38
351.034	149.84
351.246	69.97
351.458	51.54
351.669	129.36
351.881	65.88
352.093	72.02
352.305	76.12
352.517	35.16
352.728	162.13
352.94	149.84
353.152	131.41
353.363	43.35
353.575	35.16
353.787	121.17
353.999	63.83
354.21	131.41
354.422	-50.86
354.633	137.56
354.845	16.73
355.057	0.34
355.268	90.45
355.48	43.35
355.692	-7.85
355.903	37.2
356.115	29.01
356.326	12.63
356.538	151.89
356.749	47.44
356.961	155.99
357.172	55.64
357.384	-95.91
357.595	162.13
357.807	-65.19
358.018	12.63
358.23	88.4
358.441	123.22
358.653	24.92
358.864	72.02
359.075	-24.23
359.287	74.07
359.498	98.64
359.709	57.68
359.921	33.11
360.132	76.12
360.344	-5.8
360.555	-28.33
360.766	29.01
360.977	117.08
361.189	129.36
361.4	20.82
361.611	127.32
361.823	135.51
362.034	59.73
362.245	-34.47
362.456	24.92
362.667	110.93
362.879	2.39
363.09	53.59
363.301	127.32
363.512	102.74
363.723	16.73
363.935	20.82
364.146	84.31
364.357	-3.75
364.568	20.82
364.779	4.44
364.99	139.6
365.201	-7.85
365.412	194.9
365.623	-106.15
365.834	92.5
366.045	-3.75
366.256	108.88
366.467	129.36
366.678	45.4
366.889	69.97
367.1	-46.76
367.311	135.51
367.522	4.44
367.733	57.68
367.944	127.32
368.155	-28.33
368.366	51.54
368.577	72.02
368.788	18.77
368.999	-48.81
369.209	88.4
369.42	180.56
369.631	264.53
369.842	135.51
370.053	14.68
370.264	80.21
370.474	-52.91
370.685	106.84
370.896	-3.75
371.107	59.73
371.317	74.07
371.528	47.44
371.739	90.45
371.95	41.3
372.16	98.64
372.371	-3.75
372.582	-18.09
372.792	59.73
373.003	88.4
373.214	67.92
373.424	102.74
373.635	72.02
373.846	106.84
374.056	47.44
374.267	67.92
374.477	72.02
374.688	-24.23
374.898	37.2
375.109	98.64
375.319	133.46
375.53	76.12
375.74	72.02
375.951	-9.9
376.161	94.55
376.372	106.84
376.582	-5.8
376.793	57.68
377.003	-38.57
377.214	26.96
377.424	69.97
377.635	-57
377.845	33.11
378.055	129.36
378.266	-42.67
378.476	41.3
378.686	35.16
378.897	29.01
379.107	104.79
379.317	76.12
379.528	86.36
379.738	123.22
379.948	-18.09
380.158	129.36
380.369	92.5
380.579	12.63
380.789	63.83
380.999	96.6
381.21	78.16
381.42	155.99
381.63	22.87
381.84	121.17
382.05	12.63
382.261	141.65
382.471	72.02
382.681	14.68
382.891	102.74
383.101	22.87
383.311	-28.33
383.521	31.06
383.731	100.69
383.941	119.12
384.151	69.97
384.361	43.35
384.571	16.73
384.781	90.45
384.991	192.85
385.201	133.46
385.411	53.59
385.621	88.4
385.831	-11.95
386.041	96.6
386.251	37.2
386.461	131.41
386.671	-38.57
386.881	61.78
387.091	-24.23
387.301	92.5
387.511	69.97
387.72	86.36
387.93	123.22
388.14	0.34
388.35	16.73
388.56	145.75
388.769	82.26
388.979	31.06
389.189	0.34
389.399	88.4
389.609	24.92
389.818	170.32
390.028	112.98
390.238	147.8
390.447	33.11
390.657	137.56
390.867	0.34
391.076	4.44
391.286	37.2
391.496	92.5
391.705	51.54
391.915	119.12
392.125	115.03
392.334	6.49
392.544	160.08
392.753	90.45
392.963	-16.04
393.172	92.5
393.382	29.01
393.591	117.08
393.801	-34.47
394.01	76.12
394.22	131.41
394.429	2.39
394.639	86.36
394.848	86.36
395.058	49.49
395.267	74.07
395.477	98.64
395.686	84.31
395.895	205.14
396.105	121.17
396.314	69.97
396.524	2.39
396.733	41.3
396.942	139.6
397.152	67.92
397.361	141.65
397.57	33.11
397.78	88.4
397.989	59.73
398.198	178.51
398.407	41.3
398.617	106.84
398.826	41.3
399.035	6.49
399.244	78.16
399.453	69.97
399.663	-24.23
399.872	43.35
400.081	-5.8
400.29	86.36
400.499	10.58
400.708	57.68
400.917	45.4
401.127	47.44
401.336	-5.8
401.545	117.08
401.754	121.17
401.963	22.87
402.172	74.07
402.381	16.73
402.59	-38.57
402.799	88.4
403.008	127.32
403.217	125.27
403.426	-13.99
403.635	-13.99
403.844	26.96
404.053	-13.99
404.262	-36.52
404.471	162.13
404.68	117.08
404.888	59.73
405.097	12.63
405.306	53.59
405.515	102.74
405.724	84.31
405.933	108.88
406.142	82.26
406.35	143.7
406.559	-1.71
406.768	106.84
406.977	115.03
407.185	84.31
407.394	121.17
407.603	43.35
407.812	72.02
408.02	108.88
408.229	22.87
408.438	31.06
408.646	-77.48
408.855	4.44
409.064	72.02
409.272	2.39
409.481	74.07
409.69	-13.99
409.898	-18.09
410.107	-7.85
410.315	67.92
410.524	12.63
410.733	96.6
410.941	74.07
411.15	24.92
411.358	65.88
411.567	98.64
411.775	49.49
411.984	98.64
412.192	102.74
412.401	55.64
412.609	123.22
412.818	123.22
413.026	139.6
413.234	53.59
413.443	82.26
413.651	4.44
413.86	39.25
414.068	190.8
414.276	115.03
414.485	24.92
414.693	188.75
414.901	174.42
415.11	92.5
415.318	78.16
415.526	90.45
415.734	106.84
415.943	53.59
416.151	135.51
416.359	72.02
416.567	63.83
416.776	78.16
416.984	57.68
417.192	201.04
417.4	-13.99
417.608	29.01
417.817	-83.63
418.025	145.75
418.233	117.08
418.441	-16.04
418.649	0.34
418.857	88.4
419.065	74.07
419.273	-57
419.481	74.07
419.689	24.92
419.897	37.2
420.105	-11.95
420.313	135.51
420.521	135.51
420.729	110.93
420.937	-13.99
421.145	29.01
421.353	164.18
421.561	125.27
421.769	90.45
421.977	-75.43
422.185	125.27
422.393	65.88
422.601	149.84
422.809	147.8
423.017	26.96
423.224	127.32
423.432	176.47
423.64	80.21
423.848	133.46
424.056	-1.71
424.263	188.75
424.471	92.5
424.679	196.95
424.887	-7.85
425.094	260.43
425.302	74.07
425.51	33.11
425.718	59.73
425.925	14.68
426.133	41.3
426.341	227.67
426.548	31.06
426.756	112.98
426.964	82.26
427.171	0.34
427.379	88.4
427.586	137.56
427.794	63.83
428.001	129.36
428.209	39.25
428.417	225.62
428.624	174.42
428.832	151.89
429.039	59.73
429.247	129.36
429.454	131.41
429.662	211.28
429.869	104.79
430.076	100.69
430.284	106.84
430.491	254.29
430.699	121.17
430.906	147.8
431.114	106.84
431.321	76.12
431.528	145.75
431.736	188.75
431.943	137.56
432.15	207.19
432.358	201.04
432.565	246.1
432.772	31.06
432.979	274.77
433.187	112.98
433.394	299.34
433.601	155.99
433.808	223.57
434.016	307.54
434.223	221.52
434.43	196.95
434.637	254.29
434.844	198.99
435.052	299.34
435.259	272.72
435.466	297.3
435.673	229.71
435.88	227.67
436.087	282.96
436.294	457.04
436.501	328.02
436.708	264.53
436.915	319.82
437.122	360.78
437.329	301.39
437.537	375.12
437.743	334.16
437.95	444.75
438.157	377.17
438.364	399.7
438.571	432.46
438.778	420.17
438.985	395.6
439.192	454.99
439.399	424.27
439.606	485.71
439.813	516.43
440.02	688.46
440.227	692.55
440.433	629.07
440.64	485.71
440.847	563.53
441.054	659.79
441.261	735.56
441.467	635.21
441.674	584.01
441.881	807.24
442.088	686.41
442.294	768.33
442.501	833.86
442.708	850.25
442.914	840.01
443.121	921.93
443.328	913.74
443.534	1030.47
443.741	942.41
443.948	840.01
444.154	1042.76
444.361	1276.23
444.568	1044.81
444.774	1100.1
444.981	1098.05
445.187	1231.17
445.394	1204.55
445.6	1179.97
445.807	1390.91
446.013	1272.13
446.22	1378.62
446.426	1462.59
446.633	1659.2
446.839	1706.3
447.046	1397.06
447.252	1763.64
447.459	1741.11
447.665	1792.31
447.871	1984.82
448.078	2091.32
448.284	2044.21
448.491	2156.85
448.697	2206
448.903	2185.52
449.11	2404.66
449.316	2302.26
449.522	2462
449.728	2580.78
449.935	2707.76
450.141	2703.66
450.347	2769.2
450.553	2949.42
450.76	3006.76
450.966	3229.99
451.172	3080.49
451.378	3346.72
451.584	3369.25
451.791	3680.54
451.997	3627.29
452.203	3836.19
452.409	3907.87
452.615	4186.39
452.821	3954.97
453.027	4116.76
453.233	4720.91
453.44	4577.55
453.646	4800.78
453.852	4960.52
454.058	5169.41
454.264	5316.87
454.47	5640.45
454.676	5576.96
454.882	6093.05
455.088	5808.38
455.294	6428.92
455.5	6641.9
455.705	7080.17
455.911	6983.91
456.117	7334.12
456.323	7352.55
456.529	7454.95
456.735	8132.83
456.941	8354.01
457.147	8822.99
457.352	8984.78
457.558	9320.65
457.764	9812.16
457.97	9922.75
458.176	10369.21
458.381	10873.01
458.587	11122.86
458.793	11641
458.999	11489.45
459.204	12882.06
459.41	13469.83
459.616	13314.19
459.821	13881.47
460.027	14846.07
460.233	15427.69
460.438	15403.11
460.644	16162.91
460.85	16492.63
461.055	17356.88
461.261	17846.34
461.466	17403.98
461.672	17813.57
461.878	19910.69
462.083	20074.53
462.289	20396.06
462.494	21176.34
462.7	21110.8
462.905	21317.65
463.111	23312.37
463.316	24240.1
463.522	24829.91
463.727	25452.5
463.932	26580.93
464.138	27531.19
464.343	28581.79
464.549	28538.79
464.754	30756.74
464.959	31516.53
465.165	32216.94
465.37	32104.3
465.575	32100.2
465.781	34246.47
465.986	34991.94
466.191	34228.04
466.397	35000.13
466.602	34240.33
466.807	35772.21
467.012	36345.64
467.218	36972.32
467.423	37402.39
467.628	38104.85
467.833	40212.21
468.038	39356.16
468.244	38760.2
468.449	40494.83
468.654	39835.38
468.859	40081.14
469.064	40097.52
