Data from USB4F104151__50__09-28-12-503.txt Node

Date: Wed Feb 26 09:28:12 EST 2025
User: louis
Spectrometer: USB4F10415
Trigger mode: 4
Integration Time (sec): 1.000000E-1
Scans to average: 1
Electric dark correction enabled: true
Nonlinearity correction enabled: false
Boxcar width: 0
XAxis mode: Wavelengths
Number of Pixels in Spectrum: 3648
>>>>>Begin Spectral Data<<<<<
178.204	-337.91
178.424	-337.91
178.644	-337.91
178.864	-321.53
179.084	-337.91
179.304	-10.24
179.524	4.1
179.744	51.2
179.964	81.92
180.184	-2.05
180.404	-43.01
180.624	-26.62
180.844	-26.62
181.064	-38.91
181.283	38.91
181.503	-51.2
181.723	22.53
181.943	-108.54
182.163	135.17
182.383	0
182.602	77.82
182.822	206.84
183.042	122.88
183.262	-51.2
183.482	-53.25
183.701	28.67
183.921	69.63
184.141	-16.38
184.361	81.92
184.58	8.19
184.8	-10.24
185.02	53.25
185.239	118.78
185.459	8.19
185.679	135.17
185.898	-45.06
186.118	96.25
186.338	61.44
186.557	120.83
186.777	-26.62
186.997	88.06
187.216	83.97
187.436	69.63
187.655	53.25
187.875	137.21
188.095	4.1
188.314	106.49
188.534	178.17
188.753	-45.06
188.973	98.3
189.192	247.8
189.412	53.25
189.631	63.49
189.851	67.58
190.07	145.41
190.29	18.43
190.509	61.44
190.729	14.34
190.948	167.93
191.168	307.2
191.387	47.1
191.607	6.14
191.826	57.34
192.045	98.3
192.265	-63.49
192.484	129.02
192.704	43.01
192.923	-69.63
193.142	139.26
193.362	88.06
193.581	172.03
193.8	45.06
194.02	96.25
194.239	104.45
194.458	59.39
194.678	59.39
194.897	20.48
195.116	69.63
195.335	75.77
195.555	53.25
195.774	16.38
195.993	147.45
196.212	-32.77
196.432	30.72
196.651	61.44
196.87	-12.29
197.089	212.99
197.308	129.02
197.528	118.78
197.747	-2.05
197.966	12.29
198.185	129.02
198.404	-20.48
198.623	47.1
198.842	94.21
199.062	124.93
199.281	67.58
199.5	71.68
199.719	83.97
199.938	-12.29
200.157	143.36
200.376	45.06
200.595	145.41
200.814	118.78
201.033	-53.25
201.252	120.83
201.471	90.11
201.69	83.97
201.909	79.87
202.128	114.69
202.347	26.62
202.566	8.19
202.785	4.1
203.004	4.1
203.223	198.65
203.442	67.58
203.661	-20.48
203.879	79.87
204.098	212.99
204.317	59.39
204.536	137.21
204.755	69.63
204.974	81.92
205.193	20.48
205.411	112.64
205.63	135.17
205.849	100.35
206.068	14.34
206.287	59.39
206.505	137.21
206.724	-2.05
206.943	-16.38
207.162	0
207.381	88.06
207.599	38.91
207.818	71.68
208.037	16.38
208.255	55.3
208.474	63.49
208.693	120.83
208.911	-67.58
209.13	178.17
209.349	116.73
209.567	116.73
209.786	120.83
210.005	53.25
210.223	28.67
210.442	-28.67
210.661	18.43
210.879	63.49
211.098	106.49
211.316	79.87
211.535	129.02
211.753	45.06
211.972	112.64
212.191	120.83
212.409	55.3
212.628	145.41
212.846	-69.63
213.065	88.06
213.283	116.73
213.502	-26.62
213.72	10.24
213.938	2.05
214.157	83.97
214.375	139.26
214.594	49.15
214.812	43.01
215.031	12.29
215.249	67.58
215.467	-10.24
215.686	43.01
215.904	94.21
216.122	69.63
216.341	102.4
216.559	47.1
216.778	153.6
216.996	90.11
217.214	-18.43
217.432	38.91
217.651	-59.39
217.869	108.54
218.087	-16.38
218.306	-10.24
218.524	55.3
218.742	6.14
218.96	110.59
219.179	14.34
219.397	30.72
219.615	153.6
219.833	143.36
220.051	-32.77
220.27	118.78
220.488	116.73
220.706	131.07
220.924	30.72
221.142	43.01
221.36	18.43
221.578	53.25
221.796	71.68
222.015	2.05
222.233	51.2
222.451	90.11
222.669	-14.34
222.887	24.58
223.105	-6.14
223.323	55.3
223.541	-18.43
223.759	59.39
223.977	53.25
224.195	176.13
224.413	40.96
224.631	79.87
224.849	106.49
225.067	196.61
225.285	51.2
225.503	51.2
225.721	-120.83
225.939	-2.05
226.157	55.3
226.375	178.17
226.592	30.72
226.81	24.58
227.028	77.82
227.246	98.3
227.464	79.87
227.682	88.06
227.9	108.54
228.117	83.97
228.335	18.43
228.553	100.35
228.771	38.91
228.989	165.89
229.206	28.67
229.424	38.91
229.642	-2.05
229.86	-55.3
230.077	120.83
230.295	8.19
230.513	104.45
230.731	120.83
230.948	155.65
231.166	124.93
231.384	83.97
231.601	-10.24
231.819	112.64
232.037	-10.24
232.254	-4.1
232.472	112.64
232.689	-26.62
232.907	43.01
233.125	34.82
233.342	-26.62
233.56	55.3
233.777	34.82
233.995	22.53
234.213	141.31
234.43	108.54
234.648	-2.05
234.865	-38.91
235.083	108.54
235.3	51.2
235.518	57.34
235.735	110.59
235.953	86.01
236.17	-4.1
236.388	67.58
236.605	51.2
236.822	120.83
237.04	120.83
237.257	22.53
237.475	4.1
237.692	77.82
237.909	176.13
238.127	-24.58
238.344	34.82
238.562	67.58
238.779	-59.39
238.996	-16.38
239.214	2.05
239.431	75.77
239.648	-8.19
239.865	83.97
240.083	-14.34
240.3	-32.77
240.517	-8.19
240.735	120.83
240.952	106.49
241.169	73.73
241.386	-22.53
241.603	8.19
241.821	-16.38
242.038	59.39
242.255	135.17
242.472	14.34
242.689	30.72
242.907	51.2
243.124	-28.67
243.341	79.87
243.558	-12.29
243.775	-2.05
243.992	-67.58
244.209	45.06
244.426	206.84
244.643	88.06
244.86	22.53
245.078	102.4
245.295	79.87
245.512	81.92
245.729	-34.82
245.946	98.3
246.163	-49.15
246.38	90.11
246.597	63.49
246.814	36.86
247.031	10.24
247.248	100.35
247.464	137.21
247.681	10.24
247.898	129.02
248.115	43.01
248.332	45.06
248.549	131.07
248.766	118.78
248.983	112.64
249.2	129.02
249.417	65.54
249.633	-4.1
249.85	45.06
250.067	53.25
250.284	67.58
250.501	88.06
250.717	135.17
250.934	-16.38
251.151	-2.05
251.368	102.4
251.585	79.87
251.801	-18.43
252.018	32.77
252.235	141.31
252.451	-47.1
252.668	-10.24
252.885	124.93
253.102	2.05
253.318	10.24
253.535	24.58
253.752	67.58
253.968	61.44
254.185	40.96
254.401	49.15
254.618	22.53
254.835	-67.58
255.051	120.83
255.268	10.24
255.484	88.06
255.701	-18.43
255.917	92.16
256.134	-47.1
256.351	16.38
256.567	-65.53
256.784	43.01
257	38.91
257.217	92.16
257.433	55.3
257.65	114.69
257.866	118.78
258.082	-75.77
258.299	18.43
258.515	30.72
258.732	71.68
258.948	22.53
259.165	36.86
259.381	16.38
259.597	116.73
259.814	94.21
260.03	-24.58
260.246	22.53
260.463	135.17
260.679	67.58
260.895	112.64
261.112	116.73
261.328	57.34
261.544	51.2
261.761	239.61
261.977	36.86
262.193	-79.87
262.409	63.49
262.626	110.59
262.842	77.82
263.058	18.43
263.274	81.92
263.49	90.11
263.707	18.43
263.923	88.06
264.139	-8.19
264.355	20.48
264.571	120.83
264.787	51.2
265.004	208.89
265.22	81.92
265.436	12.29
265.652	-22.53
265.868	69.63
266.084	-24.58
266.3	-16.38
266.516	20.48
266.732	73.73
266.948	55.3
267.164	83.97
267.38	157.69
267.596	100.35
267.812	131.07
268.028	32.77
268.244	18.43
268.46	71.68
268.676	28.67
268.892	110.59
269.108	20.48
269.324	-59.39
269.54	4.1
269.756	118.78
269.972	-26.62
270.188	34.82
270.403	67.58
270.619	77.82
270.835	129.02
271.051	22.53
271.267	22.53
271.483	24.58
271.698	14.34
271.914	0
272.13	71.68
272.346	32.77
272.562	38.91
272.777	100.35
272.993	30.72
273.209	-16.38
273.425	112.64
273.64	-116.73
273.856	139.26
274.072	12.29
274.287	14.34
274.503	36.86
274.719	71.68
274.934	73.73
275.15	-45.06
275.366	106.49
275.581	71.68
275.797	88.06
276.012	-51.2
276.228	63.49
276.444	36.86
276.659	149.5
276.875	55.3
277.09	16.38
277.306	30.72
277.521	63.49
277.737	38.91
277.952	47.1
278.168	30.72
278.383	65.54
278.599	126.97
278.814	63.49
279.03	30.72
279.245	194.56
279.461	69.63
279.676	88.06
279.892	30.72
280.107	30.72
280.322	43.01
280.538	24.58
280.753	14.34
280.969	65.54
281.184	53.25
281.399	155.65
281.615	157.69
281.83	-6.14
282.045	-34.82
282.26	18.43
282.476	63.49
282.691	139.26
282.906	100.35
283.122	43.01
283.337	-2.05
283.552	88.06
283.767	-2.05
283.983	94.21
284.198	55.3
284.413	90.11
284.628	-10.24
284.843	49.15
285.058	63.49
285.274	47.1
285.489	-59.39
285.704	129.02
285.919	71.68
286.134	30.72
286.349	67.58
286.564	-30.72
286.779	149.5
286.995	16.38
287.21	30.72
287.425	57.34
287.64	55.3
287.855	106.49
288.07	-24.58
288.285	126.97
288.5	86.01
288.715	30.72
288.93	36.86
289.145	-83.97
289.36	86.01
289.575	40.96
289.79	59.39
290.004	12.29
290.219	38.91
290.434	-47.1
290.649	59.39
290.864	10.24
291.079	12.29
291.294	98.3
291.509	51.2
291.724	-53.25
291.938	-8.19
292.153	157.69
292.368	4.1
292.583	20.48
292.798	159.74
293.012	100.35
293.227	45.06
293.442	59.39
293.657	116.73
293.871	98.3
294.086	116.73
294.301	153.6
294.516	71.68
294.73	71.68
294.945	-28.67
295.16	63.49
295.374	137.21
295.589	94.21
295.804	6.14
296.018	65.54
296.233	167.93
296.447	0
296.662	20.48
296.877	104.45
297.091	102.4
297.306	-26.62
297.52	43.01
297.735	120.83
297.949	61.44
298.164	57.34
298.378	-4.1
298.593	30.72
298.807	38.91
299.022	36.86
299.236	118.78
299.451	-32.77
299.665	-20.48
299.88	38.91
300.094	81.92
300.309	61.44
300.523	6.14
300.737	6.14
300.952	71.68
301.166	81.92
301.381	20.48
301.595	-51.2
301.809	55.3
302.024	2.05
302.238	-22.53
302.452	165.89
302.667	30.72
302.881	71.68
303.095	137.21
303.309	10.24
303.524	0
303.738	81.92
303.952	-12.29
304.166	28.67
304.381	-16.38
304.595	141.31
304.809	45.06
305.023	96.25
305.237	45.06
305.452	45.06
305.666	51.2
305.88	145.41
306.094	118.78
306.308	73.73
306.522	79.87
306.736	79.87
306.95	151.55
307.164	92.16
307.379	-53.25
307.593	178.17
307.807	169.98
308.021	28.67
308.235	-18.43
308.449	-65.53
308.663	4.1
308.877	284.67
309.091	104.45
309.305	47.1
309.519	-34.82
309.733	55.3
309.947	-24.58
310.161	139.26
310.374	159.74
310.588	22.53
310.802	-16.38
311.016	-116.73
311.23	81.92
311.444	-116.73
311.658	6.14
311.872	145.41
312.085	104.45
312.299	206.84
312.513	96.25
312.727	55.3
312.941	-14.34
313.154	53.25
313.368	18.43
313.582	55.3
313.796	81.92
314.009	104.45
314.223	63.49
314.437	90.11
314.651	34.82
314.864	6.14
315.078	79.87
315.292	-18.43
315.505	36.86
315.719	20.48
315.933	53.25
316.146	-2.05
316.36	2.05
316.573	83.97
316.787	10.24
317.001	8.19
317.214	-8.19
317.428	71.68
317.641	67.58
317.855	-45.06
318.068	96.25
318.282	116.73
318.495	75.77
318.709	73.73
318.922	22.53
319.136	256
319.349	129.02
319.563	6.14
319.776	88.06
319.99	-38.91
320.203	14.34
320.417	26.62
320.63	108.54
320.843	210.94
321.057	47.1
321.27	98.3
321.483	100.35
321.697	182.27
321.91	83.97
322.124	34.82
322.337	18.43
322.55	18.43
322.763	92.16
322.977	77.82
323.19	-8.19
323.403	38.91
323.617	102.4
323.83	79.87
324.043	100.35
324.256	-2.05
324.469	-10.24
324.683	145.41
324.896	6.14
325.109	67.58
325.322	-6.14
325.535	149.5
325.748	65.54
325.962	45.06
326.175	81.92
326.388	110.59
326.601	79.87
326.814	-30.72
327.027	108.54
327.24	143.36
327.453	-59.39
327.666	71.68
327.879	120.83
328.092	104.45
328.305	100.35
328.518	69.63
328.731	-63.49
328.944	-4.1
329.157	112.64
329.37	59.39
329.583	208.89
329.796	129.02
330.009	-4.1
330.222	81.92
330.435	104.45
330.648	38.91
330.861	2.05
331.073	59.39
331.286	24.58
331.499	20.48
331.712	-10.24
331.925	86.01
332.138	32.77
332.35	96.25
332.563	8.19
332.776	120.83
332.989	-32.77
333.202	-51.2
333.414	34.82
333.627	63.49
333.84	92.16
334.053	-26.62
334.265	32.77
334.478	55.3
334.691	73.73
334.903	43.01
335.116	-92.16
335.329	55.3
335.541	94.21
335.754	73.73
335.966	-12.29
336.179	110.59
336.392	40.96
336.604	12.29
336.817	129.02
337.029	20.48
337.242	-40.96
337.454	108.54
337.667	20.48
337.88	174.08
338.092	94.21
338.305	83.97
338.517	26.62
338.729	10.24
338.942	194.56
339.154	73.73
339.367	-57.34
339.579	63.49
339.792	6.14
340.004	59.39
340.217	98.3
340.429	86.01
340.641	-28.67
340.854	59.39
341.066	2.05
341.278	124.93
341.491	137.21
341.703	10.24
341.915	-12.29
342.128	34.82
342.34	34.82
342.552	-40.96
342.764	86.01
342.977	45.06
343.189	28.67
343.401	45.06
343.613	-47.1
343.826	22.53
344.038	-53.25
344.25	59.39
344.462	34.82
344.674	69.63
344.886	67.58
345.099	100.35
345.311	47.1
345.523	65.54
345.735	-69.63
345.947	24.58
346.159	26.62
346.371	24.58
346.583	16.38
346.795	215.04
347.007	14.34
347.219	28.67
347.431	28.67
347.643	120.83
347.855	67.58
348.067	126.97
348.279	-53.25
348.491	59.39
348.703	20.48
348.915	-32.77
349.127	2.05
349.339	43.01
349.551	-2.05
349.763	55.3
349.975	16.38
350.187	120.83
350.399	83.97
350.61	71.68
350.822	77.82
351.034	-45.06
351.246	22.53
351.458	26.62
351.669	79.87
351.881	71.68
352.093	155.65
352.305	135.17
352.517	69.63
352.728	118.78
352.94	38.91
353.152	79.87
353.363	-32.77
353.575	88.06
353.787	104.45
353.999	145.41
354.21	120.83
354.422	-14.34
354.633	43.01
354.845	43.01
355.057	63.49
355.268	47.1
355.48	176.13
355.692	-34.82
355.903	4.1
356.115	34.82
356.326	-51.2
356.538	137.21
356.749	47.1
356.961	169.98
357.172	8.19
357.384	-10.24
357.595	221.18
357.807	2.05
358.018	14.34
358.23	36.86
358.441	163.84
358.653	100.35
358.864	2.05
359.075	-24.58
359.287	53.25
359.498	88.06
359.709	112.64
359.921	45.06
360.132	102.4
360.344	26.62
360.555	-22.53
360.766	10.24
360.977	34.82
361.189	104.45
361.4	-2.05
361.611	165.89
361.823	178.17
362.034	36.86
362.245	-59.39
362.456	-10.24
362.667	120.83
362.879	-30.72
363.09	22.53
363.301	114.69
363.512	40.96
363.723	10.24
363.935	4.1
364.146	83.97
364.357	32.77
364.568	100.35
364.779	-73.73
364.99	112.64
365.201	-45.06
365.412	167.93
365.623	-75.77
365.834	59.39
366.045	79.87
366.256	79.87
366.467	92.16
366.678	30.72
366.889	122.88
367.1	24.58
367.311	104.45
367.522	-20.48
367.733	73.73
367.944	102.4
368.155	30.72
368.366	133.12
368.577	120.83
368.788	129.02
368.999	34.82
369.209	112.64
369.42	219.13
369.631	151.55
369.842	120.83
370.053	63.49
370.264	153.6
370.474	26.62
370.685	86.01
370.896	-36.86
371.107	126.97
371.317	34.82
371.528	-22.53
371.739	94.21
371.95	104.45
372.16	71.68
372.371	-8.19
372.582	2.05
372.792	67.58
373.003	63.49
373.214	63.49
373.424	92.16
373.635	-18.43
373.846	147.45
374.056	69.63
374.267	124.93
374.477	77.82
374.688	-73.73
374.898	36.86
375.109	34.82
375.319	10.24
375.53	120.83
375.74	141.31
375.951	12.29
376.161	43.01
376.372	124.93
376.582	-36.86
376.793	77.82
377.003	-2.05
377.214	22.53
377.424	92.16
377.635	51.2
377.845	30.72
378.055	200.7
378.266	-26.62
378.476	32.77
378.686	71.68
378.897	36.86
379.107	145.41
379.317	59.39
379.528	6.14
379.738	116.73
379.948	-40.96
380.158	110.59
380.369	102.4
380.579	-30.72
380.789	135.17
380.999	149.5
381.21	53.25
381.42	184.32
381.63	16.38
381.84	98.3
382.05	57.34
382.261	104.45
382.471	126.97
382.681	32.77
382.891	194.56
383.101	104.45
383.311	-65.53
383.521	-53.25
383.731	96.25
383.941	51.2
384.151	-30.72
384.361	38.91
384.571	100.35
384.781	14.34
384.991	172.03
385.201	100.35
385.411	143.36
385.621	38.91
385.831	43.01
386.041	30.72
386.251	75.77
386.461	153.6
386.671	61.44
386.881	65.54
387.091	38.91
387.301	100.35
387.511	18.43
387.72	124.93
387.93	96.25
388.14	-61.44
388.35	96.25
388.56	147.45
388.769	131.07
388.979	36.86
389.189	-8.19
389.399	59.39
389.609	122.88
389.818	55.3
390.028	92.16
390.238	63.49
390.447	43.01
390.657	71.68
390.867	26.62
391.076	6.14
391.286	38.91
391.496	53.25
391.705	75.77
391.915	73.73
392.125	112.64
392.334	30.72
392.544	155.65
392.753	112.64
392.963	-36.86
393.172	126.97
393.382	126.97
393.591	129.02
393.801	92.16
394.01	208.89
394.22	120.83
394.429	-20.48
394.639	-6.14
394.848	88.06
395.058	88.06
395.267	79.87
395.477	110.59
395.686	94.21
395.895	104.45
396.105	143.36
396.314	55.3
396.524	-6.14
396.733	38.91
396.942	122.88
397.152	24.58
397.361	131.07
397.57	145.41
397.78	88.06
397.989	116.73
398.198	133.12
398.407	10.24
398.617	57.34
398.826	-8.19
399.035	96.25
399.244	102.4
399.453	40.96
399.663	-2.05
399.872	65.54
400.081	20.48
400.29	141.31
400.499	49.15
400.708	71.68
400.917	-2.05
401.127	-16.38
401.336	12.29
401.545	157.69
401.754	126.97
401.963	96.25
402.172	45.06
402.381	-53.25
402.59	-67.58
402.799	32.77
403.008	145.41
403.217	30.72
403.426	30.72
403.635	-12.29
403.844	51.2
404.053	20.48
404.262	-36.86
404.471	174.08
404.68	67.58
404.888	61.44
405.097	79.87
405.306	71.68
405.515	6.14
405.724	86.01
405.933	81.92
406.142	110.59
406.35	88.06
406.559	59.39
406.768	77.82
406.977	137.21
407.185	104.45
407.394	63.49
407.603	-32.77
407.812	75.77
408.02	110.59
408.229	32.77
408.438	88.06
408.646	10.24
408.855	135.17
409.064	120.83
409.272	79.87
409.481	12.29
409.69	34.82
409.898	10.24
410.107	94.21
410.315	106.49
410.524	-4.1
410.733	110.59
410.941	49.15
411.15	67.58
411.358	141.31
411.567	227.32
411.775	96.25
411.984	65.54
412.192	161.79
412.401	59.39
412.609	147.45
412.818	100.35
413.026	51.2
413.234	79.87
413.443	38.91
413.651	45.06
413.86	10.24
414.068	176.13
414.276	110.59
414.485	59.39
414.693	124.93
414.901	174.08
415.11	71.68
415.318	86.01
415.526	67.58
415.734	122.88
415.943	59.39
416.151	90.11
416.359	47.1
416.567	83.97
416.776	40.96
416.984	169.98
417.192	135.17
417.4	79.87
417.608	-18.43
417.817	-6.14
418.025	79.87
418.233	225.28
418.441	-12.29
418.649	28.67
418.857	143.36
419.065	129.02
419.273	-79.87
419.481	71.68
419.689	81.92
419.897	-2.05
420.105	34.82
420.313	43.01
420.521	165.89
420.729	114.69
420.937	22.53
421.145	18.43
421.353	83.97
421.561	133.12
421.769	122.88
421.977	43.01
422.185	129.02
422.393	57.34
422.601	176.13
422.809	163.84
423.017	45.06
423.224	77.82
423.432	112.64
423.64	94.21
423.848	202.75
424.056	26.62
424.263	106.49
424.471	47.1
424.679	153.6
424.887	-14.34
425.094	157.69
425.302	141.31
425.51	24.58
425.718	77.82
425.925	114.69
426.133	-6.14
426.341	188.41
426.548	24.58
426.756	100.35
426.964	129.02
427.171	106.49
427.379	96.25
427.586	75.77
427.794	102.4
428.001	137.21
428.209	65.54
428.417	229.37
428.624	139.26
428.832	92.16
429.039	126.97
429.247	77.82
429.454	190.46
429.662	190.46
429.869	118.78
430.076	169.98
430.284	120.83
430.491	196.61
430.699	145.41
430.906	174.08
431.114	120.83
431.321	194.56
431.528	149.5
431.736	163.84
431.943	219.13
432.15	120.83
432.358	266.24
432.565	282.62
432.772	55.3
432.979	262.14
433.187	143.36
433.394	192.51
433.601	176.13
433.808	229.37
434.016	282.62
434.223	194.56
434.43	245.76
434.637	237.56
434.844	284.67
435.052	233.47
435.259	301.05
435.466	286.72
435.673	260.09
435.88	315.39
436.087	362.49
436.294	337.91
436.501	339.96
436.708	342.01
436.915	415.74
437.122	430.07
437.329	419.83
437.537	309.24
437.743	407.55
437.95	477.18
438.157	503.8
438.364	452.6
438.571	497.66
438.778	495.61
438.985	520.18
439.192	511.99
439.399	542.71
439.606	522.23
439.813	645.11
440.02	669.69
440.227	786.42
440.433	645.11
440.64	657.4
440.847	587.77
441.054	714.74
441.261	851.95
441.467	686.07
441.674	641.01
441.881	831.48
442.088	759.8
442.294	784.37
442.501	931.83
442.708	993.26
442.914	999.41
443.121	976.88
443.328	1097.71
443.534	1077.23
443.741	1187.82
443.948	1042.42
444.154	1177.58
444.361	1429.48
444.568	1120.24
444.774	1169.39
444.981	1132.53
445.187	1294.32
445.394	1343.47
445.6	1345.52
445.807	1533.93
446.013	1556.46
446.22	1445.87
446.426	1705.96
446.633	1617.9
446.839	1804.26
447.046	1755.11
447.252	1861.6
447.459	1839.08
447.665	1927.14
447.871	2052.06
448.078	2289.63
448.284	2127.84
448.491	2435.03
448.697	2396.12
448.903	2549.72
449.11	2539.48
449.316	2609.11
449.522	2822.1
449.728	2969.55
449.935	2914.26
450.141	2975.7
450.347	3364.81
450.553	3074
450.76	3266.51
450.966	3385.29
451.172	3526.6
451.378	3768.26
451.584	3813.32
451.791	4016.07
451.997	4009.92
452.203	4177.86
452.409	4343.74
452.615	4638.65
452.821	4442.04
453.027	4683.7
453.233	5218.22
453.44	4962.23
453.646	5269.42
453.852	5564.33
454.058	5664.68
454.264	5912.49
454.47	6090.66
454.676	6295.46
454.882	6772.63
455.088	6565.79
455.294	6862.74
455.5	7303.06
455.705	7739.27
455.911	7731.08
456.117	7960.45
456.323	8245.12
456.529	8200.07
456.735	9000.82
456.941	9256.82
457.147	9543.53
457.352	9705.32
457.558	10155.88
457.764	10858.33
457.97	10901.34
458.176	11425.62
458.381	11777.87
458.587	12267.33
458.793	12885.82
458.999	12840.76
459.204	14346.02
459.41	14663.46
459.616	14735.14
459.821	15367.96
460.027	16185.1
460.233	16961.28
460.438	17039.1
460.644	17876.72
460.85	18124.52
461.055	18755.3
461.261	19687.12
461.466	19224.28
461.672	19781.33
461.878	22107.82
462.083	21743.28
462.289	22279.85
462.494	23236.25
462.7	23246.49
462.905	23627.42
463.111	25691.77
463.316	26373.74
463.522	27209.31
463.727	28030.55
463.932	29077.06
464.138	30101.04
464.343	31460.9
464.549	31591.97
464.754	33388.03
464.959	34473.46
465.165	35147.24
465.37	34526.71
465.575	34887.15
465.781	37127.63
465.986	38567.35
466.191	37723.58
466.397	38071.74
466.602	36894.16
466.807	39409.06
467.012	40115.61
467.218	40607.12
467.423	40979.85
467.628	41575.81
467.833	43996.51
468.038	42788.21
468.244	42460.54
468.449	44627.29
