Data from USB4F104151__43__10-25-05-836.txt Node

Date: Wed Feb 26 10:25:05 EST 2025
User: louis
Spectrometer: USB4F10415
Trigger mode: 4
Integration Time (sec): 1.000000E-1
Scans to average: 1
Electric dark correction enabled: true
Nonlinearity correction enabled: false
Boxcar width: 0
XAxis mode: Wavelengths
Number of Pixels in Spectrum: 3648
>>>>>Begin Spectral Data<<<<<
178.204	-415.57
178.424	-415.57
178.644	-415.57
178.864	-450.38
179.084	-442.19
179.304	30.89
179.524	-26.45
179.744	-51.03
179.964	-10.07
180.184	112.81
180.404	12.46
180.624	-83.8
180.844	-36.69
181.064	-83.8
181.283	63.66
181.503	-46.93
181.723	118.95
181.943	-126.8
182.163	90.28
182.383	-73.56
182.602	57.51
182.822	114.86
183.042	8.36
183.262	-87.89
183.482	-26.45
183.701	63.66
183.921	43.18
184.141	-53.08
184.361	73.9
184.58	90.28
184.8	30.89
185.02	-48.98
185.239	43.18
185.459	53.42
185.679	61.61
185.898	-85.84
186.118	-1.88
186.338	34.99
186.557	32.94
186.777	-42.84
186.997	-14.17
187.216	-46.93
187.436	207.02
187.655	-22.36
187.875	28.84
188.095	-12.12
188.314	98.47
188.534	172.2
188.753	-77.65
188.973	53.42
189.192	149.67
189.412	-46.93
189.631	-10.07
189.851	39.08
190.07	141.48
190.29	-59.22
190.509	-32.6
190.729	73.9
190.948	84.14
191.168	198.82
191.387	6.31
191.607	-46.93
191.826	-30.55
192.045	129.19
192.265	18.6
192.484	65.71
192.704	39.08
192.923	-87.89
193.142	174.25
193.362	49.32
193.581	139.43
193.8	-10.07
194.02	90.28
194.239	49.32
194.458	90.28
194.678	4.27
194.897	-12.12
195.116	12.46
195.335	26.79
195.555	-28.5
195.774	-18.26
195.993	121
196.212	94.38
196.432	-28.5
196.651	-36.69
196.87	-24.4
197.089	153.77
197.308	61.61
197.528	26.79
197.747	-40.79
197.966	14.51
198.185	82.09
198.404	-59.22
198.623	121
198.842	98.47
199.062	75.95
199.281	88.23
199.5	-12.12
199.719	20.65
199.938	75.95
200.157	45.23
200.376	129.19
200.595	159.91
200.814	55.47
201.033	-18.26
201.252	166.06
201.471	53.42
201.69	49.32
201.909	-12.12
202.128	80.04
202.347	73.9
202.566	-40.79
202.785	-87.89
203.004	-51.03
203.223	280.74
203.442	2.22
203.661	-46.93
203.879	41.13
204.098	159.91
204.317	-5.97
204.536	67.75
204.755	45.23
204.974	67.75
205.193	26.79
205.411	80.04
205.63	77.99
205.849	63.66
206.068	-3.93
206.287	-5.97
206.505	80.04
206.724	10.41
206.943	12.46
207.162	-1.88
207.381	34.99
207.599	-38.74
207.818	-18.26
208.037	-63.32
208.255	-16.21
208.474	90.28
208.693	92.33
208.911	-32.6
209.13	41.13
209.349	118.95
209.567	106.67
209.786	129.19
210.005	110.76
210.223	49.32
210.442	-120.66
210.661	12.46
210.879	47.27
211.098	28.84
211.316	10.41
211.535	69.8
211.753	73.9
211.972	49.32
212.191	-42.84
212.409	26.79
212.628	51.37
212.846	-59.22
213.065	49.32
213.283	84.14
213.502	-38.74
213.72	12.46
213.938	4.27
214.157	-63.32
214.375	22.7
214.594	-20.31
214.812	84.14
215.031	69.8
215.249	49.32
215.467	80.04
215.686	-44.88
215.904	45.23
216.122	47.27
216.341	139.43
216.559	34.99
216.778	123.05
216.996	45.23
217.214	10.41
217.432	43.18
217.651	-59.22
217.869	-1.88
218.087	41.13
218.306	41.13
218.524	-12.12
218.742	4.27
218.96	88.23
219.179	-26.45
219.397	18.6
219.615	223.4
219.833	106.67
220.051	-53.08
220.27	41.13
220.488	51.37
220.706	45.23
220.924	-24.4
221.142	-46.93
221.36	43.18
221.578	102.57
221.796	84.14
222.015	22.7
222.233	-20.31
222.451	88.23
222.669	-83.8
222.887	69.8
223.105	-44.88
223.323	30.89
223.541	-28.5
223.759	32.94
223.977	53.42
224.195	129.19
224.413	47.27
224.631	88.23
224.849	-3.93
225.067	221.35
225.285	-42.84
225.503	-34.64
225.721	-106.32
225.939	65.71
226.157	43.18
226.375	131.24
226.592	-55.12
226.81	77.99
227.028	55.47
227.246	55.47
227.464	-28.5
227.682	71.85
227.9	26.79
228.117	63.66
228.335	61.61
228.553	65.71
228.771	41.13
228.989	61.61
229.206	151.72
229.424	-22.36
229.642	22.7
229.86	-42.84
230.077	108.71
230.295	71.85
230.513	43.18
230.731	57.51
230.948	39.08
231.166	102.57
231.384	59.56
231.601	4.27
231.819	268.45
232.037	-46.93
232.254	-20.31
232.472	47.27
232.689	-20.31
232.907	100.52
233.125	-40.79
233.342	-104.28
233.56	-65.36
233.777	-8.02
233.995	20.65
234.213	112.81
234.43	153.77
234.648	8.36
234.865	-1.88
235.083	0.17
235.3	-38.74
235.518	16.55
235.735	96.43
235.953	39.08
236.17	24.75
236.388	-20.31
236.605	-14.17
236.822	80.04
237.04	69.8
237.257	63.66
237.475	-59.22
237.692	112.81
237.909	43.18
238.127	-44.88
238.344	67.75
238.562	45.23
238.779	-112.47
238.996	-94.04
239.214	75.95
239.431	61.61
239.648	61.61
239.865	80.04
240.083	73.9
240.3	75.95
240.517	-149.33
240.735	-16.21
240.952	49.32
241.169	96.43
241.386	16.55
241.603	-46.93
241.821	-122.71
242.038	12.46
242.255	123.05
242.472	-75.6
242.689	39.08
242.907	96.43
243.124	96.43
243.341	-16.21
243.558	55.47
243.775	20.65
243.992	-57.17
244.209	98.47
244.426	121
244.643	94.38
244.86	-10.07
245.078	86.19
245.295	-34.64
245.512	4.27
245.729	37.03
245.946	-57.17
246.163	10.41
246.38	-73.56
246.597	88.23
246.814	26.79
247.031	-104.28
247.248	43.18
247.464	32.94
247.681	10.41
247.898	-24.4
248.115	-12.12
248.332	-40.79
248.549	96.43
248.766	121
248.983	161.96
249.2	30.89
249.417	39.08
249.633	-22.36
249.85	88.23
250.067	-5.97
250.284	59.56
250.501	39.08
250.717	32.94
250.934	-128.85
251.151	-8.02
251.368	-36.69
251.585	59.56
251.801	2.22
252.018	-53.08
252.235	39.08
252.451	-71.51
252.668	-40.79
252.885	61.61
253.102	43.18
253.318	0.17
253.535	28.84
253.752	12.46
253.968	92.33
254.185	-106.32
254.401	-28.5
254.618	30.89
254.835	-32.6
255.051	90.28
255.268	-5.97
255.484	32.94
255.701	16.55
255.917	51.37
256.134	-10.07
256.351	22.7
256.567	-48.98
256.784	-22.36
257	-73.56
257.217	32.94
257.433	90.28
257.65	-3.93
257.866	196.78
258.082	-8.02
258.299	-38.74
258.515	10.41
258.732	-75.6
258.948	-81.75
259.165	32.94
259.381	-67.41
259.597	24.75
259.814	67.75
260.03	133.29
260.246	-69.46
260.463	131.24
260.679	137.38
260.895	24.75
261.112	161.96
261.328	24.75
261.544	-42.84
261.761	161.96
261.977	26.79
262.193	-59.22
262.409	34.99
262.626	-10.07
262.842	37.03
263.058	-20.31
263.274	77.99
263.49	75.95
263.707	32.94
263.923	92.33
264.139	-65.36
264.355	129.19
264.571	63.66
264.787	-5.97
265.004	133.29
265.22	-28.5
265.436	-57.17
265.652	49.32
265.868	98.47
266.084	-57.17
266.3	37.03
266.516	-65.36
266.732	34.99
266.948	41.13
267.164	-63.32
267.38	30.89
267.596	10.41
267.812	118.95
268.028	98.47
268.244	-28.5
268.46	-8.02
268.676	49.32
268.892	39.08
269.108	-8.02
269.324	-20.31
269.54	-34.64
269.756	129.19
269.972	-38.74
270.188	4.27
270.403	-116.56
270.619	-8.02
270.835	55.47
271.051	47.27
271.267	-51.03
271.483	-34.64
271.698	41.13
271.914	28.84
272.13	-1.88
272.346	2.22
272.562	-16.21
272.777	53.42
272.993	-81.75
273.209	-16.21
273.425	53.42
273.64	-75.6
273.856	59.56
274.072	-48.98
274.287	-122.71
274.503	45.23
274.719	47.27
274.934	26.79
275.15	-130.9
275.366	26.79
275.581	-55.12
275.797	84.14
276.012	-3.93
276.228	51.37
276.444	-5.97
276.659	129.19
276.875	-44.88
277.09	45.23
277.306	-51.03
277.521	43.18
277.737	-3.93
277.952	26.79
278.168	24.75
278.383	80.04
278.599	86.19
278.814	118.95
279.03	-1.88
279.245	108.71
279.461	-51.03
279.676	100.52
279.892	-40.79
280.107	-108.37
280.322	-14.17
280.538	28.84
280.753	55.47
280.969	6.31
281.184	28.84
281.399	61.61
281.615	41.13
281.83	47.27
282.045	-57.17
282.26	-55.12
282.476	26.79
282.691	-26.45
282.906	63.66
283.122	-26.45
283.337	8.36
283.552	53.42
283.767	39.08
283.983	108.71
284.198	-46.93
284.413	28.84
284.628	-63.32
284.843	18.6
285.058	47.27
285.274	8.36
285.489	-57.17
285.704	32.94
285.919	-59.22
286.134	-94.04
286.349	77.99
286.564	-18.26
286.779	71.85
286.995	4.27
287.21	-212.82
287.425	24.75
287.64	-53.08
287.855	0.17
288.07	-26.45
288.285	69.8
288.5	98.47
288.715	-3.93
288.93	-75.6
289.145	-61.27
289.36	55.47
289.575	-8.02
289.79	141.48
290.004	-40.79
290.219	129.19
290.434	-59.22
290.649	39.08
290.864	-5.97
291.079	-55.12
291.294	69.8
291.509	28.84
291.724	84.14
291.938	12.46
292.153	-1.88
292.368	-65.36
292.583	-14.17
292.798	53.42
293.012	63.66
293.227	26.79
293.442	8.36
293.657	65.71
293.871	20.65
294.086	69.8
294.301	161.96
294.516	108.71
294.73	-8.02
294.945	-42.84
295.16	57.51
295.374	92.33
295.589	139.43
295.804	41.13
296.018	-10.07
296.233	121
296.447	45.23
296.662	-16.21
296.877	69.8
297.091	92.33
297.306	73.9
297.52	-46.93
297.735	53.42
297.949	-1.88
298.164	37.03
298.378	24.75
298.593	-40.79
298.807	-8.02
299.022	55.47
299.236	174.25
299.451	6.31
299.665	-81.75
299.88	47.27
300.094	73.9
300.309	-55.12
300.523	4.27
300.737	26.79
300.952	75.95
301.166	94.38
301.381	-38.74
301.595	-34.64
301.809	-30.55
302.024	-59.22
302.238	-42.84
302.452	106.67
302.667	10.41
302.881	114.86
303.095	82.09
303.309	98.47
303.524	-18.26
303.738	-22.36
303.952	-46.93
304.166	86.19
304.381	-120.66
304.595	69.8
304.809	-36.69
305.023	8.36
305.237	-5.97
305.452	4.27
305.666	94.38
305.88	67.75
306.094	104.62
306.308	-20.31
306.522	43.18
306.736	61.61
306.95	20.65
307.164	-14.17
307.379	-79.7
307.593	57.51
307.807	73.9
308.021	73.9
308.235	34.99
308.449	-171.86
308.663	37.03
308.877	192.68
309.091	-5.97
309.305	37.03
309.519	-104.28
309.733	49.32
309.947	8.36
310.161	2.22
310.374	75.95
310.588	86.19
310.802	-10.07
311.016	26.79
311.23	-12.12
311.444	-28.5
311.658	57.51
311.872	112.81
312.085	133.29
312.299	139.43
312.513	125.1
312.727	45.23
312.941	-34.64
313.154	49.32
313.368	2.22
313.582	34.99
313.796	57.51
314.009	22.7
314.223	168.1
314.437	80.04
314.651	28.84
314.864	28.84
315.078	-36.69
315.292	-106.32
315.505	-5.97
315.719	-14.17
315.933	-38.74
316.146	-1.88
316.36	-77.65
316.573	108.71
316.787	24.75
317.001	174.25
317.214	-67.41
317.428	-12.12
317.641	-5.97
317.855	-16.21
318.068	82.09
318.282	-10.07
318.495	118.95
318.709	51.37
318.922	-8.02
319.136	110.76
319.349	10.41
319.563	-40.79
319.776	116.9
319.99	-106.32
320.203	24.75
320.417	116.9
320.63	141.48
320.843	155.82
321.057	32.94
321.27	6.31
321.483	22.7
321.697	88.23
321.91	8.36
322.124	55.47
322.337	-42.84
322.55	-32.6
322.763	108.71
322.977	4.27
323.19	-63.32
323.403	-30.55
323.617	24.75
323.83	112.81
324.043	88.23
324.256	43.18
324.469	-69.46
324.683	98.47
324.896	26.79
325.109	2.22
325.322	-79.7
325.535	39.08
325.748	116.9
325.962	-67.41
326.175	26.79
326.388	37.03
326.601	10.41
326.814	-40.79
327.027	61.61
327.24	112.81
327.453	-57.17
327.666	73.9
327.879	161.96
328.092	75.95
328.305	10.41
328.518	28.84
328.731	12.46
328.944	16.55
329.157	22.7
329.37	22.7
329.583	143.53
329.796	121
330.009	-71.51
330.222	84.14
330.435	100.52
330.648	65.71
330.861	86.19
331.073	6.31
331.286	14.51
331.499	6.31
331.712	-42.84
331.925	53.42
332.138	-1.88
332.35	47.27
332.563	-57.17
332.776	16.55
332.989	-12.12
333.202	28.84
333.414	57.51
333.627	0.17
333.84	-5.97
334.053	24.75
334.265	-18.26
334.478	-67.41
334.691	20.65
334.903	28.84
335.116	-28.5
335.329	0.17
335.541	116.9
335.754	137.38
335.966	-3.93
336.179	20.65
336.392	6.31
336.604	-18.26
336.817	84.14
337.029	69.8
337.242	10.41
337.454	2.22
337.667	4.27
337.88	114.86
338.092	57.51
338.305	65.71
338.517	-3.93
338.729	129.19
338.942	198.82
339.154	-100.18
339.367	-28.5
339.579	108.71
339.792	-10.07
340.004	28.84
340.217	-20.31
340.429	18.6
340.641	-24.4
340.854	-42.84
341.066	-28.5
341.278	45.23
341.491	131.24
341.703	51.37
341.915	18.6
342.128	116.9
342.34	61.61
342.552	10.41
342.764	34.99
342.977	20.65
343.189	131.24
343.401	34.99
343.613	-53.08
343.826	20.65
344.038	-46.93
344.25	67.75
344.462	-77.65
344.674	37.03
344.886	-38.74
345.099	49.32
345.311	41.13
345.523	34.99
345.735	-122.71
345.947	-1.88
346.159	-10.07
346.371	-3.93
346.583	-38.74
346.795	131.24
347.007	-32.6
347.219	-3.93
347.431	-36.69
347.643	166.06
347.855	-20.31
348.067	172.2
348.279	-100.18
348.491	-18.26
348.703	145.58
348.915	-40.79
349.127	-63.32
349.339	123.05
349.551	41.13
349.763	73.9
349.975	-26.45
350.187	57.51
350.399	116.9
350.61	24.75
350.822	-69.46
351.034	71.85
351.246	-5.97
351.458	98.47
351.669	88.23
351.881	71.85
352.093	129.19
352.305	100.52
352.517	98.47
352.728	82.09
352.94	49.32
353.152	53.42
353.363	-5.97
353.575	14.51
353.787	174.25
353.999	69.8
354.21	84.14
354.422	-71.51
354.633	73.9
354.845	39.08
355.057	127.14
355.268	49.32
355.48	102.57
355.692	-106.32
355.903	-5.97
356.115	-40.79
356.326	-85.84
356.538	96.43
356.749	102.57
356.961	110.76
357.172	-81.75
357.384	-30.55
357.595	266.41
357.807	-42.84
358.018	-1.88
358.23	4.27
358.441	39.08
358.653	34.99
358.864	-22.36
359.075	-59.22
359.287	18.6
359.498	75.95
359.709	47.27
359.921	-1.88
360.132	41.13
360.344	45.23
360.555	-3.93
360.766	37.03
360.977	34.99
361.189	213.16
361.4	-24.4
361.611	84.14
361.823	57.51
362.034	45.23
362.245	-26.45
362.456	-32.6
362.667	145.58
362.879	-51.03
363.09	63.66
363.301	41.13
363.512	75.95
363.723	-12.12
363.935	8.36
364.146	51.37
364.357	24.75
364.568	-16.21
364.779	-96.08
364.99	143.53
365.201	-10.07
365.412	82.09
365.623	-124.76
365.834	69.8
366.045	104.62
366.256	55.47
366.467	18.6
366.678	37.03
366.889	-46.93
367.1	-51.03
367.311	71.85
367.522	-55.12
367.733	77.99
367.944	82.09
368.155	-38.74
368.366	84.14
368.577	125.1
368.788	94.38
368.999	4.27
369.209	18.6
369.42	186.54
369.631	155.82
369.842	51.37
370.053	12.46
370.264	118.95
370.474	-10.07
370.685	-8.02
370.896	61.61
371.107	71.85
371.317	49.32
371.528	84.14
371.739	106.67
371.95	30.89
372.16	80.04
372.371	-59.22
372.582	14.51
372.792	51.37
373.003	69.8
373.214	4.27
373.424	63.66
373.635	-22.36
373.846	104.62
374.056	6.31
374.267	51.37
374.477	43.18
374.688	-24.4
374.898	28.84
375.109	-16.21
375.319	12.46
375.53	172.2
375.74	82.09
375.951	30.89
376.161	-40.79
376.372	67.75
376.582	24.75
376.793	67.75
377.003	16.55
377.214	4.27
377.424	77.99
377.635	45.23
377.845	-73.56
378.055	10.41
378.266	-1.88
378.476	77.99
378.686	24.75
378.897	-10.07
379.107	129.19
379.317	80.04
379.528	-63.32
379.738	92.33
379.948	-32.6
380.158	114.86
380.369	51.37
380.579	59.56
380.789	-34.64
380.999	-85.84
381.21	96.43
381.42	159.91
381.63	16.55
381.84	147.62
382.05	6.31
382.261	110.76
382.471	166.06
382.681	-73.56
382.891	139.43
383.101	8.36
383.311	-46.93
383.521	-44.88
383.731	39.08
383.941	32.94
384.151	37.03
384.361	-18.26
384.571	59.56
384.781	51.37
384.991	194.73
385.201	209.06
385.411	102.57
385.621	41.13
385.831	63.66
386.041	112.81
386.251	-34.64
386.461	73.9
386.671	63.66
386.881	41.13
387.091	39.08
387.301	80.04
387.511	57.51
387.72	45.23
387.93	92.33
388.14	-91.99
388.35	-10.07
388.56	90.28
388.769	67.75
388.979	32.94
389.189	-91.99
389.399	51.37
389.609	121
389.818	30.89
390.028	-3.93
390.238	92.33
390.447	-42.84
390.657	77.99
390.867	-14.17
391.076	-53.08
391.286	-8.02
391.496	-55.12
391.705	-1.88
391.915	90.28
392.125	96.43
392.334	12.46
392.544	147.62
392.753	45.23
392.963	-40.79
393.172	-1.88
393.382	-16.21
393.591	176.3
393.801	0.17
394.01	176.3
394.22	51.37
394.429	-3.93
394.639	-30.55
394.848	80.04
395.058	37.03
395.267	-34.64
395.477	151.72
395.686	30.89
395.895	188.58
396.105	211.11
396.314	20.65
396.524	41.13
396.733	-8.02
396.942	49.32
397.152	24.75
397.361	168.1
397.57	-3.93
397.78	-8.02
397.989	92.33
398.198	202.92
398.407	20.65
398.617	73.9
398.826	65.71
399.035	6.31
399.244	180.39
399.453	61.61
399.663	41.13
399.872	12.46
400.081	-14.17
400.29	82.09
400.499	32.94
400.708	94.38
400.917	32.94
401.127	39.08
401.336	45.23
401.545	176.3
401.754	121
401.963	18.6
402.172	-8.02
402.381	6.31
402.59	-10.07
402.799	-30.55
403.008	104.62
403.217	12.46
403.426	86.19
403.635	-87.89
403.844	84.14
404.053	34.99
404.262	59.56
404.471	182.44
404.68	39.08
404.888	-57.17
405.097	10.41
405.306	37.03
405.515	112.81
405.724	-51.03
405.933	127.14
406.142	112.81
406.35	86.19
406.559	12.46
406.768	45.23
406.977	151.72
407.185	34.99
407.394	135.34
407.603	-12.12
407.812	63.66
408.02	137.38
408.229	-69.46
408.438	88.23
408.646	-114.52
408.855	98.47
409.064	-5.97
409.272	53.42
409.481	96.43
409.69	-24.4
409.898	-38.74
410.107	84.14
410.315	141.48
410.524	16.55
410.733	49.32
410.941	-3.93
411.15	61.61
411.358	104.62
411.567	84.14
411.775	-48.98
411.984	82.09
412.192	45.23
412.401	26.79
412.609	127.14
412.818	118.95
413.026	86.19
413.234	92.33
413.443	49.32
413.651	-20.31
413.86	34.99
414.068	141.48
414.276	164.01
414.485	-1.88
414.693	92.33
414.901	151.72
415.11	59.56
415.318	45.23
415.526	-1.88
415.734	63.66
415.943	26.79
416.151	147.62
416.359	26.79
416.567	47.27
416.776	137.38
416.984	159.91
417.192	143.53
417.4	14.51
417.608	-24.4
417.817	-44.88
418.025	106.67
418.233	196.78
418.441	-26.45
418.649	-30.55
418.857	69.8
419.065	110.76
419.273	59.56
419.481	10.41
419.689	16.55
419.897	20.65
420.105	12.46
420.313	20.65
420.521	143.53
420.729	215.21
420.937	-5.97
421.145	45.23
421.353	116.9
421.561	131.24
421.769	24.75
421.977	-40.79
422.185	49.32
422.393	-10.07
422.601	61.61
422.809	16.55
423.017	96.43
423.224	149.67
423.432	67.75
423.64	24.75
423.848	92.33
424.056	-32.6
424.263	65.71
424.471	14.51
424.679	96.43
424.887	-30.55
425.094	82.09
425.302	53.42
425.51	16.55
425.718	90.28
425.925	100.52
426.133	34.99
426.341	172.2
426.548	100.52
426.756	-1.88
426.964	59.56
427.171	57.51
427.379	63.66
427.586	98.47
427.794	139.43
428.001	84.14
428.209	37.03
428.417	121
428.624	178.34
428.832	2.22
429.039	100.52
429.247	55.47
429.454	155.82
429.662	200.87
429.869	57.51
430.076	164.01
430.284	174.25
430.491	153.77
430.699	176.3
430.906	159.91
431.114	159.91
431.321	168.1
431.528	110.76
431.736	131.24
431.943	176.3
432.15	112.81
432.358	192.68
432.565	260.26
432.772	94.38
432.979	196.78
433.187	112.81
433.394	307.37
433.601	172.2
433.808	233.64
434.016	278.69
434.223	295.08
434.43	239.78
434.637	213.16
434.844	338.09
435.052	270.5
435.259	264.36
435.466	280.74
435.673	331.94
435.88	340.13
436.087	411.81
436.294	344.23
436.501	319.65
436.708	352.42
436.915	338.09
437.122	420
437.329	295.08
437.537	309.41
437.743	422.05
437.95	450.72
438.157	333.99
438.364	381.09
438.571	436.39
438.778	469.16
438.985	495.78
439.192	524.45
439.399	477.35
439.606	569.51
439.813	602.27
440.02	686.24
440.227	747.68
440.433	655.52
440.64	532.64
440.847	589.99
441.054	690.34
441.261	721.06
441.467	737.44
441.674	700.58
441.881	936.09
442.088	729.25
442.294	864.41
442.501	950.43
442.708	903.32
442.914	927.9
443.121	954.52
443.328	987.29
443.534	1067.16
443.741	1144.99
443.948	979.1
444.154	1181.85
444.361	1300.63
444.568	1237.14
444.774	1132.7
444.981	1181.85
445.187	1427.6
445.394	1333.4
445.6	1437.84
445.807	1538.2
446.013	1511.57
446.22	1466.52
446.426	1667.22
446.633	1888.4
446.839	1972.36
447.046	1673.36
447.252	1906.83
447.459	1853.58
447.665	1863.82
447.871	2171.02
448.078	2267.27
448.284	2222.22
448.491	2396.29
448.697	2535.56
448.903	2590.85
449.11	2582.66
449.316	2670.72
449.522	2777.22
449.728	3020.92
449.935	3117.18
450.141	3035.26
450.347	3453.05
450.553	3313.78
450.76	3405.94
450.966	3629.17
451.172	3606.64
451.378	3764.34
451.584	3887.22
451.791	4190.31
451.997	4368.49
452.203	4415.59
452.409	4636.77
452.615	4647.01
452.821	4612.2
453.027	4708.45
453.233	5216.35
453.44	5163.1
453.646	5304.41
453.852	5638.23
454.058	5869.65
454.264	6021.2
454.47	6557.77
454.676	6563.91
454.882	7145.53
455.088	6676.55
455.294	6977.6
455.5	7579.7
455.705	8028.21
455.911	7921.71
456.117	8243.24
456.323	8540.2
456.529	8587.3
456.735	9322.52
456.941	9439.26
457.147	9885.72
457.352	10170.38
457.558	10567.69
457.764	11163.65
457.97	11509.76
458.176	11831.29
458.381	12529.64
458.587	12642.28
458.793	13293.54
458.999	13236.19
459.204	15042.5
459.41	15706.04
459.616	15345.6
459.821	16218.04
460.027	16629.68
460.233	17684.38
460.438	17457.06
460.644	18534.29
460.85	18861.96
461.055	19591.04
461.261	20600.69
461.466	20223.86
461.672	20647.79
461.878	22978.38
462.083	22830.93
462.289	23162.7
462.494	24141.63
462.7	24225.59
462.905	24543.03
463.111	26509.08
463.316	27713.28
463.522	28313.34
463.727	29423.34
463.932	30469.85
464.138	30846.68
464.343	32507.58
464.549	32800.44
464.754	35528.33
464.959	35870.34
465.165	36619.9
465.37	36261.51
465.575	36669.05
465.781	38551.13
465.986	39966.28
466.191	39302.74
466.397	39833.16
466.602	38858.33
466.807	41180.73
467.012	41948.71
467.218	42206.76
467.423	42077.74
467.628	43496.98
467.833	45600.24
468.038	44811.77
468.244	43996.68
