Data from USB4F104151__28__10-24-11-842.txt Node

Date: Wed Feb 26 10:24:11 EST 2025
User: louis
Spectrometer: USB4F10415
Trigger mode: 4
Integration Time (sec): 1.000000E-1
Scans to average: 1
Electric dark correction enabled: true
Nonlinearity correction enabled: false
Boxcar width: 0
XAxis mode: Wavelengths
Number of Pixels in Spectrum: 3648
>>>>>Begin Spectral Data<<<<<
178.204	-416.42
178.424	-416.42
178.644	-416.42
178.864	-420.52
179.084	-436.9
179.304	-0.68
179.524	-49.83
179.744	-4.78
179.964	64.85
180.184	-8.87
180.404	89.43
180.624	-105.13
180.844	42.32
181.064	-25.26
181.283	40.28
181.503	-35.5
181.723	-6.83
181.943	-51.88
182.163	159.06
182.383	3.41
182.602	71
182.822	132.44
183.042	48.47
183.262	-86.7
183.482	5.46
183.701	34.13
183.921	17.75
184.141	-78.51
184.361	25.94
184.58	-45.74
184.8	11.61
185.02	32.08
185.239	138.58
185.459	-19.11
185.679	62.8
185.898	-133.8
186.118	-2.73
186.338	89.43
186.557	79.19
186.777	-146.09
186.997	-29.35
187.216	38.23
187.436	218.45
187.655	62.8
187.875	34.13
188.095	-0.68
188.314	36.18
188.534	118.1
188.753	-55.98
188.973	68.95
189.192	-12.97
189.412	-72.36
189.631	-0.68
189.851	101.72
190.07	152.91
190.29	-113.32
190.509	19.8
190.729	-25.26
190.948	97.62
191.168	183.63
191.387	83.28
191.607	38.23
191.826	36.18
192.045	56.66
192.265	17.75
192.484	66.9
192.704	44.37
192.923	-31.4
193.142	208.21
193.362	169.3
193.581	167.25
193.8	34.13
194.02	93.52
194.239	27.99
194.458	99.67
194.678	-64.17
194.897	9.56
195.116	64.85
195.335	27.99
195.555	-45.74
195.774	-72.36
195.993	81.24
196.212	7.51
196.432	42.32
196.651	-0.68
196.87	-29.35
197.089	226.64
197.308	19.8
197.528	50.52
197.747	-51.88
197.966	62.8
198.185	66.9
198.404	-15.02
198.623	62.8
198.842	107.86
199.062	54.61
199.281	118.1
199.5	46.42
199.719	97.62
199.938	75.09
200.157	42.32
200.376	60.76
200.595	114
200.814	44.37
201.033	-6.83
201.252	122.2
201.471	83.28
201.69	27.99
201.909	77.14
202.128	93.52
202.347	77.14
202.566	38.23
202.785	-58.03
203.004	-27.31
203.223	202.07
203.442	25.94
203.661	-62.12
203.879	54.61
204.098	17.75
204.317	-27.31
204.536	97.62
204.755	25.94
204.974	58.71
205.193	-27.31
205.411	75.09
205.63	126.29
205.849	64.85
206.068	77.14
206.287	-31.4
206.505	97.62
206.724	48.47
206.943	-129.7
207.162	-2.73
207.381	27.99
207.599	21.85
207.818	34.13
208.037	-82.6
208.255	52.56
208.474	99.67
208.693	60.76
208.911	-10.92
209.13	38.23
209.349	25.94
209.567	30.04
209.786	23.89
210.005	130.39
210.223	-6.83
210.442	-125.61
210.661	50.52
210.879	64.85
211.098	40.28
211.316	40.28
211.535	-39.59
211.753	46.42
211.972	81.24
212.191	-66.22
212.409	21.85
212.628	75.09
212.846	-23.21
213.065	50.52
213.283	144.72
213.502	-19.11
213.72	66.9
213.938	38.23
214.157	5.46
214.375	134.48
214.594	56.66
214.812	85.33
215.031	17.75
215.249	32.08
215.467	-15.02
215.686	54.61
215.904	116.05
216.122	32.08
216.341	128.34
216.559	46.42
216.778	122.2
216.996	195.92
217.214	-33.45
217.432	3.41
217.651	-37.55
217.869	103.76
218.087	-17.07
218.306	-78.51
218.524	40.28
218.742	-39.59
218.96	68.95
219.179	-31.4
219.397	1.37
219.615	183.63
219.833	165.2
220.051	15.7
220.27	32.08
220.488	105.81
220.706	79.19
220.924	-12.97
221.142	-12.97
221.36	44.37
221.578	81.24
221.796	-21.16
222.015	5.46
222.233	81.24
222.451	148.82
222.669	-31.4
222.887	46.42
223.105	-70.31
223.323	9.56
223.541	-0.68
223.759	89.43
223.977	32.08
224.195	114
224.413	52.56
224.631	44.37
224.849	27.99
225.067	234.83
225.285	3.41
225.503	-25.26
225.721	-60.07
225.939	68.95
226.157	-58.03
226.375	204.11
226.592	50.52
226.81	15.7
227.028	165.2
227.246	101.72
227.464	27.99
227.682	64.85
227.9	120.15
228.117	48.47
228.335	23.89
228.553	-29.35
228.771	-37.55
228.989	85.33
229.206	60.76
229.424	-0.68
229.642	-17.07
229.86	-55.98
230.077	103.76
230.295	1.37
230.513	118.1
230.731	52.56
230.948	107.86
231.166	148.82
231.384	-31.4
231.601	-17.07
231.819	154.96
232.037	-19.11
232.254	-76.46
232.472	-21.16
232.689	1.37
232.907	68.95
233.125	17.75
233.342	-45.74
233.56	-2.73
233.777	-45.74
233.995	1.37
234.213	56.66
234.43	13.65
234.648	46.42
234.865	68.95
235.083	-35.5
235.3	60.76
235.518	97.62
235.735	44.37
235.953	77.14
236.17	-0.68
236.388	118.1
236.605	-51.88
236.822	111.96
237.04	99.67
237.257	5.46
237.475	-41.64
237.692	-19.11
237.909	97.62
238.127	-64.17
238.344	99.67
238.562	-17.07
238.779	-19.11
238.996	-39.59
239.214	124.24
239.431	111.96
239.648	-45.74
239.865	42.32
240.083	44.37
240.3	-60.07
240.517	-92.84
240.735	21.85
240.952	107.86
241.169	27.99
241.386	42.32
241.603	-2.73
241.821	-15.02
242.038	48.47
242.255	79.19
242.472	-37.55
242.689	99.67
242.907	93.52
243.124	52.56
243.341	-21.16
243.558	-78.51
243.775	13.65
243.992	-31.4
244.209	11.61
244.426	243.03
244.643	77.14
244.86	9.56
245.078	36.18
245.295	5.46
245.512	46.42
245.729	52.56
245.946	97.62
246.163	36.18
246.38	-6.83
246.597	25.94
246.814	25.94
247.031	56.66
247.248	38.23
247.464	23.89
247.681	105.81
247.898	46.42
248.115	83.28
248.332	-12.97
248.549	144.72
248.766	150.87
248.983	50.52
249.2	75.09
249.417	91.48
249.633	23.89
249.85	46.42
250.067	68.95
250.284	25.94
250.501	109.91
250.717	-0.68
250.934	-62.12
251.151	136.53
251.368	-31.4
251.585	21.85
251.801	34.13
252.018	-62.12
252.235	116.05
252.451	-39.59
252.668	40.28
252.885	128.34
253.102	132.44
253.318	17.75
253.535	-23.21
253.752	-49.83
253.968	19.8
254.185	-49.83
254.401	7.51
254.618	122.2
254.835	68.95
255.051	132.44
255.268	140.63
255.484	81.24
255.701	-51.88
255.917	38.23
256.134	-25.26
256.351	-19.11
256.567	-109.22
256.784	-19.11
257	-68.27
257.217	103.76
257.433	13.65
257.65	9.56
257.866	118.1
258.082	-78.51
258.299	27.99
258.515	17.75
258.732	-60.07
258.948	-58.03
259.165	58.71
259.381	-45.74
259.597	42.32
259.814	-55.98
260.03	58.71
260.246	-10.92
260.463	189.78
260.679	60.76
260.895	81.24
261.112	32.08
261.328	30.04
261.544	-60.07
261.761	136.53
261.977	-82.6
262.193	-49.83
262.409	126.29
262.626	40.28
262.842	93.52
263.058	-29.35
263.274	42.32
263.49	38.23
263.707	126.29
263.923	118.1
264.139	-55.98
264.355	15.7
264.571	101.72
264.787	36.18
265.004	107.86
265.22	-25.26
265.436	-21.16
265.652	81.24
265.868	32.08
266.084	-37.55
266.3	21.85
266.516	15.7
266.732	50.52
266.948	7.51
267.164	1.37
267.38	105.81
267.596	144.72
267.812	169.3
268.028	38.23
268.244	-62.12
268.46	-74.41
268.676	-15.02
268.892	66.9
269.108	-62.12
269.324	-47.79
269.54	-78.51
269.756	75.09
269.972	-2.73
270.188	-17.07
270.403	-21.16
270.619	-25.26
270.835	93.52
271.051	13.65
271.267	-49.83
271.483	9.56
271.698	103.76
271.914	73.04
272.13	21.85
272.346	60.76
272.562	9.56
272.777	148.82
272.993	-23.21
273.209	-55.98
273.425	-15.02
273.64	-53.93
273.856	9.56
274.072	-29.35
274.287	-19.11
274.503	79.19
274.719	68.95
274.934	-43.69
275.15	-45.74
275.366	62.8
275.581	-43.69
275.797	1.37
276.012	48.47
276.228	1.37
276.444	23.89
276.659	75.09
276.875	-23.21
277.09	25.94
277.306	-29.35
277.521	42.32
277.737	11.61
277.952	48.47
278.168	81.24
278.383	71
278.599	30.04
278.814	128.34
279.03	-23.21
279.245	122.2
279.461	25.94
279.676	91.48
279.892	-103.08
280.107	-94.89
280.322	-55.98
280.538	75.09
280.753	32.08
280.969	23.89
281.184	11.61
281.399	99.67
281.615	81.24
281.83	-15.02
282.045	-12.97
282.26	-39.59
282.476	1.37
282.691	116.05
282.906	144.72
283.122	-6.83
283.337	-6.83
283.552	-29.35
283.767	-12.97
283.983	99.67
284.198	60.76
284.413	-19.11
284.628	-78.51
284.843	71
285.058	9.56
285.274	-43.69
285.489	-90.79
285.704	163.15
285.919	-60.07
286.134	-35.5
286.349	81.24
286.564	46.42
286.779	111.96
286.995	-2.73
287.21	-80.55
287.425	48.47
287.64	40.28
287.855	-41.64
288.07	-45.74
288.285	116.05
288.5	71
288.715	73.04
288.93	44.37
289.145	-2.73
289.36	62.8
289.575	23.89
289.79	99.67
290.004	-10.92
290.219	58.71
290.434	7.51
290.649	-121.51
290.864	17.75
291.079	-62.12
291.294	19.8
291.509	-51.88
291.724	-58.03
291.938	-29.35
292.153	95.57
292.368	-41.64
292.583	79.19
292.798	48.47
293.012	36.18
293.227	40.28
293.442	11.61
293.657	95.57
293.871	83.28
294.086	73.04
294.301	238.93
294.516	169.3
294.73	-19.11
294.945	-35.5
295.16	34.13
295.374	144.72
295.589	101.72
295.804	-62.12
296.018	15.7
296.233	105.81
296.447	-35.5
296.662	1.37
296.877	85.33
297.091	71
297.306	77.14
297.52	-19.11
297.735	-10.92
297.949	66.9
298.164	56.66
298.378	52.56
298.593	15.7
298.807	-8.87
299.022	44.37
299.236	44.37
299.451	-8.87
299.665	34.13
299.88	25.94
300.094	23.89
300.309	3.41
300.523	75.09
300.737	1.37
300.952	32.08
301.166	48.47
301.381	-4.78
301.595	56.66
301.809	11.61
302.024	46.42
302.238	11.61
302.452	60.76
302.667	36.18
302.881	161.11
303.095	116.05
303.309	-39.59
303.524	-53.93
303.738	-21.16
303.952	-6.83
304.166	40.28
304.381	-94.89
304.595	109.91
304.809	-4.78
305.023	95.57
305.237	-72.36
305.452	52.56
305.666	91.48
305.88	40.28
306.094	163.15
306.308	79.19
306.522	34.13
306.736	-4.78
306.95	23.89
307.164	23.89
307.379	73.04
307.593	140.63
307.807	161.11
308.021	36.18
308.235	68.95
308.449	-117.42
308.663	68.95
308.877	169.3
309.091	1.37
309.305	62.8
309.519	-31.4
309.733	85.33
309.947	-105.13
310.161	95.57
310.374	71
310.588	73.04
310.802	34.13
311.016	54.61
311.23	79.19
311.444	-19.11
311.658	54.61
311.872	75.09
312.085	30.04
312.299	142.68
312.513	204.11
312.727	-6.83
312.941	-68.27
313.154	111.96
313.368	56.66
313.582	64.85
313.796	89.43
314.009	-49.83
314.223	66.9
314.437	1.37
314.651	146.77
314.864	-53.93
315.078	-12.97
315.292	-39.59
315.505	34.13
315.719	11.61
315.933	81.24
316.146	25.94
316.36	-90.79
316.573	142.68
316.787	107.86
317.001	107.86
317.214	-66.22
317.428	40.28
317.641	-10.92
317.855	58.71
318.068	40.28
318.282	60.76
318.495	148.82
318.709	81.24
318.922	-27.31
319.136	120.15
319.349	128.34
319.563	-6.83
319.776	25.94
319.99	-53.93
320.203	52.56
320.417	17.75
320.63	58.71
320.843	220.5
321.057	56.66
321.27	-37.55
321.483	58.71
321.697	202.07
321.91	30.04
322.124	17.75
322.337	107.86
322.55	5.46
322.763	48.47
322.977	5.46
323.19	1.37
323.403	-17.07
323.617	87.38
323.83	142.68
324.043	5.46
324.256	1.37
324.469	-37.55
324.683	44.37
324.896	157.01
325.109	21.85
325.322	19.8
325.535	79.19
325.748	64.85
325.962	-25.26
326.175	42.32
326.388	116.05
326.601	120.15
326.814	-0.68
327.027	17.75
327.24	173.39
327.453	-86.7
327.666	81.24
327.879	75.09
328.092	66.9
328.305	40.28
328.518	9.56
328.731	-78.51
328.944	97.62
329.157	54.61
329.37	7.51
329.583	204.11
329.796	218.45
330.009	-82.6
330.222	87.38
330.435	66.9
330.648	46.42
330.861	44.37
331.073	27.99
331.286	64.85
331.499	60.76
331.712	-51.88
331.925	5.46
332.138	19.8
332.35	109.91
332.563	-2.73
332.776	81.24
332.989	-35.5
333.202	5.46
333.414	60.76
333.627	25.94
333.84	25.94
334.053	87.38
334.265	52.56
334.478	-6.83
334.691	25.94
334.903	87.38
335.116	9.56
335.329	5.46
335.541	36.18
335.754	109.91
335.966	-41.64
336.179	17.75
336.392	17.75
336.604	30.04
336.817	122.2
337.029	58.71
337.242	-10.92
337.454	25.94
337.667	-80.55
337.88	138.58
338.092	75.09
338.305	114
338.517	-29.35
338.729	66.9
338.942	163.15
339.154	11.61
339.367	-105.13
339.579	50.52
339.792	-55.98
340.004	66.9
340.217	32.08
340.429	23.89
340.641	-4.78
340.854	-8.87
341.066	36.18
341.278	73.04
341.491	165.2
341.703	66.9
341.915	-4.78
342.128	122.2
342.34	5.46
342.552	-39.59
342.764	122.2
342.977	17.75
343.189	-33.45
343.401	81.24
343.613	-105.13
343.826	-6.83
344.038	25.94
344.25	-12.97
344.462	-55.98
344.674	21.85
344.886	7.51
345.099	134.48
345.311	30.04
345.523	-27.31
345.735	-72.36
345.947	30.04
346.159	9.56
346.371	48.47
346.583	-41.64
346.795	103.76
347.007	-23.21
347.219	19.8
347.431	7.51
347.643	87.38
347.855	-47.79
348.067	101.72
348.279	-60.07
348.491	42.32
348.703	34.13
348.915	19.8
349.127	-10.92
349.339	3.41
349.551	-101.03
349.763	103.76
349.975	32.08
350.187	144.72
350.399	56.66
350.61	118.1
350.822	-51.88
351.034	13.65
351.246	93.52
351.458	56.66
351.669	77.14
351.881	60.76
352.093	116.05
352.305	95.57
352.517	66.9
352.728	138.58
352.94	54.61
353.152	120.15
353.363	-43.69
353.575	25.94
353.787	134.48
353.999	81.24
354.21	140.63
354.422	-10.92
354.633	44.37
354.845	34.13
355.057	-33.45
355.268	7.51
355.48	114
355.692	-6.83
355.903	101.72
356.115	-29.35
356.326	-82.6
356.538	171.35
356.749	50.52
356.961	157.01
357.172	54.61
357.384	-19.11
357.595	177.49
357.807	-25.26
358.018	-60.07
358.23	1.37
358.441	171.35
358.653	66.9
358.864	-31.4
359.075	38.23
359.287	17.75
359.498	62.8
359.709	107.86
359.921	-25.26
360.132	58.71
360.344	-23.21
360.555	-2.73
360.766	5.46
360.977	25.94
361.189	163.15
361.4	-62.12
361.611	105.81
361.823	97.62
362.034	73.04
362.245	-58.03
362.456	52.56
362.667	71
362.879	-74.41
363.09	7.51
363.301	21.85
363.512	40.28
363.723	-4.78
363.935	-6.83
364.146	91.48
364.357	23.89
364.568	-23.21
364.779	-101.03
364.99	87.38
365.201	-23.21
365.412	68.95
365.623	-101.03
365.834	71
366.045	71
366.256	48.47
366.467	111.96
366.678	116.05
366.889	7.51
367.1	-53.93
367.311	32.08
367.522	-29.35
367.733	58.71
367.944	-25.26
368.155	-0.68
368.366	66.9
368.577	-15.02
368.788	118.1
368.999	-80.55
369.209	52.56
369.42	236.88
369.631	154.96
369.842	97.62
370.053	-27.31
370.264	87.38
370.474	-15.02
370.685	120.15
370.896	25.94
371.107	120.15
371.317	87.38
371.528	-17.07
371.739	132.44
371.95	52.56
372.16	25.94
372.371	-58.03
372.582	32.08
372.792	87.38
373.003	109.91
373.214	30.04
373.424	50.52
373.635	1.37
373.846	105.81
374.056	17.75
374.267	48.47
374.477	17.75
374.688	-74.41
374.898	68.95
375.109	-25.26
375.319	81.24
375.53	124.24
375.74	73.04
375.951	23.89
376.161	7.51
376.372	122.2
376.582	-35.5
376.793	38.23
377.003	-0.68
377.214	32.08
377.424	95.57
377.635	23.89
377.845	-8.87
378.055	154.96
378.266	13.65
378.476	-8.87
378.686	25.94
378.897	50.52
379.107	85.33
379.317	60.76
379.528	-35.5
379.738	142.68
379.948	-62.12
380.158	152.91
380.369	60.76
380.579	44.37
380.789	-6.83
380.999	27.99
381.21	105.81
381.42	128.34
381.63	-43.69
381.84	64.85
382.05	3.41
382.261	73.04
382.471	95.57
382.681	-43.69
382.891	103.76
383.101	1.37
383.311	-64.17
383.521	-51.88
383.731	79.19
383.941	132.44
384.151	9.56
384.361	-6.83
384.571	32.08
384.781	77.14
384.991	214.35
385.201	111.96
385.411	146.77
385.621	48.47
385.831	-23.21
386.041	-15.02
386.251	11.61
386.461	111.96
386.671	-35.5
386.881	36.18
387.091	38.23
387.301	97.62
387.511	40.28
387.72	81.24
387.93	60.76
388.14	-80.55
388.35	144.72
388.56	52.56
388.769	21.85
388.979	97.62
389.189	52.56
389.399	-23.21
389.609	77.14
389.818	38.23
390.028	15.7
390.238	81.24
390.447	-33.45
390.657	54.61
390.867	-27.31
391.076	-60.07
391.286	11.61
391.496	36.18
391.705	46.42
391.915	105.81
392.125	13.65
392.334	50.52
392.544	122.2
392.753	60.76
392.963	-72.36
393.172	21.85
393.382	54.61
393.591	200.02
393.801	-64.17
394.01	171.35
394.22	34.13
394.429	-35.5
394.639	30.04
394.848	23.89
395.058	68.95
395.267	-21.16
395.477	73.04
395.686	71
395.895	189.78
396.105	236.88
396.314	40.28
396.524	46.42
396.733	-8.87
396.942	83.28
397.152	40.28
397.361	101.72
397.57	5.46
397.78	73.04
397.989	17.75
398.198	206.16
398.407	79.19
398.617	-21.16
398.826	62.8
399.035	-17.07
399.244	40.28
399.453	-29.35
399.663	58.71
399.872	-10.92
400.081	5.46
400.29	81.24
400.499	-23.21
400.708	27.99
400.917	-0.68
401.127	44.37
401.336	-0.68
401.545	77.14
401.754	91.48
401.963	85.33
402.172	25.94
402.381	-55.98
402.59	-8.87
402.799	32.08
403.008	81.24
403.217	30.04
403.426	134.48
403.635	-31.4
403.844	34.13
404.053	34.13
404.262	50.52
404.471	99.67
404.68	114
404.888	11.61
405.097	-8.87
405.306	-23.21
405.515	79.19
405.724	3.41
405.933	-31.4
406.142	79.19
406.35	99.67
406.559	-27.31
406.768	19.8
406.977	120.15
407.185	60.76
407.394	85.33
407.603	40.28
407.812	23.89
408.02	40.28
408.229	9.56
408.438	99.67
408.646	-80.55
408.855	54.61
409.064	79.19
409.272	42.32
409.481	140.63
409.69	-6.83
409.898	-23.21
410.107	40.28
410.315	77.14
410.524	34.13
410.733	64.85
410.941	-6.83
411.15	62.8
411.358	159.06
411.567	226.64
411.775	46.42
411.984	77.14
412.192	95.57
412.401	48.47
412.609	200.02
412.818	124.24
413.026	73.04
413.234	9.56
413.443	7.51
413.651	-15.02
413.86	64.85
414.068	161.11
414.276	202.07
414.485	11.61
414.693	136.53
414.901	144.72
415.11	-12.97
415.318	101.72
415.526	73.04
415.734	189.78
415.943	-15.02
416.151	175.44
416.359	21.85
416.567	42.32
416.776	154.96
416.984	103.76
417.192	138.58
417.4	11.61
417.608	1.37
417.817	-60.07
418.025	107.86
418.233	152.91
418.441	30.04
418.649	-27.31
418.857	34.13
419.065	101.72
419.273	46.42
419.481	3.41
419.689	25.94
419.897	-21.16
420.105	-17.07
420.313	152.91
420.521	111.96
420.729	130.39
420.937	-58.03
421.145	15.7
421.353	212.31
421.561	111.96
421.769	75.09
421.977	34.13
422.185	105.81
422.393	-45.74
422.601	107.86
422.809	42.32
423.017	62.8
423.224	107.86
423.432	124.24
423.64	56.66
423.848	124.24
424.056	50.52
424.263	163.15
424.471	81.24
424.679	132.44
424.887	-64.17
425.094	73.04
425.302	48.47
425.51	13.65
425.718	120.15
425.925	27.99
426.133	-2.73
426.341	224.59
426.548	19.8
426.756	54.61
426.964	68.95
427.171	-2.73
427.379	25.94
427.586	27.99
427.794	124.24
428.001	187.73
428.209	48.47
428.417	120.15
428.624	157.01
428.832	159.06
429.039	21.85
429.247	52.56
429.454	75.09
429.662	163.15
429.869	136.53
430.076	60.76
430.284	136.53
430.491	181.59
430.699	68.95
430.906	154.96
431.114	17.75
431.321	38.23
431.528	48.47
431.736	48.47
431.943	177.49
432.15	144.72
432.358	116.05
432.565	273.75
432.772	-35.5
432.979	116.05
433.187	71
433.394	95.57
433.601	73.04
433.808	105.81
434.016	144.72
434.223	128.34
434.43	146.77
434.637	187.73
434.844	243.03
435.052	93.52
435.259	165.2
435.466	181.59
435.673	175.44
435.88	226.64
436.087	283.99
436.294	105.81
436.501	255.31
436.708	195.92
436.915	177.49
437.122	238.93
437.329	210.26
437.537	286.03
437.743	234.83
437.95	353.62
438.157	202.07
438.364	271.7
438.571	204.11
438.778	382.29
438.985	339.28
439.192	365.9
439.399	251.22
439.606	451.92
439.813	361.81
440.02	490.83
440.227	552.27
440.433	515.41
440.64	439.63
440.847	353.62
441.054	419.15
441.261	601.42
441.467	486.73
441.674	445.77
441.881	574.8
442.088	435.53
442.294	546.12
442.501	601.42
442.708	634.19
442.914	554.32
443.121	675.15
443.328	605.52
443.534	752.97
443.741	687.43
443.948	585.04
444.154	828.74
444.361	847.18
444.568	785.74
444.774	789.83
444.981	666.96
445.187	904.52
445.394	830.79
445.6	861.51
445.807	1017.16
446.013	943.43
446.22	875.85
446.426	1072.45
446.633	1056.07
446.839	1236.29
447.046	1115.46
447.252	1277.25
447.459	1181
447.665	1242.43
447.871	1375.55
448.078	1520.96
448.284	1383.74
448.491	1393.98
448.697	1707.32
448.903	1635.64
449.11	1641.79
449.316	1645.88
449.522	1811.77
449.728	1836.35
449.935	2014.52
450.141	2012.47
450.347	2045.24
450.553	1985.85
450.76	2131.25
450.966	2237.75
451.172	2243.89
451.378	2364.72
451.584	2436.4
451.791	2676.01
451.997	2608.43
452.203	2542.89
452.409	2815.27
452.615	2989.35
452.821	2778.41
453.027	2897.19
453.233	3300.64
453.44	3216.68
453.646	3403.04
453.852	3587.36
454.058	3480.86
454.264	3855.64
454.47	3906.84
454.676	4058.39
454.882	4427.03
455.088	4222.23
455.294	4375.83
455.5	4695.31
455.705	4850.96
455.911	5004.55
456.117	5113.1
456.323	5305.6
456.529	5211.4
456.735	5879.04
456.941	5907.71
457.147	6141.18
457.352	6194.42
457.558	6444.27
457.764	6964.46
457.97	6896.88
458.176	7388.39
458.381	7597.28
458.587	7742.69
458.793	8199.38
458.999	8166.62
459.204	9202.89
459.41	9673.92
459.616	9407.69
459.821	10007.74
460.027	10378.42
460.233	10824.88
460.438	10685.62
460.644	11531.43
460.85	11508.9
461.055	11873.44
461.261	12592.28
461.466	12444.82
461.672	12563.61
461.878	13925.5
462.083	13767.81
462.289	14230.65
462.494	14513.27
462.7	15000.69
462.905	14902.39
463.111	16495.71
463.316	16909.4
463.522	17296.46
463.727	17923.14
463.932	18711.61
464.138	19317.81
464.343	19811.37
464.549	20198.43
464.754	21388.3
464.959	22191.11
465.165	22561.79
465.37	22205.44
465.575	22522.88
465.781	23997.42
465.986	24849.37
466.191	24507.36
466.397	24404.96
466.602	23993.32
466.807	25412.56
467.012	25676.75
467.218	26037.19
467.423	26264.52
467.628	26694.59
467.833	28292.01
468.038	27919.28
468.244	27220.92
468.449	28890.01
468.654	28138.41
468.859	28294.05
469.064	28306.34
