Data from USB4F104151__22__10-23-45-345.txt Node

Date: Wed Feb 26 10:23:45 EST 2025
User: louis
Spectrometer: USB4F10415
Trigger mode: 4
Integration Time (sec): 1.000000E-1
Scans to average: 1
Electric dark correction enabled: true
Nonlinearity correction enabled: false
Boxcar width: 0
XAxis mode: Wavelengths
Number of Pixels in Spectrum: 3648
>>>>>Begin Spectral Data<<<<<
178.204	-418.3
178.424	-418.3
178.644	-418.3
178.864	-438.78
179.084	-457.21
179.304	17.92
179.524	-39.42
179.744	38.4
179.964	3.58
180.184	-25.09
180.404	79.36
180.624	9.73
180.844	-41.47
181.064	-70.14
181.283	3.58
181.503	-16.9
181.723	40.45
181.943	-137.73
182.163	169.47
182.383	32.26
182.602	50.69
182.822	144.89
183.042	85.5
183.262	-8.7
183.482	48.64
183.701	-74.24
183.921	-80.38
184.141	-82.43
184.361	19.97
184.58	32.26
184.8	-16.9
185.02	-59.9
185.239	40.45
185.459	24.06
185.679	114.17
185.898	-156.16
186.118	48.64
186.338	7.68
186.557	112.13
186.777	-14.85
186.997	-23.04
187.216	-6.66
187.436	198.14
187.655	48.64
187.875	87.55
188.095	36.35
188.314	75.26
188.534	89.6
188.753	-113.15
188.973	108.03
189.192	196.09
189.412	15.87
189.631	-10.75
189.851	58.88
190.07	62.98
190.29	-37.38
190.509	46.59
190.729	-10.75
190.948	56.83
191.168	278.01
191.387	73.21
191.607	7.68
191.826	30.21
192.045	50.69
192.265	-49.66
192.484	42.5
192.704	-0.51
192.923	-100.86
193.142	216.57
193.362	42.5
193.581	58.88
193.8	56.83
194.02	110.08
194.239	-39.42
194.458	60.93
194.678	36.35
194.897	-66.05
195.116	52.74
195.335	71.17
195.555	67.07
195.774	-31.23
195.993	87.55
196.212	54.78
196.432	50.69
196.651	1.54
196.87	-8.7
197.089	181.76
197.308	58.88
197.528	52.74
197.747	-45.57
197.966	34.3
198.185	128.51
198.404	-57.86
198.623	17.92
198.842	105.98
199.062	95.74
199.281	128.51
199.5	89.6
199.719	108.03
199.938	48.64
200.157	38.4
200.376	91.65
200.595	159.23
200.814	44.54
201.033	24.06
201.252	99.84
201.471	89.6
201.69	69.12
201.909	1.54
202.128	60.93
202.347	108.03
202.566	30.21
202.785	-131.58
203.004	-74.24
203.223	235
203.442	177.66
203.661	22.02
203.879	46.59
204.098	17.92
204.317	24.06
204.536	87.55
204.755	91.65
204.974	71.17
205.193	-84.48
205.411	95.74
205.63	69.12
205.849	120.32
206.068	30.21
206.287	50.69
206.505	163.33
206.724	73.21
206.943	7.68
207.162	48.64
207.381	42.5
207.599	42.5
207.818	69.12
208.037	65.02
208.255	13.82
208.474	34.3
208.693	34.3
208.911	3.58
209.13	38.4
209.349	99.84
209.567	130.56
209.786	112.13
210.005	95.74
210.223	48.64
210.442	-199.16
210.661	75.26
210.879	77.31
211.098	32.26
211.316	50.69
211.535	110.08
211.753	46.59
211.972	-6.66
212.191	-16.9
212.409	60.93
212.628	52.74
212.846	-31.23
213.065	60.93
213.283	95.74
213.502	50.69
213.72	56.83
213.938	54.78
214.157	-25.09
214.375	42.5
214.594	56.83
214.812	75.26
215.031	24.06
215.249	89.6
215.467	-12.8
215.686	17.92
215.904	136.7
216.122	36.35
216.341	132.61
216.559	77.31
216.778	108.03
216.996	85.5
217.214	-55.81
217.432	-68.09
217.651	-37.38
217.869	138.75
218.087	28.16
218.306	-29.18
218.524	15.87
218.742	71.17
218.96	87.55
219.179	-37.38
219.397	81.41
219.615	192
219.833	73.21
220.051	-4.61
220.27	50.69
220.488	83.45
220.706	69.12
220.924	-27.14
221.142	-61.95
221.36	22.02
221.578	42.5
221.796	-35.33
222.015	30.21
222.233	69.12
222.451	230.91
222.669	-78.33
222.887	91.65
223.105	-20.99
223.323	60.93
223.541	-76.29
223.759	73.21
223.977	32.26
224.195	167.42
224.413	50.69
224.631	32.26
224.849	52.74
225.067	183.81
225.285	-16.9
225.503	-12.8
225.721	-102.91
225.939	52.74
226.157	28.16
226.375	185.85
226.592	-80.38
226.81	36.35
227.028	91.65
227.246	101.89
227.464	17.92
227.682	118.27
227.9	-14.85
228.117	110.08
228.335	24.06
228.553	-25.09
228.771	95.74
228.989	81.41
229.206	69.12
229.424	1.54
229.642	-6.66
229.86	22.02
230.077	97.79
230.295	-41.47
230.513	138.75
230.731	32.26
230.948	198.14
231.166	54.78
231.384	-10.75
231.601	44.54
231.819	97.79
232.037	38.4
232.254	-104.96
232.472	52.74
232.689	-61.95
232.907	46.59
233.125	-66.05
233.342	-82.43
233.56	-4.61
233.777	-33.28
233.995	-33.28
234.213	69.12
234.43	56.83
234.648	99.84
234.865	15.87
235.083	40.45
235.3	28.16
235.518	81.41
235.735	130.56
235.953	48.64
236.17	56.83
236.388	56.83
236.605	36.35
236.822	95.74
237.04	73.21
237.257	28.16
237.475	40.45
237.692	62.98
237.909	89.6
238.127	-25.09
238.344	42.5
238.562	58.88
238.779	-43.52
238.996	3.58
239.214	15.87
239.431	114.17
239.648	9.73
239.865	38.4
240.083	13.82
240.3	-29.18
240.517	-33.28
240.735	40.45
240.952	116.22
241.169	95.74
241.386	124.41
241.603	-33.28
241.821	-41.47
242.038	54.78
242.255	130.56
242.472	-18.94
242.689	71.17
242.907	19.97
243.124	1.54
243.341	40.45
243.558	22.02
243.775	15.87
243.992	-70.14
244.209	24.06
244.426	163.33
244.643	77.31
244.86	-27.14
245.078	124.41
245.295	56.83
245.512	-0.51
245.729	13.82
245.946	-4.61
246.163	30.21
246.38	-23.04
246.597	48.64
246.814	-51.71
247.031	77.31
247.248	-57.86
247.464	67.07
247.681	48.64
247.898	73.21
248.115	11.78
248.332	-27.14
248.549	89.6
248.766	148.99
248.983	99.84
249.2	73.21
249.417	99.84
249.633	-4.61
249.85	81.41
250.067	40.45
250.284	5.63
250.501	36.35
250.717	-41.47
250.934	-6.66
251.151	-29.18
251.368	22.02
251.585	93.69
251.801	91.65
252.018	-47.62
252.235	71.17
252.451	-115.2
252.668	-8.7
252.885	56.83
253.102	-2.56
253.318	-43.52
253.535	-2.56
253.752	-16.9
253.968	34.3
254.185	-74.24
254.401	-23.04
254.618	30.21
254.835	3.58
255.051	112.13
255.268	140.8
255.484	69.12
255.701	-10.75
255.917	28.16
256.134	19.97
256.351	19.97
256.567	42.5
256.784	-2.56
257	-125.44
257.217	93.69
257.433	17.92
257.65	15.87
257.866	132.61
258.082	-41.47
258.299	-12.8
258.515	9.73
258.732	-23.04
258.948	56.83
259.165	-25.09
259.381	-66.05
259.597	50.69
259.814	9.73
260.03	-10.75
260.246	44.54
260.463	163.33
260.679	134.65
260.895	60.93
261.112	24.06
261.328	-29.18
261.544	69.12
261.761	204.28
261.977	-29.18
262.193	-8.7
262.409	93.69
262.626	56.83
262.842	50.69
263.058	22.02
263.274	91.65
263.49	42.5
263.707	93.69
263.923	91.65
264.139	-72.19
264.355	7.68
264.571	85.5
264.787	40.45
265.004	103.93
265.22	-8.7
265.436	-16.9
265.652	-51.71
265.868	77.31
266.084	-61.95
266.3	30.21
266.516	-25.09
266.732	56.83
266.948	24.06
267.164	-31.23
267.38	99.84
267.596	48.64
267.812	122.37
268.028	50.69
268.244	-12.8
268.46	91.65
268.676	13.82
268.892	65.02
269.108	44.54
269.324	-33.28
269.54	-59.9
269.756	132.61
269.972	-8.7
270.188	32.26
270.403	15.87
270.619	-8.7
270.835	93.69
271.051	-27.14
271.267	-8.7
271.483	-12.8
271.698	62.98
271.914	65.02
272.13	28.16
272.346	-0.51
272.562	105.98
272.777	85.5
272.993	89.6
273.209	40.45
273.425	62.98
273.64	-29.18
273.856	30.21
274.072	-43.52
274.287	7.68
274.503	124.41
274.719	122.37
274.934	-33.28
275.15	-100.86
275.366	-29.18
275.581	-76.29
275.797	13.82
276.012	71.17
276.228	-68.09
276.444	52.74
276.659	62.98
276.875	-49.66
277.09	-72.19
277.306	-8.7
277.521	89.6
277.737	32.26
277.952	71.17
278.168	19.97
278.383	42.5
278.599	-47.62
278.814	69.12
279.03	-41.47
279.245	169.47
279.461	48.64
279.676	140.8
279.892	-74.24
280.107	-16.9
280.322	-18.94
280.538	65.02
280.753	-86.53
280.969	-33.28
281.184	46.59
281.399	28.16
281.615	-12.8
281.83	73.21
282.045	-51.71
282.26	-23.04
282.476	-16.9
282.691	38.4
282.906	52.74
283.122	22.02
283.337	-70.14
283.552	110.08
283.767	38.4
283.983	118.27
284.198	-47.62
284.413	69.12
284.628	-80.38
284.843	52.74
285.058	81.41
285.274	9.73
285.489	-12.8
285.704	169.47
285.919	-39.42
286.134	7.68
286.349	-23.04
286.564	-66.05
286.779	138.75
286.995	-8.7
287.21	-33.28
287.425	44.54
287.64	40.45
287.855	-10.75
288.07	-127.49
288.285	146.94
288.5	146.94
288.715	-8.7
288.93	-16.9
289.145	-82.43
289.36	128.51
289.575	-70.14
289.79	11.78
290.004	-57.86
290.219	110.08
290.434	7.68
290.649	-25.09
290.864	-25.09
291.079	-47.62
291.294	95.74
291.509	91.65
291.724	5.63
291.938	-41.47
292.153	75.26
292.368	5.63
292.583	48.64
292.798	99.84
293.012	73.21
293.227	60.93
293.442	15.87
293.657	60.93
293.871	151.04
294.086	58.88
294.301	173.57
294.516	34.3
294.73	11.78
294.945	-16.9
295.16	114.17
295.374	151.04
295.589	91.65
295.804	-29.18
296.018	17.92
296.233	161.28
296.447	69.12
296.662	-33.28
296.877	112.13
297.091	52.74
297.306	28.16
297.52	38.4
297.735	81.41
297.949	13.82
298.164	26.11
298.378	36.35
298.593	-29.18
298.807	17.92
299.022	-51.71
299.236	134.65
299.451	93.69
299.665	-70.14
299.88	40.45
300.094	-0.51
300.309	11.78
300.523	48.64
300.737	3.58
300.952	42.5
301.166	36.35
301.381	-23.04
301.595	28.16
301.809	-6.66
302.024	-53.76
302.238	-0.51
302.452	159.23
302.667	-45.57
302.881	120.32
303.095	122.37
303.309	-18.94
303.524	-45.57
303.738	24.06
303.952	1.54
304.166	60.93
304.381	-92.67
304.595	185.85
304.809	-20.99
305.023	58.88
305.237	-80.38
305.452	32.26
305.666	95.74
305.88	67.07
306.094	124.41
306.308	42.5
306.522	65.02
306.736	-10.75
306.95	151.04
307.164	-57.86
307.379	5.63
307.593	130.56
307.807	126.46
308.021	99.84
308.235	71.17
308.449	-2.56
308.663	9.73
308.877	222.72
309.091	15.87
309.305	58.88
309.519	-14.85
309.733	77.31
309.947	-66.05
310.161	32.26
310.374	62.98
310.588	155.13
310.802	58.88
311.016	-2.56
311.23	-33.28
311.444	-51.71
311.658	36.35
311.872	198.14
312.085	136.7
312.299	153.09
312.513	116.22
312.727	-18.94
312.941	-43.52
313.154	26.11
313.368	-39.42
313.582	40.45
313.796	83.45
314.009	1.54
314.223	148.99
314.437	-10.75
314.651	122.37
314.864	-96.77
315.078	-27.14
315.292	-20.99
315.505	28.16
315.719	128.51
315.933	50.69
316.146	-25.09
316.36	11.78
316.573	85.5
316.787	56.83
317.001	46.59
317.214	-45.57
317.428	34.3
317.641	-88.57
317.855	-10.75
318.068	99.84
318.282	60.93
318.495	159.23
318.709	54.78
318.922	-2.56
319.136	95.74
319.349	103.93
319.563	-14.85
319.776	19.97
319.99	-86.53
320.203	30.21
320.417	-4.61
320.63	71.17
320.843	122.37
321.057	19.97
321.27	36.35
321.483	40.45
321.697	97.79
321.91	15.87
322.124	13.82
322.337	-29.18
322.55	-14.85
322.763	-20.99
322.977	-6.66
323.19	13.82
323.403	34.3
323.617	91.65
323.83	183.81
324.043	67.07
324.256	85.5
324.469	-16.9
324.683	5.63
324.896	-4.61
325.109	36.35
325.322	-94.72
325.535	142.85
325.748	50.69
325.962	-8.7
326.175	50.69
326.388	56.83
326.601	124.41
326.814	24.06
327.027	40.45
327.24	144.89
327.453	-27.14
327.666	73.21
327.879	155.13
328.092	95.74
328.305	79.36
328.518	-20.99
328.731	5.63
328.944	-16.9
329.157	60.93
329.37	7.68
329.583	224.76
329.796	60.93
330.009	-29.18
330.222	99.84
330.435	56.83
330.648	-37.38
330.861	38.4
331.073	34.3
331.286	128.51
331.499	110.08
331.712	7.68
331.925	116.22
332.138	7.68
332.35	208.38
332.563	-55.81
332.776	146.94
332.989	-66.05
333.202	-18.94
333.414	34.3
333.627	-2.56
333.84	15.87
334.053	24.06
334.265	-14.85
334.478	-31.23
334.691	-18.94
334.903	40.45
335.116	-4.61
335.329	-33.28
335.541	122.37
335.754	159.23
335.966	-31.23
336.179	69.12
336.392	19.97
336.604	40.45
336.817	95.74
337.029	11.78
337.242	-41.47
337.454	67.07
337.667	11.78
337.88	192
338.092	3.58
338.305	67.07
338.517	11.78
338.729	24.06
338.942	173.57
339.154	-43.52
339.367	-35.33
339.579	-49.66
339.792	-70.14
340.004	73.21
340.217	89.6
340.429	79.36
340.641	-6.66
340.854	40.45
341.066	28.16
341.278	126.46
341.491	118.27
341.703	144.89
341.915	-18.94
342.128	116.22
342.34	28.16
342.552	-37.38
342.764	54.78
342.977	-43.52
343.189	116.22
343.401	-4.61
343.613	-76.29
343.826	9.73
344.038	-94.72
344.25	52.74
344.462	-39.42
344.674	112.13
344.886	-18.94
345.099	44.54
345.311	67.07
345.523	32.26
345.735	-88.57
345.947	110.08
346.159	67.07
346.371	87.55
346.583	7.68
346.795	202.24
347.007	28.16
347.219	108.03
347.431	19.97
347.643	91.65
347.855	9.73
348.067	134.65
348.279	-57.86
348.491	85.5
348.703	58.88
348.915	54.78
349.127	-66.05
349.339	7.68
349.551	-78.33
349.763	99.84
349.975	34.3
350.187	28.16
350.399	138.75
350.61	95.74
350.822	54.78
351.034	97.79
351.246	-6.66
351.458	60.93
351.669	15.87
351.881	87.55
352.093	161.28
352.305	103.93
352.517	60.93
352.728	99.84
352.94	122.37
353.152	105.98
353.363	5.63
353.575	87.55
353.787	171.52
353.999	89.6
354.21	108.03
354.422	-45.57
354.633	19.97
354.845	-92.67
355.057	1.54
355.268	75.26
355.48	153.09
355.692	-35.33
355.903	3.58
356.115	-82.43
356.326	-57.86
356.538	155.13
356.749	22.02
356.961	130.56
357.172	3.58
357.384	-133.63
357.595	169.47
357.807	-2.56
358.018	-0.51
358.23	-23.04
358.441	159.23
358.653	83.45
358.864	32.26
359.075	-31.23
359.287	67.07
359.498	46.59
359.709	56.83
359.921	81.41
360.132	11.78
360.344	1.54
360.555	85.5
360.766	95.74
360.977	-20.99
361.189	118.27
361.4	-33.28
361.611	116.22
361.823	79.36
362.034	48.64
362.245	-6.66
362.456	-31.23
362.667	58.88
362.879	-82.43
363.09	138.75
363.301	91.65
363.512	13.82
363.723	9.73
363.935	-20.99
364.146	89.6
364.357	52.74
364.568	-29.18
364.779	1.54
364.99	163.33
365.201	-27.14
365.412	157.18
365.623	-33.28
365.834	32.26
366.045	-8.7
366.256	97.79
366.467	108.03
366.678	-6.66
366.889	44.54
367.1	-4.61
367.311	192
367.522	-2.56
367.733	114.17
367.944	93.69
368.155	26.11
368.366	32.26
368.577	46.59
368.788	108.03
368.999	-78.33
369.209	34.3
369.42	235
369.631	183.81
369.842	62.98
370.053	99.84
370.264	169.47
370.474	-39.42
370.685	-2.56
370.896	1.54
371.107	224.76
371.317	22.02
371.528	32.26
371.739	140.8
371.95	101.89
372.16	44.54
372.371	11.78
372.582	3.58
372.792	77.31
373.003	148.99
373.214	-4.61
373.424	40.45
373.635	-64
373.846	134.65
374.056	17.92
374.267	32.26
374.477	87.55
374.688	-18.94
374.898	56.83
375.109	89.6
375.319	19.97
375.53	22.02
375.74	77.31
375.951	58.88
376.161	124.41
376.372	134.65
376.582	19.97
376.793	42.5
377.003	17.92
377.214	44.54
377.424	52.74
377.635	56.83
377.845	85.5
378.055	56.83
378.266	-86.53
378.476	11.78
378.686	52.74
378.897	1.54
379.107	161.28
379.317	26.11
379.528	15.87
379.738	46.59
379.948	-20.99
380.158	116.22
380.369	32.26
380.579	69.12
380.789	-37.38
380.999	34.3
381.21	19.97
381.42	194.05
381.63	28.16
381.84	89.6
382.05	17.92
382.261	77.31
382.471	118.27
382.681	-18.94
382.891	126.46
383.101	91.65
383.311	-111.1
383.521	-6.66
383.731	81.41
383.941	15.87
384.151	89.6
384.361	7.68
384.571	71.17
384.781	-6.66
384.991	241.15
385.201	97.79
385.411	26.11
385.621	44.54
385.831	-47.62
386.041	32.26
386.251	34.3
386.461	110.08
386.671	28.16
386.881	103.93
387.091	-2.56
387.301	126.46
387.511	46.59
387.72	95.74
387.93	73.21
388.14	9.73
388.35	32.26
388.56	112.13
388.769	73.21
388.979	19.97
389.189	54.78
389.399	26.11
389.609	19.97
389.818	5.63
390.028	32.26
390.238	73.21
390.447	-16.9
390.657	62.98
390.867	-55.81
391.076	-98.81
391.286	13.82
391.496	50.69
391.705	32.26
391.915	103.93
392.125	105.98
392.334	7.68
392.544	99.84
392.753	105.98
392.963	30.21
393.172	52.74
393.382	-43.52
393.591	183.81
393.801	-66.05
394.01	189.95
394.22	118.27
394.429	26.11
394.639	54.78
394.848	36.35
395.058	19.97
395.267	87.55
395.477	85.5
395.686	13.82
395.895	177.66
396.105	163.33
396.314	122.37
396.524	48.64
396.733	28.16
396.942	75.26
397.152	65.02
397.361	34.3
397.57	144.89
397.78	32.26
397.989	83.45
398.198	251.39
398.407	17.92
398.617	-41.47
398.826	54.78
399.035	40.45
399.244	103.93
399.453	22.02
399.663	-49.66
399.872	40.45
400.081	11.78
400.29	151.04
400.499	-61.95
400.708	120.32
400.917	28.16
401.127	-88.57
401.336	58.88
401.545	144.89
401.754	81.41
401.963	112.13
402.172	36.35
402.381	-139.77
402.59	-23.04
402.799	50.69
403.008	73.21
403.217	30.21
403.426	40.45
403.635	-39.42
403.844	11.78
404.053	54.78
404.262	24.06
404.471	210.43
404.68	-10.75
404.888	54.78
405.097	60.93
405.306	99.84
405.515	87.55
405.724	-10.75
405.933	118.27
406.142	-18.94
406.35	97.79
406.559	73.21
406.768	-0.51
406.977	138.75
407.185	26.11
407.394	69.12
407.603	-25.09
407.812	44.54
408.02	105.98
408.229	58.88
408.438	155.13
408.646	34.3
408.855	17.92
409.064	122.37
409.272	-16.9
409.481	24.06
409.69	-16.9
409.898	-20.99
410.107	87.55
410.315	148.99
410.524	-78.33
410.733	103.93
410.941	7.68
411.15	89.6
411.358	71.17
411.567	159.23
411.775	101.89
411.984	46.59
412.192	95.74
412.401	7.68
412.609	183.81
412.818	130.56
413.026	69.12
413.234	34.3
413.443	95.74
413.651	-41.47
413.86	50.69
414.068	69.12
414.276	142.85
414.485	52.74
414.693	155.13
414.901	101.89
415.11	75.26
415.318	32.26
415.526	46.59
415.734	62.98
415.943	1.54
416.151	189.95
416.359	-12.8
416.567	67.07
416.776	42.5
416.984	38.4
417.192	259.58
417.4	-96.77
417.608	-16.9
417.817	-6.66
418.025	36.35
418.233	103.93
418.441	-8.7
418.649	-45.57
418.857	79.36
419.065	175.61
419.273	-18.94
419.481	79.36
419.689	91.65
419.897	7.68
420.105	-45.57
420.313	136.7
420.521	173.57
420.729	132.61
420.937	-12.8
421.145	-104.96
421.353	108.03
421.561	99.84
421.769	11.78
421.977	-23.04
422.185	77.31
422.393	54.78
422.601	81.41
422.809	132.61
423.017	46.59
423.224	112.13
423.432	142.85
423.64	65.02
423.848	91.65
424.056	32.26
424.263	146.94
424.471	69.12
424.679	136.7
424.887	-104.96
425.094	192
425.302	62.98
425.51	101.89
425.718	130.56
425.925	48.64
426.133	-14.85
426.341	208.38
426.548	60.93
426.756	28.16
426.964	-14.85
427.171	11.78
427.379	71.17
427.586	120.32
427.794	189.95
428.001	81.41
428.209	81.41
428.417	110.08
428.624	95.74
428.832	105.98
429.039	91.65
429.247	130.56
429.454	62.98
429.662	226.81
429.869	128.51
430.076	105.98
430.284	153.09
430.491	192
430.699	71.17
430.906	216.57
431.114	226.81
431.321	159.23
431.528	83.45
431.736	157.18
431.943	173.57
432.15	146.94
432.358	273.92
432.565	278.01
432.772	62.98
432.979	204.28
433.187	255.48
433.394	212.48
433.601	81.41
433.808	226.81
434.016	306.68
434.223	247.29
434.43	212.48
434.637	247.29
434.844	290.3
435.052	230.91
435.259	304.64
435.466	302.59
435.673	321.02
435.88	331.26
436.087	417.27
436.294	318.97
436.501	335.35
436.708	269.82
436.915	390.65
437.122	411.13
437.329	222.72
437.537	429.56
437.743	378.36
437.95	398.84
438.157	431.61
438.364	419.32
438.571	396.79
438.778	452.09
438.985	423.42
439.192	458.23
439.399	515.58
439.606	472.57
439.813	474.62
440.02	638.45
440.227	763.38
440.433	724.47
440.64	556.54
440.847	552.44
441.054	646.65
441.261	820.72
441.467	673.27
441.674	703.99
441.881	826.87
442.088	667.13
442.294	847.35
442.501	904.69
442.708	882.16
442.914	910.83
443.121	904.69
443.328	962.03
443.534	976.37
443.741	1021.42
443.948	921.07
444.154	1101.3
444.361	1271.28
444.568	1244.65
444.774	1197.55
444.981	1158.64
445.187	1224.17
445.394	1308.14
445.6	1275.37
445.807	1502.7
446.013	1504.75
446.22	1437.16
446.426	1621.48
446.633	1619.43
446.839	1893.86
447.046	1644.01
447.252	1967.59
447.459	1842.66
447.665	1881.57
447.871	2119.14
448.078	2139.62
448.284	2106.85
448.491	2291.17
448.697	2428.38
448.903	2424.28
449.11	2469.34
449.316	2364.89
449.522	2676.18
449.728	2788.82
449.935	2827.73
450.141	2885.08
450.347	3022.29
450.553	3014.1
450.76	3194.32
450.966	3370.44
451.172	3483.08
451.378	3470.8
451.584	3616.2
451.791	3923.4
451.997	4048.32
452.203	4142.53
452.409	4271.55
452.615	4404.67
452.821	4427.2
453.027	4515.26
453.233	5031.35
453.44	4894.13
453.646	5055.92
453.852	5273.01
454.058	5551.53
454.264	5553.58
454.47	6057.38
454.676	6231.46
454.882	6630.81
455.088	6329.76
455.294	6464.93
455.5	7241.11
455.705	7427.47
455.911	7597.45
456.117	7591.31
456.323	8054.15
456.529	8029.57
456.735	8691.07
456.941	8951.16
457.147	9239.92
457.352	9620.85
457.558	9966.95
457.764	10519.9
457.97	10700.12
458.176	10876.25
458.381	11785.55
458.587	11953.48
458.793	12301.64
458.999	12512.58
459.204	14101.8
459.41	14466.34
459.616	14003.5
459.821	15183.13
460.027	15770.9
460.233	16401.67
460.438	16839.94
460.644	17624.31
460.85	17685.75
461.055	18253.03
461.261	19272.92
461.466	18752.74
461.672	19152.09
461.878	21429.43
462.083	21312.7
462.289	21552.31
462.494	22711.46
462.7	22693.03
462.905	22815.91
463.111	24781.96
463.316	26102.9
463.522	26246.26
463.727	27405.41
463.932	28634.19
464.138	29252.67
464.343	30553.13
464.549	30794.79
464.754	32762.89
464.959	33633.28
465.165	34135.03
465.37	33967.1
465.575	33885.18
465.781	36281.3
465.986	37524.42
466.191	36838.35
466.397	37110.73
466.602	36092.89
466.807	38220.73
467.012	39324.58
467.218	39875.49
467.423	39633.83
467.628	40954.77
467.833	42867.57
468.038	41782.15
468.244	41284.49
468.449	43641.7
468.654	42316.67
