Data from USB4F104151__72__10-32-17-048.txt Node

Date: Wed Feb 26 10:32:17 EST 2025
User: louis
Spectrometer: USB4F10415
Trigger mode: 4
Integration Time (sec): 1.000000E-1
Scans to average: 1
Electric dark correction enabled: true
Nonlinearity correction enabled: false
Boxcar width: 0
XAxis mode: Wavelengths
Number of Pixels in Spectrum: 3648
>>>>>Begin Spectral Data<<<<<
178.204	-383.48
178.424	-383.48
178.644	-383.48
178.864	-442.87
179.084	-395.77
179.304	9.73
179.524	3.58
179.744	1.54
179.964	44.54
180.184	11.78
180.404	3.58
180.624	40.45
180.844	-14.85
181.064	-133.63
181.283	52.74
181.503	-90.62
181.723	71.17
181.943	-31.23
182.163	261.63
182.383	-53.76
182.602	112.13
182.822	56.83
183.042	46.59
183.262	-20.99
183.482	-14.85
183.701	9.73
183.921	83.45
184.141	-74.24
184.361	52.74
184.58	44.54
184.8	75.26
185.02	-2.56
185.239	112.13
185.459	40.45
185.679	181.76
185.898	-119.29
186.118	50.69
186.338	5.63
186.557	136.7
186.777	-23.04
186.997	-45.57
187.216	36.35
187.436	144.89
187.655	15.87
187.875	28.16
188.095	46.59
188.314	50.69
188.534	220.67
188.753	5.63
188.973	44.54
189.192	132.61
189.412	-49.66
189.631	60.93
189.851	1.54
190.07	142.85
190.29	-51.71
190.509	15.87
190.729	83.45
190.948	124.41
191.168	230.91
191.387	46.59
191.607	-12.8
191.826	54.78
192.045	40.45
192.265	28.16
192.484	54.78
192.704	24.06
192.923	-27.14
193.142	173.57
193.362	110.08
193.581	138.75
193.8	81.41
194.02	56.83
194.239	9.73
194.458	26.11
194.678	34.3
194.897	-10.75
195.116	142.85
195.335	62.98
195.555	54.78
195.774	32.26
195.993	-4.61
196.212	19.97
196.432	46.59
196.651	-0.51
196.87	30.21
197.089	261.63
197.308	46.59
197.528	65.02
197.747	-8.7
197.966	83.45
198.185	110.08
198.404	-29.18
198.623	48.64
198.842	97.79
199.062	110.08
199.281	87.55
199.5	-6.66
199.719	40.45
199.938	73.21
200.157	67.07
200.376	112.13
200.595	50.69
200.814	13.82
201.033	-0.51
201.252	134.65
201.471	77.31
201.69	44.54
201.909	28.16
202.128	134.65
202.347	93.69
202.566	30.21
202.785	-117.25
203.004	7.68
203.223	280.06
203.442	36.35
203.661	-0.51
203.879	118.27
204.098	56.83
204.317	32.26
204.536	58.88
204.755	48.64
204.974	48.64
205.193	5.63
205.411	77.31
205.63	99.84
205.849	54.78
206.068	48.64
206.287	-23.04
206.505	50.69
206.724	46.59
206.943	-59.9
207.162	-84.48
207.381	-8.7
207.599	-20.99
207.818	56.83
208.037	-51.71
208.255	24.06
208.474	62.98
208.693	65.02
208.911	36.35
209.13	116.22
209.349	46.59
209.567	34.3
209.786	93.69
210.005	58.88
210.223	-20.99
210.442	-45.57
210.661	-12.8
210.879	38.4
211.098	85.5
211.316	28.16
211.535	67.07
211.753	67.07
211.972	52.74
212.191	-41.47
212.409	7.68
212.628	28.16
212.846	-59.9
213.065	46.59
213.283	62.98
213.502	24.06
213.72	-47.62
213.938	58.88
214.157	22.02
214.375	136.7
214.594	3.58
214.812	97.79
215.031	52.74
215.249	3.58
215.467	-2.56
215.686	-0.51
215.904	110.08
216.122	-0.51
216.341	79.36
216.559	24.06
216.778	165.37
216.996	83.45
217.214	50.69
217.432	-72.19
217.651	-29.18
217.869	26.11
218.087	114.17
218.306	-12.8
218.524	52.74
218.742	-16.9
218.96	71.17
219.179	-23.04
219.397	13.82
219.615	222.72
219.833	71.17
220.051	-102.91
220.27	44.54
220.488	122.37
220.706	46.59
220.924	-61.95
221.142	1.54
221.36	62.98
221.578	22.02
221.796	-0.51
222.015	73.21
222.233	89.6
222.451	122.37
222.669	3.58
222.887	30.21
223.105	77.31
223.323	30.21
223.541	-27.14
223.759	105.98
223.977	44.54
224.195	171.52
224.413	83.45
224.631	-4.61
224.849	81.41
225.067	185.85
225.285	-14.85
225.503	30.21
225.721	-115.2
225.939	87.55
226.157	24.06
226.375	230.91
226.592	-25.09
226.81	22.02
227.028	32.26
227.246	93.69
227.464	114.17
227.682	89.6
227.9	65.02
228.117	71.17
228.335	132.61
228.553	-25.09
228.771	19.97
228.989	17.92
229.206	114.17
229.424	-70.14
229.642	60.93
229.86	-59.9
230.077	183.81
230.295	28.16
230.513	89.6
230.731	17.92
230.948	124.41
231.166	148.99
231.384	-35.33
231.601	-14.85
231.819	183.81
232.037	-25.09
232.254	-31.23
232.472	7.68
232.689	-6.66
232.907	140.8
233.125	-12.8
233.342	11.78
233.56	-8.7
233.777	52.74
233.995	5.63
234.213	60.93
234.43	108.03
234.648	22.02
234.865	30.21
235.083	52.74
235.3	40.45
235.518	-0.51
235.735	93.69
235.953	171.52
236.17	44.54
236.388	32.26
236.605	60.93
236.822	36.35
237.04	120.32
237.257	83.45
237.475	24.06
237.692	44.54
237.909	30.21
238.127	-35.33
238.344	120.32
238.562	83.45
238.779	-133.63
238.996	5.63
239.214	50.69
239.431	56.83
239.648	-16.9
239.865	79.36
240.083	99.84
240.3	40.45
240.517	-12.8
240.735	26.11
240.952	153.09
241.169	114.17
241.386	87.55
241.603	1.54
241.821	-33.28
242.038	110.08
242.255	91.65
242.472	-90.62
242.689	122.37
242.907	97.79
243.124	38.4
243.341	28.16
243.558	28.16
243.775	-51.71
243.992	-92.67
244.209	134.65
244.426	146.94
244.643	1.54
244.86	28.16
245.078	36.35
245.295	116.22
245.512	7.68
245.729	-41.47
245.946	83.45
246.163	75.26
246.38	-45.57
246.597	-25.09
246.814	46.59
247.031	-10.75
247.248	11.78
247.464	87.55
247.681	48.64
247.898	28.16
248.115	-0.51
248.332	-59.9
248.549	114.17
248.766	112.13
248.983	83.45
249.2	148.99
249.417	85.5
249.633	7.68
249.85	32.26
250.067	15.87
250.284	138.75
250.501	48.64
250.717	36.35
250.934	38.4
251.151	13.82
251.368	-8.7
251.585	34.3
251.801	46.59
252.018	11.78
252.235	110.08
252.451	40.45
252.668	22.02
252.885	126.46
253.102	48.64
253.318	-12.8
253.535	-47.62
253.752	26.11
253.968	42.5
254.185	-102.91
254.401	118.27
254.618	120.32
254.835	44.54
255.051	175.61
255.268	85.5
255.484	101.89
255.701	28.16
255.917	-6.66
256.134	65.02
256.351	11.78
256.567	28.16
256.784	-6.66
257	-12.8
257.217	161.28
257.433	17.92
257.65	-14.85
257.866	187.9
258.082	-57.86
258.299	-27.14
258.515	56.83
258.732	79.36
258.948	-4.61
259.165	34.3
259.381	-33.28
259.597	24.06
259.814	-4.61
260.03	60.93
260.246	-14.85
260.463	69.12
260.679	161.28
260.895	52.74
261.112	99.84
261.328	-10.75
261.544	-0.51
261.761	206.33
261.977	-53.76
262.193	-64
262.409	118.27
262.626	69.12
262.842	60.93
263.058	-35.33
263.274	-8.7
263.49	67.07
263.707	99.84
263.923	24.06
264.139	-137.73
264.355	75.26
264.571	128.51
264.787	95.74
265.004	146.94
265.22	56.83
265.436	42.5
265.652	7.68
265.868	81.41
266.084	-35.33
266.3	81.41
266.516	-12.8
266.732	15.87
266.948	11.78
267.164	58.88
267.38	181.76
267.596	-4.61
267.812	187.9
268.028	32.26
268.244	38.4
268.46	42.5
268.676	87.55
268.892	62.98
269.108	22.02
269.324	-6.66
269.54	-35.33
269.756	153.09
269.972	-6.66
270.188	5.63
270.403	-29.18
270.619	54.78
270.835	85.5
271.051	-10.75
271.267	-37.38
271.483	-55.81
271.698	58.88
271.914	48.64
272.13	-12.8
272.346	-6.66
272.562	17.92
272.777	157.18
272.993	30.21
273.209	1.54
273.425	75.26
273.64	-29.18
273.856	89.6
274.072	-10.75
274.287	-0.51
274.503	56.83
274.719	77.31
274.934	-20.99
275.15	-57.86
275.366	13.82
275.581	5.63
275.797	79.36
276.012	81.41
276.228	46.59
276.444	-98.81
276.659	169.47
276.875	-72.19
277.09	22.02
277.306	26.11
277.521	42.5
277.737	36.35
277.952	103.93
278.168	-6.66
278.383	42.5
278.599	-41.47
278.814	103.93
279.03	42.5
279.245	95.74
279.461	69.12
279.676	89.6
279.892	-14.85
280.107	30.21
280.322	-4.61
280.538	79.36
280.753	-47.62
280.969	26.11
281.184	56.83
281.399	151.04
281.615	75.26
281.83	65.02
282.045	-92.67
282.26	11.78
282.476	138.75
282.691	42.5
282.906	-4.61
283.122	-29.18
283.337	11.78
283.552	73.21
283.767	-8.7
283.983	91.65
284.198	46.59
284.413	38.4
284.628	15.87
284.843	73.21
285.058	1.54
285.274	26.11
285.489	30.21
285.704	95.74
285.919	-68.09
286.134	-31.23
286.349	-16.9
286.564	-39.42
286.779	167.42
286.995	58.88
287.21	-6.66
287.425	93.69
287.64	15.87
287.855	50.69
288.07	-35.33
288.285	97.79
288.5	38.4
288.715	79.36
288.93	108.03
289.145	-100.86
289.36	36.35
289.575	-4.61
289.79	62.98
290.004	-74.24
290.219	89.6
290.434	-82.43
290.649	19.97
290.864	-37.38
291.079	3.58
291.294	44.54
291.509	136.7
291.724	87.55
291.938	-8.7
292.153	112.13
292.368	75.26
292.583	103.93
292.798	60.93
293.012	52.74
293.227	58.88
293.442	52.74
293.657	75.26
293.871	130.56
294.086	38.4
294.301	144.89
294.516	75.26
294.73	40.45
294.945	-4.61
295.16	116.22
295.374	114.17
295.589	85.5
295.804	36.35
296.018	15.87
296.233	110.08
296.447	116.22
296.662	65.02
296.877	69.12
297.091	71.17
297.306	28.16
297.52	15.87
297.735	56.83
297.949	69.12
298.164	73.21
298.378	44.54
298.593	-68.09
298.807	-16.9
299.022	-4.61
299.236	142.85
299.451	3.58
299.665	17.92
299.88	40.45
300.094	44.54
300.309	13.82
300.523	38.4
300.737	-0.51
300.952	-10.75
301.166	108.03
301.381	77.31
301.595	-27.14
301.809	1.54
302.024	3.58
302.238	-86.53
302.452	136.7
302.667	-35.33
302.881	198.14
303.095	58.88
303.309	140.8
303.524	-29.18
303.738	-37.38
303.952	-18.94
304.166	91.65
304.381	-104.96
304.595	169.47
304.809	81.41
305.023	108.03
305.237	7.68
305.452	85.5
305.666	81.41
305.88	138.75
306.094	77.31
306.308	85.5
306.522	50.69
306.736	19.97
306.95	99.84
307.164	58.88
307.379	9.73
307.593	132.61
307.807	103.93
308.021	122.37
308.235	134.65
308.449	-27.14
308.663	5.63
308.877	208.38
309.091	85.5
309.305	52.74
309.519	-133.63
309.733	101.89
309.947	-64
310.161	54.78
310.374	79.36
310.588	93.69
310.802	-61.95
311.016	26.11
311.23	54.78
311.444	26.11
311.658	-4.61
311.872	134.65
312.085	83.45
312.299	189.95
312.513	140.8
312.727	9.73
312.941	-43.52
313.154	17.92
313.368	26.11
313.582	17.92
313.796	58.88
314.009	52.74
314.223	148.99
314.437	38.4
314.651	56.83
314.864	-4.61
315.078	26.11
315.292	-102.91
315.505	-16.9
315.719	46.59
315.933	1.54
316.146	67.07
316.36	22.02
316.573	110.08
316.787	60.93
317.001	65.02
317.214	-35.33
317.428	56.83
317.641	-6.66
317.855	-100.86
318.068	91.65
318.282	44.54
318.495	153.09
318.709	44.54
318.922	-0.51
319.136	171.52
319.349	155.13
319.563	-31.23
319.776	101.89
319.99	-76.29
320.203	65.02
320.417	24.06
320.63	118.27
320.843	67.07
321.057	62.98
321.27	7.68
321.483	155.13
321.697	83.45
321.91	103.93
322.124	54.78
322.337	-2.56
322.55	-35.33
322.763	-23.04
322.977	58.88
323.19	9.73
323.403	11.78
323.617	95.74
323.83	1.54
324.043	54.78
324.256	17.92
324.469	-82.43
324.683	151.04
324.896	46.59
325.109	28.16
325.322	-74.24
325.535	81.41
325.748	73.21
325.962	36.35
326.175	81.41
326.388	83.45
326.601	142.85
326.814	-12.8
327.027	48.64
327.24	167.42
327.453	19.97
327.666	54.78
327.879	58.88
328.092	116.22
328.305	71.17
328.518	-43.52
328.731	44.54
328.944	13.82
329.157	62.98
329.37	-49.66
329.583	148.99
329.796	124.41
330.009	-37.38
330.222	73.21
330.435	101.89
330.648	15.87
330.861	140.8
331.073	7.68
331.286	89.6
331.499	52.74
331.712	-51.71
331.925	-16.9
332.138	-4.61
332.35	159.23
332.563	-41.47
332.776	105.98
332.989	13.82
333.202	11.78
333.414	65.02
333.627	3.58
333.84	24.06
334.053	42.5
334.265	5.63
334.478	-64
334.691	-23.04
334.903	44.54
335.116	1.54
335.329	50.69
335.541	85.5
335.754	208.38
335.966	-14.85
336.179	44.54
336.392	-37.38
336.604	54.78
336.817	110.08
337.029	-0.51
337.242	-25.09
337.454	134.65
337.667	-39.42
337.88	161.28
338.092	75.26
338.305	50.69
338.517	-33.28
338.729	56.83
338.942	200.19
339.154	62.98
339.367	-12.8
339.579	71.17
339.792	-57.86
340.004	26.11
340.217	34.3
340.429	50.69
340.641	-29.18
340.854	17.92
341.066	85.5
341.278	206.33
341.491	144.89
341.703	-2.56
341.915	-16.9
342.128	105.98
342.34	32.26
342.552	-2.56
342.764	-0.51
342.977	-12.8
343.189	40.45
343.401	-0.51
343.613	-78.33
343.826	-14.85
344.038	-31.23
344.25	38.4
344.462	-31.23
344.674	71.17
344.886	40.45
345.099	24.06
345.311	165.37
345.523	-45.57
345.735	-92.67
345.947	50.69
346.159	62.98
346.371	-53.76
346.583	24.06
346.795	230.91
347.007	28.16
347.219	87.55
347.431	-96.77
347.643	130.56
347.855	-51.71
348.067	110.08
348.279	-49.66
348.491	24.06
348.703	26.11
348.915	34.3
349.127	-70.14
349.339	36.35
349.551	-66.05
349.763	69.12
349.975	24.06
350.187	67.07
350.399	146.94
350.61	30.21
350.822	-18.94
351.034	108.03
351.246	15.87
351.458	146.94
351.669	83.45
351.881	34.3
352.093	114.17
352.305	161.28
352.517	-14.85
352.728	112.13
352.94	22.02
353.152	126.46
353.363	-37.38
353.575	118.27
353.787	216.57
353.999	79.36
354.21	112.13
354.422	-82.43
354.633	132.61
354.845	13.82
355.057	77.31
355.268	50.69
355.48	99.84
355.692	-57.86
355.903	75.26
356.115	48.64
356.326	-88.57
356.538	65.02
356.749	-2.56
356.961	163.33
357.172	60.93
357.384	-68.09
357.595	218.62
357.807	-14.85
358.018	-16.9
358.23	26.11
358.441	181.76
358.653	101.89
358.864	34.3
359.075	-45.57
359.287	73.21
359.498	34.3
359.709	22.02
359.921	-25.09
360.132	79.36
360.344	101.89
360.555	46.59
360.766	77.31
360.977	-55.81
361.189	112.13
361.4	13.82
361.611	159.23
361.823	83.45
362.034	50.69
362.245	-55.81
362.456	-16.9
362.667	46.59
362.879	-61.95
363.09	58.88
363.301	128.51
363.512	97.79
363.723	-16.9
363.935	32.26
364.146	75.26
364.357	-10.75
364.568	128.51
364.779	-68.09
364.99	126.46
365.201	-66.05
365.412	167.42
365.623	-100.86
365.834	46.59
366.045	67.07
366.256	93.69
366.467	97.79
366.678	1.54
366.889	15.87
367.1	-10.75
367.311	83.45
367.522	-37.38
367.733	54.78
367.944	65.02
368.155	3.58
368.366	15.87
368.577	75.26
368.788	75.26
368.999	-27.14
369.209	54.78
369.42	255.48
369.631	216.57
369.842	99.84
370.053	7.68
370.264	81.41
370.474	40.45
370.685	38.4
370.896	15.87
371.107	101.89
371.317	26.11
371.528	56.83
371.739	136.7
371.95	46.59
372.16	28.16
372.371	15.87
372.582	-111.1
372.792	120.32
373.003	-0.51
373.214	26.11
373.424	52.74
373.635	-16.9
373.846	126.46
374.056	116.22
374.267	19.97
374.477	89.6
374.688	-74.24
374.898	28.16
375.109	13.82
375.319	40.45
375.53	54.78
375.74	130.56
375.951	-35.33
376.161	71.17
376.372	169.47
376.582	40.45
376.793	7.68
377.003	7.68
377.214	22.02
377.424	95.74
377.635	7.68
377.845	-33.28
378.055	126.46
378.266	-57.86
378.476	30.21
378.686	81.41
378.897	5.63
379.107	40.45
379.317	161.28
379.528	83.45
379.738	101.89
379.948	-51.71
380.158	138.75
380.369	50.69
380.579	56.83
380.789	-0.51
380.999	95.74
381.21	101.89
381.42	161.28
381.63	26.11
381.84	15.87
382.05	79.36
382.261	34.3
382.471	73.21
382.681	-39.42
382.891	85.5
383.101	124.41
383.311	-55.81
383.521	-53.76
383.731	42.5
383.941	30.21
384.151	-31.23
384.361	13.82
384.571	97.79
384.781	-2.56
384.991	148.99
385.201	212.48
385.411	38.4
385.621	77.31
385.831	24.06
386.041	-49.66
386.251	22.02
386.461	32.26
386.671	50.69
386.881	-39.42
387.091	-18.94
387.301	110.08
387.511	36.35
387.72	73.21
387.93	58.88
388.14	3.58
388.35	60.93
388.56	116.22
388.769	175.61
388.979	58.88
389.189	-70.14
389.399	1.54
389.609	75.26
389.818	73.21
390.028	65.02
390.238	103.93
390.447	42.5
390.657	50.69
390.867	44.54
391.076	-29.18
391.286	28.16
391.496	34.3
391.705	22.02
391.915	91.65
392.125	187.9
392.334	-12.8
392.544	105.98
392.753	5.63
392.963	-23.04
393.172	28.16
393.382	-8.7
393.591	146.94
393.801	-4.61
394.01	153.09
394.22	81.41
394.429	-16.9
394.639	-18.94
394.848	46.59
395.058	56.83
395.267	32.26
395.477	128.51
395.686	77.31
395.895	153.09
396.105	181.76
396.314	13.82
396.524	36.35
396.733	1.54
396.942	128.51
397.152	30.21
397.361	93.69
397.57	112.13
397.78	60.93
397.989	126.46
398.198	146.94
398.407	30.21
398.617	17.92
398.826	124.41
399.035	56.83
399.244	91.65
399.453	40.45
399.663	105.98
399.872	54.78
400.081	-41.47
400.29	112.13
400.499	-33.28
400.708	132.61
400.917	67.07
401.127	85.5
401.336	-29.18
401.545	196.09
401.754	108.03
401.963	-4.61
402.172	32.26
402.381	-78.33
402.59	-2.56
402.799	73.21
403.008	67.07
403.217	148.99
403.426	114.17
403.635	-74.24
403.844	50.69
404.053	34.3
404.262	13.82
404.471	118.27
404.68	67.07
404.888	30.21
405.097	13.82
405.306	91.65
405.515	130.56
405.724	-0.51
405.933	101.89
406.142	97.79
406.35	114.17
406.559	-27.14
406.768	91.65
406.977	230.91
407.185	11.78
407.394	124.41
407.603	-90.62
407.812	-23.04
408.02	40.45
408.229	42.5
408.438	26.11
408.646	-88.57
408.855	22.02
409.064	48.64
409.272	42.5
409.481	126.46
409.69	-68.09
409.898	-41.47
410.107	62.98
410.315	83.45
410.524	30.21
410.733	44.54
410.941	46.59
411.15	40.45
411.358	110.08
411.567	126.46
411.775	34.3
411.984	44.54
412.192	67.07
412.401	-100.86
412.609	138.75
412.818	116.22
413.026	103.93
413.234	-39.42
413.443	-29.18
413.651	22.02
413.86	-45.57
414.068	132.61
414.276	163.33
414.485	54.78
414.693	146.94
414.901	130.56
415.11	38.4
415.318	11.78
415.526	3.58
415.734	40.45
415.943	1.54
416.151	105.98
416.359	30.21
416.567	140.8
416.776	99.84
416.984	163.33
417.192	130.56
417.4	-61.95
417.608	-20.99
417.817	17.92
418.025	71.17
418.233	181.76
418.441	-33.28
418.649	11.78
418.857	67.07
419.065	155.13
419.273	93.69
419.481	28.16
419.689	1.54
419.897	15.87
420.105	19.97
420.313	148.99
420.521	173.57
420.729	71.17
420.937	-25.09
421.145	-70.14
421.353	34.3
421.561	159.23
421.769	62.98
421.977	24.06
422.185	173.57
422.393	-6.66
422.601	169.47
422.809	65.02
423.017	50.69
423.224	30.21
423.432	71.17
423.64	7.68
423.848	151.04
424.056	13.82
424.263	128.51
424.471	-8.7
424.679	171.52
424.887	5.63
425.094	126.46
425.302	77.31
425.51	81.41
425.718	97.79
425.925	69.12
426.133	-31.23
426.341	167.42
426.548	108.03
426.756	60.93
426.964	99.84
427.171	34.3
427.379	58.88
427.586	99.84
427.794	56.83
428.001	136.7
428.209	95.74
428.417	171.52
428.624	161.28
428.832	85.5
429.039	108.03
429.247	24.06
429.454	198.14
429.662	218.62
429.869	194.05
430.076	159.23
430.284	159.23
430.491	200.19
430.699	142.85
430.906	251.39
431.114	34.3
431.321	132.61
431.528	44.54
431.736	120.32
431.943	194.05
432.15	140.8
432.358	130.56
432.565	194.05
432.772	15.87
432.979	265.72
433.187	93.69
433.394	304.64
433.601	116.22
433.808	216.57
434.016	226.81
434.223	216.57
434.43	103.93
434.637	292.35
434.844	337.4
435.052	192
435.259	253.44
435.466	247.29
435.673	251.39
435.88	306.68
436.087	259.58
436.294	316.92
436.501	216.57
436.708	230.91
436.915	175.61
437.122	400.89
437.329	169.47
437.537	294.4
437.743	288.25
437.95	370.17
438.157	351.74
438.364	308.73
438.571	335.35
438.778	359.93
438.985	368.12
439.192	404.99
439.399	390.65
439.606	341.5
439.813	421.37
440.02	499.19
440.227	554.49
440.433	482.81
440.64	441.85
440.847	355.83
441.054	456.19
441.261	554.49
441.467	531.96
441.674	435.71
441.881	603.64
442.088	513.53
442.294	652.79
442.501	591.35
442.708	660.98
442.914	609.78
443.121	671.22
443.328	740.85
443.534	747
443.741	736.76
443.948	663.03
444.154	785.91
444.361	990.7
444.568	824.82
444.774	919.03
444.981	794.1
445.187	1007.09
445.394	935.41
445.6	863.73
445.807	1119.73
446.013	1039.86
446.22	1013.23
446.426	1144.3
446.633	1265.13
446.839	1377.77
447.046	1258.99
447.252	1375.72
447.459	1353.2
447.665	1410.54
447.871	1555.94
448.078	1676.77
448.284	1539.56
448.491	1762.79
448.697	1807.84
448.903	1775.08
449.11	1932.77
449.316	1844.71
449.522	2061.79
449.728	1897.96
449.935	2176.48
450.141	2110.94
450.347	2420.19
450.553	2221.53
450.76	2192.86
450.966	2352.6
451.172	2555.35
451.378	2622.94
451.584	2711
451.791	2915.8
451.997	2856.4
452.203	2917.84
452.409	3347.92
452.615	3268.05
452.821	3231.18
453.027	3163.6
453.233	3565
453.44	3560.91
453.646	3843.53
453.852	3775.94
454.058	4044.23
454.264	4228.54
454.47	4459.96
454.676	4337.09
454.882	4851.13
455.088	4543.93
455.294	4961.72
455.5	5348.78
455.705	5486
455.911	5553.58
456.117	5555.63
456.323	5930.41
456.529	5698.99
456.735	6219.17
456.941	6671.77
457.147	6706.59
457.352	6929.81
457.558	7110.04
457.764	7648.65
457.97	7798.15
458.176	8007.05
458.381	8375.68
458.587	8605.05
458.793	9143.67
458.999	8947.06
459.204	10272.1
459.41	10716.51
459.616	10462.56
459.821	10919.26
460.027	11296.08
460.233	11767.12
460.438	12303.68
460.644	12715.33
460.85	12686.65
461.055	13456.69
461.261	13901.1
461.466	13802.8
461.672	13956.4
461.878	15592.72
462.083	15172.89
462.289	15686.93
462.494	16407.81
462.7	16350.47
462.905	16440.58
463.111	18324.71
463.316	19098.84
463.522	19299.55
463.727	19983.57
463.932	20778.18
464.138	21202.11
464.343	22230.19
464.549	22338.73
464.754	24046.74
464.959	24433.8
465.165	25199.74
465.37	24749.19
465.575	24888.45
465.781	26494.06
465.986	27333.73
466.191	26954.85
466.397	27309.15
466.602	26670.19
466.807	27788.38
467.012	28435.53
467.218	29123.65
467.423	28892.23
467.628	29707.32
467.833	31624.22
468.038	30845.99
468.244	30008.37
468.449	32107.54
468.654	31112.23
468.859	31392.8
469.064	31378.47
