Data from USB4F104151__9__11-24-20-708.txt Node

Date: Wed Feb 26 11:24:20 EST 2025
User: louis
Spectrometer: USB4F10415
Trigger mode: 4
Integration Time (sec): 1.000000E-1
Scans to average: 1
Electric dark correction enabled: true
Nonlinearity correction enabled: false
Boxcar width: 0
XAxis mode: Wavelengths
Number of Pixels in Spectrum: 3648
>>>>>Begin Spectral Data<<<<<
178.204	-371.88
178.424	-371.88
178.644	-371.88
178.864	-416.93
179.084	-445.6
179.304	-52.39
179.524	-31.91
179.744	17.24
179.964	54.1
180.184	13.14
180.404	64.34
180.624	-68.78
180.844	2.9
181.064	-72.87
181.283	66.39
181.503	-60.59
181.723	68.44
181.943	-99.5
182.163	219.99
182.383	-36.01
182.602	41.81
182.822	101.2
183.042	15.19
183.262	-44.2
183.482	47.96
183.701	9.05
183.921	78.68
184.141	-122.02
184.361	78.68
184.58	37.72
184.8	-5.29
185.02	-79.02
185.239	101.2
185.459	66.39
185.679	103.25
185.898	-93.35
186.118	-7.34
186.338	60.24
186.557	101.2
186.777	-74.92
186.997	-25.77
187.216	15.19
187.436	154.45
187.655	148.31
187.875	72.53
188.095	-27.82
188.314	129.88
188.534	56.15
188.753	25.43
188.973	127.83
189.192	142.16
189.412	33.62
189.631	2.9
189.851	41.81
190.07	133.97
190.29	-111.78
190.509	-1.19
190.729	76.63
190.948	113.49
191.168	275.28
191.387	41.81
191.607	-23.72
191.826	54.1
192.045	-25.77
192.265	-15.53
192.484	-3.24
192.704	31.57
192.923	-68.78
193.142	215.89
193.362	121.68
193.581	101.2
193.8	70.48
194.02	84.82
194.239	29.52
194.458	45.91
194.678	-40.11
194.897	-3.24
195.116	15.19
195.335	27.48
195.555	-91.31
195.774	-42.15
195.993	93.01
196.212	-38.06
196.432	-89.26
196.651	11.09
196.87	35.67
197.089	250.71
197.308	62.29
197.528	62.29
197.747	-60.59
197.966	93.01
198.185	133.97
198.404	-50.35
198.623	78.68
198.842	52.05
199.062	78.68
199.281	58.2
199.5	-19.63
199.719	56.15
199.938	35.67
200.157	84.82
200.376	152.4
200.595	103.25
200.814	90.96
201.033	13.14
201.252	99.16
201.471	23.38
201.69	29.52
201.909	64.34
202.128	62.29
202.347	131.92
202.566	-3.24
202.785	9.05
203.004	-48.3
203.223	174.93
203.442	80.72
203.661	-48.3
203.879	64.34
204.098	99.16
204.317	-115.88
204.536	4.95
204.755	54.1
204.974	115.54
205.193	-46.25
205.411	156.5
205.63	99.16
205.849	90.96
206.068	21.33
206.287	-70.83
206.505	50
206.724	-46.25
206.943	19.29
207.162	25.43
207.381	7
207.599	2.9
207.818	-48.3
208.037	-79.02
208.255	-29.87
208.474	50
208.693	56.15
208.911	-42.15
209.13	47.96
209.349	45.91
209.567	58.2
209.786	33.62
210.005	84.82
210.223	37.72
210.442	-62.63
210.661	23.38
210.879	76.63
211.098	-19.63
211.316	-1.19
211.535	21.33
211.753	74.58
211.972	21.33
212.191	-81.07
212.409	62.29
212.628	25.43
212.846	-72.87
213.065	7
213.283	97.11
213.502	-7.34
213.72	-50.35
213.938	-33.96
214.157	-1.19
214.375	41.81
214.594	-23.72
214.812	43.86
215.031	-42.15
215.249	41.81
215.467	99.16
215.686	2.9
215.904	17.24
216.122	19.29
216.341	136.02
216.559	58.2
216.778	99.16
216.996	60.24
217.214	4.95
217.432	47.96
217.651	-97.45
217.869	25.43
218.087	-9.39
218.306	-60.59
218.524	111.44
218.742	19.29
218.96	84.82
219.179	15.19
219.397	15.19
219.615	207.7
219.833	68.44
220.051	15.19
220.27	107.35
220.488	58.2
220.706	27.48
220.924	-54.44
221.142	11.09
221.36	74.58
221.578	29.52
221.796	-1.19
222.015	29.52
222.233	84.82
222.451	107.35
222.669	-36.01
222.887	113.49
223.105	27.48
223.323	-17.58
223.541	-54.44
223.759	23.38
223.977	33.62
224.195	179.03
224.413	78.68
224.631	76.63
224.849	19.29
225.067	170.83
225.285	-25.77
225.503	-87.21
225.721	-95.4
225.939	19.29
226.157	-21.67
226.375	144.21
226.592	25.43
226.81	-25.77
227.028	109.4
227.246	119.64
227.464	60.24
227.682	115.54
227.9	64.34
228.117	72.53
228.335	88.92
228.553	33.62
228.771	-7.34
228.989	-52.39
229.206	70.48
229.424	17.24
229.642	-3.24
229.86	-105.64
230.077	144.21
230.295	13.14
230.513	39.76
230.731	-36.01
230.948	158.55
231.166	103.25
231.384	-23.72
231.601	-83.11
231.819	191.31
232.037	-42.15
232.254	-42.15
232.472	-9.39
232.689	-50.35
232.907	131.92
233.125	-25.77
233.342	43.86
233.56	-48.3
233.777	-1.19
233.995	47.96
234.213	43.86
234.43	47.96
234.648	-72.87
234.865	-44.2
235.083	60.24
235.3	-23.72
235.518	136.02
235.735	41.81
235.953	27.48
236.17	66.39
236.388	39.76
236.605	-33.96
236.822	62.29
237.04	64.34
237.257	4.95
237.475	-95.4
237.692	23.38
237.909	68.44
238.127	-7.34
238.344	15.19
238.562	19.29
238.779	-9.39
238.996	-17.58
239.214	52.05
239.431	-5.29
239.648	-7.34
239.865	-11.43
240.083	144.21
240.3	-72.87
240.517	-33.96
240.735	17.24
240.952	58.2
241.169	76.63
241.386	56.15
241.603	41.81
241.821	-99.5
242.038	27.48
242.255	11.09
242.472	-52.39
242.689	74.58
242.907	52.05
243.124	109.4
243.341	64.34
243.558	2.9
243.775	7
243.992	-56.49
244.209	154.45
244.426	93.01
244.643	19.29
244.86	9.05
245.078	23.38
245.295	50
245.512	60.24
245.729	4.95
245.946	31.57
246.163	-19.63
246.38	-27.82
246.597	17.24
246.814	56.15
247.031	27.48
247.248	-54.44
247.464	70.48
247.681	-7.34
247.898	74.58
248.115	31.57
248.332	-62.63
248.549	154.45
248.766	121.68
248.983	25.43
249.2	52.05
249.417	144.21
249.633	41.81
249.85	19.29
250.067	54.1
250.284	54.1
250.501	138.07
250.717	64.34
250.934	-44.2
251.151	27.48
251.368	11.09
251.585	64.34
251.801	33.62
252.018	-58.54
252.235	-5.29
252.451	-38.06
252.668	0.85
252.885	103.25
253.102	21.33
253.318	-36.01
253.535	2.9
253.752	-11.43
253.968	-19.63
254.185	-52.39
254.401	119.64
254.618	76.63
254.835	-97.45
255.051	123.73
255.268	25.43
255.484	82.77
255.701	-15.53
255.917	-1.19
256.134	-21.67
256.351	23.38
256.567	-70.83
256.784	27.48
257	-97.45
257.217	103.25
257.433	133.97
257.65	23.38
257.866	84.82
258.082	-95.4
258.299	-23.72
258.515	31.57
258.732	21.33
258.948	-21.67
259.165	-5.29
259.381	-68.78
259.597	66.39
259.814	-42.15
260.03	17.24
260.246	21.33
260.463	35.67
260.679	68.44
260.895	-15.53
261.112	88.92
261.328	-40.11
261.544	-68.78
261.761	70.48
261.977	2.9
262.193	-46.25
262.409	37.72
262.626	-7.34
262.842	78.68
263.058	29.52
263.274	123.73
263.49	31.57
263.707	97.11
263.923	68.44
264.139	-142.5
264.355	-62.63
264.571	99.16
264.787	45.91
265.004	166.74
265.22	2.9
265.436	-81.07
265.652	-46.25
265.868	37.72
266.084	-50.35
266.3	0.85
266.516	-42.15
266.732	62.29
266.948	-50.35
267.164	-42.15
267.38	93.01
267.596	29.52
267.812	168.79
268.028	-56.49
268.244	19.29
268.46	-5.29
268.676	-1.19
268.892	-31.91
269.108	-50.35
269.324	-17.58
269.54	-7.34
269.756	50
269.972	-160.94
270.188	13.14
270.403	-81.07
270.619	37.72
270.835	0.85
271.051	68.44
271.267	4.95
271.483	-52.39
271.698	88.92
271.914	95.06
272.13	45.91
272.346	-23.72
272.562	56.15
272.777	15.19
272.993	21.33
273.209	-5.29
273.425	64.34
273.64	-76.97
273.856	105.3
274.072	-54.44
274.287	-42.15
274.503	148.31
274.719	45.91
274.934	-36.01
275.15	-81.07
275.366	-1.19
275.581	7
275.797	-11.43
276.012	13.14
276.228	-52.39
276.444	56.15
276.659	119.64
276.875	19.29
277.09	-64.68
277.306	7
277.521	72.53
277.737	27.48
277.952	78.68
278.168	-11.43
278.383	37.72
278.599	56.15
278.814	93.01
279.03	9.05
279.245	117.59
279.461	35.67
279.676	68.44
279.892	-79.02
280.107	-46.25
280.322	-31.91
280.538	111.44
280.753	-7.34
280.969	68.44
281.184	74.58
281.399	162.64
281.615	-9.39
281.83	-40.11
282.045	-70.83
282.26	-13.48
282.476	-66.73
282.691	121.68
282.906	9.05
283.122	-17.58
283.337	-64.68
283.552	90.96
283.767	-46.25
283.983	86.87
284.198	33.62
284.413	4.95
284.628	-95.4
284.843	39.76
285.058	90.96
285.274	-42.15
285.489	-54.44
285.704	90.96
285.919	-48.3
286.134	-7.34
286.349	-89.26
286.564	-46.25
286.779	123.73
286.995	31.57
287.21	-122.02
287.425	86.87
287.64	-56.49
287.855	33.62
288.07	-81.07
288.285	60.24
288.5	148.31
288.715	97.11
288.93	15.19
289.145	-5.29
289.36	80.72
289.575	19.29
289.79	84.82
290.004	-19.63
290.219	37.72
290.434	-29.87
290.649	-3.24
290.864	90.96
291.079	-15.53
291.294	47.96
291.509	103.25
291.724	-19.63
291.938	37.72
292.153	-9.39
292.368	-50.35
292.583	-21.67
292.798	95.06
293.012	107.35
293.227	50
293.442	-25.77
293.657	95.06
293.871	86.87
294.086	113.49
294.301	140.12
294.516	113.49
294.73	80.72
294.945	-87.21
295.16	52.05
295.374	41.81
295.589	23.38
295.804	-72.87
296.018	121.68
296.233	90.96
296.447	21.33
296.662	107.35
296.877	74.58
297.091	66.39
297.306	19.29
297.52	-68.78
297.735	45.91
297.949	47.96
298.164	131.92
298.378	-31.91
298.593	-76.97
298.807	-62.63
299.022	27.48
299.236	138.07
299.451	23.38
299.665	-54.44
299.88	25.43
300.094	84.82
300.309	-17.58
300.523	33.62
300.737	84.82
300.952	103.25
301.166	-17.58
301.381	-72.87
301.595	-25.77
301.809	29.52
302.024	52.05
302.238	-27.82
302.452	123.73
302.667	31.57
302.881	99.16
303.095	168.79
303.309	54.1
303.524	-21.67
303.738	2.9
303.952	-40.11
304.166	72.53
304.381	-89.26
304.595	72.53
304.809	-44.2
305.023	-27.82
305.237	-44.2
305.452	-62.63
305.666	74.58
305.88	80.72
306.094	121.68
306.308	35.67
306.522	43.86
306.736	50
306.95	64.34
307.164	7
307.379	13.14
307.593	195.41
307.807	86.87
308.021	64.34
308.235	113.49
308.449	-109.74
308.663	-19.63
308.877	181.07
309.091	54.1
309.305	119.64
309.519	-134.31
309.733	74.58
309.947	-54.44
310.161	35.67
310.374	119.64
310.588	97.11
310.802	-72.87
311.016	29.52
311.23	-11.43
311.444	-15.53
311.658	17.24
311.872	15.19
312.085	70.48
312.299	105.3
312.513	103.25
312.727	29.52
312.941	-7.34
313.154	45.91
313.368	80.72
313.582	74.58
313.796	45.91
314.009	29.52
314.223	68.44
314.437	82.77
314.651	90.96
314.864	11.09
315.078	-68.78
315.292	-23.72
315.505	-11.43
315.719	37.72
315.933	78.68
316.146	21.33
316.36	-1.19
316.573	109.4
316.787	4.95
317.001	-27.82
317.214	-70.83
317.428	15.19
317.641	-60.59
317.855	0.85
318.068	4.95
318.282	93.01
318.495	156.5
318.709	-21.67
318.922	-48.3
319.136	72.53
319.349	115.54
319.563	17.24
319.776	66.39
319.99	-5.29
320.203	54.1
320.417	-7.34
320.63	37.72
320.843	140.12
321.057	70.48
321.27	17.24
321.483	86.87
321.697	164.69
321.91	7
322.124	107.35
322.337	158.55
322.55	-64.68
322.763	54.1
322.977	-19.63
323.19	7
323.403	-3.24
323.617	80.72
323.83	109.4
324.043	-15.53
324.256	103.25
324.469	-105.64
324.683	115.54
324.896	-17.58
325.109	60.24
325.322	-44.2
325.535	35.67
325.748	56.15
325.962	74.58
326.175	90.96
326.388	78.68
326.601	31.57
326.814	9.05
327.027	11.09
327.24	183.12
327.453	-60.59
327.666	125.78
327.879	115.54
328.092	64.34
328.305	97.11
328.518	2.9
328.731	-27.82
328.944	-27.82
329.157	72.53
329.37	90.96
329.583	195.41
329.796	99.16
330.009	-58.54
330.222	78.68
330.435	37.72
330.648	-1.19
330.861	45.91
331.073	21.33
331.286	136.02
331.499	-3.24
331.712	-109.74
331.925	13.14
332.138	62.29
332.35	58.2
332.563	-58.54
332.776	76.63
332.989	-89.26
333.202	-46.25
333.414	19.29
333.627	17.24
333.84	-29.87
334.053	-25.77
334.265	-64.68
334.478	0.85
334.691	-40.11
334.903	17.24
335.116	-95.4
335.329	17.24
335.541	15.19
335.754	144.21
335.966	-54.44
336.179	0.85
336.392	35.67
336.604	-23.72
336.817	52.05
337.029	31.57
337.242	-38.06
337.454	70.48
337.667	-3.24
337.88	50
338.092	127.83
338.305	76.63
338.517	41.81
338.729	86.87
338.942	78.68
339.154	-52.39
339.367	-19.63
339.579	33.62
339.792	-31.91
340.004	19.29
340.217	-87.21
340.429	68.44
340.641	-52.39
340.854	-64.68
341.066	-19.63
341.278	47.96
341.491	156.5
341.703	-17.58
341.915	2.9
342.128	47.96
342.34	9.05
342.552	-117.93
342.764	19.29
342.977	-11.43
343.189	58.2
343.401	2.9
343.613	-126.12
343.826	52.05
344.038	-50.35
344.25	45.91
344.462	-17.58
344.674	72.53
344.886	-1.19
345.099	99.16
345.311	86.87
345.523	-66.73
345.735	-101.55
345.947	11.09
346.159	27.48
346.371	-54.44
346.583	-27.82
346.795	176.98
347.007	15.19
347.219	60.24
347.431	-3.24
347.643	80.72
347.855	-62.63
348.067	158.55
348.279	-179.37
348.491	13.14
348.703	37.72
348.915	41.81
349.127	-38.06
349.339	74.58
349.551	-72.87
349.763	168.79
349.975	50
350.187	47.96
350.399	164.69
350.61	39.76
350.822	2.9
351.034	11.09
351.246	11.09
351.458	105.3
351.669	45.91
351.881	97.11
352.093	62.29
352.305	101.2
352.517	52.05
352.728	78.68
352.94	62.29
353.152	101.2
353.363	-68.78
353.575	23.38
353.787	121.68
353.999	54.1
354.21	162.64
354.422	-15.53
354.633	-7.34
354.845	29.52
355.057	43.86
355.268	-70.83
355.48	123.73
355.692	-27.82
355.903	23.38
356.115	-27.82
356.326	17.24
356.538	101.2
356.749	62.29
356.961	138.07
357.172	7
357.384	-52.39
357.595	211.79
357.807	-81.07
358.018	21.33
358.23	-42.15
358.441	193.36
358.653	111.44
358.864	-36.01
359.075	-68.78
359.287	101.2
359.498	-15.53
359.709	45.91
359.921	-38.06
360.132	74.58
360.344	-13.48
360.555	21.33
360.766	-15.53
360.977	-3.24
361.189	41.81
361.4	0.85
361.611	78.68
361.823	66.39
362.034	15.19
362.245	-21.67
362.456	35.67
362.667	119.64
362.879	-54.44
363.09	72.53
363.301	52.05
363.512	-21.67
363.723	-81.07
363.935	-7.34
364.146	13.14
364.357	-1.19
364.568	113.49
364.779	-54.44
364.99	119.64
365.201	-101.55
365.412	54.1
365.623	-144.55
365.834	-19.63
366.045	21.33
366.256	138.07
366.467	68.44
366.678	2.9
366.889	9.05
367.1	-33.96
367.311	72.53
367.522	-60.59
367.733	0.85
367.944	7
368.155	-11.43
368.366	76.63
368.577	146.26
368.788	70.48
368.999	-13.48
369.209	17.24
369.42	148.31
369.631	232.27
369.842	2.9
370.053	-36.01
370.264	58.2
370.474	9.05
370.685	-25.77
370.896	-25.77
371.107	127.83
371.317	64.34
371.528	47.96
371.739	115.54
371.95	86.87
372.16	64.34
372.371	-74.92
372.582	-83.11
372.792	4.95
373.003	19.29
373.214	19.29
373.424	41.81
373.635	-21.67
373.846	119.64
374.056	-38.06
374.267	25.43
374.477	29.52
374.688	-62.63
374.898	72.53
375.109	72.53
375.319	66.39
375.53	82.77
375.74	105.3
375.951	-50.35
376.161	150.36
376.372	17.24
376.582	13.14
376.793	29.52
377.003	-17.58
377.214	-33.96
377.424	82.77
377.635	47.96
377.845	23.38
378.055	23.38
378.266	-66.73
378.476	-31.91
378.686	-19.63
378.897	19.29
379.107	60.24
379.317	35.67
379.528	-48.3
379.738	105.3
379.948	-142.5
380.158	47.96
380.369	66.39
380.579	68.44
380.789	7
380.999	35.67
381.21	62.29
381.42	39.76
381.63	-68.78
381.84	84.82
382.05	19.29
382.261	119.64
382.471	115.54
382.681	-21.67
382.891	162.64
383.101	66.39
383.311	-44.2
383.521	-17.58
383.731	58.2
383.941	45.91
384.151	37.72
384.361	-25.77
384.571	86.87
384.781	-23.72
384.991	168.79
385.201	170.83
385.411	33.62
385.621	45.91
385.831	41.81
386.041	80.72
386.251	-42.15
386.461	101.2
386.671	-15.53
386.881	39.76
387.091	-68.78
387.301	156.5
387.511	13.14
387.72	-1.19
387.93	88.92
388.14	-23.72
388.35	60.24
388.56	45.91
388.769	70.48
388.979	19.29
389.189	-64.68
389.399	-21.67
389.609	25.43
389.818	97.11
390.028	4.95
390.238	84.82
390.447	-109.74
390.657	27.48
390.867	23.38
391.076	-33.96
391.286	72.53
391.496	64.34
391.705	0.85
391.915	138.07
392.125	136.02
392.334	-33.96
392.544	136.02
392.753	27.48
392.963	-13.48
393.172	45.91
393.382	-31.91
393.591	117.59
393.801	90.96
394.01	148.31
394.22	-38.06
394.429	-48.3
394.639	-19.63
394.848	2.9
395.058	52.05
395.267	-76.97
395.477	150.36
395.686	58.2
395.895	152.4
396.105	201.55
396.314	82.77
396.524	17.24
396.733	31.57
396.942	168.79
397.152	0.85
397.361	105.3
397.57	-25.77
397.78	19.29
397.989	-15.53
398.198	164.69
398.407	41.81
398.617	-40.11
398.826	-11.43
399.035	-17.58
399.244	129.88
399.453	64.34
399.663	-1.19
399.872	-1.19
400.081	-38.06
400.29	54.1
400.499	-27.82
400.708	15.19
400.917	31.57
401.127	27.48
401.336	-40.11
401.545	144.21
401.754	105.3
401.963	90.96
402.172	-33.96
402.381	-101.55
402.59	56.15
402.799	23.38
403.008	74.58
403.217	115.54
403.426	35.67
403.635	-124.07
403.844	64.34
404.053	-29.87
404.262	-36.01
404.471	193.36
404.68	35.67
404.888	35.67
405.097	11.09
405.306	31.57
405.515	39.76
405.724	-31.91
405.933	127.83
406.142	70.48
406.35	52.05
406.559	-9.39
406.768	107.35
406.977	140.12
407.185	-23.72
407.394	23.38
407.603	-48.3
407.812	35.67
408.02	146.26
408.229	21.33
408.438	60.24
408.646	-68.78
408.855	64.34
409.064	58.2
409.272	-74.92
409.481	121.68
409.69	27.48
409.898	-1.19
410.107	-13.48
410.315	95.06
410.524	-44.2
410.733	62.29
410.941	-31.91
411.15	31.57
411.358	105.3
411.567	168.79
411.775	-21.67
411.984	109.4
412.192	37.72
412.401	-15.53
412.609	82.77
412.818	107.35
413.026	52.05
413.234	-7.34
413.443	-1.19
413.651	23.38
413.86	-15.53
414.068	66.39
414.276	103.25
414.485	-7.34
414.693	103.25
414.901	105.3
415.11	99.16
415.318	37.72
415.526	4.95
415.734	123.73
415.943	47.96
416.151	68.44
416.359	99.16
416.567	2.9
416.776	109.4
416.984	154.45
417.192	174.93
417.4	-44.2
417.608	17.24
417.817	-9.39
418.025	58.2
418.233	183.12
418.441	21.33
418.649	-85.16
418.857	99.16
419.065	72.53
419.273	27.48
419.481	29.52
419.689	56.15
419.897	88.92
420.105	-27.82
420.313	101.2
420.521	82.77
420.729	125.78
420.937	-31.91
421.145	-128.17
421.353	66.39
421.561	136.02
421.769	-17.58
421.977	-23.72
422.185	105.3
422.393	15.19
422.601	131.92
422.809	17.24
423.017	39.76
423.224	60.24
423.432	19.29
423.64	43.86
423.848	170.83
424.056	4.95
424.263	66.39
424.471	45.91
424.679	158.55
424.887	-99.5
425.094	119.64
425.302	113.49
425.51	-48.3
425.718	113.49
425.925	93.01
426.133	-25.77
426.341	138.07
426.548	50
426.756	-72.87
426.964	54.1
427.171	-38.06
427.379	84.82
427.586	99.16
427.794	117.59
428.001	27.48
428.209	54.1
428.417	142.16
428.624	58.2
428.832	41.81
429.039	52.05
429.247	107.35
429.454	101.2
429.662	254.8
429.869	142.16
430.076	123.73
430.284	119.64
430.491	93.01
430.699	86.87
430.906	78.68
431.114	115.54
431.321	101.2
431.528	103.25
431.736	90.96
431.943	131.92
432.15	90.96
432.358	133.97
432.565	224.08
432.772	-17.58
432.979	160.59
433.187	101.2
433.394	158.55
433.601	19.29
433.808	232.27
434.016	275.28
434.223	136.02
434.43	181.07
434.637	148.31
434.844	172.88
435.052	158.55
435.259	224.08
435.466	271.19
435.673	99.16
435.88	283.47
436.087	267.09
436.294	230.23
436.501	250.71
436.708	201.55
436.915	138.07
437.122	279.38
437.329	164.69
437.537	230.23
437.743	271.19
437.95	418.64
438.157	283.47
438.364	271.19
438.571	254.8
438.778	291.66
438.985	400.21
439.192	441.17
439.399	342.86
439.606	295.76
439.813	435.02
440.02	494.41
440.227	465.74
440.433	418.64
440.64	402.26
440.847	457.55
441.054	566.09
441.261	578.38
441.467	516.94
441.674	465.74
441.881	582.48
442.088	455.5
442.294	711.5
442.501	578.38
442.708	625.48
442.914	635.72
443.121	639.82
443.328	707.4
443.534	760.65
443.741	768.84
443.948	654.16
444.154	811.85
444.361	975.69
444.568	826.18
444.774	858.95
444.981	754.51
445.187	1030.98
445.394	957.25
445.6	908.1
445.807	992.07
446.013	981.83
446.22	1006.41
446.426	1039.17
446.633	1145.67
446.839	1270.59
447.046	1065.8
447.252	1299.27
447.459	1221.44
447.665	1325.89
447.871	1434.43
448.078	1534.78
448.284	1424.19
448.491	1588.03
448.697	1669.95
448.903	1715
449.11	1682.24
449.316	1772.35
449.522	1919.8
449.728	1946.42
449.935	2097.97
450.141	1985.34
450.347	2183.99
450.553	2030.39
450.76	2210.61
450.966	2349.87
451.172	2280.24
451.378	2499.38
451.584	2587.44
451.791	2732.84
451.997	2751.28
452.203	2812.71
452.409	3052.33
452.615	3150.63
452.821	3044.13
453.027	3087.14
453.233	3447.58
453.44	3324.71
453.646	3517.22
453.852	3611.42
454.058	3769.12
454.264	3906.33
454.47	4098.84
454.676	4172.57
454.882	4502.29
455.088	4317.97
455.294	4553.49
455.5	4940.55
455.705	5194.5
455.911	5372.68
456.117	5272.32
456.323	5544.7
456.529	5536.51
456.735	6058.74
456.941	6238.97
457.147	6306.55
457.352	6677.23
457.558	6845.16
457.764	7205.61
457.97	7449.32
458.176	7711.46
458.381	8231.64
458.587	8270.55
458.793	8606.42
458.999	8383.19
459.204	9794.24
459.41	10029.76
459.616	9929.41
459.821	10476.21
460.027	10883.76
460.233	11471.53
460.438	11453.09
460.644	11946.66
460.85	12262.04
461.055	12819.09
461.261	13546.12
461.466	12978.83
461.672	13292.17
461.878	14846.58
462.083	14799.48
462.289	15082.1
462.494	15559.27
462.7	15706.73
462.905	15901.28
463.111	17351.24
463.316	18104.9
463.522	18373.18
463.727	19114.55
463.932	20005.41
464.138	20548.12
464.343	21146.13
464.549	21090.84
464.754	22798.84
464.959	23615.98
465.165	24066.53
465.37	23695.85
465.575	23826.92
465.781	25289.17
465.986	25915.85
466.191	25506.26
466.397	25743.82
466.602	25344.47
466.807	26542.53
467.012	27046.33
467.218	27519.41
467.423	27822.51
467.628	28305.83
467.833	30026.12
468.038	29272.47
468.244	28301.73
468.449	30466.44
468.654	29546.9
468.859	29837.71
