Data from USB4F104151__81__11-31-27-361.txt Node

Date: Wed Feb 26 11:31:27 EST 2025
User: louis
Spectrometer: USB4F10415
Trigger mode: 4
Integration Time (sec): 1.000000E-1
Scans to average: 1
Electric dark correction enabled: true
Nonlinearity correction enabled: false
Boxcar width: 0
XAxis mode: Wavelengths
Number of Pixels in Spectrum: 3648
>>>>>Begin Spectral Data<<<<<
178.204	-423.59
178.424	-423.59
178.644	-423.59
178.864	-380.58
179.084	-366.25
179.304	8.53
179.524	-20.14
179.744	4.44
179.964	20.82
180.184	-7.85
180.404	-50.86
180.624	-36.52
180.844	-13.99
181.064	26.96
181.283	33.11
181.503	10.58
181.723	24.92
181.943	-46.76
182.163	250.19
182.383	37.2
182.602	53.59
182.822	186.71
183.042	147.8
183.262	4.44
183.482	41.3
183.701	55.64
183.921	69.97
184.141	-28.33
184.361	80.21
184.58	41.3
184.8	-16.04
185.02	-32.43
185.239	155.99
185.459	82.26
185.679	117.08
185.898	-54.95
186.118	115.03
186.338	94.55
186.557	80.21
186.777	-75.43
186.997	-7.85
187.216	53.59
187.436	217.43
187.655	96.6
187.875	145.75
188.095	55.64
188.314	112.98
188.534	121.17
188.753	33.11
188.973	127.32
189.192	229.71
189.412	10.58
189.631	-20.14
189.851	82.26
190.07	139.6
190.29	-28.33
190.509	98.64
190.729	72.02
190.948	178.51
191.168	186.71
191.387	67.92
191.607	90.45
191.826	41.3
192.045	35.16
192.265	37.2
192.484	67.92
192.704	14.68
192.923	-16.04
193.142	256.34
193.362	74.07
193.581	172.37
193.8	112.98
194.02	133.46
194.239	69.97
194.458	92.5
194.678	33.11
194.897	-13.99
195.116	18.77
195.335	100.69
195.555	74.07
195.774	37.2
195.993	184.66
196.212	18.77
196.432	-5.8
196.651	24.92
196.87	37.2
197.089	203.09
197.308	10.58
197.528	119.12
197.747	31.06
197.966	35.16
198.185	160.08
198.404	-5.8
198.623	119.12
198.842	106.84
199.062	100.69
199.281	137.56
199.5	92.5
199.719	125.27
199.938	76.12
200.157	47.44
200.376	158.03
200.595	178.51
200.814	112.98
201.033	80.21
201.252	217.43
201.471	170.32
201.69	80.21
201.909	20.82
202.128	145.75
202.347	117.08
202.566	-7.85
202.785	14.68
203.004	-48.81
203.223	285.01
203.442	12.63
203.661	37.2
203.879	123.22
204.098	129.36
204.317	55.64
204.536	88.4
204.755	96.6
204.974	67.92
205.193	24.92
205.411	135.51
205.63	121.17
205.849	158.03
206.068	10.58
206.287	-63.15
206.505	149.84
206.724	16.73
206.943	12.63
207.162	6.49
207.381	137.56
207.599	57.68
207.818	86.36
208.037	-32.43
208.255	33.11
208.474	80.21
208.693	170.32
208.911	24.92
209.13	76.12
209.349	141.65
209.567	45.4
209.786	53.59
210.005	61.78
210.223	63.83
210.442	-95.91
210.661	47.44
210.879	90.45
211.098	72.02
211.316	49.49
211.535	67.92
211.753	59.73
211.972	133.46
212.191	12.63
212.409	2.39
212.628	129.36
212.846	43.35
213.065	147.8
213.283	106.84
213.502	63.83
213.72	84.31
213.938	72.02
214.157	-9.9
214.375	147.8
214.594	14.68
214.812	94.55
215.031	61.78
215.249	112.98
215.467	20.82
215.686	37.2
215.904	115.03
216.122	100.69
216.341	190.8
216.559	69.97
216.778	90.45
216.996	117.08
217.214	51.54
217.432	8.53
217.651	-9.9
217.869	72.02
218.087	31.06
218.306	20.82
218.524	69.97
218.742	96.6
218.96	49.49
219.179	0.34
219.397	-28.33
219.615	209.23
219.833	155.99
220.051	-34.47
220.27	82.26
220.488	96.6
220.706	139.6
220.924	-46.76
221.142	84.31
221.36	47.44
221.578	49.49
221.796	55.64
222.015	35.16
222.233	33.11
222.451	186.71
222.669	-57
222.887	72.02
223.105	-11.95
223.323	20.82
223.541	-44.71
223.759	110.93
223.977	18.77
224.195	188.75
224.413	119.12
224.631	53.59
224.849	90.45
225.067	248.15
225.285	41.3
225.503	39.25
225.721	-134.82
225.939	43.35
226.157	29.01
226.375	229.71
226.592	-30.38
226.81	0.34
227.028	74.07
227.246	106.84
227.464	84.31
227.682	104.79
227.9	133.46
228.117	129.36
228.335	61.78
228.553	76.12
228.771	37.2
228.989	26.96
229.206	82.26
229.424	26.96
229.642	51.54
229.86	20.82
230.077	158.03
230.295	88.4
230.513	82.26
230.731	96.6
230.948	182.61
231.166	170.32
231.384	55.64
231.601	-16.04
231.819	168.27
232.037	35.16
232.254	-20.14
232.472	78.16
232.689	41.3
232.907	149.84
233.125	4.44
233.342	-34.47
233.56	-24.23
233.777	100.69
233.995	88.4
234.213	108.88
234.43	78.16
234.648	82.26
234.865	33.11
235.083	82.26
235.3	78.16
235.518	145.75
235.735	155.99
235.953	98.64
236.17	90.45
236.388	49.49
236.605	119.12
236.822	139.6
237.04	117.08
237.257	53.59
237.475	-26.28
237.692	14.68
237.909	223.57
238.127	78.16
238.344	76.12
238.562	31.06
238.779	-18.09
238.996	8.53
239.214	86.36
239.431	100.69
239.648	72.02
239.865	61.78
240.083	4.44
240.3	2.39
240.517	94.55
240.735	31.06
240.952	196.95
241.169	78.16
241.386	133.46
241.603	43.35
241.821	-46.76
242.038	121.17
242.255	106.84
242.472	-9.9
242.689	190.8
242.907	133.46
243.124	69.97
243.341	51.54
243.558	39.25
243.775	-48.81
243.992	-77.48
244.209	149.84
244.426	178.51
244.643	164.18
244.86	10.58
245.078	141.65
245.295	96.6
245.512	121.17
245.729	33.11
245.946	76.12
246.163	-32.43
246.38	20.82
246.597	84.31
246.814	-40.62
247.031	41.3
247.248	-16.04
247.464	78.16
247.681	94.55
247.898	84.31
248.115	74.07
248.332	47.44
248.549	131.41
248.766	231.76
248.983	57.68
249.2	65.88
249.417	196.95
249.633	39.25
249.85	180.56
250.067	53.59
250.284	84.31
250.501	90.45
250.717	49.49
250.934	33.11
251.151	57.68
251.368	14.68
251.585	80.21
251.801	86.36
252.018	-34.47
252.235	98.64
252.451	37.2
252.668	53.59
252.885	201.04
253.102	49.49
253.318	-11.95
253.535	6.49
253.752	20.82
253.968	-9.9
254.185	16.73
254.401	131.41
254.618	65.88
254.835	0.34
255.051	137.56
255.268	137.56
255.484	41.3
255.701	33.11
255.917	31.06
256.134	10.58
256.351	-28.33
256.567	-85.67
256.784	35.16
257	-54.95
257.217	166.23
257.433	90.45
257.65	69.97
257.866	172.37
258.082	0.34
258.299	-32.43
258.515	121.17
258.732	41.3
258.948	84.31
259.165	74.07
259.381	-34.47
259.597	106.84
259.814	78.16
260.03	10.58
260.246	35.16
260.463	151.89
260.679	92.5
260.895	80.21
261.112	86.36
261.328	63.83
261.544	59.73
261.761	217.43
261.977	43.35
262.193	-1.71
262.409	117.08
262.626	0.34
262.842	49.49
263.058	16.73
263.274	72.02
263.49	55.64
263.707	92.5
263.923	145.75
264.139	6.49
264.355	14.68
264.571	117.08
264.787	59.73
265.004	135.51
265.22	106.84
265.436	47.44
265.652	106.84
265.868	155.99
266.084	-24.23
266.3	41.3
266.516	-63.15
266.732	33.11
266.948	127.32
267.164	49.49
267.38	108.88
267.596	76.12
267.812	164.18
268.028	78.16
268.244	57.68
268.46	90.45
268.676	-1.71
268.892	65.88
269.108	-87.72
269.324	-69.29
269.54	4.44
269.756	172.37
269.972	-24.23
270.188	-20.14
270.403	10.58
270.619	-83.63
270.835	168.27
271.051	26.96
271.267	-38.57
271.483	65.88
271.698	125.27
271.914	20.82
272.13	98.64
272.346	29.01
272.562	147.8
272.777	172.37
272.993	61.78
273.209	-7.85
273.425	121.17
273.64	-122.54
273.856	67.92
274.072	82.26
274.287	-13.99
274.503	12.63
274.719	145.75
274.934	49.49
275.15	-28.33
275.366	102.74
275.581	-3.75
275.797	94.55
276.012	67.92
276.228	14.68
276.444	31.06
276.659	227.67
276.875	82.26
277.09	39.25
277.306	22.87
277.521	112.98
277.737	47.44
277.952	115.03
278.168	96.6
278.383	29.01
278.599	6.49
278.814	182.61
279.03	29.01
279.245	98.64
279.461	8.53
279.676	110.93
279.892	-16.04
280.107	-22.19
280.322	-20.14
280.538	47.44
280.753	-81.58
280.969	86.36
281.184	35.16
281.399	172.37
281.615	41.3
281.83	98.64
282.045	110.93
282.26	-61.1
282.476	26.96
282.691	151.89
282.906	29.01
283.122	121.17
283.337	-9.9
283.552	137.56
283.767	41.3
283.983	133.46
284.198	49.49
284.413	43.35
284.628	-93.87
284.843	88.4
285.058	12.63
285.274	76.12
285.489	59.73
285.704	145.75
285.919	41.3
286.134	-11.95
286.349	108.88
286.564	-7.85
286.779	137.56
286.995	117.08
287.21	-67.24
287.425	84.31
287.64	57.68
287.855	119.12
288.07	-40.62
288.285	168.27
288.5	129.36
288.715	104.79
288.93	37.2
289.145	45.4
289.36	106.84
289.575	-7.85
289.79	115.03
290.004	-13.99
290.219	145.75
290.434	33.11
290.649	45.4
290.864	6.49
291.079	63.83
291.294	8.53
291.509	104.79
291.724	16.73
291.938	-38.57
292.153	96.6
292.368	63.83
292.583	4.44
292.798	106.84
293.012	98.64
293.227	57.68
293.442	12.63
293.657	53.59
293.871	170.32
294.086	160.08
294.301	274.77
294.516	131.41
294.73	47.44
294.945	-18.09
295.16	45.4
295.374	168.27
295.589	115.03
295.804	-5.8
296.018	69.97
296.233	147.8
296.447	125.27
296.662	18.77
296.877	151.89
297.091	82.26
297.306	80.21
297.52	-22.19
297.735	106.84
297.949	115.03
298.164	88.4
298.378	49.49
298.593	-69.29
298.807	10.58
299.022	-22.19
299.236	153.94
299.451	133.46
299.665	86.36
299.88	45.4
300.094	57.68
300.309	22.87
300.523	45.4
300.737	53.59
300.952	57.68
301.166	229.71
301.381	-48.81
301.595	-77.48
301.809	108.88
302.024	6.49
302.238	-13.99
302.452	149.84
302.667	41.3
302.881	141.65
303.095	129.36
303.309	63.83
303.524	31.06
303.738	14.68
303.952	-20.14
304.166	131.41
304.381	-63.15
304.595	168.27
304.809	76.12
305.023	41.3
305.237	35.16
305.452	145.75
305.666	67.92
305.88	102.74
306.094	168.27
306.308	164.18
306.522	59.73
306.736	90.45
306.95	203.09
307.164	55.64
307.379	78.16
307.593	55.64
307.807	217.43
308.021	166.23
308.235	135.51
308.449	-155.3
308.663	78.16
308.877	264.53
309.091	188.75
309.305	104.79
309.519	-114.34
309.733	115.03
309.947	-65.19
310.161	53.59
310.374	84.31
310.588	162.13
310.802	0.34
311.016	-20.14
311.23	76.12
311.444	4.44
311.658	41.3
311.872	108.88
312.085	100.69
312.299	170.32
312.513	110.93
312.727	67.92
312.941	-16.04
313.154	59.73
313.368	115.03
313.582	59.73
313.796	72.02
314.009	80.21
314.223	155.99
314.437	20.82
314.651	112.98
314.864	51.54
315.078	57.68
315.292	-91.82
315.505	41.3
315.719	14.68
315.933	61.78
316.146	14.68
316.36	12.63
316.573	147.8
316.787	155.99
317.001	-34.47
317.214	47.44
317.428	47.44
317.641	51.54
317.855	108.88
318.068	74.07
318.282	88.4
318.495	100.69
318.709	51.54
318.922	59.73
319.136	194.9
319.349	135.51
319.563	-5.8
319.776	80.21
319.99	-38.57
320.203	24.92
320.417	14.68
320.63	39.25
320.843	172.37
321.057	33.11
321.27	127.32
321.483	143.7
321.697	231.76
321.91	67.92
322.124	74.07
322.337	12.63
322.55	-57
322.763	102.74
322.977	33.11
323.19	-63.15
323.403	31.06
323.617	16.73
323.83	186.71
324.043	4.44
324.256	84.31
324.469	8.53
324.683	100.69
324.896	78.16
325.109	63.83
325.322	-28.33
325.535	137.56
325.748	119.12
325.962	45.4
326.175	63.83
326.388	106.84
326.601	164.18
326.814	90.45
327.027	61.78
327.24	90.45
327.453	-30.38
327.666	108.88
327.879	84.31
328.092	139.6
328.305	26.96
328.518	-77.48
328.731	-5.8
328.944	53.59
329.157	82.26
329.37	51.54
329.583	198.99
329.796	158.03
330.009	-63.15
330.222	135.51
330.435	174.42
330.648	61.78
330.861	90.45
331.073	41.3
331.286	84.31
331.499	108.88
331.712	51.54
331.925	55.64
332.138	61.78
332.35	180.56
332.563	10.58
332.776	115.03
332.989	72.02
333.202	43.35
333.414	49.49
333.627	80.21
333.84	72.02
334.053	61.78
334.265	47.44
334.478	4.44
334.691	10.58
334.903	26.96
335.116	-48.81
335.329	61.78
335.541	123.22
335.754	147.8
335.966	69.97
336.179	80.21
336.392	2.39
336.604	16.73
336.817	49.49
337.029	125.27
337.242	2.39
337.454	133.46
337.667	37.2
337.88	155.99
338.092	106.84
338.305	49.49
338.517	22.87
338.729	72.02
338.942	170.32
339.154	-48.81
339.367	-16.04
339.579	55.64
339.792	-30.38
340.004	55.64
340.217	29.01
340.429	72.02
340.641	49.49
340.854	0.34
341.066	145.75
341.278	139.6
341.491	160.08
341.703	125.27
341.915	29.01
342.128	145.75
342.34	86.36
342.552	14.68
342.764	80.21
342.977	74.07
343.189	51.54
343.401	61.78
343.613	-38.57
343.826	33.11
344.038	31.06
344.25	39.25
344.462	74.07
344.674	29.01
344.886	55.64
345.099	57.68
345.311	174.42
345.523	0.34
345.735	-46.76
345.947	96.6
346.159	-3.75
346.371	106.84
346.583	33.11
346.795	264.53
347.007	-9.9
347.219	104.79
347.431	31.06
347.643	67.92
347.855	80.21
348.067	186.71
348.279	22.87
348.491	69.97
348.703	108.88
348.915	80.21
349.127	-34.47
349.339	72.02
349.551	67.92
349.763	170.32
349.975	6.49
350.187	69.97
350.399	168.27
350.61	94.55
350.822	67.92
351.034	176.47
351.246	82.26
351.458	137.56
351.669	74.07
351.881	125.27
352.093	59.73
352.305	184.66
352.517	100.69
352.728	196.95
352.94	98.64
353.152	139.6
353.363	-3.75
353.575	80.21
353.787	250.19
353.999	135.51
354.21	108.88
354.422	53.59
354.633	33.11
354.845	14.68
355.057	22.87
355.268	90.45
355.48	151.89
355.692	-11.95
355.903	35.16
356.115	-18.09
356.326	-7.85
356.538	137.56
356.749	61.78
356.961	172.37
357.172	90.45
357.384	-44.71
357.595	266.58
357.807	0.34
358.018	47.44
358.23	-9.9
358.441	153.94
358.653	67.92
358.864	131.41
359.075	51.54
359.287	43.35
359.498	65.88
359.709	155.99
359.921	104.79
360.132	102.74
360.344	16.73
360.555	57.68
360.766	88.4
360.977	74.07
361.189	123.22
361.4	-54.95
361.611	94.55
361.823	162.13
362.034	24.92
362.245	8.53
362.456	69.97
362.667	133.46
362.879	-13.99
363.09	84.31
363.301	131.41
363.512	119.12
363.723	-5.8
363.935	41.3
364.146	147.8
364.357	16.73
364.568	47.44
364.779	-36.52
364.99	176.47
365.201	22.87
365.412	174.42
365.623	33.11
365.834	78.16
366.045	90.45
366.256	143.7
366.467	65.88
366.678	33.11
366.889	51.54
367.1	43.35
367.311	233.81
367.522	72.02
367.733	90.45
367.944	76.12
368.155	47.44
368.366	176.47
368.577	110.93
368.788	115.03
368.999	53.59
369.209	33.11
369.42	201.04
369.631	246.1
369.842	133.46
370.053	16.73
370.264	33.11
370.474	-65.19
370.685	61.78
370.896	49.49
371.107	178.51
371.317	76.12
371.528	61.78
371.739	166.23
371.95	149.84
372.16	94.55
372.371	-30.38
372.582	63.83
372.792	139.6
373.003	74.07
373.214	96.6
373.424	164.18
373.635	-42.67
373.846	131.41
374.056	14.68
374.267	41.3
374.477	18.77
374.688	18.77
374.898	88.4
375.109	29.01
375.319	80.21
375.53	98.64
375.74	80.21
375.951	-7.85
376.161	35.16
376.372	174.42
376.582	-1.71
376.793	127.32
377.003	51.54
377.214	-16.04
377.424	63.83
377.635	-32.43
377.845	-73.39
378.055	242
378.266	-57
378.476	102.74
378.686	55.64
378.897	96.6
379.107	33.11
379.317	69.97
379.528	98.64
379.738	74.07
379.948	-52.91
380.158	92.5
380.369	67.92
380.579	119.12
380.789	-5.8
380.999	65.88
381.21	80.21
381.42	227.67
381.63	22.87
381.84	129.36
382.05	102.74
382.261	90.45
382.471	172.37
382.681	45.4
382.891	174.42
383.101	86.36
383.311	24.92
383.521	33.11
383.731	137.56
383.941	137.56
384.151	76.12
384.361	-13.99
384.571	76.12
384.781	88.4
384.991	235.86
385.201	192.85
385.411	82.26
385.621	182.61
385.831	117.08
386.041	102.74
386.251	67.92
386.461	123.22
386.671	121.17
386.881	69.97
387.091	63.83
387.301	65.88
387.511	92.5
387.72	47.44
387.93	86.36
388.14	-48.81
388.35	129.36
388.56	127.32
388.769	158.03
388.979	14.68
389.189	39.25
389.399	37.2
389.609	37.2
389.818	164.18
390.028	29.01
390.238	133.46
390.447	39.25
390.657	123.22
390.867	67.92
391.076	-61.1
391.286	31.06
391.496	53.59
391.705	117.08
391.915	151.89
392.125	139.6
392.334	6.49
392.544	172.37
392.753	90.45
392.963	20.82
393.172	59.73
393.382	-59.05
393.591	184.66
393.801	16.73
394.01	162.13
394.22	88.4
394.429	41.3
394.639	121.17
394.848	108.88
395.058	-11.95
395.267	63.83
395.477	166.23
395.686	63.83
395.895	250.19
396.105	254.29
396.314	133.46
396.524	31.06
396.733	92.5
396.942	149.84
397.152	121.17
397.361	123.22
397.57	53.59
397.78	67.92
397.989	90.45
398.198	272.72
398.407	147.8
398.617	35.16
398.826	102.74
399.035	65.88
399.244	84.31
399.453	135.51
399.663	14.68
399.872	67.92
400.081	2.39
400.29	112.98
400.499	-34.47
400.708	133.46
400.917	63.83
401.127	88.4
401.336	-16.04
401.545	192.85
401.754	158.03
401.963	131.41
402.172	12.63
402.381	0.34
402.59	10.58
402.799	61.78
403.008	90.45
403.217	104.79
403.426	67.92
403.635	-79.53
403.844	20.82
404.053	-13.99
404.262	43.35
404.471	198.99
404.68	72.02
404.888	16.73
405.097	45.4
405.306	98.64
405.515	125.27
405.724	0.34
405.933	108.88
406.142	74.07
406.35	162.13
406.559	63.83
406.768	98.64
406.977	194.9
407.185	141.65
407.394	84.31
407.603	-3.75
407.812	92.5
408.02	203.09
408.229	37.2
408.438	108.88
408.646	22.87
408.855	6.49
409.064	123.22
409.272	6.49
409.481	96.6
409.69	-24.23
409.898	-3.75
410.107	76.12
410.315	141.65
410.524	16.73
410.733	41.3
410.941	72.02
411.15	106.84
411.358	182.61
411.567	244.05
411.775	31.06
411.984	78.16
412.192	106.84
412.401	4.44
412.609	209.23
412.818	121.17
413.026	16.73
413.234	-18.09
413.443	76.12
413.651	10.58
413.86	53.59
414.068	186.71
414.276	188.75
414.485	45.4
414.693	106.84
414.901	252.24
415.11	164.18
415.318	188.75
415.526	-3.75
415.734	201.04
415.943	78.16
416.151	135.51
416.359	82.26
416.567	82.26
416.776	80.21
416.984	127.32
417.192	143.7
417.4	49.49
417.608	94.55
417.817	-75.43
418.025	221.52
418.233	203.09
418.441	20.82
418.649	-32.43
418.857	145.75
419.065	127.32
419.273	67.92
419.481	102.74
419.689	41.3
419.897	26.96
420.105	-26.28
420.313	137.56
420.521	166.23
420.729	219.47
420.937	47.44
421.145	-11.95
421.353	90.45
421.561	119.12
421.769	115.03
421.977	6.49
422.185	133.46
422.393	90.45
422.601	139.6
422.809	133.46
423.017	67.92
423.224	-1.71
423.432	133.46
423.64	59.73
423.848	153.94
424.056	2.39
424.263	137.56
424.471	115.03
424.679	198.99
424.887	-48.81
425.094	168.27
425.302	252.24
425.51	55.64
425.718	137.56
425.925	127.32
426.133	0.34
426.341	174.42
426.548	65.88
426.756	35.16
426.964	166.23
427.171	-67.24
427.379	196.95
427.586	6.49
427.794	164.18
428.001	131.41
428.209	184.66
428.417	225.62
428.624	86.36
428.832	168.27
429.039	153.94
429.247	145.75
429.454	147.8
429.662	266.58
429.869	121.17
430.076	133.46
430.284	117.08
430.491	285.01
430.699	182.61
430.906	270.67
431.114	110.93
431.321	201.04
431.528	121.17
431.736	125.27
431.943	153.94
432.15	166.23
432.358	293.2
432.565	270.67
432.772	104.79
432.979	274.77
433.187	131.41
433.394	147.8
433.601	84.31
433.808	280.91
434.016	360.78
434.223	211.28
434.43	246.1
434.637	223.57
434.844	291.15
435.052	293.2
435.259	319.82
435.466	325.97
435.673	225.62
435.88	350.54
436.087	293.2
436.294	389.46
436.501	293.2
436.708	325.97
436.915	262.48
437.122	311.63
437.329	268.63
437.537	321.87
437.743	371.02
437.95	452.94
438.157	346.45
438.364	385.36
438.571	362.83
438.778	442.7
438.985	454.99
439.192	438.61
439.399	491.85
439.606	446.8
439.813	518.48
440.02	565.58
440.227	592.2
440.433	655.69
440.64	547.15
440.847	551.24
441.054	547.15
441.261	704.84
441.467	633.16
441.674	651.6
441.881	758.09
442.088	610.64
442.294	776.52
442.501	889.16
442.708	768.33
442.914	770.38
443.121	751.95
443.328	813.38
443.534	952.65
443.741	899.4
443.948	856.39
444.154	1102.15
444.361	1116.48
444.568	1022.28
444.774	1073.48
444.981	1026.37
445.187	1227.07
445.394	1147.2
445.6	1118.53
445.807	1401.15
446.013	1280.32
446.22	1214.79
446.426	1298.75
446.633	1321.28
446.839	1653.05
447.046	1403.2
447.252	1616.19
447.459	1644.86
447.665	1653.05
447.871	1792.31
448.078	2036.02
448.284	1968.44
448.491	1952.06
448.697	2103.61
448.903	2222.39
449.11	2236.72
449.316	2025.78
449.522	2412.85
449.728	2431.28
449.935	2552.11
450.141	2433.33
450.347	2734.38
450.553	2695.47
450.76	2734.38
450.966	2812.2
451.172	3008.81
451.378	3162.41
451.584	3111.21
451.791	3424.55
451.997	3522.85
452.203	3524.9
452.409	3922.2
452.615	3840.28
452.821	3903.77
453.027	3897.63
453.233	4415.76
453.44	4155.67
453.646	4380.95
453.852	4552.98
454.058	4749.58
454.264	4950.28
454.47	5372.16
454.676	5208.33
454.882	5783.81
455.088	5507.33
455.294	5771.52
455.5	6226.17
455.705	6342.9
455.911	6576.37
456.117	6680.82
456.323	6846.7
456.529	6795.5
456.735	7635.17
456.941	7925.98
457.147	8132.83
457.352	8364.25
457.558	8493.27
457.764	8988.88
457.97	9496.77
458.176	9824.45
458.381	9961.66
458.587	10436.79
458.793	10617.01
458.999	10703.03
459.204	12220.57
459.41	12443.8
459.616	12208.28
459.821	13308.04
460.027	13693.06
460.233	14456.95
460.438	14344.31
460.644	15161.45
460.85	15513.7
461.055	16115.81
461.261	16834.64
461.466	16556.12
461.672	16685.14
461.878	18700.34
462.083	18608.19
462.289	18815.03
462.494	19572.78
462.7	19748.9
462.905	20052
463.111	21792.78
463.316	22792.19
463.522	23025.65
463.727	23902.18
463.932	25073.62
464.138	25427.92
464.343	26460.1
464.549	26697.66
464.754	29061.02
464.959	29378.45
465.165	29872.01
465.37	29783.95
465.575	29798.29
465.781	31862.64
465.986	32995.17
466.191	31782.77
466.397	32657.25
466.602	31647.6
466.807	33472.34
467.012	34137.93
467.218	34680.64
467.423	34821.95
467.628	35694.39
467.833	37707.54
468.038	37007.14
468.244	36495.14
