Data from USB4F104151__63__10-26-48-725.txt Node

Date: Wed Feb 26 10:26:48 EST 2025
User: louis
Spectrometer: USB4F10415
Trigger mode: 4
Integration Time (sec): 1.000000E-1
Scans to average: 1
Electric dark correction enabled: true
Nonlinearity correction enabled: false
Boxcar width: 0
XAxis mode: Wavelengths
Number of Pixels in Spectrum: 3648
>>>>>Begin Spectral Data<<<<<
178.204	-359.93
178.424	-359.93
178.644	-359.93
178.864	-370.17
179.084	-384.51
179.304	-13.82
179.524	-105.98
179.744	23.04
179.964	47.62
180.184	18.94
180.404	-19.97
180.624	14.85
180.844	-40.45
181.064	-40.45
181.283	72.19
181.503	10.75
181.723	33.28
181.943	-11.78
182.163	193.02
182.383	18.94
182.602	57.86
182.822	139.77
183.042	111.1
183.262	-60.93
183.482	2.56
183.701	66.05
183.921	-32.26
184.141	-97.79
184.361	-7.68
184.58	43.52
184.8	104.96
185.02	51.71
185.239	131.58
185.459	66.05
185.679	84.48
185.898	-40.45
186.118	8.7
186.338	119.29
186.557	86.53
186.777	-132.61
186.997	-28.16
187.216	49.66
187.436	190.97
187.655	59.9
187.875	70.14
188.095	12.8
188.314	180.73
188.534	119.29
188.753	16.9
188.973	109.05
189.192	96.77
189.412	82.43
189.631	23.04
189.851	57.86
190.07	150.01
190.29	-22.02
190.509	-36.35
190.729	25.09
190.948	94.72
191.168	205.31
191.387	102.91
191.607	-22.02
191.826	70.14
192.045	-7.68
192.265	23.04
192.484	57.86
192.704	8.7
192.923	-44.54
193.142	123.39
193.362	64
193.581	156.16
193.8	41.47
194.02	104.96
194.239	20.99
194.458	72.19
194.678	16.9
194.897	72.19
195.116	43.52
195.335	127.49
195.555	25.09
195.774	14.85
195.993	139.77
196.212	84.48
196.432	-11.78
196.651	31.23
196.87	41.47
197.089	256.51
197.308	-1.54
197.528	109.05
197.747	-75.26
197.966	68.09
198.185	160.25
198.404	-79.36
198.623	125.44
198.842	98.81
199.062	90.62
199.281	125.44
199.5	-19.97
199.719	158.21
199.938	49.66
200.157	109.05
200.376	88.57
200.595	88.57
200.814	18.94
201.033	18.94
201.252	174.59
201.471	64
201.69	102.91
201.909	41.47
202.128	84.48
202.347	150.01
202.566	78.33
202.785	-60.93
203.004	6.66
203.223	205.31
203.442	6.66
203.661	37.38
203.879	8.7
204.098	90.62
204.317	4.61
204.536	107.01
204.755	70.14
204.974	102.91
205.193	-7.68
205.411	123.39
205.63	145.92
205.849	84.48
206.068	-28.16
206.287	-112.13
206.505	160.25
206.724	4.61
206.943	8.7
207.162	-46.59
207.381	-15.87
207.599	37.38
207.818	61.95
208.037	-17.92
208.255	43.52
208.474	78.33
208.693	66.05
208.911	10.75
209.13	86.53
209.349	137.73
209.567	49.66
209.786	37.38
210.005	111.1
210.223	33.28
210.442	-103.93
210.661	-32.26
210.879	20.99
211.098	49.66
211.316	51.71
211.535	72.19
211.753	82.43
211.972	68.09
212.191	41.47
212.409	47.62
212.628	121.34
212.846	35.33
213.065	18.94
213.283	176.64
213.502	61.95
213.72	92.67
213.938	25.09
214.157	-3.58
214.375	41.47
214.594	8.7
214.812	18.94
215.031	111.1
215.249	45.57
215.467	47.62
215.686	43.52
215.904	117.25
216.122	-38.4
216.341	209.4
216.559	27.14
216.778	104.96
216.996	129.53
217.214	10.75
217.432	45.57
217.651	-99.84
217.869	51.71
218.087	80.38
218.306	-48.64
218.524	12.8
218.742	14.85
218.96	100.86
219.179	-50.69
219.397	86.53
219.615	229.88
219.833	98.81
220.051	53.76
220.27	104.96
220.488	139.77
220.706	10.75
220.924	-77.31
221.142	35.33
221.36	125.44
221.578	90.62
221.796	41.47
222.015	39.42
222.233	135.68
222.451	215.55
222.669	-22.02
222.887	37.38
223.105	-58.88
223.323	0.51
223.541	-40.45
223.759	-40.45
223.977	80.38
224.195	145.92
224.413	96.77
224.631	20.99
224.849	25.09
225.067	137.73
225.285	-95.74
225.503	57.86
225.721	-99.84
225.939	29.18
226.157	18.94
226.375	246.27
226.592	37.38
226.81	66.05
227.028	104.96
227.246	170.49
227.464	86.53
227.682	111.1
227.9	41.47
228.117	35.33
228.335	-1.54
228.553	74.24
228.771	20.99
228.989	107.01
229.206	115.2
229.424	2.56
229.642	2.56
229.86	-50.69
230.077	109.05
230.295	123.39
230.513	152.06
230.731	57.86
230.948	248.32
231.166	145.92
231.384	16.9
231.601	-24.06
231.819	152.06
232.037	14.85
232.254	37.38
232.472	-42.5
232.689	14.85
232.907	129.53
233.125	2.56
233.342	-15.87
233.56	-22.02
233.777	31.23
233.995	-3.58
234.213	96.77
234.43	-1.54
234.648	-19.97
234.865	2.56
235.083	96.77
235.3	35.33
235.518	86.53
235.735	225.79
235.953	98.81
236.17	78.33
236.388	23.04
236.605	115.2
236.822	57.86
237.04	182.78
237.257	35.33
237.475	-24.06
237.692	2.56
237.909	61.95
238.127	-36.35
238.344	68.09
238.562	86.53
238.779	-3.58
238.996	-48.64
239.214	27.14
239.431	111.1
239.648	-19.97
239.865	66.05
240.083	90.62
240.3	-17.92
240.517	45.57
240.735	-5.63
240.952	166.4
241.169	16.9
241.386	94.72
241.603	29.18
241.821	-95.74
242.038	147.97
242.255	180.73
242.472	2.56
242.689	107.01
242.907	72.19
243.124	25.09
243.341	72.19
243.558	64
243.775	-65.02
243.992	-38.4
244.209	139.77
244.426	115.2
244.643	57.86
244.86	76.29
245.078	29.18
245.295	104.96
245.512	23.04
245.729	-1.54
245.946	123.39
246.163	86.53
246.38	14.85
246.597	45.57
246.814	39.42
247.031	90.62
247.248	59.9
247.464	61.95
247.681	156.16
247.898	166.4
248.115	117.25
248.332	-44.54
248.549	102.91
248.766	125.44
248.983	133.63
249.2	-34.3
249.417	80.38
249.633	57.86
249.85	117.25
250.067	-32.26
250.284	53.76
250.501	-19.97
250.717	76.29
250.934	-7.68
251.151	61.95
251.368	39.42
251.585	57.86
251.801	27.14
252.018	4.61
252.235	90.62
252.451	25.09
252.668	-17.92
252.885	115.2
253.102	20.99
253.318	29.18
253.535	39.42
253.752	25.09
253.968	-58.88
254.185	33.28
254.401	25.09
254.618	139.77
254.835	-3.58
255.051	76.29
255.268	49.66
255.484	29.18
255.701	-26.11
255.917	39.42
256.134	-101.89
256.351	100.86
256.567	0.51
256.784	57.86
257	-38.4
257.217	145.92
257.433	53.76
257.65	35.33
257.866	186.88
258.082	8.7
258.299	39.42
258.515	61.95
258.732	33.28
258.948	-38.4
259.165	133.63
259.381	-99.84
259.597	74.24
259.814	-1.54
260.03	76.29
260.246	-24.06
260.463	199.16
260.679	82.43
260.895	59.9
261.112	20.99
261.328	25.09
261.544	-13.82
261.761	135.68
261.977	-5.63
262.193	-24.06
262.409	49.66
262.626	4.61
262.842	90.62
263.058	68.09
263.274	57.86
263.49	59.9
263.707	121.34
263.923	152.06
264.139	-118.27
264.355	35.33
264.571	135.68
264.787	-11.78
265.004	170.49
265.22	66.05
265.436	-19.97
265.652	23.04
265.868	57.86
266.084	-52.74
266.3	14.85
266.516	-58.88
266.732	8.7
266.948	37.38
267.164	45.57
267.38	74.24
267.596	82.43
267.812	199.16
268.028	-3.58
268.244	0.51
268.46	96.77
268.676	-3.58
268.892	57.86
269.108	55.81
269.324	0.51
269.54	0.51
269.756	86.53
269.972	16.9
270.188	-42.5
270.403	-89.6
270.619	51.71
270.835	57.86
271.051	84.48
271.267	14.85
271.483	-65.02
271.698	100.86
271.914	96.77
272.13	88.57
272.346	-3.58
272.562	55.81
272.777	150.01
272.993	64
273.209	4.61
273.425	100.86
273.64	-46.59
273.856	109.05
274.072	8.7
274.287	-48.64
274.503	80.38
274.719	135.68
274.934	51.71
275.15	25.09
275.366	31.23
275.581	31.23
275.797	72.19
276.012	-9.73
276.228	0.51
276.444	-69.12
276.659	121.34
276.875	6.66
277.09	-5.63
277.306	43.52
277.521	107.01
277.737	33.28
277.952	47.62
278.168	43.52
278.383	41.47
278.599	-11.78
278.814	123.39
279.03	41.47
279.245	49.66
279.461	72.19
279.676	150.01
279.892	-101.89
280.107	-79.36
280.322	-50.69
280.538	107.01
280.753	12.8
280.969	45.57
281.184	70.14
281.399	158.21
281.615	-3.58
281.83	78.33
282.045	-65.02
282.26	-13.82
282.476	53.76
282.691	123.39
282.906	100.86
283.122	37.38
283.337	-19.97
283.552	84.48
283.767	20.99
283.983	139.77
284.198	-13.82
284.413	39.42
284.628	-19.97
284.843	68.09
285.058	41.47
285.274	90.62
285.489	-7.68
285.704	133.63
285.919	-13.82
286.134	2.56
286.349	57.86
286.564	-36.35
286.779	129.53
286.995	8.7
287.21	-120.32
287.425	76.29
287.64	14.85
287.855	90.62
288.07	-36.35
288.285	150.01
288.5	129.53
288.715	147.97
288.93	98.81
289.145	41.47
289.36	94.72
289.575	0.51
289.79	41.47
290.004	37.38
290.219	25.09
290.434	-122.37
290.649	4.61
290.864	-77.31
291.079	-1.54
291.294	123.39
291.509	29.18
291.724	45.57
291.938	59.9
292.153	72.19
292.368	74.24
292.583	23.04
292.798	61.95
293.012	84.48
293.227	61.95
293.442	10.75
293.657	72.19
293.871	176.64
294.086	113.15
294.301	141.82
294.516	137.73
294.73	27.14
294.945	-75.26
295.16	-26.11
295.374	178.69
295.589	162.3
295.804	-38.4
296.018	-15.87
296.233	162.3
296.447	96.77
296.662	-11.78
296.877	41.47
297.091	131.58
297.306	53.76
297.52	41.47
297.735	70.14
297.949	47.62
298.164	82.43
298.378	-15.87
298.593	-36.35
298.807	-36.35
299.022	-9.73
299.236	111.1
299.451	-5.63
299.665	53.76
299.88	49.66
300.094	88.57
300.309	66.05
300.523	68.09
300.737	31.23
300.952	51.71
301.166	57.86
301.381	-5.63
301.595	-19.97
301.809	41.47
302.024	45.57
302.238	74.24
302.452	133.63
302.667	61.95
302.881	115.2
303.095	59.9
303.309	74.24
303.524	-54.78
303.738	27.14
303.952	29.18
304.166	82.43
304.381	-95.74
304.595	209.4
304.809	25.09
305.023	49.66
305.237	-87.55
305.452	-87.55
305.666	117.25
305.88	51.71
306.094	119.29
306.308	64
306.522	29.18
306.736	45.57
306.95	127.49
307.164	82.43
307.379	12.8
307.593	131.58
307.807	137.73
308.021	104.96
308.235	133.63
308.449	-65.02
308.663	-48.64
308.877	276.99
309.091	72.19
309.305	117.25
309.519	-101.89
309.733	248.32
309.947	-112.13
310.161	55.81
310.374	104.96
310.588	64
310.802	-17.92
311.016	4.61
311.23	88.57
311.444	-71.17
311.658	33.28
311.872	115.2
312.085	141.82
312.299	102.91
312.513	127.49
312.727	-15.87
312.941	-5.63
313.154	51.71
313.368	39.42
313.582	-26.11
313.796	68.09
314.009	74.24
314.223	166.4
314.437	131.58
314.651	86.53
314.864	55.81
315.078	14.85
315.292	-24.06
315.505	-26.11
315.719	82.43
315.933	139.77
316.146	-38.4
316.36	-67.07
316.573	125.44
316.787	53.76
317.001	-19.97
317.214	-19.97
317.428	4.61
317.641	-71.17
317.855	14.85
318.068	6.66
318.282	23.04
318.495	180.73
318.709	59.9
318.922	-5.63
319.136	158.21
319.349	133.63
319.563	16.9
319.776	68.09
319.99	33.28
320.203	147.97
320.417	16.9
320.63	102.91
320.843	172.54
321.057	107.01
321.27	57.86
321.483	31.23
321.697	156.16
321.91	107.01
322.124	57.86
322.337	96.77
322.55	-69.12
322.763	72.19
322.977	-19.97
323.19	25.09
323.403	70.14
323.617	68.09
323.83	102.91
324.043	49.66
324.256	72.19
324.469	-71.17
324.683	70.14
324.896	8.7
325.109	-26.11
325.322	-81.41
325.535	90.62
325.748	121.34
325.962	57.86
326.175	55.81
326.388	51.71
326.601	-5.63
326.814	25.09
327.027	-7.68
327.24	170.49
327.453	-44.54
327.666	82.43
327.879	166.4
328.092	147.97
328.305	111.1
328.518	29.18
328.731	39.42
328.944	-56.83
329.157	78.33
329.37	-17.92
329.583	199.16
329.796	199.16
330.009	-60.93
330.222	78.33
330.435	104.96
330.648	84.48
330.861	16.9
331.073	55.81
331.286	113.15
331.499	-13.82
331.712	41.47
331.925	107.01
332.138	66.05
332.35	111.1
332.563	-5.63
332.776	162.3
332.989	-50.69
333.202	-44.54
333.414	74.24
333.627	113.15
333.84	59.9
334.053	-7.68
334.265	10.75
334.478	49.66
334.691	-5.63
334.903	66.05
335.116	0.51
335.329	10.75
335.541	45.57
335.754	139.77
335.966	51.71
336.179	66.05
336.392	25.09
336.604	-71.17
336.817	74.24
337.029	141.82
337.242	125.44
337.454	14.85
337.667	61.95
337.88	238.08
338.092	61.95
338.305	16.9
338.517	78.33
338.729	133.63
338.942	190.97
339.154	10.75
339.367	-17.92
339.579	33.28
339.792	-19.97
340.004	66.05
340.217	35.33
340.429	-24.06
340.641	-114.17
340.854	-15.87
341.066	-5.63
341.278	64
341.491	131.58
341.703	33.28
341.915	27.14
342.128	141.82
342.34	80.38
342.552	-32.26
342.764	76.29
342.977	8.7
343.189	76.29
343.401	61.95
343.613	12.8
343.826	139.77
344.038	-71.17
344.25	0.51
344.462	20.99
344.674	141.82
344.886	115.2
345.099	84.48
345.311	25.09
345.523	8.7
345.735	-71.17
345.947	-36.35
346.159	68.09
346.371	14.85
346.583	100.86
346.795	238.08
347.007	102.91
347.219	96.77
347.431	76.29
347.643	129.53
347.855	-13.82
348.067	84.48
348.279	4.61
348.491	55.81
348.703	53.76
348.915	8.7
349.127	-32.26
349.339	23.04
349.551	-30.21
349.763	147.97
349.975	80.38
350.187	162.3
350.399	111.1
350.61	64
350.822	6.66
351.034	68.09
351.246	51.71
351.458	61.95
351.669	78.33
351.881	53.76
352.093	199.16
352.305	154.11
352.517	53.76
352.728	68.09
352.94	90.62
353.152	14.85
353.363	6.66
353.575	66.05
353.787	229.88
353.999	113.15
354.21	195.07
354.422	4.61
354.633	-75.26
354.845	70.14
355.057	10.75
355.268	12.8
355.48	78.33
355.692	33.28
355.903	80.38
356.115	14.85
356.326	-114.17
356.538	119.29
356.749	43.52
356.961	162.3
357.172	25.09
357.384	-36.35
357.595	188.93
357.807	-3.58
358.018	68.09
358.23	133.63
358.441	84.48
358.653	160.25
358.864	80.38
359.075	-36.35
359.287	64
359.498	141.82
359.709	61.95
359.921	6.66
360.132	80.38
360.344	78.33
360.555	12.8
360.766	-26.11
360.977	14.85
361.189	61.95
361.4	12.8
361.611	31.23
361.823	45.57
362.034	8.7
362.245	-26.11
362.456	16.9
362.667	33.28
362.879	23.04
363.09	66.05
363.301	135.68
363.512	82.43
363.723	57.86
363.935	53.76
364.146	80.38
364.357	-5.63
364.568	-7.68
364.779	20.99
364.99	143.87
365.201	-38.4
365.412	160.25
365.623	-52.74
365.834	90.62
366.045	78.33
366.256	123.39
366.467	127.49
366.678	61.95
366.889	59.9
367.1	-9.73
367.311	117.25
367.522	-7.68
367.733	57.86
367.944	59.9
368.155	29.18
368.366	39.42
368.577	143.87
368.788	141.82
368.999	8.7
369.209	53.76
369.42	303.61
369.631	262.65
369.842	80.38
370.053	6.66
370.264	154.11
370.474	-46.59
370.685	20.99
370.896	78.33
371.107	113.15
371.317	31.23
371.528	53.76
371.739	82.43
371.95	74.24
372.16	55.81
372.371	51.71
372.582	102.91
372.792	70.14
373.003	-11.78
373.214	86.53
373.424	115.2
373.635	-38.4
373.846	129.53
374.056	31.23
374.267	74.24
374.477	18.94
374.688	47.62
374.898	121.34
375.109	16.9
375.319	90.62
375.53	27.14
375.74	70.14
375.951	-22.02
376.161	74.24
376.372	168.45
376.582	-32.26
376.793	23.04
377.003	-44.54
377.214	-7.68
377.424	84.48
377.635	33.28
377.845	45.57
378.055	109.05
378.266	-28.16
378.476	39.42
378.686	82.43
378.897	61.95
379.107	94.72
379.317	59.9
379.528	29.18
379.738	59.9
379.948	-38.4
380.158	117.25
380.369	41.47
380.579	141.82
380.789	113.15
380.999	68.09
381.21	178.69
381.42	176.64
381.63	127.49
381.84	96.77
382.05	64
382.261	147.97
382.471	137.73
382.681	74.24
382.891	182.78
383.101	59.9
383.311	-1.54
383.521	37.38
383.731	172.54
383.941	80.38
384.151	119.29
384.361	-19.97
384.571	98.81
384.781	12.8
384.991	201.21
385.201	178.69
385.411	51.71
385.621	121.34
385.831	92.67
386.041	135.68
386.251	57.86
386.461	78.33
386.671	41.47
386.881	150.01
387.091	78.33
387.301	98.81
387.511	25.09
387.72	123.39
387.93	72.19
388.14	-60.93
388.35	90.62
388.56	109.05
388.769	186.88
388.979	-1.54
389.189	45.57
389.399	4.61
389.609	131.58
389.818	51.71
390.028	88.57
390.238	74.24
390.447	47.62
390.657	76.29
390.867	23.04
391.076	-36.35
391.286	-11.78
391.496	37.38
391.705	25.09
391.915	137.73
392.125	115.2
392.334	-19.97
392.544	164.35
392.753	41.47
392.963	-60.93
393.172	72.19
393.382	-50.69
393.591	195.07
393.801	-48.64
394.01	182.78
394.22	139.77
394.429	37.38
394.639	90.62
394.848	61.95
395.058	51.71
395.267	33.28
395.477	49.66
395.686	-19.97
395.895	150.01
396.105	145.92
396.314	113.15
396.524	33.28
396.733	-22.02
396.942	199.16
397.152	113.15
397.361	64
397.57	55.81
397.78	-28.16
397.989	6.66
398.198	170.49
398.407	27.14
398.617	-9.73
398.826	41.47
399.035	10.75
399.244	96.77
399.453	45.57
399.663	57.86
399.872	92.67
400.081	-56.83
400.29	178.69
400.499	12.8
400.708	70.14
400.917	61.95
401.127	33.28
401.336	70.14
401.545	143.87
401.754	94.72
401.963	166.4
402.172	35.33
402.381	16.9
402.59	76.29
402.799	41.47
403.008	100.86
403.217	107.01
403.426	6.66
403.635	-28.16
403.844	109.05
404.053	-3.58
404.262	70.14
404.471	190.97
404.68	20.99
404.888	90.62
405.097	152.06
405.306	68.09
405.515	68.09
405.724	59.9
405.933	125.44
406.142	41.47
406.35	180.73
406.559	78.33
406.768	25.09
406.977	180.73
407.185	96.77
407.394	137.73
407.603	-75.26
407.812	70.14
408.02	139.77
408.229	49.66
408.438	68.09
408.646	-15.87
408.855	47.62
409.064	64
409.272	86.53
409.481	115.2
409.69	-44.54
409.898	18.94
410.107	59.9
410.315	94.72
410.524	-28.16
410.733	80.38
410.941	35.33
411.15	33.28
411.358	47.62
411.567	109.05
411.775	76.29
411.984	31.23
412.192	145.92
412.401	-7.68
412.609	135.68
412.818	107.01
413.026	31.23
413.234	37.38
413.443	59.9
413.651	-65.02
413.86	59.9
414.068	104.96
414.276	156.16
414.485	27.14
414.693	133.63
414.901	141.82
415.11	45.57
415.318	-19.97
415.526	35.33
415.734	107.01
415.943	121.34
416.151	141.82
416.359	57.86
416.567	139.77
416.776	68.09
416.984	139.77
417.192	238.08
417.4	0.51
417.608	-11.78
417.817	-5.63
418.025	94.72
418.233	199.16
418.441	-13.82
418.649	-19.97
418.857	37.38
419.065	184.83
419.273	29.18
419.481	31.23
419.689	27.14
419.897	29.18
420.105	59.9
420.313	90.62
420.521	160.25
420.729	113.15
420.937	-15.87
421.145	64
421.353	174.59
421.561	131.58
421.769	68.09
421.977	80.38
422.185	94.72
422.393	31.23
422.601	154.11
422.809	84.48
423.017	129.53
423.224	68.09
423.432	133.63
423.64	66.05
423.848	147.97
424.056	33.28
424.263	162.3
424.471	35.33
424.679	182.78
424.887	20.99
425.094	64
425.302	90.62
425.51	43.52
425.718	121.34
425.925	143.87
426.133	27.14
426.341	188.93
426.548	117.25
426.756	-30.21
426.964	102.91
427.171	-5.63
427.379	94.72
427.586	74.24
427.794	96.77
428.001	129.53
428.209	90.62
428.417	123.39
428.624	184.83
428.832	43.52
429.039	109.05
429.247	80.38
429.454	178.69
429.662	184.83
429.869	133.63
430.076	107.01
430.284	131.58
430.491	197.12
430.699	168.45
430.906	213.5
431.114	111.1
431.321	125.44
431.528	115.2
431.736	143.87
431.943	238.08
432.15	127.49
432.358	246.27
432.565	213.5
432.772	57.86
432.979	244.22
433.187	98.81
433.394	170.49
433.601	139.77
433.808	213.5
434.016	219.64
434.223	217.6
434.43	143.87
434.637	262.65
434.844	272.89
435.052	213.5
435.259	211.45
435.466	293.37
435.673	231.93
435.88	209.4
436.087	344.57
436.294	336.38
436.501	188.93
436.708	207.36
436.915	315.9
437.122	311.8
437.329	231.93
437.537	403.96
437.743	328.19
437.95	346.62
438.157	414.2
438.364	346.62
438.571	358.91
438.778	379.39
438.985	430.59
439.192	473.59
439.399	373.24
439.606	461.3
439.813	465.4
440.02	608.76
440.227	522.74
440.433	602.61
440.64	489.98
440.847	504.31
441.054	524.79
441.261	664.05
441.467	483.83
441.674	535.03
441.881	715.25
442.088	502.26
442.294	692.73
442.501	737.78
442.708	764.4
442.914	698.87
443.121	831.99
443.328	713.21
443.534	911.86
443.741	797.17
443.948	782.84
444.154	905.71
444.361	1169.9
444.568	993.78
444.774	1081.84
444.981	874.99
445.187	1096.18
445.394	1124.85
445.6	997.87
445.807	1292.78
446.013	1165.81
446.22	1239.53
446.426	1315.31
446.633	1417.71
446.839	1522.15
447.046	1278.44
447.252	1550.82
447.459	1389.03
447.665	1475.05
447.871	1653.22
448.078	1837.54
448.284	1712.61
448.491	1833.44
448.697	1909.22
448.903	1999.33
449.11	2114.02
449.316	2017.76
449.522	2212.32
449.728	2226.65
449.935	2367.96
450.141	2322.91
450.347	2562.52
450.553	2456.03
450.76	2484.7
450.966	2675.16
451.172	2795.99
451.378	2886.1
451.584	2898.39
451.791	3224.01
451.997	3353.04
452.203	3310.03
452.409	3494.35
452.615	3631.56
452.821	3420.62
453.027	3514.83
453.233	3922.37
453.44	3957.19
453.646	4118.98
453.852	4325.82
454.058	4616.63
454.264	4534.71
454.47	4831.67
454.676	4874.68
454.882	5362.09
455.088	5259.7
455.294	5284.27
455.5	5628.33
455.705	5927.33
455.911	6035.88
456.117	6142.37
456.323	6386.08
456.529	6420.89
456.735	7137.68
456.941	7129.49
457.147	7383.44
457.352	7586.19
457.558	7803.27
457.764	8364.42
457.97	8501.63
458.176	8700.28
458.381	9193.84
458.587	9462.13
458.793	9933.16
458.999	9800.04
459.204	11108.69
459.41	11630.93
459.616	11528.53
459.821	11985.23
460.027	12198.21
460.233	13033.79
460.438	12923.19
460.644	13766.96
460.85	14049.58
461.055	14649.63
461.261	15233.3
461.466	14831.9
461.672	15149.34
461.878	16967.93
462.083	16845.05
462.289	17060.09
462.494	17823.98
462.7	18041.07
462.905	18432.23
463.111	19562.71
463.316	20814.02
463.522	21012.67
463.727	21510.33
463.932	22640.81
464.138	23152.8
464.343	23902.36
464.549	24137.87
464.754	26142.83
464.959	26759.27
465.165	27015.27
465.37	27203.68
465.575	26869.86
465.781	28657.74
465.986	29517.89
466.191	29538.37
466.397	29319.23
466.602	28735.56
466.807	30439.47
467.012	30947.37
467.218	31168.55
467.423	31242.28
467.628	32286.74
467.833	34260.98
468.038	33212.42
468.244	32557.07
468.449	34541.55
468.654	33630.21
468.859	33785.85
