Data from USB4F104151__96__11-31-46-958.txt Node

Date: Wed Feb 26 11:31:46 EST 2025
User: louis
Spectrometer: USB4F10415
Trigger mode: 4
Integration Time (sec): 1.000000E-1
Scans to average: 1
Electric dark correction enabled: true
Nonlinearity correction enabled: false
Boxcar width: 0
XAxis mode: Wavelengths
Number of Pixels in Spectrum: 3648
>>>>>Begin Spectral Data<<<<<
178.204	-387.24
178.424	-387.24
178.644	-387.24
178.864	-428.2
179.084	-448.68
179.304	1.88
179.524	-16.55
179.744	-14.51
179.964	42.84
180.184	-41.13
180.404	75.6
180.624	18.26
180.844	-57.51
181.064	-92.33
181.283	51.03
181.503	-16.55
181.723	48.98
181.943	-53.42
182.163	163.67
182.383	46.93
182.602	28.5
182.822	73.56
183.042	20.31
183.262	-57.51
183.482	-28.84
183.701	42.84
183.921	1.88
184.141	-14.51
184.361	40.79
184.58	57.17
184.8	116.56
185.02	-39.08
185.239	59.22
185.459	83.8
185.679	83.8
185.898	-65.71
186.118	36.69
186.338	81.75
186.557	143.19
186.777	-75.95
186.997	30.55
187.216	65.36
187.436	165.71
187.655	55.12
187.875	139.09
188.095	106.32
188.314	42.84
188.534	116.56
188.753	-123.05
188.973	110.42
189.192	120.66
189.412	3.93
189.631	22.36
189.851	14.17
190.07	178
190.29	-53.42
190.509	51.03
190.729	38.74
190.948	155.47
191.168	253.78
191.387	106.32
191.607	-18.6
191.826	98.13
192.045	-14.51
192.265	26.45
192.484	75.6
192.704	16.21
192.923	-45.23
193.142	94.04
193.362	180.05
193.581	198.48
193.8	46.93
194.02	102.23
194.239	20.31
194.458	55.12
194.678	73.56
194.897	-2.22
195.116	71.51
195.335	26.45
195.555	79.7
195.774	32.6
195.993	98.13
196.212	-26.79
196.432	-47.27
196.651	91.99
196.87	24.4
197.089	253.78
197.308	10.07
197.528	12.12
197.747	-32.94
197.966	59.22
198.185	89.94
198.404	1.88
198.623	110.42
198.842	100.18
199.062	46.93
199.281	169.81
199.5	55.12
199.719	100.18
199.938	65.36
200.157	89.94
200.376	137.04
200.595	79.7
200.814	55.12
201.033	-18.6
201.252	159.57
201.471	61.27
201.69	55.12
201.909	-10.41
202.128	61.27
202.347	122.71
202.566	5.97
202.785	-65.71
203.004	38.74
203.223	302.93
203.442	-2.22
203.661	-90.28
203.879	-34.99
204.098	130.9
204.317	-98.47
204.536	51.03
204.755	22.36
204.974	104.28
205.193	26.45
205.411	120.66
205.63	100.18
205.849	38.74
206.068	-61.61
206.287	-30.89
206.505	114.52
206.724	14.17
206.943	24.4
207.162	-30.89
207.381	55.12
207.599	-12.46
207.818	26.45
208.037	-10.41
208.255	36.69
208.474	81.75
208.693	85.84
208.911	5.97
209.13	94.04
209.349	106.32
209.567	96.08
209.786	5.97
210.005	102.23
210.223	-4.27
210.442	-94.38
210.661	73.56
210.879	122.71
211.098	3.93
211.316	12.12
211.535	63.32
211.753	40.79
211.972	118.61
212.191	3.93
212.409	55.12
212.628	96.08
212.846	-18.6
213.065	38.74
213.283	79.7
213.502	67.41
213.72	-30.89
213.938	-6.31
214.157	36.69
214.375	55.12
214.594	32.6
214.812	5.97
215.031	-16.55
215.249	83.8
215.467	-12.46
215.686	26.45
215.904	-6.31
216.122	-39.08
216.341	159.57
216.559	18.26
216.778	194.39
216.996	124.76
217.214	24.4
217.432	18.26
217.651	-47.27
217.869	65.36
218.087	-8.36
218.306	53.08
218.524	104.28
218.742	-14.51
218.96	120.66
219.179	120.66
219.397	1.88
219.615	239.44
219.833	81.75
220.051	-22.7
220.27	180.05
220.488	110.42
220.706	53.08
220.924	-53.42
221.142	1.88
221.36	63.32
221.578	77.65
221.796	53.08
222.015	51.03
222.233	89.94
222.451	108.37
222.669	36.69
222.887	81.75
223.105	1.88
223.323	61.27
223.541	-45.23
223.759	116.56
223.977	114.52
224.195	206.67
224.413	81.75
224.631	40.79
224.849	118.61
225.067	214.87
225.285	24.4
225.503	-8.36
225.721	-67.75
225.939	67.41
226.157	14.17
226.375	186.19
226.592	-77.99
226.81	-20.65
227.028	108.37
227.246	81.75
227.464	122.71
227.682	155.47
227.9	59.22
228.117	63.32
228.335	120.66
228.553	20.31
228.771	-16.55
228.989	36.69
229.206	87.89
229.424	98.13
229.642	65.36
229.86	-45.23
230.077	102.23
230.295	59.22
230.513	171.86
230.731	10.07
230.948	141.14
231.166	231.25
231.384	14.17
231.601	-10.41
231.819	200.53
232.037	1.88
232.254	65.36
232.472	30.55
232.689	12.12
232.907	124.76
233.125	12.12
233.342	-6.31
233.56	-49.32
233.777	-6.31
233.995	51.03
234.213	91.99
234.43	89.94
234.648	55.12
234.865	71.51
235.083	38.74
235.3	61.27
235.518	38.74
235.735	130.9
235.953	30.55
236.17	102.23
236.388	-30.89
236.605	32.6
236.822	96.08
237.04	55.12
237.257	102.23
237.475	1.88
237.692	36.69
237.909	102.23
238.127	28.5
238.344	81.75
238.562	100.18
238.779	-34.99
238.996	-49.32
239.214	-4.27
239.431	71.51
239.648	10.07
239.865	139.09
240.083	118.61
240.3	-18.6
240.517	14.17
240.735	71.51
240.952	122.71
241.169	87.89
241.386	42.84
241.603	65.36
241.821	10.07
242.038	169.81
242.255	184.15
242.472	14.17
242.689	67.41
242.907	118.61
243.124	-8.36
243.341	24.4
243.558	14.17
243.775	-37.03
243.992	-65.71
244.209	34.64
244.426	118.61
244.643	53.08
244.86	112.47
245.078	46.93
245.295	48.98
245.512	10.07
245.729	-10.41
245.946	16.21
246.163	71.51
246.38	-32.94
246.597	51.03
246.814	1.88
247.031	44.88
247.248	75.6
247.464	48.98
247.681	44.88
247.898	5.97
248.115	36.69
248.332	-73.9
248.549	132.95
248.766	184.15
248.983	75.6
249.2	128.85
249.417	151.38
249.633	12.12
249.85	102.23
250.067	81.75
250.284	65.36
250.501	48.98
250.717	87.89
250.934	-6.31
251.151	1.88
251.368	-12.46
251.585	98.13
251.801	71.51
252.018	-100.52
252.235	126.8
252.451	-37.03
252.668	40.79
252.885	87.89
253.102	34.64
253.318	12.12
253.535	-18.6
253.752	3.93
253.968	8.02
254.185	-16.55
254.401	28.5
254.618	112.47
254.835	-53.42
255.051	110.42
255.268	-4.27
255.484	91.99
255.701	71.51
255.917	-24.75
256.134	-55.47
256.351	67.41
256.567	-86.19
256.784	102.23
257	-16.55
257.217	116.56
257.433	18.26
257.65	22.36
257.866	153.43
258.082	-26.79
258.299	22.36
258.515	42.84
258.732	-41.13
258.948	42.84
259.165	32.6
259.381	-94.38
259.597	182.1
259.814	-16.55
260.03	-10.41
260.246	18.26
260.463	178
260.679	141.14
260.895	104.28
261.112	-10.41
261.328	5.97
261.544	-47.27
261.761	206.67
261.977	-14.51
262.193	14.17
262.409	79.7
262.626	8.02
262.842	-20.65
263.058	42.84
263.274	91.99
263.49	69.46
263.707	98.13
263.923	53.08
264.139	-129.19
264.355	65.36
264.571	202.58
264.787	71.51
265.004	126.8
265.22	38.74
265.436	-63.66
265.652	51.03
265.868	36.69
266.084	-61.61
266.3	44.88
266.516	-20.65
266.732	16.21
266.948	28.5
267.164	-32.94
267.38	77.65
267.596	20.31
267.812	135
268.028	28.5
268.244	40.79
268.46	75.6
268.676	-18.6
268.892	57.17
269.108	-26.79
269.324	-10.41
269.54	-43.18
269.756	48.98
269.972	-2.22
270.188	8.02
270.403	-24.75
270.619	89.94
270.835	114.52
271.051	51.03
271.267	-10.41
271.483	28.5
271.698	106.32
271.914	69.46
272.13	128.85
272.346	22.36
272.562	44.88
272.777	143.19
272.993	14.17
273.209	24.4
273.425	102.23
273.64	-14.51
273.856	155.47
274.072	-14.51
274.287	-39.08
274.503	63.32
274.719	79.7
274.934	3.93
275.15	-26.79
275.366	110.42
275.581	32.6
275.797	18.26
276.012	63.32
276.228	14.17
276.444	67.41
276.659	48.98
276.875	-69.8
277.09	51.03
277.306	18.26
277.521	100.18
277.737	-12.46
277.952	132.95
278.168	65.36
278.383	100.18
278.599	22.36
278.814	28.5
279.03	-16.55
279.245	94.04
279.461	-12.46
279.676	98.13
279.892	-53.42
280.107	-82.09
280.322	-32.94
280.538	-8.36
280.753	-32.94
280.969	34.64
281.184	65.36
281.399	163.67
281.615	87.89
281.83	71.51
282.045	-32.94
282.26	-65.71
282.476	-28.84
282.691	73.56
282.906	77.65
283.122	55.12
283.337	-49.32
283.552	20.31
283.767	-41.13
283.983	71.51
284.198	36.69
284.413	130.9
284.628	-98.47
284.843	51.03
285.058	104.28
285.274	16.21
285.489	-71.85
285.704	96.08
285.919	22.36
286.134	-34.99
286.349	71.51
286.564	-8.36
286.779	61.27
286.995	57.17
287.21	16.21
287.425	63.32
287.64	-2.22
287.855	79.7
288.07	-45.23
288.285	57.17
288.5	141.14
288.715	100.18
288.93	-26.79
289.145	-67.75
289.36	114.52
289.575	-2.22
289.79	94.04
290.004	-24.75
290.219	83.8
290.434	-26.79
290.649	46.93
290.864	-55.47
291.079	-22.7
291.294	42.84
291.509	81.75
291.724	-75.95
291.938	12.12
292.153	42.84
292.368	-6.31
292.583	67.41
292.798	65.36
293.012	94.04
293.227	18.26
293.442	-57.51
293.657	69.46
293.871	110.42
294.086	42.84
294.301	180.05
294.516	171.86
294.73	91.99
294.945	40.79
295.16	20.31
295.374	137.04
295.589	116.56
295.804	32.6
296.018	96.08
296.233	94.04
296.447	46.93
296.662	-18.6
296.877	116.56
297.091	48.98
297.306	69.46
297.52	-43.18
297.735	36.69
297.949	10.07
298.164	48.98
298.378	73.56
298.593	-20.65
298.807	-34.99
299.022	63.32
299.236	85.84
299.451	53.08
299.665	28.5
299.88	3.93
300.094	38.74
300.309	28.5
300.523	16.21
300.737	16.21
300.952	42.84
301.166	22.36
301.381	3.93
301.595	30.55
301.809	-12.46
302.024	79.7
302.238	-20.65
302.452	100.18
302.667	67.41
302.881	147.28
303.095	73.56
303.309	1.88
303.524	-12.46
303.738	40.79
303.952	-69.8
304.166	59.22
304.381	-47.27
304.595	110.42
304.809	-20.65
305.023	34.64
305.237	-43.18
305.452	22.36
305.666	77.65
305.88	65.36
306.094	112.47
306.308	38.74
306.522	75.6
306.736	65.36
306.95	161.62
307.164	28.5
307.379	32.6
307.593	116.56
307.807	137.04
308.021	61.27
308.235	151.38
308.449	-47.27
308.663	32.6
308.877	249.68
309.091	-34.99
309.305	38.74
309.519	-43.18
309.733	124.76
309.947	-96.43
310.161	63.32
310.374	36.69
310.588	122.71
310.802	-14.51
311.016	-16.55
311.23	98.13
311.444	-24.75
311.658	26.45
311.872	36.69
312.085	67.41
312.299	53.08
312.513	69.46
312.727	81.75
312.941	-43.18
313.154	112.47
313.368	73.56
313.582	14.17
313.796	61.27
314.009	8.02
314.223	157.52
314.437	98.13
314.651	-0.17
314.864	-10.41
315.078	67.41
315.292	18.26
315.505	-0.17
315.719	139.09
315.933	104.28
316.146	-55.47
316.36	-28.84
316.573	143.19
316.787	75.6
317.001	67.41
317.214	16.21
317.428	1.88
317.641	-41.13
317.855	-16.55
318.068	12.12
318.282	63.32
318.495	280.4
318.709	153.43
318.922	89.94
319.136	221.01
319.349	135
319.563	-20.65
319.776	79.7
319.99	-75.95
320.203	106.32
320.417	20.31
320.63	106.32
320.843	57.17
321.057	28.5
321.27	44.88
321.483	157.52
321.697	108.37
321.91	44.88
322.124	24.4
322.337	104.28
322.55	18.26
322.763	14.17
322.977	67.41
323.19	-12.46
323.403	61.27
323.617	57.17
323.83	94.04
324.043	-6.31
324.256	-14.51
324.469	-51.37
324.683	114.52
324.896	75.6
325.109	34.64
325.322	-28.84
325.535	98.13
325.748	65.36
325.962	1.88
326.175	87.89
326.388	89.94
326.601	145.24
326.814	3.93
327.027	102.23
327.24	243.54
327.453	-32.94
327.666	108.37
327.879	200.53
328.092	61.27
328.305	128.85
328.518	-24.75
328.731	10.07
328.944	-8.36
329.157	79.7
329.37	65.36
329.583	100.18
329.796	100.18
330.009	46.93
330.222	85.84
330.435	122.71
330.648	94.04
330.861	42.84
331.073	24.4
331.286	139.09
331.499	67.41
331.712	-0.17
331.925	73.56
332.138	24.4
332.35	77.65
332.563	3.93
332.776	124.76
332.989	-96.43
333.202	18.26
333.414	24.4
333.627	57.17
333.84	-8.36
334.053	30.55
334.265	-12.46
334.478	96.08
334.691	75.6
334.903	24.4
335.116	14.17
335.329	-10.41
335.541	75.6
335.754	143.19
335.966	55.12
336.179	53.08
336.392	104.28
336.604	1.88
336.817	159.57
337.029	48.98
337.242	42.84
337.454	151.38
337.667	30.55
337.88	186.19
338.092	18.26
338.305	87.89
338.517	-63.66
338.729	161.62
338.942	175.95
339.154	-98.47
339.367	-82.09
339.579	32.6
339.792	-63.66
340.004	96.08
340.217	40.79
340.429	155.47
340.641	20.31
340.854	8.02
341.066	-2.22
341.278	143.19
341.491	102.23
341.703	8.02
341.915	-12.46
342.128	116.56
342.34	32.6
342.552	-98.47
342.764	44.88
342.977	-28.84
343.189	77.65
343.401	75.6
343.613	-55.47
343.826	59.22
344.038	-24.75
344.25	71.51
344.462	38.74
344.674	-18.6
344.886	30.55
345.099	87.89
345.311	59.22
345.523	20.31
345.735	12.12
345.947	38.74
346.159	73.56
346.371	48.98
346.583	8.02
346.795	204.63
347.007	96.08
347.219	40.79
347.431	24.4
347.643	79.7
347.855	32.6
348.067	171.86
348.279	-98.47
348.491	53.08
348.703	96.08
348.915	67.41
349.127	5.97
349.339	3.93
349.551	-18.6
349.763	77.65
349.975	91.99
350.187	87.89
350.399	163.67
350.61	91.99
350.822	-4.27
351.034	24.4
351.246	57.17
351.458	10.07
351.669	26.45
351.881	100.18
352.093	206.67
352.305	182.1
352.517	69.46
352.728	122.71
352.94	40.79
353.152	91.99
353.363	-92.33
353.575	106.32
353.787	182.1
353.999	122.71
354.21	151.38
354.422	3.93
354.633	-18.6
354.845	-47.27
355.057	63.32
355.268	40.79
355.48	141.14
355.692	3.93
355.903	85.84
356.115	-0.17
356.326	-116.9
356.538	157.52
356.749	63.32
356.961	87.89
357.172	42.84
357.384	-47.27
357.595	237.39
357.807	-37.03
358.018	-14.51
358.23	61.27
358.441	91.99
358.653	42.84
358.864	-6.31
359.075	-2.22
359.287	100.18
359.498	155.47
359.709	87.89
359.921	51.03
360.132	83.8
360.344	1.88
360.555	-37.03
360.766	18.26
360.977	-41.13
361.189	81.75
361.4	12.12
361.611	141.14
361.823	81.75
362.034	94.04
362.245	-88.23
362.456	-6.31
362.667	42.84
362.879	-47.27
363.09	51.03
363.301	135
363.512	108.37
363.723	8.02
363.935	34.64
364.146	42.84
364.357	30.55
364.568	14.17
364.779	-30.89
364.99	75.6
365.201	-2.22
365.412	143.19
365.623	-141.48
365.834	22.36
366.045	18.26
366.256	182.1
366.467	20.31
366.678	32.6
366.889	-20.65
367.1	-75.95
367.311	149.33
367.522	-43.18
367.733	59.22
367.944	87.89
368.155	65.36
368.366	69.46
368.577	102.23
368.788	98.13
368.999	14.17
369.209	-12.46
369.42	155.47
369.631	270.16
369.842	116.56
370.053	40.79
370.264	87.89
370.474	-65.71
370.685	48.98
370.896	36.69
371.107	128.85
371.317	46.93
371.528	59.22
371.739	91.99
371.95	102.23
372.16	98.13
372.371	-4.27
372.582	-20.65
372.792	69.46
373.003	40.79
373.214	8.02
373.424	122.71
373.635	28.5
373.846	149.33
374.056	32.6
374.267	-20.65
374.477	71.51
374.688	53.08
374.898	59.22
375.109	32.6
375.319	5.97
375.53	116.56
375.74	51.03
375.951	38.74
376.161	141.14
376.372	96.08
376.582	1.88
376.793	38.74
377.003	-28.84
377.214	48.98
377.424	124.76
377.635	63.32
377.845	102.23
378.055	116.56
378.266	-18.6
378.476	-51.37
378.686	-92.33
378.897	38.74
379.107	57.17
379.317	147.28
379.528	-26.79
379.738	139.09
379.948	-30.89
380.158	89.94
380.369	91.99
380.579	51.03
380.789	-12.46
380.999	77.65
381.21	73.56
381.42	157.52
381.63	28.5
381.84	87.89
382.05	112.47
382.261	94.04
382.471	59.22
382.681	-37.03
382.891	153.43
383.101	42.84
383.311	-57.51
383.521	-45.23
383.731	100.18
383.941	65.36
384.151	-14.51
384.361	110.42
384.571	57.17
384.781	46.93
384.991	249.68
385.201	188.24
385.411	73.56
385.621	77.65
385.831	26.45
386.041	48.98
386.251	-12.46
386.461	75.6
386.671	69.46
386.881	3.93
387.091	10.07
387.301	141.14
387.511	46.93
387.72	-2.22
387.93	85.84
388.14	-88.23
388.35	85.84
388.56	137.04
388.769	96.08
388.979	40.79
389.189	-43.18
389.399	26.45
389.609	51.03
389.818	116.56
390.028	61.27
390.238	126.8
390.447	-45.23
390.657	132.95
390.867	-22.7
391.076	-84.14
391.286	137.04
391.496	67.41
391.705	28.5
391.915	108.37
392.125	130.9
392.334	14.17
392.544	182.1
392.753	71.51
392.963	-96.43
393.172	-2.22
393.382	42.84
393.591	173.91
393.801	-37.03
394.01	155.47
394.22	94.04
394.429	32.6
394.639	5.97
394.848	108.37
395.058	24.4
395.267	73.56
395.477	83.8
395.686	104.28
395.895	229.2
396.105	204.63
396.314	32.6
396.524	20.31
396.733	28.5
396.942	122.71
397.152	46.93
397.361	100.18
397.57	114.52
397.78	-63.66
397.989	44.88
398.198	208.72
398.407	87.89
398.617	46.93
398.826	38.74
399.035	42.84
399.244	112.47
399.453	8.02
399.663	67.41
399.872	104.28
400.081	-4.27
400.29	184.15
400.499	-8.36
400.708	91.99
400.917	-28.84
401.127	53.08
401.336	30.55
401.545	245.59
401.754	130.9
401.963	67.41
402.172	-41.13
402.381	-127.14
402.59	59.22
402.799	51.03
403.008	51.03
403.217	51.03
403.426	114.52
403.635	-24.75
403.844	30.55
404.053	26.45
404.262	16.21
404.471	165.71
404.68	51.03
404.888	71.51
405.097	-4.27
405.306	100.18
405.515	59.22
405.724	67.41
405.933	132.95
406.142	73.56
406.35	143.19
406.559	63.32
406.768	96.08
406.977	223.06
407.185	20.31
407.394	89.94
407.603	-65.71
407.812	59.22
408.02	71.51
408.229	14.17
408.438	169.81
408.646	-45.23
408.855	96.08
409.064	145.24
409.272	30.55
409.481	120.66
409.69	14.17
409.898	-53.42
410.107	79.7
410.315	87.89
410.524	-4.27
410.733	67.41
410.941	100.18
411.15	42.84
411.358	89.94
411.567	178
411.775	-67.75
411.984	81.75
412.192	145.24
412.401	34.64
412.609	147.28
412.818	100.18
413.026	83.8
413.234	38.74
413.443	110.42
413.651	-26.79
413.86	18.26
414.068	124.76
414.276	151.38
414.485	-43.18
414.693	139.09
414.901	141.14
415.11	8.02
415.318	46.93
415.526	-10.41
415.734	135
415.943	75.6
416.151	149.33
416.359	48.98
416.567	65.36
416.776	67.41
416.984	96.08
417.192	165.71
417.4	85.84
417.608	-22.7
417.817	-41.13
418.025	91.99
418.233	184.15
418.441	-49.32
418.649	3.93
418.857	20.31
419.065	120.66
419.273	75.6
419.481	139.09
419.689	65.36
419.897	-0.17
420.105	-39.08
420.313	163.67
420.521	87.89
420.729	159.57
420.937	102.23
421.145	-0.17
421.353	202.58
421.561	188.24
421.769	-24.75
421.977	26.45
422.185	75.6
422.393	65.36
422.601	149.33
422.809	91.99
423.017	96.08
423.224	57.17
423.432	137.04
423.64	48.98
423.848	91.99
424.056	69.46
424.263	102.23
424.471	28.5
424.679	173.91
424.887	-8.36
425.094	165.71
425.302	73.56
425.51	14.17
425.718	149.33
425.925	149.33
426.133	-20.65
426.341	202.58
426.548	-63.66
426.756	16.21
426.964	110.42
427.171	42.84
427.379	163.67
427.586	98.13
427.794	112.47
428.001	137.04
428.209	104.28
428.417	198.48
428.624	173.91
428.832	112.47
429.039	94.04
429.247	110.42
429.454	149.33
429.662	223.06
429.869	114.52
430.076	169.81
430.284	122.71
430.491	274.26
430.699	194.39
430.906	298.83
431.114	118.61
431.321	110.42
431.528	94.04
431.736	167.76
431.943	124.76
432.15	218.96
432.358	214.87
432.565	268.11
432.772	24.4
432.979	178
433.187	141.14
433.394	182.1
433.601	157.52
433.808	216.91
434.016	235.35
434.223	206.67
434.43	163.67
434.637	294.74
434.844	266.07
435.052	255.83
435.259	358.22
435.466	259.92
435.673	264.02
435.88	257.87
436.087	345.94
436.294	411.47
436.501	362.32
436.708	307.02
436.915	280.4
437.122	413.52
437.329	245.59
437.537	304.98
437.743	397.14
437.95	479.05
438.157	358.22
438.364	372.56
438.571	438.09
438.778	409.42
438.985	436.05
439.192	548.68
439.399	407.38
439.606	421.71
439.813	563.02
440.02	540.49
440.227	661.32
440.433	620.36
440.64	554.83
440.847	542.54
441.054	649.04
441.261	704.33
441.467	683.85
441.674	616.27
441.881	700.23
442.088	778.06
442.294	819.02
442.501	874.31
442.708	767.82
442.914	821.06
443.121	941.89
443.328	870.22
443.534	1161.03
443.741	954.18
443.948	812.87
444.154	1072.96
444.361	1242.95
444.568	1118.02
444.774	1144.64
444.981	1103.68
445.187	1320.77
445.394	1296.19
445.6	1267.52
445.807	1408.83
446.013	1359.68
446.22	1290.05
446.426	1453.89
446.633	1668.92
446.839	1744.7
447.046	1578.81
447.252	1824.57
447.459	1675.07
447.665	1771.32
447.871	2002.74
448.078	2148.15
448.284	2174.77
448.491	2256.69
448.697	2264.88
448.903	2395.95
449.11	2352.95
449.316	2340.66
449.522	2600.75
449.728	2647.85
449.935	2776.87
450.141	2787.11
450.347	3057.45
450.553	2830.12
450.76	2903.85
450.966	3284.77
451.172	3254.05
451.378	3288.87
451.584	3395.36
451.791	3641.12
451.997	3741.47
452.203	3847.96
452.409	3954.46
452.615	4200.21
452.821	4167.45
453.027	4046.62
453.233	4691.73
453.44	4626.19
453.646	4693.77
453.852	5015.3
454.058	5209.86
454.264	5168.9
454.47	5609.22
454.676	5697.28
454.882	6246.13
455.088	5934.84
455.294	6309.62
455.5	6745.84
455.705	7272.17
455.911	7010.03
456.117	7370.47
456.323	7483.11
456.529	7552.74
456.735	8173.27
456.941	8287.96
457.147	8646.35
457.352	8908.49
457.558	9299.66
457.764	9686.72
457.97	10104.51
458.176	10405.56
458.381	11103.92
458.587	10958.51
458.793	11613.86
458.999	11673.25
459.204	13074.06
459.41	13647.49
459.616	13403.78
459.821	14376.57
460.027	14947.95
460.233	15631.97
460.438	15695.46
460.644	16637.53
460.85	16621.14
461.055	17120.85
461.261	18265.66
461.466	17700.42
461.672	18222.66
461.878	20176.42
462.083	19887.65
462.289	20491.8
462.494	21100.05
462.7	21526.03
462.905	21841.42
463.111	23422.45
463.316	24837.59
463.522	25105.88
463.727	25849.29
463.932	26840.51
464.138	27553.2
464.343	28814.75
464.549	29314.45
464.754	31077.76
464.959	31798.64
465.165	32341.35
465.37	31978.86
465.575	32025.96
465.781	34753.86
465.986	35077.44
466.191	34565.45
466.397	35306.81
466.602	34405.7
466.807	36242.73
467.012	36609.32
467.218	37424.41
467.423	37485.85
467.628	38798.6
467.833	40336.62
468.038	39955.7
468.244	39212.29
468.449	41151.71
