Data from USB4F104151__54__09-28-23-702.txt Node

Date: Wed Feb 26 09:28:23 EST 2025
User: louis
Spectrometer: USB4F10415
Trigger mode: 4
Integration Time (sec): 1.000000E-1
Scans to average: 1
Electric dark correction enabled: true
Nonlinearity correction enabled: false
Boxcar width: 0
XAxis mode: Wavelengths
Number of Pixels in Spectrum: 3648
>>>>>Begin Spectral Data<<<<<
178.204	-355.66
178.424	-355.66
178.644	-355.66
178.864	-347.47
179.084	-374.1
179.304	90.79
179.524	-21.84
179.744	-9.56
179.964	64.17
180.184	25.26
180.404	29.35
180.624	-7.51
180.844	-17.75
181.064	-38.23
181.283	-30.04
181.503	-105.81
181.723	21.16
181.943	-91.48
182.163	80.55
182.383	-23.89
182.602	123.56
182.822	162.47
183.042	23.21
183.262	-34.13
183.482	15.02
183.701	62.12
183.921	-1.37
184.141	-15.7
184.361	29.35
184.58	78.51
184.8	-3.41
185.02	-34.13
185.239	125.61
185.459	94.89
185.679	103.08
185.898	-75.09
186.118	115.37
186.338	2.73
186.557	115.37
186.777	-77.14
186.997	-1.37
187.216	-1.37
187.436	107.18
187.655	53.93
187.875	49.83
188.095	6.83
188.314	182.95
188.534	23.21
188.753	35.5
188.973	70.31
189.192	131.75
189.412	19.11
189.631	60.07
189.851	64.17
190.07	121.51
190.29	-101.72
190.509	-3.41
190.729	2.73
190.948	141.99
191.168	236.2
191.387	119.46
191.607	-42.32
191.826	109.23
192.045	6.83
192.265	-7.51
192.484	-25.94
192.704	72.36
192.923	-17.75
193.142	78.51
193.362	60.07
193.581	189.1
193.8	62.12
194.02	43.69
194.239	72.36
194.458	51.88
194.678	-64.85
194.897	-40.28
195.116	43.69
195.335	-17.75
195.555	117.42
195.774	12.97
195.993	51.88
196.212	0.68
196.432	25.26
196.651	12.97
196.87	6.83
197.089	105.13
197.308	66.22
197.528	21.16
197.747	-62.8
197.966	78.51
198.185	101.03
198.404	-50.52
198.623	88.75
198.842	17.07
199.062	107.18
199.281	193.19
199.5	64.17
199.719	23.21
199.938	39.59
200.157	29.35
200.376	96.94
200.595	64.17
200.814	86.7
201.033	-46.42
201.252	94.89
201.471	39.59
201.69	17.07
201.909	41.64
202.128	74.41
202.347	96.94
202.566	47.79
202.785	-60.76
203.004	-71
203.223	232.1
203.442	-30.04
203.661	-62.8
203.879	123.56
204.098	76.46
204.317	47.79
204.536	129.7
204.755	53.93
204.974	191.14
205.193	94.89
205.411	178.86
205.63	78.51
205.849	62.12
206.068	25.26
206.287	-30.04
206.505	199.34
206.724	-21.84
206.943	72.36
207.162	-36.18
207.381	49.83
207.599	8.87
207.818	68.27
208.037	4.78
208.255	4.78
208.474	0.68
208.693	53.93
208.911	49.83
209.13	55.98
209.349	39.59
209.567	105.13
209.786	78.51
210.005	41.64
210.223	6.83
210.442	-105.81
210.661	31.4
210.879	121.51
211.098	47.79
211.316	72.36
211.535	129.7
211.753	-1.37
211.972	80.55
212.191	47.79
212.409	21.16
212.628	2.73
212.846	-48.47
213.065	2.73
213.283	62.12
213.502	-68.95
213.72	41.64
213.938	-23.89
214.157	-13.65
214.375	125.61
214.594	-1.37
214.812	121.51
215.031	-1.37
215.249	-46.42
215.467	21.16
215.686	76.46
215.904	31.4
216.122	62.12
216.341	117.42
216.559	129.7
216.778	84.65
216.996	121.51
217.214	4.78
217.432	-68.95
217.651	-52.56
217.869	78.51
218.087	45.74
218.306	-9.56
218.524	60.07
218.742	21.16
218.96	103.08
219.179	-87.38
219.397	-11.61
219.615	180.9
219.833	101.03
220.051	-44.37
220.27	107.18
220.488	58.03
220.706	53.93
220.924	47.79
221.142	-40.28
221.36	60.07
221.578	82.6
221.796	17.07
222.015	66.22
222.233	31.4
222.451	105.13
222.669	-27.99
222.887	21.16
223.105	-62.8
223.323	-1.37
223.541	-19.8
223.759	45.74
223.977	31.4
224.195	187.05
224.413	74.41
224.631	105.13
224.849	43.69
225.067	170.66
225.285	-91.48
225.503	-27.99
225.721	-124.24
225.939	39.59
226.157	-44.37
226.375	225.96
226.592	8.87
226.81	10.92
227.028	135.85
227.246	68.27
227.464	27.31
227.682	141.99
227.9	35.5
228.117	10.92
228.335	92.84
228.553	21.16
228.771	-36.18
228.989	64.17
229.206	113.32
229.424	35.5
229.642	-54.61
229.86	-5.46
230.077	178.86
230.295	23.21
230.513	105.13
230.731	62.12
230.948	78.51
231.166	49.83
231.384	39.59
231.601	-19.8
231.819	129.7
232.037	-75.09
232.254	-25.94
232.472	25.26
232.689	-27.99
232.907	55.98
233.125	10.92
233.342	-1.37
233.56	19.11
233.777	55.98
233.995	86.7
234.213	96.94
234.43	49.83
234.648	-62.8
234.865	45.74
235.083	27.31
235.3	49.83
235.518	94.89
235.735	131.75
235.953	144.04
236.17	92.84
236.388	29.35
236.605	-17.75
236.822	141.99
237.04	125.61
237.257	43.69
237.475	-79.19
237.692	6.83
237.909	62.12
238.127	-21.84
238.344	86.7
238.562	-17.75
238.779	-17.75
238.996	-17.75
239.214	-11.61
239.431	90.79
239.648	23.21
239.865	4.78
240.083	-7.51
240.3	-42.32
240.517	-5.46
240.735	-25.94
240.952	39.59
241.169	101.03
241.386	-36.18
241.603	21.16
241.821	-75.09
242.038	45.74
242.255	90.79
242.472	-54.61
242.689	72.36
242.907	35.5
243.124	-5.46
243.341	23.21
243.558	-50.52
243.775	-30.04
243.992	-97.62
244.209	74.41
244.426	82.6
244.643	72.36
244.86	6.83
245.078	62.12
245.295	92.84
245.512	-7.51
245.729	68.27
245.946	68.27
246.163	64.17
246.38	-13.65
246.597	37.55
246.814	6.83
247.031	33.45
247.248	0.68
247.464	45.74
247.681	2.73
247.898	113.32
248.115	-19.8
248.332	-9.56
248.549	113.32
248.766	178.86
248.983	10.92
249.2	113.32
249.417	58.03
249.633	47.79
249.85	62.12
250.067	53.93
250.284	-5.46
250.501	101.03
250.717	25.26
250.934	8.87
251.151	39.59
251.368	-93.52
251.585	60.07
251.801	98.99
252.018	-3.41
252.235	88.75
252.451	-13.65
252.668	-15.7
252.885	47.79
253.102	84.65
253.318	84.65
253.535	-93.52
253.752	41.64
253.968	15.02
254.185	-42.32
254.401	4.78
254.618	74.41
254.835	51.88
255.051	129.7
255.268	0.68
255.484	39.59
255.701	62.12
255.917	29.35
256.134	-17.75
256.351	47.79
256.567	-11.61
256.784	-17.75
257	-38.23
257.217	111.27
257.433	105.13
257.65	12.97
257.866	133.8
258.082	-62.8
258.299	-5.46
258.515	25.26
258.732	23.21
258.948	39.59
259.165	92.84
259.381	17.07
259.597	47.79
259.814	60.07
260.03	-19.8
260.246	41.64
260.463	55.98
260.679	84.65
260.895	2.73
261.112	53.93
261.328	33.45
261.544	-23.89
261.761	105.13
261.977	-32.08
262.193	-42.32
262.409	66.22
262.626	80.55
262.842	53.93
263.058	51.88
263.274	49.83
263.49	-17.75
263.707	49.83
263.923	137.9
264.139	-109.91
264.355	113.32
264.571	98.99
264.787	37.55
265.004	72.36
265.22	8.87
265.436	27.31
265.652	-66.9
265.868	60.07
266.084	23.21
266.3	41.64
266.516	-27.99
266.732	25.26
266.948	80.55
267.164	-87.38
267.38	21.16
267.596	41.64
267.812	160.42
268.028	-21.84
268.244	-1.37
268.46	76.46
268.676	2.73
268.892	23.21
269.108	-17.75
269.324	-60.76
269.54	25.26
269.756	94.89
269.972	-132.44
270.188	10.92
270.403	-75.09
270.619	43.69
270.835	94.89
271.051	62.12
271.267	-46.42
271.483	-50.52
271.698	70.31
271.914	6.83
272.13	33.45
272.346	27.31
272.562	25.26
272.777	4.78
272.993	72.36
273.209	80.55
273.425	58.03
273.64	-5.46
273.856	78.51
274.072	-50.52
274.287	6.83
274.503	113.32
274.719	31.4
274.934	31.4
275.15	-54.61
275.366	31.4
275.581	-56.66
275.797	-21.84
276.012	60.07
276.228	55.98
276.444	10.92
276.659	64.17
276.875	-15.7
277.09	12.97
277.306	-30.04
277.521	70.31
277.737	70.31
277.952	103.08
278.168	-50.52
278.383	4.78
278.599	23.21
278.814	141.99
279.03	39.59
279.245	203.43
279.461	19.11
279.676	47.79
279.892	47.79
280.107	-17.75
280.322	-5.46
280.538	94.89
280.753	-9.56
280.969	51.88
281.184	-5.46
281.399	107.18
281.615	31.4
281.83	111.27
282.045	-30.04
282.26	-25.94
282.476	78.51
282.691	45.74
282.906	15.02
283.122	-9.56
283.337	4.78
283.552	70.31
283.767	-25.94
283.983	76.46
284.198	-21.84
284.413	205.48
284.628	-17.75
284.843	72.36
285.058	86.7
285.274	10.92
285.489	-13.65
285.704	47.79
285.919	-27.99
286.134	19.11
286.349	-58.71
286.564	12.97
286.779	55.98
286.995	-52.56
287.21	41.64
287.425	31.4
287.64	-3.41
287.855	21.16
288.07	-50.52
288.285	115.37
288.5	119.46
288.715	119.46
288.93	15.02
289.145	-83.28
289.36	2.73
289.575	-52.56
289.79	117.42
290.004	19.11
290.219	58.03
290.434	62.12
290.649	-5.46
290.864	-13.65
291.079	17.07
291.294	21.16
291.509	6.83
291.724	-34.13
291.938	21.16
292.153	10.92
292.368	-32.08
292.583	2.73
292.798	96.94
293.012	27.31
293.227	172.71
293.442	-17.75
293.657	127.66
293.871	127.66
294.086	17.07
294.301	76.46
294.516	144.04
294.73	15.02
294.945	-71
295.16	-30.04
295.374	137.9
295.589	88.75
295.804	0.68
296.018	158.38
296.233	107.18
296.447	74.41
296.662	6.83
296.877	58.03
297.091	113.32
297.306	74.41
297.52	27.31
297.735	8.87
297.949	-27.99
298.164	109.23
298.378	94.89
298.593	-58.71
298.807	-11.61
299.022	17.07
299.236	117.42
299.451	35.5
299.665	-50.52
299.88	6.83
300.094	78.51
300.309	-38.23
300.523	21.16
300.737	51.88
300.952	76.46
301.166	88.75
301.381	-38.23
301.595	-21.84
301.809	64.17
302.024	-60.76
302.238	-34.13
302.452	64.17
302.667	51.88
302.881	170.66
303.095	88.75
303.309	51.88
303.524	-42.32
303.738	17.07
303.952	12.97
304.166	76.46
304.381	-95.57
304.595	176.81
304.809	-99.67
305.023	19.11
305.237	-83.28
305.452	19.11
305.666	68.27
305.88	33.45
306.094	49.83
306.308	62.12
306.522	45.74
306.736	76.46
306.95	88.75
307.164	25.26
307.379	12.97
307.593	117.42
307.807	84.65
308.021	107.18
308.235	45.74
308.449	-56.66
308.663	4.78
308.877	228.01
309.091	-13.65
309.305	72.36
309.519	-118.1
309.733	60.07
309.947	-17.75
310.161	92.84
310.374	88.75
310.588	88.75
310.802	4.78
311.016	-17.75
311.23	6.83
311.444	12.97
311.658	60.07
311.872	129.7
312.085	88.75
312.299	162.47
312.513	47.79
312.727	12.97
312.941	-77.14
313.154	55.98
313.368	12.97
313.582	115.37
313.796	-27.99
314.009	31.4
314.223	80.55
314.437	-73.04
314.651	88.75
314.864	49.83
315.078	-46.42
315.292	-77.14
315.505	-1.37
315.719	90.79
315.933	12.97
316.146	-7.51
316.36	-40.28
316.573	144.04
316.787	103.08
317.001	80.55
317.214	-99.67
317.428	31.4
317.641	37.55
317.855	-3.41
318.068	92.84
318.282	35.5
318.495	201.38
318.709	6.83
318.922	55.98
319.136	55.98
319.349	72.36
319.563	15.02
319.776	72.36
319.99	-101.72
320.203	96.94
320.417	43.69
320.63	88.75
320.843	156.33
321.057	53.93
321.27	2.73
321.483	-66.9
321.697	133.8
321.91	58.03
322.124	-34.13
322.337	12.97
322.55	-50.52
322.763	78.51
322.977	-58.71
323.19	-3.41
323.403	76.46
323.617	-42.32
323.83	35.5
324.043	-52.56
324.256	39.59
324.469	-48.47
324.683	98.99
324.896	-32.08
325.109	86.7
325.322	-95.57
325.535	70.31
325.748	76.46
325.962	-15.7
326.175	31.4
326.388	80.55
326.601	55.98
326.814	45.74
327.027	-9.56
327.24	146.09
327.453	-85.33
327.666	-15.7
327.879	96.94
328.092	41.64
328.305	78.51
328.518	-9.56
328.731	23.21
328.944	2.73
329.157	35.5
329.37	35.5
329.583	127.66
329.796	127.66
330.009	-46.42
330.222	41.64
330.435	74.41
330.648	72.36
330.861	19.11
331.073	-46.42
331.286	90.79
331.499	-46.42
331.712	-13.65
331.925	-54.61
332.138	49.83
332.35	68.27
332.563	-62.8
332.776	64.17
332.989	-79.19
333.202	-25.94
333.414	80.55
333.627	45.74
333.84	-25.94
334.053	10.92
334.265	-75.09
334.478	60.07
334.691	-1.37
334.903	41.64
335.116	-3.41
335.329	-46.42
335.541	23.21
335.754	109.23
335.966	-38.23
336.179	37.55
336.392	23.21
336.604	0.68
336.817	76.46
337.029	103.08
337.242	-25.94
337.454	88.75
337.667	-30.04
337.88	113.32
338.092	17.07
338.305	49.83
338.517	-11.61
338.729	88.75
338.942	45.74
339.154	-56.66
339.367	-44.37
339.579	88.75
339.792	17.07
340.004	53.93
340.217	-1.37
340.429	-3.41
340.641	-13.65
340.854	-5.46
341.066	-42.32
341.278	62.12
341.491	107.18
341.703	8.87
341.915	-68.95
342.128	82.6
342.34	17.07
342.552	-11.61
342.764	27.31
342.977	-15.7
343.189	51.88
343.401	-1.37
343.613	-75.09
343.826	-1.37
344.038	-46.42
344.25	111.27
344.462	-30.04
344.674	47.79
344.886	29.35
345.099	21.16
345.311	19.11
345.523	-38.23
345.735	-75.09
345.947	15.02
346.159	-17.75
346.371	-7.51
346.583	-3.41
346.795	238.25
347.007	-9.56
347.219	55.98
347.431	8.87
347.643	35.5
347.855	12.97
348.067	103.08
348.279	-46.42
348.491	96.94
348.703	86.7
348.915	4.78
349.127	10.92
349.339	66.22
349.551	10.92
349.763	90.79
349.975	35.5
350.187	92.84
350.399	154.28
350.61	2.73
350.822	2.73
351.034	92.84
351.246	60.07
351.458	35.5
351.669	84.65
351.881	141.99
352.093	23.21
352.305	131.75
352.517	115.37
352.728	60.07
352.94	60.07
353.152	25.26
353.363	-38.23
353.575	41.64
353.787	101.03
353.999	47.79
354.21	88.75
354.422	31.4
354.633	-17.75
354.845	15.02
355.057	23.21
355.268	6.83
355.48	137.9
355.692	-30.04
355.903	47.79
356.115	64.17
356.326	-75.09
356.538	90.79
356.749	-23.89
356.961	137.9
357.172	-3.41
357.384	27.31
357.595	176.81
357.807	-58.71
358.018	-66.9
358.23	92.84
358.441	152.23
358.653	21.16
358.864	-3.41
359.075	-48.47
359.287	37.55
359.498	27.31
359.709	113.32
359.921	6.83
360.132	23.21
360.344	64.17
360.555	-27.99
360.766	6.83
360.977	62.12
361.189	82.6
361.4	-40.28
361.611	86.7
361.823	101.03
362.034	51.88
362.245	6.83
362.456	39.59
362.667	6.83
362.879	53.93
363.09	72.36
363.301	45.74
363.512	47.79
363.723	10.92
363.935	-13.65
364.146	117.42
364.357	-99.67
364.568	84.65
364.779	-77.14
364.99	103.08
365.201	35.5
365.412	125.61
365.623	-71
365.834	29.35
366.045	58.03
366.256	-25.94
366.467	160.42
366.678	35.5
366.889	-30.04
367.1	-21.84
367.311	101.03
367.522	-66.9
367.733	45.74
367.944	150.18
368.155	15.02
368.366	68.27
368.577	47.79
368.788	107.18
368.999	-15.7
369.209	19.11
369.42	176.81
369.631	213.67
369.842	80.55
370.053	-46.42
370.264	96.94
370.474	-56.66
370.685	51.88
370.896	43.69
371.107	121.51
371.317	-66.9
371.528	-11.61
371.739	64.17
371.95	125.61
372.16	119.46
372.371	12.97
372.582	45.74
372.792	53.93
373.003	68.27
373.214	80.55
373.424	68.27
373.635	12.97
373.846	121.51
374.056	78.51
374.267	25.26
374.477	72.36
374.688	-13.65
374.898	15.02
375.109	74.41
375.319	35.5
375.53	64.17
375.74	76.46
375.951	17.07
376.161	41.64
376.372	154.28
376.582	-60.76
376.793	23.21
377.003	-46.42
377.214	-19.8
377.424	109.23
377.635	39.59
377.845	82.6
378.055	127.66
378.266	-7.51
378.476	25.26
378.686	23.21
378.897	47.79
379.107	127.66
379.317	55.98
379.528	15.02
379.738	125.61
379.948	-52.56
380.158	39.59
380.369	-25.94
380.579	47.79
380.789	39.59
380.999	27.31
381.21	123.56
381.42	125.61
381.63	17.07
381.84	68.27
382.05	31.4
382.261	41.64
382.471	84.65
382.681	15.02
382.891	117.42
383.101	78.51
383.311	-25.94
383.521	-30.04
383.731	125.61
383.941	25.26
384.151	-46.42
384.361	-42.32
384.571	-48.47
384.781	51.88
384.991	152.23
385.201	101.03
385.411	21.16
385.621	33.45
385.831	4.78
386.041	25.26
386.251	-52.56
386.461	90.79
386.671	47.79
386.881	23.21
387.091	-54.61
387.301	125.61
387.511	51.88
387.72	70.31
387.93	111.27
388.14	-81.24
388.35	55.98
388.56	154.28
388.769	78.51
388.979	78.51
389.189	-58.71
389.399	43.69
389.609	92.84
389.818	152.23
390.028	-21.84
390.238	107.18
390.447	-77.14
390.657	51.88
390.867	-38.23
391.076	-81.24
391.286	101.03
391.496	0.68
391.705	53.93
391.915	82.6
392.125	123.56
392.334	-5.46
392.544	182.95
392.753	68.27
392.963	-75.09
393.172	39.59
393.382	15.02
393.591	144.04
393.801	64.17
394.01	115.37
394.22	82.6
394.429	105.13
394.639	25.26
394.848	49.83
395.058	39.59
395.267	43.69
395.477	-1.37
395.686	82.6
395.895	103.08
396.105	162.47
396.314	109.23
396.524	21.16
396.733	47.79
396.942	158.38
397.152	80.55
397.361	70.31
397.57	55.98
397.78	-11.61
397.989	29.35
398.198	166.57
398.407	35.5
398.617	49.83
398.826	4.78
399.035	31.4
399.244	86.7
399.453	84.65
399.663	39.59
399.872	23.21
400.081	10.92
400.29	160.42
400.499	-103.76
400.708	135.85
400.917	4.78
401.127	29.35
401.336	-21.84
401.545	176.81
401.754	119.46
401.963	129.7
402.172	80.55
402.381	-21.84
402.59	19.11
402.799	64.17
403.008	60.07
403.217	113.32
403.426	31.4
403.635	-21.84
403.844	23.21
404.053	41.64
404.262	6.83
404.471	119.46
404.68	37.55
404.888	33.45
405.097	51.88
405.306	88.75
405.515	84.65
405.724	72.36
405.933	64.17
406.142	33.45
406.35	137.9
406.559	-52.56
406.768	4.78
406.977	94.89
407.185	84.65
407.394	55.98
407.603	15.02
407.812	88.75
408.02	103.08
408.229	-9.56
408.438	55.98
408.646	-42.32
408.855	82.6
409.064	-36.18
409.272	-1.37
409.481	88.75
409.69	43.69
409.898	-54.61
410.107	33.45
410.315	47.79
410.524	0.68
410.733	51.88
410.941	66.22
411.15	137.9
411.358	113.32
411.567	92.84
411.775	101.03
411.984	-34.13
412.192	115.37
412.401	-13.65
412.609	96.94
412.818	137.9
413.026	17.07
413.234	-30.04
413.443	80.55
413.651	-25.94
413.86	25.26
414.068	96.94
414.276	53.93
414.485	-50.52
414.693	135.85
414.901	168.62
415.11	55.98
415.318	-19.8
415.526	47.79
415.734	119.46
415.943	84.65
416.151	115.37
416.359	15.02
416.567	17.07
416.776	-25.94
416.984	139.94
417.192	203.43
417.4	23.21
417.608	2.73
417.817	-9.56
418.025	49.83
418.233	135.85
418.441	-38.23
418.649	-30.04
418.857	82.6
419.065	78.51
419.273	10.92
419.481	55.98
419.689	33.45
419.897	2.73
420.105	-34.13
420.313	76.46
420.521	101.03
420.729	78.51
420.937	-32.08
421.145	-38.23
421.353	84.65
421.561	131.75
421.769	-15.7
421.977	-9.56
422.185	76.46
422.393	68.27
422.601	94.89
422.809	-46.42
423.017	105.13
423.224	45.74
423.432	90.79
423.64	6.83
423.848	80.55
424.056	-1.37
424.263	70.31
424.471	15.02
424.679	92.84
424.887	-34.13
425.094	94.89
425.302	45.74
425.51	-15.7
425.718	121.51
425.925	82.6
426.133	6.83
426.341	195.24
426.548	-17.75
426.756	55.98
426.964	137.9
427.171	31.4
427.379	64.17
427.586	-32.08
427.794	64.17
428.001	80.55
428.209	88.75
428.417	47.79
428.624	72.36
428.832	51.88
429.039	84.65
429.247	53.93
429.454	51.88
429.662	203.43
429.869	109.23
430.076	72.36
430.284	141.99
430.491	148.14
430.699	90.79
430.906	195.24
431.114	80.55
431.321	-19.8
431.528	6.83
431.736	78.51
431.943	96.94
432.15	113.32
432.358	107.18
432.565	230.06
432.772	-62.8
432.979	185
433.187	92.84
433.394	137.9
433.601	12.97
433.808	137.9
434.016	166.57
434.223	180.9
434.43	88.75
434.637	193.19
434.844	182.95
435.052	137.9
435.259	211.62
435.466	111.27
435.673	174.76
435.88	203.43
436.087	160.42
436.294	195.24
436.501	271.01
436.708	168.62
436.915	279.21
437.122	223.91
437.329	105.13
437.537	152.23
437.743	207.53
437.95	238.25
438.157	236.2
438.364	285.35
438.571	311.97
438.778	357.03
438.985	207.53
439.192	350.89
439.399	207.53
439.606	334.5
439.813	363.17
440.02	391.84
440.227	461.48
440.433	359.08
440.64	402.08
440.847	342.69
441.054	438.95
441.261	510.63
441.467	514.72
441.674	359.08
441.881	506.53
442.088	445.09
442.294	486.05
442.501	584.35
442.708	539.3
442.914	473.76
443.121	567.97
443.328	596.64
443.534	653.98
443.741	613.03
443.948	520.87
444.154	610.98
444.361	768.67
444.568	721.57
444.774	735.9
444.981	619.17
445.187	801.44
445.394	760.48
445.6	795.29
445.807	928.41
446.013	881.31
446.22	760.48
446.426	871.07
446.633	1096.35
446.839	1079.96
447.046	793.25
447.252	1104.54
447.459	1112.73
447.665	969.37
447.871	1182.36
448.078	1249.94
448.284	1276.57
448.491	1360.53
448.697	1403.54
448.903	1505.94
449.11	1505.94
449.316	1344.15
449.522	1553.04
449.728	1563.28
449.935	1747.6
450.141	1665.68
450.347	1868.43
450.553	1774.22
450.76	1841.81
450.966	1815.18
451.172	2046.6
451.378	1995.4
451.584	2128.52
451.791	2243.21
451.997	2306.7
452.203	2263.69
452.409	2499.2
452.615	2486.92
452.821	2450.05
453.027	2497.16
453.233	2984.57
453.44	2753.15
453.646	2943.61
453.852	3111.55
454.058	3142.27
454.264	3236.47
454.47	3392.12
454.676	3490.42
454.882	3758.71
455.088	3650.16
455.294	3725.94
455.5	4024.94
455.705	4250.22
455.911	4366.95
456.117	4405.86
456.323	4577.89
456.529	4520.55
456.735	5057.12
456.941	5136.99
457.147	5194.33
457.352	5247.58
457.558	5444.18
457.764	6009.42
457.97	6134.35
458.176	6296.14
458.381	6658.63
458.587	6617.67
458.793	7141.95
458.999	6801.99
459.204	7723.57
459.41	8288.81
459.616	7911.99
459.821	8696.36
460.027	8849.96
460.233	9388.57
460.438	9441.82
460.644	9871.89
460.85	9921.04
461.055	10449.42
461.261	10813.96
461.466	10502.67
461.672	10656.26
461.878	12214.77
462.083	12149.23
462.289	12235.25
462.494	12560.88
462.7	13060.58
462.905	13384.16
463.111	14002.65
463.316	14799.3
463.522	14954.95
463.727	15411.65
463.932	16236.98
464.138	16677.29
464.343	17271.2
464.549	17416.61
464.754	18551.18
464.959	19149.19
465.165	19366.28
465.37	19382.66
465.575	19233.16
465.781	20506.99
465.986	21334.37
466.191	21070.19
466.397	21170.54
466.602	20769.13
466.807	21813.6
467.012	22643.03
467.218	22534.48
467.423	22817.1
467.628	23570.75
467.833	24566.07
468.038	24078.65
468.244	23851.33
468.449	25223.47
468.654	24697.14
468.859	24473.91
469.064	24670.51
469.269	23746.88
469.474	24121.66
