Data from USB4F104151__95__10-35-23-029.txt Node

Date: Wed Feb 26 10:35:23 EST 2025
User: louis
Spectrometer: USB4F10415
Trigger mode: 4
Integration Time (sec): 1.000000E-1
Scans to average: 1
Electric dark correction enabled: true
Nonlinearity correction enabled: false
Boxcar width: 0
XAxis mode: Wavelengths
Number of Pixels in Spectrum: 3648
>>>>>Begin Spectral Data<<<<<
178.204	-336.21
178.424	-336.21
178.644	-336.21
178.864	-409.94
179.084	-317.78
179.304	1.71
179.524	-18.77
179.744	52.91
179.964	40.62
180.184	54.95
180.404	28.33
180.624	-90.45
180.844	-53.59
181.064	-8.53
181.283	9.9
181.503	-92.5
181.723	75.43
181.943	42.67
182.163	253.61
182.383	-4.44
182.602	57
182.822	161.45
183.042	124.58
183.262	-0.34
183.482	59.05
183.701	46.76
183.921	59.05
184.141	-14.68
184.361	136.87
184.58	112.3
184.8	-26.96
185.02	22.19
185.239	87.72
185.459	167.59
185.679	173.74
185.898	-47.44
186.118	18.09
186.338	124.58
186.557	173.74
186.777	50.86
186.997	81.58
187.216	71.34
187.436	239.27
187.655	204.46
187.875	124.58
188.095	165.54
188.314	147.11
188.534	208.55
188.753	-2.39
188.973	136.87
189.192	169.64
189.412	61.1
189.631	91.82
189.851	136.87
190.07	192.17
190.29	-26.96
190.509	95.91
190.729	34.47
190.948	120.49
191.168	302.76
191.387	65.19
191.607	63.15
191.826	110.25
192.045	-4.44
192.265	24.23
192.484	147.11
192.704	50.86
192.923	7.85
193.142	159.4
193.362	145.06
193.581	212.65
193.8	81.58
194.02	71.34
194.239	50.86
194.458	114.34
194.678	-26.96
194.897	-12.63
195.116	120.49
195.335	67.24
195.555	30.38
195.774	9.9
195.993	128.68
196.212	77.48
196.432	32.43
196.651	36.52
196.87	71.34
197.089	235.18
197.308	57
197.528	177.83
197.747	34.47
197.966	147.11
198.185	145.06
198.404	44.71
198.623	136.87
198.842	30.38
199.062	143.02
199.281	79.53
199.5	97.96
199.719	102.06
199.938	122.54
200.157	65.19
200.376	100.01
200.595	171.69
200.814	161.45
201.033	5.8
201.252	192.17
201.471	120.49
201.69	85.67
201.909	26.28
202.128	143.02
202.347	106.15
202.566	69.29
202.785	-16.73
203.004	34.47
203.223	224.94
203.442	-0.34
203.661	-10.58
203.879	145.06
204.098	171.69
204.317	-22.87
204.536	161.45
204.755	132.78
204.974	116.39
205.193	73.39
205.411	140.97
205.63	153.26
205.849	61.1
206.068	20.14
206.287	28.33
206.505	177.83
206.724	89.77
206.943	-37.2
207.162	65.19
207.381	194.22
207.599	36.52
207.818	85.67
208.037	-8.53
208.255	-2.39
208.474	104.11
208.693	100.01
208.911	93.87
209.13	116.39
209.349	138.92
209.567	128.68
209.786	50.86
210.005	138.92
210.223	44.71
210.442	-41.3
210.661	69.29
210.879	40.62
211.098	83.63
211.316	100.01
211.535	138.92
211.753	147.11
211.972	128.68
212.191	46.76
212.409	7.85
212.628	61.1
212.846	3.75
213.065	132.78
213.283	118.44
213.502	54.95
213.72	118.44
213.938	102.06
214.157	-4.44
214.375	132.78
214.594	65.19
214.812	30.38
215.031	42.67
215.249	83.63
215.467	32.43
215.686	120.49
215.904	128.68
216.122	151.21
216.341	159.4
216.559	67.24
216.778	175.78
216.996	61.1
217.214	151.21
217.432	63.15
217.651	18.09
217.869	50.86
218.087	93.87
218.306	71.34
218.524	28.33
218.742	26.28
218.96	126.63
219.179	57
219.397	128.68
219.615	231.08
219.833	132.78
220.051	9.9
220.27	214.7
220.488	75.43
220.706	67.24
220.924	75.43
221.142	-2.39
221.36	73.39
221.578	169.64
221.796	26.28
222.015	81.58
222.233	59.05
222.451	247.46
222.669	63.15
222.887	106.15
223.105	38.57
223.323	54.95
223.541	-0.34
223.759	71.34
223.977	63.15
224.195	169.64
224.413	136.87
224.631	-14.68
224.849	153.26
225.067	255.65
225.285	26.28
225.503	34.47
225.721	-14.68
225.939	124.58
226.157	112.3
226.375	186.02
226.592	50.86
226.81	67.24
227.028	-8.53
227.246	165.54
227.464	20.14
227.682	136.87
227.9	136.87
228.117	126.63
228.335	165.54
228.553	13.99
228.771	81.58
228.989	93.87
229.206	67.24
229.424	1.71
229.642	63.15
229.86	-67.92
230.077	167.59
230.295	108.2
230.513	138.92
230.731	54.95
230.948	222.89
231.166	130.73
231.384	36.52
231.601	-29.01
231.819	292.52
232.037	-14.68
232.254	48.81
232.472	22.19
232.689	20.14
232.907	159.4
233.125	118.44
233.342	-29.01
233.56	97.96
233.777	48.81
233.995	-24.92
234.213	102.06
234.43	120.49
234.648	65.19
234.865	108.2
235.083	130.73
235.3	71.34
235.518	132.78
235.735	157.35
235.953	67.24
236.17	63.15
236.388	83.63
236.605	120.49
236.822	169.64
237.04	155.3
237.257	110.25
237.475	-33.11
237.692	157.35
237.909	75.43
238.127	36.52
238.344	151.21
238.562	108.2
238.779	1.71
238.996	20.14
239.214	71.34
239.431	126.63
239.648	81.58
239.865	179.88
240.083	97.96
240.3	50.86
240.517	85.67
240.735	3.75
240.952	132.78
241.169	118.44
241.386	114.34
241.603	38.57
241.821	7.85
242.038	163.5
242.255	116.39
242.472	100.01
242.689	77.48
242.907	169.64
243.124	132.78
243.341	30.38
243.558	108.2
243.775	1.71
243.992	50.86
244.209	173.74
244.426	210.6
244.643	147.11
244.86	26.28
245.078	126.63
245.295	32.43
245.512	65.19
245.729	71.34
245.946	87.72
246.163	22.19
246.38	30.38
246.597	140.97
246.814	28.33
247.031	57
247.248	110.25
247.464	200.36
247.681	130.73
247.898	52.91
248.115	159.4
248.332	36.52
248.549	126.63
248.766	149.16
248.983	75.43
249.2	157.35
249.417	145.06
249.633	22.19
249.85	100.01
250.067	-22.87
250.284	120.49
250.501	132.78
250.717	145.06
250.934	5.8
251.151	28.33
251.368	73.39
251.585	120.49
251.801	61.1
252.018	1.71
252.235	71.34
252.451	16.04
252.668	9.9
252.885	89.77
253.102	93.87
253.318	75.43
253.535	57
253.752	52.91
253.968	61.1
254.185	-12.63
254.401	132.78
254.618	157.35
254.835	-20.82
255.051	169.64
255.268	108.2
255.484	28.33
255.701	65.19
255.917	155.3
256.134	13.99
256.351	54.95
256.567	-0.34
256.784	28.33
257	-55.64
257.217	128.68
257.433	114.34
257.65	120.49
257.866	140.97
258.082	59.05
258.299	-33.11
258.515	71.34
258.732	26.28
258.948	48.81
259.165	52.91
259.381	34.47
259.597	63.15
259.814	48.81
260.03	69.29
260.246	48.81
260.463	251.56
260.679	147.11
260.895	75.43
261.112	24.23
261.328	42.67
261.544	36.52
261.761	224.94
261.977	34.47
262.193	63.15
262.409	153.26
262.626	69.29
262.842	73.39
263.058	59.05
263.274	48.81
263.49	38.57
263.707	97.96
263.923	192.17
264.139	-63.83
264.355	192.17
264.571	136.87
264.787	59.05
265.004	114.34
265.22	149.16
265.436	9.9
265.652	13.99
265.868	81.58
266.084	-31.06
266.3	40.62
266.516	-18.77
266.732	87.72
266.948	85.67
267.164	16.04
267.38	183.98
267.596	143.02
267.812	272.04
268.028	69.29
268.244	26.28
268.46	126.63
268.676	46.76
268.892	132.78
269.108	-16.73
269.324	40.62
269.54	34.47
269.756	145.06
269.972	16.04
270.188	130.73
270.403	-41.3
270.619	110.25
270.835	100.01
271.051	54.95
271.267	38.57
271.483	81.58
271.698	173.74
271.914	59.05
272.13	26.28
272.346	79.53
272.562	81.58
272.777	183.98
272.993	36.52
273.209	52.91
273.425	97.96
273.64	-59.73
273.856	167.59
274.072	38.57
274.287	-10.58
274.503	177.83
274.719	118.44
274.934	-4.44
275.15	-31.06
275.366	104.11
275.581	-35.16
275.797	83.63
276.012	50.86
276.228	100.01
276.444	38.57
276.659	30.38
276.875	-37.2
277.09	54.95
277.306	102.06
277.521	120.49
277.737	1.71
277.952	126.63
278.168	32.43
278.383	102.06
278.599	57
278.814	120.49
279.03	75.43
279.245	169.64
279.461	5.8
279.676	136.87
279.892	-4.44
280.107	-14.68
280.322	38.57
280.538	190.12
280.753	-59.73
280.969	116.39
281.184	38.57
281.399	171.69
281.615	79.53
281.83	85.67
282.045	-35.16
282.26	36.52
282.476	54.95
282.691	81.58
282.906	44.71
283.122	36.52
283.337	108.2
283.552	87.72
283.767	87.72
283.983	138.92
284.198	75.43
284.413	81.58
284.628	-57.68
284.843	132.78
285.058	118.44
285.274	36.52
285.489	30.38
285.704	102.06
285.919	26.28
286.134	38.57
286.349	54.95
286.564	57
286.779	194.22
286.995	48.81
287.21	-74.07
287.425	145.06
287.64	63.15
287.855	102.06
288.07	13.99
288.285	177.83
288.5	163.5
288.715	106.15
288.93	26.28
289.145	71.34
289.36	194.22
289.575	132.78
289.79	229.03
290.004	24.23
290.219	120.49
290.434	57
290.649	87.72
290.864	42.67
291.079	44.71
291.294	91.82
291.509	13.99
291.724	42.67
291.938	16.04
292.153	44.71
292.368	89.77
292.583	163.5
292.798	136.87
293.012	138.92
293.227	87.72
293.442	81.58
293.657	138.92
293.871	112.3
294.086	93.87
294.301	175.78
294.516	190.12
294.73	83.63
294.945	-14.68
295.16	9.9
295.374	106.15
295.589	91.82
295.804	3.75
296.018	110.25
296.233	173.74
296.447	116.39
296.662	116.39
296.877	175.78
297.091	149.16
297.306	48.81
297.52	54.95
297.735	143.02
297.949	120.49
298.164	97.96
298.378	165.54
298.593	-20.82
298.807	77.48
299.022	11.95
299.236	192.17
299.451	81.58
299.665	-8.53
299.88	34.47
300.094	69.29
300.309	44.71
300.523	97.96
300.737	-20.82
300.952	30.38
301.166	151.21
301.381	48.81
301.595	-4.44
301.809	42.67
302.024	18.09
302.238	-43.35
302.452	147.11
302.667	54.95
302.881	222.89
303.095	147.11
303.309	200.36
303.524	50.86
303.738	30.38
303.952	171.69
304.166	89.77
304.381	-94.55
304.595	157.35
304.809	54.95
305.023	30.38
305.237	5.8
305.452	128.68
305.666	120.49
305.88	155.3
306.094	85.67
306.308	79.53
306.522	87.72
306.736	93.87
306.95	112.3
307.164	177.83
307.379	59.05
307.593	147.11
307.807	75.43
308.021	100.01
308.235	97.96
308.449	16.04
308.663	44.71
308.877	284.33
309.091	89.77
309.305	71.34
309.519	-98.64
309.733	208.55
309.947	-57.68
310.161	126.63
310.374	42.67
310.588	46.76
310.802	-47.44
311.016	26.28
311.23	77.48
311.444	-20.82
311.658	95.91
311.872	183.98
312.085	132.78
312.299	161.45
312.513	108.2
312.727	54.95
312.941	9.9
313.154	89.77
313.368	79.53
313.582	108.2
313.796	57
314.009	28.33
314.223	147.11
314.437	-22.87
314.651	159.4
314.864	30.38
315.078	57
315.292	-98.64
315.505	106.15
315.719	108.2
315.933	81.58
316.146	-10.58
316.36	9.9
316.573	183.98
316.787	130.73
317.001	54.95
317.214	22.19
317.428	81.58
317.641	3.75
317.855	48.81
318.068	52.91
318.282	87.72
318.495	186.02
318.709	128.68
318.922	46.76
319.136	147.11
319.349	124.58
319.563	46.76
319.776	161.45
319.99	-37.2
320.203	120.49
320.417	50.86
320.63	143.02
320.843	194.22
321.057	140.97
321.27	16.04
321.483	106.15
321.697	83.63
321.91	120.49
322.124	59.05
322.337	85.67
322.55	-33.11
322.763	138.92
322.977	89.77
323.19	93.87
323.403	118.44
323.617	65.19
323.83	54.95
324.043	59.05
324.256	171.69
324.469	-37.2
324.683	179.88
324.896	50.86
325.109	46.76
325.322	32.43
325.535	116.39
325.748	169.64
325.962	-14.68
326.175	30.38
326.388	126.63
326.601	114.34
326.814	13.99
327.027	67.24
327.24	143.02
327.453	-18.77
327.666	138.92
327.879	161.45
328.092	73.39
328.305	100.01
328.518	30.38
328.731	36.52
328.944	-26.96
329.157	71.34
329.37	87.72
329.583	226.98
329.796	188.07
330.009	-0.34
330.222	79.53
330.435	218.79
330.648	106.15
330.861	52.91
331.073	63.15
331.286	108.2
331.499	63.15
331.712	67.24
331.925	77.48
332.138	122.54
332.35	165.54
332.563	-51.54
332.776	147.11
332.989	122.54
333.202	46.76
333.414	97.96
333.627	73.39
333.84	26.28
334.053	161.45
334.265	-29.01
334.478	50.86
334.691	100.01
334.903	26.28
335.116	-10.58
335.329	75.43
335.541	155.3
335.754	226.98
335.966	5.8
336.179	5.8
336.392	122.54
336.604	130.73
336.817	116.39
337.029	30.38
337.242	73.39
337.454	138.92
337.667	65.19
337.88	46.76
338.092	102.06
338.305	128.68
338.517	24.23
338.729	163.5
338.942	181.93
339.154	-47.44
339.367	57
339.579	143.02
339.792	24.23
340.004	124.58
340.217	46.76
340.429	89.77
340.641	1.71
340.854	42.67
341.066	28.33
341.278	114.34
341.491	245.41
341.703	63.15
341.915	-53.59
342.128	97.96
342.34	34.47
342.552	11.95
342.764	46.76
342.977	36.52
343.189	38.57
343.401	153.26
343.613	-16.73
343.826	3.75
344.038	22.19
344.25	169.64
344.462	-39.25
344.674	155.3
344.886	34.47
345.099	79.53
345.311	52.91
345.523	-65.88
345.735	16.04
345.947	138.92
346.159	57
346.371	93.87
346.583	-10.58
346.795	226.98
347.007	13.99
347.219	73.39
347.431	34.47
347.643	216.74
347.855	104.11
348.067	128.68
348.279	-35.16
348.491	65.19
348.703	83.63
348.915	46.76
349.127	81.58
349.339	18.09
349.551	-14.68
349.763	132.78
349.975	26.28
350.187	147.11
350.399	188.07
350.61	97.96
350.822	100.01
351.034	91.82
351.246	173.74
351.458	118.44
351.669	165.54
351.881	167.59
352.093	163.5
352.305	190.12
352.517	169.64
352.728	89.77
352.94	30.38
353.152	79.53
353.363	-18.77
353.575	63.15
353.787	147.11
353.999	32.43
354.21	202.41
354.422	-20.82
354.633	-49.49
354.845	126.63
355.057	79.53
355.268	48.81
355.48	126.63
355.692	-80.21
355.903	153.26
356.115	61.1
356.326	-59.73
356.538	155.3
356.749	134.82
356.961	224.94
357.172	67.24
357.384	-88.4
357.595	206.5
357.807	61.1
358.018	36.52
358.23	124.58
358.441	226.98
358.653	81.58
358.864	38.57
359.075	83.63
359.287	112.3
359.498	186.02
359.709	89.77
359.921	91.82
360.132	79.53
360.344	118.44
360.555	46.76
360.766	54.95
360.977	91.82
361.189	108.2
361.4	-8.53
361.611	138.92
361.823	147.11
362.034	61.1
362.245	42.67
362.456	7.85
362.667	122.54
362.879	40.62
363.09	93.87
363.301	120.49
363.512	67.24
363.723	-37.2
363.935	-8.53
364.146	89.77
364.357	52.91
364.568	124.58
364.779	-0.34
364.99	95.91
365.201	75.43
365.412	218.79
365.623	24.23
365.834	155.3
366.045	77.48
366.256	132.78
366.467	143.02
366.678	44.71
366.889	52.91
367.1	-41.3
367.311	161.45
367.522	89.77
367.733	73.39
367.944	44.71
368.155	48.81
368.366	77.48
368.577	120.49
368.788	140.97
368.999	9.9
369.209	83.63
369.42	229.03
369.631	194.22
369.842	91.82
370.053	89.77
370.264	106.15
370.474	13.99
370.685	54.95
370.896	26.28
371.107	186.02
371.317	122.54
371.528	73.39
371.739	120.49
371.95	267.94
372.16	71.34
372.371	26.28
372.582	-49.49
372.792	122.54
373.003	34.47
373.214	67.24
373.424	169.64
373.635	5.8
373.846	147.11
374.056	65.19
374.267	91.82
374.477	81.58
374.688	81.58
374.898	57
375.109	71.34
375.319	155.3
375.53	132.78
375.74	93.87
375.951	38.57
376.161	36.52
376.372	143.02
376.582	32.43
376.793	85.67
377.003	36.52
377.214	16.04
377.424	87.72
377.635	-8.53
377.845	18.09
378.055	120.49
378.266	-20.82
378.476	18.09
378.686	46.76
378.897	42.67
379.107	134.82
379.317	81.58
379.528	-41.3
379.738	179.88
379.948	-10.58
380.158	198.31
380.369	112.3
380.579	159.4
380.789	63.15
380.999	71.34
381.21	100.01
381.42	204.46
381.63	-12.63
381.84	192.17
382.05	75.43
382.261	120.49
382.471	171.69
382.681	3.75
382.891	181.93
383.101	110.25
383.311	79.53
383.521	91.82
383.731	106.15
383.941	138.92
384.151	44.71
384.361	5.8
384.571	177.83
384.781	54.95
384.991	167.59
385.201	233.13
385.411	126.63
385.621	104.11
385.831	112.3
386.041	42.67
386.251	57
386.461	149.16
386.671	-10.58
386.881	77.48
387.091	20.14
387.301	102.06
387.511	134.82
387.72	104.11
387.93	75.43
388.14	-0.34
388.35	89.77
388.56	100.01
388.769	134.82
388.979	75.43
389.189	-57.68
389.399	36.52
389.609	128.68
389.818	161.45
390.028	54.95
390.238	69.29
390.447	13.99
390.657	89.77
390.867	34.47
391.076	-0.34
391.286	42.67
391.496	71.34
391.705	100.01
391.915	212.65
392.125	79.53
392.334	83.63
392.544	132.78
392.753	87.72
392.963	57
393.172	75.43
393.382	11.95
393.591	181.93
393.801	95.91
394.01	210.6
394.22	161.45
394.429	1.71
394.639	30.38
394.848	93.87
395.058	106.15
395.267	79.53
395.477	173.74
395.686	130.73
395.895	136.87
396.105	196.26
396.314	130.73
396.524	-33.11
396.733	106.15
396.942	114.34
397.152	120.49
397.361	93.87
397.57	112.3
397.78	89.77
397.989	95.91
398.198	274.09
398.407	108.2
398.617	59.05
398.826	89.77
399.035	28.33
399.244	95.91
399.453	48.81
399.663	95.91
399.872	65.19
400.081	42.67
400.29	128.68
400.499	83.63
400.708	145.06
400.917	46.76
401.127	26.28
401.336	34.47
401.545	190.12
401.754	200.36
401.963	124.58
402.172	54.95
402.381	-12.63
402.59	-22.87
402.799	46.76
403.008	151.21
403.217	122.54
403.426	83.63
403.635	-8.53
403.844	52.91
404.053	1.71
404.262	71.34
404.471	259.75
404.68	145.06
404.888	52.91
405.097	65.19
405.306	85.67
405.515	112.3
405.724	30.38
405.933	181.93
406.142	120.49
406.35	145.06
406.559	108.2
406.768	69.29
406.977	192.17
407.185	132.78
407.394	202.41
407.603	32.43
407.812	67.24
408.02	143.02
408.229	63.15
408.438	50.86
408.646	-18.77
408.855	93.87
409.064	128.68
409.272	79.53
409.481	132.78
409.69	30.38
409.898	-33.11
410.107	149.16
410.315	81.58
410.524	-4.44
410.733	81.58
410.941	42.67
411.15	97.96
411.358	42.67
411.567	181.93
411.775	140.97
411.984	71.34
412.192	122.54
412.401	87.72
412.609	181.93
412.818	192.17
413.026	79.53
413.234	104.11
413.443	73.39
413.651	20.14
413.86	40.62
414.068	167.59
414.276	169.64
414.485	67.24
414.693	183.98
414.901	218.79
415.11	118.44
415.318	46.76
415.526	130.73
415.734	136.87
415.943	26.28
416.151	87.72
416.359	42.67
416.567	87.72
416.776	110.25
416.984	97.96
417.192	202.41
417.4	97.96
417.608	13.99
417.817	-37.2
418.025	138.92
418.233	192.17
418.441	52.91
418.649	32.43
418.857	75.43
419.065	186.02
419.273	73.39
419.481	95.91
419.689	100.01
419.897	13.99
420.105	-16.73
420.313	93.87
420.521	138.92
420.729	206.5
420.937	77.48
421.145	-12.63
421.353	145.06
421.561	110.25
421.769	67.24
421.977	-10.58
422.185	157.35
422.393	104.11
422.601	218.79
422.809	91.82
423.017	95.91
423.224	73.39
423.432	190.12
423.64	118.44
423.848	194.22
424.056	67.24
424.263	46.76
424.471	134.82
424.679	126.63
424.887	48.81
425.094	100.01
425.302	159.4
425.51	77.48
425.718	143.02
425.925	65.19
426.133	18.09
426.341	235.18
426.548	67.24
426.756	54.95
426.964	147.11
427.171	54.95
427.379	188.07
427.586	112.3
427.794	91.82
428.001	265.89
428.209	75.43
428.417	157.35
428.624	104.11
428.832	163.5
429.039	83.63
429.247	116.39
429.454	155.3
429.662	216.74
429.869	190.12
430.076	102.06
430.284	143.02
430.491	210.6
430.699	83.63
430.906	188.07
431.114	126.63
431.321	218.79
431.528	61.1
431.736	112.3
431.943	163.5
432.15	171.69
432.358	206.5
432.565	159.4
432.772	50.86
432.979	194.22
433.187	163.5
433.394	231.08
433.601	130.73
433.808	198.31
434.016	226.98
434.223	194.22
434.43	302.76
434.637	317.09
434.844	149.16
435.052	186.02
435.259	231.08
435.466	278.18
435.673	214.7
435.88	216.74
436.087	319.14
436.294	296.61
436.501	278.18
436.708	220.84
436.915	278.18
437.122	267.94
437.329	120.49
437.537	302.76
437.743	181.93
437.95	382.63
438.157	313
438.364	231.08
438.571	300.71
438.778	396.96
438.985	278.18
439.192	327.33
439.399	323.24
439.606	372.39
439.813	349.86
440.02	452.26
440.227	497.32
440.433	417.44
440.64	415.4
440.847	366.25
441.054	456.36
441.261	599.71
441.467	442.02
441.674	458.4
441.881	478.88
442.088	497.32
442.294	564.9
442.501	638.62
442.708	689.82
442.914	448.16
443.121	657.06
443.328	566.95
443.534	659.1
443.741	650.91
443.948	556.71
444.154	628.39
444.361	814.75
444.568	679.58
444.774	747.17
444.981	671.39
445.187	824.99
445.394	892.57
445.6	777.89
445.807	902.81
446.013	933.53
446.22	800.41
446.426	913.05
446.633	1015.45
446.839	1136.28
447.046	1078.94
447.252	1117.85
447.459	1123.99
447.665	1101.47
447.871	1281.69
448.078	1304.21
448.284	1316.5
448.491	1429.14
448.697	1365.65
448.903	1425.04
449.11	1478.29
449.316	1388.18
449.522	1660.56
449.728	1781.39
449.935	1552.02
450.141	1683.09
450.347	1900.17
450.553	1842.83
450.76	1996.43
450.966	2018.96
451.172	2070.16
451.378	2098.83
451.584	2141.83
451.791	2250.38
451.997	2377.35
452.203	2430.6
452.409	2647.68
452.615	2547.33
452.821	2516.61
453.027	2528.9
453.233	3020.41
453.44	2762.37
453.646	2950.78
453.852	3147.39
454.058	3298.94
454.264	3317.37
454.47	3507.83
454.676	3452.53
454.882	3831.41
455.088	3638.9
455.294	3812.98
455.5	4124.27
455.705	4279.91
455.911	4355.69
456.117	4617.83
456.323	4648.55
456.529	4705.89
456.735	5099.1
456.941	5273.18
457.147	5361.24
457.352	5465.69
457.558	5633.62
457.764	5938.77
457.97	6217.29
458.176	6319.69
458.381	6626.89
458.587	6874.69
458.793	7265.85
458.999	6999.62
459.204	7964.21
459.41	8222.25
459.616	8338.99
459.821	8748.58
460.027	8912.42
460.233	9586.2
460.438	9711.13
460.644	9901.59
460.85	10366.48
461.055	10548.75
461.261	11113.99
461.466	11079.17
461.672	10925.57
461.878	12324.33
462.083	12281.33
462.289	12559.85
462.494	12844.52
462.7	12938.73
462.905	13131.23
463.111	14530
463.316	14722.51
463.522	15089.09
463.727	15646.14
463.932	16215.48
464.138	16836.01
464.343	17720.73
464.549	17450.4
464.754	19174.79
464.959	19281.28
465.165	19766.65
465.37	19639.68
465.575	19688.83
465.781	20968.81
465.986	21513.57
466.191	21142.89
466.397	21439.84
466.602	21116.26
466.807	21974.36
467.012	22607.19
467.218	22650.19
467.423	22740.3
467.628	23174.47
467.833	24730.93
468.038	24491.32
