Data from USB4F104151__78__10-33-13-943.txt Node

Date: Wed Feb 26 10:33:13 EST 2025
User: louis
Spectrometer: USB4F10415
Trigger mode: 4
Integration Time (sec): 1.000000E-1
Scans to average: 1
Electric dark correction enabled: true
Nonlinearity correction enabled: false
Boxcar width: 0
XAxis mode: Wavelengths
Number of Pixels in Spectrum: 3648
>>>>>Begin Spectral Data<<<<<
178.204	-355.32
178.424	-355.32
178.644	-355.32
178.864	-406.52
179.084	-424.95
179.304	-17.41
179.524	-5.12
179.744	-82.94
179.964	56.32
180.184	17.41
180.404	62.46
180.624	-23.55
180.844	-33.79
181.064	3.07
181.283	33.79
181.503	-72.7
181.723	62.46
181.943	-70.65
182.163	218.11
182.383	23.55
182.602	44.03
182.822	125.95
183.042	19.46
183.262	31.74
183.482	7.17
183.701	3.07
183.921	68.61
184.141	-70.65
184.361	99.33
184.58	48.13
184.8	29.7
185.02	-15.36
185.239	125.95
185.459	62.46
185.679	115.71
185.898	-123.9
186.118	66.56
186.338	117.76
186.557	68.61
186.777	7.17
186.997	-13.31
187.216	13.31
187.436	185.34
187.655	82.94
187.875	111.61
188.095	54.27
188.314	160.77
188.534	181.25
188.753	-64.51
188.973	183.29
189.192	156.67
189.412	39.94
189.631	68.61
189.851	19.46
190.07	201.72
190.29	-13.31
190.509	29.7
190.729	35.84
190.948	236.54
191.168	279.55
191.387	50.18
191.607	91.13
191.826	148.48
192.045	-23.55
192.265	25.6
192.484	44.03
192.704	15.36
192.923	29.7
193.142	193.53
193.362	72.7
193.581	89.09
193.8	72.7
194.02	72.7
194.239	39.94
194.458	35.84
194.678	35.84
194.897	-3.07
195.116	23.55
195.335	78.85
195.555	111.61
195.774	-33.79
195.993	123.9
196.212	46.08
196.432	21.5
196.651	58.37
196.87	-56.32
197.089	244.73
197.308	82.94
197.528	130.05
197.747	68.61
197.966	58.37
198.185	115.71
198.404	-13.31
198.623	54.27
198.842	150.53
199.062	115.71
199.281	168.96
199.5	41.98
199.719	95.23
199.938	41.98
200.157	-1.02
200.376	130.05
200.595	105.47
200.814	46.08
201.033	-33.79
201.252	177.15
201.471	78.85
201.69	72.7
201.909	-7.17
202.128	154.62
202.347	111.61
202.566	13.31
202.785	-11.26
203.004	-1.02
203.223	238.59
203.442	15.36
203.661	19.46
203.879	99.33
204.098	80.89
204.317	-37.89
204.536	146.43
204.755	97.28
204.974	199.68
205.193	7.17
205.411	95.23
205.63	97.28
205.849	68.61
206.068	-44.03
206.287	-60.42
206.505	181.25
206.724	33.79
206.943	-48.13
207.162	1.02
207.381	101.37
207.599	52.22
207.818	89.09
208.037	-9.22
208.255	60.42
208.474	113.66
208.693	125.95
208.911	21.5
209.13	121.85
209.349	21.5
209.567	58.37
209.786	82.94
210.005	91.13
210.223	101.37
210.442	-52.22
210.661	35.84
210.879	84.99
211.098	115.71
211.316	17.41
211.535	13.31
211.753	62.46
211.972	87.04
212.191	-7.17
212.409	35.84
212.628	72.7
212.846	23.55
213.065	-1.02
213.283	74.75
213.502	-17.41
213.72	70.65
213.938	5.12
214.157	15.36
214.375	97.28
214.594	35.84
214.812	76.8
215.031	-41.98
215.249	23.55
215.467	117.76
215.686	70.65
215.904	142.33
216.122	39.94
216.341	185.34
216.559	68.61
216.778	171.01
216.996	134.14
217.214	31.74
217.432	3.07
217.651	15.36
217.869	74.75
218.087	91.13
218.306	80.89
218.524	11.26
218.742	80.89
218.96	113.66
219.179	37.89
219.397	33.79
219.615	300.03
219.833	64.51
220.051	15.36
220.27	80.89
220.488	87.04
220.706	29.7
220.924	31.74
221.142	-70.65
221.36	107.52
221.578	17.41
221.796	37.89
222.015	105.47
222.233	87.04
222.451	168.96
222.669	-48.13
222.887	101.37
223.105	58.37
223.323	-62.46
223.541	46.08
223.759	64.51
223.977	31.74
224.195	181.25
224.413	123.9
224.631	29.7
224.849	128
225.067	214.01
225.285	31.74
225.503	60.42
225.721	-115.71
225.939	121.85
226.157	125.95
226.375	291.84
226.592	25.6
226.81	80.89
227.028	101.37
227.246	109.57
227.464	23.55
227.682	156.67
227.9	91.13
228.117	70.65
228.335	111.61
228.553	91.13
228.771	39.94
228.989	80.89
229.206	48.13
229.424	17.41
229.642	3.07
229.86	-29.7
230.077	189.44
230.295	52.22
230.513	46.08
230.731	105.47
230.948	209.92
231.166	134.14
231.384	54.27
231.601	-99.33
231.819	312.32
232.037	29.7
232.254	15.36
232.472	17.41
232.689	37.89
232.907	146.43
233.125	35.84
233.342	23.55
233.56	56.32
233.777	15.36
233.995	44.03
234.213	173.05
234.43	72.7
234.648	64.51
234.865	-1.02
235.083	177.15
235.3	70.65
235.518	191.49
235.735	109.57
235.953	93.18
236.17	158.72
236.388	21.5
236.605	64.51
236.822	27.65
237.04	70.65
237.257	87.04
237.475	-54.27
237.692	93.18
237.909	74.75
238.127	1.02
238.344	125.95
238.562	84.99
238.779	11.26
238.996	-101.37
239.214	58.37
239.431	44.03
239.648	111.61
239.865	19.46
240.083	80.89
240.3	-44.03
240.517	3.07
240.735	-15.36
240.952	80.89
241.169	99.33
241.386	101.37
241.603	56.32
241.821	-3.07
242.038	-37.89
242.255	136.19
242.472	23.55
242.689	5.12
242.907	115.71
243.124	-9.22
243.341	50.18
243.558	9.22
243.775	-52.22
243.992	-29.7
244.209	113.66
244.426	144.38
244.643	76.8
244.86	78.85
245.078	99.33
245.295	82.94
245.512	9.22
245.729	11.26
245.946	39.94
246.163	54.27
246.38	23.55
246.597	97.28
246.814	48.13
247.031	80.89
247.248	78.85
247.464	31.74
247.681	64.51
247.898	87.04
248.115	66.56
248.332	15.36
248.549	117.76
248.766	211.96
248.983	103.42
249.2	125.95
249.417	107.52
249.633	9.22
249.85	156.67
250.067	-19.46
250.284	60.42
250.501	121.85
250.717	58.37
250.934	-21.5
251.151	-33.79
251.368	72.7
251.585	101.37
251.801	48.13
252.018	-39.94
252.235	103.42
252.451	-7.17
252.668	62.46
252.885	78.85
253.102	72.7
253.318	50.18
253.535	41.98
253.752	50.18
253.968	93.18
254.185	15.36
254.401	70.65
254.618	93.18
254.835	7.17
255.051	199.68
255.268	70.65
255.484	109.57
255.701	-39.94
255.917	27.65
256.134	13.31
256.351	25.6
256.567	-19.46
256.784	70.65
257	7.17
257.217	103.42
257.433	115.71
257.65	31.74
257.866	244.73
258.082	-19.46
258.299	-1.02
258.515	62.46
258.732	5.12
258.948	29.7
259.165	46.08
259.381	3.07
259.597	128
259.814	-7.17
260.03	-1.02
260.246	29.7
260.463	99.33
260.679	150.53
260.895	29.7
261.112	152.57
261.328	37.89
261.544	72.7
261.761	175.1
261.977	-33.79
262.193	-91.13
262.409	74.75
262.626	72.7
262.842	31.74
263.058	-21.5
263.274	177.15
263.49	146.43
263.707	111.61
263.923	185.34
264.139	13.31
264.355	35.84
264.571	84.99
264.787	89.09
265.004	183.29
265.22	13.31
265.436	13.31
265.652	-11.26
265.868	138.24
266.084	-44.03
266.3	152.57
266.516	-29.7
266.732	21.5
266.948	35.84
267.164	-50.18
267.38	138.24
267.596	123.9
267.812	166.91
268.028	52.22
268.244	99.33
268.46	105.47
268.676	5.12
268.892	105.47
269.108	103.42
269.324	-27.65
269.54	-33.79
269.756	158.72
269.972	46.08
270.188	33.79
270.403	15.36
270.619	3.07
270.835	150.53
271.051	154.62
271.267	33.79
271.483	-13.31
271.698	207.87
271.914	41.98
272.13	70.65
272.346	11.26
272.562	70.65
272.777	154.62
272.993	39.94
273.209	58.37
273.425	111.61
273.64	-27.65
273.856	111.61
274.072	9.22
274.287	7.17
274.503	80.89
274.719	105.47
274.934	-115.71
275.15	-70.65
275.366	35.84
275.581	-15.36
275.797	27.65
276.012	35.84
276.228	7.17
276.444	35.84
276.659	101.37
276.875	11.26
277.09	132.09
277.306	33.79
277.521	125.95
277.737	82.94
277.952	29.7
278.168	-13.31
278.383	56.32
278.599	17.41
278.814	54.27
279.03	-9.22
279.245	140.29
279.461	72.7
279.676	148.48
279.892	-58.37
280.107	44.03
280.322	19.46
280.538	54.27
280.753	91.13
280.969	62.46
281.184	78.85
281.399	156.67
281.615	9.22
281.83	50.18
282.045	-11.26
282.26	19.46
282.476	46.08
282.691	52.22
282.906	101.37
283.122	29.7
283.337	1.02
283.552	89.09
283.767	33.79
283.983	66.56
284.198	76.8
284.413	158.72
284.628	-25.6
284.843	58.37
285.058	78.85
285.274	29.7
285.489	-9.22
285.704	111.61
285.919	35.84
286.134	7.17
286.349	35.84
286.564	-70.65
286.779	154.62
286.995	72.7
287.21	-3.07
287.425	62.46
287.64	48.13
287.855	142.33
288.07	-74.75
288.285	142.33
288.5	66.56
288.715	138.24
288.93	48.13
289.145	37.89
289.36	56.32
289.575	9.22
289.79	132.09
290.004	-3.07
290.219	123.9
290.434	97.28
290.649	-27.65
290.864	66.56
291.079	60.42
291.294	44.03
291.509	84.99
291.724	35.84
291.938	31.74
292.153	39.94
292.368	17.41
292.583	78.85
292.798	148.48
293.012	41.98
293.227	89.09
293.442	-27.65
293.657	160.77
293.871	146.43
294.086	76.8
294.301	164.86
294.516	64.51
294.73	37.89
294.945	-5.12
295.16	-31.74
295.374	181.25
295.589	152.57
295.804	-11.26
296.018	62.46
296.233	95.23
296.447	103.42
296.662	-15.36
296.877	214.01
297.091	62.46
297.306	97.28
297.52	105.47
297.735	140.29
297.949	76.8
298.164	144.38
298.378	84.99
298.593	-70.65
298.807	17.41
299.022	41.98
299.236	125.95
299.451	19.46
299.665	39.94
299.88	-13.31
300.094	80.89
300.309	140.29
300.523	113.66
300.737	117.76
300.952	78.85
301.166	119.81
301.381	-5.12
301.595	78.85
301.809	33.79
302.024	15.36
302.238	-9.22
302.452	187.39
302.667	72.7
302.881	119.81
303.095	46.08
303.309	25.6
303.524	23.55
303.738	-9.22
303.952	68.61
304.166	70.65
304.381	-123.9
304.595	115.71
304.809	-1.02
305.023	35.84
305.237	-54.27
305.452	-21.5
305.666	33.79
305.88	84.99
306.094	80.89
306.308	33.79
306.522	148.48
306.736	97.28
306.95	117.76
307.164	-29.7
307.379	-9.22
307.593	128
307.807	123.9
308.021	84.99
308.235	46.08
308.449	13.31
308.663	-7.17
308.877	187.39
309.091	52.22
309.305	175.1
309.519	-105.47
309.733	3.07
309.947	33.79
310.161	25.6
310.374	89.09
310.588	138.24
310.802	33.79
311.016	29.7
311.23	113.66
311.444	17.41
311.658	56.32
311.872	93.18
312.085	195.58
312.299	125.95
312.513	128
312.727	1.02
312.941	-97.28
313.154	46.08
313.368	84.99
313.582	-9.22
313.796	103.42
314.009	66.56
314.223	152.57
314.437	66.56
314.651	136.19
314.864	-76.8
315.078	19.46
315.292	31.74
315.505	-33.79
315.719	93.18
315.933	115.71
316.146	72.7
316.36	48.13
316.573	138.24
316.787	134.14
317.001	125.95
317.214	13.31
317.428	33.79
317.641	-29.7
317.855	-19.46
318.068	21.5
318.282	66.56
318.495	211.96
318.709	80.89
318.922	107.52
319.136	193.53
319.349	140.29
319.563	58.37
319.776	138.24
319.99	-17.41
320.203	107.52
320.417	25.6
320.63	70.65
320.843	150.53
321.057	68.61
321.27	52.22
321.483	146.43
321.697	99.33
321.91	9.22
322.124	109.57
322.337	84.99
322.55	-52.22
322.763	-13.31
322.977	7.17
323.19	-21.5
323.403	140.29
323.617	103.42
323.83	123.9
324.043	68.61
324.256	68.61
324.469	7.17
324.683	162.81
324.896	82.94
325.109	107.52
325.322	-54.27
325.535	87.04
325.748	72.7
325.962	7.17
326.175	97.28
326.388	70.65
326.601	76.8
326.814	72.7
327.027	50.18
327.24	156.67
327.453	-27.65
327.666	132.09
327.879	130.05
328.092	107.52
328.305	142.33
328.518	44.03
328.731	17.41
328.944	-11.26
329.157	84.99
329.37	1.02
329.583	144.38
329.796	179.2
330.009	13.31
330.222	35.84
330.435	54.27
330.648	82.94
330.861	89.09
331.073	101.37
331.286	152.57
331.499	-3.07
331.712	-19.46
331.925	46.08
332.138	70.65
332.35	138.24
332.563	-1.02
332.776	93.18
332.989	70.65
333.202	31.74
333.414	113.66
333.627	9.22
333.84	54.27
334.053	123.9
334.265	62.46
334.478	-15.36
334.691	35.84
334.903	39.94
335.116	-15.36
335.329	72.7
335.541	162.81
335.754	162.81
335.966	-31.74
336.179	66.56
336.392	-5.12
336.604	39.94
336.817	171.01
337.029	205.82
337.242	-11.26
337.454	101.37
337.667	13.31
337.88	156.67
338.092	54.27
338.305	117.76
338.517	-13.31
338.729	84.99
338.942	107.52
339.154	-23.55
339.367	52.22
339.579	185.34
339.792	25.6
340.004	76.8
340.217	54.27
340.429	58.37
340.641	-44.03
340.854	15.36
341.066	56.32
341.278	125.95
341.491	164.86
341.703	5.12
341.915	15.36
342.128	179.2
342.34	48.13
342.552	-54.27
342.764	25.6
342.977	-5.12
343.189	113.66
343.401	41.98
343.613	-109.57
343.826	56.32
344.038	54.27
344.25	31.74
344.462	23.55
344.674	119.81
344.886	-13.31
345.099	76.8
345.311	80.89
345.523	21.5
345.735	-21.5
345.947	93.18
346.159	54.27
346.371	62.46
346.583	-54.27
346.795	246.78
347.007	70.65
347.219	76.8
347.431	35.84
347.643	68.61
347.855	-29.7
348.067	173.05
348.279	11.26
348.491	74.75
348.703	70.65
348.915	70.65
349.127	7.17
349.339	31.74
349.551	5.12
349.763	84.99
349.975	48.13
350.187	82.94
350.399	91.13
350.61	142.33
350.822	76.8
351.034	54.27
351.246	66.56
351.458	113.66
351.669	162.81
351.881	162.81
352.093	183.29
352.305	82.94
352.517	7.17
352.728	162.81
352.94	62.46
353.152	105.47
353.363	-117.76
353.575	138.24
353.787	123.9
353.999	64.51
354.21	134.14
354.422	-60.42
354.633	111.61
354.845	52.22
355.057	60.42
355.268	66.56
355.48	62.46
355.692	15.36
355.903	99.33
356.115	-21.5
356.326	-72.7
356.538	109.57
356.749	44.03
356.961	177.15
357.172	25.6
357.384	-17.41
357.595	277.5
357.807	25.6
358.018	-25.6
358.23	117.76
358.441	136.19
358.653	87.04
358.864	9.22
359.075	-39.94
359.287	66.56
359.498	158.72
359.709	117.76
359.921	68.61
360.132	72.7
360.344	35.84
360.555	54.27
360.766	58.37
360.977	119.81
361.189	82.94
361.4	3.07
361.611	142.33
361.823	156.67
362.034	115.71
362.245	-35.84
362.456	82.94
362.667	91.13
362.879	-105.47
363.09	-9.22
363.301	54.27
363.512	58.37
363.723	-50.18
363.935	48.13
364.146	91.13
364.357	19.46
364.568	62.46
364.779	-46.08
364.99	132.09
365.201	31.74
365.412	150.53
365.623	-50.18
365.834	84.99
366.045	17.41
366.256	48.13
366.467	64.51
366.678	52.22
366.889	62.46
367.1	-1.02
367.311	64.51
367.522	25.6
367.733	41.98
367.944	123.9
368.155	64.51
368.366	101.37
368.577	115.71
368.788	142.33
368.999	35.84
369.209	93.18
369.42	234.49
369.631	289.79
369.842	119.81
370.053	-11.26
370.264	99.33
370.474	25.6
370.685	41.98
370.896	97.28
371.107	132.09
371.317	175.1
371.528	39.94
371.739	144.38
371.95	132.09
372.16	164.86
372.371	-27.65
372.582	31.74
372.792	113.66
373.003	72.7
373.214	78.85
373.424	123.9
373.635	-39.94
373.846	58.37
374.056	-23.55
374.267	76.8
374.477	60.42
374.688	-54.27
374.898	70.65
375.109	35.84
375.319	-15.36
375.53	48.13
375.74	119.81
375.951	5.12
376.161	46.08
376.372	105.47
376.582	-19.46
376.793	82.94
377.003	95.23
377.214	23.55
377.424	152.57
377.635	33.79
377.845	1.02
378.055	128
378.266	-23.55
378.476	48.13
378.686	48.13
378.897	19.46
379.107	128
379.317	89.09
379.528	62.46
379.738	87.04
379.948	-25.6
380.158	82.94
380.369	3.07
380.579	117.76
380.789	113.66
380.999	56.32
381.21	119.81
381.42	236.54
381.63	17.41
381.84	52.22
382.05	125.95
382.261	175.1
382.471	148.48
382.681	21.5
382.891	199.68
383.101	35.84
383.311	-48.13
383.521	84.99
383.731	146.43
383.941	146.43
384.151	68.61
384.361	72.7
384.571	1.02
384.781	74.75
384.991	209.92
385.201	234.49
385.411	115.71
385.621	99.33
385.831	76.8
386.041	128
386.251	21.5
386.461	109.57
386.671	15.36
386.881	44.03
387.091	17.41
387.301	109.57
387.511	46.08
387.72	89.09
387.93	130.05
388.14	-15.36
388.35	117.76
388.56	142.33
388.769	99.33
388.979	17.41
389.189	1.02
389.399	35.84
389.609	121.85
389.818	123.9
390.028	115.71
390.238	89.09
390.447	11.26
390.657	132.09
390.867	13.31
391.076	7.17
391.286	80.89
391.496	27.65
391.705	46.08
391.915	140.29
392.125	54.27
392.334	7.17
392.544	144.38
392.753	11.26
392.963	-13.31
393.172	68.61
393.382	31.74
393.591	158.72
393.801	31.74
394.01	154.62
394.22	46.08
394.429	-3.07
394.639	31.74
394.848	99.33
395.058	123.9
395.267	11.26
395.477	89.09
395.686	82.94
395.895	222.2
396.105	197.63
396.314	80.89
396.524	62.46
396.733	1.02
396.942	107.52
397.152	140.29
397.361	87.04
397.57	44.03
397.78	105.47
397.989	166.91
398.198	199.68
398.407	17.41
398.617	31.74
398.826	15.36
399.035	74.75
399.244	164.86
399.453	82.94
399.663	35.84
399.872	80.89
400.081	-17.41
400.29	150.53
400.499	-19.46
400.708	109.57
400.917	64.51
401.127	31.74
401.336	-11.26
401.545	197.63
401.754	140.29
401.963	156.67
402.172	39.94
402.381	41.98
402.59	54.27
402.799	64.51
403.008	74.75
403.217	39.94
403.426	138.24
403.635	-74.75
403.844	70.65
404.053	25.6
404.262	39.94
404.471	166.91
404.68	64.51
404.888	-58.37
405.097	66.56
405.306	48.13
405.515	82.94
405.724	78.85
405.933	93.18
406.142	130.05
406.35	158.72
406.559	52.22
406.768	41.98
406.977	232.44
407.185	37.89
407.394	125.95
407.603	-50.18
407.812	44.03
408.02	175.1
408.229	-76.8
408.438	78.85
408.646	44.03
408.855	72.7
409.064	84.99
409.272	62.46
409.481	54.27
409.69	-27.65
409.898	-93.18
410.107	64.51
410.315	89.09
410.524	19.46
410.733	52.22
410.941	58.37
411.15	134.14
411.358	128
411.567	183.29
411.775	11.26
411.984	95.23
412.192	113.66
412.401	-56.32
412.609	209.92
412.818	193.53
413.026	89.09
413.234	72.7
413.443	23.55
413.651	46.08
413.86	97.28
414.068	70.65
414.276	115.71
414.485	5.12
414.693	160.77
414.901	218.11
415.11	39.94
415.318	52.22
415.526	87.04
415.734	123.9
415.943	78.85
416.151	150.53
416.359	46.08
416.567	125.95
416.776	91.13
416.984	140.29
417.192	160.77
417.4	27.65
417.608	5.12
417.817	-39.94
418.025	150.53
418.233	123.9
418.441	56.32
418.649	25.6
418.857	97.28
419.065	44.03
419.273	37.89
419.481	44.03
419.689	29.7
419.897	66.56
420.105	31.74
420.313	146.43
420.521	179.2
420.729	144.38
420.937	105.47
421.145	68.61
421.353	160.77
421.561	205.82
421.769	205.82
421.977	62.46
422.185	101.37
422.393	11.26
422.601	132.09
422.809	168.96
423.017	87.04
423.224	78.85
423.432	128
423.64	95.23
423.848	171.01
424.056	-11.26
424.263	80.89
424.471	93.18
424.679	195.58
424.887	-1.02
425.094	162.81
425.302	72.7
425.51	80.89
425.718	91.13
425.925	50.18
426.133	29.7
426.341	220.16
426.548	3.07
426.756	60.42
426.964	93.18
427.171	-9.22
427.379	64.51
427.586	95.23
427.794	158.72
428.001	191.49
428.209	99.33
428.417	209.92
428.624	89.09
428.832	130.05
429.039	76.8
429.247	130.05
429.454	115.71
429.662	195.58
429.869	115.71
430.076	109.57
430.284	197.63
430.491	224.25
430.699	123.9
430.906	283.64
431.114	123.9
431.321	101.37
431.528	93.18
431.736	132.09
431.943	183.29
432.15	95.23
432.358	142.33
432.565	283.64
432.772	72.7
432.979	160.77
433.187	142.33
433.394	232.44
433.601	93.18
433.808	183.29
434.016	197.63
434.223	232.44
434.43	128
434.637	265.21
434.844	201.72
435.052	211.96
435.259	279.55
435.466	304.12
435.673	238.59
435.88	314.36
436.087	338.94
436.294	416.76
436.501	349.18
436.708	261.12
436.915	324.6
437.122	336.89
437.329	220.16
437.537	267.26
437.743	326.65
437.95	474.1
438.157	351.23
438.364	355.32
438.571	295.93
438.778	396.28
438.985	410.62
439.192	506.87
439.399	367.61
439.606	463.86
439.813	367.61
440.02	543.74
440.227	592.89
440.433	416.76
440.64	451.58
440.847	459.77
441.054	613.37
441.261	631.8
441.467	635.89
441.674	443.39
441.881	701.43
442.088	605.17
442.294	633.85
442.501	695.29
442.708	740.34
442.914	746.48
443.121	850.93
443.328	721.91
443.534	791.54
443.741	758.77
443.948	672.76
444.154	846.84
444.361	984.05
444.568	889.84
444.774	881.65
444.981	881.65
445.187	1082.35
445.394	1025.01
445.6	1111.02
445.807	1154.03
446.013	1154.03
446.22	1086.45
446.426	1254.38
446.633	1326.06
446.839	1438.7
447.046	1211.37
447.252	1461.23
447.459	1510.38
447.665	1483.75
447.871	1637.35
448.078	1874.92
448.284	1659.88
448.491	1903.59
448.697	1846.24
448.903	2059.23
449.11	1967.07
449.316	1965.03
449.522	2137.06
449.728	2223.07
449.935	2317.28
450.141	2261.98
450.347	2503.64
450.553	2487.26
450.76	2458.59
450.966	2530.27
451.172	2733.01
451.378	2769.88
451.584	2730.97
451.791	3042.26
451.997	3122.13
452.203	3275.73
452.409	3251.15
452.615	3546.06
452.821	3460.04
453.027	3394.51
453.233	3924.93
453.44	3716.04
453.646	3908.55
453.852	4006.85
454.058	4299.71
454.264	4324.29
454.47	4637.63
454.676	4850.61
454.882	5041.08
455.088	4965.3
455.294	5245.87
455.5	5376.94
455.705	5890.98
455.911	5798.82
456.117	5985.19
456.323	6130.59
456.529	6325.15
456.735	6665.11
456.941	6824.86
457.147	6964.12
457.352	7332.75
457.558	7627.66
457.764	8049.54
457.97	8184.71
458.176	8645.5
458.381	9005.94
458.587	9143.16
458.793	9618.29
458.999	9638.76
459.204	10974.04
459.41	11129.69
459.616	10992.47
459.821	11782.99
460.027	12272.45
460.233	12749.63
460.438	12796.73
460.644	13513.52
460.85	13499.19
461.055	14156.58
461.261	14967.58
461.466	14613.28
461.672	14697.25
461.878	16741.12
462.083	16407.3
462.289	16622.34
462.494	17564.4
462.7	17543.92
462.905	17830.64
463.111	19321.56
463.316	20120.27
463.522	20640.45
463.727	20945.6
463.932	22067.89
464.138	22674.09
464.343	23753.37
464.549	23650.97
464.754	25436.8
464.959	26157.68
465.165	26495.6
465.37	26387.05
465.575	26530.41
465.781	28068.44
465.986	28949.06
466.191	28394.06
466.397	28887.62
466.602	28265.04
466.807	29921.85
467.012	30257.71
467.218	30448.18
467.423	31056.42
467.628	31629.85
467.833	33184.26
468.038	32442.9
468.244	32211.48
468.449	34040.31
468.654	33425.92
468.859	32858.63
469.064	32895.5
