Data from USB4F104151__6__11-24-16-830.txt Node

Date: Wed Feb 26 11:24:16 EST 2025
User: louis
Spectrometer: USB4F10415
Trigger mode: 4
Integration Time (sec): 1.000000E-1
Scans to average: 1
Electric dark correction enabled: true
Nonlinearity correction enabled: false
Boxcar width: 0
XAxis mode: Wavelengths
Number of Pixels in Spectrum: 3648
>>>>>Begin Spectral Data<<<<<
178.204	-436.05
178.424	-436.05
178.644	-436.05
178.864	-341.84
179.084	-362.32
179.304	-18.26
179.524	-3.93
179.744	-81.75
179.964	96.43
180.184	6.31
180.404	-63.32
180.624	-24.4
180.844	0.17
181.064	-5.97
181.283	92.33
181.503	-69.46
181.723	71.85
181.943	-89.94
182.163	121
182.383	47.27
182.602	49.32
182.822	174.25
183.042	94.38
183.262	20.65
183.482	-24.4
183.701	30.89
183.921	65.71
184.141	-40.79
184.361	32.94
184.58	20.65
184.8	34.99
185.02	18.6
185.239	80.04
185.459	135.34
185.679	114.86
185.898	-3.93
186.118	63.66
186.338	80.04
186.557	123.05
186.777	-73.56
186.997	8.36
187.216	96.43
187.436	192.68
187.655	49.32
187.875	82.09
188.095	65.71
188.314	145.58
188.534	149.67
188.753	-22.36
188.973	69.8
189.192	172.2
189.412	135.34
189.631	57.51
189.851	61.61
190.07	139.43
190.29	-22.36
190.509	-1.88
190.729	16.55
190.948	106.67
191.168	245.93
191.387	41.13
191.607	-8.02
191.826	65.71
192.045	84.14
192.265	69.8
192.484	125.1
192.704	26.79
192.923	-24.4
193.142	182.44
193.362	184.49
193.581	133.29
193.8	69.8
194.02	112.81
194.239	82.09
194.458	125.1
194.678	-12.12
194.897	14.51
195.116	37.03
195.335	108.71
195.555	82.09
195.774	4.27
195.993	118.95
196.212	100.52
196.432	108.71
196.651	12.46
196.87	65.71
197.089	266.41
197.308	65.71
197.528	108.71
197.747	73.9
197.966	63.66
198.185	149.67
198.404	22.7
198.623	49.32
198.842	100.52
199.062	96.43
199.281	14.51
199.5	63.66
199.719	14.51
199.938	80.04
200.157	73.9
200.376	110.76
200.595	157.86
200.814	88.23
201.033	-12.12
201.252	137.38
201.471	80.04
201.69	161.96
201.909	30.89
202.128	194.73
202.347	41.13
202.566	28.84
202.785	-51.03
203.004	2.22
203.223	336.04
203.442	176.3
203.661	88.23
203.879	112.81
204.098	164.01
204.317	-32.6
204.536	98.47
204.755	61.61
204.974	98.47
205.193	125.1
205.411	149.67
205.63	114.86
205.849	90.28
206.068	41.13
206.287	0.17
206.505	229.54
206.724	-32.6
206.943	69.8
207.162	-5.97
207.381	47.27
207.599	-3.93
207.818	96.43
208.037	-48.98
208.255	39.08
208.474	94.38
208.693	116.9
208.911	65.71
209.13	57.51
209.349	112.81
209.567	90.28
209.786	67.75
210.005	110.76
210.223	131.24
210.442	-18.26
210.661	63.66
210.879	75.95
211.098	94.38
211.316	69.8
211.535	55.47
211.753	-20.31
211.972	2.22
212.191	51.37
212.409	8.36
212.628	151.72
212.846	59.56
213.065	39.08
213.283	121
213.502	39.08
213.72	55.47
213.938	137.38
214.157	32.94
214.375	170.15
214.594	39.08
214.812	168.1
215.031	-18.26
215.249	4.27
215.467	104.62
215.686	82.09
215.904	88.23
216.122	59.56
216.341	190.63
216.559	16.55
216.778	143.53
216.996	180.39
217.214	88.23
217.432	-20.31
217.651	-71.51
217.869	108.71
218.087	84.14
218.306	39.08
218.524	106.67
218.742	-5.97
218.96	131.24
219.179	-16.21
219.397	39.08
219.615	284.84
219.833	106.67
220.051	-102.23
220.27	114.86
220.488	96.43
220.706	80.04
220.924	34.99
221.142	-40.79
221.36	80.04
221.578	39.08
221.796	20.65
222.015	67.75
222.233	65.71
222.451	149.67
222.669	61.61
222.887	125.1
223.105	37.03
223.323	80.04
223.541	20.65
223.759	16.55
223.977	53.42
224.195	241.83
224.413	137.38
224.631	102.57
224.849	14.51
225.067	211.11
225.285	34.99
225.503	37.03
225.721	-55.12
225.939	-5.97
226.157	92.33
226.375	280.74
226.592	73.9
226.81	65.71
227.028	73.9
227.246	102.57
227.464	71.85
227.682	151.72
227.9	114.86
228.117	73.9
228.335	84.14
228.553	55.47
228.771	73.9
228.989	41.13
229.206	49.32
229.424	51.37
229.642	108.71
229.86	-16.21
230.077	168.1
230.295	94.38
230.513	123.05
230.731	57.51
230.948	196.78
231.166	213.16
231.384	6.31
231.601	45.23
231.819	168.1
232.037	-18.26
232.254	8.36
232.472	-3.93
232.689	45.23
232.907	143.53
233.125	12.46
233.342	-57.17
233.56	10.41
233.777	32.94
233.995	67.75
234.213	166.06
234.43	24.75
234.648	30.89
234.865	41.13
235.083	71.85
235.3	75.95
235.518	116.9
235.735	184.49
235.953	125.1
236.17	4.27
236.388	106.67
236.605	14.51
236.822	217.26
237.04	114.86
237.257	47.27
237.475	22.7
237.692	131.24
237.909	69.8
238.127	53.42
238.344	18.6
238.562	45.23
238.779	24.75
238.996	-34.64
239.214	114.86
239.431	135.34
239.648	41.13
239.865	92.33
240.083	100.52
240.3	22.7
240.517	-36.69
240.735	-1.88
240.952	104.62
241.169	71.85
241.386	121
241.603	61.61
241.821	-34.64
242.038	170.15
242.255	102.57
242.472	47.27
242.689	82.09
242.907	75.95
243.124	118.95
243.341	34.99
243.558	37.03
243.775	34.99
243.992	20.65
244.209	112.81
244.426	90.28
244.643	106.67
244.86	-3.93
245.078	151.72
245.295	61.61
245.512	28.84
245.729	67.75
245.946	88.23
246.163	41.13
246.38	18.6
246.597	80.04
246.814	80.04
247.031	8.36
247.248	39.08
247.464	114.86
247.681	75.95
247.898	61.61
248.115	45.23
248.332	73.9
248.549	161.96
248.766	166.06
248.983	153.77
249.2	80.04
249.417	118.95
249.633	-8.02
249.85	51.37
250.067	114.86
250.284	90.28
250.501	102.57
250.717	90.28
250.934	-5.97
251.151	4.27
251.368	82.09
251.585	102.57
251.801	96.43
252.018	26.79
252.235	104.62
252.451	-48.98
252.668	45.23
252.885	180.39
253.102	135.34
253.318	22.7
253.535	-18.26
253.752	0.17
253.968	-28.5
254.185	4.27
254.401	4.27
254.618	98.47
254.835	2.22
255.051	139.43
255.268	84.14
255.484	94.38
255.701	-22.36
255.917	69.8
256.134	12.46
256.351	28.84
256.567	-18.26
256.784	24.75
257	6.31
257.217	139.43
257.433	145.58
257.65	71.85
257.866	135.34
258.082	34.99
258.299	-28.5
258.515	77.99
258.732	71.85
258.948	2.22
259.165	55.47
259.381	-24.4
259.597	102.57
259.814	47.27
260.03	12.46
260.246	14.51
260.463	145.58
260.679	147.62
260.895	77.99
261.112	112.81
261.328	55.47
261.544	63.66
261.761	207.02
261.977	4.27
262.193	8.36
262.409	92.33
262.626	77.99
262.842	22.7
263.058	-1.88
263.274	100.52
263.49	112.81
263.707	67.75
263.923	133.29
264.139	12.46
264.355	71.85
264.571	65.71
264.787	118.95
265.004	139.43
265.22	32.94
265.436	0.17
265.652	73.9
265.868	-3.93
266.084	18.6
266.3	67.75
266.516	-87.89
266.732	86.19
266.948	49.32
267.164	49.32
267.38	104.62
267.596	63.66
267.812	145.58
268.028	22.7
268.244	22.7
268.46	69.8
268.676	6.31
268.892	123.05
269.108	30.89
269.324	26.79
269.54	53.42
269.756	98.47
269.972	-44.88
270.188	77.99
270.403	14.51
270.619	57.51
270.835	198.82
271.051	32.94
271.267	-14.17
271.483	37.03
271.698	125.1
271.914	73.9
272.13	28.84
272.346	20.65
272.562	71.85
272.777	129.19
272.993	88.23
273.209	73.9
273.425	129.19
273.64	-42.84
273.856	88.23
274.072	14.51
274.287	-3.93
274.503	108.71
274.719	88.23
274.934	22.7
275.15	32.94
275.366	57.51
275.581	18.6
275.797	172.2
276.012	37.03
276.228	-24.4
276.444	63.66
276.659	155.82
276.875	4.27
277.09	34.99
277.306	51.37
277.521	88.23
277.737	61.61
277.952	137.38
278.168	77.99
278.383	80.04
278.599	108.71
278.814	114.86
279.03	92.33
279.245	176.3
279.461	57.51
279.676	153.77
279.892	-34.64
280.107	-8.02
280.322	-38.74
280.538	88.23
280.753	-8.02
280.969	4.27
281.184	2.22
281.399	184.49
281.615	55.47
281.83	53.42
282.045	-34.64
282.26	55.47
282.476	82.09
282.691	104.62
282.906	30.89
283.122	57.51
283.337	59.56
283.552	123.05
283.767	32.94
283.983	65.71
284.198	61.61
284.413	96.43
284.628	-30.55
284.843	43.18
285.058	65.71
285.274	-8.02
285.489	12.46
285.704	104.62
285.919	39.08
286.134	63.66
286.349	43.18
286.564	59.56
286.779	125.1
286.995	55.47
287.21	-14.17
287.425	147.62
287.64	-3.93
287.855	32.94
288.07	-83.8
288.285	114.86
288.5	100.52
288.715	82.09
288.93	100.52
289.145	0.17
289.36	82.09
289.575	20.65
289.79	151.72
290.004	-24.4
290.219	125.1
290.434	0.17
290.649	71.85
290.864	16.55
291.079	26.79
291.294	47.27
291.509	172.2
291.724	94.38
291.938	45.23
292.153	69.8
292.368	-24.4
292.583	100.52
292.798	100.52
293.012	59.56
293.227	147.62
293.442	73.9
293.657	194.73
293.871	123.05
294.086	102.57
294.301	211.11
294.516	135.34
294.73	61.61
294.945	8.36
295.16	0.17
295.374	135.34
295.589	112.81
295.804	88.23
296.018	-3.93
296.233	153.77
296.447	26.79
296.662	-3.93
296.877	137.38
297.091	98.47
297.306	75.95
297.52	32.94
297.735	65.71
297.949	80.04
298.164	69.8
298.378	123.05
298.593	-16.21
298.807	-3.93
299.022	84.14
299.236	155.82
299.451	6.31
299.665	8.36
299.88	65.71
300.094	137.38
300.309	26.79
300.523	90.28
300.737	22.7
300.952	118.95
301.166	96.43
301.381	41.13
301.595	-94.04
301.809	84.14
302.024	71.85
302.238	34.99
302.452	182.44
302.667	43.18
302.881	129.19
303.095	55.47
303.309	112.81
303.524	-61.27
303.738	41.13
303.952	-14.17
304.166	61.61
304.381	-79.7
304.595	133.29
304.809	20.65
305.023	73.9
305.237	61.61
305.452	20.65
305.666	82.09
305.88	139.43
306.094	45.23
306.308	116.9
306.522	41.13
306.736	61.61
306.95	137.38
307.164	39.08
307.379	41.13
307.593	207.02
307.807	151.72
308.021	104.62
308.235	149.67
308.449	-96.08
308.663	32.94
308.877	229.54
309.091	104.62
309.305	84.14
309.519	-130.9
309.733	188.58
309.947	-40.79
310.161	80.04
310.374	137.38
310.588	102.57
310.802	-30.55
311.016	34.99
311.23	174.25
311.444	12.46
311.658	98.47
311.872	215.21
312.085	104.62
312.299	96.43
312.513	184.49
312.727	24.75
312.941	-61.27
313.154	100.52
313.368	84.14
313.582	18.6
313.796	28.84
314.009	22.7
314.223	141.48
314.437	94.38
314.651	159.91
314.864	39.08
315.078	32.94
315.292	-53.08
315.505	84.14
315.719	-8.02
315.933	30.89
316.146	16.55
316.36	55.47
316.573	129.19
316.787	98.47
317.001	84.14
317.214	0.17
317.428	96.43
317.641	0.17
317.855	30.89
318.068	53.42
318.282	125.1
318.495	260.26
318.709	110.76
318.922	37.03
319.136	178.34
319.349	161.96
319.563	47.27
319.776	92.33
319.99	-85.84
320.203	143.53
320.417	63.66
320.63	24.75
320.843	186.54
321.057	75.95
321.27	88.23
321.483	73.9
321.697	166.06
321.91	69.8
322.124	98.47
322.337	84.14
322.55	10.41
322.763	69.8
322.977	-18.26
323.19	63.66
323.403	39.08
323.617	86.19
323.83	102.57
324.043	-55.12
324.256	96.43
324.469	14.51
324.683	57.51
324.896	51.37
325.109	77.99
325.322	-3.93
325.535	88.23
325.748	59.56
325.962	73.9
326.175	57.51
326.388	90.28
326.601	135.34
326.814	-34.64
327.027	37.03
327.24	164.01
327.453	-16.21
327.666	71.85
327.879	127.14
328.092	59.56
328.305	100.52
328.518	10.41
328.731	59.56
328.944	43.18
329.157	67.75
329.37	-12.12
329.583	182.44
329.796	118.95
330.009	22.7
330.222	55.47
330.435	168.1
330.648	32.94
330.861	106.67
331.073	77.99
331.286	129.19
331.499	4.27
331.712	-65.36
331.925	65.71
332.138	100.52
332.35	141.48
332.563	2.22
332.776	151.72
332.989	16.55
333.202	77.99
333.414	139.43
333.627	47.27
333.84	-3.93
334.053	47.27
334.265	2.22
334.478	57.51
334.691	26.79
334.903	61.61
335.116	4.27
335.329	39.08
335.541	114.86
335.754	139.43
335.966	-10.07
336.179	43.18
336.392	34.99
336.604	39.08
336.817	159.91
337.029	114.86
337.242	98.47
337.454	67.75
337.667	147.62
337.88	233.64
338.092	49.32
338.305	88.23
338.517	10.41
338.729	157.86
338.942	131.24
339.154	2.22
339.367	-91.99
339.579	188.58
339.792	37.03
340.004	73.9
340.217	37.03
340.429	65.71
340.641	-12.12
340.854	-8.02
341.066	51.37
341.278	157.86
341.491	211.11
341.703	45.23
341.915	6.31
342.128	75.95
342.34	32.94
342.552	-8.02
342.764	-22.36
342.977	-12.12
343.189	73.9
343.401	63.66
343.613	22.7
343.826	32.94
344.038	-100.18
344.25	94.38
344.462	-8.02
344.674	164.01
344.886	34.99
345.099	55.47
345.311	121
345.523	10.41
345.735	-75.6
345.947	88.23
346.159	51.37
346.371	55.47
346.583	28.84
346.795	274.6
347.007	12.46
347.219	41.13
347.431	57.51
347.643	63.66
347.855	-34.64
348.067	141.48
348.279	34.99
348.491	100.52
348.703	164.01
348.915	104.62
349.127	43.18
349.339	45.23
349.551	0.17
349.763	82.09
349.975	110.76
350.187	188.58
350.399	84.14
350.61	143.53
350.822	0.17
351.034	94.38
351.246	73.9
351.458	104.62
351.669	129.19
351.881	137.38
352.093	157.86
352.305	123.05
352.517	133.29
352.728	168.1
352.94	59.56
353.152	63.66
353.363	-75.6
353.575	26.79
353.787	170.15
353.999	80.04
354.21	229.54
354.422	-24.4
354.633	26.79
354.845	63.66
355.057	102.57
355.268	67.75
355.48	100.52
355.692	-42.84
355.903	75.95
356.115	-77.65
356.326	-28.5
356.538	170.15
356.749	2.22
356.961	207.02
357.172	90.28
357.384	-48.98
357.595	190.63
357.807	-3.93
358.018	2.22
358.23	118.95
358.441	182.44
358.653	112.81
358.864	86.19
359.075	41.13
359.287	57.51
359.498	143.53
359.709	92.33
359.921	88.23
360.132	26.79
360.344	63.66
360.555	18.6
360.766	86.19
360.977	-18.26
361.189	129.19
361.4	39.08
361.611	202.92
361.823	77.99
362.034	45.23
362.245	-42.84
362.456	-14.17
362.667	121
362.879	59.56
363.09	164.01
363.301	127.14
363.512	112.81
363.723	-24.4
363.935	16.55
364.146	110.76
364.357	-16.21
364.568	118.95
364.779	-12.12
364.99	168.1
365.201	30.89
365.412	49.32
365.623	-12.12
365.834	133.29
366.045	82.09
366.256	180.39
366.467	127.14
366.678	41.13
366.889	80.04
367.1	-24.4
367.311	186.54
367.522	-1.88
367.733	159.91
367.944	98.47
368.155	16.55
368.366	98.47
368.577	116.9
368.788	131.24
368.999	51.37
369.209	65.71
369.42	188.58
369.631	213.16
369.842	104.62
370.053	59.56
370.264	34.99
370.474	63.66
370.685	88.23
370.896	4.27
371.107	151.72
371.317	121
371.528	32.94
371.739	118.95
371.95	96.43
372.16	28.84
372.371	-139.09
372.582	28.84
372.792	84.14
373.003	121
373.214	104.62
373.424	143.53
373.635	43.18
373.846	139.43
374.056	37.03
374.267	92.33
374.477	80.04
374.688	-1.88
374.898	20.65
375.109	4.27
375.319	28.84
375.53	204.97
375.74	92.33
375.951	12.46
376.161	69.8
376.372	49.32
376.582	-16.21
376.793	75.95
377.003	4.27
377.214	34.99
377.424	59.56
377.635	129.19
377.845	86.19
378.055	147.62
378.266	20.65
378.476	102.57
378.686	41.13
378.897	45.23
379.107	174.25
379.317	112.81
379.528	0.17
379.738	51.37
379.948	8.36
380.158	102.57
380.369	67.75
380.579	73.9
380.789	51.37
380.999	159.91
381.21	143.53
381.42	170.15
381.63	53.42
381.84	125.1
382.05	121
382.261	141.48
382.471	108.71
382.681	8.36
382.891	164.01
383.101	114.86
383.311	-18.26
383.521	-34.64
383.731	73.9
383.941	153.77
384.151	123.05
384.361	39.08
384.571	151.72
384.781	102.57
384.991	288.93
385.201	204.97
385.411	104.62
385.621	116.9
385.831	67.75
386.041	12.46
386.251	24.75
386.461	168.1
386.671	22.7
386.881	96.43
387.091	55.47
387.301	94.38
387.511	57.51
387.72	69.8
387.93	67.75
388.14	-22.36
388.35	94.38
388.56	135.34
388.769	174.25
388.979	47.27
389.189	-10.07
389.399	49.32
389.609	77.99
389.818	114.86
390.028	104.62
390.238	61.61
390.447	32.94
390.657	92.33
390.867	-14.17
391.076	-38.74
391.286	94.38
391.496	51.37
391.705	12.46
391.915	106.67
392.125	184.49
392.334	14.51
392.544	151.72
392.753	47.27
392.963	32.94
393.172	22.7
393.382	-34.64
393.591	223.4
393.801	18.6
394.01	141.48
394.22	98.47
394.429	53.42
394.639	22.7
394.848	102.57
395.058	-1.88
395.267	22.7
395.477	98.47
395.686	69.8
395.895	278.69
396.105	204.97
396.314	106.67
396.524	6.31
396.733	-32.6
396.942	186.54
397.152	59.56
397.361	184.49
397.57	26.79
397.78	73.9
397.989	65.71
398.198	168.1
398.407	14.51
398.617	-51.03
398.826	98.47
399.035	20.65
399.244	166.06
399.453	47.27
399.663	123.05
399.872	82.09
400.081	-46.93
400.29	168.1
400.499	22.7
400.708	121
400.917	108.71
401.127	49.32
401.336	75.95
401.545	202.92
401.754	135.34
401.963	125.1
402.172	75.95
402.381	-40.79
402.59	-1.88
402.799	131.24
403.008	71.85
403.217	24.75
403.426	106.67
403.635	20.65
403.844	45.23
404.053	-16.21
404.262	51.37
404.471	219.3
404.68	90.28
404.888	-8.02
405.097	49.32
405.306	12.46
405.515	114.86
405.724	69.8
405.933	227.5
406.142	39.08
406.35	157.86
406.559	114.86
406.768	108.71
406.977	157.86
407.185	51.37
407.394	114.86
407.603	-14.17
407.812	80.04
408.02	102.57
408.229	57.51
408.438	2.22
408.646	-79.7
408.855	12.46
409.064	57.51
409.272	127.14
409.481	90.28
409.69	14.51
409.898	-10.07
410.107	114.86
410.315	161.96
410.524	32.94
410.733	24.75
410.941	108.71
411.15	217.26
411.358	73.9
411.567	182.44
411.775	84.14
411.984	118.95
412.192	108.71
412.401	47.27
412.609	211.11
412.818	143.53
413.026	88.23
413.234	-46.93
413.443	86.19
413.651	92.33
413.86	49.32
414.068	155.82
414.276	188.58
414.485	-30.55
414.693	153.77
414.901	233.64
415.11	100.52
415.318	-18.26
415.526	41.13
415.734	88.23
415.943	129.19
416.151	121
416.359	127.14
416.567	92.33
416.776	131.24
416.984	112.81
417.192	272.55
417.4	41.13
417.608	41.13
417.817	2.22
418.025	135.34
418.233	164.01
418.441	41.13
418.649	65.71
418.857	94.38
419.065	123.05
419.273	-10.07
419.481	77.99
419.689	116.9
419.897	88.23
420.105	-8.02
420.313	100.52
420.521	168.1
420.729	131.24
420.937	39.08
421.145	-16.21
421.353	80.04
421.561	202.92
421.769	88.23
421.977	14.51
422.185	110.76
422.393	67.75
422.601	182.44
422.809	86.19
423.017	-14.17
423.224	45.23
423.432	80.04
423.64	80.04
423.848	123.05
424.056	14.51
424.263	121
424.471	20.65
424.679	141.48
424.887	59.56
425.094	247.97
425.302	110.76
425.51	123.05
425.718	88.23
425.925	108.71
426.133	-20.31
426.341	194.73
426.548	84.14
426.756	77.99
426.964	116.9
427.171	22.7
427.379	123.05
427.586	47.27
427.794	176.3
428.001	174.25
428.209	71.85
428.417	182.44
428.624	141.48
428.832	155.82
429.039	96.43
429.247	39.08
429.454	125.1
429.662	168.1
429.869	161.96
430.076	131.24
430.284	223.4
430.491	254.12
430.699	69.8
430.906	174.25
431.114	86.19
431.321	231.59
431.528	143.53
431.736	139.43
431.943	100.52
432.15	157.86
432.358	176.3
432.565	250.02
432.772	26.79
432.979	180.39
433.187	176.3
433.394	245.93
433.601	116.9
433.808	170.15
434.016	229.54
434.223	290.98
434.43	166.06
434.637	252.07
434.844	196.78
435.052	168.1
435.259	309.41
435.466	368.81
435.673	207.02
435.88	340.13
436.087	274.6
436.294	327.85
436.501	278.69
436.708	309.41
436.915	299.17
437.122	340.13
437.329	247.97
437.537	223.4
437.743	284.84
437.95	413.86
438.157	325.8
438.364	364.71
438.571	350.37
438.778	377
438.985	368.81
439.192	450.72
439.399	438.44
439.606	477.35
439.813	385.19
440.02	458.92
440.227	598.18
440.433	510.11
440.64	444.58
440.847	491.68
441.054	501.92
441.261	616.61
441.467	579.75
441.674	424.1
441.881	594.08
442.088	678.05
442.294	542.88
442.501	739.49
442.708	667.81
442.914	694.43
443.121	721.06
443.328	755.87
443.534	759.97
443.741	809.12
443.948	719.01
444.154	848.03
444.361	954.52
444.568	868.51
444.774	825.5
444.981	856.22
445.187	1007.77
445.394	938.14
445.6	884.89
445.807	1153.18
446.013	989.34
446.22	1056.92
446.426	1198.23
446.633	1370.26
446.839	1415.32
447.046	1245.34
447.252	1349.78
447.459	1405.08
447.665	1267.86
447.871	1454.23
448.078	1593.49
448.284	1646.74
448.491	1628.31
448.697	1671.31
448.903	1716.37
449.11	1736.85
449.316	1763.47
449.522	1970.32
449.728	2181.26
449.935	2056.33
450.141	2177.16
450.347	2336.9
450.553	2338.95
450.76	2242.7
450.966	2386.05
451.172	2467.97
451.378	2629.76
451.584	2584.71
451.791	2971.77
451.997	2840.7
452.203	2795.65
452.409	3055.74
452.615	3117.18
452.821	3027.07
453.027	3211.39
453.233	3629.17
453.44	3334.26
453.646	3672.18
453.852	3928.17
454.058	4044.91
454.264	4104.3
454.47	4198.51
454.676	4429.93
454.882	4728.93
455.088	4653.16
455.294	4751.46
455.5	5140.57
455.705	5392.47
455.911	5228.63
456.117	5603.41
456.323	5623.89
456.529	5714
456.735	6226
456.941	6375.5
457.147	6858.82
457.352	7026.75
457.558	6907.97
457.764	7587.89
457.97	7770.16
458.176	7950.39
458.381	8472.62
458.587	8511.53
458.793	9029.66
458.999	9011.23
459.204	10055.7
459.41	10291.21
459.616	10201.1
459.821	10747.91
460.027	11192.32
460.233	11728.89
460.438	11780.09
460.644	12328.94
460.85	12855.27
461.055	13051.88
461.261	13848.54
461.466	13225.95
461.672	13760.47
461.878	15212.48
462.083	14962.63
462.289	15478.72
462.494	16220.08
462.7	16402.35
462.905	16467.89
463.111	17616.8
463.316	18626.45
463.522	18818.96
463.727	19578.75
463.932	20010.87
464.138	20954.99
464.343	21604.19
464.549	21911.39
464.754	23490.37
464.959	24155.96
465.165	24497.97
465.37	24299.32
465.575	24418.1
465.781	26146.59
465.986	26756.88
466.191	26537.75
466.397	26507.03
466.602	26169.12
466.807	27453.19
467.012	27981.57
467.218	28495.61
467.423	28583.67
467.628	29456.11
467.833	30818
468.038	30422.75
468.244	29939.43
468.449	31547.08
468.654	30686.93
468.859	30678.74
469.064	30428.89
