Data from USB4F104151__13__09-25-08-424.txt Node

Date: Wed Feb 26 09:25:08 EST 2025
User: louis
Spectrometer: USB4F10415
Trigger mode: 4
Integration Time (sec): 1.000000E-1
Scans to average: 1
Electric dark correction enabled: true
Nonlinearity correction enabled: false
Boxcar width: 0
XAxis mode: Wavelengths
Number of Pixels in Spectrum: 3648
>>>>>Begin Spectral Data<<<<<
178.204	-314.02
178.424	-314.02
178.644	-314.02
178.864	-397.99
179.084	-352.93
179.304	-47.79
179.524	38.23
179.744	15.7
179.964	-17.07
180.184	56.66
180.404	15.7
180.624	-25.26
180.844	-68.27
181.064	-47.79
181.283	79.19
181.503	-43.69
181.723	44.37
181.943	-166.57
182.163	116.05
182.383	-39.59
182.602	62.8
182.822	124.24
183.042	32.08
183.262	-55.98
183.482	-58.03
183.701	34.13
183.921	-8.87
184.141	-90.79
184.361	19.8
184.58	42.32
184.8	3.41
185.02	-23.21
185.239	103.76
185.459	48.47
185.679	79.19
185.898	-53.93
186.118	15.7
186.338	21.84
186.557	79.19
186.777	-39.59
186.997	-92.84
187.216	-33.45
187.436	97.62
187.655	75.09
187.875	54.61
188.095	42.32
188.314	154.96
188.534	138.58
188.753	-23.21
188.973	124.24
189.192	73.04
189.412	-45.74
189.631	54.61
189.851	-17.07
190.07	136.53
190.29	-86.7
190.509	-49.83
190.729	1.37
190.948	25.94
191.168	210.26
191.387	54.61
191.607	-19.11
191.826	122.2
192.045	21.84
192.265	-15.02
192.484	38.23
192.704	7.51
192.923	-101.03
193.142	191.83
193.362	83.28
193.581	54.61
193.8	89.43
194.02	124.24
194.239	9.56
194.458	157.01
194.678	54.61
194.897	-66.22
195.116	30.04
195.335	1.37
195.555	64.85
195.774	30.04
195.993	66.9
196.212	48.47
196.432	-17.07
196.651	25.94
196.87	27.99
197.089	148.82
197.308	52.56
197.528	75.09
197.747	-31.4
197.966	48.47
198.185	144.72
198.404	-58.03
198.623	44.37
198.842	81.24
199.062	95.57
199.281	91.48
199.5	-17.07
199.719	58.71
199.938	66.9
200.157	56.66
200.376	46.42
200.595	34.13
200.814	11.61
201.033	-66.22
201.252	187.73
201.471	-2.73
201.69	126.29
201.909	107.86
202.128	52.56
202.347	7.51
202.566	9.56
202.785	-76.46
203.004	9.56
203.223	238.93
203.442	99.67
203.661	-51.88
203.879	-6.83
204.098	25.94
204.317	-23.21
204.536	73.04
204.755	111.96
204.974	58.71
205.193	25.94
205.411	71
205.63	13.65
205.849	42.32
206.068	-6.83
206.287	-10.92
206.505	142.68
206.724	38.23
206.943	-33.45
207.162	-39.59
207.381	66.9
207.599	-49.83
207.818	50.52
208.037	-58.03
208.255	5.46
208.474	60.76
208.693	66.9
208.911	1.37
209.13	13.65
209.349	-12.97
209.567	79.19
209.786	95.57
210.005	7.51
210.223	-25.26
210.442	-45.74
210.661	1.37
210.879	105.81
211.098	-19.11
211.316	50.52
211.535	48.47
211.753	75.09
211.972	83.28
212.191	-98.99
212.409	36.18
212.628	114
212.846	-10.92
213.065	19.8
213.283	64.85
213.502	-37.55
213.72	-66.22
213.938	9.56
214.157	-21.16
214.375	64.85
214.594	-17.07
214.812	93.52
215.031	25.94
215.249	7.51
215.467	36.18
215.686	-55.98
215.904	5.46
216.122	-10.92
216.341	25.94
216.559	30.04
216.778	107.86
216.996	81.24
217.214	13.65
217.432	81.24
217.651	-109.23
217.869	-8.87
218.087	-8.87
218.306	7.51
218.524	83.28
218.742	21.84
218.96	79.19
219.179	-39.59
219.397	19.8
219.615	197.97
219.833	126.29
220.051	3.41
220.27	30.04
220.488	71
220.706	21.84
220.924	-47.79
221.142	-2.73
221.36	-17.07
221.578	-86.7
221.796	13.65
222.015	38.23
222.233	54.61
222.451	111.96
222.669	-33.45
222.887	-2.73
223.105	-51.88
223.323	23.89
223.541	-101.03
223.759	54.61
223.977	30.04
224.195	163.15
224.413	42.32
224.631	66.9
224.849	-29.35
225.067	202.07
225.285	-76.46
225.503	23.89
225.721	-101.03
225.939	60.76
226.157	-8.87
226.375	185.68
226.592	-76.46
226.81	15.7
227.028	50.52
227.246	114
227.464	42.32
227.682	83.28
227.9	103.76
228.117	124.24
228.335	40.28
228.553	11.61
228.771	25.94
228.989	54.61
229.206	111.96
229.424	-2.73
229.642	27.99
229.86	7.51
230.077	36.18
230.295	36.18
230.513	103.76
230.731	111.96
230.948	73.04
231.166	25.94
231.384	-12.97
231.601	-49.83
231.819	114
232.037	46.42
232.254	-43.69
232.472	21.84
232.689	7.51
232.907	46.42
233.125	46.42
233.342	3.41
233.56	25.94
233.777	-15.02
233.995	58.71
234.213	140.63
234.43	81.24
234.648	21.84
234.865	40.28
235.083	30.04
235.3	-25.26
235.518	97.62
235.735	132.44
235.953	105.81
236.17	23.89
236.388	1.37
236.605	21.84
236.822	-6.83
237.04	150.87
237.257	-17.07
237.475	-25.26
237.692	77.14
237.909	66.9
238.127	-37.55
238.344	89.43
238.562	54.61
238.779	-60.07
238.996	-6.83
239.214	58.71
239.431	87.38
239.648	-6.83
239.865	40.28
240.083	-58.03
240.3	-76.46
240.517	-37.55
240.735	9.56
240.952	87.38
241.169	-0.68
241.386	75.09
241.603	7.51
241.821	-74.41
242.038	58.71
242.255	79.19
242.472	-60.07
242.689	75.09
242.907	99.67
243.124	38.23
243.341	-15.02
243.558	-55.98
243.775	-25.26
243.992	-74.41
244.209	87.38
244.426	87.38
244.643	36.18
244.86	-41.64
245.078	9.56
245.295	71
245.512	23.89
245.729	17.75
245.946	71
246.163	52.56
246.38	-68.27
246.597	17.75
246.814	64.85
247.031	-80.55
247.248	17.75
247.464	140.63
247.681	81.24
247.898	36.18
248.115	132.44
248.332	-19.11
248.549	124.24
248.766	140.63
248.983	58.71
249.2	116.05
249.417	99.67
249.633	79.19
249.85	66.9
250.067	58.71
250.284	58.71
250.501	56.66
250.717	34.13
250.934	62.8
251.151	-58.03
251.368	30.04
251.585	11.61
251.801	-27.31
252.018	-76.46
252.235	9.56
252.451	-19.11
252.668	3.41
252.885	40.28
253.102	-47.79
253.318	-6.83
253.535	46.42
253.752	21.84
253.968	-60.07
254.185	-53.93
254.401	-6.83
254.618	30.04
254.835	-47.79
255.051	56.66
255.268	73.04
255.484	1.37
255.701	-51.88
255.917	73.04
256.134	-25.26
256.351	23.89
256.567	-23.21
256.784	5.46
257	-8.87
257.217	21.84
257.433	19.8
257.65	48.47
257.866	136.53
258.082	-15.02
258.299	-68.27
258.515	-15.02
258.732	-6.83
258.948	-47.79
259.165	38.23
259.381	-125.61
259.597	19.8
259.814	25.94
260.03	-90.79
260.246	25.94
260.463	101.72
260.679	34.13
260.895	25.94
261.112	58.71
261.328	-43.69
261.544	-8.87
261.761	167.25
261.977	-33.45
262.193	-23.21
262.409	5.46
262.626	-25.26
262.842	13.65
263.058	-31.4
263.274	118.1
263.49	79.19
263.707	36.18
263.923	93.52
264.139	-45.74
264.355	46.42
264.571	5.46
264.787	89.43
265.004	62.8
265.22	30.04
265.436	-43.69
265.652	9.56
265.868	50.52
266.084	-72.36
266.3	48.47
266.516	-51.88
266.732	11.61
266.948	81.24
267.164	-49.83
267.38	101.72
267.596	-80.55
267.812	212.31
268.028	52.56
268.244	36.18
268.46	-43.69
268.676	7.51
268.892	58.71
269.108	-15.02
269.324	-10.92
269.54	23.89
269.756	93.52
269.972	-88.75
270.188	-15.02
270.403	-72.36
270.619	73.04
270.835	62.8
271.051	-2.73
271.267	13.65
271.483	-2.73
271.698	30.04
271.914	30.04
272.13	13.65
272.346	-17.07
272.562	120.15
272.777	62.8
272.993	75.09
273.209	-15.02
273.425	91.48
273.64	-27.31
273.856	58.71
274.072	-43.69
274.287	-37.55
274.503	5.46
274.719	38.23
274.934	19.8
275.15	-103.08
275.366	-8.87
275.581	-72.36
275.797	27.99
276.012	19.8
276.228	-2.73
276.444	-41.64
276.659	77.14
276.875	-74.41
277.09	-39.59
277.306	46.42
277.521	48.47
277.737	15.7
277.952	17.75
278.168	1.37
278.383	128.34
278.599	27.99
278.814	66.9
279.03	15.7
279.245	71
279.461	-2.73
279.676	83.28
279.892	-78.51
280.107	-84.65
280.322	19.8
280.538	34.13
280.753	-25.26
280.969	83.28
281.184	64.85
281.399	140.63
281.615	-55.98
281.83	38.23
282.045	-58.03
282.26	-4.78
282.476	107.86
282.691	25.94
282.906	7.51
283.122	66.9
283.337	-10.92
283.552	9.56
283.767	17.75
283.983	34.13
284.198	-88.75
284.413	25.94
284.628	-45.74
284.843	-23.21
285.058	40.28
285.274	62.8
285.489	-29.35
285.704	11.61
285.919	1.37
286.134	27.99
286.349	5.46
286.564	-19.11
286.779	111.96
286.995	-43.69
287.21	-41.64
287.425	27.99
287.64	-49.83
287.855	95.57
288.07	-15.02
288.285	21.84
288.5	56.66
288.715	66.9
288.93	-43.69
289.145	-39.59
289.36	42.32
289.575	-23.21
289.79	71
290.004	-47.79
290.219	40.28
290.434	-12.97
290.649	-45.74
290.864	9.56
291.079	-6.83
291.294	-21.16
291.509	-27.31
291.724	-35.5
291.938	13.65
292.153	71
292.368	-31.4
292.583	21.84
292.798	38.23
293.012	-6.83
293.227	89.43
293.442	-6.83
293.657	130.39
293.871	118.1
294.086	-55.98
294.301	91.48
294.516	-4.78
294.73	105.81
294.945	-41.64
295.16	83.28
295.374	171.35
295.589	21.84
295.804	3.41
296.018	27.99
296.233	68.95
296.447	66.9
296.662	38.23
296.877	83.28
297.091	27.99
297.306	-29.35
297.52	-0.68
297.735	40.28
297.949	27.99
298.164	75.09
298.378	48.47
298.593	-8.87
298.807	17.75
299.022	-10.92
299.236	109.91
299.451	46.42
299.665	54.61
299.88	-31.4
300.094	107.86
300.309	7.51
300.523	-23.21
300.737	-76.46
300.952	66.9
301.166	87.38
301.381	-2.73
301.595	-39.59
301.809	34.13
302.024	27.99
302.238	-51.88
302.452	46.42
302.667	-17.07
302.881	87.38
303.095	114
303.309	46.42
303.524	40.28
303.738	-6.83
303.952	-10.92
304.166	9.56
304.381	-92.84
304.595	48.47
304.809	-15.02
305.023	-51.88
305.237	-23.21
305.452	13.65
305.666	58.71
305.88	73.04
306.094	75.09
306.308	50.52
306.522	34.13
306.736	34.13
306.95	46.42
307.164	-96.94
307.379	48.47
307.593	128.34
307.807	11.61
308.021	66.9
308.235	68.95
308.449	-31.4
308.663	48.47
308.877	150.87
309.091	11.61
309.305	-17.07
309.519	-31.4
309.733	83.28
309.947	-76.46
310.161	54.61
310.374	15.7
310.588	60.76
310.802	-8.87
311.016	48.47
311.23	89.43
311.444	38.23
311.658	23.89
311.872	54.61
312.085	99.67
312.299	40.28
312.513	83.28
312.727	9.56
312.941	-19.11
313.154	-17.07
313.368	75.09
313.582	66.9
313.796	58.71
314.009	-35.5
314.223	34.13
314.437	48.47
314.651	34.13
314.864	13.65
315.078	-6.83
315.292	-72.36
315.505	-66.22
315.719	54.61
315.933	95.57
316.146	-86.7
316.36	9.56
316.573	87.38
316.787	97.62
317.001	3.41
317.214	-35.5
317.428	13.65
317.641	7.51
317.855	34.13
318.068	19.8
318.282	42.32
318.495	157.01
318.709	-25.26
318.922	-0.68
319.136	138.58
319.349	38.23
319.563	38.23
319.776	17.75
319.99	-55.98
320.203	13.65
320.417	15.7
320.63	44.37
320.843	173.39
321.057	66.9
321.27	40.28
321.483	56.66
321.697	167.25
321.91	75.09
322.124	-88.75
322.337	56.66
322.55	-113.32
322.763	48.47
322.977	17.75
323.19	-66.22
323.403	50.52
323.617	42.32
323.83	50.52
324.043	32.08
324.256	-6.83
324.469	-31.4
324.683	30.04
324.896	75.09
325.109	-25.26
325.322	-55.98
325.535	5.46
325.748	89.43
325.962	23.89
326.175	-19.11
326.388	83.28
326.601	89.43
326.814	42.32
327.027	60.76
327.24	120.15
327.453	-64.17
327.666	56.66
327.879	50.52
328.092	38.23
328.305	-15.02
328.518	-19.11
328.731	-76.46
328.944	13.65
329.157	66.9
329.37	-4.78
329.583	114
329.796	89.43
330.009	-109.23
330.222	87.38
330.435	46.42
330.648	-6.83
330.861	83.28
331.073	40.28
331.286	-0.68
331.499	-29.35
331.712	-39.59
331.925	3.41
332.138	-27.31
332.35	60.76
332.563	-39.59
332.776	66.9
332.989	36.18
333.202	56.66
333.414	-0.68
333.627	62.8
333.84	3.41
334.053	32.08
334.265	17.75
334.478	1.37
334.691	5.46
334.903	48.47
335.116	-2.73
335.329	58.71
335.541	11.61
335.754	103.76
335.966	-31.4
336.179	23.89
336.392	89.43
336.604	38.23
336.817	79.19
337.029	58.71
337.242	-6.83
337.454	-4.78
337.667	11.61
337.88	122.2
338.092	93.52
338.305	124.24
338.517	-23.21
338.729	95.57
338.942	114
339.154	-12.97
339.367	-58.03
339.579	-10.92
339.792	-64.17
340.004	46.42
340.217	13.65
340.429	-35.5
340.641	-17.07
340.854	-41.64
341.066	-35.5
341.278	62.8
341.491	124.24
341.703	50.52
341.915	3.41
342.128	-2.73
342.34	62.8
342.552	-10.92
342.764	56.66
342.977	38.23
343.189	27.99
343.401	9.56
343.613	-10.92
343.826	54.61
344.038	5.46
344.25	46.42
344.462	-2.73
344.674	58.71
344.886	-6.83
345.099	30.04
345.311	3.41
345.523	-0.68
345.735	-96.94
345.947	27.99
346.159	25.94
346.371	66.9
346.583	-37.55
346.795	165.2
347.007	27.99
347.219	25.94
347.431	-2.73
347.643	81.24
347.855	-10.92
348.067	50.52
348.279	-21.16
348.491	-29.35
348.703	32.08
348.915	-66.22
349.127	-47.79
349.339	99.67
349.551	-21.16
349.763	7.51
349.975	58.71
350.187	42.32
350.399	118.1
350.61	52.56
350.822	-0.68
351.034	30.04
351.246	-15.02
351.458	1.37
351.669	27.99
351.881	87.38
352.093	87.38
352.305	42.32
352.517	23.89
352.728	52.56
352.94	36.18
353.152	83.28
353.363	-64.17
353.575	38.23
353.787	107.86
353.999	32.08
354.21	136.53
354.422	-76.46
354.633	1.37
354.845	-23.21
355.057	-43.69
355.268	-23.21
355.48	75.09
355.692	-60.07
355.903	128.34
356.115	-76.46
356.326	-80.55
356.538	154.96
356.749	71
356.961	118.1
357.172	9.56
357.384	-23.21
357.595	210.26
357.807	-23.21
358.018	11.61
358.23	9.56
358.441	116.05
358.653	11.61
358.864	9.56
359.075	-62.12
359.287	25.94
359.498	42.32
359.709	56.66
359.921	46.42
360.132	50.52
360.344	32.08
360.555	-4.78
360.766	-19.11
360.977	30.04
361.189	50.52
361.4	91.48
361.611	91.48
361.823	105.81
362.034	40.28
362.245	-121.51
362.456	87.38
362.667	103.76
362.879	-64.17
363.09	7.51
363.301	81.24
363.512	17.75
363.723	-33.45
363.935	40.28
364.146	93.52
364.357	17.75
364.568	87.38
364.779	-109.23
364.99	85.33
365.201	-6.83
365.412	128.34
365.623	-107.18
365.834	-37.55
366.045	19.8
366.256	103.76
366.467	46.42
366.678	-0.68
366.889	-2.73
367.1	-49.83
367.311	52.56
367.522	-29.35
367.733	-6.83
367.944	75.09
368.155	34.13
368.366	-0.68
368.577	1.37
368.788	126.29
368.999	17.75
369.209	83.28
369.42	181.59
369.631	152.91
369.842	42.32
370.053	46.42
370.264	42.32
370.474	-29.35
370.685	44.37
370.896	5.46
371.107	89.43
371.317	40.28
371.528	42.32
371.739	30.04
371.95	1.37
372.16	30.04
372.371	-49.83
372.582	-70.31
372.792	-23.21
373.003	56.66
373.214	58.71
373.424	79.19
373.635	-49.83
373.846	114
374.056	81.24
374.267	17.75
374.477	48.47
374.688	-33.45
374.898	9.56
375.109	44.37
375.319	17.75
375.53	73.04
375.74	73.04
375.951	-31.4
376.161	34.13
376.372	148.82
376.582	60.76
376.793	30.04
377.003	25.94
377.214	62.8
377.424	-19.11
377.635	-2.73
377.845	17.75
378.055	73.04
378.266	-35.5
378.476	50.52
378.686	13.65
378.897	-19.11
379.107	83.28
379.317	-29.35
379.528	87.38
379.738	5.46
379.948	-58.03
380.158	50.52
380.369	40.28
380.579	163.15
380.789	-33.45
380.999	68.95
381.21	146.77
381.42	132.44
381.63	30.04
381.84	105.81
382.05	25.94
382.261	23.89
382.471	81.24
382.681	95.57
382.891	165.2
383.101	83.28
383.311	7.51
383.521	-64.17
383.731	124.24
383.941	89.43
384.151	40.28
384.361	87.38
384.571	85.33
384.781	-47.79
384.991	165.2
385.201	202.07
385.411	48.47
385.621	21.84
385.831	44.37
386.041	81.24
386.251	-6.83
386.461	77.14
386.671	7.51
386.881	34.13
387.091	75.09
387.301	27.99
387.511	25.94
387.72	42.32
387.93	23.89
388.14	-88.75
388.35	95.57
388.56	91.48
388.769	99.67
388.979	-49.83
389.189	-19.11
389.399	-33.45
389.609	32.08
389.818	89.43
390.028	64.85
390.238	71
390.447	42.32
390.657	97.62
390.867	-2.73
391.076	-12.97
391.286	-58.03
391.496	9.56
391.705	15.7
391.915	64.85
392.125	124.24
392.334	54.61
392.544	83.28
392.753	-45.74
392.963	1.37
393.172	-19.11
393.382	-66.22
393.591	50.52
393.801	-29.35
394.01	132.44
394.22	44.37
394.429	34.13
394.639	27.99
394.848	-8.87
395.058	5.46
395.267	9.56
395.477	66.9
395.686	15.7
395.895	116.05
396.105	208.21
396.314	111.96
396.524	58.71
396.733	99.67
396.942	52.56
397.152	25.94
397.361	79.19
397.57	3.41
397.78	-10.92
397.989	19.8
398.198	228.69
398.407	64.85
398.617	23.89
398.826	-21.16
399.035	34.13
399.244	66.9
399.453	7.51
399.663	-39.59
399.872	17.75
400.081	-25.26
400.29	58.71
400.499	-74.41
400.708	116.05
400.917	38.23
401.127	48.47
401.336	1.37
401.545	189.78
401.754	95.57
401.963	79.19
402.172	-15.02
402.381	-58.03
402.59	34.13
402.799	83.28
403.008	73.04
403.217	34.13
403.426	105.81
403.635	-109.23
403.844	27.99
404.053	1.37
404.262	9.56
404.471	177.49
404.68	34.13
404.888	23.89
405.097	-6.83
405.306	1.37
405.515	95.57
405.724	-27.31
405.933	34.13
406.142	36.18
406.35	66.9
406.559	-8.87
406.768	54.61
406.977	97.62
407.185	-8.87
407.394	40.28
407.603	-35.5
407.812	56.66
408.02	132.44
408.229	62.8
408.438	21.84
408.646	-55.98
408.855	25.94
409.064	83.28
409.272	21.84
409.481	124.24
409.69	-39.59
409.898	-55.98
410.107	36.18
410.315	116.05
410.524	-33.45
410.733	15.7
410.941	7.51
411.15	32.08
411.358	103.76
411.567	34.13
411.775	1.37
411.984	30.04
412.192	48.47
412.401	-25.26
412.609	91.48
412.818	32.08
413.026	58.71
413.234	-6.83
413.443	52.56
413.651	-51.88
413.86	-41.64
414.068	105.81
414.276	99.67
414.485	7.51
414.693	152.91
414.901	167.25
415.11	-6.83
415.318	128.34
415.526	48.47
415.734	79.19
415.943	-2.73
416.151	114
416.359	75.09
416.567	97.62
416.776	146.77
416.984	50.52
417.192	163.15
417.4	-10.92
417.608	21.84
417.817	-39.59
418.025	56.66
418.233	142.68
418.441	-31.4
418.649	25.94
418.857	68.95
419.065	111.96
419.273	34.13
419.481	-17.07
419.689	-15.02
419.897	-43.69
420.105	-53.93
420.313	116.05
420.521	120.15
420.729	157.01
420.937	25.94
421.145	1.37
421.353	34.13
421.561	66.9
421.769	50.52
421.977	11.61
422.185	46.42
422.393	73.04
422.601	60.76
422.809	42.32
423.017	-45.74
423.224	-17.07
423.432	66.9
423.64	73.04
423.848	95.57
424.056	-37.55
424.263	-15.02
424.471	-4.78
424.679	30.04
424.887	21.84
425.094	48.47
425.302	71
425.51	56.66
425.718	159.06
425.925	87.38
426.133	-58.03
426.341	263.51
426.548	34.13
426.756	-2.73
426.964	93.52
427.171	58.71
427.379	66.9
427.586	73.04
427.794	93.52
428.001	167.25
428.209	138.58
428.417	177.49
428.624	144.72
428.832	42.32
429.039	87.38
429.247	73.04
429.454	87.38
429.662	230.74
429.869	152.91
430.076	75.09
430.284	157.01
430.491	122.2
430.699	111.96
430.906	210.26
431.114	134.48
431.321	204.11
431.528	132.44
431.736	83.28
431.943	206.16
432.15	185.68
432.358	142.68
432.565	148.82
432.772	27.99
432.979	173.39
433.187	216.4
433.394	236.88
433.601	187.73
433.808	255.31
434.016	171.35
434.223	259.41
434.43	210.26
434.637	238.93
434.844	267.6
435.052	265.55
435.259	337.23
435.466	230.74
435.673	247.12
435.88	286.03
436.087	218.45
436.294	279.89
436.501	277.84
436.708	324.94
436.915	361.81
437.122	337.23
437.329	351.57
437.537	359.76
437.743	294.22
437.95	410.96
438.157	404.82
438.364	394.58
438.571	337.23
438.778	476.49
438.985	550.22
439.192	419.15
439.399	425.29
439.606	517.45
439.813	513.36
440.02	646.48
440.227	669
440.433	648.52
440.64	646.48
440.847	550.22
441.054	636.24
441.261	800.07
441.467	722.25
441.674	660.81
441.881	771.4
442.088	746.83
442.294	728.39
442.501	851.27
442.708	855.37
442.914	879.94
443.121	959.81
443.328	1000.77
443.534	1121.6
443.741	1088.84
443.948	986.44
444.154	1113.41
444.361	1334.59
444.568	1088.84
444.774	1230.15
444.981	1086.79
445.187	1326.4
445.394	1414.46
445.6	1264.96
445.807	1467.71
446.013	1424.7
446.22	1428.8
446.426	1529.15
446.633	1559.87
446.839	1873.21
447.046	1684.8
447.252	1815.87
447.459	1828.15
447.665	1805.63
447.871	2061.62
448.078	2235.7
448.284	2131.25
448.491	2266.42
448.697	2225.46
448.903	2399.54
449.11	2495.79
449.316	2485.55
449.522	2602.29
449.728	2860.33
449.935	2770.22
450.141	2741.55
450.347	3136.81
450.553	3036.45
450.76	3128.61
450.966	3376.42
451.172	3446.05
451.378	3546.4
451.584	3575.07
451.791	3970.33
451.997	4023.58
452.203	4076.82
452.409	4318.48
452.615	4392.21
452.821	4314.39
453.027	4404.5
453.233	4830.48
453.44	4881.67
453.646	4982.03
453.852	5238.02
454.058	5502.21
454.264	5723.39
454.47	5848.32
454.676	6008.06
454.882	6563.06
455.088	6219
455.294	6665.46
455.5	6989.03
455.705	7417.06
455.911	7607.52
456.117	7714.02
456.323	7929.05
456.529	7814.37
456.735	8854.73
456.941	9004.24
457.147	9389.25
457.352	9512.13
457.558	9880.77
457.764	10505.4
457.97	10663.09
458.176	10962.09
458.381	11556
458.587	11799.71
458.793	12553.37
458.999	12582.04
459.204	14029.95
459.41	14613.62
459.616	14376.06
459.821	15148.14
460.027	15797.35
460.233	16671.83
460.438	16796.76
460.644	17699.91
460.85	17964.1
461.055	18349.12
461.261	19444.78
461.466	19096.63
461.672	19588.14
461.878	21744.65
462.083	20974.61
462.289	21488.65
462.494	22680.57
462.7	22600.7
462.905	23231.47
463.111	24882.14
463.316	26106.82
463.522	26487.75
463.727	27540.4
463.932	28537.76
464.138	29838.22
464.343	30741.38
464.549	30851.97
464.754	32729.95
464.959	33979.21
465.165	34173.77
465.37	34317.13
465.575	34231.11
465.781	36412.2
465.986	37518.1
466.191	36584.23
466.397	37233.44
466.602	36041.52
466.807	38325
467.012	39303.93
467.218	39729.91
467.423	39766.77
467.628	41237.22
467.833	42838.73
468.038	42035.92
468.244	41202.4
468.449	43817.66
468.654	43018.95
468.859	42838.73
469.064	42711.75
469.269	41624.28
469.474	41921.24
469.679	43084.48
469.885	41704.15
