Data from USB4F104151__12__09-25-04-624.txt Node

Date: Wed Feb 26 09:25:04 EST 2025
User: louis
Spectrometer: USB4F10415
Trigger mode: 4
Integration Time (sec): 1.000000E-1
Scans to average: 1
Electric dark correction enabled: true
Nonlinearity correction enabled: false
Boxcar width: 0
XAxis mode: Wavelengths
Number of Pixels in Spectrum: 3648
>>>>>Begin Spectral Data<<<<<
178.204	-340.82
178.424	-340.82
178.644	-340.82
178.864	-351.06
179.084	-344.91
179.304	-11.09
179.524	-15.19
179.744	-76.63
179.964	56.49
180.184	-33.62
180.404	44.2
180.624	27.82
180.844	-25.43
181.064	-54.1
181.283	29.87
181.503	11.43
181.723	46.25
181.943	-115.54
182.163	150.7
182.383	-62.29
182.602	111.78
182.822	105.64
183.042	58.54
183.262	-7
183.482	27.82
183.701	-9.05
183.921	-13.14
184.141	-9.05
184.361	81.07
184.58	-11.09
184.8	-7
185.02	11.43
185.239	87.21
185.459	-21.33
185.679	107.69
185.898	-127.83
186.118	17.58
186.338	23.72
186.557	74.92
186.777	-93.01
186.997	-140.12
187.216	48.3
187.436	117.93
187.655	66.73
187.875	122.02
188.095	25.77
188.314	95.4
188.534	105.64
188.753	17.58
188.973	126.12
189.192	119.98
189.412	21.67
189.631	105.64
189.851	1.19
190.07	138.41
190.29	42.15
190.509	44.2
190.729	15.53
190.948	179.37
191.168	220.33
191.387	72.87
191.607	-54.1
191.826	15.53
192.045	70.83
192.265	42.15
192.484	-54.1
192.704	-23.38
192.923	-50
193.142	191.66
193.362	68.78
193.581	81.07
193.8	58.54
194.02	40.11
194.239	-23.38
194.458	27.82
194.678	50.35
194.897	-4.95
195.116	17.58
195.335	64.68
195.555	50.35
195.774	-7
195.993	74.92
196.212	33.96
196.432	-45.91
196.651	17.58
196.87	36.01
197.089	212.14
197.308	25.77
197.528	46.25
197.747	-95.06
197.966	52.39
198.185	130.22
198.404	3.24
198.623	150.7
198.842	27.82
199.062	31.91
199.281	33.96
199.5	-0.85
199.719	113.83
199.938	44.2
200.157	132.26
200.376	87.21
200.595	93.35
200.814	83.11
201.033	44.2
201.252	117.93
201.471	17.58
201.69	72.87
201.909	36.01
202.128	87.21
202.347	64.68
202.566	5.29
202.785	-70.48
203.004	-29.52
203.223	195.75
203.442	23.72
203.661	-41.81
203.879	109.74
204.098	119.98
204.317	3.24
204.536	142.5
204.755	81.07
204.974	113.83
205.193	19.63
205.411	103.59
205.63	95.4
205.849	19.63
206.068	44.2
206.287	-29.52
206.505	126.12
206.724	-54.1
206.943	-45.91
207.162	-27.48
207.381	44.2
207.599	27.82
207.818	48.3
208.037	11.43
208.255	-35.67
208.474	-19.29
208.693	7.34
208.911	27.82
209.13	38.06
209.349	115.88
209.567	105.64
209.786	44.2
210.005	33.96
210.223	23.72
210.442	-35.67
210.661	-29.52
210.879	3.24
211.098	113.83
211.316	19.63
211.535	101.55
211.753	-31.57
211.972	99.5
212.191	76.97
212.409	83.11
212.628	95.4
212.846	-29.52
213.065	66.73
213.283	175.27
213.502	-21.33
213.72	9.39
213.938	56.49
214.157	60.59
214.375	46.25
214.594	46.25
214.812	68.78
215.031	3.24
215.249	-0.85
215.467	-0.85
215.686	7.34
215.904	76.97
216.122	-0.85
216.341	99.5
216.559	40.11
216.778	91.31
216.996	109.74
217.214	-37.72
217.432	50.35
217.651	-84.82
217.869	-13.14
218.087	-2.9
218.306	-62.29
218.524	15.53
218.742	-2.9
218.96	160.94
219.179	17.58
219.397	15.53
219.615	138.41
219.833	138.41
220.051	-9.05
220.27	91.31
220.488	36.01
220.706	31.91
220.924	-35.67
221.142	-72.53
221.36	31.91
221.578	68.78
221.796	7.34
222.015	9.39
222.233	62.63
222.451	99.5
222.669	-7
222.887	25.77
223.105	-45.91
223.323	27.82
223.541	3.24
223.759	72.87
223.977	68.78
224.195	177.32
224.413	76.97
224.631	60.59
224.849	48.3
225.067	148.65
225.285	-37.72
225.503	36.01
225.721	-144.21
225.939	52.39
226.157	-21.33
226.375	205.99
226.592	-23.38
226.81	21.67
227.028	72.87
227.246	150.7
227.464	-41.81
227.682	124.07
227.9	150.7
228.117	56.49
228.335	60.59
228.553	52.39
228.771	31.91
228.989	56.49
229.206	124.07
229.424	-25.43
229.642	50.35
229.86	-4.95
230.077	58.54
230.295	76.97
230.513	105.64
230.731	42.15
230.948	128.17
231.166	107.69
231.384	11.43
231.601	25.77
231.819	79.02
232.037	-27.48
232.254	27.82
232.472	1.19
232.689	23.72
232.907	56.49
233.125	-45.91
233.342	-133.97
233.56	72.87
233.777	-52.05
233.995	31.91
234.213	38.06
234.43	128.17
234.648	-31.57
234.865	-121.68
235.083	-37.72
235.3	7.34
235.518	93.35
235.735	132.26
235.953	74.92
236.17	-21.33
236.388	-13.14
236.605	9.39
236.822	56.49
237.04	76.97
237.257	64.68
237.475	36.01
237.692	44.2
237.909	3.24
238.127	-25.43
238.344	44.2
238.562	11.43
238.779	-54.1
238.996	-58.2
239.214	46.25
239.431	117.93
239.648	11.43
239.865	76.97
240.083	81.07
240.3	9.39
240.517	-23.38
240.735	70.83
240.952	148.65
241.169	46.25
241.386	44.2
241.603	-45.91
241.821	-97.11
242.038	101.55
242.255	68.78
242.472	23.72
242.689	42.15
242.907	44.2
243.124	29.87
243.341	-2.9
243.558	31.91
243.775	-78.68
243.992	-2.9
244.209	3.24
244.426	117.93
244.643	85.16
244.86	87.21
245.078	72.87
245.295	87.21
245.512	3.24
245.729	-21.33
245.946	-11.09
246.163	36.01
246.38	-7
246.597	3.24
246.814	58.54
247.031	62.63
247.248	42.15
247.464	29.87
247.681	-35.67
247.898	70.83
248.115	117.93
248.332	-25.43
248.549	140.46
248.766	119.98
248.983	48.3
249.2	25.77
249.417	60.59
249.633	48.3
249.85	130.22
250.067	-39.76
250.284	13.48
250.501	-19.29
250.717	44.2
250.934	-119.64
251.151	62.63
251.368	85.16
251.585	11.43
251.801	-19.29
252.018	-25.43
252.235	81.07
252.451	-54.1
252.668	29.87
252.885	21.67
253.102	89.26
253.318	66.73
253.535	-47.96
253.752	7.34
253.968	-4.95
254.185	-39.76
254.401	40.11
254.618	42.15
254.835	-39.76
255.051	99.5
255.268	3.24
255.484	52.39
255.701	38.06
255.917	64.68
256.134	-29.52
256.351	40.11
256.567	-50
256.784	17.58
257	-121.68
257.217	111.78
257.433	58.54
257.65	1.19
257.866	124.07
258.082	1.19
258.299	-109.4
258.515	48.3
258.732	-33.62
258.948	-17.24
259.165	-4.95
259.381	-39.76
259.597	103.59
259.814	19.63
260.03	7.34
260.246	-23.38
260.463	134.31
260.679	122.02
260.895	-54.1
261.112	40.11
261.328	68.78
261.544	-37.72
261.761	181.42
261.977	-15.19
262.193	-93.01
262.409	128.17
262.626	64.68
262.842	38.06
263.058	60.59
263.274	113.83
263.49	85.16
263.707	-0.85
263.923	76.97
264.139	-127.83
264.355	70.83
264.571	85.16
264.787	52.39
265.004	95.4
265.22	17.58
265.436	52.39
265.652	3.24
265.868	113.83
266.084	-13.14
266.3	52.39
266.516	-13.14
266.732	21.67
266.948	19.63
267.164	-4.95
267.38	117.93
267.596	27.82
267.812	107.69
268.028	74.92
268.244	-43.86
268.46	9.39
268.676	36.01
268.892	1.19
269.108	-35.67
269.324	15.53
269.54	-119.64
269.756	70.83
269.972	-29.52
270.188	11.43
270.403	-56.15
270.619	46.25
270.835	23.72
271.051	23.72
271.267	-9.05
271.483	-52.05
271.698	117.93
271.914	-7
272.13	-21.33
272.346	31.91
272.562	31.91
272.777	36.01
272.993	-0.85
273.209	11.43
273.425	31.91
273.64	13.48
273.856	68.78
274.072	-0.85
274.287	19.63
274.503	50.35
274.719	91.31
274.934	48.3
275.15	-50
275.366	17.58
275.581	-86.87
275.797	-11.09
276.012	-9.05
276.228	-43.86
276.444	31.91
276.659	93.35
276.875	-17.24
277.09	-43.86
277.306	-13.14
277.521	25.77
277.737	17.58
277.952	101.55
278.168	70.83
278.383	-21.33
278.599	-43.86
278.814	7.34
279.03	76.97
279.245	126.12
279.461	-19.29
279.676	83.11
279.892	-58.2
280.107	-13.14
280.322	-13.14
280.538	60.59
280.753	-50
280.969	79.02
281.184	36.01
281.399	101.55
281.615	76.97
281.83	44.2
282.045	-43.86
282.26	68.78
282.476	48.3
282.691	3.24
282.906	101.55
283.122	5.29
283.337	21.67
283.552	11.43
283.767	7.34
283.983	134.31
284.198	11.43
284.413	33.96
284.628	-41.81
284.843	33.96
285.058	122.02
285.274	-11.09
285.489	-17.24
285.704	76.97
285.919	-13.14
286.134	44.2
286.349	56.49
286.564	-43.86
286.779	52.39
286.995	89.26
287.21	-29.52
287.425	56.49
287.64	-29.52
287.855	72.87
288.07	-27.48
288.285	117.93
288.5	56.49
288.715	17.58
288.93	7.34
289.145	-9.05
289.36	66.73
289.575	25.77
289.79	113.83
290.004	-58.2
290.219	66.73
290.434	76.97
290.649	-21.33
290.864	-13.14
291.079	-15.19
291.294	21.67
291.509	1.19
291.724	23.72
291.938	130.22
292.153	48.3
292.368	19.63
292.583	-0.85
292.798	40.11
293.012	46.25
293.227	101.55
293.442	27.82
293.657	115.88
293.871	111.78
294.086	42.15
294.301	162.98
294.516	56.49
294.73	1.19
294.945	17.58
295.16	-11.09
295.374	99.5
295.589	117.93
295.804	3.24
296.018	-45.91
296.233	122.02
296.447	42.15
296.662	-33.62
296.877	109.74
297.091	23.72
297.306	-19.29
297.52	38.06
297.735	60.59
297.949	81.07
298.164	113.83
298.378	25.77
298.593	-50
298.807	-80.72
299.022	42.15
299.236	83.11
299.451	42.15
299.665	7.34
299.88	31.91
300.094	50.35
300.309	56.49
300.523	33.96
300.737	3.24
300.952	9.39
301.166	-25.43
301.381	-80.72
301.595	40.11
301.809	36.01
302.024	-25.43
302.238	-68.44
302.452	68.78
302.667	17.58
302.881	146.6
303.095	74.92
303.309	-97.11
303.524	44.2
303.738	-17.24
303.952	-66.39
304.166	15.53
304.381	-84.82
304.595	154.79
304.809	-0.85
305.023	72.87
305.237	101.55
305.452	-0.85
305.666	72.87
305.88	74.92
306.094	76.97
306.308	19.63
306.522	105.64
306.736	66.73
306.95	72.87
307.164	-23.38
307.379	-4.95
307.593	105.64
307.807	154.79
308.021	21.67
308.235	56.49
308.449	-41.81
308.663	93.35
308.877	169.13
309.091	15.53
309.305	52.39
309.519	-13.14
309.733	109.74
309.947	-99.16
310.161	56.49
310.374	-0.85
310.588	101.55
310.802	-41.81
311.016	27.82
311.23	81.07
311.444	5.29
311.658	-33.62
311.872	99.5
312.085	122.02
312.299	183.46
312.513	117.93
312.727	68.78
312.941	5.29
313.154	74.92
313.368	36.01
313.582	25.77
313.796	91.31
314.009	124.07
314.223	76.97
314.437	11.43
314.651	111.78
314.864	-62.29
315.078	-29.52
315.292	-56.15
315.505	27.82
315.719	-47.96
315.933	74.92
316.146	27.82
316.36	-31.57
316.573	95.4
316.787	-7
317.001	15.53
317.214	-43.86
317.428	134.31
317.641	17.58
317.855	9.39
318.068	87.21
318.282	40.11
318.495	165.03
318.709	66.73
318.922	27.82
319.136	58.54
319.349	99.5
319.563	15.53
319.776	44.2
319.99	-78.68
320.203	29.87
320.417	52.39
320.63	109.74
320.843	150.7
321.057	50.35
321.27	19.63
321.483	-25.43
321.697	70.83
321.91	-37.72
322.124	42.15
322.337	105.64
322.55	-23.38
322.763	64.68
322.977	-31.57
323.19	-15.19
323.403	19.63
323.617	3.24
323.83	95.4
324.043	-47.96
324.256	15.53
324.469	-21.33
324.683	33.96
324.896	11.43
325.109	48.3
325.322	1.19
325.535	-4.95
325.748	58.54
325.962	29.87
326.175	40.11
326.388	50.35
326.601	72.87
326.814	19.63
327.027	68.78
327.24	111.78
327.453	-88.92
327.666	111.78
327.879	103.59
328.092	130.22
328.305	-0.85
328.518	7.34
328.731	3.24
328.944	81.07
329.157	-11.09
329.37	23.72
329.583	146.6
329.796	111.78
330.009	-113.49
330.222	13.48
330.435	99.5
330.648	81.07
330.861	40.11
331.073	76.97
331.286	160.94
331.499	68.78
331.712	-86.87
331.925	50.35
332.138	44.2
332.35	64.68
332.563	-27.48
332.776	68.78
332.989	-0.85
333.202	-4.95
333.414	-47.96
333.627	66.73
333.84	25.77
334.053	48.3
334.265	-7
334.478	54.44
334.691	23.72
334.903	93.35
335.116	27.82
335.329	-13.14
335.541	62.63
335.754	183.46
335.966	-21.33
336.179	25.77
336.392	9.39
336.604	-2.9
336.817	115.88
337.029	-15.19
337.242	-0.85
337.454	42.15
337.667	91.31
337.88	122.02
338.092	105.64
338.305	52.39
338.517	-43.86
338.729	52.39
338.942	81.07
339.154	27.82
339.367	-68.44
339.579	79.02
339.792	27.82
340.004	23.72
340.217	7.34
340.429	27.82
340.641	44.2
340.854	13.48
341.066	-25.43
341.278	91.31
341.491	117.93
341.703	62.63
341.915	-19.29
342.128	81.07
342.34	54.44
342.552	27.82
342.764	62.63
342.977	-9.05
343.189	44.2
343.401	54.44
343.613	-97.11
343.826	44.2
344.038	-41.81
344.25	97.45
344.462	7.34
344.674	52.39
344.886	81.07
345.099	68.78
345.311	72.87
345.523	-4.95
345.735	-76.63
345.947	66.73
346.159	60.59
346.371	72.87
346.583	-9.05
346.795	158.89
347.007	-33.62
347.219	93.35
347.431	-0.85
347.643	101.55
347.855	-62.29
348.067	146.6
348.279	-21.33
348.491	19.63
348.703	52.39
348.915	-21.33
349.127	7.34
349.339	54.44
349.551	33.96
349.763	79.02
349.975	-39.76
350.187	126.12
350.399	117.93
350.61	9.39
350.822	81.07
351.034	17.58
351.246	74.92
351.458	74.92
351.669	64.68
351.881	117.93
352.093	89.26
352.305	83.11
352.517	3.24
352.728	130.22
352.94	91.31
353.152	27.82
353.363	-13.14
353.575	105.64
353.787	117.93
353.999	50.35
354.21	175.27
354.422	-13.14
354.633	19.63
354.845	3.24
355.057	31.91
355.268	52.39
355.48	58.54
355.692	-70.48
355.903	44.2
356.115	27.82
356.326	-68.44
356.538	95.4
356.749	-4.95
356.961	130.22
357.172	17.58
357.384	-15.19
357.595	124.07
357.807	17.58
358.018	9.39
358.23	52.39
358.441	150.7
358.653	-17.24
358.864	44.2
359.075	17.58
359.287	74.92
359.498	27.82
359.709	-0.85
359.921	44.2
360.132	-21.33
360.344	7.34
360.555	31.91
360.766	97.45
360.977	5.29
361.189	97.45
361.4	42.15
361.611	54.44
361.823	115.88
362.034	50.35
362.245	-25.43
362.456	17.58
362.667	122.02
362.879	3.24
363.09	3.24
363.301	36.01
363.512	-21.33
363.723	-105.3
363.935	74.92
364.146	126.12
364.357	52.39
364.568	115.88
364.779	-101.2
364.99	60.59
365.201	54.44
365.412	76.97
365.623	-31.57
365.834	19.63
366.045	48.3
366.256	52.39
366.467	60.59
366.678	-19.29
366.889	9.39
367.1	1.19
367.311	40.11
367.522	-9.05
367.733	-39.76
367.944	74.92
368.155	99.5
368.366	68.78
368.577	93.35
368.788	91.31
368.999	50.35
369.209	93.35
369.42	205.99
369.631	275.62
369.842	83.11
370.053	36.01
370.264	44.2
370.474	-45.91
370.685	74.92
370.896	40.11
371.107	154.79
371.317	25.77
371.528	1.19
371.739	60.59
371.95	89.26
372.16	33.96
372.371	5.29
372.582	15.53
372.792	154.79
373.003	128.17
373.214	126.12
373.424	68.78
373.635	-74.58
373.846	58.54
374.056	60.59
374.267	48.3
374.477	60.59
374.688	-31.57
374.898	60.59
375.109	9.39
375.319	124.07
375.53	33.96
375.74	87.21
375.951	-41.81
376.161	21.67
376.372	17.58
376.582	3.24
376.793	38.06
377.003	-31.57
377.214	-60.24
377.424	89.26
377.635	91.31
377.845	7.34
378.055	91.31
378.266	-33.62
378.476	58.54
378.686	124.07
378.897	42.15
379.107	44.2
379.317	42.15
379.528	-62.29
379.738	148.65
379.948	-72.53
380.158	72.87
380.369	93.35
380.579	13.48
380.789	21.67
380.999	64.68
381.21	31.91
381.42	160.94
381.63	19.63
381.84	42.15
382.05	31.91
382.261	97.45
382.471	66.73
382.681	13.48
382.891	117.93
383.101	64.68
383.311	-21.33
383.521	19.63
383.731	50.35
383.941	76.97
384.151	-15.19
384.361	-23.38
384.571	36.01
384.781	33.96
384.991	181.42
385.201	154.79
385.411	89.26
385.621	72.87
385.831	-21.33
386.041	31.91
386.251	3.24
386.461	122.02
386.671	29.87
386.881	15.53
387.091	105.64
387.301	111.78
387.511	76.97
387.72	42.15
387.93	38.06
388.14	-19.29
388.35	33.96
388.56	40.11
388.769	162.98
388.979	5.29
389.189	-0.85
389.399	-0.85
389.609	74.92
389.818	36.01
390.028	-9.05
390.238	107.69
390.447	1.19
390.657	115.88
390.867	5.29
391.076	-37.72
391.286	68.78
391.496	36.01
391.705	33.96
391.915	93.35
392.125	103.59
392.334	7.34
392.544	138.41
392.753	5.29
392.963	19.63
393.172	36.01
393.382	7.34
393.591	173.22
393.801	40.11
394.01	132.26
394.22	109.74
394.429	11.43
394.639	-13.14
394.848	52.39
395.058	44.2
395.267	81.07
395.477	-37.72
395.686	52.39
395.895	142.5
396.105	140.46
396.314	76.97
396.524	-0.85
396.733	64.68
396.942	76.97
397.152	111.78
397.361	87.21
397.57	9.39
397.78	70.83
397.989	58.54
398.198	126.12
398.407	76.97
398.617	-37.72
398.826	50.35
399.035	36.01
399.244	60.59
399.453	91.31
399.663	66.73
399.872	54.44
400.081	13.48
400.29	79.02
400.499	-9.05
400.708	48.3
400.917	52.39
401.127	33.96
401.336	25.77
401.545	132.26
401.754	177.32
401.963	109.74
402.172	42.15
402.381	-23.38
402.59	-7
402.799	60.59
403.008	101.55
403.217	93.35
403.426	64.68
403.635	-13.14
403.844	11.43
404.053	-21.33
404.262	19.63
404.471	103.59
404.68	58.54
404.888	-11.09
405.097	48.3
405.306	31.91
405.515	72.87
405.724	85.16
405.933	117.93
406.142	23.72
406.35	76.97
406.559	5.29
406.768	-19.29
406.977	64.68
407.185	27.82
407.394	58.54
407.603	42.15
407.812	-25.43
408.02	140.46
408.229	42.15
408.438	70.83
408.646	-80.72
408.855	44.2
409.064	52.39
409.272	58.54
409.481	93.35
409.69	-50
409.898	-31.57
410.107	60.59
410.315	-0.85
410.524	9.39
410.733	66.73
410.941	42.15
411.15	107.69
411.358	128.17
411.567	126.12
411.775	3.24
411.984	-2.9
412.192	109.74
412.401	-66.39
412.609	50.35
412.818	85.16
413.026	101.55
413.234	1.19
413.443	21.67
413.651	-45.91
413.86	66.73
414.068	109.74
414.276	107.69
414.485	83.11
414.693	148.65
414.901	160.94
415.11	126.12
415.318	-62.29
415.526	36.01
415.734	-0.85
415.943	31.91
416.151	144.55
416.359	-17.24
416.567	68.78
416.776	19.63
416.984	152.74
417.192	195.75
417.4	44.2
417.608	62.63
417.817	7.34
418.025	122.02
418.233	160.94
418.441	-2.9
418.649	9.39
418.857	68.78
419.065	212.14
419.273	7.34
419.481	23.72
419.689	3.24
419.897	-17.24
420.105	-117.59
420.313	126.12
420.521	54.44
420.729	85.16
420.937	-54.1
421.145	44.2
421.353	60.59
421.561	183.46
421.769	99.5
421.977	66.73
422.185	25.77
422.393	25.77
422.601	128.17
422.809	-4.95
423.017	36.01
423.224	115.88
423.432	132.26
423.64	25.77
423.848	56.49
424.056	-4.95
424.263	68.78
424.471	91.31
424.679	89.26
424.887	1.19
425.094	117.93
425.302	31.91
425.51	64.68
425.718	109.74
425.925	56.49
426.133	-25.43
426.341	185.51
426.548	64.68
426.756	74.92
426.964	60.59
427.171	52.39
427.379	52.39
427.586	72.87
427.794	134.31
428.001	124.07
428.209	134.31
428.417	154.79
428.624	193.7
428.832	72.87
429.039	105.64
429.247	33.96
429.454	160.94
429.662	191.66
429.869	130.22
430.076	113.83
430.284	177.32
430.491	195.75
430.699	68.78
430.906	171.18
431.114	99.5
431.321	138.41
431.528	54.44
431.736	124.07
431.943	138.41
432.15	99.5
432.358	175.27
432.565	240.81
432.772	81.07
432.979	265.38
433.187	101.55
433.394	224.42
433.601	60.59
433.808	210.09
434.016	167.08
434.223	195.75
434.43	171.18
434.637	224.42
434.844	330.92
435.052	218.28
435.259	273.57
435.466	240.81
435.673	179.37
435.88	234.66
436.087	312.49
436.294	330.92
436.501	224.42
436.708	244.9
436.915	267.43
437.122	318.63
437.329	228.52
437.537	322.73
437.743	271.53
437.95	404.64
438.157	400.55
438.364	294.05
438.571	330.92
438.778	402.6
438.985	459.94
439.192	543.91
439.399	312.49
439.606	363.69
439.813	494.76
440.02	541.86
440.227	531.62
440.433	533.67
440.64	431.27
440.847	449.7
441.054	529.57
441.261	582.82
441.467	552.1
441.674	511.14
441.881	621.73
442.088	593.06
442.294	709.79
442.501	699.55
442.708	822.43
442.914	728.22
443.121	707.74
443.328	836.77
443.534	763.04
443.741	765.09
443.948	830.62
444.154	883.87
444.361	1057.95
444.568	877.73
444.774	887.97
444.981	838.81
445.187	1043.61
445.394	1039.51
445.6	994.46
445.807	1176.73
446.013	1174.68
446.22	1059.99
446.426	1232.02
446.633	1297.56
446.839	1565.84
447.046	1326.23
447.252	1442.96
447.459	1531.03
447.665	1436.82
447.871	1623.19
448.078	1805.46
448.284	1688.72
448.491	1854.61
448.697	1916.05
448.903	1868.94
449.11	1973.39
449.316	2002.06
449.522	2122.89
449.728	2258.06
449.935	2335.88
450.141	2342.02
450.347	2542.72
450.553	2399.37
450.76	2552.96
450.966	2534.53
451.172	2854.02
451.378	2868.35
451.584	2911.36
451.791	2995.32
451.997	3296.38
452.203	3202.17
452.409	3478.65
452.615	3681.39
452.821	3480.69
453.027	3427.45
453.233	3996.78
453.44	3857.52
453.646	4199.53
453.852	4256.87
454.058	4316.26
454.264	4598.88
454.47	4729.95
454.676	4826.21
454.882	5291.1
455.088	5057.63
455.294	5418.07
455.5	5598.29
455.705	5854.29
455.911	6003.79
456.117	6136.91
456.323	6319.18
456.529	6413.38
456.735	7058.49
456.941	7042.11
457.147	7416.89
457.352	7709.75
457.558	7918.64
457.764	8326.19
457.97	8383.53
458.176	8739.88
458.381	9282.59
458.587	9497.63
458.793	9862.16
458.999	9946.13
459.204	11138.05
459.41	11500.54
459.616	11287.55
459.821	12028.92
460.027	12565.48
460.233	13241.31
460.438	13220.83
460.644	13796.31
460.85	14048.21
461.055	14429.13
461.261	15403.97
461.466	14742.47
461.672	15322.05
461.878	17265.57
462.083	16868.27
462.289	17296.29
462.494	17943.45
462.7	18078.61
462.905	18486.16
463.111	19817.34
463.316	20837.23
463.522	21183.34
463.727	21887.84
463.932	22825.81
464.138	23501.64
464.343	24202.04
464.549	24462.13
464.754	26239.77
464.959	26770.19
465.165	27532.04
465.37	27130.64
465.575	27167.5
465.781	28850.93
465.986	30118.62
466.191	29385.45
466.397	29768.42
466.602	29020.91
466.807	30554.84
467.012	31199.95
467.218	31636.17
467.423	31695.56
467.628	32701.11
467.833	34468.51
468.038	33759.91
468.244	33139.38
468.449	34931.35
468.654	34134.69
468.859	34075.3
469.064	33835.69
469.269	33378.99
469.474	33675.94
469.679	34425.5
