Data from USB4F104151__0__09-24-00-349.txt Node

Date: Wed Feb 26 09:24:00 EST 2025
User: louis
Spectrometer: USB4F10415
Trigger mode: 4
Integration Time (sec): 1.000000E-1
Scans to average: 1
Electric dark correction enabled: true
Nonlinearity correction enabled: false
Boxcar width: 0
XAxis mode: Wavelengths
Number of Pixels in Spectrum: 3648
>>>>>Begin Spectral Data<<<<<
178.204	-346.79
178.424	-346.79
178.644	-346.79
178.864	-342.69
179.084	-332.45
179.304	56.66
179.524	-74.41
179.744	-51.88
179.964	48.47
180.184	15.7
180.404	-23.21
180.624	-12.97
180.844	32.08
181.064	-29.35
181.283	30.04
181.503	-119.46
181.723	128.34
181.943	-176.81
182.163	32.08
182.383	32.08
182.602	48.47
182.822	85.33
183.042	50.52
183.262	-78.51
183.482	-47.79
183.701	-21.16
183.921	-12.97
184.141	-82.6
184.361	101.72
184.58	60.76
184.8	25.94
185.02	3.41
185.239	128.34
185.459	-68.27
185.679	83.28
185.898	-103.08
186.118	30.04
186.338	3.41
186.557	83.28
186.777	-23.21
186.997	42.32
187.216	-6.83
187.436	173.39
187.655	60.76
187.875	-12.97
188.095	42.32
188.314	66.9
188.534	109.91
188.753	-45.74
188.973	56.66
189.192	97.62
189.412	3.41
189.631	11.61
189.851	30.04
190.07	216.4
190.29	-76.46
190.509	-21.16
190.729	-8.87
190.948	91.48
191.168	281.94
191.387	75.09
191.607	27.99
191.826	36.18
192.045	44.37
192.265	-43.69
192.484	-21.16
192.704	-62.12
192.923	-31.4
193.142	130.39
193.362	-0.68
193.581	107.86
193.8	109.91
194.02	64.85
194.239	32.08
194.458	56.66
194.678	19.8
194.897	1.37
195.116	54.61
195.335	36.18
195.555	34.13
195.774	3.41
195.993	81.24
196.212	9.56
196.432	-98.99
196.651	-58.03
196.87	23.89
197.089	183.63
197.308	99.67
197.528	-0.68
197.747	-37.55
197.966	-21.16
198.185	116.05
198.404	-72.36
198.623	97.62
198.842	87.38
199.062	81.24
199.281	75.09
199.5	52.56
199.719	-21.16
199.938	5.46
200.157	93.52
200.376	91.48
200.595	23.89
200.814	-4.78
201.033	-41.64
201.252	77.14
201.471	-37.55
201.69	42.32
201.909	19.8
202.128	101.72
202.347	58.71
202.566	-78.51
202.785	-82.6
203.004	-123.56
203.223	191.83
203.442	-6.83
203.661	-88.75
203.879	34.13
204.098	17.75
204.317	81.24
204.536	56.66
204.755	60.76
204.974	64.85
205.193	40.28
205.411	105.81
205.63	68.95
205.849	23.89
206.068	-21.16
206.287	-58.03
206.505	163.15
206.724	-70.31
206.943	13.65
207.162	-41.64
207.381	97.62
207.599	-49.83
207.818	3.41
208.037	-21.16
208.255	9.56
208.474	83.28
208.693	32.08
208.911	-29.35
209.13	134.48
209.349	48.47
209.567	17.75
209.786	91.48
210.005	77.14
210.223	58.71
210.442	-62.12
210.661	38.23
210.879	-10.92
211.098	-37.55
211.316	148.82
211.535	52.56
211.753	54.61
211.972	56.66
212.191	36.18
212.409	-4.78
212.628	36.18
212.846	-45.74
213.065	66.9
213.283	83.28
213.502	-10.92
213.72	7.51
213.938	42.32
214.157	-25.26
214.375	60.76
214.594	-21.16
214.812	91.48
215.031	-0.68
215.249	21.85
215.467	85.33
215.686	-35.5
215.904	-78.51
216.122	15.7
216.341	130.39
216.559	-37.55
216.778	109.91
216.996	60.76
217.214	40.28
217.432	-29.35
217.651	-92.84
217.869	109.91
218.087	15.7
218.306	-37.55
218.524	23.89
218.742	-43.69
218.96	46.42
219.179	-33.45
219.397	-25.26
219.615	245.07
219.833	60.76
220.051	-37.55
220.27	107.86
220.488	79.19
220.706	-49.83
220.924	-51.88
221.142	25.94
221.36	3.41
221.578	-25.26
221.796	15.7
222.015	-12.97
222.233	-39.59
222.451	132.44
222.669	-31.4
222.887	36.18
223.105	3.41
223.323	27.99
223.541	-154.28
223.759	-6.83
223.977	-19.11
224.195	138.58
224.413	34.13
224.631	25.94
224.849	68.95
225.067	159.06
225.285	-31.4
225.503	-47.79
225.721	-133.8
225.939	40.28
226.157	58.71
226.375	226.64
226.592	3.41
226.81	-4.78
227.028	93.52
227.246	132.44
227.464	83.28
227.682	97.62
227.9	27.99
228.117	62.8
228.335	68.95
228.553	50.52
228.771	27.99
228.989	7.51
229.206	68.95
229.424	-27.31
229.642	-94.89
229.86	-12.97
230.077	150.87
230.295	60.76
230.513	93.52
230.731	-8.87
230.948	118.1
231.166	134.48
231.384	-107.18
231.601	-4.78
231.819	71
232.037	-109.22
232.254	-41.64
232.472	-21.16
232.689	1.37
232.907	73.04
233.125	-10.92
233.342	-137.9
233.56	-86.7
233.777	-29.35
233.995	46.42
234.213	68.95
234.43	60.76
234.648	-45.74
234.865	7.51
235.083	36.18
235.3	34.13
235.518	73.04
235.735	169.3
235.953	19.8
236.17	13.65
236.388	15.7
236.605	27.99
236.822	116.05
237.04	101.72
237.257	-12.97
237.475	-29.35
237.692	-51.88
237.909	93.52
238.127	23.89
238.344	15.7
238.562	64.85
238.779	-70.31
238.996	-123.56
239.214	40.28
239.431	73.04
239.648	-37.55
239.865	30.04
240.083	101.72
240.3	-15.02
240.517	-88.75
240.735	-0.68
240.952	58.71
241.169	11.61
241.386	77.14
241.603	9.56
241.821	-60.07
242.038	85.33
242.255	79.19
242.472	44.37
242.689	60.76
242.907	38.23
243.124	54.61
243.341	-8.87
243.558	3.41
243.775	-41.64
243.992	-39.59
244.209	-27.31
244.426	116.05
244.643	85.33
244.86	19.8
245.078	89.43
245.295	126.29
245.512	7.51
245.729	-39.59
245.946	21.85
246.163	132.44
246.38	-55.98
246.597	-25.26
246.814	11.61
247.031	-82.6
247.248	-21.16
247.464	3.41
247.681	3.41
247.898	50.52
248.115	75.09
248.332	-88.75
248.549	50.52
248.766	21.85
248.983	27.99
249.2	103.76
249.417	93.52
249.633	-37.55
249.85	7.51
250.067	-4.78
250.284	9.56
250.501	118.1
250.717	68.95
250.934	7.51
251.151	-15.02
251.368	44.37
251.585	25.94
251.801	-25.26
252.018	48.47
252.235	116.05
252.451	-70.31
252.668	1.37
252.885	60.76
253.102	60.76
253.318	-33.45
253.535	-8.87
253.752	-39.59
253.968	-4.78
254.185	25.94
254.401	-25.26
254.618	58.71
254.835	-62.12
255.051	44.37
255.268	148.82
255.484	19.8
255.701	42.32
255.917	95.57
256.134	-10.92
256.351	75.09
256.567	71
256.784	83.28
257	7.51
257.217	5.46
257.433	87.38
257.65	56.66
257.866	58.71
258.082	-60.07
258.299	-29.35
258.515	11.61
258.732	-72.36
258.948	-21.16
259.165	-8.87
259.381	-60.07
259.597	-8.87
259.814	19.8
260.03	27.99
260.246	19.8
260.463	13.65
260.679	99.67
260.895	52.56
261.112	11.61
261.328	-66.22
261.544	1.37
261.761	159.06
261.977	-66.22
262.193	-23.21
262.409	40.28
262.626	36.18
262.842	-41.64
263.058	-37.55
263.274	32.08
263.49	3.41
263.707	169.3
263.923	34.13
264.139	-94.89
264.355	-12.97
264.571	116.05
264.787	23.89
265.004	85.33
265.22	11.61
265.436	-127.66
265.652	-21.16
265.868	40.28
266.084	-68.27
266.3	44.37
266.516	-74.41
266.732	7.51
266.948	42.32
267.164	-64.17
267.38	68.95
267.596	-19.11
267.812	165.2
268.028	40.28
268.244	-23.21
268.46	91.48
268.676	5.46
268.892	15.7
269.108	-19.11
269.324	9.56
269.54	-80.55
269.756	50.52
269.972	44.37
270.188	-21.16
270.403	-64.17
270.619	-10.92
270.835	79.19
271.051	89.43
271.267	-23.21
271.483	-45.74
271.698	23.89
271.914	-6.83
272.13	36.18
272.346	13.65
272.562	32.08
272.777	73.04
272.993	-23.21
273.209	-94.89
273.425	-12.97
273.64	-58.03
273.856	101.72
274.072	-82.6
274.287	-15.02
274.503	-37.55
274.719	25.94
274.934	-4.78
275.15	-55.98
275.366	-6.83
275.581	-2.73
275.797	36.18
276.012	15.7
276.228	-78.51
276.444	-6.83
276.659	124.24
276.875	-35.5
277.09	83.28
277.306	19.8
277.521	34.13
277.737	81.24
277.952	105.81
278.168	17.75
278.383	50.52
278.599	-4.78
278.814	122.2
279.03	-78.51
279.245	114
279.461	15.7
279.676	44.37
279.892	-31.4
280.107	-86.7
280.322	44.37
280.538	52.56
280.753	-4.78
280.969	48.47
281.184	15.7
281.399	101.72
281.615	-25.26
281.83	19.8
282.045	-21.16
282.26	-6.83
282.476	7.51
282.691	19.8
282.906	9.56
283.122	-4.78
283.337	-39.59
283.552	44.37
283.767	-21.16
283.983	32.08
284.198	11.61
284.413	1.37
284.628	-187.05
284.843	-29.35
285.058	-6.83
285.274	19.8
285.489	-23.21
285.704	36.18
285.919	36.18
286.134	-12.97
286.349	107.86
286.564	-49.83
286.779	54.61
286.995	17.75
287.21	-39.59
287.425	81.24
287.64	25.94
287.855	40.28
288.07	-33.45
288.285	91.48
288.5	36.18
288.715	87.38
288.93	68.95
289.145	-49.83
289.36	171.35
289.575	1.37
289.79	85.33
290.004	-27.31
290.219	38.23
290.434	-47.79
290.649	1.37
290.864	-72.36
291.079	36.18
291.294	-21.16
291.509	64.85
291.724	-90.79
291.938	36.18
292.153	-25.26
292.368	48.47
292.583	42.32
292.798	134.48
293.012	9.56
293.227	83.28
293.442	23.89
293.657	68.95
293.871	138.58
294.086	25.94
294.301	116.05
294.516	93.52
294.73	13.65
294.945	-53.93
295.16	36.18
295.374	79.19
295.589	93.52
295.804	-55.98
296.018	142.68
296.233	101.72
296.447	-2.73
296.662	23.89
296.877	111.96
297.091	89.43
297.306	-21.16
297.52	-64.17
297.735	-39.59
297.949	60.76
298.164	89.43
298.378	-58.03
298.593	-33.45
298.807	-8.87
299.022	38.23
299.236	175.44
299.451	9.56
299.665	19.8
299.88	-8.87
300.094	-29.35
300.309	-21.16
300.523	77.14
300.737	-72.36
300.952	1.37
301.166	15.7
301.381	11.61
301.595	-64.17
301.809	68.95
302.024	-51.88
302.238	-12.97
302.452	48.47
302.667	36.18
302.881	75.09
303.095	15.7
303.309	-2.73
303.524	9.56
303.738	11.61
303.952	-45.74
304.166	34.13
304.381	-86.7
304.595	130.39
304.809	23.89
305.023	89.43
305.237	-0.68
305.452	48.47
305.666	21.85
305.88	-17.07
306.094	40.28
306.308	77.14
306.522	36.18
306.736	9.56
306.95	11.61
307.164	34.13
307.379	-21.16
307.593	130.39
307.807	77.14
308.021	73.04
308.235	60.76
308.449	-49.83
308.663	75.09
308.877	150.87
309.091	111.96
309.305	77.14
309.519	-78.51
309.733	77.14
309.947	-12.97
310.161	34.13
310.374	34.13
310.588	-0.68
310.802	-55.98
311.016	-19.11
311.23	50.52
311.444	-27.31
311.658	9.56
311.872	81.24
312.085	32.08
312.299	87.38
312.513	81.24
312.727	-12.97
312.941	-23.21
313.154	48.47
313.368	-17.07
313.582	32.08
313.796	58.71
314.009	-31.4
314.223	85.33
314.437	7.51
314.651	9.56
314.864	-17.07
315.078	7.51
315.292	-123.56
315.505	-25.26
315.719	87.38
315.933	66.9
316.146	-45.74
316.36	-53.93
316.573	99.67
316.787	44.37
317.001	126.29
317.214	-21.16
317.428	-12.97
317.641	3.41
317.855	-43.69
318.068	27.99
318.282	3.41
318.495	132.44
318.709	73.04
318.922	-2.73
319.136	99.67
319.349	116.05
319.563	79.19
319.776	81.24
319.99	-125.61
320.203	32.08
320.417	19.8
320.63	32.08
320.843	165.2
321.057	-2.73
321.27	11.61
321.483	109.91
321.697	38.23
321.91	3.41
322.124	56.66
322.337	71
322.55	-4.78
322.763	-29.35
322.977	-12.97
323.19	-29.35
323.403	-12.97
323.617	81.24
323.83	5.46
324.043	9.56
324.256	66.9
324.469	-37.55
324.683	85.33
324.896	1.37
325.109	5.46
325.322	-41.64
325.535	-4.78
325.748	23.89
325.962	13.65
326.175	138.58
326.388	-4.78
326.601	77.14
326.814	-55.98
327.027	-12.97
327.24	91.48
327.453	-70.31
327.666	116.05
327.879	114
328.092	52.56
328.305	138.58
328.518	-0.68
328.731	3.41
328.944	5.46
329.157	-0.68
329.37	13.65
329.583	107.86
329.796	118.1
330.009	-62.12
330.222	-8.87
330.435	73.04
330.648	56.66
330.861	44.37
331.073	95.57
331.286	109.91
331.499	34.13
331.712	-41.64
331.925	42.32
332.138	-4.78
332.35	95.57
332.563	-31.4
332.776	77.14
332.989	-2.73
333.202	19.8
333.414	17.75
333.627	50.52
333.84	-70.31
334.053	66.9
334.265	-8.87
334.478	-66.22
334.691	126.29
334.903	27.99
335.116	-70.31
335.329	19.8
335.541	144.72
335.754	165.2
335.966	9.56
336.179	-12.97
336.392	56.66
336.604	1.37
336.817	177.49
337.029	40.28
337.242	-45.74
337.454	79.19
337.667	-4.78
337.88	40.28
338.092	105.81
338.305	81.24
338.517	1.37
338.729	19.8
338.942	36.18
339.154	-15.02
339.367	-31.4
339.579	19.8
339.792	-15.02
340.004	44.37
340.217	19.8
340.429	-15.02
340.641	-80.55
340.854	95.57
341.066	21.85
341.278	32.08
341.491	95.57
341.703	52.56
341.915	-58.03
342.128	52.56
342.34	66.9
342.552	-21.16
342.764	-8.87
342.977	5.46
343.189	-2.73
343.401	13.65
343.613	-8.87
343.826	-92.84
344.038	-6.83
344.25	52.56
344.462	-53.93
344.674	-41.64
344.886	32.08
345.099	27.99
345.311	38.23
345.523	-47.79
345.735	-37.55
345.947	17.75
346.159	-27.31
346.371	7.51
346.583	50.52
346.795	175.44
347.007	42.32
347.219	11.61
347.431	30.04
347.643	71
347.855	-62.12
348.067	154.96
348.279	-47.79
348.491	42.32
348.703	34.13
348.915	1.37
349.127	-12.97
349.339	81.24
349.551	85.33
349.763	44.37
349.975	-15.02
350.187	89.43
350.399	56.66
350.61	73.04
350.822	-49.83
351.034	34.13
351.246	68.95
351.458	32.08
351.669	77.14
351.881	77.14
352.093	134.48
352.305	-10.92
352.517	56.66
352.728	109.91
352.94	-21.16
353.152	-31.4
353.363	-51.88
353.575	34.13
353.787	85.33
353.999	114
354.21	136.53
354.422	-12.97
354.633	-37.55
354.845	56.66
355.057	81.24
355.268	73.04
355.48	68.95
355.692	-78.51
355.903	-47.79
356.115	-47.79
356.326	-127.66
356.538	83.28
356.749	23.89
356.961	126.29
357.172	-29.35
357.384	-12.97
357.595	120.15
357.807	-8.87
358.018	25.94
358.23	50.52
358.441	93.52
358.653	85.33
358.864	11.61
359.075	5.46
359.287	95.57
359.498	66.9
359.709	58.71
359.921	36.18
360.132	23.89
360.344	44.37
360.555	-33.45
360.766	120.15
360.977	-23.21
361.189	-31.4
361.4	32.08
361.611	85.33
361.823	132.44
362.034	-6.83
362.245	-53.93
362.456	-0.68
362.667	62.8
362.879	9.56
363.09	81.24
363.301	42.32
363.512	3.41
363.723	-41.64
363.935	-49.83
364.146	85.33
364.357	-70.31
364.568	25.94
364.779	-80.55
364.99	111.96
365.201	-45.74
365.412	105.81
365.623	-96.94
365.834	56.66
366.045	-37.55
366.256	62.8
366.467	64.85
366.678	-21.16
366.889	11.61
367.1	-60.07
367.311	68.95
367.522	-4.78
367.733	75.09
367.944	146.77
368.155	-10.92
368.366	56.66
368.577	109.91
368.788	42.32
368.999	-55.98
369.209	66.9
369.42	189.78
369.631	77.14
369.842	101.72
370.053	-23.21
370.264	62.8
370.474	1.37
370.685	34.13
370.896	32.08
371.107	81.24
371.317	-41.64
371.528	-51.88
371.739	62.8
371.95	58.71
372.16	52.56
372.371	-12.97
372.582	-45.74
372.792	32.08
373.003	23.89
373.214	38.23
373.424	46.42
373.635	3.41
373.846	87.38
374.056	27.99
374.267	5.46
374.477	17.75
374.688	-72.36
374.898	-4.78
375.109	-47.79
375.319	62.8
375.53	60.76
375.74	77.14
375.951	-0.68
376.161	142.68
376.372	81.24
376.582	-15.02
376.793	11.61
377.003	27.99
377.214	1.37
377.424	1.37
377.635	66.9
377.845	-66.22
378.055	73.04
378.266	-94.89
378.476	17.75
378.686	66.9
378.897	85.33
379.107	107.86
379.317	93.52
379.528	5.46
379.738	132.44
379.948	-41.64
380.158	105.81
380.369	15.7
380.579	34.13
380.789	60.76
380.999	56.66
381.21	64.85
381.42	118.1
381.63	-27.31
381.84	9.56
382.05	40.28
382.261	54.61
382.471	42.32
382.681	-25.26
382.891	154.96
383.101	60.76
383.311	-43.69
383.521	30.04
383.731	118.1
383.941	48.47
384.151	32.08
384.361	-8.87
384.571	68.95
384.781	-4.78
384.991	75.09
385.201	138.58
385.411	71
385.621	25.94
385.831	85.33
386.041	-37.55
386.251	-4.78
386.461	60.76
386.671	-43.69
386.881	19.8
387.091	48.47
387.301	95.57
387.511	-12.97
387.72	93.52
387.93	85.33
388.14	-33.45
388.35	-12.97
388.56	126.29
388.769	71
388.979	5.46
389.189	-39.59
389.399	3.41
389.609	48.47
389.818	107.86
390.028	1.37
390.238	68.95
390.447	19.8
390.657	-0.68
390.867	-19.11
391.076	-66.22
391.286	50.52
391.496	44.37
391.705	15.7
391.915	23.89
392.125	5.46
392.334	-12.97
392.544	52.56
392.753	19.8
392.963	-62.12
393.172	42.32
393.382	3.41
393.591	71
393.801	15.7
394.01	116.05
394.22	40.28
394.429	15.7
394.639	-29.35
394.848	-6.83
395.058	60.76
395.267	34.13
395.477	66.9
395.686	44.37
395.895	150.87
396.105	191.83
396.314	114
396.524	-29.35
396.733	-29.35
396.942	79.19
397.152	77.14
397.361	54.61
397.57	15.7
397.78	71
397.989	40.28
398.198	95.57
398.407	-2.73
398.617	-15.02
398.826	-4.78
399.035	-15.02
399.244	42.32
399.453	-10.92
399.663	81.24
399.872	44.37
400.081	-51.88
400.29	68.95
400.499	-68.27
400.708	-6.83
400.917	36.18
401.127	34.13
401.336	-41.64
401.545	120.15
401.754	109.91
401.963	114
402.172	-17.07
402.381	-19.11
402.59	36.18
402.799	-6.83
403.008	-12.97
403.217	38.23
403.426	15.7
403.635	-58.03
403.844	3.41
404.053	-64.17
404.262	-17.07
404.471	56.66
404.68	56.66
404.888	52.56
405.097	32.08
405.306	58.71
405.515	36.18
405.724	52.56
405.933	134.48
406.142	66.9
406.35	81.24
406.559	7.51
406.768	44.37
406.977	77.14
407.185	9.56
407.394	32.08
407.603	-90.79
407.812	13.65
408.02	85.33
408.229	36.18
408.438	64.85
408.646	5.46
408.855	7.51
409.064	25.94
409.272	-12.97
409.481	68.95
409.69	-15.02
409.898	13.65
410.107	52.56
410.315	132.44
410.524	19.8
410.733	44.37
410.941	-2.73
411.15	93.52
411.358	75.09
411.567	48.47
411.775	15.7
411.984	56.66
412.192	73.04
412.401	-15.02
412.609	132.44
412.818	132.44
413.026	5.46
413.234	-78.51
413.443	15.7
413.651	-12.97
413.86	15.7
414.068	44.37
414.276	175.44
414.485	3.41
414.693	146.77
414.901	140.63
415.11	13.65
415.318	64.85
415.526	-37.55
415.734	27.99
415.943	42.32
416.151	116.05
416.359	25.94
416.567	60.76
416.776	68.95
416.984	54.61
417.192	130.39
417.4	56.66
417.608	66.9
417.817	-27.31
418.025	27.99
418.233	97.62
418.441	-80.55
418.649	-31.4
418.857	77.14
419.065	118.1
419.273	23.89
419.481	66.9
419.689	-53.93
419.897	23.89
420.105	-58.03
420.313	58.71
420.521	122.2
420.729	138.58
420.937	-15.02
421.145	11.61
421.353	124.24
421.561	142.68
421.769	11.61
421.977	-12.97
422.185	62.8
422.393	81.24
422.601	114
422.809	83.28
423.017	93.52
423.224	58.71
423.432	101.72
423.64	40.28
423.848	99.67
424.056	15.7
424.263	77.14
424.471	23.89
424.679	157.01
424.887	-58.03
425.094	163.15
425.302	64.85
425.51	-29.35
425.718	36.18
425.925	34.13
426.133	-33.45
426.341	204.11
426.548	17.75
426.756	85.33
426.964	40.28
427.171	-4.78
427.379	56.66
427.586	95.57
427.794	83.28
428.001	130.39
428.209	138.58
428.417	140.63
428.624	212.31
428.832	85.33
429.039	42.32
429.247	79.19
429.454	81.24
429.662	216.4
429.869	118.1
430.076	144.72
430.284	118.1
430.491	218.45
430.699	148.82
430.906	161.11
431.114	77.14
431.321	85.33
431.528	132.44
431.736	142.68
431.943	150.87
432.15	144.72
432.358	204.11
432.565	159.06
432.772	60.76
432.979	181.59
433.187	42.32
433.394	222.55
433.601	150.87
433.808	247.12
434.016	216.4
434.223	251.22
434.43	208.21
434.637	150.87
434.844	202.07
435.052	181.59
435.259	185.68
435.466	277.84
435.673	251.22
435.88	208.21
436.087	339.28
436.294	273.75
436.501	247.12
436.708	240.98
436.915	326.99
437.122	312.66
437.329	269.65
437.537	355.66
437.743	370
437.95	347.47
438.157	396.62
438.364	343.38
438.571	398.67
438.778	400.72
438.985	445.77
439.192	392.53
439.399	521.55
439.606	494.93
439.813	535.89
440.02	525.65
440.227	646.48
440.433	585.04
440.64	617.8
440.847	542.03
441.054	578.89
441.261	724.3
441.467	666.96
441.674	595.28
441.881	736.59
442.088	658.76
442.294	734.54
442.501	789.83
442.708	787.79
442.914	683.34
443.121	808.27
443.328	920.9
443.534	927.05
443.741	992.58
443.948	914.76
444.154	998.73
444.361	1181
444.568	1109.32
444.774	1158.47
444.981	1107.27
445.187	1226.05
445.394	1119.56
445.6	1156.42
445.807	1355.07
446.013	1363.26
446.22	1291.59
446.426	1492.29
446.633	1557.82
446.839	1674.56
447.046	1516.86
447.252	1801.53
447.459	1633.6
447.665	1766.71
447.871	1895.74
448.078	1926.46
448.284	2082.1
448.491	2045.24
448.697	2108.73
448.903	2321.71
449.11	2254.13
449.316	2295.09
449.522	2563.37
449.728	2637.1
449.935	2686.25
450.141	2712.88
450.347	2901.29
450.553	2794.79
450.76	2950.44
450.966	3124.52
451.172	3149.09
451.378	3310.88
451.584	3448.1
451.791	3624.22
451.997	3673.37
452.203	3833.11
452.409	4017.43
452.615	4119.83
452.821	4111.64
453.027	4185.37
453.233	4621.58
453.44	4556.05
453.646	4689.17
453.852	5047.56
454.058	5223.69
454.264	5385.48
454.47	5784.83
454.676	5754.11
454.882	6241.53
455.088	5805.31
455.294	6155.51
455.5	6706.41
455.705	6866.16
455.911	6794.48
456.117	7179.5
456.323	7449.83
456.529	7599.33
456.735	8199.38
456.941	8379.61
457.147	8756.43
457.352	8983.76
457.558	9069.77
457.764	9659.59
457.97	10091.71
458.176	10198.2
458.381	10939.57
458.587	11228.33
458.793	11812
458.999	11809.95
459.204	12969.1
459.41	13601.93
459.616	13292.68
459.821	14267.52
460.027	14572.66
460.233	15436.91
460.438	15539.3
460.644	16520.28
460.85	16553.05
461.055	17325.13
461.261	17947.72
461.466	17820.74
461.672	18209.86
461.878	20257.82
462.083	19901.48
462.289	20431.9
462.494	21232.66
462.7	21568.52
462.905	21672.97
463.111	23393.26
463.316	24505.31
463.522	25052.12
463.727	25875.4
463.932	26969.02
464.138	27710.38
464.343	28588.96
464.549	28818.33
464.754	30927.74
464.959	31525.75
465.165	32023.4
465.37	32308.07
465.575	31982.45
465.781	34050.89
465.986	35345.21
466.191	34499.4
466.397	35287.87
466.602	34335.56
466.807	36172.59
467.012	36778.79
467.218	37522.2
467.423	37491.48
467.628	38572.81
467.833	40307.44
468.038	39527.16
468.244	39039.75
468.449	41009.89
468.654	40170.22
468.859	40110.83
469.064	40231.66
469.269	38851.33
469.474	39353.08
