Data from USB4F104151__74__09-29-54-791.txt Node

Date: Wed Feb 26 09:29:54 EST 2025
User: louis
Spectrometer: USB4F10415
Trigger mode: 4
Integration Time (sec): 1.000000E-1
Scans to average: 1
Electric dark correction enabled: true
Nonlinearity correction enabled: false
Boxcar width: 0
XAxis mode: Wavelengths
Number of Pixels in Spectrum: 3648
>>>>>Begin Spectral Data<<<<<
178.204	-333.82
178.424	-333.82
178.644	-333.82
178.864	-407.55
179.084	-376.83
179.304	-2.05
179.524	-10.24
179.744	-49.15
179.964	129.02
180.184	8.19
180.404	59.39
180.624	-16.38
180.844	-14.34
181.064	14.34
181.283	-0
181.503	-79.87
181.723	-38.91
181.943	-163.84
182.163	124.93
182.383	18.43
182.602	36.86
182.822	126.97
183.042	73.73
183.262	-10.24
183.482	14.34
183.701	14.34
183.921	79.87
184.141	10.24
184.361	34.82
184.58	67.58
184.8	-30.72
185.02	-12.29
185.239	94.21
185.459	34.82
185.679	120.83
185.898	-88.06
186.118	83.97
186.338	100.35
186.557	172.03
186.777	-75.77
186.997	90.11
187.216	38.91
187.436	194.56
187.655	120.83
187.875	73.73
188.095	34.82
188.314	188.41
188.534	118.78
188.753	-47.1
188.973	59.39
189.192	112.64
189.412	47.1
189.631	47.1
189.851	20.48
190.07	83.97
190.29	-81.92
190.509	12.29
190.729	106.49
190.948	161.79
191.168	268.28
191.387	141.31
191.607	-12.29
191.826	88.06
192.045	79.87
192.265	106.49
192.484	139.26
192.704	12.29
192.923	-40.96
193.142	190.46
193.362	12.29
193.581	112.64
193.8	118.78
194.02	55.3
194.239	4.1
194.458	30.72
194.678	-14.34
194.897	-18.43
195.116	75.77
195.335	34.82
195.555	-18.43
195.774	38.91
195.993	12.29
196.212	55.3
196.432	-10.24
196.651	2.05
196.87	18.43
197.089	200.7
197.308	-6.14
197.528	-32.77
197.747	-63.49
197.966	59.39
198.185	75.77
198.404	-61.44
198.623	79.87
198.842	20.48
199.062	57.34
199.281	92.16
199.5	-10.24
199.719	55.3
199.938	10.24
200.157	57.34
200.376	71.68
200.595	118.78
200.814	100.35
201.033	18.43
201.252	133.12
201.471	30.72
201.69	96.25
201.909	63.49
202.128	65.53
202.347	96.25
202.566	63.49
202.785	-47.1
203.004	59.39
203.223	149.5
203.442	90.11
203.661	20.48
203.879	26.62
204.098	79.87
204.317	28.67
204.536	63.49
204.755	-18.43
204.974	120.83
205.193	18.43
205.411	186.37
205.63	83.97
205.849	51.2
206.068	-6.14
206.287	-10.24
206.505	198.65
206.724	-32.77
206.943	18.43
207.162	-32.77
207.381	43.01
207.599	16.38
207.818	2.05
208.037	18.43
208.255	22.53
208.474	-30.72
208.693	94.21
208.911	38.91
209.13	-2.05
209.349	-8.19
209.567	53.25
209.786	69.63
210.005	57.34
210.223	67.58
210.442	-61.44
210.661	65.53
210.879	59.39
211.098	38.91
211.316	24.58
211.535	122.88
211.753	-10.24
211.972	145.41
212.191	-0
212.409	61.44
212.628	102.4
212.846	118.78
213.065	-10.24
213.283	96.25
213.502	-4.1
213.72	22.53
213.938	20.48
214.157	22.53
214.375	186.37
214.594	24.58
214.812	40.96
215.031	63.49
215.249	38.91
215.467	114.69
215.686	92.16
215.904	92.16
216.122	32.77
216.341	157.69
216.559	2.05
216.778	145.41
216.996	118.78
217.214	71.68
217.432	6.14
217.651	-49.15
217.869	10.24
218.087	38.91
218.306	-34.82
218.524	43.01
218.742	18.43
218.96	98.3
219.179	-22.53
219.397	55.3
219.615	174.08
219.833	51.2
220.051	-43.01
220.27	47.1
220.488	124.93
220.706	32.77
220.924	-38.91
221.142	2.05
221.36	-47.1
221.578	51.2
221.796	26.62
222.015	40.96
222.233	40.96
222.451	231.42
222.669	30.72
222.887	61.44
223.105	-0
223.323	57.34
223.541	-28.67
223.759	49.15
223.977	-22.53
224.195	133.12
224.413	65.53
224.631	75.77
224.849	18.43
225.067	108.54
225.285	-34.82
225.503	-10.24
225.721	-55.3
225.939	30.72
226.157	67.58
226.375	124.93
226.592	-49.15
226.81	65.53
227.028	90.11
227.246	114.69
227.464	36.86
227.682	96.25
227.9	75.77
228.117	45.06
228.335	81.92
228.553	2.05
228.771	38.91
228.989	2.05
229.206	20.48
229.424	71.68
229.642	-4.1
229.86	-16.38
230.077	141.31
230.295	-38.91
230.513	110.59
230.731	61.44
230.948	178.17
231.166	120.83
231.384	-0
231.601	-14.34
231.819	198.65
232.037	-6.14
232.254	-43.01
232.472	-0
232.689	55.3
232.907	190.46
233.125	-36.86
233.342	-22.53
233.56	-47.1
233.777	2.05
233.995	26.62
234.213	59.39
234.43	-14.34
234.648	-2.05
234.865	55.3
235.083	75.77
235.3	30.72
235.518	61.44
235.735	155.65
235.953	131.07
236.17	124.93
236.388	-10.24
236.605	4.1
236.822	34.82
237.04	108.54
237.257	20.48
237.475	-63.49
237.692	34.82
237.909	24.58
238.127	16.38
238.344	40.96
238.562	106.49
238.779	-6.14
238.996	-10.24
239.214	-10.24
239.431	67.58
239.648	10.24
239.865	51.2
240.083	112.64
240.3	51.2
240.517	-0
240.735	88.06
240.952	49.15
241.169	26.62
241.386	-0
241.603	92.16
241.821	-2.05
242.038	100.35
242.255	122.88
242.472	-14.34
242.689	98.3
242.907	24.58
243.124	38.91
243.341	83.97
243.558	34.82
243.775	-32.77
243.992	43.01
244.209	61.44
244.426	186.37
244.643	30.72
244.86	14.34
245.078	36.86
245.295	-22.53
245.512	20.48
245.729	-36.86
245.946	36.86
246.163	-83.97
246.38	16.38
246.597	63.49
246.814	20.48
247.031	24.58
247.248	14.34
247.464	180.22
247.681	32.77
247.898	86.01
248.115	6.14
248.332	22.53
248.549	178.17
248.766	137.21
248.983	71.68
249.2	32.77
249.417	53.25
249.633	10.24
249.85	34.82
250.067	34.82
250.284	61.44
250.501	67.58
250.717	-30.72
250.934	-4.1
251.151	38.91
251.368	-38.91
251.585	59.39
251.801	51.2
252.018	-16.38
252.235	165.89
252.451	-32.77
252.668	79.87
252.885	88.06
253.102	88.06
253.318	4.1
253.535	51.2
253.752	38.91
253.968	-30.72
254.185	-55.3
254.401	34.82
254.618	100.35
254.835	4.1
255.051	116.73
255.268	81.92
255.484	79.87
255.701	59.39
255.917	63.49
256.134	26.62
256.351	6.14
256.567	-126.97
256.784	104.45
257	-59.39
257.217	45.06
257.433	47.1
257.65	30.72
257.866	120.83
258.082	-59.39
258.299	-73.73
258.515	-47.1
258.732	-92.16
258.948	-20.48
259.165	10.24
259.381	-22.53
259.597	65.53
259.814	-36.86
260.03	16.38
260.246	73.73
260.463	122.88
260.679	161.79
260.895	49.15
261.112	81.92
261.328	18.43
261.544	51.2
261.761	106.49
261.977	-57.34
262.193	-73.73
262.409	51.2
262.626	81.92
262.842	4.1
263.058	38.91
263.274	131.07
263.49	57.34
263.707	14.34
263.923	129.02
264.139	-79.87
264.355	59.39
264.571	75.77
264.787	47.1
265.004	90.11
265.22	8.19
265.436	-14.34
265.652	36.86
265.868	88.06
266.084	-75.77
266.3	-6.14
266.516	-45.06
266.732	108.54
266.948	14.34
267.164	-2.05
267.38	32.77
267.596	20.48
267.812	98.3
268.028	20.48
268.244	-14.34
268.46	38.91
268.676	28.67
268.892	57.34
269.108	-100.35
269.324	-26.62
269.54	-20.48
269.756	90.11
269.972	-28.67
270.188	18.43
270.403	-16.38
270.619	45.06
270.835	59.39
271.051	-14.34
271.267	-92.16
271.483	-12.29
271.698	63.49
271.914	34.82
272.13	34.82
272.346	98.3
272.562	81.92
272.777	106.49
272.993	-38.91
273.209	-16.38
273.425	71.68
273.64	-88.06
273.856	116.73
274.072	-26.62
274.287	10.24
274.503	51.2
274.719	96.25
274.934	-32.77
275.15	-59.39
275.366	16.38
275.581	-6.14
275.797	34.82
276.012	90.11
276.228	-8.19
276.444	16.38
276.659	63.49
276.875	-73.73
277.09	98.3
277.306	-18.43
277.521	137.21
277.737	75.77
277.952	120.83
278.168	38.91
278.383	51.2
278.599	-22.53
278.814	63.49
279.03	30.72
279.245	147.45
279.461	83.97
279.676	81.92
279.892	4.1
280.107	-51.2
280.322	-63.49
280.538	43.01
280.753	36.86
280.969	16.38
281.184	100.35
281.399	167.93
281.615	14.34
281.83	51.2
282.045	6.14
282.26	-22.53
282.476	98.3
282.691	71.68
282.906	-4.1
283.122	4.1
283.337	16.38
283.552	65.53
283.767	-26.62
283.983	116.73
284.198	-22.53
284.413	40.96
284.628	-8.19
284.843	10.24
285.058	30.72
285.274	-24.58
285.489	-30.72
285.704	75.77
285.919	-67.58
286.134	14.34
286.349	36.86
286.564	-18.43
286.779	32.77
286.995	16.38
287.21	-71.68
287.425	34.82
287.64	63.49
287.855	67.58
288.07	14.34
288.285	102.4
288.5	112.64
288.715	81.92
288.93	40.96
289.145	-10.24
289.36	71.68
289.575	-26.62
289.79	163.84
290.004	51.2
290.219	90.11
290.434	-36.86
290.649	55.3
290.864	-6.14
291.079	-14.34
291.294	77.82
291.509	-0
291.724	-49.15
291.938	30.72
292.153	-30.72
292.368	2.05
292.583	26.62
292.798	59.39
293.012	32.77
293.227	36.86
293.442	-20.48
293.657	112.64
293.871	30.72
294.086	2.05
294.301	186.37
294.516	172.03
294.73	90.11
294.945	-24.58
295.16	124.93
295.374	116.73
295.589	63.49
295.804	10.24
296.018	73.73
296.233	94.21
296.447	55.3
296.662	-16.38
296.877	79.87
297.091	83.97
297.306	47.1
297.52	36.86
297.735	88.06
297.949	8.19
298.164	43.01
298.378	22.53
298.593	-18.43
298.807	-71.68
299.022	-4.1
299.236	143.36
299.451	30.72
299.665	83.97
299.88	34.82
300.094	22.53
300.309	49.15
300.523	14.34
300.737	-24.58
300.952	38.91
301.166	-2.05
301.381	-4.1
301.595	38.91
301.809	-6.14
302.024	-22.53
302.238	43.01
302.452	106.49
302.667	-14.34
302.881	83.97
303.095	86.01
303.309	-6.14
303.524	32.77
303.738	49.15
303.952	-38.91
304.166	51.2
304.381	-73.73
304.595	92.16
304.809	-26.62
305.023	-6.14
305.237	59.39
305.452	8.19
305.666	88.06
305.88	71.68
306.094	10.24
306.308	43.01
306.522	30.72
306.736	71.68
306.95	110.59
307.164	53.25
307.379	67.58
307.593	120.83
307.807	169.98
308.021	51.2
308.235	67.58
308.449	-59.39
308.663	-65.54
308.877	172.03
309.091	100.35
309.305	51.2
309.519	-88.06
309.733	83.97
309.947	-55.3
310.161	71.68
310.374	163.84
310.588	49.15
310.802	-30.72
311.016	-79.87
311.23	55.3
311.444	-40.96
311.658	53.25
311.872	65.53
312.085	100.35
312.299	45.06
312.513	149.5
312.727	22.53
312.941	24.58
313.154	61.44
313.368	34.82
313.582	73.73
313.796	77.82
314.009	92.16
314.223	124.93
314.437	24.58
314.651	71.68
314.864	2.05
315.078	-22.53
315.292	-51.2
315.505	55.3
315.719	53.25
315.933	63.49
316.146	-65.54
316.36	-22.53
316.573	98.3
316.787	45.06
317.001	116.73
317.214	-51.2
317.428	2.05
317.641	-65.54
317.855	10.24
318.068	63.49
318.282	55.3
318.495	182.27
318.709	36.86
318.922	-73.73
319.136	92.16
319.349	90.11
319.563	-12.29
319.776	28.67
319.99	-10.24
320.203	71.68
320.417	43.01
320.63	108.54
320.843	126.97
321.057	71.68
321.27	-40.96
321.483	-10.24
321.697	116.73
321.91	83.97
322.124	110.59
322.337	63.49
322.55	10.24
322.763	69.63
322.977	18.43
323.19	18.43
323.403	51.2
323.617	43.01
323.83	57.34
324.043	71.68
324.256	67.58
324.469	-30.72
324.683	71.68
324.896	135.17
325.109	26.62
325.322	-53.25
325.535	190.46
325.748	133.12
325.962	75.77
326.175	83.97
326.388	49.15
326.601	120.83
326.814	-2.05
327.027	61.44
327.24	180.22
327.453	-16.38
327.666	88.06
327.879	71.68
328.092	55.3
328.305	73.73
328.518	-38.91
328.731	36.86
328.944	81.92
329.157	36.86
329.37	-43.01
329.583	165.89
329.796	163.84
330.009	-34.82
330.222	210.94
330.435	2.05
330.648	18.43
330.861	40.96
331.073	69.63
331.286	122.88
331.499	135.17
331.712	-71.68
331.925	88.06
332.138	-8.19
332.35	63.49
332.563	32.77
332.776	102.4
332.989	24.58
333.202	-26.62
333.414	-0
333.627	-26.62
333.84	-30.72
334.053	65.53
334.265	-30.72
334.478	49.15
334.691	18.43
334.903	40.96
335.116	-14.34
335.329	45.06
335.541	116.73
335.754	208.89
335.966	12.29
336.179	-45.06
336.392	24.58
336.604	-57.34
336.817	30.72
337.029	129.02
337.242	-10.24
337.454	79.87
337.667	10.24
337.88	133.12
338.092	157.69
338.305	43.01
338.517	53.25
338.729	55.3
338.942	122.88
339.154	45.06
339.367	-65.54
339.579	57.34
339.792	53.25
340.004	63.49
340.217	47.1
340.429	16.38
340.641	6.14
340.854	51.2
341.066	51.2
341.278	83.97
341.491	202.75
341.703	49.15
341.915	-34.82
342.128	61.44
342.34	51.2
342.552	-53.25
342.764	-65.54
342.977	43.01
343.189	100.35
343.401	47.1
343.613	-104.45
343.826	131.07
344.038	-16.38
344.25	38.91
344.462	6.14
344.674	26.62
344.886	51.2
345.099	53.25
345.311	12.29
345.523	8.19
345.735	-96.25
345.947	38.91
346.159	98.3
346.371	-32.77
346.583	22.53
346.795	153.6
347.007	-32.77
347.219	75.77
347.431	-16.38
347.643	120.83
347.855	-57.34
348.067	120.83
348.279	71.68
348.491	40.96
348.703	71.68
348.915	83.97
349.127	-49.15
349.339	81.92
349.551	2.05
349.763	63.49
349.975	28.67
350.187	34.82
350.399	184.32
350.61	65.53
350.822	-10.24
351.034	18.43
351.246	100.35
351.458	100.35
351.669	28.67
351.881	90.11
352.093	108.54
352.305	116.73
352.517	129.02
352.728	210.94
352.94	67.58
353.152	40.96
353.363	-104.45
353.575	81.92
353.787	122.88
353.999	77.82
354.21	215.04
354.422	51.2
354.633	-26.62
354.845	30.72
355.057	34.82
355.268	28.67
355.48	92.16
355.692	-20.48
355.903	45.06
356.115	47.1
356.326	-61.44
356.538	145.41
356.749	83.97
356.961	157.69
357.172	67.58
357.384	-63.49
357.595	223.23
357.807	22.53
358.018	-22.53
358.23	2.05
358.441	159.74
358.653	-16.38
358.864	65.53
359.075	-55.3
359.287	59.39
359.498	28.67
359.709	83.97
359.921	88.06
360.132	69.63
360.344	-0
360.555	10.24
360.766	51.2
360.977	34.82
361.189	90.11
361.4	-16.38
361.611	77.82
361.823	147.45
362.034	100.35
362.245	-141.31
362.456	55.3
362.667	34.82
362.879	71.68
363.09	49.15
363.301	86.01
363.512	-14.34
363.723	83.97
363.935	2.05
364.146	30.72
364.357	26.62
364.568	71.68
364.779	-98.3
364.99	51.2
365.201	63.49
365.412	108.54
365.623	-55.3
365.834	69.63
366.045	-22.53
366.256	-0
366.467	61.44
366.678	20.48
366.889	30.72
367.1	16.38
367.311	75.77
367.522	-30.72
367.733	47.1
367.944	43.01
368.155	45.06
368.366	67.58
368.577	75.77
368.788	24.58
368.999	2.05
369.209	63.49
369.42	129.02
369.631	182.27
369.842	106.49
370.053	2.05
370.264	163.84
370.474	-32.77
370.685	90.11
370.896	106.49
371.107	90.11
371.317	83.97
371.528	34.82
371.739	51.2
371.95	116.73
372.16	28.67
372.371	-47.1
372.582	-75.77
372.792	86.01
373.003	57.34
373.214	98.3
373.424	59.39
373.635	-65.54
373.846	92.16
374.056	6.14
374.267	57.34
374.477	26.62
374.688	-38.91
374.898	12.29
375.109	63.49
375.319	-18.43
375.53	190.46
375.74	75.77
375.951	83.97
376.161	81.92
376.372	43.01
376.582	-20.48
376.793	92.16
377.003	-22.53
377.214	-24.58
377.424	71.68
377.635	75.77
377.845	-32.77
378.055	131.07
378.266	-24.58
378.476	79.87
378.686	38.91
378.897	43.01
379.107	108.54
379.317	100.35
379.528	30.72
379.738	100.35
379.948	-30.72
380.158	12.29
380.369	22.53
380.579	30.72
380.789	63.49
380.999	92.16
381.21	98.3
381.42	120.83
381.63	77.82
381.84	61.44
382.05	63.49
382.261	114.69
382.471	139.26
382.681	-0
382.891	90.11
383.101	67.58
383.311	-22.53
383.521	16.38
383.731	-8.19
383.941	126.97
384.151	122.88
384.361	-16.38
384.571	47.1
384.781	6.14
384.991	215.04
385.201	106.49
385.411	147.45
385.621	73.73
385.831	81.92
386.041	-24.58
386.251	63.49
386.461	100.35
386.671	59.39
386.881	86.01
387.091	47.1
387.301	79.87
387.511	92.16
387.72	81.92
387.93	65.53
388.14	-122.88
388.35	32.77
388.56	81.92
388.769	143.36
388.979	114.69
389.189	-43.01
389.399	96.25
389.609	26.62
389.818	159.74
390.028	38.91
390.238	-10.24
390.447	24.58
390.657	12.29
390.867	88.06
391.076	-2.05
391.286	26.62
391.496	110.59
391.705	4.1
391.915	165.89
392.125	112.64
392.334	61.44
392.544	83.97
392.753	79.87
392.963	-36.86
393.172	2.05
393.382	-38.91
393.591	126.97
393.801	8.19
394.01	112.64
394.22	90.11
394.429	2.05
394.639	18.43
394.848	79.87
395.058	104.45
395.267	71.68
395.477	110.59
395.686	26.62
395.895	141.31
396.105	157.69
396.314	14.34
396.524	2.05
396.733	-26.62
396.942	100.35
397.152	98.3
397.361	110.59
397.57	100.35
397.78	12.29
397.989	124.93
398.198	202.75
398.407	112.64
398.617	43.01
398.826	36.86
399.035	-8.19
399.244	10.24
399.453	24.58
399.663	24.58
399.872	36.86
400.081	-20.48
400.29	178.17
400.499	-22.53
400.708	73.73
400.917	-47.1
401.127	67.58
401.336	63.49
401.545	223.23
401.754	98.3
401.963	81.92
402.172	30.72
402.381	-32.77
402.59	22.53
402.799	63.49
403.008	124.93
403.217	100.35
403.426	24.58
403.635	-8.19
403.844	59.39
404.053	30.72
404.262	26.62
404.471	129.02
404.68	34.82
404.888	90.11
405.097	36.86
405.306	114.69
405.515	92.16
405.724	43.01
405.933	129.02
406.142	149.5
406.35	157.69
406.559	-10.24
406.768	20.48
406.977	61.44
407.185	22.53
407.394	172.03
407.603	-51.2
407.812	45.06
408.02	83.97
408.229	18.43
408.438	77.82
408.646	-47.1
408.855	16.38
409.064	92.16
409.272	79.87
409.481	88.06
409.69	30.72
409.898	-49.15
410.107	153.6
410.315	165.89
410.524	18.43
410.733	116.73
410.941	157.69
411.15	102.4
411.358	22.53
411.567	145.41
411.775	88.06
411.984	24.58
412.192	69.63
412.401	34.82
412.609	149.5
412.818	145.41
413.026	10.24
413.234	75.77
413.443	-26.62
413.651	34.82
413.86	102.4
414.068	147.45
414.276	192.51
414.485	30.72
414.693	135.17
414.901	186.37
415.11	18.43
415.318	51.2
415.526	-18.43
415.734	180.22
415.943	104.45
416.151	114.69
416.359	81.92
416.567	73.73
416.776	86.01
416.984	98.3
417.192	137.21
417.4	-4.1
417.608	57.34
417.817	26.62
418.025	133.12
418.233	139.26
418.441	26.62
418.649	-4.1
418.857	98.3
419.065	215.04
419.273	-16.38
419.481	49.15
419.689	75.77
419.897	59.39
420.105	-4.1
420.313	151.55
420.521	147.45
420.729	180.22
420.937	90.11
421.145	24.58
421.353	135.17
421.561	143.36
421.769	65.53
421.977	55.3
422.185	106.49
422.393	96.25
422.601	71.68
422.809	163.84
423.017	100.35
423.224	92.16
423.432	71.68
423.64	-4.1
423.848	165.89
424.056	90.11
424.263	106.49
424.471	24.58
424.679	178.17
424.887	38.91
425.094	157.69
425.302	67.58
425.51	36.86
425.718	190.46
425.925	90.11
426.133	43.01
426.341	206.84
426.548	77.82
426.756	34.82
426.964	192.51
427.171	14.34
427.379	137.21
427.586	51.2
427.794	92.16
428.001	190.46
428.209	92.16
428.417	194.56
428.624	145.41
428.832	229.37
429.039	159.74
429.247	106.49
429.454	153.6
429.662	256
429.869	149.5
430.076	98.3
430.284	180.22
430.491	245.76
430.699	163.84
430.906	231.42
431.114	124.93
431.321	206.84
431.528	116.73
431.736	194.56
431.943	266.24
432.15	227.32
432.358	163.84
432.565	313.34
432.772	20.48
432.979	299
433.187	227.32
433.394	325.63
433.601	192.51
433.808	370.68
434.016	260.09
434.223	268.28
434.43	247.8
434.637	350.2
434.844	352.25
435.052	284.67
435.259	346.11
435.466	395.26
435.673	346.11
435.88	485.37
436.087	376.83
436.294	397.31
436.501	481.27
436.708	364.54
436.915	350.2
437.122	477.18
437.329	325.63
437.537	497.66
437.743	413.69
437.95	622.58
438.157	530.42
438.364	583.67
438.571	495.61
438.778	559.1
438.985	624.63
439.192	649.21
439.399	606.2
439.606	681.97
439.813	641.01
440.02	704.5
440.227	860.15
440.433	641.01
440.64	661.49
440.847	827.38
441.054	911.35
441.261	915.44
441.467	880.63
441.674	819.19
441.881	964.59
442.088	968.69
442.294	999.41
442.501	1087.47
442.708	1165.29
442.914	1064.94
443.121	1222.64
443.328	1140.72
443.534	1320.94
443.741	1322.99
443.948	1308.65
444.154	1398.76
444.361	1513.45
444.568	1525.74
444.774	1460.2
444.981	1501.16
445.187	1617.9
445.394	1687.53
445.6	1613.8
445.807	1859.56
446.013	1869.8
446.22	1869.8
446.426	2039.78
446.633	2060.26
446.839	2351.07
447.046	2045.92
447.252	2473.95
447.459	2439.13
447.665	2357.21
447.871	2615.26
448.078	2758.61
448.284	2729.94
448.491	2887.64
448.697	2983.89
448.903	3129.3
449.11	3016.66
449.316	3157.97
449.522	3432.4
449.728	3553.23
449.935	3663.82
450.141	3665.86
450.347	3995.59
450.553	3672.01
450.76	4032.45
450.966	4229.06
451.172	4249.54
451.378	4540.35
451.584	4583.35
451.791	4761.53
451.997	5070.77
452.203	5117.87
452.409	5228.46
452.615	5617.58
452.821	5609.39
453.027	5607.34
453.233	6258.59
453.44	6121.38
453.646	6371.23
453.852	6475.68
454.058	6940.57
454.264	7167.89
454.47	7718.79
454.676	7595.92
454.882	8169.35
455.088	8028.04
455.294	8376.19
455.5	8836.99
455.705	9453.42
455.911	9488.24
456.117	9586.54
456.323	9914.22
456.529	10008.42
456.735	10958.68
456.941	11267.92
457.147	11513.68
457.352	11953.99
457.558	12412.74
457.764	12939.07
457.97	13518.64
458.176	14028.59
458.381	14802.72
458.587	14843.68
458.793	15337.24
458.999	15539.99
459.204	17635.06
459.41	18224.87
459.616	17979.12
459.821	18753.25
460.027	19816.15
460.233	20580.04
460.438	20760.26
460.644	21626.55
460.85	22220.46
461.055	22615.72
461.261	24094.35
461.466	23563.93
461.672	23883.41
461.878	26893.93
462.083	26496.62
462.289	27389.53
462.494	27997.78
462.7	28429.9
462.905	29204.03
463.111	31010.34
463.316	32501.26
463.522	32830.99
463.727	34252.28
463.932	35628.51
464.138	36556.24
464.343	38051.26
464.549	38303.16
464.754	40574.36
464.959	42036.61
465.165	42442.1
465.37	42218.88
465.575	42016.13
465.781	44637.53
465.986	46083.39
466.191	45634.89
466.397	45833.54
466.602	44854.61
466.807	47312.17
467.012	47934.76
467.218	48903.45
467.423	49212.69
467.628	50257.15
467.833	52653.28
468.038	51985.64
468.244	51051.76
468.449	53282
468.654	52675.8
468.859	52632.8
469.064	52460.77
