Data from USB4F104151__34__10-24-34-639.txt Node

Date: Wed Feb 26 10:24:34 EST 2025
User: louis
Spectrometer: USB4F10415
Trigger mode: 4
Integration Time (sec): 1.000000E-1
Scans to average: 1
Electric dark correction enabled: true
Nonlinearity correction enabled: false
Boxcar width: 0
XAxis mode: Wavelengths
Number of Pixels in Spectrum: 3648
>>>>>Begin Spectral Data<<<<<
178.204	-391.5
178.424	-391.5
178.644	-391.5
178.864	-475.47
179.084	-383.31
179.304	-14.68
179.524	-29.01
179.744	26.28
179.964	145.06
180.184	-49.49
180.404	77.48
180.624	-53.59
180.844	48.81
181.064	-47.44
181.283	-18.77
181.503	-82.26
181.723	-2.39
181.943	-88.4
182.163	229.03
182.383	-0.34
182.602	-57.68
182.822	122.54
183.042	40.62
183.262	-12.63
183.482	20.14
183.701	20.14
183.921	18.09
184.141	-84.31
184.361	120.49
184.58	-14.68
184.8	-16.73
185.02	-57.68
185.239	36.52
185.459	44.71
185.679	114.34
185.898	-55.64
186.118	54.95
186.338	40.62
186.557	106.15
186.777	-43.35
186.997	-6.49
187.216	-55.64
187.436	143.02
187.655	57
187.875	108.2
188.095	-39.25
188.314	122.54
188.534	108.2
188.753	-14.68
188.973	122.54
189.192	114.34
189.412	36.52
189.631	32.43
189.851	20.14
190.07	161.45
190.29	-106.84
190.509	-33.11
190.729	7.85
190.948	138.92
191.168	173.74
191.387	73.39
191.607	-4.44
191.826	-74.07
192.045	-12.63
192.265	-0.34
192.484	18.09
192.704	16.04
192.923	-174.42
193.142	138.92
193.362	163.5
193.581	104.11
193.8	81.58
194.02	77.48
194.239	-35.16
194.458	63.15
194.678	-8.53
194.897	-47.44
195.116	20.14
195.335	44.71
195.555	75.43
195.774	-57.68
195.993	52.91
196.212	81.58
196.432	-51.54
196.651	7.85
196.87	-43.35
197.089	179.88
197.308	3.75
197.528	-2.39
197.747	-16.73
197.966	3.75
198.185	26.28
198.404	-47.44
198.623	-39.25
198.842	71.34
199.062	48.81
199.281	104.11
199.5	79.53
199.719	57
199.938	32.43
200.157	79.53
200.376	79.53
200.595	59.05
200.814	36.52
201.033	-76.12
201.252	57
201.471	36.52
201.69	95.91
201.909	-33.11
202.128	95.91
202.347	57
202.566	-47.44
202.785	-110.93
203.004	-61.78
203.223	206.5
203.442	-47.44
203.661	-43.35
203.879	42.67
204.098	95.91
204.317	-69.97
204.536	114.34
204.755	5.8
204.974	34.47
205.193	22.19
205.411	140.97
205.63	48.81
205.849	79.53
206.068	-16.73
206.287	-49.49
206.505	77.48
206.724	-4.44
206.943	-47.44
207.162	-12.63
207.381	63.15
207.599	-24.92
207.818	5.8
208.037	-31.06
208.255	-26.96
208.474	50.86
208.693	9.9
208.911	-22.87
209.13	65.19
209.349	67.24
209.567	24.23
209.786	102.06
210.005	54.95
210.223	46.76
210.442	-94.55
210.661	48.81
210.879	-35.16
211.098	-47.44
211.316	52.91
211.535	71.34
211.753	40.62
211.972	44.71
212.191	20.14
212.409	106.15
212.628	147.11
212.846	-22.87
213.065	1.71
213.283	122.54
213.502	-8.53
213.72	-10.58
213.938	9.9
214.157	-31.06
214.375	126.63
214.594	11.95
214.812	63.15
215.031	13.99
215.249	-78.16
215.467	50.86
215.686	9.9
215.904	77.48
216.122	-65.88
216.341	85.67
216.559	-4.44
216.778	118.44
216.996	122.54
217.214	-49.49
217.432	54.95
217.651	-88.4
217.869	28.33
218.087	3.75
218.306	-2.39
218.524	71.34
218.742	7.85
218.96	57
219.179	26.28
219.397	-0.34
219.615	155.3
219.833	114.34
220.051	-2.39
220.27	26.28
220.488	71.34
220.706	85.67
220.924	-14.68
221.142	-31.06
221.36	75.43
221.578	9.9
221.796	-29.01
222.015	-16.73
222.233	20.14
222.451	73.39
222.669	-59.73
222.887	95.91
223.105	-22.87
223.323	-18.77
223.541	-151.89
223.759	11.95
223.977	-41.3
224.195	157.35
224.413	155.3
224.631	38.57
224.849	73.39
225.067	132.78
225.285	-88.4
225.503	-16.73
225.721	-74.07
225.939	-2.39
226.157	-39.25
226.375	298.66
226.592	-49.49
226.81	13.99
227.028	124.58
227.246	81.58
227.464	13.99
227.682	97.96
227.9	40.62
228.117	48.81
228.335	46.76
228.553	57
228.771	54.95
228.989	48.81
229.206	-8.53
229.424	18.09
229.642	20.14
229.86	-74.07
230.077	134.82
230.295	-59.73
230.513	104.11
230.731	-0.34
230.948	132.78
231.166	128.68
231.384	16.04
231.601	-53.59
231.819	155.3
232.037	-29.01
232.254	-74.07
232.472	40.62
232.689	-29.01
232.907	83.63
233.125	-61.78
233.342	-29.01
233.56	-12.63
233.777	7.85
233.995	1.71
234.213	91.82
234.43	-4.44
234.648	11.95
234.865	-55.64
235.083	79.53
235.3	124.58
235.518	44.71
235.735	79.53
235.953	24.23
236.17	22.19
236.388	-41.3
236.605	61.1
236.822	65.19
237.04	122.54
237.257	95.91
237.475	-59.73
237.692	-4.44
237.909	36.52
238.127	5.8
238.344	-0.34
238.562	13.99
238.779	5.8
238.996	-65.88
239.214	44.71
239.431	20.14
239.648	9.9
239.865	28.33
240.083	9.9
240.3	-57.68
240.517	-16.73
240.735	-24.92
240.952	134.82
241.169	38.57
241.386	13.99
241.603	-63.83
241.821	-55.64
242.038	104.11
242.255	126.63
242.472	-24.92
242.689	38.57
242.907	73.39
243.124	67.24
243.341	42.67
243.558	-14.68
243.775	-129.36
243.992	-74.07
244.209	42.67
244.426	151.21
244.643	97.96
244.86	63.15
245.078	159.4
245.295	18.09
245.512	11.95
245.729	-90.45
245.946	42.67
246.163	-18.77
246.38	-57.68
246.597	36.52
246.814	13.99
247.031	34.47
247.248	46.76
247.464	93.87
247.681	-2.39
247.898	52.91
248.115	50.86
248.332	-20.82
248.549	177.83
248.766	87.72
248.983	9.9
249.2	69.29
249.417	151.21
249.633	-37.2
249.85	159.4
250.067	-16.73
250.284	7.85
250.501	46.76
250.717	44.71
250.934	-67.92
251.151	-33.11
251.368	9.9
251.585	26.28
251.801	18.09
252.018	-45.4
252.235	97.96
252.451	-96.6
252.668	20.14
252.885	30.38
253.102	11.95
253.318	1.71
253.535	3.75
253.752	-74.07
253.968	-53.59
254.185	-127.32
254.401	97.96
254.618	91.82
254.835	-14.68
255.051	95.91
255.268	-6.49
255.484	102.06
255.701	13.99
255.917	30.38
256.134	26.28
256.351	-6.49
256.567	-137.56
256.784	24.23
257	-112.98
257.217	11.95
257.433	-20.82
257.65	91.82
257.866	100.01
258.082	-82.26
258.299	-33.11
258.515	36.52
258.732	-35.16
258.948	5.8
259.165	32.43
259.381	-20.82
259.597	46.76
259.814	46.76
260.03	-4.44
260.246	-57.68
260.463	38.57
260.679	97.96
260.895	69.29
261.112	93.87
261.328	48.81
261.544	61.1
261.761	145.06
261.977	-121.17
262.193	-53.59
262.409	-6.49
262.626	-43.35
262.842	46.76
263.058	-16.73
263.274	106.15
263.49	32.43
263.707	13.99
263.923	57
264.139	-43.35
264.355	65.19
264.571	77.48
264.787	26.28
265.004	128.68
265.22	40.62
265.436	-82.26
265.652	16.04
265.868	87.72
266.084	-57.68
266.3	5.8
266.516	-2.39
266.732	50.86
266.948	65.19
267.164	-37.2
267.38	110.25
267.596	26.28
267.812	208.55
268.028	-59.73
268.244	-20.82
268.46	13.99
268.676	18.09
268.892	-20.82
269.108	-10.58
269.324	-86.36
269.54	-98.64
269.756	108.2
269.972	-82.26
270.188	46.76
270.403	-37.2
270.619	-47.44
270.835	112.3
271.051	-20.82
271.267	18.09
271.483	-41.3
271.698	59.05
271.914	32.43
272.13	11.95
272.346	-18.77
272.562	-12.63
272.777	57
272.993	50.86
273.209	-41.3
273.425	52.91
273.64	-141.65
273.856	87.72
274.072	-14.68
274.287	-92.5
274.503	104.11
274.719	118.44
274.934	-6.49
275.15	-86.36
275.366	40.62
275.581	-24.92
275.797	26.28
276.012	-16.73
276.228	-22.87
276.444	36.52
276.659	91.82
276.875	-65.88
277.09	-16.73
277.306	20.14
277.521	44.71
277.737	13.99
277.952	85.67
278.168	40.62
278.383	34.47
278.599	-43.35
278.814	77.48
279.03	44.71
279.245	128.68
279.461	9.9
279.676	81.58
279.892	-55.64
280.107	-78.16
280.322	-4.44
280.538	-10.58
280.753	-8.53
280.969	63.15
281.184	22.19
281.399	198.31
281.615	75.43
281.83	69.29
282.045	-63.83
282.26	3.75
282.476	57
282.691	104.11
282.906	54.95
283.122	85.67
283.337	-47.44
283.552	30.38
283.767	-8.53
283.983	149.16
284.198	26.28
284.413	9.9
284.628	-45.4
284.843	44.71
285.058	65.19
285.274	-8.53
285.489	5.8
285.704	61.1
285.919	-55.64
286.134	-10.58
286.349	24.23
286.564	54.95
286.779	69.29
286.995	-35.16
287.21	-35.16
287.425	100.01
287.64	-72.02
287.855	-26.96
288.07	-84.31
288.285	130.73
288.5	93.87
288.715	32.43
288.93	-8.53
289.145	-10.58
289.36	24.23
289.575	-20.82
289.79	-37.2
290.004	-35.16
290.219	95.91
290.434	-10.58
290.649	7.85
290.864	-57.68
291.079	75.43
291.294	18.09
291.509	38.57
291.724	5.8
291.938	16.04
292.153	71.34
292.368	36.52
292.583	24.23
292.798	-0.34
293.012	54.95
293.227	20.14
293.442	-61.78
293.657	18.09
293.871	85.67
294.086	-37.2
294.301	108.2
294.516	132.78
294.73	16.04
294.945	-20.82
295.16	28.33
295.374	91.82
295.589	95.91
295.804	20.14
296.018	-16.73
296.233	114.34
296.447	59.05
296.662	5.8
296.877	50.86
297.091	11.95
297.306	-24.92
297.52	-16.73
297.735	69.29
297.949	38.57
298.164	1.71
298.378	81.58
298.593	-33.11
298.807	1.71
299.022	24.23
299.236	128.68
299.451	-24.92
299.665	-22.87
299.88	-8.53
300.094	-10.58
300.309	75.43
300.523	28.33
300.737	-53.59
300.952	-22.87
301.166	73.39
301.381	-45.4
301.595	11.95
301.809	54.95
302.024	-8.53
302.238	-92.5
302.452	50.86
302.667	54.95
302.881	69.29
303.095	147.11
303.309	7.85
303.524	54.95
303.738	-6.49
303.952	-74.07
304.166	81.58
304.381	-125.27
304.595	153.26
304.809	-35.16
305.023	32.43
305.237	-10.58
305.452	38.57
305.666	102.06
305.88	79.53
306.094	85.67
306.308	40.62
306.522	83.63
306.736	83.63
306.95	-2.39
307.164	1.71
307.379	-2.39
307.593	155.3
307.807	134.82
308.021	5.8
308.235	61.1
308.449	-41.3
308.663	-76.12
308.877	183.98
309.091	73.39
309.305	52.91
309.519	-110.93
309.733	69.29
309.947	-39.25
310.161	22.19
310.374	57
310.588	44.71
310.802	-61.78
311.016	5.8
311.23	34.47
311.444	46.76
311.658	-0.34
311.872	32.43
312.085	87.72
312.299	54.95
312.513	89.77
312.727	20.14
312.941	-43.35
313.154	28.33
313.368	81.58
313.582	-55.64
313.796	-2.39
314.009	16.04
314.223	54.95
314.437	71.34
314.651	75.43
314.864	22.19
315.078	-45.4
315.292	79.53
315.505	-45.4
315.719	65.19
315.933	95.91
316.146	-86.36
316.36	-78.16
316.573	54.95
316.787	-35.16
317.001	89.77
317.214	-112.98
317.428	13.99
317.641	-37.2
317.855	26.28
318.068	-18.77
318.282	7.85
318.495	233.13
318.709	89.77
318.922	42.67
319.136	79.53
319.349	34.47
319.563	-22.87
319.776	48.81
319.99	-20.82
320.203	38.57
320.417	5.8
320.63	81.58
320.843	175.78
321.057	81.58
321.27	26.28
321.483	79.53
321.697	163.5
321.91	20.14
322.124	-45.4
322.337	18.09
322.55	-18.77
322.763	7.85
322.977	-20.82
323.19	-82.26
323.403	32.43
323.617	28.33
323.83	42.67
324.043	-69.97
324.256	20.14
324.469	-43.35
324.683	57
324.896	-4.44
325.109	7.85
325.322	-106.84
325.535	13.99
325.748	28.33
325.962	-51.54
326.175	5.8
326.388	26.28
326.601	5.8
326.814	-26.96
327.027	42.67
327.24	130.73
327.453	-86.36
327.666	75.43
327.879	65.19
328.092	73.39
328.305	97.96
328.518	-26.96
328.731	-2.39
328.944	3.75
329.157	77.48
329.37	13.99
329.583	120.49
329.796	163.5
330.009	-43.35
330.222	50.86
330.435	114.34
330.648	18.09
330.861	28.33
331.073	-65.88
331.286	149.16
331.499	-55.64
331.712	-29.01
331.925	20.14
332.138	-39.25
332.35	65.19
332.563	-20.82
332.776	128.68
332.989	-20.82
333.202	32.43
333.414	18.09
333.627	1.71
333.84	-43.35
334.053	34.47
334.265	-4.44
334.478	7.85
334.691	-18.77
334.903	-41.3
335.116	-39.25
335.329	-20.82
335.541	85.67
335.754	120.49
335.966	-53.59
336.179	5.8
336.392	-10.58
336.604	5.8
336.817	171.69
337.029	7.85
337.242	7.85
337.454	106.15
337.667	-29.01
337.88	81.58
338.092	120.49
338.305	40.62
338.517	-33.11
338.729	50.86
338.942	104.11
339.154	-86.36
339.367	-53.59
339.579	-18.77
339.792	-86.36
340.004	87.72
340.217	-67.92
340.429	11.95
340.641	-29.01
340.854	-37.2
341.066	63.15
341.278	120.49
341.491	155.3
341.703	32.43
341.915	-49.49
342.128	73.39
342.34	-43.35
342.552	-33.11
342.764	22.19
342.977	44.71
343.189	73.39
343.401	75.43
343.613	-98.64
343.826	-98.64
344.038	-67.92
344.25	69.29
344.462	-37.2
344.674	52.91
344.886	-6.49
345.099	81.58
345.311	-24.92
345.523	-92.5
345.735	-106.84
345.947	-53.59
346.159	83.63
346.371	-0.34
346.583	9.9
346.795	147.11
347.007	-0.34
347.219	-0.34
347.431	-18.77
347.643	36.52
347.855	65.19
348.067	134.82
348.279	-72.02
348.491	48.81
348.703	75.43
348.915	32.43
349.127	-22.87
349.339	75.43
349.551	34.47
349.763	40.62
349.975	-49.49
350.187	104.11
350.399	132.78
350.61	22.19
350.822	-8.53
351.034	75.43
351.246	95.91
351.458	95.91
351.669	13.99
351.881	91.82
352.093	130.73
352.305	198.31
352.517	143.02
352.728	77.48
352.94	48.81
353.152	46.76
353.363	-100.69
353.575	69.29
353.787	108.2
353.999	-69.97
354.21	91.82
354.422	-2.39
354.633	-37.2
354.845	-67.92
355.057	11.95
355.268	-2.39
355.48	71.34
355.692	-51.54
355.903	24.23
356.115	-41.3
356.326	-49.49
356.538	173.74
356.749	104.11
356.961	89.77
357.172	-2.39
357.384	-53.59
357.595	177.83
357.807	34.47
358.018	-24.92
358.23	-26.96
358.441	157.35
358.653	91.82
358.864	-78.16
359.075	13.99
359.287	65.19
359.498	100.01
359.709	22.19
359.921	16.04
360.132	3.75
360.344	18.09
360.555	-67.92
360.766	-16.73
360.977	-2.39
361.189	-8.53
361.4	-26.96
361.611	71.34
361.823	93.87
362.034	-33.11
362.245	-33.11
362.456	-24.92
362.667	124.58
362.879	18.09
363.09	-49.49
363.301	18.09
363.512	1.71
363.723	-65.88
363.935	-55.64
364.146	87.72
364.357	89.77
364.568	71.34
364.779	-43.35
364.99	126.63
365.201	-51.54
365.412	9.9
365.623	-82.26
365.834	28.33
366.045	26.28
366.256	36.52
366.467	85.67
366.678	7.85
366.889	-53.59
367.1	-92.5
367.311	87.72
367.522	-53.59
367.733	106.15
367.944	20.14
368.155	16.04
368.366	175.78
368.577	22.19
368.788	52.91
368.999	-39.25
369.209	44.71
369.42	175.78
369.631	243.37
369.842	73.39
370.053	-33.11
370.264	149.16
370.474	-53.59
370.685	42.67
370.896	-90.45
371.107	165.54
371.317	32.43
371.528	-2.39
371.739	126.63
371.95	69.29
372.16	87.72
372.371	-112.98
372.582	32.43
372.792	24.23
373.003	34.47
373.214	-0.34
373.424	-16.73
373.635	-49.49
373.846	149.16
374.056	18.09
374.267	-16.73
374.477	83.63
374.688	-2.39
374.898	50.86
375.109	9.9
375.319	50.86
375.53	59.05
375.74	91.82
375.951	11.95
376.161	9.9
376.372	-8.53
376.582	48.81
376.793	57
377.003	57
377.214	-74.07
377.424	71.34
377.635	-4.44
377.845	-41.3
378.055	71.34
378.266	-82.26
378.476	38.57
378.686	28.33
378.897	-20.82
379.107	40.62
379.317	122.54
379.528	1.71
379.738	54.95
379.948	-82.26
380.158	106.15
380.369	38.57
380.579	65.19
380.789	-69.97
380.999	36.52
381.21	108.2
381.42	149.16
381.63	40.62
381.84	75.43
382.05	-18.77
382.261	110.25
382.471	61.1
382.681	3.75
382.891	118.44
383.101	46.76
383.311	-98.64
383.521	3.75
383.731	93.87
383.941	67.24
384.151	16.04
384.361	22.19
384.571	1.71
384.781	106.15
384.991	200.36
385.201	173.74
385.411	175.78
385.621	48.81
385.831	-4.44
386.041	-2.39
386.251	-10.58
386.461	93.87
386.671	-59.73
386.881	112.3
387.091	-24.92
387.301	65.19
387.511	143.02
387.72	-4.44
387.93	42.67
388.14	-26.96
388.35	73.39
388.56	48.81
388.769	63.15
388.979	5.8
389.189	30.38
389.399	22.19
389.609	59.05
389.818	52.91
390.028	-31.06
390.238	-24.92
390.447	-29.01
390.657	69.29
390.867	22.19
391.076	-53.59
391.286	89.77
391.496	36.52
391.705	48.81
391.915	59.05
392.125	36.52
392.334	-35.16
392.544	106.15
392.753	-18.77
392.963	-102.74
393.172	36.52
393.382	-49.49
393.591	229.03
393.801	-2.39
394.01	114.34
394.22	54.95
394.429	44.71
394.639	-18.77
394.848	18.09
395.058	42.67
395.267	24.23
395.477	59.05
395.686	-12.63
395.895	159.4
396.105	210.6
396.314	40.62
396.524	89.77
396.733	-10.58
396.942	71.34
397.152	85.67
397.361	108.2
397.57	71.34
397.78	-6.49
397.989	65.19
398.198	231.08
398.407	16.04
398.617	-94.55
398.826	-22.87
399.035	16.04
399.244	89.77
399.453	3.75
399.663	34.47
399.872	3.75
400.081	-31.06
400.29	181.93
400.499	-0.34
400.708	71.34
400.917	-8.53
401.127	-80.21
401.336	3.75
401.545	165.54
401.754	114.34
401.963	50.86
402.172	22.19
402.381	-26.96
402.59	18.09
402.799	28.33
403.008	169.64
403.217	116.39
403.426	153.26
403.635	-49.49
403.844	-26.96
404.053	28.33
404.262	24.23
404.471	61.1
404.68	46.76
404.888	-6.49
405.097	46.76
405.306	69.29
405.515	61.1
405.724	20.14
405.933	95.91
406.142	87.72
406.35	75.43
406.559	7.85
406.768	77.48
406.977	118.44
407.185	48.81
407.394	24.23
407.603	-29.01
407.812	120.49
408.02	81.58
408.229	134.82
408.438	65.19
408.646	-41.3
408.855	-55.64
409.064	71.34
409.272	46.76
409.481	114.34
409.69	-82.26
409.898	-37.2
410.107	-0.34
410.315	46.76
410.524	-43.35
410.733	-10.58
410.941	-57.68
411.15	104.11
411.358	61.1
411.567	116.39
411.775	32.43
411.984	-14.68
412.192	67.24
412.401	5.8
412.609	153.26
412.818	110.25
413.026	34.47
413.234	-67.92
413.443	67.24
413.651	-47.44
413.86	26.28
414.068	136.87
414.276	124.58
414.485	-29.01
414.693	71.34
414.901	128.68
415.11	48.81
415.318	40.62
415.526	11.95
415.734	116.39
415.943	18.09
416.151	149.16
416.359	-0.34
416.567	52.91
416.776	46.76
416.984	75.43
417.192	181.93
417.4	-4.44
417.608	32.43
417.817	-98.64
418.025	30.38
418.233	128.68
418.441	-29.01
418.649	3.75
418.857	42.67
419.065	83.63
419.273	34.47
419.481	5.8
419.689	22.19
419.897	7.85
420.105	-59.73
420.313	128.68
420.521	52.91
420.729	130.73
420.937	42.67
421.145	-65.88
421.353	48.81
421.561	151.21
421.769	73.39
421.977	-31.06
422.185	122.54
422.393	46.76
422.601	163.5
422.809	42.67
423.017	22.19
423.224	44.71
423.432	138.92
423.64	83.63
423.848	93.87
424.056	-41.3
424.263	52.91
424.471	1.71
424.679	136.87
424.887	-82.26
425.094	108.2
425.302	24.23
425.51	16.04
425.718	97.96
425.925	46.76
426.133	-0.34
426.341	114.34
426.548	30.38
426.756	16.04
426.964	52.91
427.171	-0.34
427.379	61.1
427.586	57
427.794	89.77
428.001	122.54
428.209	54.95
428.417	116.39
428.624	89.77
428.832	65.19
429.039	91.82
429.247	63.15
429.454	13.99
429.662	229.03
429.869	54.95
430.076	30.38
430.284	130.73
430.491	171.69
430.699	145.06
430.906	132.78
431.114	106.15
431.321	147.11
431.528	52.91
431.736	161.45
431.943	85.67
432.15	138.92
432.358	136.87
432.565	233.13
432.772	-63.83
432.979	122.54
433.187	106.15
433.394	149.16
433.601	114.34
433.808	179.88
434.016	218.79
434.223	108.2
434.43	73.39
434.637	196.26
434.844	247.46
435.052	130.73
435.259	218.79
435.466	282.28
435.673	171.69
435.88	237.22
436.087	181.93
436.294	253.61
436.501	337.57
436.708	171.69
436.915	290.47
437.122	249.51
437.329	147.11
437.537	253.61
437.743	231.08
437.95	450.21
438.157	327.33
438.364	272.04
438.571	347.81
438.778	304.81
438.985	368.29
439.192	368.29
439.399	394.92
439.606	435.88
439.813	433.83
440.02	505.51
440.227	525.99
440.433	536.23
440.64	442.02
440.847	442.02
441.054	466.6
441.261	503.46
441.467	556.71
441.674	442.02
441.881	562.85
442.088	513.7
442.294	630.43
442.501	634.53
442.708	681.63
442.914	573.09
443.121	730.78
443.328	767.65
443.534	812.7
443.741	767.65
443.948	642.72
444.154	822.94
444.361	1003.16
444.568	917.15
444.774	906.91
444.981	829.09
445.187	1040.03
445.394	1025.69
445.6	892.57
445.807	1101.47
446.013	1066.65
446.22	1080.99
446.426	1089.18
446.633	1212.06
446.839	1408.66
447.046	1232.54
447.252	1386.13
447.459	1435.28
447.665	1386.13
447.871	1584.79
448.078	1613.46
448.284	1590.93
448.491	1748.62
448.697	1717.9
448.903	1816.21
449.11	1857.17
449.316	1838.73
449.522	2057.87
449.728	2205.32
449.935	2119.31
450.141	2215.56
450.347	2348.68
450.553	2156.17
450.76	2283.14
450.966	2500.23
451.172	2623.11
451.378	2670.21
451.584	2672.26
451.791	2940.54
451.997	2993.79
452.203	3006.08
452.409	3219.07
452.615	3253.88
452.821	3184.25
453.027	3276.41
453.233	3745.39
453.44	3591.8
453.646	3665.52
453.852	3946.09
454.058	4011.63
454.264	4005.49
454.47	4406.89
454.676	4515.43
454.882	4703.84
455.088	4761.19
455.294	4918.88
455.5	5162.59
455.705	5629.52
455.911	5525.08
456.117	5803.6
456.323	5631.57
456.529	5973.58
456.735	6444.62
456.941	6610.5
457.147	6792.77
457.352	6825.54
457.558	7142.97
457.764	7740.98
457.97	7820.85
458.176	8169.01
458.381	8758.82
458.587	8754.73
458.793	9133.6
458.999	9254.43
459.204	10204.69
459.41	10561.03
459.616	10587.66
459.821	10999.3
460.027	11476.48
460.233	12221.94
460.438	12076.53
460.644	12918.25
460.85	12596.71
461.055	13495.77
461.261	14261.71
461.466	13938.13
461.672	14022.1
461.878	15580.6
462.083	15756.73
462.289	16088.5
462.494	16479.66
462.7	16729.52
462.905	16938.41
463.111	18390.42
463.316	19111.3
463.522	19514.75
463.727	20088.18
463.932	21044.59
464.138	21609.82
464.343	22345.05
464.549	22433.11
464.754	24114.49
464.959	25195.82
465.165	25406.76
465.37	25355.56
465.575	25103.66
465.781	27018.51
465.986	27731.2
466.191	27337.99
466.397	27481.35
466.602	26828.05
466.807	28400.89
467.012	28710.13
467.218	29400.3
467.423	29332.72
467.628	30242.01
467.833	31915.2
468.038	31302.86
468.244	30637.27
468.449	32140.48
468.654	31493.32
468.859	31435.98
