Data from USB4F104151__21__10-23-41-245.txt Node

Date: Wed Feb 26 10:23:41 EST 2025
User: louis
Spectrometer: USB4F10415
Trigger mode: 4
Integration Time (sec): 1.000000E-1
Scans to average: 1
Electric dark correction enabled: true
Nonlinearity correction enabled: false
Boxcar width: 0
XAxis mode: Wavelengths
Number of Pixels in Spectrum: 3648
>>>>>Begin Spectral Data<<<<<
178.204	-385.36
178.424	-385.36
178.644	-385.36
178.864	-405.84
179.084	-383.31
179.304	34.47
179.524	-80.21
179.744	71.34
179.964	-96.6
180.184	9.9
180.404	93.87
180.624	-37.2
180.844	-14.68
181.064	-18.77
181.283	9.9
181.503	-22.87
181.723	50.86
181.943	-63.83
182.163	124.58
182.383	48.81
182.602	-8.53
182.822	104.11
183.042	85.67
183.262	-59.73
183.482	-51.54
183.701	52.91
183.921	32.43
184.141	-8.53
184.361	9.9
184.58	38.57
184.8	-26.96
185.02	-55.64
185.239	106.15
185.459	85.67
185.679	52.91
185.898	-82.26
186.118	13.99
186.338	34.47
186.557	149.16
186.777	-12.63
186.997	13.99
187.216	46.76
187.436	198.31
187.655	5.8
187.875	126.63
188.095	-20.82
188.314	206.5
188.534	151.21
188.753	-6.49
188.973	63.15
189.192	138.92
189.412	46.76
189.631	9.9
189.851	79.53
190.07	116.39
190.29	-100.69
190.509	-51.54
190.729	50.86
190.948	102.06
191.168	247.46
191.387	67.24
191.607	106.15
191.826	69.29
192.045	50.86
192.265	-49.49
192.484	93.87
192.704	44.71
192.923	-63.83
193.142	155.3
193.362	102.06
193.581	132.78
193.8	75.43
194.02	126.63
194.239	-16.73
194.458	48.81
194.678	-14.68
194.897	38.57
195.116	50.86
195.335	48.81
195.555	-10.58
195.774	-20.82
195.993	59.05
196.212	9.9
196.432	28.33
196.651	-4.44
196.87	-41.3
197.089	212.65
197.308	44.71
197.528	57
197.747	-100.69
197.966	22.19
198.185	165.54
198.404	18.09
198.623	138.92
198.842	122.54
199.062	42.67
199.281	116.39
199.5	40.62
199.719	20.14
199.938	83.63
200.157	79.53
200.376	30.38
200.595	138.92
200.814	22.19
201.033	-6.49
201.252	81.58
201.471	50.86
201.69	116.39
201.909	28.33
202.128	40.62
202.347	28.33
202.566	-10.58
202.785	-39.25
203.004	1.71
203.223	210.6
203.442	71.34
203.661	22.19
203.879	34.47
204.098	61.1
204.317	-2.39
204.536	91.82
204.755	118.44
204.974	100.01
205.193	67.24
205.411	100.01
205.63	67.24
205.849	63.15
206.068	-65.88
206.287	-53.59
206.505	120.49
206.724	16.04
206.943	-41.3
207.162	-41.3
207.381	-14.68
207.599	11.95
207.818	73.39
208.037	-12.63
208.255	71.34
208.474	65.19
208.693	-29.01
208.911	-69.97
209.13	77.48
209.349	71.34
209.567	40.62
209.786	87.72
210.005	112.3
210.223	54.95
210.442	-104.79
210.661	44.71
210.879	13.99
211.098	-65.88
211.316	97.96
211.535	110.25
211.753	71.34
211.972	106.15
212.191	22.19
212.409	9.9
212.628	108.2
212.846	-80.21
213.065	46.76
213.283	161.45
213.502	100.01
213.72	67.24
213.938	22.19
214.157	26.28
214.375	97.96
214.594	73.39
214.812	24.23
215.031	-8.53
215.249	13.99
215.467	140.97
215.686	1.71
215.904	36.52
216.122	-16.73
216.341	134.82
216.559	79.53
216.778	188.07
216.996	167.59
217.214	-49.49
217.432	-31.06
217.651	-104.79
217.869	46.76
218.087	40.62
218.306	9.9
218.524	77.48
218.742	11.95
218.96	71.34
219.179	30.38
219.397	-18.77
219.615	245.41
219.833	52.91
220.051	106.15
220.27	122.54
220.488	85.67
220.706	79.53
220.924	-8.53
221.142	-6.49
221.36	85.67
221.578	-2.39
221.796	28.33
222.015	30.38
222.233	-8.53
222.451	108.2
222.669	-61.78
222.887	52.91
223.105	-4.44
223.323	-33.11
223.541	5.8
223.759	38.57
223.977	61.1
224.195	190.12
224.413	28.33
224.631	34.47
224.849	16.04
225.067	165.54
225.285	-14.68
225.503	-65.88
225.721	-143.7
225.939	61.1
226.157	5.8
226.375	214.7
226.592	-61.78
226.81	-22.87
227.028	149.16
227.246	42.67
227.464	-4.44
227.682	149.16
227.9	52.91
228.117	52.91
228.335	-8.53
228.553	3.75
228.771	95.91
228.989	61.1
229.206	3.75
229.424	28.33
229.642	22.19
229.86	-51.54
230.077	112.3
230.295	69.29
230.513	93.87
230.731	143.02
230.948	116.39
231.166	134.82
231.384	16.04
231.601	-26.96
231.819	143.02
232.037	-33.11
232.254	-33.11
232.472	-29.01
232.689	-16.73
232.907	63.15
233.125	32.43
233.342	28.33
233.56	40.62
233.777	36.52
233.995	-20.82
234.213	122.54
234.43	50.86
234.648	24.23
234.865	48.81
235.083	57
235.3	124.58
235.518	93.87
235.735	116.39
235.953	13.99
236.17	9.9
236.388	26.28
236.605	93.87
236.822	7.85
237.04	136.87
237.257	20.14
237.475	-49.49
237.692	-35.16
237.909	48.81
238.127	16.04
238.344	79.53
238.562	-0.34
238.779	-45.4
238.996	5.8
239.214	65.19
239.431	95.91
239.648	-14.68
239.865	95.91
240.083	67.24
240.3	-31.06
240.517	-8.53
240.735	40.62
240.952	188.07
241.169	120.49
241.386	48.81
241.603	20.14
241.821	9.9
242.038	83.63
242.255	87.72
242.472	-26.96
242.689	46.76
242.907	44.71
243.124	-18.77
243.341	16.04
243.558	-12.63
243.775	-61.78
243.992	-61.78
244.209	63.15
244.426	169.64
244.643	46.76
244.86	-49.49
245.078	61.1
245.295	38.57
245.512	5.8
245.729	-22.87
245.946	54.95
246.163	36.52
246.38	-39.25
246.597	-20.82
246.814	30.38
247.031	11.95
247.248	9.9
247.464	5.8
247.681	79.53
247.898	116.39
248.115	81.58
248.332	-16.73
248.549	181.93
248.766	89.77
248.983	52.91
249.2	87.72
249.417	91.82
249.633	-61.78
249.85	104.11
250.067	-29.01
250.284	44.71
250.501	40.62
250.717	30.38
250.934	-57.68
251.151	9.9
251.368	5.8
251.585	114.34
251.801	9.9
252.018	-26.96
252.235	104.11
252.451	-106.84
252.668	-24.92
252.885	138.92
253.102	7.85
253.318	-4.44
253.535	22.19
253.752	11.95
253.968	-0.34
254.185	-33.11
254.401	46.76
254.618	44.71
254.835	-67.92
255.051	93.87
255.268	46.76
255.484	61.1
255.701	-4.44
255.917	75.43
256.134	-29.01
256.351	3.75
256.567	-90.45
256.784	30.38
257	-61.78
257.217	100.01
257.433	48.81
257.65	77.48
257.866	104.11
258.082	-57.68
258.299	-55.64
258.515	13.99
258.732	11.95
258.948	5.8
259.165	-20.82
259.381	28.33
259.597	100.01
259.814	-33.11
260.03	-8.53
260.246	-20.82
260.463	171.69
260.679	208.55
260.895	16.04
261.112	59.05
261.328	-67.92
261.544	-4.44
261.761	204.46
261.977	24.23
262.193	-45.4
262.409	177.83
262.626	48.81
262.842	-20.82
263.058	42.67
263.274	13.99
263.49	5.8
263.707	61.1
263.923	102.06
264.139	-55.64
264.355	50.86
264.571	91.82
264.787	97.96
265.004	110.25
265.22	-37.2
265.436	7.85
265.652	34.47
265.868	91.82
266.084	-117.08
266.3	91.82
266.516	-8.53
266.732	-29.01
266.948	61.1
267.164	42.67
267.38	83.63
267.596	116.39
267.812	231.08
268.028	77.48
268.244	-4.44
268.46	54.95
268.676	54.95
268.892	67.24
269.108	44.71
269.324	-10.58
269.54	18.09
269.756	65.19
269.972	-12.63
270.188	-2.39
270.403	-43.35
270.619	40.62
270.835	102.06
271.051	32.43
271.267	-76.12
271.483	5.8
271.698	42.67
271.914	57
272.13	-18.77
272.346	-57.68
272.562	65.19
272.777	85.67
272.993	44.71
273.209	-39.25
273.425	75.43
273.64	-49.49
273.856	81.58
274.072	-35.16
274.287	-8.53
274.503	77.48
274.719	97.96
274.934	-10.58
275.15	-98.64
275.366	-61.78
275.581	-90.45
275.797	-31.06
276.012	42.67
276.228	-0.34
276.444	13.99
276.659	89.77
276.875	-33.11
277.09	13.99
277.306	-22.87
277.521	-18.77
277.737	69.29
277.952	46.76
278.168	28.33
278.383	18.09
278.599	112.3
278.814	50.86
279.03	54.95
279.245	85.67
279.461	3.75
279.676	196.26
279.892	-39.25
280.107	-67.92
280.322	-82.26
280.538	97.96
280.753	-26.96
280.969	-4.44
281.184	65.19
281.399	118.44
281.615	-90.45
281.83	26.28
282.045	-63.83
282.26	-14.68
282.476	38.57
282.691	44.71
282.906	5.8
283.122	-22.87
283.337	-31.06
283.552	65.19
283.767	-49.49
283.983	110.25
284.198	36.52
284.413	30.38
284.628	-63.83
284.843	34.47
285.058	91.82
285.274	24.23
285.489	20.14
285.704	54.95
285.919	20.14
286.134	71.34
286.349	1.71
286.564	-121.17
286.779	149.16
286.995	87.72
287.21	-90.45
287.425	34.47
287.64	57
287.855	30.38
288.07	-51.54
288.285	100.01
288.5	140.97
288.715	11.95
288.93	-53.59
289.145	-16.73
289.36	116.39
289.575	13.99
289.79	97.96
290.004	-0.34
290.219	175.78
290.434	-61.78
290.649	-20.82
290.864	36.52
291.079	30.38
291.294	-12.63
291.509	59.05
291.724	48.81
291.938	-43.35
292.153	30.38
292.368	-12.63
292.583	69.29
292.798	59.05
293.012	42.67
293.227	106.15
293.442	-10.58
293.657	75.43
293.871	13.99
294.086	83.63
294.301	192.17
294.516	63.15
294.73	110.25
294.945	1.71
295.16	-20.82
295.374	65.19
295.589	91.82
295.804	-104.79
296.018	38.57
296.233	77.48
296.447	54.95
296.662	-35.16
296.877	89.77
297.091	134.82
297.306	20.14
297.52	57
297.735	91.82
297.949	61.1
298.164	-18.77
298.378	38.57
298.593	-41.3
298.807	7.85
299.022	97.96
299.236	173.74
299.451	26.28
299.665	20.14
299.88	-22.87
300.094	22.19
300.309	-20.82
300.523	-24.92
300.737	-45.4
300.952	50.86
301.166	85.67
301.381	-18.77
301.595	1.71
301.809	85.67
302.024	-4.44
302.238	9.9
302.452	116.39
302.667	-8.53
302.881	159.4
303.095	34.47
303.309	9.9
303.524	44.71
303.738	-16.73
303.952	24.23
304.166	81.58
304.381	-117.08
304.595	128.68
304.809	-35.16
305.023	95.91
305.237	22.19
305.452	-2.39
305.666	85.67
305.88	50.86
306.094	50.86
306.308	32.43
306.522	120.49
306.736	20.14
306.95	126.63
307.164	11.95
307.379	52.91
307.593	108.2
307.807	112.3
308.021	69.29
308.235	65.19
308.449	-55.64
308.663	5.8
308.877	192.17
309.091	52.91
309.305	-35.16
309.519	-51.54
309.733	130.73
309.947	-76.12
310.161	22.19
310.374	120.49
310.588	122.54
310.802	-39.25
311.016	-2.39
311.23	93.87
311.444	-33.11
311.658	42.67
311.872	138.92
312.085	128.68
312.299	155.3
312.513	147.11
312.727	46.76
312.941	-14.68
313.154	34.47
313.368	26.28
313.582	136.87
313.796	48.81
314.009	13.99
314.223	143.02
314.437	75.43
314.651	87.72
314.864	22.19
315.078	52.91
315.292	-67.92
315.505	-16.73
315.719	54.95
315.933	34.47
316.146	32.43
316.36	-59.73
316.573	138.92
316.787	48.81
317.001	120.49
317.214	-39.25
317.428	106.15
317.641	-26.96
317.855	18.09
318.068	11.95
318.282	44.71
318.495	202.41
318.709	91.82
318.922	16.04
319.136	97.96
319.349	114.34
319.563	40.62
319.776	169.64
319.99	-53.59
320.203	73.39
320.417	11.95
320.63	106.15
320.843	165.54
321.057	24.23
321.27	-104.79
321.483	132.78
321.697	95.91
321.91	48.81
322.124	124.58
322.337	46.76
322.55	-24.92
322.763	22.19
322.977	44.71
323.19	-59.73
323.403	7.85
323.617	73.39
323.83	59.05
324.043	28.33
324.256	22.19
324.469	-47.44
324.683	128.68
324.896	52.91
325.109	36.52
325.322	-35.16
325.535	97.96
325.748	114.34
325.962	61.1
326.175	-6.49
326.388	44.71
326.601	120.49
326.814	-10.58
327.027	42.67
327.24	114.34
327.453	-123.22
327.666	18.09
327.879	124.58
328.092	151.21
328.305	89.77
328.518	-2.39
328.731	-33.11
328.944	18.09
329.157	-0.34
329.37	20.14
329.583	179.88
329.796	110.25
330.009	-45.4
330.222	11.95
330.435	124.58
330.648	83.63
330.861	46.76
331.073	52.91
331.286	114.34
331.499	-12.63
331.712	-18.77
331.925	63.15
332.138	-18.77
332.35	102.06
332.563	-22.87
332.776	145.06
332.989	20.14
333.202	36.52
333.414	-10.58
333.627	-2.39
333.84	-24.92
334.053	1.71
334.265	-20.82
334.478	-74.07
334.691	5.8
334.903	38.57
335.116	-31.06
335.329	50.86
335.541	85.67
335.754	167.59
335.966	-72.02
336.179	32.43
336.392	-24.92
336.604	-22.87
336.817	54.95
337.029	16.04
337.242	89.77
337.454	57
337.667	42.67
337.88	75.43
338.092	36.52
338.305	112.3
338.517	-33.11
338.729	-6.49
338.942	77.48
339.154	-55.64
339.367	-6.49
339.579	54.95
339.792	18.09
340.004	120.49
340.217	-16.73
340.429	5.8
340.641	-65.88
340.854	-37.2
341.066	-6.49
341.278	102.06
341.491	124.58
341.703	100.01
341.915	-78.16
342.128	102.06
342.34	3.75
342.552	-65.88
342.764	-8.53
342.977	-67.92
343.189	128.68
343.401	48.81
343.613	-63.83
343.826	9.9
344.038	-26.96
344.25	63.15
344.462	-33.11
344.674	-35.16
344.886	52.91
345.099	63.15
345.311	-10.58
345.523	-29.01
345.735	-69.97
345.947	11.95
346.159	-67.92
346.371	18.09
346.583	-41.3
346.795	79.53
347.007	52.91
347.219	71.34
347.431	-67.92
347.643	128.68
347.855	-24.92
348.067	181.93
348.279	-57.68
348.491	-37.2
348.703	173.74
348.915	32.43
349.127	34.47
349.339	93.87
349.551	-6.49
349.763	57
349.975	-33.11
350.187	116.39
350.399	89.77
350.61	85.67
350.822	3.75
351.034	65.19
351.246	-51.54
351.458	126.63
351.669	67.24
351.881	102.06
352.093	138.92
352.305	91.82
352.517	73.39
352.728	-2.39
352.94	-2.39
353.152	3.75
353.363	11.95
353.575	20.14
353.787	108.2
353.999	1.71
354.21	173.74
354.422	-14.68
354.633	22.19
354.845	34.47
355.057	65.19
355.268	-22.87
355.48	22.19
355.692	1.71
355.903	16.04
356.115	-65.88
356.326	-172.37
356.538	140.97
356.749	75.43
356.961	97.96
357.172	18.09
357.384	3.75
357.595	202.41
357.807	30.38
358.018	-18.77
358.23	120.49
358.441	173.74
358.653	77.48
358.864	93.87
359.075	-63.83
359.287	122.54
359.498	124.58
359.709	106.15
359.921	-31.06
360.132	91.82
360.344	91.82
360.555	-12.63
360.766	102.06
360.977	-47.44
361.189	85.67
361.4	-14.68
361.611	57
361.823	202.41
362.034	32.43
362.245	-41.3
362.456	54.95
362.667	83.63
362.879	1.71
363.09	28.33
363.301	89.77
363.512	61.1
363.723	-35.16
363.935	-55.64
364.146	157.35
364.357	-26.96
364.568	106.15
364.779	-78.16
364.99	143.02
365.201	-8.53
365.412	114.34
365.623	-18.77
365.834	69.29
366.045	79.53
366.256	73.39
366.467	9.9
366.678	11.95
366.889	11.95
367.1	-10.58
367.311	95.91
367.522	-67.92
367.733	112.3
367.944	36.52
368.155	-41.3
368.366	91.82
368.577	97.96
368.788	85.67
368.999	-61.78
369.209	36.52
369.42	165.54
369.631	304.81
369.842	116.39
370.053	-10.58
370.264	73.39
370.474	-6.49
370.685	34.47
370.896	9.9
371.107	192.17
371.317	-18.77
371.528	85.67
371.739	95.91
371.95	5.8
372.16	50.86
372.371	-72.02
372.582	46.76
372.792	71.34
373.003	22.19
373.214	9.9
373.424	50.86
373.635	-63.83
373.846	108.2
374.056	36.52
374.267	40.62
374.477	75.43
374.688	-2.39
374.898	54.95
375.109	5.8
375.319	38.57
375.53	50.86
375.74	83.63
375.951	85.67
376.161	54.95
376.372	89.77
376.582	-22.87
376.793	110.25
377.003	-10.58
377.214	71.34
377.424	34.47
377.635	-29.01
377.845	-65.88
378.055	143.02
378.266	-18.77
378.476	-6.49
378.686	54.95
378.897	126.63
379.107	132.78
379.317	65.19
379.528	-14.68
379.738	79.53
379.948	36.52
380.158	54.95
380.369	69.29
380.579	85.67
380.789	48.81
380.999	128.68
381.21	116.39
381.42	247.46
381.63	-43.35
381.84	104.11
382.05	48.81
382.261	77.48
382.471	108.2
382.681	69.29
382.891	155.3
383.101	85.67
383.311	-67.92
383.521	-8.53
383.731	89.77
383.941	108.2
384.151	36.52
384.361	-67.92
384.571	95.91
384.781	52.91
384.991	222.89
385.201	165.54
385.411	102.06
385.621	54.95
385.831	59.05
386.041	79.53
386.251	11.95
386.461	54.95
386.671	-22.87
386.881	13.99
387.091	-33.11
387.301	91.82
387.511	71.34
387.72	42.67
387.93	122.54
388.14	-18.77
388.35	71.34
388.56	147.11
388.769	48.81
388.979	104.11
389.189	11.95
389.399	46.76
389.609	81.58
389.818	87.72
390.028	50.86
390.238	79.53
390.447	-72.02
390.657	87.72
390.867	-18.77
391.076	-86.36
391.286	32.43
391.496	26.28
391.705	97.96
391.915	108.2
392.125	87.72
392.334	44.71
392.544	126.63
392.753	30.38
392.963	-16.73
393.172	46.76
393.382	59.05
393.591	192.17
393.801	71.34
394.01	126.63
394.22	95.91
394.429	-16.73
394.639	59.05
394.848	3.75
395.058	9.9
395.267	30.38
395.477	34.47
395.686	30.38
395.895	159.4
396.105	233.13
396.314	77.48
396.524	28.33
396.733	5.8
396.942	38.57
397.152	132.78
397.361	102.06
397.57	61.1
397.78	22.19
397.989	165.54
398.198	151.21
398.407	50.86
398.617	91.82
398.826	38.57
399.035	73.39
399.244	89.77
399.453	28.33
399.663	28.33
399.872	63.15
400.081	-94.55
400.29	161.45
400.499	-61.78
400.708	65.19
400.917	83.63
401.127	18.09
401.336	34.47
401.545	181.93
401.754	132.78
401.963	122.54
402.172	-14.68
402.381	-4.44
402.59	-4.44
402.799	81.58
403.008	183.98
403.217	18.09
403.426	108.2
403.635	3.75
403.844	22.19
404.053	57
404.262	-8.53
404.471	212.65
404.68	57
404.888	26.28
405.097	69.29
405.306	11.95
405.515	108.2
405.724	73.39
405.933	48.81
406.142	155.3
406.35	147.11
406.559	38.57
406.768	-41.3
406.977	173.74
407.185	100.01
407.394	34.47
407.603	-39.25
407.812	73.39
408.02	75.43
408.229	108.2
408.438	13.99
408.646	-55.64
408.855	110.25
409.064	93.87
409.272	-29.01
409.481	59.05
409.69	3.75
409.898	-33.11
410.107	59.05
410.315	85.67
410.524	-14.68
410.733	83.63
410.941	-4.44
411.15	128.68
411.358	57
411.567	122.54
411.775	11.95
411.984	-10.58
412.192	75.43
412.401	-63.83
412.609	155.3
412.818	122.54
413.026	7.85
413.234	-12.63
413.443	5.8
413.651	-112.98
413.86	30.38
414.068	40.62
414.276	67.24
414.485	-16.73
414.693	235.18
414.901	95.91
415.11	-8.53
415.318	34.47
415.526	104.11
415.734	91.82
415.943	36.52
416.151	145.06
416.359	7.85
416.567	30.38
416.776	138.92
416.984	40.62
417.192	120.49
417.4	63.15
417.608	-29.01
417.817	-6.49
418.025	61.1
418.233	231.08
418.441	-14.68
418.649	3.75
418.857	69.29
419.065	210.6
419.273	-78.16
419.481	-31.06
419.689	28.33
419.897	5.8
420.105	-37.2
420.313	108.2
420.521	245.41
420.729	42.67
420.937	91.82
421.145	48.81
421.353	116.39
421.561	124.58
421.769	13.99
421.977	-63.83
422.185	165.54
422.393	-39.25
422.601	67.24
422.809	79.53
423.017	5.8
423.224	83.63
423.432	59.05
423.64	-16.73
423.848	134.82
424.056	-2.39
424.263	155.3
424.471	11.95
424.679	108.2
424.887	-14.68
425.094	83.63
425.302	40.62
425.51	11.95
425.718	116.39
425.925	-16.73
426.133	79.53
426.341	136.87
426.548	13.99
426.756	54.95
426.964	87.72
427.171	81.58
427.379	59.05
427.586	57
427.794	132.78
428.001	128.68
428.209	46.76
428.417	132.78
428.624	81.58
428.832	30.38
429.039	69.29
429.247	149.16
429.454	83.63
429.662	196.26
429.869	138.92
430.076	122.54
430.284	165.54
430.491	188.07
430.699	108.2
430.906	196.26
431.114	114.34
431.321	104.11
431.528	93.87
431.736	67.24
431.943	91.82
432.15	132.78
432.358	159.4
432.565	282.28
432.772	48.81
432.979	257.7
433.187	140.97
433.394	183.98
433.601	100.01
433.808	171.69
434.016	210.6
434.223	206.5
434.43	194.22
434.637	263.85
434.844	231.08
435.052	186.02
435.259	214.7
435.466	233.13
435.673	229.03
435.88	255.65
436.087	282.28
436.294	315.05
436.501	267.94
436.708	216.74
436.915	321.19
437.122	372.39
437.329	290.47
437.537	247.46
437.743	321.19
437.95	458.4
438.157	333.48
438.364	292.52
438.571	366.25
438.778	448.16
438.985	421.54
439.192	478.88
439.399	409.25
439.606	409.25
439.813	550.56
440.02	503.46
440.227	609.95
440.433	542.37
440.64	495.27
440.847	554.66
441.054	446.12
441.261	712.35
441.467	548.51
441.674	603.81
441.881	700.06
442.088	636.58
442.294	749.22
442.501	761.5
442.708	843.42
442.914	706.21
443.121	837.28
443.328	902.81
443.534	855.71
443.741	937.63
443.948	863.9
444.154	1037.98
444.361	1119.9
444.568	1083.03
444.774	988.83
444.981	972.44
445.187	1175.19
445.394	1177.24
445.6	1269.4
445.807	1246.87
446.013	1224.34
446.22	1121.95
446.426	1314.45
446.633	1410.71
446.839	1689.23
447.046	1371.8
447.252	1582.74
447.459	1681.04
447.665	1590.93
447.871	1808.02
448.078	1914.51
448.284	1865.36
448.491	1912.46
448.697	2076.3
448.903	2082.44
449.11	2184.84
449.316	2209.42
449.522	2381.45
449.728	2373.25
449.935	2512.52
450.141	2453.13
450.347	2721.41
450.553	2619.01
450.76	2752.13
450.966	2926.21
451.172	3065.47
451.378	3083.9
451.584	3210.87
451.791	3419.77
451.997	3432.05
452.203	3561.08
452.409	3767.92
452.615	3880.56
452.821	3802.74
453.027	3874.42
453.233	4392.55
453.44	4226.67
453.646	4310.63
453.852	4638.31
454.058	4748.9
454.264	4812.39
454.47	5152.35
454.676	5279.32
454.882	5652.05
455.088	5508.69
455.294	5701.2
455.5	6043.21
455.705	6493.77
455.911	6524.49
456.117	6717
456.323	6891.07
456.529	6843.97
456.735	7509.56
456.941	7577.14
457.147	8164.91
457.352	8246.83
457.558	8599.08
457.764	9096.74
457.97	9201.18
458.176	9451.03
458.381	10040.85
458.587	10223.12
458.793	10751.49
458.999	10522.12
459.204	11892.21
459.41	12498.41
459.616	12344.81
459.821	13051.36
460.027	13651.42
460.233	14243.28
460.438	14464.46
460.644	15250.88
460.85	15058.37
461.055	15738.3
461.261	16455.09
461.466	16340.4
461.672	16838.06
461.878	18507.15
462.083	18214.29
462.289	18668.94
462.494	19684.73
462.7	19436.93
462.905	19555.71
463.111	21366.12
463.316	22543.7
463.522	23074.12
463.727	23610.69
463.932	24608.05
464.138	25339.18
464.343	26021.15
464.549	26357.02
464.754	28402.94
464.959	29160.69
465.165	29537.51
465.37	29408.49
465.575	29318.38
465.781	31397.07
465.986	32060.61
466.191	31747.27
466.397	32152.77
466.602	31114.45
466.807	32855.22
467.012	33678.5
467.218	34165.92
467.423	34702.49
467.628	35347.6
467.833	37096.56
468.038	36473.98
468.244	35757.19
468.449	37436.53
468.654	37088.37
