Data from USB4F104151__62__09-29-08-496.txt Node

Date: Wed Feb 26 09:29:08 EST 2025
User: louis
Spectrometer: USB4F10415
Trigger mode: 4
Integration Time (sec): 1.000000E-1
Scans to average: 1
Electric dark correction enabled: true
Nonlinearity correction enabled: false
Boxcar width: 0
XAxis mode: Wavelengths
Number of Pixels in Spectrum: 3648
>>>>>Begin Spectral Data<<<<<
178.204	-330.58
178.424	-330.58
178.644	-330.58
178.864	-406.35
179.084	-375.63
179.304	44.2
179.524	-95.06
179.744	-7
179.964	25.77
180.184	7.34
180.404	79.02
180.624	-47.96
180.844	9.39
181.064	-15.19
181.283	21.67
181.503	-58.2
181.723	36.01
181.943	15.53
182.163	236.71
182.383	17.58
182.602	113.83
182.822	124.07
183.042	93.35
183.262	50.35
183.482	40.11
183.701	17.58
183.921	44.2
184.141	-27.48
184.361	154.79
184.58	103.59
184.8	27.82
185.02	23.72
185.239	128.17
185.459	109.74
185.679	85.16
185.898	-72.53
186.118	42.15
186.338	58.54
186.557	72.87
186.777	-43.86
186.997	17.58
187.216	7.34
187.436	138.41
187.655	31.91
187.875	97.45
188.095	-4.95
188.314	66.73
188.534	42.15
188.753	3.24
188.973	173.22
189.192	115.88
189.412	-13.14
189.631	60.59
189.851	54.44
190.07	79.02
190.29	-90.96
190.509	74.92
190.729	-9.05
190.948	130.22
191.168	197.8
191.387	74.92
191.607	79.02
191.826	62.63
192.045	38.06
192.265	25.77
192.484	107.69
192.704	50.35
192.923	-64.34
193.142	142.5
193.362	74.92
193.581	115.88
193.8	52.39
194.02	87.21
194.239	44.2
194.458	27.82
194.678	9.39
194.897	11.43
195.116	122.02
195.335	3.24
195.555	-29.52
195.774	23.72
195.993	87.21
196.212	68.78
196.432	42.15
196.651	66.73
196.87	64.68
197.089	175.27
197.308	58.54
197.528	136.36
197.747	-76.63
197.966	-15.19
198.185	156.84
198.404	36.01
198.623	74.92
198.842	162.98
199.062	113.83
199.281	122.02
199.5	-17.24
199.719	126.12
199.938	83.11
200.157	60.59
200.376	54.44
200.595	68.78
200.814	54.44
201.033	-9.05
201.252	181.42
201.471	3.24
201.69	165.03
201.909	33.96
202.128	119.98
202.347	101.55
202.566	1.19
202.785	-29.52
203.004	7.34
203.223	277.67
203.442	25.77
203.661	-31.57
203.879	62.63
204.098	212.14
204.317	15.53
204.536	91.31
204.755	66.73
204.974	74.92
205.193	21.67
205.411	251.05
205.63	87.21
205.849	23.72
206.068	25.77
206.287	3.24
206.505	95.4
206.724	13.48
206.943	-27.48
207.162	48.3
207.381	74.92
207.599	33.96
207.818	-4.95
208.037	-37.72
208.255	103.59
208.474	62.63
208.693	17.58
208.911	-17.24
209.13	25.77
209.349	-23.38
209.567	91.31
209.786	115.88
210.005	107.69
210.223	21.67
210.442	-47.96
210.661	19.63
210.879	113.83
211.098	21.67
211.316	-23.38
211.535	70.83
211.753	54.44
211.972	107.69
212.191	25.77
212.409	7.34
212.628	70.83
212.846	-19.29
213.065	19.63
213.283	117.93
213.502	27.82
213.72	25.77
213.938	15.53
214.157	-13.14
214.375	66.73
214.594	40.11
214.812	95.4
215.031	-21.33
215.249	50.35
215.467	50.35
215.686	-41.81
215.904	89.26
216.122	38.06
216.341	148.65
216.559	5.29
216.778	105.64
216.996	89.26
217.214	29.87
217.432	-4.95
217.651	46.25
217.869	74.92
218.087	15.53
218.306	21.67
218.524	56.49
218.742	-43.86
218.96	52.39
219.179	87.21
219.397	107.69
219.615	132.26
219.833	70.83
220.051	15.53
220.27	107.69
220.488	103.59
220.706	40.11
220.924	-2.9
221.142	-0.85
221.36	11.43
221.578	136.36
221.796	31.91
222.015	-19.29
222.233	31.91
222.451	72.87
222.669	-33.62
222.887	76.97
223.105	17.58
223.323	-7
223.541	-9.05
223.759	101.55
223.977	17.58
224.195	195.75
224.413	50.35
224.631	58.54
224.849	85.16
225.067	179.37
225.285	-11.09
225.503	-41.81
225.721	-76.63
225.939	54.44
226.157	40.11
226.375	179.37
226.592	17.58
226.81	66.73
227.028	140.46
227.246	124.07
227.464	68.78
227.682	40.11
227.9	115.88
228.117	130.22
228.335	74.92
228.553	7.34
228.771	-35.67
228.989	56.49
229.206	38.06
229.424	3.24
229.642	-15.19
229.86	42.15
230.077	220.33
230.295	158.89
230.513	68.78
230.731	189.61
230.948	171.18
231.166	85.16
231.384	64.68
231.601	-7
231.819	160.94
232.037	-88.92
232.254	-21.33
232.472	113.83
232.689	89.26
232.907	17.58
233.125	52.39
233.342	-35.67
233.56	-23.38
233.777	79.02
233.995	-7
234.213	103.59
234.43	48.3
234.648	52.39
234.865	52.39
235.083	136.36
235.3	74.92
235.518	56.49
235.735	42.15
235.953	42.15
236.17	15.53
236.388	50.35
236.605	-9.05
236.822	89.26
237.04	83.11
237.257	101.55
237.475	-13.14
237.692	23.72
237.909	74.92
238.127	29.87
238.344	113.83
238.562	-68.44
238.779	-25.43
238.996	-31.57
239.214	58.54
239.431	66.73
239.648	21.67
239.865	107.69
240.083	142.5
240.3	23.72
240.517	-2.9
240.735	-7
240.952	68.78
241.169	85.16
241.386	1.19
241.603	9.39
241.821	-23.38
242.038	76.97
242.255	107.69
242.472	56.49
242.689	15.53
242.907	154.79
243.124	95.4
243.341	50.35
243.558	7.34
243.775	-27.48
243.992	-72.53
244.209	76.97
244.426	169.13
244.643	66.73
244.86	42.15
245.078	40.11
245.295	74.92
245.512	91.31
245.729	-33.62
245.946	62.63
246.163	89.26
246.38	15.53
246.597	31.91
246.814	74.92
247.031	89.26
247.248	-13.14
247.464	58.54
247.681	87.21
247.898	101.55
248.115	91.31
248.332	-17.24
248.549	115.88
248.766	154.79
248.983	56.49
249.2	40.11
249.417	107.69
249.633	-11.09
249.85	97.45
250.067	50.35
250.284	79.02
250.501	91.31
250.717	162.98
250.934	-56.15
251.151	1.19
251.368	42.15
251.585	68.78
251.801	103.59
252.018	19.63
252.235	97.45
252.451	-56.15
252.668	33.96
252.885	97.45
253.102	85.16
253.318	25.77
253.535	54.44
253.752	-54.1
253.968	-31.57
254.185	-7
254.401	83.11
254.618	54.44
254.835	13.48
255.051	138.41
255.268	11.43
255.484	48.3
255.701	50.35
255.917	64.68
256.134	-105.3
256.351	56.49
256.567	-88.92
256.784	-4.95
257	-72.53
257.217	101.55
257.433	66.73
257.65	42.15
257.866	91.31
258.082	1.19
258.299	-47.96
258.515	107.69
258.732	40.11
258.948	17.58
259.165	83.11
259.381	1.19
259.597	113.83
259.814	-37.72
260.03	83.11
260.246	25.77
260.463	79.02
260.679	31.91
260.895	17.58
261.112	62.63
261.328	54.44
261.544	1.19
261.761	171.18
261.977	-82.77
262.193	23.72
262.409	132.26
262.626	15.53
262.842	95.4
263.058	-33.62
263.274	33.96
263.49	50.35
263.707	52.39
263.923	29.87
264.139	-80.72
264.355	48.3
264.571	62.63
264.787	136.36
265.004	171.18
265.22	31.91
265.436	-15.19
265.652	17.58
265.868	3.24
266.084	-19.29
266.3	-37.72
266.516	-64.34
266.732	-31.57
266.948	-15.19
267.164	17.58
267.38	83.11
267.596	11.43
267.812	146.6
268.028	85.16
268.244	-31.57
268.46	128.17
268.676	5.29
268.892	38.06
269.108	11.43
269.324	33.96
269.54	-50
269.756	87.21
269.972	-99.16
270.188	74.92
270.403	-47.96
270.619	33.96
270.835	25.77
271.051	76.97
271.267	27.82
271.483	-56.15
271.698	107.69
271.914	58.54
272.13	19.63
272.346	66.73
272.562	29.87
272.777	31.91
272.993	19.63
273.209	-17.24
273.425	29.87
273.64	7.34
273.856	-9.05
274.072	-7
274.287	54.44
274.503	74.92
274.719	25.77
274.934	23.72
275.15	-37.72
275.366	64.68
275.581	-64.34
275.797	31.91
276.012	146.6
276.228	-33.62
276.444	87.21
276.659	103.59
276.875	-9.05
277.09	36.01
277.306	33.96
277.521	25.77
277.737	40.11
277.952	117.93
278.168	7.34
278.383	54.44
278.599	50.35
278.814	91.31
279.03	5.29
279.245	140.46
279.461	-31.57
279.676	91.31
279.892	-7
280.107	-15.19
280.322	-25.43
280.538	38.06
280.753	17.58
280.969	23.72
281.184	103.59
281.399	99.5
281.615	111.78
281.83	113.83
282.045	-45.91
282.26	-27.48
282.476	95.4
282.691	25.77
282.906	40.11
283.122	97.45
283.337	-23.38
283.552	52.39
283.767	-33.62
283.983	54.44
284.198	83.11
284.413	25.77
284.628	-72.53
284.843	9.39
285.058	87.21
285.274	33.96
285.489	23.72
285.704	89.26
285.919	-27.48
286.134	17.58
286.349	9.39
286.564	-15.19
286.779	160.94
286.995	13.48
287.21	-31.57
287.425	36.01
287.64	-27.48
287.855	1.19
288.07	-52.05
288.285	177.32
288.5	81.07
288.715	9.39
288.93	40.11
289.145	5.29
289.36	68.78
289.575	23.72
289.79	150.7
290.004	-15.19
290.219	128.17
290.434	-33.62
290.649	-19.29
290.864	-2.9
291.079	31.91
291.294	83.11
291.509	95.4
291.724	33.96
291.938	66.73
292.153	38.06
292.368	-0.85
292.583	58.54
292.798	62.63
293.012	58.54
293.227	23.72
293.442	13.48
293.657	70.83
293.871	126.12
294.086	70.83
294.301	146.6
294.516	101.55
294.73	7.34
294.945	5.29
295.16	33.96
295.374	158.89
295.589	111.78
295.804	-25.43
296.018	5.29
296.233	89.26
296.447	38.06
296.662	81.07
296.877	115.88
297.091	126.12
297.306	74.92
297.52	81.07
297.735	95.4
297.949	83.11
298.164	40.11
298.378	-21.33
298.593	-60.24
298.807	-25.43
299.022	31.91
299.236	68.78
299.451	-2.9
299.665	15.53
299.88	83.11
300.094	124.07
300.309	83.11
300.523	-23.38
300.737	36.01
300.952	58.54
301.166	107.69
301.381	-60.24
301.595	-76.63
301.809	56.49
302.024	-13.14
302.238	31.91
302.452	91.31
302.667	83.11
302.881	38.06
303.095	46.25
303.309	62.63
303.524	-56.15
303.738	44.2
303.952	-39.76
304.166	52.39
304.381	-35.67
304.595	144.55
304.809	-41.81
305.023	23.72
305.237	-11.09
305.452	25.77
305.666	91.31
305.88	87.21
306.094	76.97
306.308	5.29
306.522	70.83
306.736	52.39
306.95	113.83
307.164	21.67
307.379	15.53
307.593	142.5
307.807	122.02
308.021	56.49
308.235	50.35
308.449	-54.1
308.663	17.58
308.877	226.47
309.091	91.31
309.305	48.3
309.519	-131.92
309.733	105.64
309.947	-29.52
310.161	95.4
310.374	122.02
310.588	21.67
310.802	-95.06
311.016	-52.05
311.23	124.07
311.444	-17.24
311.658	9.39
311.872	72.87
312.085	74.92
312.299	109.74
312.513	171.18
312.727	83.11
312.941	11.43
313.154	83.11
313.368	25.77
313.582	48.3
313.796	70.83
314.009	70.83
314.223	111.78
314.437	56.49
314.651	101.55
314.864	60.59
315.078	9.39
315.292	-23.38
315.505	-11.09
315.719	99.5
315.933	38.06
316.146	-68.44
316.36	66.73
316.573	89.26
316.787	25.77
317.001	142.5
317.214	-15.19
317.428	31.91
317.641	-15.19
317.855	-17.24
318.068	29.87
318.282	91.31
318.495	124.07
318.709	-7
318.922	72.87
319.136	165.03
319.349	95.4
319.563	-17.24
319.776	33.96
319.99	-29.52
320.203	132.26
320.417	48.3
320.63	81.07
320.843	99.5
321.057	115.88
321.27	29.87
321.483	11.43
321.697	130.22
321.91	42.15
322.124	91.31
322.337	46.25
322.55	-43.86
322.763	107.69
322.977	72.87
323.19	58.54
323.403	58.54
323.617	5.29
323.83	122.02
324.043	7.34
324.256	13.48
324.469	-95.06
324.683	105.64
324.896	-35.67
325.109	58.54
325.322	-23.38
325.535	154.79
325.748	134.31
325.962	54.44
326.175	17.58
326.388	99.5
326.601	146.6
326.814	5.29
327.027	119.98
327.24	150.7
327.453	9.39
327.666	124.07
327.879	140.46
328.092	130.22
328.305	15.53
328.518	-54.1
328.731	54.44
328.944	-11.09
329.157	146.6
329.37	58.54
329.583	175.27
329.796	136.36
330.009	36.01
330.222	99.5
330.435	122.02
330.648	64.68
330.861	25.77
331.073	119.98
331.286	150.7
331.499	40.11
331.712	-29.52
331.925	9.39
332.138	46.25
332.35	95.4
332.563	48.3
332.776	74.92
332.989	-52.05
333.202	74.92
333.414	17.58
333.627	31.91
333.84	9.39
334.053	66.73
334.265	119.98
334.478	54.44
334.691	13.48
334.903	85.16
335.116	-64.34
335.329	42.15
335.541	33.96
335.754	179.37
335.966	31.91
336.179	83.11
336.392	25.77
336.604	-33.62
336.817	107.69
337.029	54.44
337.242	15.53
337.454	76.97
337.667	-37.72
337.88	148.65
338.092	25.77
338.305	105.64
338.517	15.53
338.729	134.31
338.942	146.6
339.154	-11.09
339.367	-72.53
339.579	130.22
339.792	-31.57
340.004	29.87
340.217	97.45
340.429	42.15
340.641	-19.29
340.854	19.63
341.066	17.58
341.278	138.41
341.491	195.75
341.703	38.06
341.915	-11.09
342.128	79.02
342.34	-13.14
342.552	11.43
342.764	130.22
342.977	25.77
343.189	52.39
343.401	64.68
343.613	-25.43
343.826	101.55
344.038	-86.87
344.25	27.82
344.462	29.87
344.674	62.63
344.886	-29.52
345.099	50.35
345.311	74.92
345.523	21.67
345.735	-72.53
345.947	23.72
346.159	13.48
346.371	79.02
346.583	11.43
346.795	162.98
347.007	-11.09
347.219	15.53
347.431	91.31
347.643	113.83
347.855	60.59
348.067	68.78
348.279	-60.24
348.491	15.53
348.703	99.5
348.915	79.02
349.127	15.53
349.339	-29.52
349.551	-41.81
349.763	66.73
349.975	33.96
350.187	105.64
350.399	140.46
350.61	19.63
350.822	-19.29
351.034	15.53
351.246	56.49
351.458	-23.38
351.669	60.59
351.881	183.46
352.093	66.73
352.305	74.92
352.517	76.97
352.728	124.07
352.94	95.4
353.152	31.91
353.363	36.01
353.575	36.01
353.787	199.85
353.999	33.96
354.21	148.65
354.422	-56.15
354.633	25.77
354.845	33.96
355.057	-23.38
355.268	74.92
355.48	179.37
355.692	-43.86
355.903	91.31
356.115	9.39
356.326	-52.05
356.538	107.69
356.749	119.98
356.961	115.88
357.172	31.91
357.384	5.29
357.595	171.18
357.807	29.87
358.018	17.58
358.23	46.25
358.441	169.13
358.653	134.31
358.864	113.83
359.075	58.54
359.287	72.87
359.498	58.54
359.709	83.11
359.921	5.29
360.132	95.4
360.344	31.91
360.555	54.44
360.766	48.3
360.977	33.96
361.189	105.64
361.4	-0.85
361.611	19.63
361.823	27.82
362.034	109.74
362.245	-82.77
362.456	38.06
362.667	42.15
362.879	72.87
363.09	134.31
363.301	25.77
363.512	109.74
363.723	25.77
363.935	5.29
364.146	83.11
364.357	11.43
364.568	-11.09
364.779	-27.48
364.99	97.45
365.201	48.3
365.412	111.78
365.623	-52.05
365.834	66.73
366.045	72.87
366.256	66.73
366.467	144.55
366.678	29.87
366.889	52.39
367.1	-21.33
367.311	52.39
367.522	-11.09
367.733	13.48
367.944	117.93
368.155	-72.53
368.366	70.83
368.577	58.54
368.788	146.6
368.999	-23.38
369.209	103.59
369.42	148.65
369.631	187.56
369.842	132.26
370.053	83.11
370.264	76.97
370.474	25.77
370.685	76.97
370.896	3.24
371.107	156.84
371.317	74.92
371.528	27.82
371.739	64.68
371.95	46.25
372.16	62.63
372.371	-23.38
372.582	54.44
372.792	126.12
373.003	38.06
373.214	60.59
373.424	119.98
373.635	-64.34
373.846	138.41
374.056	15.53
374.267	58.54
374.477	64.68
374.688	-64.34
374.898	83.11
375.109	42.15
375.319	91.31
375.53	111.78
375.74	140.46
375.951	-7
376.161	36.01
376.372	111.78
376.582	46.25
376.793	128.17
377.003	17.58
377.214	54.44
377.424	68.78
377.635	38.06
377.845	-7
378.055	177.32
378.266	-86.87
378.476	23.72
378.686	3.24
378.897	119.98
379.107	50.35
379.317	66.73
379.528	60.59
379.738	144.55
379.948	-7
380.158	70.83
380.369	87.21
380.579	60.59
380.789	-31.57
380.999	83.11
381.21	115.88
381.42	191.66
381.63	13.48
381.84	25.77
382.05	124.07
382.261	17.58
382.471	134.31
382.681	52.39
382.891	222.38
383.101	79.02
383.311	48.3
383.521	-11.09
383.731	97.45
383.941	76.97
384.151	97.45
384.361	5.29
384.571	13.48
384.781	9.39
384.991	179.37
385.201	205.99
385.411	72.87
385.621	87.21
385.831	85.16
386.041	56.49
386.251	58.54
386.461	169.13
386.671	40.11
386.881	83.11
387.091	21.67
387.301	185.51
387.511	95.4
387.72	144.55
387.93	136.36
388.14	-15.19
388.35	15.53
388.56	130.22
388.769	15.53
388.979	27.82
389.189	3.24
389.399	-4.95
389.609	62.63
389.818	21.67
390.028	33.96
390.238	74.92
390.447	-7
390.657	81.07
390.867	64.68
391.076	-74.58
391.286	29.87
391.496	74.92
391.705	27.82
391.915	128.17
392.125	103.59
392.334	33.96
392.544	140.46
392.753	58.54
392.963	13.48
393.172	81.07
393.382	46.25
393.591	81.07
393.801	52.39
394.01	134.31
394.22	154.79
394.429	68.78
394.639	19.63
394.848	99.5
395.058	31.91
395.267	66.73
395.477	74.92
395.686	72.87
395.895	232.62
396.105	177.32
396.314	72.87
396.524	17.58
396.733	64.68
396.942	113.83
397.152	95.4
397.361	175.27
397.57	52.39
397.78	76.97
397.989	-0.85
398.198	191.66
398.407	21.67
398.617	9.39
398.826	105.64
399.035	68.78
399.244	138.41
399.453	87.21
399.663	66.73
399.872	142.5
400.081	-13.14
400.29	144.55
400.499	40.11
400.708	97.45
400.917	68.78
401.127	21.67
401.336	23.72
401.545	126.12
401.754	89.26
401.963	138.41
402.172	-23.38
402.381	-13.14
402.59	85.16
402.799	-64.34
403.008	66.73
403.217	101.55
403.426	15.53
403.635	-31.57
403.844	60.59
404.053	44.2
404.262	-27.48
404.471	197.8
404.68	54.44
404.888	54.44
405.097	107.69
405.306	25.77
405.515	83.11
405.724	66.73
405.933	76.97
406.142	38.06
406.35	97.45
406.559	50.35
406.768	-17.24
406.977	62.63
407.185	103.59
407.394	81.07
407.603	11.43
407.812	152.74
408.02	62.63
408.229	97.45
408.438	89.26
408.646	-37.72
408.855	1.19
409.064	83.11
409.272	17.58
409.481	111.78
409.69	81.07
409.898	46.25
410.107	48.3
410.315	50.35
410.524	-7
410.733	138.41
410.941	-11.09
411.15	89.26
411.358	99.5
411.567	79.02
411.775	115.88
411.984	33.96
412.192	160.94
412.401	99.5
412.609	212.14
412.818	103.59
413.026	3.24
413.234	62.63
413.443	17.58
413.651	48.3
413.86	66.73
414.068	140.46
414.276	146.6
414.485	1.19
414.693	109.74
414.901	83.11
415.11	62.63
415.318	66.73
415.526	3.24
415.734	117.93
415.943	48.3
416.151	138.41
416.359	-4.95
416.567	19.63
416.776	91.31
416.984	99.5
417.192	97.45
417.4	17.58
417.608	21.67
417.817	-11.09
418.025	107.69
418.233	109.74
418.441	-39.76
418.649	-15.19
418.857	74.92
419.065	72.87
419.273	-7
419.481	81.07
419.689	38.06
419.897	85.16
420.105	52.39
420.313	185.51
420.521	105.64
420.729	126.12
420.937	42.15
421.145	-19.29
421.353	81.07
421.561	138.41
421.769	52.39
421.977	50.35
422.185	136.36
422.393	70.83
422.601	119.98
422.809	85.16
423.017	70.83
423.224	130.22
423.432	150.7
423.64	97.45
423.848	162.98
424.056	17.58
424.263	33.96
424.471	3.24
424.679	218.28
424.887	79.02
425.094	238.76
425.302	68.78
425.51	58.54
425.718	46.25
425.925	48.3
426.133	60.59
426.341	197.8
426.548	-35.67
426.756	97.45
426.964	195.75
427.171	9.39
427.379	79.02
427.586	122.02
427.794	91.31
428.001	210.09
428.209	76.97
428.417	171.18
428.624	205.99
428.832	136.36
429.039	91.31
429.247	126.12
429.454	171.18
429.662	220.33
429.869	203.94
430.076	144.55
430.284	119.98
430.491	236.71
430.699	111.78
430.906	189.61
431.114	181.42
431.321	193.7
431.528	169.13
431.736	97.45
431.943	117.93
432.15	246.95
432.358	150.7
432.565	326.82
432.772	79.02
432.979	220.33
433.187	119.98
433.394	226.47
433.601	173.22
433.808	255.14
434.016	330.92
434.223	300.2
434.43	269.48
434.637	378.02
434.844	337.06
435.052	328.87
435.259	257.19
435.466	269.48
435.673	361.64
435.88	378.02
436.087	343.21
436.294	478.37
436.501	394.4
436.708	294.05
436.915	433.32
437.122	414.88
437.329	332.97
437.537	410.79
437.743	455.84
437.95	533.67
438.157	418.98
438.364	404.64
438.571	464.04
438.778	498.85
438.985	502.95
439.192	498.85
439.399	502.95
439.606	662.69
439.813	623.78
440.02	775.33
440.227	771.23
440.433	701.6
440.64	742.56
440.847	674.98
441.054	760.99
441.261	920.73
441.467	779.42
441.674	664.74
441.881	906.4
442.088	836.77
442.294	871.58
442.501	926.88
442.708	982.17
442.914	1025.18
443.121	1074.33
443.328	1031.32
443.534	1072.28
443.741	1080.47
443.948	965.79
444.154	1289.37
444.361	1299.61
444.568	1244.31
444.774	1242.26
444.981	1328.28
445.187	1356.95
445.394	1451.16
445.6	1428.63
445.807	1645.71
446.013	1500.31
446.22	1608.85
446.426	1803.41
446.633	1830.03
446.839	2020.49
447.046	1856.65
447.252	1930.38
447.459	2077.83
447.665	2067.6
447.871	2215.05
448.078	2401.41
448.284	2301.06
448.491	2462.85
448.697	2624.64
448.903	2700.42
449.11	2708.61
449.316	2688.13
449.522	2964.61
449.728	3046.52
449.935	3163.26
450.141	3196.03
450.347	3443.83
450.553	3316.86
450.76	3409.01
450.966	3654.77
451.172	3830.9
451.378	3925.1
451.584	3951.73
451.791	4301.93
451.997	4541.54
452.203	4396.14
452.409	4678.76
452.615	4897.89
452.821	4803.68
453.027	4979.81
453.233	5573.72
453.44	5297.24
453.646	5573.72
453.852	5880.91
454.058	5981.26
454.264	6306.89
454.47	6726.72
454.676	6544.45
454.882	7124.03
455.088	6888.51
455.294	7304.25
455.5	7722.04
455.705	8158.25
455.911	8174.64
456.117	8367.15
456.323	8684.58
456.529	8633.38
456.735	9430.04
456.941	9913.36
457.147	9970.71
457.352	10146.83
457.558	10634.25
457.764	11398.14
457.97	11557.88
458.176	11983.86
458.381	12514.28
458.587	12893.16
458.793	13630.43
458.999	13771.74
459.204	15266.75
459.41	15774.65
459.616	15242.18
459.821	16448.43
460.027	17468.32
460.233	17906.59
460.438	17816.47
460.644	18883.47
460.85	19051.4
461.055	19936.12
461.261	20945.77
461.466	20366.2
461.672	20740.97
461.878	23069.51
462.083	23032.65
462.289	23774.02
462.494	24351.54
462.7	24474.42
462.905	24808.24
463.111	26923.79
463.316	27980.54
463.522	28619.51
463.727	29739.75
463.932	31148.75
464.138	31935.17
464.343	32963.25
464.549	33028.79
464.754	35572.36
464.959	36323.97
465.165	36676.22
465.37	36586.11
465.575	36674.17
465.781	39381.59
465.986	40434.24
466.191	39619.15
466.397	40114.76
466.602	39262.8
466.807	41593.39
467.012	42045.99
467.218	42666.53
467.423	42805.79
467.628	43907.6
467.833	45738.48
468.038	45685.23
468.244	44108.3
468.449	46987.74
468.654	45855.21
468.859	45926.89
469.064	46092.78
