Data from USB4F104151__107__10-35-56-024.txt Node

Date: Wed Feb 26 10:35:56 EST 2025
User: louis
Spectrometer: USB4F10415
Trigger mode: 4
Integration Time (sec): 1.000000E-1
Scans to average: 1
Electric dark correction enabled: true
Nonlinearity correction enabled: false
Boxcar width: 0
XAxis mode: Wavelengths
Number of Pixels in Spectrum: 3648
>>>>>Begin Spectral Data<<<<<
178.204	-450.89
178.424	-450.89
178.644	-450.89
178.864	-450.89
179.084	-446.8
179.304	18.09
179.524	5.8
179.744	-4.44
179.964	11.95
180.184	67.24
180.404	48.81
180.624	-6.49
180.844	83.63
181.064	-115.03
181.283	-47.44
181.503	-76.12
181.723	13.99
181.943	-84.31
182.163	136.87
182.383	-74.07
182.602	9.9
182.822	83.63
183.042	52.91
183.262	-51.54
183.482	-98.64
183.701	7.85
183.921	71.34
184.141	-6.49
184.361	54.95
184.58	3.75
184.8	20.14
185.02	-22.87
185.239	18.09
185.459	42.67
185.679	79.53
185.898	-49.49
186.118	-20.82
186.338	-43.35
186.557	130.73
186.777	-90.45
186.997	-98.64
187.216	-72.02
187.436	118.44
187.655	-16.73
187.875	124.58
188.095	9.9
188.314	161.45
188.534	91.82
188.753	-33.11
188.973	63.15
189.192	91.82
189.412	13.99
189.631	-18.77
189.851	24.23
190.07	100.01
190.29	-115.03
190.509	-76.12
190.729	5.8
190.948	100.01
191.168	253.61
191.387	30.38
191.607	-14.68
191.826	5.8
192.045	-84.31
192.265	-35.16
192.484	63.15
192.704	-31.06
192.923	-67.92
193.142	159.4
193.362	110.25
193.581	114.34
193.8	-63.83
194.02	61.1
194.239	11.95
194.458	40.62
194.678	-4.44
194.897	-31.06
195.116	-31.06
195.335	95.91
195.555	38.57
195.774	-24.92
195.993	97.96
196.212	-55.64
196.432	-43.35
196.651	-41.3
196.87	13.99
197.089	128.68
197.308	36.52
197.528	-8.53
197.747	-106.84
197.966	67.24
198.185	167.59
198.404	-145.75
198.623	81.58
198.842	59.05
199.062	79.53
199.281	79.53
199.5	48.81
199.719	36.52
199.938	9.9
200.157	77.48
200.376	16.04
200.595	-31.06
200.814	130.73
201.033	-39.25
201.252	140.97
201.471	46.76
201.69	-8.53
201.909	13.99
202.128	126.63
202.347	93.87
202.566	40.62
202.785	-78.16
203.004	-117.08
203.223	222.89
203.442	-49.49
203.661	-63.83
203.879	106.15
204.098	120.49
204.317	-41.3
204.536	-6.49
204.755	67.24
204.974	30.38
205.193	-47.44
205.411	118.44
205.63	81.58
205.849	11.95
206.068	30.38
206.287	1.71
206.505	110.25
206.724	16.04
206.943	-16.73
207.162	-80.21
207.381	38.57
207.599	16.04
207.818	79.53
208.037	-90.45
208.255	-2.39
208.474	18.09
208.693	9.9
208.911	7.85
209.13	91.82
209.349	57
209.567	20.14
209.786	38.57
210.005	-55.64
210.223	54.95
210.442	-67.92
210.661	50.86
210.879	67.24
211.098	44.71
211.316	42.67
211.535	-0.34
211.753	22.19
211.972	61.1
212.191	69.29
212.409	22.19
212.628	52.91
212.846	1.71
213.065	71.34
213.283	126.63
213.502	48.81
213.72	-47.44
213.938	-43.35
214.157	-26.96
214.375	93.87
214.594	7.85
214.812	30.38
215.031	-10.58
215.249	26.28
215.467	81.58
215.686	-14.68
215.904	85.67
216.122	-2.39
216.341	132.78
216.559	44.71
216.778	116.39
216.996	167.59
217.214	-20.82
217.432	1.71
217.651	-63.83
217.869	16.04
218.087	16.04
218.306	-12.63
218.524	91.82
218.742	61.1
218.96	50.86
219.179	36.52
219.397	-12.63
219.615	159.4
219.833	112.3
220.051	-4.44
220.27	67.24
220.488	26.28
220.706	-4.44
220.924	-82.26
221.142	-12.63
221.36	-22.87
221.578	13.99
221.796	-24.92
222.015	32.43
222.233	-6.49
222.451	34.47
222.669	-82.26
222.887	-14.68
223.105	-67.92
223.323	-12.63
223.541	-49.49
223.759	11.95
223.977	42.67
224.195	136.87
224.413	34.47
224.631	7.85
224.849	67.24
225.067	122.54
225.285	-26.96
225.503	3.75
225.721	-110.93
225.939	48.81
226.157	-4.44
226.375	208.55
226.592	-8.53
226.81	-82.26
227.028	124.58
227.246	102.06
227.464	-43.35
227.682	61.1
227.9	52.91
228.117	46.76
228.335	3.75
228.553	-43.35
228.771	28.33
228.989	1.71
229.206	59.05
229.424	24.23
229.642	-33.11
229.86	-12.63
230.077	114.34
230.295	-4.44
230.513	73.39
230.731	63.15
230.948	159.4
231.166	128.68
231.384	-14.68
231.601	-51.54
231.819	120.49
232.037	-2.39
232.254	-108.88
232.472	5.8
232.689	44.71
232.907	-14.68
233.125	-26.96
233.342	-49.49
233.56	11.95
233.777	-31.06
233.995	5.8
234.213	106.15
234.43	22.19
234.648	30.38
234.865	-41.3
235.083	75.43
235.3	28.33
235.518	75.43
235.735	71.34
235.953	69.29
236.17	24.23
236.388	20.14
236.605	-39.25
236.822	50.86
237.04	67.24
237.257	52.91
237.475	-61.78
237.692	40.62
237.909	61.1
238.127	13.99
238.344	50.86
238.562	18.09
238.779	-39.25
238.996	-67.92
239.214	-53.59
239.431	71.34
239.648	-61.78
239.865	114.34
240.083	75.43
240.3	-53.59
240.517	-102.74
240.735	63.15
240.952	-0.34
241.169	48.81
241.386	97.96
241.603	11.95
241.821	-86.36
242.038	87.72
242.255	106.15
242.472	-100.69
242.689	48.81
242.907	83.63
243.124	46.76
243.341	-0.34
243.558	-57.68
243.775	5.8
243.992	-90.45
244.209	28.33
244.426	134.82
244.643	65.19
244.86	9.9
245.078	54.95
245.295	102.06
245.512	5.8
245.729	-0.34
245.946	-20.82
246.163	5.8
246.38	-6.49
246.597	26.28
246.814	63.15
247.031	-10.58
247.248	7.85
247.464	65.19
247.681	130.73
247.898	9.9
248.115	7.85
248.332	-117.08
248.549	102.06
248.766	50.86
248.983	93.87
249.2	85.67
249.417	71.34
249.633	38.57
249.85	18.09
250.067	13.99
250.284	-31.06
250.501	104.11
250.717	16.04
250.934	-43.35
251.151	9.9
251.368	-33.11
251.585	20.14
251.801	24.23
252.018	-6.49
252.235	122.54
252.451	-33.11
252.668	-47.44
252.885	102.06
253.102	-4.44
253.318	67.24
253.535	-45.4
253.752	-53.59
253.968	13.99
254.185	-155.99
254.401	-74.07
254.618	93.87
254.835	-35.16
255.051	91.82
255.268	89.77
255.484	114.34
255.701	65.19
255.917	63.15
256.134	-123.22
256.351	-2.39
256.567	-35.16
256.784	-88.4
257	-96.6
257.217	126.63
257.433	44.71
257.65	57
257.866	134.82
258.082	-67.92
258.299	-33.11
258.515	40.62
258.732	-8.53
258.948	3.75
259.165	38.57
259.381	87.72
259.597	54.95
259.814	-8.53
260.03	-33.11
260.246	-10.58
260.463	124.58
260.679	46.76
260.895	7.85
261.112	9.9
261.328	3.75
261.544	-63.83
261.761	85.67
261.977	-100.69
262.193	-86.36
262.409	71.34
262.626	61.1
262.842	77.48
263.058	-24.92
263.274	112.3
263.49	57
263.707	26.28
263.923	-12.63
264.139	-108.88
264.355	20.14
264.571	48.81
264.787	54.95
265.004	59.05
265.22	-29.01
265.436	-0.34
265.652	-53.59
265.868	11.95
266.084	-14.68
266.3	3.75
266.516	-24.92
266.732	-20.82
266.948	77.48
267.164	-125.27
267.38	65.19
267.596	-6.49
267.812	91.82
268.028	-10.58
268.244	-35.16
268.46	36.52
268.676	-29.01
268.892	102.06
269.108	7.85
269.324	-16.73
269.54	-49.49
269.756	85.67
269.972	-51.54
270.188	71.34
270.403	-55.64
270.619	-31.06
270.835	87.72
271.051	11.95
271.267	-74.07
271.483	44.71
271.698	52.91
271.914	63.15
272.13	13.99
272.346	-33.11
272.562	26.28
272.777	155.3
272.993	-74.07
273.209	-92.5
273.425	40.62
273.64	7.85
273.856	-16.73
274.072	-100.69
274.287	-72.02
274.503	34.47
274.719	71.34
274.934	-55.64
275.15	-78.16
275.366	-2.39
275.581	-8.53
275.797	-8.53
276.012	-10.58
276.228	-33.11
276.444	83.63
276.659	46.76
276.875	-43.35
277.09	24.23
277.306	28.33
277.521	38.57
277.737	-0.34
277.952	28.33
278.168	44.71
278.383	-8.53
278.599	34.47
278.814	118.44
279.03	-65.88
279.245	79.53
279.461	-39.25
279.676	-20.82
279.892	-100.69
280.107	-141.65
280.322	-78.16
280.538	-12.63
280.753	20.14
280.969	9.9
281.184	28.33
281.399	149.16
281.615	65.19
281.83	5.8
282.045	-74.07
282.26	-14.68
282.476	57
282.691	18.09
282.906	89.77
283.122	16.04
283.337	-31.06
283.552	11.95
283.767	-18.77
283.983	112.3
284.198	-29.01
284.413	73.39
284.628	-65.88
284.843	40.62
285.058	20.14
285.274	-29.01
285.489	-96.6
285.704	-35.16
285.919	-24.92
286.134	24.23
286.349	-8.53
286.564	-37.2
286.779	89.77
286.995	-35.16
287.21	3.75
287.425	36.52
287.64	-14.68
287.855	11.95
288.07	-123.22
288.285	138.92
288.5	108.2
288.715	87.72
288.93	102.06
289.145	-2.39
289.36	65.19
289.575	-84.31
289.79	52.91
290.004	-24.92
290.219	28.33
290.434	-35.16
290.649	-59.73
290.864	-29.01
291.079	7.85
291.294	3.75
291.509	32.43
291.724	18.09
291.938	-2.39
292.153	-88.4
292.368	46.76
292.583	22.19
292.798	67.24
293.012	30.38
293.227	26.28
293.442	-24.92
293.657	71.34
293.871	67.24
294.086	112.3
294.301	159.4
294.516	61.1
294.73	44.71
294.945	-63.83
295.16	-22.87
295.374	30.38
295.589	173.74
295.804	-8.53
296.018	-59.73
296.233	71.34
296.447	91.82
296.662	-14.68
296.877	89.77
297.091	1.71
297.306	-16.73
297.52	-2.39
297.735	79.53
297.949	-16.73
298.164	46.76
298.378	3.75
298.593	-92.5
298.807	-57.68
299.022	-14.68
299.236	120.49
299.451	-22.87
299.665	-43.35
299.88	50.86
300.094	77.48
300.309	-10.58
300.523	26.28
300.737	-22.87
300.952	32.43
301.166	118.44
301.381	-6.49
301.595	24.23
301.809	85.67
302.024	-31.06
302.238	-69.97
302.452	120.49
302.667	5.8
302.881	124.58
303.095	42.67
303.309	54.95
303.524	38.57
303.738	-59.73
303.952	-14.68
304.166	26.28
304.381	-37.2
304.595	79.53
304.809	-16.73
305.023	48.81
305.237	-31.06
305.452	13.99
305.666	36.52
305.88	77.48
306.094	-65.88
306.308	-16.73
306.522	-6.49
306.736	28.33
306.95	83.63
307.164	-49.49
307.379	52.91
307.593	165.54
307.807	79.53
308.021	-10.58
308.235	52.91
308.449	-59.73
308.663	-26.96
308.877	208.55
309.091	36.52
309.305	5.8
309.519	-104.79
309.733	198.31
309.947	-67.92
310.161	108.2
310.374	40.62
310.588	126.63
310.802	-65.88
311.016	-18.77
311.23	26.28
311.444	-67.92
311.658	-24.92
311.872	126.63
312.085	114.34
312.299	97.96
312.513	138.92
312.727	-18.77
312.941	-78.16
313.154	13.99
313.368	-4.44
313.582	-2.39
313.796	9.9
314.009	16.04
314.223	157.35
314.437	50.86
314.651	75.43
314.864	-47.44
315.078	-98.64
315.292	-37.2
315.505	-43.35
315.719	108.2
315.933	22.19
316.146	-67.92
316.36	-78.16
316.573	54.95
316.787	36.52
317.001	-12.63
317.214	-31.06
317.428	34.47
317.641	-20.82
317.855	-6.49
318.068	-10.58
318.282	-72.02
318.495	83.63
318.709	54.95
318.922	1.71
319.136	173.74
319.349	22.19
319.563	-80.21
319.776	-31.06
319.99	-63.83
320.203	83.63
320.417	-26.96
320.63	93.87
320.843	190.12
321.057	40.62
321.27	-6.49
321.483	40.62
321.697	120.49
321.91	87.72
322.124	61.1
322.337	-18.77
322.55	-72.02
322.763	-8.53
322.977	-8.53
323.19	-67.92
323.403	46.76
323.617	52.91
323.83	138.92
324.043	-20.82
324.256	1.71
324.469	-92.5
324.683	57
324.896	24.23
325.109	42.67
325.322	-119.12
325.535	83.63
325.748	34.47
325.962	-0.34
326.175	11.95
326.388	140.97
326.601	48.81
326.814	52.91
327.027	46.76
327.24	93.87
327.453	-84.31
327.666	-0.34
327.879	163.5
328.092	28.33
328.305	44.71
328.518	1.71
328.731	13.99
328.944	-26.96
329.157	61.1
329.37	-35.16
329.583	59.05
329.796	102.06
330.009	-108.88
330.222	22.19
330.435	149.16
330.648	52.91
330.861	69.29
331.073	116.39
331.286	71.34
331.499	7.85
331.712	9.9
331.925	65.19
332.138	22.19
332.35	22.19
332.563	-45.4
332.776	34.47
332.989	-4.44
333.202	-31.06
333.414	20.14
333.627	3.75
333.84	-74.07
334.053	85.67
334.265	16.04
334.478	-61.78
334.691	-22.87
334.903	9.9
335.116	-59.73
335.329	-8.53
335.541	11.95
335.754	26.28
335.966	42.67
336.179	-43.35
336.392	52.91
336.604	16.04
336.817	54.95
337.029	75.43
337.242	32.43
337.454	32.43
337.667	-43.35
337.88	216.74
338.092	-29.01
338.305	50.86
338.517	-53.59
338.729	77.48
338.942	167.59
339.154	-119.12
339.367	-112.98
339.579	159.4
339.792	44.71
340.004	24.23
340.217	-39.25
340.429	5.8
340.641	-98.64
340.854	-127.32
341.066	-39.25
341.278	114.34
341.491	192.17
341.703	-18.77
341.915	-59.73
342.128	54.95
342.34	77.48
342.552	34.47
342.764	67.24
342.977	-12.63
343.189	-63.83
343.401	54.95
343.613	-155.99
343.826	-37.2
344.038	-59.73
344.25	59.05
344.462	-65.88
344.674	-6.49
344.886	24.23
345.099	36.52
345.311	22.19
345.523	-76.12
345.735	-90.45
345.947	1.71
346.159	48.81
346.371	-31.06
346.583	-20.82
346.795	237.22
347.007	38.57
347.219	77.48
347.431	-18.77
347.643	91.82
347.855	-10.58
348.067	87.72
348.279	-67.92
348.491	-29.01
348.703	24.23
348.915	-33.11
349.127	-0.34
349.339	-0.34
349.551	28.33
349.763	67.24
349.975	57
350.187	42.67
350.399	73.39
350.61	112.3
350.822	-106.84
351.034	102.06
351.246	65.19
351.458	67.24
351.669	40.62
351.881	97.96
352.093	38.57
352.305	63.15
352.517	85.67
352.728	108.2
352.94	120.49
353.152	71.34
353.363	-65.88
353.575	-2.39
353.787	83.63
353.999	77.48
354.21	202.41
354.422	-76.12
354.633	-10.58
354.845	-26.96
355.057	63.15
355.268	65.19
355.48	81.58
355.692	-61.78
355.903	7.85
356.115	-100.69
356.326	-170.32
356.538	173.74
356.749	77.48
356.961	106.15
357.172	73.39
357.384	-108.88
357.595	206.5
357.807	-18.77
358.018	42.67
358.23	-26.96
358.441	87.72
358.653	63.15
358.864	-26.96
359.075	-104.79
359.287	61.1
359.498	124.58
359.709	89.77
359.921	16.04
360.132	7.85
360.344	26.28
360.555	-127.32
360.766	-6.49
360.977	-39.25
361.189	50.86
361.4	50.86
361.611	89.77
361.823	149.16
362.034	42.67
362.245	-57.68
362.456	3.75
362.667	48.81
362.879	16.04
363.09	-47.44
363.301	161.45
363.512	9.9
363.723	-12.63
363.935	-88.4
364.146	11.95
364.357	26.28
364.568	-49.49
364.779	-37.2
364.99	42.67
365.201	-2.39
365.412	22.19
365.623	-55.64
365.834	59.05
366.045	63.15
366.256	120.49
366.467	34.47
366.678	38.57
366.889	73.39
367.1	16.04
367.311	22.19
367.522	30.38
367.733	81.58
367.944	52.91
368.155	-31.06
368.366	5.8
368.577	181.93
368.788	32.43
368.999	28.33
369.209	9.9
369.42	188.07
369.631	190.12
369.842	100.01
370.053	-80.21
370.264	30.38
370.474	-84.31
370.685	54.95
370.896	22.19
371.107	48.81
371.317	75.43
371.528	48.81
371.739	128.68
371.95	48.81
372.16	69.29
372.371	-20.82
372.582	-37.2
372.792	1.71
373.003	16.04
373.214	-20.82
373.424	-43.35
373.635	-16.73
373.846	118.44
374.056	91.82
374.267	87.72
374.477	26.28
374.688	-45.4
374.898	-10.58
375.109	26.28
375.319	30.38
375.53	93.87
375.74	-14.68
375.951	-2.39
376.161	71.34
376.372	22.19
376.582	-33.11
376.793	5.8
377.003	-84.31
377.214	16.04
377.424	40.62
377.635	54.95
377.845	-2.39
378.055	91.82
378.266	-63.83
378.476	-18.77
378.686	46.76
378.897	16.04
379.107	126.63
379.317	48.81
379.528	-41.3
379.738	106.15
379.948	-82.26
380.158	40.62
380.369	7.85
380.579	20.14
380.789	20.14
380.999	61.1
381.21	13.99
381.42	222.89
381.63	20.14
381.84	11.95
382.05	48.81
382.261	89.77
382.471	151.21
382.681	18.09
382.891	108.2
383.101	44.71
383.311	-80.21
383.521	-65.88
383.731	22.19
383.941	91.82
384.151	79.53
384.361	-26.96
384.571	52.91
384.781	24.23
384.991	153.26
385.201	128.68
385.411	59.05
385.621	77.48
385.831	-41.3
386.041	75.43
386.251	77.48
386.461	124.58
386.671	-63.83
386.881	1.71
387.091	36.52
387.301	138.92
387.511	24.23
387.72	-22.87
387.93	81.58
388.14	-72.02
388.35	42.67
388.56	200.36
388.769	112.3
388.979	30.38
389.189	-16.73
389.399	5.8
389.609	40.62
389.818	3.75
390.028	57
390.238	3.75
390.447	-78.16
390.657	30.38
390.867	-6.49
391.076	-10.58
391.286	30.38
391.496	36.52
391.705	-20.82
391.915	190.12
392.125	143.02
392.334	-69.97
392.544	171.69
392.753	-14.68
392.963	5.8
393.172	-4.44
393.382	3.75
393.591	157.35
393.801	-41.3
394.01	145.06
394.22	71.34
394.429	26.28
394.639	-24.92
394.848	81.58
395.058	65.19
395.267	-4.44
395.477	36.52
395.686	46.76
395.895	171.69
396.105	179.88
396.314	116.39
396.524	26.28
396.733	16.04
396.942	57
397.152	77.48
397.361	110.25
397.57	48.81
397.78	5.8
397.989	46.76
398.198	175.78
398.407	-43.35
398.617	7.85
398.826	48.81
399.035	-14.68
399.244	97.96
399.453	-20.82
399.663	136.87
399.872	75.43
400.081	-65.88
400.29	73.39
400.499	-53.59
400.708	157.35
400.917	26.28
401.127	-16.73
401.336	38.57
401.545	63.15
401.754	75.43
401.963	126.63
402.172	7.85
402.381	-55.64
402.59	65.19
402.799	28.33
403.008	81.58
403.217	54.95
403.426	40.62
403.635	-49.49
403.844	18.09
404.053	36.52
404.262	-86.36
404.471	149.16
404.68	11.95
404.888	24.23
405.097	-41.3
405.306	26.28
405.515	34.47
405.724	9.9
405.933	77.48
406.142	9.9
406.35	130.73
406.559	22.19
406.768	32.43
406.977	169.64
407.185	89.77
407.394	95.91
407.603	-149.84
407.812	36.52
408.02	155.3
408.229	-8.53
408.438	65.19
408.646	-86.36
408.855	-4.44
409.064	38.57
409.272	22.19
409.481	34.47
409.69	-61.78
409.898	-26.96
410.107	108.2
410.315	112.3
410.524	52.91
410.733	38.57
410.941	-26.96
411.15	85.67
411.358	61.1
411.567	153.26
411.775	-26.96
411.984	-2.39
412.192	22.19
412.401	30.38
412.609	173.74
412.818	79.53
413.026	13.99
413.234	-8.53
413.443	5.8
413.651	-67.92
413.86	52.91
414.068	134.82
414.276	124.58
414.485	-63.83
414.693	153.26
414.901	134.82
415.11	102.06
415.318	-10.58
415.526	73.39
415.734	95.91
415.943	42.67
416.151	75.43
416.359	59.05
416.567	67.24
416.776	22.19
416.984	52.91
417.192	122.54
417.4	-59.73
417.608	38.57
417.817	30.38
418.025	93.87
418.233	104.11
418.441	-8.53
418.649	-33.11
418.857	48.81
419.065	177.83
419.273	-14.68
419.481	40.62
419.689	5.8
419.897	11.95
420.105	-104.79
420.313	18.09
420.521	54.95
420.729	157.35
420.937	24.23
421.145	-67.92
421.353	57
421.561	181.93
421.769	30.38
421.977	-22.87
422.185	122.54
422.393	3.75
422.601	93.87
422.809	34.47
423.017	100.01
423.224	52.91
423.432	140.97
423.64	65.19
423.848	93.87
424.056	11.95
424.263	87.72
424.471	57
424.679	83.63
424.887	-63.83
425.094	59.05
425.302	93.87
425.51	9.9
425.718	57
425.925	128.68
426.133	-45.4
426.341	167.59
426.548	46.76
426.756	50.86
426.964	100.01
427.171	-45.4
427.379	32.43
427.586	59.05
427.794	120.49
428.001	116.39
428.209	97.96
428.417	157.35
428.624	-2.39
428.832	61.1
429.039	34.47
429.247	52.91
429.454	67.24
429.662	136.87
429.869	73.39
430.076	54.95
430.284	83.63
430.491	177.83
430.699	159.4
430.906	165.54
431.114	50.86
431.321	118.44
431.528	91.82
431.736	100.01
431.943	100.01
432.15	118.44
432.358	110.25
432.565	167.59
432.772	-63.83
432.979	206.5
433.187	63.15
433.394	147.11
433.601	75.43
433.808	231.08
434.016	235.18
434.223	190.12
434.43	165.54
434.637	315.05
434.844	284.33
435.052	231.08
435.259	241.32
435.466	224.94
435.673	265.89
435.88	212.65
436.087	220.84
436.294	327.33
436.501	265.89
436.708	153.26
436.915	296.61
437.122	296.61
437.329	102.06
437.537	349.86
437.743	319.14
437.95	433.83
438.157	308.9
438.364	489.12
438.571	390.82
438.778	358.05
438.985	411.3
439.192	503.46
439.399	419.49
439.606	476.84
439.813	530.08
440.02	644.77
440.227	648.86
440.433	521.89
440.64	476.84
440.847	464.55
441.054	562.85
441.261	691.87
441.467	601.76
441.674	534.18
441.881	691.87
442.088	644.77
442.294	755.36
442.501	802.46
442.708	816.8
442.914	808.61
443.121	792.22
443.328	837.28
443.534	974.49
443.741	868
443.948	792.22
444.154	958.11
444.361	1107.61
444.568	1093.27
444.774	1021.6
444.981	921.24
445.187	1136.28
445.394	1109.66
445.6	1136.28
445.807	1267.35
446.013	1265.3
446.22	1287.83
446.426	1400.47
446.633	1490.58
446.839	1652.37
447.046	1406.61
447.252	1662.61
447.459	1621.65
447.665	1674.9
447.871	1791.63
448.078	1910.41
448.284	1949.32
448.491	1994.38
448.697	2094.73
448.903	2150.03
449.11	2174.6
449.316	2074.25
449.522	2317.96
449.728	2475.65
449.935	2551.43
450.141	2432.65
450.347	2694.79
450.553	2715.27
450.76	2770.56
450.966	3044.99
451.172	2926.21
451.378	3110.52
451.584	3139.19
451.791	3444.34
451.997	3655.28
452.203	3643
452.409	3743.35
452.615	3972.72
452.821	3763.83
453.027	3812.98
453.233	4327.02
453.44	4310.63
453.646	4435.56
453.852	4828.77
454.058	5004.89
454.264	5037.66
454.47	5205.6
454.676	5346.91
454.882	5752.4
455.088	5619.28
455.294	5848.66
455.5	6153.8
455.705	6573.64
455.911	6549.06
456.117	6805.06
456.323	7259.71
456.529	6995.52
456.735	7710.26
456.941	7925.3
457.147	8361.52
457.352	8281.64
457.558	8654.37
457.764	9104.93
457.97	9457.18
458.176	9770.52
458.381	10206.73
458.587	10452.49
458.793	10966.53
458.999	10923.52
459.204	12248.56
459.41	12778.98
459.616	12484.08
459.821	13235.68
460.027	13807.06
460.233	14493.13
460.438	14493.13
460.644	15320.51
460.85	15676.86
461.055	16373.17
461.261	17010.09
461.466	16663.98
461.672	16987.56
461.878	18746.76
462.083	18752.91
462.289	19002.76
462.494	19824
462.7	20008.31
462.905	20266.36
463.111	21753.18
463.316	22938.96
463.522	23117.13
463.727	23954.75
463.932	25244.97
464.138	25750.82
464.343	26756.37
464.549	27032.85
464.754	29361.39
464.959	30037.22
465.165	30045.41
465.37	29744.36
465.575	30125.28
465.781	32060.61
465.986	33029.3
466.191	32720.06
466.397	32767.16
466.602	32257.21
466.807	34038.95
467.012	34667.67
467.218	35212.43
467.423	35241.1
467.628	36129.92
467.833	38024.29
468.038	37203.06
468.244	36623.48
468.449	38282.34
