Data from USB4F104151__73__10-32-20-549.txt Node

Date: Wed Feb 26 10:32:20 EST 2025
User: louis
Spectrometer: USB4F10415
Trigger mode: 4
Integration Time (sec): 1.000000E-1
Scans to average: 1
Electric dark correction enabled: true
Nonlinearity correction enabled: false
Boxcar width: 0
XAxis mode: Wavelengths
Number of Pixels in Spectrum: 3648
>>>>>Begin Spectral Data<<<<<
178.204	-453.11
178.424	-453.11
178.644	-453.11
178.864	-399.87
179.084	-301.56
179.304	-16.9
179.524	30.21
179.744	22.02
179.964	112.13
180.184	13.82
180.404	77.31
180.624	-12.8
180.844	-107.01
181.064	-84.48
181.283	54.78
181.503	-64
181.723	-25.09
181.943	-84.48
182.163	230.91
182.383	5.63
182.602	87.55
182.822	243.2
183.042	116.22
183.262	-18.94
183.482	93.69
183.701	85.5
183.921	126.46
184.141	28.16
184.361	146.94
184.58	89.6
184.8	85.5
185.02	22.02
185.239	48.64
185.459	50.69
185.679	206.33
185.898	-18.94
186.118	67.07
186.338	165.37
186.557	146.94
186.777	40.45
186.997	58.88
187.216	105.98
187.436	183.81
187.655	85.5
187.875	40.45
188.095	60.93
188.314	132.61
188.534	200.19
188.753	-25.09
188.973	71.17
189.192	189.95
189.412	62.98
189.631	112.13
189.851	99.84
190.07	212.48
190.29	-41.47
190.509	-0.51
190.729	32.26
190.948	196.09
191.168	261.63
191.387	157.18
191.607	24.06
191.826	99.84
192.045	52.74
192.265	-59.9
192.484	97.79
192.704	7.68
192.923	1.54
193.142	140.8
193.362	126.46
193.581	167.42
193.8	93.69
194.02	202.24
194.239	56.83
194.458	161.28
194.678	3.58
194.897	40.45
195.116	108.03
195.335	67.07
195.555	75.26
195.774	24.06
195.993	95.74
196.212	71.17
196.432	89.6
196.651	17.92
196.87	105.98
197.089	323.07
197.308	122.37
197.528	136.7
197.747	-0.51
197.966	116.22
198.185	167.42
198.404	118.27
198.623	157.18
198.842	165.37
199.062	71.17
199.281	237.05
199.5	60.93
199.719	138.75
199.938	142.85
200.157	77.31
200.376	132.61
200.595	134.65
200.814	120.32
201.033	44.54
201.252	167.42
201.471	52.74
201.69	206.33
201.909	93.69
202.128	130.56
202.347	48.64
202.566	46.59
202.785	-6.66
203.004	36.35
203.223	239.1
203.442	3.58
203.661	-18.94
203.879	65.02
204.098	103.93
204.317	-14.85
204.536	151.04
204.755	132.61
204.974	146.94
205.193	93.69
205.411	206.33
205.63	108.03
205.849	108.03
206.068	19.97
206.287	46.59
206.505	151.04
206.724	-8.7
206.943	46.59
207.162	15.87
207.381	95.74
207.599	77.31
207.818	110.08
208.037	-57.86
208.255	42.5
208.474	159.23
208.693	-35.33
208.911	108.03
209.13	83.45
209.349	93.69
209.567	56.83
209.786	118.27
210.005	83.45
210.223	136.7
210.442	-72.19
210.661	58.88
210.879	108.03
211.098	71.17
211.316	97.79
211.535	136.7
211.753	56.83
211.972	118.27
212.191	87.55
212.409	91.65
212.628	140.8
212.846	34.3
213.065	73.21
213.283	83.45
213.502	46.59
213.72	93.69
213.938	13.82
214.157	50.69
214.375	142.85
214.594	130.56
214.812	165.37
215.031	30.21
215.249	54.78
215.467	85.5
215.686	122.37
215.904	169.47
216.122	136.7
216.341	175.61
216.559	77.31
216.778	198.14
216.996	220.67
217.214	101.89
217.432	-14.85
217.651	22.02
217.869	48.64
218.087	118.27
218.306	-2.56
218.524	142.85
218.742	56.83
218.96	83.45
219.179	101.89
219.397	11.78
219.615	245.24
219.833	97.79
220.051	34.3
220.27	202.24
220.488	124.41
220.706	124.41
220.924	17.92
221.142	71.17
221.36	73.21
221.578	71.17
221.796	38.4
222.015	105.98
222.233	153.09
222.451	192
222.669	-29.18
222.887	73.21
223.105	13.82
223.323	34.3
223.541	19.97
223.759	165.37
223.977	120.32
224.195	288.25
224.413	132.61
224.631	48.64
224.849	148.99
225.067	261.63
225.285	83.45
225.503	28.16
225.721	26.11
225.939	40.45
226.157	161.28
226.375	251.39
226.592	17.92
226.81	65.02
227.028	210.43
227.246	110.08
227.464	54.78
227.682	89.6
227.9	42.5
228.117	83.45
228.335	65.02
228.553	65.02
228.771	177.66
228.989	71.17
229.206	134.65
229.424	50.69
229.642	75.26
229.86	-16.9
230.077	148.99
230.295	50.69
230.513	124.41
230.731	140.8
230.948	169.47
231.166	110.08
231.384	73.21
231.601	11.78
231.819	198.14
232.037	24.06
232.254	15.87
232.472	50.69
232.689	-20.99
232.907	110.08
233.125	-33.28
233.342	1.54
233.56	11.78
233.777	52.74
233.995	46.59
234.213	161.28
234.43	259.58
234.648	81.41
234.865	5.63
235.083	144.89
235.3	89.6
235.518	163.33
235.735	159.23
235.953	130.56
236.17	13.82
236.388	-31.23
236.605	93.69
236.822	124.41
237.04	112.13
237.257	132.61
237.475	-47.62
237.692	-31.23
237.909	151.04
238.127	40.45
238.344	134.65
238.562	62.98
238.779	-43.52
238.996	3.58
239.214	95.74
239.431	153.09
239.648	71.17
239.865	130.56
240.083	116.22
240.3	83.45
240.517	26.11
240.735	42.5
240.952	171.52
241.169	87.55
241.386	269.82
241.603	-0.51
241.821	-31.23
242.038	87.55
242.255	122.37
242.472	30.21
242.689	91.65
242.907	56.83
243.124	77.31
243.341	114.17
243.558	-51.71
243.775	-23.04
243.992	-80.38
244.209	126.46
244.426	163.33
244.643	71.17
244.86	79.36
245.078	157.18
245.295	62.98
245.512	77.31
245.729	11.78
245.946	79.36
246.163	134.65
246.38	11.78
246.597	151.04
246.814	15.87
247.031	56.83
247.248	52.74
247.464	148.99
247.681	103.93
247.898	67.07
248.115	124.41
248.332	32.26
248.549	132.61
248.766	177.66
248.983	171.52
249.2	67.07
249.417	146.94
249.633	75.26
249.85	116.22
250.067	17.92
250.284	56.83
250.501	126.46
250.717	155.13
250.934	11.78
251.151	56.83
251.368	3.58
251.585	81.41
251.801	89.6
252.018	-37.38
252.235	126.46
252.451	-43.52
252.668	44.54
252.885	140.8
253.102	87.55
253.318	-0.51
253.535	28.16
253.752	11.78
253.968	-4.61
254.185	-31.23
254.401	153.09
254.618	75.26
254.835	50.69
255.051	181.76
255.268	67.07
255.484	183.81
255.701	50.69
255.917	65.02
256.134	-74.24
256.351	79.36
256.567	-25.09
256.784	26.11
257	-10.75
257.217	183.81
257.433	128.51
257.65	26.11
257.866	148.99
258.082	44.54
258.299	34.3
258.515	67.07
258.732	-0.51
258.948	30.21
259.165	46.59
259.381	32.26
259.597	93.69
259.814	46.59
260.03	15.87
260.246	67.07
260.463	116.22
260.679	165.37
260.895	38.4
261.112	34.3
261.328	34.3
261.544	7.68
261.761	216.57
261.977	-35.33
262.193	5.63
262.409	91.65
262.626	144.89
262.842	103.93
263.058	32.26
263.274	157.18
263.49	155.13
263.707	155.13
263.923	87.55
264.139	-23.04
264.355	77.31
264.571	171.52
264.787	112.13
265.004	124.41
265.22	89.6
265.436	56.83
265.652	97.79
265.868	95.74
266.084	56.83
266.3	91.65
266.516	-27.14
266.732	93.69
266.948	138.75
267.164	48.64
267.38	138.75
267.596	36.35
267.812	212.48
268.028	58.88
268.244	-45.57
268.46	128.51
268.676	71.17
268.892	108.03
269.108	11.78
269.324	1.54
269.54	30.21
269.756	110.08
269.972	11.78
270.188	26.11
270.403	-20.99
270.619	17.92
270.835	108.03
271.051	97.79
271.267	30.21
271.483	56.83
271.698	187.9
271.914	192
272.13	105.98
272.346	89.6
272.562	157.18
272.777	38.4
272.993	40.45
273.209	83.45
273.425	40.45
273.64	52.74
273.856	69.12
274.072	-10.75
274.287	-23.04
274.503	142.85
274.719	144.89
274.934	-47.62
275.15	32.26
275.366	46.59
275.581	5.63
275.797	34.3
276.012	177.66
276.228	79.36
276.444	108.03
276.659	216.57
276.875	44.54
277.09	40.45
277.306	108.03
277.521	140.8
277.737	112.13
277.952	136.7
278.168	32.26
278.383	95.74
278.599	42.5
278.814	34.3
279.03	46.59
279.245	194.05
279.461	132.61
279.676	142.85
279.892	58.88
280.107	28.16
280.322	17.92
280.538	93.69
280.753	171.52
280.969	89.6
281.184	116.22
281.399	134.65
281.615	73.21
281.83	136.7
282.045	-20.99
282.26	13.82
282.476	58.88
282.691	95.74
282.906	17.92
283.122	169.47
283.337	13.82
283.552	130.56
283.767	69.12
283.983	93.69
284.198	114.17
284.413	124.41
284.628	28.16
284.843	177.66
285.058	50.69
285.274	11.78
285.489	-12.8
285.704	226.81
285.919	71.17
286.134	85.5
286.349	13.82
286.564	89.6
286.779	122.37
286.995	-51.71
287.21	-43.52
287.425	83.45
287.64	40.45
287.855	95.74
288.07	-14.85
288.285	116.22
288.5	56.83
288.715	159.23
288.93	71.17
289.145	50.69
289.36	161.28
289.575	79.36
289.79	161.28
290.004	-2.56
290.219	81.41
290.434	89.6
290.649	32.26
290.864	83.45
291.079	11.78
291.294	62.98
291.509	105.98
291.724	79.36
291.938	34.3
292.153	101.89
292.368	32.26
292.583	124.41
292.798	142.85
293.012	116.22
293.227	120.32
293.442	28.16
293.657	142.85
293.871	114.17
294.086	140.8
294.301	155.13
294.516	118.27
294.73	-8.7
294.945	73.21
295.16	42.5
295.374	159.23
295.589	101.89
295.804	22.02
296.018	65.02
296.233	210.43
296.447	173.57
296.662	71.17
296.877	116.22
297.091	157.18
297.306	140.8
297.52	13.82
297.735	116.22
297.949	65.02
298.164	24.06
298.378	120.32
298.593	-6.66
298.807	-27.14
299.022	87.55
299.236	52.74
299.451	11.78
299.665	71.17
299.88	-16.9
300.094	73.21
300.309	11.78
300.523	56.83
300.737	5.63
300.952	159.23
301.166	42.5
301.381	-2.56
301.595	-0.51
301.809	52.74
302.024	-16.9
302.238	-14.85
302.452	153.09
302.667	110.08
302.881	185.85
303.095	99.84
303.309	50.69
303.524	9.73
303.738	116.22
303.952	-12.8
304.166	151.04
304.381	-135.68
304.595	245.24
304.809	30.21
305.023	24.06
305.237	-6.66
305.452	65.02
305.666	93.69
305.88	148.99
306.094	146.94
306.308	83.45
306.522	118.27
306.736	108.03
306.95	146.94
307.164	5.63
307.379	87.55
307.593	140.8
307.807	177.66
308.021	130.56
308.235	95.74
308.449	34.3
308.663	34.3
308.877	202.24
309.091	138.75
309.305	194.05
309.519	-43.52
309.733	214.52
309.947	3.58
310.161	118.27
310.374	198.14
310.588	151.04
310.802	19.97
311.016	65.02
311.23	118.27
311.444	15.87
311.658	7.68
311.872	175.61
312.085	204.28
312.299	169.47
312.513	206.33
312.727	81.41
312.941	17.92
313.154	105.98
313.368	-64
313.582	83.45
313.796	85.5
314.009	101.89
314.223	187.9
314.437	128.51
314.651	91.65
314.864	30.21
315.078	24.06
315.292	-12.8
315.505	-25.09
315.719	60.93
315.933	155.13
316.146	38.4
316.36	15.87
316.573	136.7
316.787	26.11
317.001	138.75
317.214	-6.66
317.428	110.08
317.641	11.78
317.855	3.58
318.068	50.69
318.282	34.3
318.495	204.28
318.709	54.78
318.922	26.11
319.136	169.47
319.349	148.99
319.563	-14.85
319.776	93.69
319.99	-4.61
320.203	99.84
320.417	65.02
320.63	101.89
320.843	243.2
321.057	183.81
321.27	7.68
321.483	87.55
321.697	161.28
321.91	144.89
322.124	22.02
322.337	124.41
322.55	-2.56
322.763	97.79
322.977	-20.99
323.19	83.45
323.403	58.88
323.617	136.7
323.83	132.61
324.043	1.54
324.256	81.41
324.469	-31.23
324.683	161.28
324.896	75.26
325.109	58.88
325.322	-64
325.535	108.03
325.748	77.31
325.962	83.45
326.175	73.21
326.388	167.42
326.601	144.89
326.814	-12.8
327.027	58.88
327.24	79.36
327.453	-10.75
327.666	46.59
327.879	132.61
328.092	101.89
328.305	97.79
328.518	5.63
328.731	19.97
328.944	9.73
329.157	38.4
329.37	56.83
329.583	208.38
329.796	196.09
330.009	17.92
330.222	124.41
330.435	136.7
330.648	155.13
330.861	99.84
331.073	73.21
331.286	140.8
331.499	79.36
331.712	-2.56
331.925	38.4
332.138	91.65
332.35	120.32
332.563	62.98
332.776	198.14
332.989	50.69
333.202	11.78
333.414	50.69
333.627	91.65
333.84	62.98
334.053	101.89
334.265	42.5
334.478	81.41
334.691	75.26
334.903	108.03
335.116	-29.18
335.329	67.07
335.541	65.02
335.754	97.79
335.966	22.02
336.179	38.4
336.392	95.74
336.604	-12.8
336.817	173.57
337.029	67.07
337.242	62.98
337.454	132.61
337.667	67.07
337.88	146.94
338.092	62.98
338.305	124.41
338.517	83.45
338.729	151.04
338.942	81.41
339.154	-23.04
339.367	-6.66
339.579	60.93
339.792	1.54
340.004	130.56
340.217	95.74
340.429	101.89
340.641	26.11
340.854	54.78
341.066	56.83
341.278	134.65
341.491	142.85
341.703	91.65
341.915	75.26
342.128	181.76
342.34	81.41
342.552	-35.33
342.764	42.5
342.977	48.64
343.189	50.69
343.401	157.18
343.613	7.68
343.826	13.82
344.038	73.21
344.25	101.89
344.462	5.63
344.674	79.36
344.886	42.5
345.099	97.79
345.311	132.61
345.523	-64
345.735	-29.18
345.947	67.07
346.159	32.26
346.371	79.36
346.583	87.55
346.795	175.61
347.007	22.02
347.219	179.71
347.431	93.69
347.643	189.95
347.855	1.54
348.067	163.33
348.279	24.06
348.491	124.41
348.703	153.09
348.915	85.5
349.127	-4.61
349.339	148.99
349.551	-25.09
349.763	241.15
349.975	60.93
350.187	177.66
350.399	204.28
350.61	83.45
350.822	48.64
351.034	56.83
351.246	89.6
351.458	128.51
351.669	151.04
351.881	69.12
352.093	128.51
352.305	179.71
352.517	56.83
352.728	128.51
352.94	142.85
353.152	105.98
353.363	-20.99
353.575	40.45
353.787	202.24
353.999	112.13
354.21	237.05
354.422	38.4
354.633	46.59
354.845	46.59
355.057	118.27
355.268	83.45
355.48	181.76
355.692	75.26
355.903	56.83
356.115	60.93
356.326	-61.95
356.538	175.61
356.749	155.13
356.961	259.58
357.172	105.98
357.384	5.63
357.595	251.39
357.807	-68.09
358.018	54.78
358.23	38.4
358.441	269.82
358.653	65.02
358.864	5.63
359.075	87.55
359.287	132.61
359.498	181.76
359.709	169.47
359.921	5.63
360.132	65.02
360.344	116.22
360.555	34.3
360.766	99.84
360.977	91.65
361.189	114.17
361.4	56.83
361.611	99.84
361.823	146.94
362.034	93.69
362.245	-68.09
362.456	13.82
362.667	97.79
362.879	22.02
363.09	128.51
363.301	50.69
363.512	38.4
363.723	71.17
363.935	58.88
364.146	132.61
364.357	-39.42
364.568	44.54
364.779	-61.95
364.99	253.44
365.201	-55.81
365.412	110.08
365.623	-55.81
365.834	89.6
366.045	30.21
366.256	138.75
366.467	44.54
366.678	67.07
366.889	62.98
367.1	58.88
367.311	175.61
367.522	-49.66
367.733	87.55
367.944	120.32
368.155	67.07
368.366	110.08
368.577	120.32
368.788	69.12
368.999	40.45
369.209	81.41
369.42	183.81
369.631	267.77
369.842	110.08
370.053	48.64
370.264	120.32
370.474	-12.8
370.685	108.03
370.896	85.5
371.107	165.37
371.317	105.98
371.528	93.69
371.739	167.42
371.95	91.65
372.16	105.98
372.371	48.64
372.582	103.93
372.792	83.45
373.003	58.88
373.214	108.03
373.424	110.08
373.635	-43.52
373.846	179.71
374.056	71.17
374.267	81.41
374.477	101.89
374.688	-66.05
374.898	157.18
375.109	171.52
375.319	101.89
375.53	153.09
375.74	120.32
375.951	9.73
376.161	38.4
376.372	130.56
376.582	71.17
376.793	30.21
377.003	89.6
377.214	30.21
377.424	159.23
377.635	95.74
377.845	13.82
378.055	126.46
378.266	-45.57
378.476	73.21
378.686	128.51
378.897	95.74
379.107	155.13
379.317	32.26
379.528	75.26
379.738	155.13
379.948	24.06
380.158	148.99
380.369	116.22
380.579	120.32
380.789	67.07
380.999	114.17
381.21	130.56
381.42	200.19
381.63	93.69
381.84	99.84
382.05	138.75
382.261	132.61
382.471	153.09
382.681	-6.66
382.891	153.09
383.101	46.59
383.311	24.06
383.521	-33.28
383.731	118.27
383.941	144.89
384.151	46.59
384.361	77.31
384.571	99.84
384.781	85.5
384.991	271.87
385.201	148.99
385.411	128.51
385.621	128.51
385.831	105.98
386.041	50.69
386.251	40.45
386.461	142.85
386.671	79.36
386.881	40.45
387.091	56.83
387.301	110.08
387.511	36.35
387.72	67.07
387.93	83.45
388.14	-23.04
388.35	153.09
388.56	126.46
388.769	183.81
388.979	58.88
389.189	28.16
389.399	77.31
389.609	179.71
389.818	95.74
390.028	99.84
390.238	87.55
390.447	28.16
390.657	124.41
390.867	26.11
391.076	-16.9
391.286	148.99
391.496	114.17
391.705	42.5
391.915	87.55
392.125	165.37
392.334	91.65
392.544	200.19
392.753	93.69
392.963	24.06
393.172	110.08
393.382	36.35
393.591	151.04
393.801	-29.18
394.01	177.66
394.22	93.69
394.429	65.02
394.639	99.84
394.848	116.22
395.058	50.69
395.267	7.68
395.477	132.61
395.686	44.54
395.895	216.57
396.105	247.29
396.314	116.22
396.524	58.88
396.733	99.84
396.942	230.91
397.152	128.51
397.361	132.61
397.57	114.17
397.78	126.46
397.989	48.64
398.198	224.76
398.407	95.74
398.617	40.45
398.826	54.78
399.035	75.26
399.244	101.89
399.453	26.11
399.663	97.79
399.872	83.45
400.081	28.16
400.29	202.24
400.499	40.45
400.708	148.99
400.917	97.79
401.127	95.74
401.336	-12.8
401.545	167.42
401.754	153.09
401.963	103.93
402.172	62.98
402.381	42.5
402.59	13.82
402.799	56.83
403.008	134.65
403.217	85.5
403.426	140.8
403.635	-39.42
403.844	87.55
404.053	32.26
404.262	67.07
404.471	280.06
404.68	81.41
404.888	58.88
405.097	22.02
405.306	130.56
405.515	124.41
405.724	85.5
405.933	124.41
406.142	81.41
406.35	105.98
406.559	73.21
406.768	62.98
406.977	134.65
407.185	171.52
407.394	157.18
407.603	-31.23
407.812	67.07
408.02	198.14
408.229	91.65
408.438	93.69
408.646	-86.53
408.855	50.69
409.064	87.55
409.272	93.69
409.481	105.98
409.69	15.87
409.898	7.68
410.107	77.31
410.315	200.19
410.524	-0.51
410.733	85.5
410.941	38.4
411.15	144.89
411.358	87.55
411.567	75.26
411.775	116.22
411.984	85.5
412.192	146.94
412.401	40.45
412.609	226.81
412.818	122.37
413.026	105.98
413.234	138.75
413.443	110.08
413.651	38.4
413.86	44.54
414.068	181.76
414.276	177.66
414.485	77.31
414.693	237.05
414.901	280.06
415.11	136.7
415.318	85.5
415.526	91.65
415.734	177.66
415.943	134.65
416.151	189.95
416.359	34.3
416.567	116.22
416.776	114.17
416.984	155.13
417.192	161.28
417.4	22.02
417.608	101.89
417.817	15.87
418.025	99.84
418.233	192
418.441	-20.99
418.649	-12.8
418.857	181.76
419.065	136.7
419.273	48.64
419.481	103.93
419.689	28.16
419.897	48.64
420.105	26.11
420.313	110.08
420.521	148.99
420.729	169.47
420.937	93.69
421.145	15.87
421.353	155.13
421.561	249.34
421.769	171.52
421.977	40.45
422.185	187.9
422.393	134.65
422.601	151.04
422.809	87.55
423.017	38.4
423.224	122.37
423.432	181.76
423.64	101.89
423.848	200.19
424.056	5.63
424.263	308.73
424.471	110.08
424.679	228.86
424.887	79.36
425.094	169.47
425.302	124.41
425.51	103.93
425.718	148.99
425.925	19.97
426.133	91.65
426.341	179.71
426.548	110.08
426.756	50.69
426.964	128.51
427.171	69.12
427.379	114.17
427.586	73.21
427.794	187.9
428.001	151.04
428.209	77.31
428.417	202.24
428.624	169.47
428.832	159.23
429.039	116.22
429.247	220.67
429.454	146.94
429.662	239.1
429.869	169.47
430.076	153.09
430.284	200.19
430.491	196.09
430.699	251.39
430.906	263.68
431.114	159.23
431.321	183.81
431.528	54.78
431.736	175.61
431.943	198.14
432.15	157.18
432.358	218.62
432.565	288.25
432.772	120.32
432.979	251.39
433.187	163.33
433.394	228.86
433.601	151.04
433.808	304.64
434.016	263.68
434.223	245.24
434.43	237.05
434.637	329.21
434.844	353.79
435.052	292.35
435.259	278.01
435.466	314.88
435.673	304.64
435.88	269.82
436.087	372.22
436.294	355.83
436.501	239.1
436.708	310.78
436.915	312.83
437.122	386.55
437.329	341.5
437.537	351.74
437.743	323.07
437.95	470.52
438.157	374.27
438.364	396.79
438.571	419.32
438.778	394.75
438.985	527.86
439.192	527.86
439.399	433.66
439.606	425.47
439.813	529.91
440.02	548.34
440.227	554.49
440.433	585.21
440.64	568.82
440.847	482.81
441.054	558.58
441.261	773.62
441.467	613.88
441.674	677.37
441.881	687.61
442.088	613.88
442.294	738.8
442.501	734.71
442.708	740.85
442.914	824.82
443.121	828.92
443.328	880.11
443.534	914.93
443.741	873.97
443.948	839.16
444.154	935.41
444.361	1076.72
444.568	1029.62
444.774	994.8
444.981	968.18
445.187	1140.21
445.394	1150.45
445.6	1166.83
445.807	1279.47
446.013	1246.7
446.22	1158.64
446.426	1371.63
446.633	1424.87
446.839	1635.82
447.046	1353.2
447.252	1572.33
447.459	1562.09
447.665	1594.86
447.871	1687.01
448.078	1811.94
448.284	1777.12
448.491	1945.06
448.697	2014.69
448.903	2112.99
449.11	2061.79
449.316	2059.74
449.522	2268.64
449.728	2420.19
449.935	2446.81
450.141	2375.13
450.347	2598.36
450.553	2508.25
450.76	2665.94
450.966	2739.67
451.172	2835.92
451.378	3012.05
451.584	3063.25
451.791	3309.01
451.997	3349.96
452.203	3378.64
452.409	3608.01
452.615	3698.12
452.821	3655.11
453.027	3620.3
453.233	4140.48
453.44	4044.23
453.646	4218.3
453.852	4429.24
454.058	4519.36
454.264	4810.17
454.47	4992.44
454.676	4996.53
454.882	5547.44
455.088	5299.63
455.294	5592.49
455.5	5885.35
455.705	6278.56
455.911	5985.7
456.117	6342.05
456.323	6770.07
456.529	6499.74
456.735	7171.47
456.941	7603.6
457.147	7851.4
457.352	7992.71
457.558	8191.36
457.764	8711.55
457.97	8891.77
458.176	9205.11
458.381	9803.11
458.587	9835.88
458.793	10403.17
458.999	10282.34
459.204	11619.66
459.41	11898.19
459.616	11810.12
459.821	12610.88
460.027	12830.01
460.233	13552.95
460.438	13598
460.644	14230.82
460.85	14691.62
461.055	15172.89
461.261	15789.33
461.466	15580.43
461.672	15891.73
461.878	17886.45
462.083	17304.82
462.289	17698.03
462.494	18679.01
462.7	18519.27
462.905	18935.01
463.111	20415.69
463.316	21544.12
463.522	21894.32
463.727	22723.75
463.932	23626.9
464.138	24423.56
464.343	25056.39
464.549	25312.38
464.754	27139.17
464.959	27925.59
465.165	28030.04
465.37	27843.67
465.575	27890.77
465.781	29809.72
465.986	30653.48
466.191	30311.47
466.397	30684.2
466.602	30032.95
466.807	31976.47
467.012	32326.67
467.218	32984.07
467.423	32734.22
