Data from USB4F104151__22__09-25-48-819.txt Node

Date: Wed Feb 26 09:25:48 EST 2025
User: louis
Spectrometer: USB4F10415
Trigger mode: 4
Integration Time (sec): 1.000000E-1
Scans to average: 1
Electric dark correction enabled: true
Nonlinearity correction enabled: false
Boxcar width: 0
XAxis mode: Wavelengths
Number of Pixels in Spectrum: 3648
>>>>>Begin Spectral Data<<<<<
178.204	-318.97
178.424	-318.97
178.644	-318.97
178.864	-286.2
179.084	-327.16
179.304	-48.64
179.524	-1.54
179.744	-9.73
179.964	90.62
180.184	55.81
180.404	64
180.624	-24.06
180.844	-105.98
181.064	-44.54
181.283	8.7
181.503	-34.3
181.723	49.66
181.943	-112.13
182.163	131.58
182.383	4.61
182.602	70.14
182.822	139.77
183.042	70.14
183.262	25.09
183.482	-17.92
183.701	61.95
183.921	29.18
184.141	12.8
184.361	55.81
184.58	29.18
184.8	66.05
185.02	0.51
185.239	176.64
185.459	125.44
185.679	123.39
185.898	-93.69
186.118	61.95
186.338	-89.6
186.557	86.53
186.777	-3.58
186.997	72.19
187.216	20.99
187.436	184.83
187.655	25.09
187.875	82.43
188.095	90.62
188.314	111.1
188.534	29.18
188.753	2.56
188.973	104.96
189.192	72.19
189.412	39.42
189.631	8.7
189.851	74.24
190.07	127.49
190.29	41.47
190.509	31.23
190.729	53.76
190.948	115.2
191.168	150.01
191.387	90.62
191.607	-3.58
191.826	57.86
192.045	25.09
192.265	82.43
192.484	39.42
192.704	45.57
192.923	-34.3
193.142	213.5
193.362	86.53
193.581	166.4
193.8	43.52
194.02	104.96
194.239	59.9
194.458	70.14
194.678	12.8
194.897	84.48
195.116	96.77
195.335	49.66
195.555	45.57
195.774	78.33
195.993	162.3
196.212	14.85
196.432	49.66
196.651	55.81
196.87	-5.63
197.089	203.26
197.308	72.19
197.528	96.77
197.747	0.51
197.966	43.52
198.185	195.07
198.404	-24.06
198.623	-1.54
198.842	37.38
199.062	76.29
199.281	133.63
199.5	35.33
199.719	20.99
199.938	64
200.157	98.81
200.376	16.9
200.595	74.24
200.814	78.33
201.033	-5.63
201.252	174.59
201.471	98.81
201.69	150.01
201.909	41.47
202.128	107.01
202.347	100.86
202.566	-24.06
202.785	-36.35
203.004	-11.78
203.223	143.87
203.442	31.23
203.661	-24.06
203.879	55.81
204.098	113.15
204.317	-9.73
204.536	90.62
204.755	12.8
204.974	104.96
205.193	59.9
205.411	98.81
205.63	141.82
205.849	98.81
206.068	23.04
206.287	-73.21
206.505	119.29
206.724	-17.92
206.943	41.47
207.162	0.51
207.381	82.43
207.599	82.43
207.818	37.38
208.037	104.96
208.255	53.76
208.474	104.96
208.693	33.28
208.911	-7.68
209.13	98.81
209.349	98.81
209.567	68.09
209.786	66.05
210.005	66.05
210.223	14.85
210.442	-91.65
210.661	0.51
210.879	70.14
211.098	80.38
211.316	66.05
211.535	57.86
211.753	8.7
211.972	96.77
212.191	6.66
212.409	8.7
212.628	90.62
212.846	49.66
213.065	0.51
213.283	176.64
213.502	57.86
213.72	29.18
213.938	-11.78
214.157	-13.82
214.375	113.15
214.594	35.33
214.812	90.62
215.031	25.09
215.249	6.66
215.467	45.57
215.686	-7.68
215.904	133.63
216.122	16.9
216.341	78.33
216.559	61.95
216.778	68.09
216.996	111.1
217.214	64
217.432	-9.73
217.651	-48.64
217.869	8.7
218.087	-44.54
218.306	-69.12
218.524	33.28
218.742	31.23
218.96	49.66
219.179	8.7
219.397	27.14
219.615	131.58
219.833	113.15
220.051	14.85
220.27	102.91
220.488	121.34
220.706	66.05
220.924	-30.21
221.142	6.66
221.36	14.85
221.578	8.7
221.796	39.42
222.015	29.18
222.233	0.51
222.451	82.43
222.669	23.04
222.887	94.72
223.105	-1.54
223.323	0.51
223.541	68.09
223.759	-1.54
223.977	25.09
224.195	135.68
224.413	90.62
224.631	43.52
224.849	113.15
225.067	154.11
225.285	66.05
225.503	12.8
225.721	-89.6
225.939	16.9
226.157	127.49
226.375	188.93
226.592	-13.82
226.81	2.56
227.028	98.81
227.246	150.01
227.464	4.61
227.682	102.91
227.9	74.24
228.117	47.62
228.335	84.48
228.553	57.86
228.771	41.47
228.989	113.15
229.206	61.95
229.424	8.7
229.642	-7.68
229.86	33.28
230.077	94.72
230.295	-26.11
230.513	80.38
230.731	72.19
230.948	115.2
231.166	123.39
231.384	72.19
231.601	-36.35
231.819	88.57
232.037	-19.97
232.254	0.51
232.472	47.62
232.689	-11.78
232.907	174.59
233.125	41.47
233.342	-3.58
233.56	64
233.777	31.23
233.995	90.62
234.213	131.58
234.43	125.44
234.648	-40.45
234.865	59.9
235.083	88.57
235.3	31.23
235.518	45.57
235.735	121.34
235.953	74.24
236.17	88.57
236.388	37.38
236.605	57.86
236.822	123.39
237.04	147.97
237.257	-28.16
237.475	-48.64
237.692	55.81
237.909	51.71
238.127	18.94
238.344	80.38
238.562	66.05
238.779	33.28
238.996	-62.98
239.214	86.53
239.431	10.75
239.648	-7.68
239.865	-42.5
240.083	156.16
240.3	29.18
240.517	-44.54
240.735	84.48
240.952	121.34
241.169	14.85
241.386	33.28
241.603	-15.87
241.821	31.23
242.038	66.05
242.255	88.57
242.472	-15.87
242.689	53.76
242.907	115.2
243.124	-1.54
243.341	14.85
243.558	-42.5
243.775	-69.12
243.992	-75.26
244.209	96.77
244.426	107.01
244.643	16.9
244.86	-19.97
245.078	61.95
245.295	-3.58
245.512	0.51
245.729	49.66
245.946	96.77
246.163	61.95
246.38	0.51
246.597	16.9
246.814	-11.78
247.031	72.19
247.248	8.7
247.464	37.38
247.681	55.81
247.898	-19.97
248.115	64
248.332	-40.45
248.549	10.75
248.766	154.11
248.983	98.81
249.2	92.67
249.417	156.16
249.633	41.47
249.85	0.51
250.067	47.62
250.284	61.95
250.501	72.19
250.717	23.04
250.934	-83.45
251.151	45.57
251.368	55.81
251.585	-17.92
251.801	57.86
252.018	-15.87
252.235	61.95
252.451	-13.82
252.668	49.66
252.885	119.29
253.102	98.81
253.318	-24.06
253.535	-34.3
253.752	0.51
253.968	-1.54
254.185	0.51
254.401	53.76
254.618	78.33
254.835	0.51
255.051	127.49
255.268	74.24
255.484	-17.92
255.701	-50.69
255.917	39.42
256.134	-11.78
256.351	53.76
256.567	-52.74
256.784	78.33
257	-22.02
257.217	94.72
257.433	31.23
257.65	49.66
257.866	145.92
258.082	-26.11
258.299	6.66
258.515	41.47
258.732	43.52
258.948	-26.11
259.165	57.86
259.381	-26.11
259.597	64
259.814	20.99
260.03	2.56
260.246	45.57
260.463	55.81
260.679	88.57
260.895	10.75
261.112	78.33
261.328	20.99
261.544	-32.26
261.761	129.53
261.977	-118.27
262.193	-7.68
262.409	66.05
262.626	45.57
262.842	59.9
263.058	2.56
263.274	72.19
263.49	57.86
263.707	57.86
263.923	82.43
264.139	35.33
264.355	78.33
264.571	188.93
264.787	55.81
265.004	150.01
265.22	-34.3
265.436	-9.73
265.652	-56.83
265.868	37.38
266.084	-38.4
266.3	29.18
266.516	-42.5
266.732	-17.92
266.948	8.7
267.164	-17.92
267.38	119.29
267.596	41.47
267.812	115.2
268.028	74.24
268.244	18.94
268.46	6.66
268.676	59.9
268.892	8.7
269.108	14.85
269.324	-65.02
269.54	-11.78
269.756	127.49
269.972	-1.54
270.188	16.9
270.403	-89.6
270.619	27.14
270.835	119.29
271.051	20.99
271.267	25.09
271.483	-15.87
271.698	80.38
271.914	80.38
272.13	14.85
272.346	12.8
272.562	49.66
272.777	-15.87
272.993	-26.11
273.209	12.8
273.425	57.86
273.64	-136.7
273.856	119.29
274.072	-3.58
274.287	-5.63
274.503	47.62
274.719	2.56
274.934	37.38
275.15	-118.27
275.366	4.61
275.581	-3.58
275.797	61.95
276.012	12.8
276.228	90.62
276.444	125.44
276.659	145.92
276.875	-48.64
277.09	16.9
277.306	6.66
277.521	25.09
277.737	66.05
277.952	82.43
278.168	31.23
278.383	55.81
278.599	94.72
278.814	102.91
279.03	29.18
279.245	100.86
279.461	-42.5
279.676	113.15
279.892	-71.17
280.107	-126.46
280.322	-48.64
280.538	55.81
280.753	-36.35
280.969	90.62
281.184	-19.97
281.399	225.79
281.615	-9.73
281.83	16.9
282.045	-42.5
282.26	41.47
282.476	29.18
282.691	35.33
282.906	-48.64
283.122	14.85
283.337	20.99
283.552	61.95
283.767	12.8
283.983	96.77
284.198	23.04
284.413	57.86
284.628	12.8
284.843	-7.68
285.058	92.67
285.274	-1.54
285.489	-95.74
285.704	152.06
285.919	-40.45
286.134	49.66
286.349	6.66
286.564	-81.41
286.779	135.68
286.995	41.47
287.21	-85.5
287.425	64
287.64	-11.78
287.855	-19.97
288.07	-67.07
288.285	92.67
288.5	23.04
288.715	70.14
288.93	82.43
289.145	23.04
289.36	94.72
289.575	-24.06
289.79	113.15
290.004	55.81
290.219	168.45
290.434	-9.73
290.649	25.09
290.864	-40.45
291.079	-7.68
291.294	8.7
291.509	-38.4
291.724	45.57
291.938	-11.78
292.153	14.85
292.368	41.47
292.583	12.8
292.798	96.77
293.012	31.23
293.227	18.94
293.442	25.09
293.657	86.53
293.871	109.05
294.086	8.7
294.301	156.16
294.516	86.53
294.73	43.52
294.945	-60.93
295.16	8.7
295.374	102.91
295.589	61.95
295.804	20.99
296.018	2.56
296.233	68.09
296.447	33.28
296.662	-52.74
296.877	16.9
297.091	49.66
297.306	16.9
297.52	-40.45
297.735	80.38
297.949	12.8
298.164	72.19
298.378	135.68
298.593	0.51
298.807	8.7
299.022	57.86
299.236	53.76
299.451	29.18
299.665	14.85
299.88	-15.87
300.094	72.19
300.309	20.99
300.523	78.33
300.737	45.57
300.952	53.76
301.166	8.7
301.381	-7.68
301.595	-36.35
301.809	20.99
302.024	8.7
302.238	8.7
302.452	154.11
302.667	43.52
302.881	115.2
303.095	31.23
303.309	78.33
303.524	-56.83
303.738	55.81
303.952	-7.68
304.166	-7.68
304.381	-126.46
304.595	117.25
304.809	23.04
305.023	61.95
305.237	41.47
305.452	39.42
305.666	82.43
305.88	74.24
306.094	72.19
306.308	86.53
306.522	41.47
306.736	80.38
306.95	119.29
307.164	-7.68
307.379	-24.06
307.593	137.73
307.807	10.75
308.021	92.67
308.235	16.9
308.449	-52.74
308.663	33.28
308.877	190.97
309.091	90.62
309.305	51.71
309.519	25.09
309.733	111.1
309.947	-56.83
310.161	0.51
310.374	113.15
310.588	80.38
310.802	-71.17
311.016	8.7
311.23	123.39
311.444	8.7
311.658	-9.73
311.872	86.53
312.085	96.77
312.299	135.68
312.513	88.57
312.727	57.86
312.941	-24.06
313.154	55.81
313.368	-22.02
313.582	-1.54
313.796	0.51
314.009	-44.54
314.223	111.1
314.437	14.85
314.651	123.39
314.864	25.09
315.078	-71.17
315.292	16.9
315.505	-42.5
315.719	74.24
315.933	51.71
316.146	-24.06
316.36	-24.06
316.573	98.81
316.787	88.57
317.001	107.01
317.214	-38.4
317.428	-1.54
317.641	-5.63
317.855	31.23
318.068	31.23
318.282	37.38
318.495	68.09
318.709	57.86
318.922	20.99
319.136	88.57
319.349	78.33
319.563	27.14
319.776	107.01
319.99	-65.02
320.203	104.96
320.417	-9.73
320.63	90.62
320.843	80.38
321.057	66.05
321.27	6.66
321.483	96.77
321.697	147.97
321.91	98.81
322.124	66.05
322.337	49.66
322.55	-67.07
322.763	72.19
322.977	29.18
323.19	-26.11
323.403	64
323.617	74.24
323.83	74.24
324.043	25.09
324.256	115.2
324.469	23.04
324.683	29.18
324.896	39.42
325.109	6.66
325.322	-89.6
325.535	86.53
325.748	135.68
325.962	33.28
326.175	16.9
326.388	84.48
326.601	156.16
326.814	45.57
327.027	18.94
327.24	156.16
327.453	-124.41
327.666	117.25
327.879	147.97
328.092	51.71
328.305	8.7
328.518	53.76
328.731	6.66
328.944	27.14
329.157	123.39
329.37	66.05
329.583	139.77
329.796	164.35
330.009	-34.3
330.222	53.76
330.435	107.01
330.648	-24.06
330.861	86.53
331.073	45.57
331.286	102.91
331.499	39.42
331.712	-44.54
331.925	6.66
332.138	59.9
332.35	125.44
332.563	-65.02
332.776	57.86
332.989	-11.78
333.202	-9.73
333.414	-9.73
333.627	33.28
333.84	41.47
334.053	84.48
334.265	-50.69
334.478	23.04
334.691	-7.68
334.903	16.9
335.116	-34.3
335.329	10.75
335.541	98.81
335.754	182.78
335.966	4.61
336.179	18.94
336.392	90.62
336.604	29.18
336.817	4.61
337.029	57.86
337.242	-1.54
337.454	90.62
337.667	57.86
337.88	16.9
338.092	33.28
338.305	55.81
338.517	0.51
338.729	74.24
338.942	125.44
339.154	-52.74
339.367	-44.54
339.579	82.43
339.792	-1.54
340.004	18.94
340.217	82.43
340.429	152.06
340.641	6.66
340.854	-17.92
341.066	41.47
341.278	96.77
341.491	86.53
341.703	82.43
341.915	-7.68
342.128	113.15
342.34	31.23
342.552	-62.98
342.764	41.47
342.977	18.94
343.189	-5.63
343.401	43.52
343.613	-67.07
343.826	57.86
344.038	12.8
344.25	6.66
344.462	-26.11
344.674	-1.54
344.886	-9.73
345.099	45.57
345.311	92.67
345.523	-28.16
345.735	-87.55
345.947	31.23
346.159	70.14
346.371	43.52
346.583	4.61
346.795	166.4
347.007	35.33
347.219	20.99
347.431	66.05
347.643	78.33
347.855	-67.07
348.067	80.38
348.279	2.56
348.491	88.57
348.703	152.06
348.915	37.38
349.127	-99.84
349.339	18.94
349.551	-24.06
349.763	31.23
349.975	-19.97
350.187	188.93
350.399	102.91
350.61	119.29
350.822	-24.06
351.034	-17.92
351.246	29.18
351.458	129.53
351.669	92.67
351.881	100.86
352.093	82.43
352.305	37.38
352.517	57.86
352.728	123.39
352.94	66.05
353.152	57.86
353.363	0.51
353.575	51.71
353.787	184.83
353.999	41.47
354.21	127.49
354.422	-26.11
354.633	37.38
354.845	14.85
355.057	57.86
355.268	66.05
355.48	127.49
355.692	-75.26
355.903	23.04
356.115	-7.68
356.326	-42.5
356.538	64
356.749	96.77
356.961	160.25
357.172	12.8
357.384	-97.79
357.595	147.97
357.807	39.42
358.018	-50.69
358.23	61.95
358.441	113.15
358.653	43.52
358.864	84.48
359.075	-122.37
359.287	72.19
359.498	119.29
359.709	80.38
359.921	80.38
360.132	98.81
360.344	33.28
360.555	111.1
360.766	43.52
360.977	16.9
361.189	147.97
361.4	2.56
361.611	123.39
361.823	129.53
362.034	82.43
362.245	-58.88
362.456	31.23
362.667	64
362.879	14.85
363.09	-24.06
363.301	16.9
363.512	72.19
363.723	-81.41
363.935	33.28
364.146	102.91
364.357	25.09
364.568	-34.3
364.779	-93.69
364.99	123.39
365.201	37.38
365.412	82.43
365.623	-73.21
365.834	113.15
366.045	20.99
366.256	121.34
366.467	23.04
366.678	74.24
366.889	8.7
367.1	41.47
367.311	76.29
367.522	16.9
367.733	72.19
367.944	74.24
368.155	23.04
368.366	39.42
368.577	82.43
368.788	115.2
368.999	-54.78
369.209	8.7
369.42	180.73
369.631	203.26
369.842	98.81
370.053	6.66
370.264	82.43
370.474	-32.26
370.685	82.43
370.896	55.81
371.107	57.86
371.317	39.42
371.528	49.66
371.739	135.68
371.95	55.81
372.16	178.69
372.371	-67.07
372.582	61.95
372.792	135.68
373.003	74.24
373.214	55.81
373.424	23.04
373.635	41.47
373.846	178.69
374.056	-19.97
374.267	25.09
374.477	84.48
374.688	-42.5
374.898	-11.78
375.109	35.33
375.319	57.86
375.53	98.81
375.74	57.86
375.951	31.23
376.161	102.91
376.372	102.91
376.582	-48.64
376.793	88.57
377.003	16.9
377.214	37.38
377.424	49.66
377.635	8.7
377.845	88.57
378.055	127.49
378.266	33.28
378.476	20.99
378.686	43.52
378.897	70.14
379.107	154.11
379.317	68.09
379.528	-40.45
379.738	49.66
379.948	8.7
380.158	147.97
380.369	0.51
380.579	49.66
380.789	80.38
380.999	41.47
381.21	102.91
381.42	141.82
381.63	12.8
381.84	90.62
382.05	84.48
382.261	107.01
382.471	107.01
382.681	-32.26
382.891	96.77
383.101	82.43
383.311	41.47
383.521	33.28
383.731	104.96
383.941	88.57
384.151	82.43
384.361	14.85
384.571	41.47
384.781	10.75
384.991	55.81
385.201	180.73
385.411	80.38
385.621	41.47
385.831	29.18
386.041	-13.82
386.251	-17.92
386.461	104.96
386.671	10.75
386.881	117.25
387.091	53.76
387.301	86.53
387.511	29.18
387.72	66.05
387.93	41.47
388.14	-40.45
388.35	96.77
388.56	39.42
388.769	104.96
388.979	66.05
389.189	41.47
389.399	8.7
389.609	125.44
389.818	64
390.028	74.24
390.238	12.8
390.447	-5.63
390.657	64
390.867	31.23
391.076	-54.78
391.286	23.04
391.496	10.75
391.705	-9.73
391.915	88.57
392.125	74.24
392.334	14.85
392.544	141.82
392.753	78.33
392.963	27.14
393.172	6.66
393.382	-22.02
393.591	213.5
393.801	49.66
394.01	129.53
394.22	76.29
394.429	82.43
394.639	88.57
394.848	90.62
395.058	57.86
395.267	-24.06
395.477	39.42
395.686	74.24
395.895	156.16
396.105	90.62
396.314	41.47
396.524	55.81
396.733	133.63
396.942	115.2
397.152	20.99
397.361	96.77
397.57	88.57
397.78	-17.92
397.989	68.09
398.198	166.4
398.407	41.47
398.617	68.09
398.826	39.42
399.035	0.51
399.244	55.81
399.453	41.47
399.663	53.76
399.872	131.58
400.081	-9.73
400.29	147.97
400.499	-58.88
400.708	98.81
400.917	98.81
401.127	4.61
401.336	-3.58
401.545	180.73
401.754	203.26
401.963	94.72
402.172	14.85
402.381	16.9
402.59	113.15
402.799	129.53
403.008	82.43
403.217	55.81
403.426	90.62
403.635	-56.83
403.844	25.09
404.053	47.62
404.262	68.09
404.471	150.01
404.68	66.05
404.888	23.04
405.097	59.9
405.306	53.76
405.515	121.34
405.724	-26.11
405.933	119.29
406.142	45.57
406.35	113.15
406.559	47.62
406.768	90.62
406.977	102.91
407.185	104.96
407.394	57.86
407.603	-42.5
407.812	74.24
408.02	88.57
408.229	51.71
408.438	27.14
408.646	-52.74
408.855	49.66
409.064	102.91
409.272	-28.16
409.481	66.05
409.69	-11.78
409.898	-24.06
410.107	61.95
410.315	-3.58
410.524	0.51
410.733	111.1
410.941	35.33
411.15	35.33
411.358	94.72
411.567	242.17
411.775	33.28
411.984	33.28
412.192	90.62
412.401	-28.16
412.609	123.39
412.818	117.25
413.026	76.29
413.234	59.9
413.443	90.62
413.651	-9.73
413.86	64
414.068	125.44
414.276	66.05
414.485	88.57
414.693	158.21
414.901	150.01
415.11	61.95
415.318	25.09
415.526	-22.02
415.734	158.21
415.943	29.18
416.151	94.72
416.359	4.61
416.567	55.81
416.776	74.24
416.984	82.43
417.192	145.92
417.4	-15.87
417.608	29.18
417.817	-114.17
418.025	2.56
418.233	168.45
418.441	-62.98
418.649	-40.45
418.857	49.66
419.065	141.82
419.273	45.57
419.481	115.2
419.689	12.8
419.897	-28.16
420.105	-65.02
420.313	123.39
420.521	154.11
420.729	131.58
420.937	-77.31
421.145	-7.68
421.353	135.68
421.561	78.33
421.769	92.67
421.977	55.81
422.185	64
422.393	20.99
422.601	90.62
422.809	33.28
423.017	57.86
423.224	33.28
423.432	172.54
423.64	70.14
423.848	123.39
424.056	41.47
424.263	172.54
424.471	72.19
424.679	127.49
424.887	29.18
425.094	150.01
425.302	94.72
425.51	0.51
425.718	49.66
425.925	55.81
426.133	16.9
426.341	186.88
426.548	72.19
426.756	70.14
426.964	131.58
427.171	107.01
427.379	78.33
427.586	68.09
427.794	143.87
428.001	160.25
428.209	88.57
428.417	168.45
428.624	74.24
428.832	172.54
429.039	119.29
429.247	59.9
429.454	115.2
429.662	180.73
429.869	129.53
430.076	213.5
430.284	107.01
430.491	215.55
430.699	160.25
430.906	170.49
431.114	143.87
431.321	109.05
431.528	188.93
431.736	147.97
431.943	203.26
432.15	199.16
432.358	164.35
432.565	238.08
432.772	57.86
432.979	227.84
433.187	233.98
433.394	215.55
433.601	131.58
433.808	317.95
434.016	254.46
434.223	180.73
434.43	229.88
434.637	299.52
434.844	246.27
435.052	188.93
435.259	322.04
435.466	276.99
435.673	246.27
435.88	274.94
436.087	266.75
436.294	393.72
436.501	406.01
436.708	307.71
436.915	328.19
437.122	346.62
437.329	274.94
437.537	375.29
437.743	352.76
437.95	449.02
438.157	401.91
438.364	414.2
438.571	436.73
438.778	446.97
438.985	518.65
439.192	532.98
439.399	524.79
439.606	430.59
439.813	582.14
440.02	623.09
440.227	717.3
440.433	647.67
440.64	619
440.847	532.98
441.054	678.39
441.261	750.07
441.467	745.97
441.674	647.67
441.881	793.08
442.088	760.31
442.294	838.13
442.501	831.99
442.708	807.41
442.914	887.28
443.121	926.19
443.328	975.35
443.534	1071.6
443.741	942.58
443.948	926.19
444.154	1079.79
444.361	1231.34
444.568	1245.68
444.774	1188.33
444.981	1118.7
445.187	1337.84
445.394	1327.6
445.6	1243.63
445.807	1516.01
446.013	1425.9
446.22	1389.03
446.426	1513.96
446.633	1663.46
446.839	1749.48
447.046	1620.46
447.252	1806.82
447.459	1931.75
447.665	1946.08
447.871	2073.06
448.078	2138.59
448.284	2236.89
448.491	2243.04
448.697	2349.53
448.903	2421.21
449.11	2357.72
449.316	2458.07
449.522	2671.06
449.728	2703.83
449.935	2785.75
450.141	2931.16
450.347	3133.9
450.553	3125.71
450.76	3138
450.966	3213.77
451.172	3334.61
451.378	3561.93
451.584	3621.32
451.791	3856.84
451.997	3899.84
452.203	3938.76
452.409	4137.41
452.615	4405.69
452.821	4340.16
453.027	4284.86
453.233	4774.33
453.44	4747.7
453.646	5077.43
453.852	5175.73
454.058	5390.77
454.264	5736.87
454.47	5902.76
454.676	6111.65
454.882	6554.01
455.088	6224.29
455.294	6703.51
455.5	6963.61
455.705	7481.74
455.911	7408.01
456.117	7688.59
456.323	7815.56
456.529	8036.74
456.735	8647.04
456.941	8649.08
457.147	8898.94
457.352	9199.99
457.558	9824.62
457.764	10082.66
457.97	10402.15
458.176	10928.47
458.381	11329.88
458.587	11538.77
458.793	12241.22
458.999	12222.79
459.204	13672.75
459.41	14031.15
459.616	13877.55
459.821	14819.61
460.027	15726.86
460.233	16236.81
460.438	16347.4
460.644	17086.72
460.85	16943.36
461.055	18313.45
461.261	18888.93
461.466	18716.9
461.672	18776.29
461.878	21362.87
462.083	21080.25
462.289	21143.74
462.494	22313.13
462.7	22055.09
462.905	22651.05
463.111	24498.31
463.316	25809.01
463.522	25911.41
463.727	26894.44
463.932	27609.18
464.138	28674.12
464.343	29919.29
464.549	30206
464.754	32274.45
464.959	32843.79
465.165	33693.69
465.37	33570.82
465.575	33105.93
465.781	35778.53
465.986	36882.38
466.191	35993.56
466.397	36687.82
466.602	35571.68
466.807	37625.79
467.012	38375.35
467.218	39012.27
467.423	39010.22
467.628	39784.35
467.833	41889.66
468.038	41455.5
468.244	40482.71
468.449	42575.73
468.654	41428.87
468.859	41891.71
469.064	41992.06
469.269	40773.52
469.474	41357.19
469.679	42092.41
469.885	40843.15
470.09	41578.37
470.295	41996.16
