Data from USB4F104151__6__09-24-38-426.txt Node

Date: Wed Feb 26 09:24:38 EST 2025
User: louis
Spectrometer: USB4F10415
Trigger mode: 4
Integration Time (sec): 1.000000E-1
Scans to average: 1
Electric dark correction enabled: true
Nonlinearity correction enabled: false
Boxcar width: 0
XAxis mode: Wavelengths
Number of Pixels in Spectrum: 3648
>>>>>Begin Spectral Data<<<<<
178.204	-343.89
178.424	-343.89
178.644	-343.89
178.864	-356.18
179.084	-290.64
179.304	-34.64
179.524	-32.6
179.744	8.36
179.964	-10.07
180.184	69.8
180.404	61.61
180.624	-22.36
180.844	-22.36
181.064	-65.36
181.283	39.08
181.503	6.31
181.723	2.22
181.943	-42.84
182.163	207.02
182.383	-1.88
182.602	30.89
182.822	133.29
183.042	129.19
183.262	-28.5
183.482	20.65
183.701	96.43
183.921	57.51
184.141	82.09
184.361	30.89
184.58	59.56
184.8	71.85
185.02	28.84
185.239	45.23
185.459	77.99
185.679	116.9
185.898	-65.36
186.118	61.61
186.338	114.86
186.557	41.13
186.777	-65.36
186.997	26.79
187.216	96.43
187.436	229.54
187.655	61.61
187.875	69.8
188.095	14.51
188.314	172.2
188.534	151.72
188.753	-1.88
188.973	57.51
189.192	129.19
189.412	49.32
189.631	14.51
189.851	69.8
190.07	131.24
190.29	-57.17
190.509	108.71
190.729	82.09
190.948	67.75
191.168	276.65
191.387	86.19
191.607	-40.79
191.826	59.56
192.045	96.43
192.265	82.09
192.484	16.55
192.704	-18.26
192.923	18.6
193.142	186.54
193.362	57.51
193.581	114.86
193.8	108.71
194.02	110.76
194.239	39.08
194.458	127.14
194.678	59.56
194.897	14.51
195.116	61.61
195.335	8.36
195.555	12.46
195.774	6.31
195.993	145.58
196.212	26.79
196.432	45.23
196.651	61.61
196.87	69.8
197.089	204.97
197.308	129.19
197.528	129.19
197.747	-65.36
197.966	75.95
198.185	116.9
198.404	6.31
198.623	69.8
198.842	28.84
199.062	114.86
199.281	80.04
199.5	41.13
199.719	170.15
199.938	80.04
200.157	65.71
200.376	61.61
200.595	86.19
200.814	141.48
201.033	110.76
201.252	90.28
201.471	100.52
201.69	102.57
201.909	131.24
202.128	73.9
202.347	102.57
202.566	10.41
202.785	-14.17
203.004	-34.64
203.223	219.3
203.442	84.14
203.661	14.51
203.879	151.72
204.098	227.5
204.317	22.7
204.536	131.24
204.755	88.23
204.974	131.24
205.193	57.51
205.411	104.62
205.63	98.47
205.849	94.38
206.068	22.7
206.287	-3.93
206.505	73.9
206.724	-20.31
206.943	4.27
207.162	28.84
207.381	125.1
207.599	0.17
207.818	0.17
208.037	73.9
208.255	34.99
208.474	88.23
208.693	98.47
208.911	28.84
209.13	114.86
209.349	110.76
209.567	47.27
209.786	121
210.005	0.17
210.223	22.7
210.442	-89.94
210.661	57.51
210.879	75.95
211.098	86.19
211.316	80.04
211.535	96.43
211.753	133.29
211.972	135.34
212.191	49.32
212.409	22.7
212.628	129.19
212.846	4.27
213.065	80.04
213.283	118.95
213.502	90.28
213.72	20.65
213.938	43.18
214.157	-28.5
214.375	137.38
214.594	73.9
214.812	55.47
215.031	57.51
215.249	-38.74
215.467	110.76
215.686	61.61
215.904	125.1
216.122	96.43
216.341	133.29
216.559	96.43
216.778	61.61
216.996	108.71
217.214	-16.21
217.432	43.18
217.651	0.17
217.869	71.85
218.087	51.37
218.306	90.28
218.524	84.14
218.742	84.14
218.96	114.86
219.179	-42.84
219.397	65.71
219.615	147.62
219.833	155.82
220.051	-3.93
220.27	24.75
220.488	114.86
220.706	59.56
220.924	8.36
221.142	80.04
221.36	53.42
221.578	16.55
221.796	73.9
222.015	22.7
222.233	10.41
222.451	204.97
222.669	22.7
222.887	114.86
223.105	49.32
223.323	4.27
223.541	-24.4
223.759	-1.88
223.977	59.56
224.195	143.53
224.413	98.47
224.631	30.89
224.849	-1.88
225.067	178.34
225.285	-59.22
225.503	41.13
225.721	-87.89
225.939	41.13
226.157	41.13
226.375	196.78
226.592	-3.93
226.81	49.32
227.028	118.95
227.246	106.67
227.464	82.09
227.682	96.43
227.9	145.58
228.117	102.57
228.335	106.67
228.553	-5.97
228.771	98.47
228.989	53.42
229.206	94.38
229.424	-53.08
229.642	32.94
229.86	-51.03
230.077	149.67
230.295	116.9
230.513	127.14
230.731	61.61
230.948	159.91
231.166	229.54
231.384	61.61
231.601	20.65
231.819	133.29
232.037	39.08
232.254	57.51
232.472	96.43
232.689	-8.02
232.907	118.95
233.125	-28.5
233.342	47.27
233.56	-12.12
233.777	57.51
233.995	32.94
234.213	149.67
234.43	57.51
234.648	69.8
234.865	20.65
235.083	92.33
235.3	-30.55
235.518	77.99
235.735	153.77
235.953	41.13
236.17	4.27
236.388	106.67
236.605	141.48
236.822	51.37
237.04	82.09
237.257	53.42
237.475	-36.69
237.692	-38.74
237.909	121
238.127	14.51
238.344	106.67
238.562	8.36
238.779	-22.36
238.996	-48.98
239.214	8.36
239.431	94.38
239.648	-48.98
239.865	127.14
240.083	26.79
240.3	32.94
240.517	16.55
240.735	-30.55
240.952	149.67
241.169	139.43
241.386	-10.07
241.603	51.37
241.821	30.89
242.038	127.14
242.255	-1.88
242.472	16.55
242.689	30.89
242.907	63.66
243.124	16.55
243.341	45.23
243.558	24.75
243.775	-65.36
243.992	-63.32
244.209	100.52
244.426	188.58
244.643	71.85
244.86	43.18
245.078	63.66
245.295	118.95
245.512	53.42
245.729	28.84
245.946	84.14
246.163	110.76
246.38	-10.07
246.597	63.66
246.814	32.94
247.031	82.09
247.248	63.66
247.464	102.57
247.681	8.36
247.898	100.52
248.115	143.53
248.332	98.47
248.549	96.43
248.766	174.25
248.983	110.76
249.2	14.51
249.417	82.09
249.633	67.75
249.85	102.57
250.067	20.65
250.284	61.61
250.501	57.51
250.717	65.71
250.934	49.32
251.151	-18.26
251.368	114.86
251.585	47.27
251.801	26.79
252.018	-32.6
252.235	41.13
252.451	-51.03
252.668	16.55
252.885	94.38
253.102	51.37
253.318	24.75
253.535	8.36
253.752	39.08
253.968	65.71
254.185	12.46
254.401	108.71
254.618	80.04
254.835	12.46
255.051	104.62
255.268	57.51
255.484	82.09
255.701	30.89
255.917	82.09
256.134	8.36
256.351	104.62
256.567	-51.03
256.784	51.37
257	-30.55
257.217	88.23
257.433	127.14
257.65	51.37
257.866	118.95
258.082	-32.6
258.299	8.36
258.515	16.55
258.732	96.43
258.948	-1.88
259.165	94.38
259.381	-51.03
259.597	114.86
259.814	88.23
260.03	0.17
260.246	-32.6
260.463	104.62
260.679	108.71
260.895	20.65
261.112	77.99
261.328	61.61
261.544	47.27
261.761	65.71
261.977	-36.69
262.193	-34.64
262.409	49.32
262.626	133.29
262.842	65.71
263.058	61.61
263.274	118.95
263.49	80.04
263.707	84.14
263.923	41.13
264.139	24.75
264.355	6.31
264.571	135.34
264.787	39.08
265.004	164.01
265.22	65.71
265.436	-20.31
265.652	121
265.868	63.66
266.084	-57.17
266.3	98.47
266.516	69.8
266.732	139.43
266.948	82.09
267.164	14.51
267.38	39.08
267.596	6.31
267.812	155.82
268.028	22.7
268.244	32.94
268.46	12.46
268.676	-1.88
268.892	49.32
269.108	-5.97
269.324	-22.36
269.54	-14.17
269.756	147.62
269.972	10.41
270.188	8.36
270.403	-36.69
270.619	37.03
270.835	73.9
271.051	88.23
271.267	41.13
271.483	-3.93
271.698	18.6
271.914	20.65
272.13	-8.02
272.346	4.27
272.562	34.99
272.777	102.57
272.993	24.75
273.209	12.46
273.425	-5.97
273.64	-40.79
273.856	63.66
274.072	28.84
274.287	61.61
274.503	65.71
274.719	49.32
274.934	8.36
275.15	-53.08
275.366	90.28
275.581	-40.79
275.797	86.19
276.012	30.89
276.228	14.51
276.444	57.51
276.659	114.86
276.875	24.75
277.09	47.27
277.306	24.75
277.521	184.49
277.737	55.47
277.952	88.23
278.168	147.62
278.383	82.09
278.599	16.55
278.814	84.14
279.03	77.99
279.245	180.39
279.461	24.75
279.676	63.66
279.892	-24.4
280.107	-46.93
280.322	-57.17
280.538	100.52
280.753	-20.31
280.969	47.27
281.184	104.62
281.399	127.14
281.615	67.75
281.83	82.09
282.045	-57.17
282.26	10.41
282.476	57.51
282.691	114.86
282.906	-1.88
283.122	141.48
283.337	49.32
283.552	69.8
283.767	34.99
283.983	123.05
284.198	86.19
284.413	47.27
284.628	6.31
284.843	47.27
285.058	22.7
285.274	69.8
285.489	-14.17
285.704	8.36
285.919	-14.17
286.134	86.19
286.349	2.22
286.564	4.27
286.779	164.01
286.995	65.71
287.21	-57.17
287.425	114.86
287.64	80.04
287.855	-22.36
288.07	-44.88
288.285	67.75
288.5	123.05
288.715	110.76
288.93	82.09
289.145	32.94
289.36	139.43
289.575	-8.02
289.79	106.67
290.004	-10.07
290.219	96.43
290.434	-28.5
290.649	-36.69
290.864	24.75
291.079	80.04
291.294	90.28
291.509	30.89
291.724	26.79
291.938	14.51
292.153	75.95
292.368	-55.12
292.583	69.8
292.798	114.86
293.012	55.47
293.227	57.51
293.442	28.84
293.657	73.9
293.871	139.43
294.086	41.13
294.301	168.1
294.516	32.94
294.73	20.65
294.945	-42.84
295.16	-53.08
295.374	112.81
295.589	114.86
295.804	-28.5
296.018	69.8
296.233	118.95
296.447	73.9
296.662	57.51
296.877	184.49
297.091	92.33
297.306	49.32
297.52	47.27
297.735	88.23
297.949	-3.93
298.164	102.57
298.378	30.89
298.593	-18.26
298.807	-63.32
299.022	24.75
299.236	200.87
299.451	10.41
299.665	-18.26
299.88	88.23
300.094	53.42
300.309	8.36
300.523	69.8
300.737	45.23
300.952	98.47
301.166	104.62
301.381	-67.41
301.595	0.17
301.809	96.43
302.024	55.47
302.238	49.32
302.452	86.19
302.667	94.38
302.881	82.09
303.095	106.67
303.309	14.51
303.524	-8.02
303.738	53.42
303.952	53.42
304.166	49.32
304.381	-87.89
304.595	118.95
304.809	-48.98
305.023	147.62
305.237	47.27
305.452	-8.02
305.666	61.61
305.88	43.18
306.094	121
306.308	6.31
306.522	94.38
306.736	26.79
306.95	92.33
307.164	104.62
307.379	-1.88
307.593	135.34
307.807	63.66
308.021	49.32
308.235	45.23
308.449	-28.5
308.663	139.43
308.877	145.58
309.091	20.65
309.305	153.77
309.519	-10.07
309.733	114.86
309.947	45.23
310.161	84.14
310.374	26.79
310.588	174.25
310.802	73.9
311.016	20.65
311.23	65.71
311.444	53.42
311.658	92.33
311.872	82.09
312.085	121
312.299	147.62
312.513	65.71
312.727	43.18
312.941	24.75
313.154	139.43
313.368	86.19
313.582	47.27
313.796	98.47
314.009	73.9
314.223	90.28
314.437	125.1
314.651	131.24
314.864	-18.26
315.078	86.19
315.292	-40.79
315.505	-28.5
315.719	73.9
315.933	73.9
316.146	-8.02
316.36	80.04
316.573	98.47
316.787	86.19
317.001	-8.02
317.214	6.31
317.428	82.09
317.641	14.51
317.855	39.08
318.068	133.29
318.282	39.08
318.495	147.62
318.709	49.32
318.922	30.89
319.136	110.76
319.349	116.9
319.563	65.71
319.776	114.86
319.99	-81.75
320.203	73.9
320.417	45.23
320.63	73.9
320.843	118.95
321.057	82.09
321.27	-22.36
321.483	59.56
321.697	108.71
321.91	121
322.124	61.61
322.337	106.67
322.55	-59.22
322.763	47.27
322.977	104.62
323.19	43.18
323.403	86.19
323.617	61.61
323.83	135.34
324.043	121
324.256	51.37
324.469	-24.4
324.683	178.34
324.896	41.13
325.109	-10.07
325.322	-12.12
325.535	139.43
325.748	37.03
325.962	-3.93
326.175	16.55
326.388	47.27
326.601	145.58
326.814	30.89
327.027	123.05
327.24	196.78
327.453	4.27
327.666	59.56
327.879	100.52
328.092	123.05
328.305	63.66
328.518	69.8
328.731	-83.8
328.944	71.85
329.157	104.62
329.37	32.94
329.583	172.2
329.796	139.43
330.009	-24.4
330.222	106.67
330.435	51.37
330.648	127.14
330.861	12.46
331.073	41.13
331.286	98.47
331.499	69.8
331.712	-24.4
331.925	65.71
332.138	147.62
332.35	98.47
332.563	49.32
332.776	94.38
332.989	-53.08
333.202	75.95
333.414	51.37
333.627	114.86
333.84	-18.26
334.053	51.37
334.265	24.75
334.478	86.19
334.691	77.99
334.903	57.51
335.116	16.55
335.329	24.75
335.541	82.09
335.754	114.86
335.966	-57.17
336.179	47.27
336.392	80.04
336.604	24.75
336.817	110.76
337.029	82.09
337.242	118.95
337.454	137.38
337.667	-32.6
337.88	172.2
338.092	47.27
338.305	127.14
338.517	-40.79
338.729	102.57
338.942	145.58
339.154	-48.98
339.367	-67.41
339.579	147.62
339.792	14.51
340.004	106.67
340.217	24.75
340.429	24.75
340.641	-36.69
340.854	69.8
341.066	-3.93
341.278	71.85
341.491	168.1
341.703	88.23
341.915	-28.5
342.128	129.19
342.34	41.13
342.552	-12.12
342.764	65.71
342.977	24.75
343.189	71.85
343.401	92.33
343.613	-96.08
343.826	90.28
344.038	37.03
344.25	69.8
344.462	65.71
344.674	14.51
344.886	69.8
345.099	41.13
345.311	90.28
345.523	32.94
345.735	-48.98
345.947	123.05
346.159	30.89
346.371	18.6
346.583	90.28
346.795	225.45
347.007	30.89
347.219	32.94
347.431	63.66
347.643	73.9
347.855	10.41
348.067	137.38
348.279	39.08
348.491	61.61
348.703	106.67
348.915	-24.4
349.127	16.55
349.339	-16.21
349.551	24.75
349.763	82.09
349.975	84.14
350.187	188.58
350.399	30.89
350.61	6.31
350.822	82.09
351.034	32.94
351.246	-57.17
351.458	34.99
351.669	80.04
351.881	147.62
352.093	45.23
352.305	43.18
352.517	86.19
352.728	71.85
352.94	110.76
353.152	77.99
353.363	-3.93
353.575	65.71
353.787	155.82
353.999	37.03
354.21	178.34
354.422	75.95
354.633	-36.69
354.845	65.71
355.057	20.65
355.268	73.9
355.48	116.9
355.692	-5.97
355.903	49.32
356.115	-16.21
356.326	-28.5
356.538	73.9
356.749	127.14
356.961	207.02
357.172	-26.45
357.384	0.17
357.595	194.73
357.807	-28.5
358.018	20.65
358.23	-10.07
358.441	153.77
358.653	77.99
358.864	86.19
359.075	24.75
359.287	71.85
359.498	114.86
359.709	94.38
359.921	82.09
360.132	100.52
360.344	90.28
360.555	41.13
360.766	4.27
360.977	4.27
361.189	100.52
361.4	28.84
361.611	159.91
361.823	104.62
362.034	-12.12
362.245	-44.88
362.456	51.37
362.667	131.24
362.879	28.84
363.09	67.75
363.301	65.71
363.512	143.53
363.723	41.13
363.935	37.03
364.146	110.76
364.357	26.79
364.568	82.09
364.779	-18.26
364.99	118.95
365.201	28.84
365.412	188.58
365.623	-116.56
365.834	82.09
366.045	121
366.256	34.99
366.467	114.86
366.678	47.27
366.889	110.76
367.1	49.32
367.311	59.56
367.522	6.31
367.733	20.65
367.944	86.19
368.155	129.19
368.366	131.24
368.577	80.04
368.788	90.28
368.999	18.6
369.209	24.75
369.42	219.3
369.631	266.41
369.842	131.24
370.053	-110.42
370.264	100.52
370.474	39.08
370.685	-28.5
370.896	-1.88
371.107	65.71
371.317	39.08
371.528	121
371.739	133.29
371.95	61.61
372.16	88.23
372.371	24.75
372.582	14.51
372.792	73.9
373.003	57.51
373.214	77.99
373.424	34.99
373.635	45.23
373.846	82.09
374.056	0.17
374.267	57.51
374.477	61.61
374.688	-32.6
374.898	32.94
375.109	106.67
375.319	32.94
375.53	129.19
375.74	114.86
375.951	-89.94
376.161	129.19
376.372	139.43
376.582	-14.17
376.793	73.9
377.003	63.66
377.214	37.03
377.424	65.71
377.635	-3.93
377.845	34.99
378.055	75.95
378.266	6.31
378.476	8.36
378.686	61.61
378.897	51.37
379.107	86.19
379.317	73.9
379.528	45.23
379.738	22.7
379.948	-46.93
380.158	88.23
380.369	30.89
380.579	112.81
380.789	49.32
380.999	43.18
381.21	86.19
381.42	196.78
381.63	-44.88
381.84	133.29
382.05	80.04
382.261	116.9
382.471	41.13
382.681	4.27
382.891	98.47
383.101	71.85
383.311	-16.21
383.521	-8.02
383.731	98.47
383.941	82.09
384.151	-22.36
384.361	32.94
384.571	65.71
384.781	137.38
384.991	116.9
385.201	110.76
385.411	118.95
385.621	41.13
385.831	106.67
386.041	82.09
386.251	106.67
386.461	94.38
386.671	92.33
386.881	77.99
387.091	18.6
387.301	80.04
387.511	53.42
387.72	71.85
387.93	102.57
388.14	10.41
388.35	98.47
388.56	149.67
388.769	57.51
388.979	32.94
389.189	22.7
389.399	-53.08
389.609	147.62
389.818	192.68
390.028	34.99
390.238	55.47
390.447	-32.6
390.657	98.47
390.867	49.32
391.076	28.84
391.286	118.95
391.496	47.27
391.705	49.32
391.915	186.54
392.125	98.47
392.334	10.41
392.544	102.57
392.753	61.61
392.963	82.09
393.172	57.51
393.382	47.27
393.591	202.92
393.801	47.27
394.01	184.49
394.22	147.62
394.429	45.23
394.639	86.19
394.848	82.09
395.058	73.9
395.267	6.31
395.477	151.72
395.686	28.84
395.895	104.62
396.105	145.58
396.314	51.37
396.524	32.94
396.733	59.56
396.942	106.67
397.152	73.9
397.361	88.23
397.57	108.71
397.78	49.32
397.989	71.85
398.198	237.74
398.407	43.18
398.617	73.9
398.826	82.09
399.035	53.42
399.244	106.67
399.453	41.13
399.663	106.67
399.872	82.09
400.081	4.27
400.29	104.62
400.499	41.13
400.708	118.95
400.917	2.22
401.127	45.23
401.336	39.08
401.545	131.24
401.754	90.28
401.963	139.43
402.172	-1.88
402.381	0.17
402.59	-3.93
402.799	69.8
403.008	194.73
403.217	121
403.426	133.29
403.635	0.17
403.844	63.66
404.053	28.84
404.262	73.9
404.471	127.14
404.68	73.9
404.888	61.61
405.097	51.37
405.306	73.9
405.515	-32.6
405.724	49.32
405.933	204.97
406.142	59.56
406.35	135.34
406.559	65.71
406.768	49.32
406.977	250.02
407.185	45.23
407.394	98.47
407.603	86.19
407.812	102.57
408.02	168.1
408.229	32.94
408.438	114.86
408.646	4.27
408.855	24.75
409.064	137.38
409.272	-30.55
409.481	80.04
409.69	39.08
409.898	8.36
410.107	86.19
410.315	178.34
410.524	-24.4
410.733	80.04
410.941	53.42
411.15	86.19
411.358	116.9
411.567	184.49
411.775	86.19
411.984	22.7
412.192	98.47
412.401	39.08
412.609	121
412.818	166.06
413.026	143.53
413.234	14.51
413.443	12.46
413.651	-12.12
413.86	-10.07
414.068	213.16
414.276	80.04
414.485	12.46
414.693	69.8
414.901	196.78
415.11	123.05
415.318	65.71
415.526	57.51
415.734	211.11
415.943	65.71
416.151	102.57
416.359	14.51
416.567	43.18
416.776	114.86
416.984	116.9
417.192	145.58
417.4	-57.17
417.608	4.27
417.817	84.14
418.025	147.62
418.233	131.24
418.441	63.66
418.649	-30.55
418.857	98.47
419.065	164.01
419.273	102.57
419.481	39.08
419.689	51.37
419.897	4.27
420.105	-8.02
420.313	106.67
420.521	137.38
420.729	166.06
420.937	49.32
421.145	10.41
421.353	106.67
421.561	153.77
421.769	118.95
421.977	22.7
422.185	82.09
422.393	75.95
422.601	141.48
422.809	106.67
423.017	121
423.224	112.81
423.432	137.38
423.64	90.28
423.848	139.43
424.056	47.27
424.263	233.64
424.471	37.03
424.679	118.95
424.887	69.8
425.094	55.47
425.302	213.16
425.51	57.51
425.718	141.48
425.925	82.09
426.133	59.56
426.341	194.73
426.548	41.13
426.756	63.66
426.964	123.05
427.171	69.8
427.379	47.27
427.586	77.99
427.794	114.86
428.001	114.86
428.209	125.1
428.417	164.01
428.624	80.04
428.832	155.82
429.039	55.47
429.247	90.28
429.454	90.28
429.662	213.16
429.869	104.62
430.076	104.62
430.284	123.05
430.491	231.59
430.699	75.95
430.906	209.06
431.114	153.77
431.321	184.49
431.528	114.86
431.736	198.82
431.943	168.1
432.15	196.78
432.358	217.26
432.565	178.34
432.772	37.03
432.979	256.17
433.187	170.15
433.394	170.15
433.601	159.91
433.808	235.69
434.016	209.06
434.223	233.64
434.43	264.36
434.637	319.65
434.844	231.59
435.052	194.73
435.259	333.99
435.466	307.37
435.673	260.26
435.88	278.69
436.087	323.75
436.294	301.22
436.501	303.27
436.708	260.26
436.915	295.08
437.122	411.81
437.329	327.85
437.537	268.45
437.743	331.94
437.95	383.14
438.157	389.28
438.364	426.15
438.571	401.57
438.778	442.53
438.985	407.72
439.192	544.93
439.399	450.72
439.606	499.88
439.813	585.89
440.02	684.19
440.227	655.52
440.433	579.75
440.64	583.84
440.847	512.16
441.054	579.75
441.261	782.49
441.467	567.46
441.674	614.56
441.881	706.72
442.088	680.1
442.294	815.26
442.501	762.02
442.708	755.87
442.914	792.73
443.121	831.65
443.328	897.18
443.534	950.43
443.741	940.19
443.948	874.65
444.154	1032.35
444.361	1187.99
444.568	1130.65
444.774	1081.5
444.981	995.48
445.187	1271.96
445.394	1089.69
445.6	1161.37
445.807	1380.5
446.013	1304.73
446.22	1306.77
446.426	1435.8
446.633	1503.38
446.839	1605.78
447.046	1570.96
447.252	1683.6
447.459	1767.57
447.665	1726.61
447.871	1802.38
448.078	2091.15
448.284	1949.84
448.491	1976.46
448.697	2203.79
448.903	2316.42
449.11	2250.89
449.316	2291.85
449.522	2470.02
449.728	2539.65
449.935	2592.9
450.141	2570.37
450.347	2924.67
450.553	2838.66
450.76	2838.66
450.966	2994.3
451.172	3135.61
451.378	3358.84
451.584	3268.73
451.791	3496.05
451.997	3588.21
452.203	3547.25
452.409	3915.89
452.615	3903.6
452.821	4077.68
453.027	4020.33
453.233	4612.2
453.44	4321.38
453.646	4548.71
453.852	4853.86
454.058	5027.93
454.264	5017.69
454.47	5324.89
454.676	5292.12
454.882	6000.72
455.088	5662.8
455.294	5881.94
455.5	6367.31
455.705	6617.16
455.911	6840.39
456.117	6897.73
456.323	7243.84
456.529	7327.8
456.735	7893.04
456.941	8112.17
457.147	8546.34
457.352	8558.63
457.558	8796.2
457.764	9406.49
457.97	9680.92
458.176	10018.83
458.381	10352.65
458.587	10412.04
458.793	11309.05
458.999	11149.31
459.204	12611.56
459.41	12824.55
459.616	12910.57
459.821	13244.38
460.027	14174.16
460.233	14772.17
460.438	14905.29
460.644	15699.9
460.85	16043.96
461.055	16662.44
461.261	17125.29
461.466	16957.35
461.672	17223.59
461.878	19105.67
462.083	19066.76
462.289	19382.15
462.494	20135.8
462.7	20580.21
462.905	20483.95
463.111	22523.73
463.316	23639.87
463.522	23742.27
463.727	24524.6
463.932	25571.11
464.138	26648.34
464.343	27561.73
464.549	27711.24
464.754	29689.57
464.959	30719.7
465.165	31030.99
465.37	31221.45
465.575	30639.83
465.781	32870.07
465.986	33863.33
466.191	33277.61
466.397	33640.11
466.602	32892.6
466.807	34563.74
467.012	35184.27
467.218	35624.59
467.423	36136.58
467.628	36947.57
467.833	38766.17
468.038	38004.33
468.244	37647.98
468.449	39224.92
468.654	38522.46
468.859	38471.26
469.064	38811.23
469.269	37676.65
