Data from USB4F104151__21__11-24-41-106.txt Node

Date: Wed Feb 26 11:24:41 EST 2025
User: louis
Spectrometer: USB4F10415
Trigger mode: 4
Integration Time (sec): 1.000000E-1
Scans to average: 1
Electric dark correction enabled: true
Nonlinearity correction enabled: false
Boxcar width: 0
XAxis mode: Wavelengths
Number of Pixels in Spectrum: 3648
>>>>>Begin Spectral Data<<<<<
178.204	-436.73
178.424	-436.73
178.644	-436.73
178.864	-432.63
179.084	-387.58
179.304	-53.76
179.524	-29.18
179.744	15.87
179.964	54.78
180.184	-10.75
180.404	17.92
180.624	-12.8
180.844	87.55
181.064	-61.95
181.283	-0.51
181.503	-25.09
181.723	17.92
181.943	-113.15
182.163	151.04
182.383	-25.09
182.602	85.5
182.822	155.13
183.042	38.4
183.262	-14.85
183.482	32.26
183.701	9.73
183.921	79.36
184.141	-31.23
184.361	81.41
184.58	101.89
184.8	30.21
185.02	-98.81
185.239	83.45
185.459	97.79
185.679	140.8
185.898	-100.86
186.118	75.26
186.338	91.65
186.557	136.7
186.777	-111.1
186.997	26.11
187.216	95.74
187.436	140.8
187.655	56.83
187.875	159.23
188.095	52.74
188.314	163.33
188.534	148.99
188.753	-4.61
188.973	81.41
189.192	169.47
189.412	54.78
189.631	-37.38
189.851	5.63
190.07	181.76
190.29	-82.43
190.509	-53.76
190.729	22.02
190.948	56.83
191.168	216.57
191.387	67.07
191.607	-2.56
191.826	32.26
192.045	-18.94
192.265	-55.81
192.484	-47.62
192.704	71.17
192.923	-37.38
193.142	144.89
193.362	60.93
193.581	114.17
193.8	9.73
194.02	91.65
194.239	26.11
194.458	9.73
194.678	48.64
194.897	73.21
195.116	36.35
195.335	46.59
195.555	7.68
195.774	-0.51
195.993	97.79
196.212	38.4
196.432	-6.66
196.651	7.68
196.87	52.74
197.089	222.72
197.308	69.12
197.528	189.95
197.747	-86.53
197.966	65.02
198.185	144.89
198.404	-57.86
198.623	103.93
198.842	138.75
199.062	71.17
199.281	132.61
199.5	40.45
199.719	122.37
199.938	99.84
200.157	116.22
200.376	-25.09
200.595	89.6
200.814	5.63
201.033	-57.86
201.252	120.32
201.471	-31.23
201.69	69.12
201.909	32.26
202.128	118.27
202.347	62.98
202.566	-12.8
202.785	-2.56
203.004	-90.62
203.223	245.24
203.442	77.31
203.661	-66.05
203.879	91.65
204.098	91.65
204.317	-80.38
204.536	77.31
204.755	91.65
204.974	124.41
205.193	11.78
205.411	142.85
205.63	73.21
205.849	120.32
206.068	44.54
206.287	-16.9
206.505	206.33
206.724	38.4
206.943	-12.8
207.162	-0.51
207.381	11.78
207.599	40.45
207.818	42.5
208.037	24.06
208.255	73.21
208.474	83.45
208.693	11.78
208.911	-18.94
209.13	138.75
209.349	122.37
209.567	126.46
209.786	87.55
210.005	110.08
210.223	-6.66
210.442	-88.57
210.661	13.82
210.879	28.16
211.098	50.69
211.316	5.63
211.535	67.07
211.753	-0.51
211.972	34.3
212.191	7.68
212.409	-8.7
212.628	83.45
212.846	-27.14
213.065	56.83
213.283	99.84
213.502	38.4
213.72	44.54
213.938	56.83
214.157	7.68
214.375	89.6
214.594	40.45
214.812	114.17
215.031	48.64
215.249	58.88
215.467	15.87
215.686	71.17
215.904	13.82
216.122	32.26
216.341	165.37
216.559	38.4
216.778	155.13
216.996	177.66
217.214	22.02
217.432	17.92
217.651	-82.43
217.869	50.69
218.087	81.41
218.306	5.63
218.524	75.26
218.742	-86.53
218.96	81.41
219.179	34.3
219.397	3.58
219.615	196.09
219.833	22.02
220.051	-6.66
220.27	122.37
220.488	81.41
220.706	44.54
220.924	58.88
221.142	-10.75
221.36	-4.61
221.578	19.97
221.796	3.58
222.015	17.92
222.233	73.21
222.451	110.08
222.669	15.87
222.887	-10.75
223.105	38.4
223.323	-0.51
223.541	3.58
223.759	67.07
223.977	36.35
224.195	126.46
224.413	157.18
224.631	40.45
224.849	46.59
225.067	210.43
225.285	56.83
225.503	5.63
225.721	-37.38
225.939	69.12
226.157	101.89
226.375	292.35
226.592	-20.99
226.81	32.26
227.028	56.83
227.246	169.47
227.464	44.54
227.682	26.11
227.9	89.6
228.117	22.02
228.335	79.36
228.553	22.02
228.771	42.5
228.989	-31.23
229.206	132.61
229.424	52.74
229.642	24.06
229.86	-0.51
230.077	112.13
230.295	40.45
230.513	120.32
230.731	69.12
230.948	126.46
231.166	196.09
231.384	11.78
231.601	-23.04
231.819	122.37
232.037	5.63
232.254	-64
232.472	28.16
232.689	-12.8
232.907	108.03
233.125	-18.94
233.342	-31.23
233.56	-53.76
233.777	-18.94
233.995	42.5
234.213	75.26
234.43	-25.09
234.648	52.74
234.865	60.93
235.083	-23.04
235.3	103.93
235.518	103.93
235.735	73.21
235.953	73.21
236.17	91.65
236.388	99.84
236.605	22.02
236.822	38.4
237.04	126.46
237.257	48.64
237.475	-86.53
237.692	58.88
237.909	103.93
238.127	-84.48
238.344	81.41
238.562	30.21
238.779	-49.66
238.996	-90.62
239.214	-59.9
239.431	40.45
239.648	-49.66
239.865	22.02
240.083	50.69
240.3	-14.85
240.517	44.54
240.735	30.21
240.952	175.61
241.169	52.74
241.386	130.56
241.603	-61.95
241.821	-96.77
242.038	128.51
242.255	83.45
242.472	-37.38
242.689	110.08
242.907	56.83
243.124	50.69
243.341	46.59
243.558	34.3
243.775	-57.86
243.992	-39.42
244.209	52.74
244.426	157.18
244.643	60.93
244.86	116.22
245.078	122.37
245.295	52.74
245.512	5.63
245.729	22.02
245.946	62.98
246.163	15.87
246.38	5.63
246.597	-14.85
246.814	-0.51
247.031	52.74
247.248	-51.71
247.464	44.54
247.681	58.88
247.898	140.8
248.115	40.45
248.332	-39.42
248.549	69.12
248.766	161.28
248.983	67.07
249.2	175.61
249.417	44.54
249.633	13.82
249.85	83.45
250.067	7.68
250.284	52.74
250.501	26.11
250.717	99.84
250.934	-57.86
251.151	38.4
251.368	54.78
251.585	75.26
251.801	71.17
252.018	13.82
252.235	67.07
252.451	-90.62
252.668	48.64
252.885	169.47
253.102	67.07
253.318	17.92
253.535	24.06
253.752	5.63
253.968	-37.38
254.185	-20.99
254.401	38.4
254.618	87.55
254.835	15.87
255.051	151.04
255.268	48.64
255.484	97.79
255.701	24.06
255.917	34.3
256.134	-47.62
256.351	-8.7
256.567	3.58
256.784	-0.51
257	-35.33
257.217	73.21
257.433	134.65
257.65	42.5
257.866	50.69
258.082	-70.14
258.299	-10.75
258.515	-16.9
258.732	24.06
258.948	67.07
259.165	5.63
259.381	32.26
259.597	108.03
259.814	60.93
260.03	56.83
260.246	-0.51
260.463	110.08
260.679	128.51
260.895	91.65
261.112	79.36
261.328	7.68
261.544	-53.76
261.761	128.51
261.977	-39.42
262.193	-47.62
262.409	110.08
262.626	32.26
262.842	-37.38
263.058	-59.9
263.274	81.41
263.49	69.12
263.707	105.98
263.923	73.21
264.139	-39.42
264.355	114.17
264.571	114.17
264.787	28.16
265.004	151.04
265.22	48.64
265.436	-14.85
265.652	28.16
265.868	-12.8
266.084	-98.81
266.3	28.16
266.516	5.63
266.732	48.64
266.948	-6.66
267.164	7.68
267.38	73.21
267.596	-27.14
267.812	58.88
268.028	83.45
268.244	22.02
268.46	-39.42
268.676	19.97
268.892	-0.51
269.108	-33.28
269.324	-72.19
269.54	13.82
269.756	85.5
269.972	-78.33
270.188	-64
270.403	-33.28
270.619	-20.99
270.835	103.93
271.051	114.17
271.267	-55.81
271.483	13.82
271.698	50.69
271.914	24.06
272.13	50.69
272.346	-0.51
272.562	42.5
272.777	89.6
272.993	52.74
273.209	-0.51
273.425	91.65
273.64	-53.76
273.856	105.98
274.072	-68.09
274.287	-68.09
274.503	7.68
274.719	155.13
274.934	-31.23
275.15	-37.38
275.366	75.26
275.581	-16.9
275.797	15.87
276.012	99.84
276.228	9.73
276.444	87.55
276.659	42.5
276.875	-31.23
277.09	11.78
277.306	15.87
277.521	-25.09
277.737	7.68
277.952	24.06
278.168	46.59
278.383	97.79
278.599	26.11
278.814	81.41
279.03	-4.61
279.245	204.28
279.461	38.4
279.676	132.61
279.892	-8.7
280.107	-80.38
280.322	-18.94
280.538	24.06
280.753	-29.18
280.969	36.35
281.184	32.26
281.399	132.61
281.615	3.58
281.83	-10.75
282.045	-53.76
282.26	19.97
282.476	-23.04
282.691	116.22
282.906	71.17
283.122	-14.85
283.337	-43.52
283.552	42.5
283.767	28.16
283.983	91.65
284.198	-33.28
284.413	77.31
284.628	-111.1
284.843	73.21
285.058	40.45
285.274	-6.66
285.489	30.21
285.704	36.35
285.919	5.63
286.134	36.35
286.349	-37.38
286.564	24.06
286.779	142.85
286.995	-8.7
287.21	-33.28
287.425	15.87
287.64	-43.52
287.855	93.69
288.07	-66.05
288.285	108.03
288.5	155.13
288.715	85.5
288.93	15.87
289.145	44.54
289.36	112.13
289.575	38.4
289.79	146.94
290.004	-10.75
290.219	114.17
290.434	-61.95
290.649	22.02
290.864	83.45
291.079	-82.43
291.294	-4.61
291.509	-14.85
291.724	-25.09
291.938	42.5
292.153	58.88
292.368	-8.7
292.583	87.55
292.798	77.31
293.012	54.78
293.227	60.93
293.442	44.54
293.657	44.54
293.871	138.75
294.086	62.98
294.301	187.9
294.516	105.98
294.73	-43.52
294.945	24.06
295.16	17.92
295.374	126.46
295.589	65.02
295.804	-39.42
296.018	9.73
296.233	132.61
296.447	-35.33
296.662	-6.66
296.877	87.55
297.091	114.17
297.306	93.69
297.52	58.88
297.735	50.69
297.949	36.35
298.164	40.45
298.378	128.51
298.593	-12.8
298.807	-29.18
299.022	-0.51
299.236	69.12
299.451	-90.62
299.665	-25.09
299.88	-51.71
300.094	48.64
300.309	19.97
300.523	67.07
300.737	44.54
300.952	17.92
301.166	24.06
301.381	-18.94
301.595	-23.04
301.809	3.58
302.024	-31.23
302.238	-27.14
302.452	116.22
302.667	11.78
302.881	148.99
303.095	83.45
303.309	-12.8
303.524	44.54
303.738	-29.18
303.952	48.64
304.166	77.31
304.381	-111.1
304.595	169.47
304.809	-23.04
305.023	42.5
305.237	-12.8
305.452	-25.09
305.666	89.6
305.88	105.98
306.094	101.89
306.308	85.5
306.522	124.41
306.736	40.45
306.95	110.08
307.164	-27.14
307.379	-14.85
307.593	196.09
307.807	142.85
308.021	97.79
308.235	28.16
308.449	-86.53
308.663	42.5
308.877	120.32
309.091	40.45
309.305	140.8
309.519	-96.77
309.733	99.84
309.947	-35.33
310.161	28.16
310.374	75.26
310.588	181.76
310.802	-0.51
311.016	34.3
311.23	157.18
311.444	-33.28
311.658	-2.56
311.872	97.79
312.085	91.65
312.299	105.98
312.513	142.85
312.727	110.08
312.941	-94.72
313.154	114.17
313.368	67.07
313.582	26.11
313.796	114.17
314.009	38.4
314.223	151.04
314.437	93.69
314.651	52.74
314.864	13.82
315.078	46.59
315.292	-80.38
315.505	3.58
315.719	103.93
315.933	22.02
316.146	-29.18
316.36	-2.56
316.573	124.41
316.787	50.69
317.001	32.26
317.214	13.82
317.428	17.92
317.641	-29.18
317.855	28.16
318.068	5.63
318.282	-29.18
318.495	214.52
318.709	105.98
318.922	44.54
319.136	146.94
319.349	120.32
319.563	-27.14
319.776	87.55
319.99	-64
320.203	73.21
320.417	-0.51
320.63	69.12
320.843	122.37
321.057	116.22
321.27	15.87
321.483	75.26
321.697	148.99
321.91	38.4
322.124	71.17
322.337	24.06
322.55	-10.75
322.763	103.93
322.977	-23.04
323.19	-41.47
323.403	71.17
323.617	83.45
323.83	136.7
324.043	34.3
324.256	93.69
324.469	-76.29
324.683	62.98
324.896	-33.28
325.109	40.45
325.322	-113.15
325.535	161.28
325.748	114.17
325.962	-27.14
326.175	44.54
326.388	62.98
326.601	7.68
326.814	1.54
327.027	77.31
327.24	89.6
327.453	-55.81
327.666	58.88
327.879	144.89
328.092	83.45
328.305	73.21
328.518	3.58
328.731	-12.8
328.944	52.74
329.157	77.31
329.37	-27.14
329.583	241.15
329.796	103.93
330.009	-125.44
330.222	134.65
330.435	71.17
330.648	24.06
330.861	56.83
331.073	36.35
331.286	103.93
331.499	44.54
331.712	-10.75
331.925	38.4
332.138	19.97
332.35	136.7
332.563	-53.76
332.776	87.55
332.989	67.07
333.202	62.98
333.414	22.02
333.627	-41.47
333.84	7.68
334.053	40.45
334.265	32.26
334.478	-4.61
334.691	42.5
334.903	34.3
335.116	-72.19
335.329	-6.66
335.541	54.78
335.754	161.28
335.966	-10.75
336.179	58.88
336.392	17.92
336.604	-4.61
336.817	75.26
337.029	95.74
337.242	40.45
337.454	73.21
337.667	3.58
337.88	101.89
338.092	5.63
338.305	130.56
338.517	-37.38
338.729	155.13
338.942	124.41
339.154	-33.28
339.367	-104.96
339.579	36.35
339.792	-8.7
340.004	105.98
340.217	24.06
340.429	85.5
340.641	-2.56
340.854	-45.57
341.066	1.54
341.278	157.18
341.491	134.65
341.703	11.78
341.915	-31.23
342.128	65.02
342.34	110.08
342.552	-31.23
342.764	52.74
342.977	50.69
343.189	28.16
343.401	5.63
343.613	-119.29
343.826	7.68
344.038	54.78
344.25	87.55
344.462	-8.7
344.674	3.58
344.886	-27.14
345.099	32.26
345.311	136.7
345.523	-4.61
345.735	-78.33
345.947	99.84
346.159	13.82
346.371	15.87
346.583	-39.42
346.795	148.99
347.007	-33.28
347.219	83.45
347.431	54.78
347.643	101.89
347.855	46.59
348.067	214.52
348.279	-74.24
348.491	42.5
348.703	65.02
348.915	71.17
349.127	-4.61
349.339	32.26
349.551	-45.57
349.763	56.83
349.975	13.82
350.187	83.45
350.399	157.18
350.61	5.63
350.822	38.4
351.034	9.73
351.246	-12.8
351.458	54.78
351.669	93.69
351.881	32.26
352.093	140.8
352.305	54.78
352.517	-4.61
352.728	126.46
352.94	73.21
353.152	26.11
353.363	-14.85
353.575	93.69
353.787	118.27
353.999	65.02
354.21	187.9
354.422	22.02
354.633	-10.75
354.845	58.88
355.057	83.45
355.268	15.87
355.48	132.61
355.692	-27.14
355.903	-8.7
356.115	-51.71
356.326	-37.38
356.538	73.21
356.749	46.59
356.961	77.31
357.172	-31.23
357.384	-68.09
357.595	249.34
357.807	-37.38
358.018	22.02
358.23	-51.71
358.441	253.44
358.653	91.65
358.864	-51.71
359.075	9.73
359.287	93.69
359.498	62.98
359.709	134.65
359.921	3.58
360.132	24.06
360.344	42.5
360.555	-23.04
360.766	101.89
360.977	42.5
361.189	79.36
361.4	-18.94
361.611	58.88
361.823	99.84
362.034	65.02
362.245	-45.57
362.456	32.26
362.667	85.5
362.879	9.73
363.09	36.35
363.301	54.78
363.512	83.45
363.723	-8.7
363.935	-29.18
364.146	26.11
364.357	30.21
364.568	71.17
364.779	-51.71
364.99	169.47
365.201	-49.66
365.412	151.04
365.623	7.68
365.834	73.21
366.045	13.82
366.256	91.65
366.467	108.03
366.678	19.97
366.889	62.98
367.1	-33.28
367.311	56.83
367.522	7.68
367.733	134.65
367.944	65.02
368.155	-39.42
368.366	48.64
368.577	28.16
368.788	148.99
368.999	-35.33
369.209	-14.85
369.42	210.43
369.631	167.42
369.842	50.69
370.053	19.97
370.264	87.55
370.474	-64
370.685	54.78
370.896	3.58
371.107	134.65
371.317	93.69
371.528	15.87
371.739	132.61
371.95	60.93
372.16	130.56
372.371	-82.43
372.582	56.83
372.792	40.45
373.003	126.46
373.214	30.21
373.424	130.56
373.635	-12.8
373.846	146.94
374.056	67.07
374.267	97.79
374.477	71.17
374.688	-10.75
374.898	44.54
375.109	54.78
375.319	38.4
375.53	79.36
375.74	93.69
375.951	24.06
376.161	17.92
376.372	75.26
376.582	5.63
376.793	26.11
377.003	-4.61
377.214	-18.94
377.424	67.07
377.635	26.11
377.845	-61.95
378.055	169.47
378.266	-39.42
378.476	38.4
378.686	52.74
378.897	44.54
379.107	118.27
379.317	38.4
379.528	48.64
379.738	17.92
379.948	-51.71
380.158	146.94
380.369	24.06
380.579	65.02
380.789	5.63
380.999	32.26
381.21	34.3
381.42	124.41
381.63	85.5
381.84	44.54
382.05	75.26
382.261	54.78
382.471	167.42
382.681	17.92
382.891	140.8
383.101	97.79
383.311	-0.51
383.521	5.63
383.731	69.12
383.941	120.32
384.151	110.08
384.361	28.16
384.571	11.78
384.781	54.78
384.991	126.46
385.201	198.14
385.411	87.55
385.621	105.98
385.831	56.83
386.041	58.88
386.251	19.97
386.461	138.75
386.671	81.41
386.881	118.27
387.091	42.5
387.301	17.92
387.511	52.74
387.72	97.79
387.93	126.46
388.14	-25.09
388.35	50.69
388.56	130.56
388.769	52.74
388.979	-18.94
389.189	-16.9
389.399	30.21
389.609	85.5
389.818	67.07
390.028	67.07
390.238	75.26
390.447	-16.9
390.657	58.88
390.867	9.73
391.076	-80.38
391.286	-0.51
391.496	-20.99
391.705	54.78
391.915	138.75
392.125	112.13
392.334	50.69
392.544	75.26
392.753	75.26
392.963	40.45
393.172	-10.75
393.382	1.54
393.591	200.19
393.801	-12.8
394.01	114.17
394.22	95.74
394.429	15.87
394.639	-68.09
394.848	108.03
395.058	7.68
395.267	44.54
395.477	87.55
395.686	83.45
395.895	200.19
396.105	179.71
396.314	75.26
396.524	17.92
396.733	42.5
396.942	97.79
397.152	108.03
397.361	83.45
397.57	30.21
397.78	58.88
397.989	34.3
398.198	269.82
398.407	97.79
398.617	-41.47
398.826	13.82
399.035	17.92
399.244	163.33
399.453	-2.56
399.663	26.11
399.872	36.35
400.081	-98.81
400.29	163.33
400.499	46.59
400.708	114.17
400.917	-12.8
401.127	9.73
401.336	62.98
401.545	138.75
401.754	136.7
401.963	85.5
402.172	32.26
402.381	-80.38
402.59	22.02
402.799	81.41
403.008	163.33
403.217	38.4
403.426	101.89
403.635	-84.48
403.844	30.21
404.053	-23.04
404.262	-14.85
404.471	105.98
404.68	19.97
404.888	46.59
405.097	75.26
405.306	24.06
405.515	69.12
405.724	-2.56
405.933	105.98
406.142	38.4
406.35	122.37
406.559	79.36
406.768	62.98
406.977	81.41
407.185	108.03
407.394	81.41
407.603	-119.29
407.812	99.84
408.02	161.28
408.229	93.69
408.438	24.06
408.646	-59.9
408.855	38.4
409.064	97.79
409.272	17.92
409.481	19.97
409.69	-39.42
409.898	-33.28
410.107	83.45
410.315	134.65
410.524	99.84
410.733	79.36
410.941	-4.61
411.15	136.7
411.358	85.5
411.567	138.75
411.775	9.73
411.984	56.83
412.192	138.75
412.401	15.87
412.609	155.13
412.818	120.32
413.026	105.98
413.234	11.78
413.443	30.21
413.651	26.11
413.86	54.78
414.068	146.94
414.276	128.51
414.485	-43.52
414.693	144.89
414.901	97.79
415.11	89.6
415.318	22.02
415.526	75.26
415.734	122.37
415.943	11.78
416.151	185.85
416.359	-41.47
416.567	73.21
416.776	42.5
416.984	108.03
417.192	77.31
417.4	48.64
417.608	-18.94
417.817	-23.04
418.025	112.13
418.233	245.24
418.441	-39.42
418.649	-82.43
418.857	9.73
419.065	44.54
419.273	44.54
419.481	116.22
419.689	5.63
419.897	-18.94
420.105	-47.62
420.313	95.74
420.521	93.69
420.729	42.5
420.937	-29.18
421.145	-35.33
421.353	44.54
421.561	91.65
421.769	5.63
421.977	124.41
422.185	130.56
422.393	-8.7
422.601	144.89
422.809	60.93
423.017	48.64
423.224	54.78
423.432	116.22
423.64	3.58
423.848	103.93
424.056	-16.9
424.263	71.17
424.471	28.16
424.679	52.74
424.887	-33.28
425.094	130.56
425.302	114.17
425.51	-8.7
425.718	42.5
425.925	-18.94
426.133	-64
426.341	259.58
426.548	58.88
426.756	40.45
426.964	108.03
427.171	54.78
427.379	83.45
427.586	62.98
427.794	95.74
428.001	85.5
428.209	114.17
428.417	232.96
428.624	99.84
428.832	11.78
429.039	42.5
429.247	110.08
429.454	22.02
429.662	155.13
429.869	103.93
430.076	50.69
430.284	175.61
430.491	183.81
430.699	157.18
430.906	185.85
431.114	114.17
431.321	56.83
431.528	148.99
431.736	60.93
431.943	138.75
432.15	128.51
432.358	177.66
432.565	204.28
432.772	26.11
432.979	167.42
433.187	91.65
433.394	237.05
433.601	93.69
433.808	200.19
434.016	144.89
434.223	226.81
434.43	159.23
434.637	210.43
434.844	189.95
435.052	200.19
435.259	171.52
435.466	212.48
435.673	157.18
435.88	189.95
436.087	310.78
436.294	202.24
436.501	183.81
436.708	210.43
436.915	247.29
437.122	222.72
437.329	222.72
437.537	206.33
437.743	144.89
437.95	411.13
438.157	341.5
438.364	304.64
438.571	325.12
438.778	318.97
438.985	323.07
439.192	357.88
439.399	269.82
439.606	294.4
439.813	407.03
440.02	456.19
440.227	486.9
440.433	390.65
440.64	390.65
440.847	321.02
441.054	419.32
441.261	552.44
441.467	417.27
441.674	415.23
441.881	607.73
442.088	497.14
442.294	529.91
442.501	632.31
442.708	599.54
442.914	581.11
443.121	632.31
443.328	718.33
443.534	685.56
443.741	724.47
443.948	529.91
444.154	710.13
444.361	890.35
444.568	744.95
444.774	759.28
444.981	620.02
445.187	927.22
445.394	798.2
445.6	861.68
445.807	892.4
446.013	894.45
446.22	859.63
446.426	1035.76
446.633	970.23
446.839	1136.11
447.046	1025.52
447.252	1185.26
447.459	1058.29
447.665	1050.1
447.871	1248.75
448.078	1406.44
448.284	1279.47
448.491	1486.31
448.697	1517.03
448.903	1553.9
449.11	1609.19
449.316	1519.08
449.522	1664.49
449.728	1750.5
449.935	1766.89
450.141	1756.65
450.347	2037.22
450.553	1848.8
450.76	1961.44
450.966	2018.79
451.172	1951.2
451.378	2221.53
451.584	2156
451.791	2438.62
451.997	2581.98
452.203	2489.82
452.409	2729.43
452.615	2723.29
452.821	2733.53
453.027	2813.4
453.233	3079.63
453.44	2850.26
453.646	3032.53
453.852	3270.09
454.058	3313.1
454.264	3536.33
454.47	3769.8
454.676	3665.35
454.882	4033.99
455.088	3978.69
455.294	4085.19
455.5	4447.68
455.705	4498.88
455.911	4697.53
456.117	4677.05
456.323	4861.37
456.529	4869.56
456.735	5356.97
456.941	5490.09
457.147	5780.9
457.352	5660.07
457.558	5946.79
457.764	6346.14
457.97	6610.33
458.176	6794.65
458.381	7040.4
458.587	7124.37
458.793	7456.14
458.999	7478.67
459.204	8326.53
459.41	8695.16
459.616	8650.11
459.821	9192.82
460.027	9358.71
460.233	9971.05
460.438	10079.59
460.644	10562.91
460.85	10575.2
461.055	11122.01
461.261	11707.73
461.466	11355.47
461.672	11642.19
461.878	13249.85
462.083	12864.83
462.289	13118.78
462.494	13581.62
462.7	13729.07
462.905	13978.92
463.111	15115.55
463.316	15887.63
463.522	16336.13
463.727	16569.6
463.932	17417.46
464.138	17939.69
464.343	18740.45
464.549	18556.13
464.754	20075.73
464.959	20602.05
465.165	20784.32
465.37	20729.03
465.575	20827.33
465.781	22185.13
465.986	22733.99
466.191	22379.69
466.397	22561.96
466.602	22090.93
466.807	23313.56
467.012	23880.85
467.218	24300.69
467.423	24495.24
467.628	25017.47
467.833	26352.75
468.038	25683.06
468.244	25306.24
468.449	26635.37
468.654	26086.51
468.859	25959.54
469.064	26281.07
