Data from USB4F104151__116__10-36-31-922.txt Node

Date: Wed Feb 26 10:36:31 EST 2025
User: louis
Spectrometer: USB4F10415
Trigger mode: 4
Integration Time (sec): 1.000000E-1
Scans to average: 1
Electric dark correction enabled: true
Nonlinearity correction enabled: false
Boxcar width: 0
XAxis mode: Wavelengths
Number of Pixels in Spectrum: 3648
>>>>>Begin Spectral Data<<<<<
178.204	-377.85
178.424	-377.85
178.644	-377.85
178.864	-394.23
179.084	-412.67
179.304	7.17
179.524	15.36
179.744	-54.27
179.964	-11.26
180.184	7.17
180.404	3.07
180.624	3.07
180.844	41.98
181.064	-93.18
181.283	66.56
181.503	-27.65
181.723	41.98
181.943	-64.51
182.163	207.87
182.383	-23.55
182.602	33.79
182.822	146.43
183.042	48.13
183.262	-25.6
183.482	-27.65
183.701	15.36
183.921	60.42
184.141	-64.51
184.361	95.23
184.58	101.37
184.8	140.29
185.02	48.13
185.239	177.15
185.459	144.38
185.679	101.37
185.898	-152.57
186.118	17.41
186.338	35.84
186.557	175.1
186.777	-11.26
186.997	-7.17
187.216	87.04
187.436	193.53
187.655	105.47
187.875	101.37
188.095	9.22
188.314	156.67
188.534	105.47
188.753	-31.74
188.973	130.05
189.192	259.07
189.412	-7.17
189.631	41.98
189.851	156.67
190.07	107.52
190.29	21.5
190.509	-37.89
190.729	62.46
190.948	136.19
191.168	228.35
191.387	54.27
191.607	-11.26
191.826	54.27
192.045	136.19
192.265	-41.98
192.484	29.7
192.704	31.74
192.923	-58.37
193.142	218.11
193.362	154.62
193.581	109.57
193.8	140.29
194.02	152.57
194.239	72.7
194.458	109.57
194.678	11.26
194.897	115.71
195.116	37.89
195.335	41.98
195.555	60.42
195.774	7.17
195.993	132.09
196.212	95.23
196.432	25.6
196.651	72.7
196.87	11.26
197.089	201.72
197.308	66.56
197.528	76.8
197.747	-50.18
197.966	60.42
198.185	109.57
198.404	-37.89
198.623	97.28
198.842	78.85
199.062	48.13
199.281	203.77
199.5	15.36
199.719	111.61
199.938	87.04
200.157	121.85
200.376	134.14
200.595	150.53
200.814	138.24
201.033	-27.65
201.252	136.19
201.471	74.75
201.69	46.08
201.909	78.85
202.128	138.24
202.347	99.33
202.566	1.02
202.785	-13.31
203.004	35.84
203.223	175.1
203.442	-68.61
203.661	-17.41
203.879	70.65
204.098	140.29
204.317	-46.08
204.536	111.61
204.755	84.99
204.974	99.33
205.193	13.31
205.411	128
205.63	89.09
205.849	52.22
206.068	52.22
206.287	-54.27
206.505	132.09
206.724	7.17
206.943	-7.17
207.162	-31.74
207.381	80.89
207.599	72.7
207.818	113.66
208.037	-17.41
208.255	-50.18
208.474	66.56
208.693	80.89
208.911	48.13
209.13	164.86
209.349	76.8
209.567	76.8
209.786	68.61
210.005	136.19
210.223	54.27
210.442	-146.43
210.661	62.46
210.879	105.47
211.098	97.28
211.316	19.46
211.535	125.95
211.753	9.22
211.972	87.04
212.191	29.7
212.409	50.18
212.628	97.28
212.846	17.41
213.065	52.22
213.283	150.53
213.502	52.22
213.72	21.5
213.938	68.61
214.157	-9.22
214.375	148.48
214.594	84.99
214.812	58.37
215.031	64.51
215.249	7.17
215.467	74.75
215.686	-7.17
215.904	101.37
216.122	21.5
216.341	205.82
216.559	91.13
216.778	105.47
216.996	89.09
217.214	-17.41
217.432	19.46
217.651	1.02
217.869	80.89
218.087	23.55
218.306	-46.08
218.524	64.51
218.742	48.13
218.96	195.58
219.179	-29.7
219.397	37.89
219.615	242.68
219.833	134.14
220.051	-48.13
220.27	144.38
220.488	119.81
220.706	70.65
220.924	-1.02
221.142	23.55
221.36	84.99
221.578	74.75
221.796	21.5
222.015	54.27
222.233	119.81
222.451	175.1
222.669	-27.65
222.887	101.37
223.105	46.08
223.323	35.84
223.541	-35.84
223.759	48.13
223.977	101.37
224.195	173.05
224.413	105.47
224.631	-3.07
224.849	50.18
225.067	199.68
225.285	-37.89
225.503	39.94
225.721	-29.7
225.939	52.22
226.157	95.23
226.375	248.83
226.592	3.07
226.81	-7.17
227.028	70.65
227.246	195.58
227.464	13.31
227.682	115.71
227.9	70.65
228.117	31.74
228.335	33.79
228.553	35.84
228.771	-37.89
228.989	33.79
229.206	95.23
229.424	13.31
229.642	66.56
229.86	-35.84
230.077	168.96
230.295	58.37
230.513	91.13
230.731	72.7
230.948	128
231.166	148.48
231.384	15.36
231.601	-66.56
231.819	197.63
232.037	13.31
232.254	7.17
232.472	72.7
232.689	35.84
232.907	134.14
233.125	3.07
233.342	13.31
233.56	84.99
233.777	82.94
233.995	-11.26
234.213	183.29
234.43	74.75
234.648	78.85
234.865	15.36
235.083	46.08
235.3	84.99
235.518	76.8
235.735	199.68
235.953	117.76
236.17	60.42
236.388	44.03
236.605	105.47
236.822	140.29
237.04	56.32
237.257	64.51
237.475	23.55
237.692	41.98
237.909	46.08
238.127	27.65
238.344	97.28
238.562	62.46
238.779	-84.99
238.996	-11.26
239.214	37.89
239.431	64.51
239.648	66.56
239.865	62.46
240.083	64.51
240.3	23.55
240.517	5.12
240.735	105.47
240.952	150.53
241.169	9.22
241.386	87.04
241.603	41.98
241.821	52.22
242.038	99.33
242.255	158.72
242.472	-39.94
242.689	78.85
242.907	44.03
243.124	130.05
243.341	56.32
243.558	39.94
243.775	-1.02
243.992	-15.36
244.209	117.76
244.426	222.2
244.643	91.13
244.86	70.65
245.078	44.03
245.295	76.8
245.512	84.99
245.729	-31.74
245.946	54.27
246.163	111.61
246.38	121.85
246.597	62.46
246.814	93.18
247.031	58.37
247.248	-46.08
247.464	89.09
247.681	44.03
247.898	78.85
248.115	60.42
248.332	9.22
248.549	29.7
248.766	175.1
248.983	60.42
249.2	17.41
249.417	84.99
249.633	-1.02
249.85	84.99
250.067	23.55
250.284	107.52
250.501	56.32
250.717	123.9
250.934	-41.98
251.151	50.18
251.368	-5.12
251.585	107.52
251.801	140.29
252.018	-27.65
252.235	105.47
252.451	5.12
252.668	91.13
252.885	171.01
253.102	54.27
253.318	29.7
253.535	-33.79
253.752	-35.84
253.968	-56.32
254.185	-58.37
254.401	91.13
254.618	44.03
254.835	-23.55
255.051	136.19
255.268	82.94
255.484	72.7
255.701	54.27
255.917	132.09
256.134	-23.55
256.351	-9.22
256.567	29.7
256.784	39.94
257	-9.22
257.217	101.37
257.433	173.05
257.65	109.57
257.866	130.05
258.082	-27.65
258.299	80.89
258.515	39.94
258.732	29.7
258.948	39.94
259.165	11.26
259.381	-13.31
259.597	48.13
259.814	87.04
260.03	35.84
260.246	52.22
260.463	82.94
260.679	201.72
260.895	101.37
261.112	15.36
261.328	-7.17
261.544	23.55
261.761	134.14
261.977	-60.42
262.193	-23.55
262.409	123.9
262.626	87.04
262.842	11.26
263.058	56.32
263.274	50.18
263.49	39.94
263.707	87.04
263.923	56.32
264.139	-103.42
264.355	-13.31
264.571	74.75
264.787	121.85
265.004	101.37
265.22	33.79
265.436	-21.5
265.652	7.17
265.868	48.13
266.084	7.17
266.3	35.84
266.516	-37.89
266.732	56.32
266.948	48.13
267.164	60.42
267.38	146.43
267.596	80.89
267.812	179.2
268.028	125.95
268.244	-13.31
268.46	121.85
268.676	37.89
268.892	128
269.108	7.17
269.324	-11.26
269.54	-27.65
269.756	123.9
269.972	-9.22
270.188	-11.26
270.403	-60.42
270.619	41.98
270.835	134.14
271.051	39.94
271.267	-89.09
271.483	9.22
271.698	99.33
271.914	78.85
272.13	76.8
272.346	46.08
272.562	66.56
272.777	158.72
272.993	-50.18
273.209	72.7
273.425	117.76
273.64	-35.84
273.856	93.18
274.072	-13.31
274.287	-54.27
274.503	23.55
274.719	72.7
274.934	-48.13
275.15	-66.56
275.366	27.65
275.581	-29.7
275.797	33.79
276.012	84.99
276.228	-33.79
276.444	41.98
276.659	138.24
276.875	-56.32
277.09	1.02
277.306	95.23
277.521	33.79
277.737	70.65
277.952	52.22
278.168	62.46
278.383	50.18
278.599	66.56
278.814	41.98
279.03	-5.12
279.245	87.04
279.461	93.18
279.676	130.05
279.892	70.65
280.107	-41.98
280.322	-23.55
280.538	113.66
280.753	-33.79
280.969	35.84
281.184	23.55
281.399	140.29
281.615	48.13
281.83	-9.22
282.045	-9.22
282.26	-27.65
282.476	76.8
282.691	87.04
282.906	113.66
283.122	64.51
283.337	-46.08
283.552	48.13
283.767	-5.12
283.983	125.95
284.198	29.7
284.413	62.46
284.628	-1.02
284.843	72.7
285.058	93.18
285.274	3.07
285.489	3.07
285.704	78.85
285.919	25.6
286.134	80.89
286.349	31.74
286.564	87.04
286.779	119.81
286.995	-7.17
287.21	-66.56
287.425	95.23
287.64	-48.13
287.855	66.56
288.07	-19.46
288.285	121.85
288.5	136.19
288.715	76.8
288.93	33.79
289.145	15.36
289.36	80.89
289.575	-11.26
289.79	97.28
290.004	-21.5
290.219	136.19
290.434	31.74
290.649	-41.98
290.864	-11.26
291.079	9.22
291.294	119.81
291.509	60.42
291.724	-23.55
291.938	-23.55
292.153	29.7
292.368	-35.84
292.583	93.18
292.798	91.13
293.012	76.8
293.227	76.8
293.442	-72.7
293.657	113.66
293.871	101.37
294.086	56.32
294.301	138.24
294.516	211.96
294.73	29.7
294.945	-66.56
295.16	70.65
295.374	97.28
295.589	95.23
295.804	-66.56
296.018	-19.46
296.233	171.01
296.447	107.52
296.662	39.94
296.877	72.7
297.091	48.13
297.306	-13.31
297.52	41.98
297.735	109.57
297.949	60.42
298.164	50.18
298.378	128
298.593	48.13
298.807	41.98
299.022	56.32
299.236	189.44
299.451	23.55
299.665	99.33
299.88	74.75
300.094	64.51
300.309	7.17
300.523	117.76
300.737	-48.13
300.952	89.09
301.166	78.85
301.381	44.03
301.595	25.6
301.809	41.98
302.024	111.61
302.238	29.7
302.452	140.29
302.667	19.46
302.881	103.42
303.095	27.65
303.309	117.76
303.524	56.32
303.738	58.37
303.952	54.27
304.166	99.33
304.381	-95.23
304.595	144.38
304.809	25.6
305.023	46.08
305.237	84.99
305.452	56.32
305.666	80.89
305.88	33.79
306.094	99.33
306.308	-19.46
306.522	130.05
306.736	58.37
306.95	193.53
307.164	13.31
307.379	27.65
307.593	189.44
307.807	181.25
308.021	89.09
308.235	60.42
308.449	-52.22
308.663	39.94
308.877	267.26
309.091	58.37
309.305	87.04
309.519	-68.61
309.733	123.9
309.947	7.17
310.161	113.66
310.374	93.18
310.588	142.33
310.802	-56.32
311.016	52.22
311.23	154.62
311.444	-23.55
311.658	44.03
311.872	130.05
312.085	41.98
312.299	195.58
312.513	183.29
312.727	134.14
312.941	-3.07
313.154	89.09
313.368	33.79
313.582	31.74
313.796	132.09
314.009	-9.22
314.223	109.57
314.437	-3.07
314.651	89.09
314.864	25.6
315.078	91.13
315.292	-97.28
315.505	15.36
315.719	89.09
315.933	166.91
316.146	21.5
316.36	-7.17
316.573	201.72
316.787	148.48
317.001	99.33
317.214	-9.22
317.428	52.22
317.641	-21.5
317.855	3.07
318.068	35.84
318.282	3.07
318.495	177.15
318.709	54.27
318.922	39.94
319.136	132.09
319.349	164.86
319.563	-52.22
319.776	103.42
319.99	-76.8
320.203	5.12
320.417	44.03
320.63	84.99
320.843	148.48
321.057	5.12
321.27	54.27
321.483	48.13
321.697	93.18
321.91	74.75
322.124	132.09
322.337	93.18
322.55	15.36
322.763	78.85
322.977	-13.31
323.19	119.81
323.403	11.26
323.617	33.79
323.83	193.53
324.043	27.65
324.256	41.98
324.469	-60.42
324.683	121.85
324.896	119.81
325.109	33.79
325.322	-37.89
325.535	123.9
325.748	33.79
325.962	35.84
326.175	76.8
326.388	5.12
326.601	142.33
326.814	29.7
327.027	134.14
327.24	105.47
327.453	-89.09
327.666	56.32
327.879	99.33
328.092	50.18
328.305	68.61
328.518	-23.55
328.731	-44.03
328.944	19.46
329.157	109.57
329.37	-33.79
329.583	242.68
329.796	162.81
330.009	27.65
330.222	76.8
330.435	128
330.648	54.27
330.861	70.65
331.073	146.43
331.286	56.32
331.499	97.28
331.712	97.28
331.925	13.31
332.138	17.41
332.35	87.04
332.563	9.22
332.776	125.95
332.989	-1.02
333.202	11.26
333.414	3.07
333.627	21.5
333.84	107.52
334.053	103.42
334.265	31.74
334.478	-7.17
334.691	60.42
334.903	-11.26
335.116	5.12
335.329	-7.17
335.541	3.07
335.754	191.49
335.966	13.31
336.179	31.74
336.392	-21.5
336.604	-17.41
336.817	91.13
337.029	91.13
337.242	105.47
337.454	134.14
337.667	29.7
337.88	234.49
338.092	-17.41
338.305	146.43
338.517	-23.55
338.729	54.27
338.942	220.16
339.154	-105.47
339.367	-46.08
339.579	130.05
339.792	9.22
340.004	164.86
340.217	15.36
340.429	66.56
340.641	-7.17
340.854	76.8
341.066	-7.17
341.278	103.42
341.491	224.25
341.703	80.89
341.915	-62.46
342.128	66.56
342.34	115.71
342.552	-15.36
342.764	109.57
342.977	-13.31
343.189	66.56
343.401	84.99
343.613	-37.89
343.826	37.89
344.038	-25.6
344.25	60.42
344.462	-52.22
344.674	70.65
344.886	95.23
345.099	33.79
345.311	-23.55
345.523	46.08
345.735	-39.94
345.947	46.08
346.159	-5.12
346.371	-25.6
346.583	21.5
346.795	177.15
347.007	35.84
347.219	144.38
347.431	7.17
347.643	125.95
347.855	-5.12
348.067	134.14
348.279	-82.94
348.491	15.36
348.703	76.8
348.915	-5.12
349.127	23.55
349.339	62.46
349.551	1.02
349.763	84.99
349.975	78.85
350.187	166.91
350.399	132.09
350.61	97.28
350.822	-21.5
351.034	117.76
351.246	-27.65
351.458	142.33
351.669	130.05
351.881	93.18
352.093	148.48
352.305	121.85
352.517	91.13
352.728	121.85
352.94	9.22
353.152	103.42
353.363	44.03
353.575	58.37
353.787	113.66
353.999	64.51
354.21	193.53
354.422	9.22
354.633	78.85
354.845	27.65
355.057	50.18
355.268	95.23
355.48	56.32
355.692	-41.98
355.903	89.09
356.115	-3.07
356.326	-5.12
356.538	68.61
356.749	93.18
356.961	78.85
357.172	-70.65
357.384	-52.22
357.595	177.15
357.807	-1.02
358.018	-35.84
358.23	37.89
358.441	142.33
358.653	50.18
358.864	-25.6
359.075	56.32
359.287	68.61
359.498	144.38
359.709	152.57
359.921	125.95
360.132	5.12
360.344	52.22
360.555	89.09
360.766	70.65
360.977	-7.17
361.189	205.82
361.4	-9.22
361.611	183.29
361.823	156.67
362.034	84.99
362.245	-9.22
362.456	29.7
362.667	107.52
362.879	-27.65
363.09	11.26
363.301	39.94
363.512	44.03
363.723	-23.55
363.935	-21.5
364.146	56.32
364.357	-21.5
364.568	87.04
364.779	-19.46
364.99	95.23
365.201	39.94
365.412	185.34
365.623	11.26
365.834	78.85
366.045	60.42
366.256	142.33
366.467	95.23
366.678	64.51
366.889	115.71
367.1	-60.42
367.311	56.32
367.522	-7.17
367.733	72.7
367.944	78.85
368.155	48.13
368.366	162.81
368.577	31.74
368.788	128
368.999	35.84
369.209	7.17
369.42	289.79
369.631	209.92
369.842	35.84
370.053	60.42
370.264	29.7
370.474	9.22
370.685	158.72
370.896	54.27
371.107	166.91
371.317	56.32
371.528	39.94
371.739	105.47
371.95	23.55
372.16	97.28
372.371	23.55
372.582	89.09
372.792	66.56
373.003	150.53
373.214	31.74
373.424	84.99
373.635	-46.08
373.846	125.95
374.056	-5.12
374.267	3.07
374.477	31.74
374.688	-29.7
374.898	115.71
375.109	46.08
375.319	15.36
375.53	72.7
375.74	152.57
375.951	-17.41
376.161	50.18
376.372	134.14
376.582	84.99
376.793	31.74
377.003	25.6
377.214	62.46
377.424	130.05
377.635	25.6
377.845	-11.26
378.055	150.53
378.266	-158.72
378.476	29.7
378.686	91.13
378.897	121.85
379.107	121.85
379.317	91.13
379.528	27.65
379.738	123.9
379.948	25.6
380.158	146.43
380.369	66.56
380.579	109.57
380.789	7.17
380.999	168.96
381.21	58.37
381.42	244.73
381.63	70.65
381.84	82.94
382.05	187.39
382.261	123.9
382.471	78.85
382.681	70.65
382.891	191.49
383.101	-3.07
383.311	1.02
383.521	25.6
383.731	123.9
383.941	72.7
384.151	89.09
384.361	68.61
384.571	97.28
384.781	99.33
384.991	181.25
385.201	158.72
385.411	146.43
385.621	107.52
385.831	150.53
386.041	84.99
386.251	48.13
386.461	125.95
386.671	5.12
386.881	29.7
387.091	76.8
387.301	140.29
387.511	46.08
387.72	119.81
387.93	119.81
388.14	-99.33
388.35	64.51
388.56	136.19
388.769	93.18
388.979	35.84
389.189	-27.65
389.399	-27.65
389.609	154.62
389.818	39.94
390.028	68.61
390.238	109.57
390.447	54.27
390.657	144.38
390.867	58.37
391.076	-64.51
391.286	31.74
391.496	39.94
391.705	-3.07
391.915	107.52
392.125	125.95
392.334	35.84
392.544	220.16
392.753	50.18
392.963	-66.56
393.172	44.03
393.382	15.36
393.591	156.67
393.801	3.07
394.01	164.86
394.22	130.05
394.429	25.6
394.639	11.26
394.848	46.08
395.058	107.52
395.267	-3.07
395.477	60.42
395.686	82.94
395.895	162.81
396.105	244.73
396.314	142.33
396.524	97.28
396.733	68.61
396.942	136.19
397.152	121.85
397.361	130.05
397.57	97.28
397.78	-5.12
397.989	103.42
398.198	162.81
398.407	72.7
398.617	50.18
398.826	74.75
399.035	9.22
399.244	156.67
399.453	35.84
399.663	93.18
399.872	91.13
400.081	29.7
400.29	162.81
400.499	-33.79
400.708	166.91
400.917	17.41
401.127	3.07
401.336	41.98
401.545	154.62
401.754	99.33
401.963	146.43
402.172	70.65
402.381	-52.22
402.59	93.18
402.799	17.41
403.008	125.95
403.217	-23.55
403.426	66.56
403.635	54.27
403.844	70.65
404.053	3.07
404.262	3.07
404.471	185.34
404.68	25.6
404.888	64.51
405.097	44.03
405.306	-23.55
405.515	130.05
405.724	113.66
405.933	158.72
406.142	35.84
406.35	128
406.559	121.85
406.768	60.42
406.977	166.91
407.185	13.31
407.394	9.22
407.603	-58.37
407.812	80.89
408.02	105.47
408.229	76.8
408.438	160.77
408.646	-5.12
408.855	44.03
409.064	70.65
409.272	-5.12
409.481	89.09
409.69	-21.5
409.898	58.37
410.107	60.42
410.315	166.91
410.524	19.46
410.733	37.89
410.941	-5.12
411.15	138.24
411.358	56.32
411.567	148.48
411.775	64.51
411.984	154.62
412.192	78.85
412.401	78.85
412.609	164.86
412.818	191.49
413.026	97.28
413.234	70.65
413.443	21.5
413.651	60.42
413.86	-33.79
414.068	138.24
414.276	203.77
414.485	21.5
414.693	175.1
414.901	224.25
415.11	128
415.318	99.33
415.526	89.09
415.734	154.62
415.943	93.18
416.151	105.47
416.359	41.98
416.567	82.94
416.776	142.33
416.984	123.9
417.192	183.29
417.4	35.84
417.608	3.07
417.817	5.12
418.025	111.61
418.233	175.1
418.441	54.27
418.649	-33.79
418.857	62.46
419.065	115.71
419.273	-15.36
419.481	44.03
419.689	103.42
419.897	-48.13
420.105	-23.55
420.313	119.81
420.521	74.75
420.729	89.09
420.937	29.7
421.145	74.75
421.353	128
421.561	105.47
421.769	74.75
421.977	29.7
422.185	107.52
422.393	82.94
422.601	119.81
422.809	80.89
423.017	84.99
423.224	70.65
423.432	183.29
423.64	64.51
423.848	134.14
424.056	117.76
424.263	117.76
424.471	80.89
424.679	154.62
424.887	52.22
425.094	232.44
425.302	103.42
425.51	7.17
425.718	140.29
425.925	119.81
426.133	-48.13
426.341	164.86
426.548	56.32
426.756	66.56
426.964	44.03
427.171	13.31
427.379	125.95
427.586	87.04
427.794	111.61
428.001	103.42
428.209	111.61
428.417	211.96
428.624	205.82
428.832	115.71
429.039	207.87
429.247	111.61
429.454	136.19
429.662	224.25
429.869	76.8
430.076	64.51
430.284	175.1
430.491	277.5
430.699	214.01
430.906	203.77
431.114	183.29
431.321	228.35
431.528	89.09
431.736	162.81
431.943	154.62
432.15	226.3
432.358	214.01
432.565	295.93
432.772	-7.17
432.979	162.81
433.187	128
433.394	224.25
433.601	119.81
433.808	220.16
434.016	265.21
434.223	261.12
434.43	205.82
434.637	275.45
434.844	252.92
435.052	187.39
435.259	291.84
435.466	289.79
435.673	330.75
435.88	263.16
436.087	345.08
436.294	304.12
436.501	345.08
436.708	302.08
436.915	287.74
437.122	347.13
437.329	236.54
437.537	371.71
437.743	271.36
437.95	457.72
438.157	410.62
438.364	259.07
438.571	269.31
438.778	400.38
438.985	355.32
439.192	392.19
439.399	326.65
439.606	455.67
439.813	396.28
440.02	541.69
440.227	652.28
440.433	564.22
440.64	525.3
440.847	467.96
441.054	527.35
441.261	625.65
441.467	519.16
441.674	492.54
441.881	617.46
442.088	594.93
442.294	615.41
442.501	662.52
442.708	826.36
442.914	666.61
443.121	740.34
443.328	846.84
443.534	850.93
443.741	824.31
443.948	748.53
444.154	887.79
444.361	1031.15
444.568	859.12
444.774	887.79
444.981	834.55
445.187	1018.86
445.394	1022.96
445.6	1035.25
445.807	1256.43
446.013	1244.14
446.22	1051.63
446.426	1168.37
446.633	1383.4
446.839	1471.47
447.046	1233.9
447.252	1514.47
447.459	1381.35
447.665	1502.19
447.871	1700.84
448.078	1614.82
448.284	1706.98
448.491	1754.09
448.697	1934.31
448.903	1866.72
449.11	1979.36
449.316	1919.97
449.522	2171.87
449.728	2186.21
449.935	2311.13
450.141	2337.76
450.347	2581.46
450.553	2348
450.76	2489.31
450.966	2548.7
451.172	2675.67
451.378	2722.77
451.584	2780.12
451.791	3177.42
451.997	3093.46
452.203	3263.44
452.409	3439.56
452.615	3437.52
452.821	3507.15
453.027	3531.72
453.233	3929.03
453.44	3701.7
453.646	3965.89
453.852	4131.78
454.058	4336.57
454.264	4332.48
454.47	4731.83
454.676	4768.7
454.882	5192.62
455.088	4854.71
455.294	5127.09
455.5	5542.83
455.705	5909.41
455.911	5927.85
456.117	6151.07
456.323	6296.48
456.529	6308.77
456.735	6792.09
456.941	7144.34
457.147	7455.63
457.352	7351.18
457.558	7555.98
457.764	8133.51
457.97	8373.12
458.176	8508.29
458.381	9278.32
458.587	9479.02
458.793	9562.99
458.999	9649
459.204	10728.28
459.41	11330.39
459.616	11096.92
459.821	11627.34
460.027	12399.43
460.233	12780.35
460.438	12970.81
460.644	13691.7
460.85	13693.74
461.055	14261.03
461.261	15061.79
461.466	14660.38
461.672	14926.62
461.878	16667.39
462.083	16651.01
462.289	16769.79
462.494	17081.08
462.7	17652.47
462.905	18148.08
463.111	19249.88
463.316	20536.01
463.522	20716.23
463.727	21109.44
463.932	22315.69
464.138	22586.02
464.343	23968.4
464.549	24040.08
464.754	25463.42
464.959	26374.77
465.165	26724.97
465.37	26389.1
465.575	26618.47
465.781	28195.41
465.986	29307.46
466.191	28834.38
466.397	28971.59
466.602	28754.51
466.807	29565.5
467.012	30499.37
467.218	31154.72
467.423	31414.82
467.628	31844.89
467.833	33456.64
468.038	32993.8
468.244	32510.48
468.449	34337.27
468.654	33274.37
