Data from USB4F104151__70__10-31-53-152.txt Node

Date: Wed Feb 26 10:31:53 EST 2025
User: louis
Spectrometer: USB4F10415
Trigger mode: 4
Integration Time (sec): 1.000000E-1
Scans to average: 1
Electric dark correction enabled: true
Nonlinearity correction enabled: false
Boxcar width: 0
XAxis mode: Wavelengths
Number of Pixels in Spectrum: 3648
>>>>>Begin Spectral Data<<<<<
178.204	-333.14
178.424	-333.14
178.644	-333.14
178.864	-392.53
179.084	-376.14
179.304	-42.32
179.524	-3.41
179.744	8.87
179.964	-17.75
180.184	21.16
180.404	31.4
180.624	17.07
180.844	-17.75
181.064	-99.67
181.283	66.22
181.503	-15.7
181.723	51.88
181.943	-83.28
182.163	182.95
182.383	8.87
182.602	29.35
182.822	162.47
183.042	58.03
183.262	10.92
183.482	-21.84
183.701	88.75
183.921	94.89
184.141	-46.42
184.361	121.51
184.58	51.88
184.8	115.37
185.02	62.12
185.239	148.14
185.459	78.51
185.679	129.7
185.898	-25.94
186.118	115.37
186.338	74.41
186.557	150.18
186.777	-105.81
186.997	8.87
187.216	27.31
187.436	203.43
187.655	98.99
187.875	49.83
188.095	74.41
188.314	29.35
188.534	172.71
188.753	12.97
188.973	129.7
189.192	172.71
189.412	10.92
189.631	27.31
189.851	47.79
190.07	152.23
190.29	62.12
190.509	-50.52
190.729	92.84
190.948	150.18
191.168	211.62
191.387	74.41
191.607	12.97
191.826	84.65
192.045	-17.75
192.265	-23.89
192.484	74.41
192.704	33.45
192.923	-62.8
193.142	187.05
193.362	139.94
193.581	178.86
193.8	12.97
194.02	115.37
194.239	135.85
194.458	141.99
194.678	-9.56
194.897	-30.04
195.116	101.03
195.335	-42.32
195.555	21.16
195.774	29.35
195.993	195.24
196.212	33.45
196.432	45.74
196.651	-75.09
196.87	-42.32
197.089	271.01
197.308	35.5
197.528	68.27
197.747	-109.91
197.966	41.64
198.185	123.56
198.404	-60.76
198.623	135.85
198.842	109.23
199.062	55.98
199.281	66.22
199.5	35.5
199.719	119.46
199.938	123.56
200.157	78.51
200.376	205.48
200.595	152.23
200.814	72.36
201.033	-34.13
201.252	213.67
201.471	-30.04
201.69	92.84
201.909	-7.51
202.128	35.5
202.347	74.41
202.566	70.31
202.785	-15.7
203.004	35.5
203.223	176.81
203.442	80.55
203.661	-42.32
203.879	33.45
204.098	119.46
204.317	0.68
204.536	131.75
204.755	74.41
204.974	178.86
205.193	70.31
205.411	185
205.63	105.13
205.849	31.4
206.068	27.31
206.287	33.45
206.505	111.27
206.724	12.97
206.943	-64.85
207.162	-34.13
207.381	10.92
207.599	-36.18
207.818	-30.04
208.037	-5.46
208.255	4.78
208.474	80.55
208.693	10.92
208.911	-9.56
209.13	86.7
209.349	51.88
209.567	90.79
209.786	84.65
210.005	117.42
210.223	66.22
210.442	-126.29
210.661	66.22
210.879	62.12
211.098	111.27
211.316	133.8
211.535	82.6
211.753	60.07
211.972	72.36
212.191	-38.23
212.409	76.46
212.628	117.42
212.846	64.17
213.065	19.11
213.283	131.75
213.502	33.45
213.72	66.22
213.938	-9.56
214.157	17.07
214.375	86.7
214.594	49.83
214.812	107.18
215.031	98.99
215.249	70.31
215.467	96.94
215.686	70.31
215.904	58.03
216.122	60.07
216.341	105.13
216.559	76.46
216.778	96.94
216.996	76.46
217.214	43.69
217.432	25.26
217.651	-11.61
217.869	68.27
218.087	76.46
218.306	17.07
218.524	88.75
218.742	66.22
218.96	98.99
219.179	80.55
219.397	105.13
219.615	238.25
219.833	88.75
220.051	-11.61
220.27	49.83
220.488	29.35
220.706	98.99
220.924	31.4
221.142	-21.84
221.36	107.18
221.578	39.59
221.796	23.21
222.015	31.4
222.233	64.17
222.451	109.23
222.669	-21.84
222.887	86.7
223.105	-27.99
223.323	12.97
223.541	-44.37
223.759	96.94
223.977	25.26
224.195	123.56
224.413	68.27
224.631	-13.65
224.849	37.55
225.067	201.38
225.285	33.45
225.503	-25.94
225.721	-54.61
225.939	8.87
226.157	35.5
226.375	187.05
226.592	15.02
226.81	29.35
227.028	37.55
227.246	113.32
227.464	12.97
227.682	41.64
227.9	53.93
228.117	31.4
228.335	-27.99
228.553	78.51
228.771	23.21
228.989	49.83
229.206	107.18
229.424	27.31
229.642	23.21
229.86	45.74
230.077	53.93
230.295	8.87
230.513	109.23
230.731	8.87
230.948	152.23
231.166	189.1
231.384	62.12
231.601	-54.61
231.819	205.48
232.037	35.5
232.254	-44.37
232.472	19.11
232.689	17.07
232.907	105.13
233.125	74.41
233.342	17.07
233.56	-5.46
233.777	-64.85
233.995	45.74
234.213	123.56
234.43	131.75
234.648	-13.65
234.865	53.93
235.083	68.27
235.3	103.08
235.518	58.03
235.735	133.8
235.953	158.38
236.17	72.36
236.388	15.02
236.605	45.74
236.822	76.46
237.04	139.94
237.257	-19.8
237.475	-34.13
237.692	66.22
237.909	37.55
238.127	-1.37
238.344	105.13
238.562	12.97
238.779	6.83
238.996	33.45
239.214	43.69
239.431	80.55
239.648	51.88
239.865	84.65
240.083	96.94
240.3	-46.42
240.517	-7.51
240.735	74.41
240.952	76.46
241.169	62.12
241.386	107.18
241.603	70.31
241.821	-38.23
242.038	146.09
242.255	133.8
242.472	-56.66
242.689	144.04
242.907	105.13
243.124	37.55
243.341	0.68
243.558	-56.66
243.775	-48.47
243.992	39.59
244.209	98.99
244.426	78.51
244.643	37.55
244.86	31.4
245.078	27.31
245.295	-34.13
245.512	47.79
245.729	-5.46
245.946	10.92
246.163	64.17
246.38	39.59
246.597	29.35
246.814	37.55
247.031	58.03
247.248	23.21
247.464	168.62
247.681	70.31
247.898	10.92
248.115	76.46
248.332	-46.42
248.549	172.71
248.766	211.62
248.983	68.27
249.2	55.98
249.417	150.18
249.633	47.79
249.85	70.31
250.067	125.61
250.284	152.23
250.501	64.17
250.717	82.6
250.934	-64.85
251.151	64.17
251.368	-13.65
251.585	133.8
251.801	37.55
252.018	-7.51
252.235	168.62
252.451	-11.61
252.668	39.59
252.885	174.76
253.102	64.17
253.318	-40.28
253.535	74.41
253.752	-19.8
253.968	-11.61
254.185	-73.04
254.401	29.35
254.618	21.16
254.835	-30.04
255.051	113.32
255.268	84.65
255.484	47.79
255.701	-50.52
255.917	37.55
256.134	21.16
256.351	25.26
256.567	-124.24
256.784	78.51
257	-91.48
257.217	80.55
257.433	25.26
257.65	70.31
257.866	199.34
258.082	-105.81
258.299	-54.61
258.515	37.55
258.732	37.55
258.948	-27.99
259.165	55.98
259.381	-95.57
259.597	70.31
259.814	55.98
260.03	66.22
260.246	60.07
260.463	101.03
260.679	115.37
260.895	41.64
261.112	43.69
261.328	-11.61
261.544	76.46
261.761	244.39
261.977	23.21
262.193	-36.18
262.409	103.08
262.626	70.31
262.842	49.83
263.058	33.45
263.274	180.9
263.49	58.03
263.707	72.36
263.923	207.53
264.139	-79.19
264.355	47.79
264.571	96.94
264.787	90.79
265.004	74.41
265.22	17.07
265.436	-19.8
265.652	2.73
265.868	58.03
266.084	-30.04
266.3	12.97
266.516	-64.85
266.732	19.11
266.948	45.74
267.164	-30.04
267.38	88.75
267.596	96.94
267.812	225.96
268.028	113.32
268.244	10.92
268.46	76.46
268.676	-3.41
268.892	68.27
269.108	41.64
269.324	-64.85
269.54	-71
269.756	90.79
269.972	-30.04
270.188	43.69
270.403	-7.51
270.619	35.5
270.835	123.56
271.051	86.7
271.267	39.59
271.483	23.21
271.698	103.08
271.914	43.69
272.13	23.21
272.346	6.83
272.562	66.22
272.777	154.28
272.993	-25.94
273.209	45.74
273.425	121.51
273.64	-15.7
273.856	82.6
274.072	-9.56
274.287	19.11
274.503	103.08
274.719	78.51
274.934	4.78
275.15	-52.56
275.366	-21.84
275.581	-9.56
275.797	58.03
276.012	27.31
276.228	-71
276.444	55.98
276.659	156.33
276.875	62.12
277.09	72.36
277.306	-13.65
277.521	68.27
277.737	-13.65
277.952	105.13
278.168	105.13
278.383	-3.41
278.599	21.16
278.814	92.84
279.03	62.12
279.245	148.14
279.461	72.36
279.676	94.89
279.892	47.79
280.107	-52.56
280.322	-54.61
280.538	74.41
280.753	15.02
280.969	-3.41
281.184	39.59
281.399	162.47
281.615	6.83
281.83	51.88
282.045	-68.95
282.26	29.35
282.476	17.07
282.691	68.27
282.906	58.03
283.122	131.75
283.337	37.55
283.552	70.31
283.767	-32.08
283.983	96.94
284.198	88.75
284.413	94.89
284.628	-32.08
284.843	51.88
285.058	33.45
285.274	68.27
285.489	47.79
285.704	58.03
285.919	-93.52
286.134	58.03
286.349	78.51
286.564	68.27
286.779	139.94
286.995	-11.61
287.21	-48.47
287.425	25.26
287.64	29.35
287.855	84.65
288.07	-54.61
288.285	160.42
288.5	185
288.715	170.66
288.93	74.41
289.145	-11.61
289.36	51.88
289.575	37.55
289.79	217.77
290.004	-38.23
290.219	168.62
290.434	27.31
290.649	-19.8
290.864	17.07
291.079	17.07
291.294	92.84
291.509	86.7
291.724	0.68
291.938	-77.14
292.153	55.98
292.368	58.03
292.583	23.21
292.798	70.31
293.012	68.27
293.227	43.69
293.442	6.83
293.657	119.46
293.871	172.71
294.086	33.45
294.301	156.33
294.516	141.99
294.73	-7.51
294.945	-85.33
295.16	15.02
295.374	113.32
295.589	78.51
295.804	-83.28
296.018	35.5
296.233	129.7
296.447	-19.8
296.662	-5.46
296.877	154.28
297.091	117.42
297.306	58.03
297.52	39.59
297.735	12.97
297.949	70.31
298.164	55.98
298.378	60.07
298.593	-44.37
298.807	31.4
299.022	33.45
299.236	109.23
299.451	-89.43
299.665	33.45
299.88	33.45
300.094	98.99
300.309	31.4
300.523	47.79
300.737	-44.37
300.952	43.69
301.166	88.75
301.381	45.74
301.595	51.88
301.809	21.16
302.024	-44.37
302.238	90.79
302.452	139.94
302.667	-75.09
302.881	113.32
303.095	66.22
303.309	51.88
303.524	41.64
303.738	43.69
303.952	-32.08
304.166	60.07
304.381	-103.76
304.595	168.62
304.809	12.97
305.023	88.75
305.237	31.4
305.452	0.68
305.666	131.75
305.88	105.13
306.094	74.41
306.308	123.56
306.522	158.38
306.736	25.26
306.95	180.9
307.164	115.37
307.379	72.36
307.593	103.08
307.807	135.85
308.021	68.27
308.235	17.07
308.449	-36.18
308.663	-46.42
308.877	211.62
309.091	45.74
309.305	131.75
309.519	-136.53
309.733	74.41
309.947	4.78
310.161	64.17
310.374	107.18
310.588	152.23
310.802	-38.23
311.016	-36.18
311.23	53.93
311.444	-15.7
311.658	6.83
311.872	70.31
312.085	156.33
312.299	103.08
312.513	96.94
312.727	88.75
312.941	-19.8
313.154	70.31
313.368	94.89
313.582	58.03
313.796	12.97
314.009	80.55
314.223	129.7
314.437	68.27
314.651	76.46
314.864	-17.75
315.078	76.46
315.292	-13.65
315.505	-19.8
315.719	107.18
315.933	37.55
316.146	-27.99
316.36	-7.51
316.573	197.29
316.787	78.51
317.001	123.56
317.214	29.35
317.428	37.55
317.641	-13.65
317.855	35.5
318.068	-27.99
318.282	76.46
318.495	197.29
318.709	125.61
318.922	-3.41
319.136	139.94
319.349	115.37
319.563	58.03
319.776	60.07
319.99	-54.61
320.203	80.55
320.417	-21.84
320.63	139.94
320.843	139.94
321.057	117.42
321.27	-52.56
321.483	58.03
321.697	117.42
321.91	86.7
322.124	58.03
322.337	8.87
322.55	55.98
322.763	45.74
322.977	-30.04
323.19	41.64
323.403	80.55
323.617	66.22
323.83	170.66
324.043	82.6
324.256	21.16
324.469	43.69
324.683	197.29
324.896	19.11
325.109	92.84
325.322	-34.13
325.535	58.03
325.748	123.56
325.962	-21.84
326.175	76.46
326.388	4.78
326.601	129.7
326.814	-3.41
327.027	72.36
327.24	139.94
327.453	-7.51
327.666	164.52
327.879	113.32
328.092	66.22
328.305	127.66
328.518	0.68
328.731	19.11
328.944	37.55
329.157	21.16
329.37	12.97
329.583	164.52
329.796	160.42
330.009	-54.61
330.222	76.46
330.435	115.37
330.648	94.89
330.861	72.36
331.073	29.35
331.286	154.28
331.499	25.26
331.712	-1.37
331.925	37.55
332.138	68.27
332.35	70.31
332.563	-1.37
332.776	103.08
332.989	-48.47
333.202	-1.37
333.414	-7.51
333.627	76.46
333.84	37.55
334.053	103.08
334.265	-38.23
334.478	21.16
334.691	43.69
334.903	64.17
335.116	-25.94
335.329	25.26
335.541	94.89
335.754	121.51
335.966	27.31
336.179	21.16
336.392	-38.23
336.604	68.27
336.817	39.59
337.029	49.83
337.242	37.55
337.454	76.46
337.667	49.83
337.88	37.55
338.092	88.75
338.305	90.79
338.517	21.16
338.729	94.89
338.942	152.23
339.154	62.12
339.367	-17.75
339.579	41.64
339.792	23.21
340.004	49.83
340.217	33.45
340.429	27.31
340.641	21.16
340.854	35.5
341.066	-1.37
341.278	90.79
341.491	131.75
341.703	-7.51
341.915	47.79
342.128	49.83
342.34	21.16
342.552	-19.8
342.764	90.79
342.977	31.4
343.189	92.84
343.401	94.89
343.613	41.64
343.826	-62.8
344.038	4.78
344.25	139.94
344.462	-87.38
344.674	49.83
344.886	29.35
345.099	94.89
345.311	82.6
345.523	119.46
345.735	-79.19
345.947	152.23
346.159	-17.75
346.371	-7.51
346.583	-1.37
346.795	228.01
347.007	2.73
347.219	84.65
347.431	-30.04
347.643	72.36
347.855	-21.84
348.067	160.42
348.279	-50.52
348.491	109.23
348.703	72.36
348.915	33.45
349.127	-7.51
349.339	33.45
349.551	35.5
349.763	53.93
349.975	66.22
350.187	156.33
350.399	82.6
350.61	49.83
350.822	51.88
351.034	35.5
351.246	80.55
351.458	70.31
351.669	70.31
351.881	96.94
352.093	121.51
352.305	109.23
352.517	68.27
352.728	232.1
352.94	60.07
353.152	103.08
353.363	90.79
353.575	90.79
353.787	133.8
353.999	84.65
354.21	156.33
354.422	70.31
354.633	-25.94
354.845	41.64
355.057	51.88
355.268	25.26
355.48	92.84
355.692	-30.04
355.903	88.75
356.115	-11.61
356.326	-71
356.538	162.47
356.749	86.7
356.961	158.38
357.172	12.97
357.384	-36.18
357.595	191.14
357.807	33.45
358.018	-40.28
358.23	105.13
358.441	144.04
358.653	78.51
358.864	96.94
359.075	-17.75
359.287	21.16
359.498	137.9
359.709	19.11
359.921	-9.56
360.132	84.65
360.344	53.93
360.555	-27.99
360.766	88.75
360.977	37.55
361.189	129.7
361.4	68.27
361.611	107.18
361.823	178.86
362.034	-9.56
362.245	-93.52
362.456	43.69
362.667	107.18
362.879	-36.18
363.09	94.89
363.301	39.59
363.512	33.45
363.723	-1.37
363.935	41.64
364.146	76.46
364.357	25.26
364.568	31.4
364.779	12.97
364.99	105.13
365.201	-19.8
365.412	158.38
365.623	-114
365.834	88.75
366.045	-30.04
366.256	68.27
366.467	-27.99
366.678	-38.23
366.889	72.36
367.1	6.83
367.311	88.75
367.522	25.26
367.733	53.93
367.944	78.51
368.155	82.6
368.366	107.18
368.577	148.14
368.788	70.31
368.999	-32.08
369.209	170.66
369.42	203.43
369.631	168.62
369.842	84.65
370.053	17.07
370.264	90.79
370.474	-52.56
370.685	25.26
370.896	0.68
371.107	105.13
371.317	101.03
371.528	-1.37
371.739	84.65
371.95	139.94
372.16	76.46
372.371	0.68
372.582	-44.37
372.792	127.66
373.003	45.74
373.214	41.64
373.424	133.8
373.635	-19.8
373.846	160.42
374.056	31.4
374.267	55.98
374.477	29.35
374.688	12.97
374.898	182.95
375.109	-9.56
375.319	53.93
375.53	144.04
375.74	137.9
375.951	29.35
376.161	107.18
376.372	133.8
376.582	-46.42
376.793	109.23
377.003	-3.41
377.214	2.73
377.424	82.6
377.635	-79.19
377.845	-73.04
378.055	207.53
378.266	47.79
378.476	68.27
378.686	53.93
378.897	29.35
379.107	209.58
379.317	33.45
379.528	-1.37
379.738	141.99
379.948	-66.9
380.158	129.7
380.369	-3.41
380.579	-30.04
380.789	12.97
380.999	139.94
381.21	107.18
381.42	197.29
381.63	-30.04
381.84	156.33
382.05	170.66
382.261	139.94
382.471	131.75
382.681	-60.76
382.891	156.33
383.101	103.08
383.311	0.68
383.521	27.31
383.731	123.56
383.941	64.17
384.151	66.22
384.361	55.98
384.571	70.31
384.781	47.79
384.991	232.1
385.201	203.43
385.411	133.8
385.621	33.45
385.831	72.36
386.041	76.46
386.251	-9.56
386.461	121.51
386.671	-3.41
386.881	45.74
387.091	45.74
387.301	78.51
387.511	-3.41
387.72	90.79
387.93	127.66
388.14	-148.82
388.35	92.84
388.56	125.61
388.769	96.94
388.979	41.64
389.189	39.59
389.399	82.6
389.609	103.08
389.818	82.6
390.028	39.59
390.238	96.94
390.447	-81.24
390.657	-5.46
390.867	-27.99
391.076	-52.56
391.286	86.7
391.496	70.31
391.705	-7.51
391.915	103.08
392.125	70.31
392.334	49.83
392.544	146.09
392.753	64.17
392.963	-15.7
393.172	115.37
393.382	-54.61
393.591	139.94
393.801	-3.41
394.01	129.7
394.22	230.06
394.429	-23.89
394.639	37.55
394.848	74.41
395.058	21.16
395.267	-11.61
395.477	90.79
395.686	47.79
395.895	213.67
396.105	195.24
396.314	58.03
396.524	-7.51
396.733	6.83
396.942	160.42
397.152	96.94
397.361	121.51
397.57	98.99
397.78	21.16
397.989	-1.37
398.198	201.38
398.407	47.79
398.617	58.03
398.826	103.08
399.035	6.83
399.244	55.98
399.453	78.51
399.663	10.92
399.872	76.46
400.081	-101.72
400.29	137.9
400.499	12.97
400.708	115.37
400.917	41.64
401.127	55.98
401.336	-11.61
401.545	185
401.754	225.96
401.963	141.99
402.172	8.87
402.381	51.88
402.59	-11.61
402.799	58.03
403.008	84.65
403.217	101.03
403.426	37.55
403.635	2.73
403.844	66.22
404.053	-48.47
404.262	-5.46
404.471	166.57
404.68	119.46
404.888	12.97
405.097	15.02
405.306	70.31
405.515	17.07
405.724	10.92
405.933	78.51
406.142	72.36
406.35	90.79
406.559	78.51
406.768	-15.7
406.977	201.38
407.185	12.97
407.394	82.6
407.603	-71
407.812	60.07
408.02	70.31
408.229	19.11
408.438	41.64
408.646	-32.08
408.855	6.83
409.064	47.79
409.272	23.21
409.481	53.93
409.69	-7.51
409.898	2.73
410.107	88.75
410.315	113.32
410.524	19.11
410.733	82.6
410.941	27.31
411.15	150.18
411.358	41.64
411.567	96.94
411.775	15.02
411.984	74.41
412.192	64.17
412.401	55.98
412.609	191.14
412.818	105.13
413.026	117.42
413.234	25.26
413.443	41.64
413.651	31.4
413.86	33.45
414.068	139.94
414.276	129.7
414.485	35.5
414.693	115.37
414.901	148.14
415.11	105.13
415.318	158.38
415.526	45.74
415.734	123.56
415.943	31.4
416.151	139.94
416.359	64.17
416.567	82.6
416.776	101.03
416.984	64.17
417.192	168.62
417.4	96.94
417.608	12.97
417.817	-34.13
418.025	123.56
418.233	166.57
418.441	64.17
418.649	-44.37
418.857	35.5
419.065	160.42
419.273	-15.7
419.481	111.27
419.689	84.65
419.897	-23.89
420.105	23.21
420.313	43.69
420.521	109.23
420.729	137.9
420.937	51.88
421.145	19.11
421.353	107.18
421.561	144.04
421.769	41.64
421.977	8.87
422.185	172.71
422.393	-3.41
422.601	94.89
422.809	74.41
423.017	86.7
423.224	64.17
423.432	137.9
423.64	121.51
423.848	96.94
424.056	39.59
424.263	185
424.471	37.55
424.679	189.1
424.887	-73.04
425.094	109.23
425.302	84.65
425.51	125.61
425.718	123.56
425.925	82.6
426.133	-23.89
426.341	219.82
426.548	19.11
426.756	21.16
426.964	94.89
427.171	82.6
427.379	66.22
427.586	101.03
427.794	172.71
428.001	25.26
428.209	144.04
428.417	154.28
428.624	98.99
428.832	137.9
429.039	6.83
429.247	101.03
429.454	174.76
429.662	246.44
429.869	84.65
430.076	156.33
430.284	135.85
430.491	223.91
430.699	115.37
430.906	182.95
431.114	94.89
431.321	133.8
431.528	154.28
431.736	125.61
431.943	164.52
432.15	139.94
432.358	164.52
432.565	215.72
432.772	-17.75
432.979	264.87
433.187	113.32
433.394	242.34
433.601	86.7
433.808	266.92
434.016	182.95
434.223	199.34
434.43	164.52
434.637	187.05
434.844	242.34
435.052	189.1
435.259	213.67
435.466	291.49
435.673	209.58
435.88	195.24
436.087	295.59
436.294	367.27
436.501	268.97
436.708	221.86
436.915	238.25
437.122	330.41
437.329	199.34
437.537	305.83
437.743	228.01
437.95	453.28
438.157	365.22
438.364	352.93
438.571	318.12
438.778	395.94
438.985	428.71
439.192	354.98
439.399	408.23
439.606	410.28
439.813	531.11
440.02	500.39
440.227	559.78
440.433	512.67
440.64	496.29
440.847	406.18
441.054	434.85
441.261	588.45
441.467	522.91
441.674	426.66
441.881	615.07
442.088	641.7
442.294	670.37
442.501	721.57
442.708	823.97
442.914	692.9
443.121	735.9
443.328	770.72
443.534	815.77
443.741	735.9
443.948	752.29
444.154	875.17
444.361	963.23
444.568	856.73
444.774	840.35
444.981	830.11
445.187	1014.43
445.394	975.52
445.6	969.37
445.807	1122.97
446.013	1188.5
446.22	977.56
446.426	1221.27
446.633	1249.94
446.839	1426.07
447.046	1266.33
447.252	1411.73
447.459	1458.84
447.665	1477.27
447.871	1600.15
448.078	1669.78
448.284	1632.91
448.491	1637.01
448.697	1753.74
448.903	1796.75
449.11	1979.02
449.316	1829.52
449.522	2108.04
449.728	2099.85
449.935	2189.96
450.141	2312.84
450.347	2427.53
450.553	2407.05
450.76	2491.01
450.966	2529.92
451.172	2656.9
451.378	2753.15
451.584	2802.3
451.791	3072.64
451.997	3017.34
452.203	3068.54
452.409	3299.96
452.615	3476.09
452.821	3392.12
453.027	3322.49
453.233	3799.66
453.44	3691.12
453.646	3918.45
453.852	3879.54
454.058	4041.32
454.264	4297.32
454.47	4612.71
454.676	4729.44
454.882	5050.97
455.088	4770.4
455.294	5067.36
455.5	5409.37
455.705	5567.06
455.911	5601.88
456.117	5737.04
456.323	6136.4
456.529	6193.74
456.735	6746.69
456.941	6902.34
457.147	7115.33
457.352	7379.51
457.558	7467.58
457.764	7885.36
457.97	8079.92
458.176	8335.92
458.381	8915.49
458.587	8878.63
458.793	9585.18
458.999	9296.41
459.204	10631.69
459.41	10918.4
459.616	10777.09
459.821	11635.19
460.027	11848.18
460.233	12403.18
460.438	12311.02
460.644	13244.9
460.85	13500.89
461.055	13986.26
461.261	14514.64
461.466	14393.81
461.672	14438.86
461.878	16105.91
462.083	15894.97
462.289	16216.5
462.494	17131.94
462.7	17070.5
462.905	17326.5
463.111	19044.74
463.316	19847.55
463.522	20187.51
463.727	20814.19
463.932	21434.72
464.138	22204.76
464.343	23193.93
464.549	23343.43
464.754	24848.69
464.959	25553.19
465.165	25854.24
465.37	25528.61
465.575	26073.37
465.781	27283.72
465.986	28107.01
466.191	27932.93
466.397	28289.27
466.602	27343.11
466.807	29247.72
467.012	29864.16
467.218	30236.89
467.423	30269.66
467.628	31154.38
467.833	32573.63
468.038	32125.12
468.244	31473.87
468.449	33220.78
468.654	32305.34
