Data from USB4F104151__97__10-35-28-228.txt Node

Date: Wed Feb 26 10:35:28 EST 2025
User: louis
Spectrometer: USB4F10415
Trigger mode: 4
Integration Time (sec): 1.000000E-1
Scans to average: 1
Electric dark correction enabled: true
Nonlinearity correction enabled: false
Boxcar width: 0
XAxis mode: Wavelengths
Number of Pixels in Spectrum: 3648
>>>>>Begin Spectral Data<<<<<
178.204	-359.08
178.424	-359.08
178.644	-359.08
178.864	-449.19
179.084	-457.38
179.304	50.52
179.524	-12.97
179.744	-4.78
179.964	34.13
180.184	-17.07
180.404	48.47
180.624	-37.55
180.844	-33.45
181.064	-94.89
181.283	44.37
181.503	-64.17
181.723	87.38
181.943	-47.79
182.163	134.48
182.383	7.51
182.602	34.13
182.822	128.34
183.042	77.14
183.262	-111.27
183.482	13.65
183.701	7.51
183.921	62.8
184.141	-8.87
184.361	15.7
184.58	44.37
184.8	-6.83
185.02	-43.69
185.239	34.13
185.459	54.61
185.679	120.15
185.898	-47.79
186.118	99.67
186.338	40.28
186.557	181.59
186.777	-51.88
186.997	-12.97
187.216	79.19
187.436	91.48
187.655	64.85
187.875	144.72
188.095	-31.4
188.314	68.95
188.534	85.33
188.753	-105.13
188.973	44.37
189.192	150.87
189.412	-66.22
189.631	52.56
189.851	30.04
190.07	122.2
190.29	-166.57
190.509	-21.16
190.729	64.85
190.948	154.96
191.168	290.13
191.387	77.14
191.607	44.37
191.826	25.94
192.045	-10.92
192.265	-29.35
192.484	111.96
192.704	-4.78
192.923	-66.22
193.142	111.96
193.362	120.15
193.581	101.72
193.8	38.23
194.02	48.47
194.239	-39.59
194.458	5.46
194.678	21.84
194.897	27.99
195.116	71
195.335	56.66
195.555	93.52
195.774	-39.59
195.993	85.33
196.212	-62.12
196.432	-45.74
196.651	-25.26
196.87	-8.87
197.089	290.13
197.308	7.51
197.528	-6.83
197.747	-76.46
197.966	19.8
198.185	81.24
198.404	-51.88
198.623	107.86
198.842	116.05
199.062	38.23
199.281	30.04
199.5	-33.45
199.719	13.65
199.938	50.52
200.157	124.24
200.376	107.86
200.595	75.09
200.814	3.41
201.033	-53.93
201.252	89.43
201.471	66.9
201.69	30.04
201.909	116.05
202.128	91.48
202.347	38.23
202.566	48.47
202.785	-103.08
203.004	-39.59
203.223	232.79
203.442	-43.69
203.661	-10.92
203.879	-17.07
204.098	138.58
204.317	-58.03
204.536	75.09
204.755	95.57
204.974	122.2
205.193	7.51
205.411	83.28
205.63	85.33
205.849	66.9
206.068	15.7
206.287	-27.31
206.505	144.72
206.724	-27.31
206.943	-37.55
207.162	-4.78
207.381	-45.74
207.599	-29.35
207.818	-33.45
208.037	19.8
208.255	-6.83
208.474	13.65
208.693	58.71
208.911	87.38
209.13	116.05
209.349	124.24
209.567	21.84
209.786	87.38
210.005	44.37
210.223	48.47
210.442	-47.79
210.661	15.7
210.879	97.62
211.098	-8.87
211.316	40.28
211.535	52.56
211.753	27.99
211.972	134.48
212.191	73.04
212.409	73.04
212.628	17.75
212.846	-12.97
213.065	68.95
213.283	93.52
213.502	107.86
213.72	38.23
213.938	32.08
214.157	-35.5
214.375	75.09
214.594	-6.83
214.812	54.61
215.031	58.71
215.249	-10.92
215.467	48.47
215.686	73.04
215.904	87.38
216.122	11.61
216.341	85.33
216.559	56.66
216.778	62.8
216.996	44.37
217.214	5.46
217.432	-49.83
217.651	-29.35
217.869	105.81
218.087	54.61
218.306	-62.12
218.524	-4.78
218.742	-96.94
218.96	25.94
219.179	-49.83
219.397	36.18
219.615	261.46
219.833	116.05
220.051	34.13
220.27	56.66
220.488	58.71
220.706	83.28
220.924	-12.97
221.142	68.95
221.36	11.61
221.578	44.37
221.796	-0.68
222.015	7.51
222.233	91.48
222.451	171.35
222.669	-41.64
222.887	3.41
223.105	19.8
223.323	-45.74
223.541	-15.02
223.759	11.61
223.977	71
224.195	126.29
224.413	93.52
224.631	60.76
224.849	-39.59
225.067	148.82
225.285	-62.12
225.503	-35.5
225.721	-131.75
225.939	32.08
226.157	81.24
226.375	216.4
226.592	11.61
226.81	40.28
227.028	81.24
227.246	142.68
227.464	93.52
227.682	73.04
227.9	25.94
228.117	17.75
228.335	48.47
228.553	-41.64
228.771	27.99
228.989	60.76
229.206	222.55
229.424	-19.11
229.642	-53.93
229.86	-39.59
230.077	146.77
230.295	1.37
230.513	175.44
230.731	5.46
230.948	157.01
231.166	142.68
231.384	-15.02
231.601	-64.17
231.819	163.15
232.037	-129.7
232.254	-94.89
232.472	-6.83
232.689	19.8
232.907	89.43
233.125	25.94
233.342	11.61
233.56	1.37
233.777	-0.68
233.995	40.28
234.213	68.95
234.43	81.24
234.648	25.94
234.865	-4.78
235.083	58.71
235.3	5.46
235.518	75.09
235.735	142.68
235.953	15.7
236.17	-15.02
236.388	-31.4
236.605	58.71
236.822	17.75
237.04	107.86
237.257	89.43
237.475	-72.36
237.692	58.71
237.909	154.96
238.127	-25.26
238.344	83.28
238.562	27.99
238.779	-94.89
238.996	-33.45
239.214	-17.07
239.431	11.61
239.648	32.08
239.865	-0.68
240.083	21.84
240.3	5.46
240.517	19.8
240.735	79.19
240.952	154.96
241.169	105.81
241.386	97.62
241.603	54.61
241.821	-80.55
242.038	107.86
242.255	101.72
242.472	-17.07
242.689	60.76
242.907	-4.78
243.124	101.72
243.341	32.08
243.558	-8.87
243.775	-78.51
243.992	23.89
244.209	19.8
244.426	75.09
244.643	89.43
244.86	9.56
245.078	36.18
245.295	-8.87
245.512	1.37
245.729	-105.13
245.946	-4.78
246.163	93.52
246.38	-8.87
246.597	21.84
246.814	-53.93
247.031	13.65
247.248	54.61
247.464	56.66
247.681	-2.73
247.898	91.48
248.115	-19.11
248.332	-10.92
248.549	154.96
248.766	157.01
248.983	73.04
249.2	-6.83
249.417	54.61
249.633	-23.21
249.85	109.91
250.067	27.99
250.284	13.65
250.501	54.61
250.717	46.42
250.934	-119.46
251.151	46.42
251.368	-55.98
251.585	-23.21
251.801	73.04
252.018	-31.4
252.235	40.28
252.451	-31.4
252.668	15.7
252.885	136.53
253.102	64.85
253.318	54.61
253.535	-53.93
253.752	-68.27
253.968	30.04
254.185	-55.98
254.401	30.04
254.618	52.56
254.835	-41.64
255.051	138.58
255.268	122.2
255.484	-12.97
255.701	-43.69
255.917	27.99
256.134	-19.11
256.351	-12.97
256.567	-113.32
256.784	25.94
257	-72.36
257.217	99.67
257.433	38.23
257.65	40.28
257.866	159.06
258.082	-66.22
258.299	-58.03
258.515	-10.92
258.732	7.51
258.948	-23.21
259.165	89.43
259.381	-60.07
259.597	9.56
259.814	32.08
260.03	-17.07
260.246	81.24
260.463	77.14
260.679	126.29
260.895	-29.35
261.112	136.53
261.328	-17.07
261.544	-70.31
261.761	118.1
261.977	-31.4
262.193	-64.17
262.409	66.9
262.626	3.41
262.842	-29.35
263.058	-33.45
263.274	64.85
263.49	32.08
263.707	111.96
263.923	87.38
264.139	-78.51
264.355	54.61
264.571	46.42
264.787	-6.83
265.004	85.33
265.22	-19.11
265.436	-31.4
265.652	27.99
265.868	79.19
266.084	9.56
266.3	-4.78
266.516	-45.74
266.732	68.95
266.948	25.94
267.164	-101.03
267.38	42.32
267.596	77.14
267.812	161.11
268.028	5.46
268.244	-45.74
268.46	13.65
268.676	-49.83
268.892	68.95
269.108	-25.26
269.324	-92.84
269.54	-109.23
269.756	105.81
269.972	-31.4
270.188	23.89
270.403	-8.87
270.619	-4.78
270.835	79.19
271.051	-10.92
271.267	17.75
271.483	-51.88
271.698	46.42
271.914	52.56
272.13	-8.87
272.346	-19.11
272.562	32.08
272.777	165.2
272.993	-17.07
273.209	56.66
273.425	87.38
273.64	-49.83
273.856	34.13
274.072	-92.84
274.287	-80.55
274.503	85.33
274.719	50.52
274.934	-12.97
275.15	-94.89
275.366	13.65
275.581	-62.12
275.797	97.62
276.012	34.13
276.228	13.65
276.444	11.61
276.659	58.71
276.875	-76.46
277.09	-45.74
277.306	27.99
277.521	79.19
277.737	-15.02
277.952	118.1
278.168	71
278.383	21.84
278.599	38.23
278.814	101.72
279.03	9.56
279.245	120.15
279.461	-35.5
279.676	95.57
279.892	-96.94
280.107	-70.31
280.322	-51.88
280.538	64.85
280.753	-19.11
280.969	36.18
281.184	5.46
281.399	173.39
281.615	34.13
281.83	68.95
282.045	-68.27
282.26	1.37
282.476	-6.83
282.691	81.24
282.906	40.28
283.122	56.66
283.337	34.13
283.552	83.28
283.767	-6.83
283.983	95.57
284.198	9.56
284.413	58.71
284.628	-25.26
284.843	-8.87
285.058	23.89
285.274	105.81
285.489	-4.78
285.704	136.53
285.919	7.51
286.134	27.99
286.349	-19.11
286.564	30.04
286.779	91.48
286.995	-17.07
287.21	-123.56
287.425	11.61
287.64	-90.79
287.855	-47.79
288.07	-127.66
288.285	111.96
288.5	154.96
288.715	136.53
288.93	9.56
289.145	-19.11
289.36	85.33
289.575	7.51
289.79	105.81
290.004	-60.07
290.219	132.44
290.434	-25.26
290.649	-78.51
290.864	-37.55
291.079	75.09
291.294	-2.73
291.509	42.32
291.724	-41.64
291.938	21.84
292.153	56.66
292.368	19.8
292.583	36.18
292.798	134.48
293.012	60.76
293.227	11.61
293.442	60.76
293.657	34.13
293.871	87.38
294.086	50.52
294.301	128.34
294.516	77.14
294.73	17.75
294.945	1.37
295.16	44.37
295.374	105.81
295.589	114
295.804	-53.93
296.018	11.61
296.233	58.71
296.447	23.89
296.662	-76.46
296.877	85.33
297.091	60.76
297.306	-35.5
297.52	-53.93
297.735	-2.73
297.949	19.8
298.164	-43.69
298.378	13.65
298.593	-49.83
298.807	-8.87
299.022	87.38
299.236	56.66
299.451	11.61
299.665	-33.45
299.88	-41.64
300.094	73.04
300.309	-29.35
300.523	36.18
300.737	-0.68
300.952	87.38
301.166	46.42
301.381	-29.35
301.595	-55.98
301.809	40.28
302.024	58.71
302.238	-43.69
302.452	60.76
302.667	-23.21
302.881	111.96
303.095	87.38
303.309	120.15
303.524	17.75
303.738	19.8
303.952	-62.12
304.166	48.47
304.381	-131.75
304.595	103.76
304.809	-103.08
305.023	44.37
305.237	-33.45
305.452	-41.64
305.666	25.94
305.88	-45.74
306.094	134.48
306.308	58.71
306.522	48.47
306.736	-15.02
306.95	-4.78
307.164	15.7
307.379	-2.73
307.593	81.24
307.807	103.76
308.021	79.19
308.235	114
308.449	-45.74
308.663	79.19
308.877	177.49
309.091	81.24
309.305	62.8
309.519	-62.12
309.733	105.81
309.947	-15.02
310.161	48.47
310.374	68.95
310.588	66.9
310.802	15.7
311.016	-8.87
311.23	42.32
311.444	-55.98
311.658	36.18
311.872	146.77
312.085	36.18
312.299	36.18
312.513	114
312.727	1.37
312.941	1.37
313.154	71
313.368	32.08
313.582	7.51
313.796	77.14
314.009	-10.92
314.223	85.33
314.437	-19.11
314.651	-23.21
314.864	-66.22
315.078	50.52
315.292	-45.74
315.505	7.51
315.719	71
315.933	132.44
316.146	-94.89
316.36	-17.07
316.573	138.58
316.787	25.94
317.001	42.32
317.214	-101.03
317.428	30.04
317.641	19.8
317.855	-62.12
318.068	-10.92
318.282	105.81
318.495	148.82
318.709	21.84
318.922	-0.68
319.136	173.39
319.349	95.57
319.563	-29.35
319.776	23.89
319.99	-84.65
320.203	97.62
320.417	-4.78
320.63	97.62
320.843	136.53
321.057	-19.11
321.27	-6.83
321.483	15.7
321.697	120.15
321.91	42.32
322.124	64.85
322.337	148.82
322.55	-27.31
322.763	-10.92
322.977	-6.83
323.19	-33.45
323.403	-12.97
323.617	15.7
323.83	64.85
324.043	-4.78
324.256	30.04
324.469	-4.78
324.683	124.24
324.896	23.89
325.109	52.56
325.322	-53.93
325.535	116.05
325.748	66.9
325.962	-47.79
326.175	32.08
326.388	27.99
326.601	101.72
326.814	-21.16
327.027	-15.02
327.24	105.81
327.453	-96.94
327.666	73.04
327.879	19.8
328.092	56.66
328.305	77.14
328.518	-29.35
328.731	-78.51
328.944	-76.46
329.157	136.53
329.37	-0.68
329.583	173.39
329.796	95.57
330.009	-49.83
330.222	68.95
330.435	75.09
330.648	9.56
330.861	36.18
331.073	85.33
331.286	107.86
331.499	-0.68
331.712	-53.93
331.925	-10.92
332.138	5.46
332.35	77.14
332.563	-60.07
332.776	124.24
332.989	-53.93
333.202	-0.68
333.414	-60.07
333.627	3.41
333.84	1.37
334.053	1.37
334.265	-45.74
334.478	-0.68
334.691	-0.68
334.903	38.23
335.116	-49.83
335.329	3.41
335.541	27.99
335.754	185.68
335.966	-2.73
336.179	62.8
336.392	38.23
336.604	30.04
336.817	48.47
337.029	50.52
337.242	97.62
337.454	97.62
337.667	-86.7
337.88	83.28
338.092	-86.7
338.305	87.38
338.517	62.8
338.729	122.2
338.942	99.67
339.154	-101.03
339.367	9.56
339.579	56.66
339.792	-55.98
340.004	124.24
340.217	50.52
340.429	21.84
340.641	-17.07
340.854	3.41
341.066	-17.07
341.278	120.15
341.491	148.82
341.703	40.28
341.915	-45.74
342.128	89.43
342.34	7.51
342.552	-47.79
342.764	-74.41
342.977	-2.73
343.189	46.42
343.401	27.99
343.613	-64.17
343.826	32.08
344.038	-37.55
344.25	-47.79
344.462	-43.69
344.674	34.13
344.886	9.56
345.099	48.47
345.311	136.53
345.523	34.13
345.735	-82.6
345.947	38.23
346.159	60.76
346.371	23.89
346.583	50.52
346.795	245.07
347.007	-82.6
347.219	32.08
347.431	-21.16
347.643	107.86
347.855	-21.16
348.067	144.72
348.279	-119.46
348.491	77.14
348.703	71
348.915	13.65
349.127	-68.27
349.339	60.76
349.551	-10.92
349.763	146.77
349.975	-80.55
350.187	163.15
350.399	50.52
350.61	48.47
350.822	15.7
351.034	-2.73
351.246	5.46
351.458	40.28
351.669	66.9
351.881	79.19
352.093	71
352.305	136.53
352.517	36.18
352.728	146.77
352.94	-2.73
353.152	142.68
353.363	-101.03
353.575	-4.78
353.787	89.43
353.999	42.32
354.21	146.77
354.422	-8.87
354.633	17.75
354.845	13.65
355.057	1.37
355.268	-23.21
355.48	85.33
355.692	-109.23
355.903	66.9
356.115	-74.41
356.326	-94.89
356.538	157.01
356.749	83.28
356.961	103.76
357.172	-58.03
357.384	-101.03
357.595	159.06
357.807	-21.16
358.018	-19.11
358.23	23.89
358.441	171.35
358.653	95.57
358.864	15.7
359.075	-49.83
359.287	64.85
359.498	64.85
359.709	42.32
359.921	101.72
360.132	83.28
360.344	-64.17
360.555	-2.73
360.766	-10.92
360.977	32.08
361.189	75.09
361.4	25.94
361.611	93.52
361.823	87.38
362.034	19.8
362.245	-29.35
362.456	-25.26
362.667	7.51
362.879	-41.64
363.09	46.42
363.301	25.94
363.512	44.37
363.723	11.61
363.935	-29.35
364.146	79.19
364.357	-131.75
364.568	40.28
364.779	-129.7
364.99	81.24
365.201	-78.51
365.412	154.96
365.623	-74.41
365.834	1.37
366.045	-39.59
366.256	23.89
366.467	-6.83
366.678	-47.79
366.889	-2.73
367.1	-45.74
367.311	75.09
367.522	19.8
367.733	23.89
367.944	64.85
368.155	15.7
368.366	56.66
368.577	56.66
368.788	27.99
368.999	-2.73
369.209	79.19
369.42	216.4
369.631	202.07
369.842	77.14
370.053	-8.87
370.264	48.47
370.474	-19.11
370.685	89.43
370.896	15.7
371.107	142.68
371.317	64.85
371.528	-64.17
371.739	124.24
371.95	75.09
372.16	27.99
372.371	-27.31
372.582	34.13
372.792	46.42
373.003	32.08
373.214	50.52
373.424	21.84
373.635	-49.83
373.846	109.91
374.056	48.47
374.267	-25.26
374.477	19.8
374.688	-25.26
374.898	130.39
375.109	9.56
375.319	17.75
375.53	122.2
375.74	114
375.951	91.48
376.161	50.52
376.372	32.08
376.582	-139.94
376.793	3.41
377.003	15.7
377.214	-6.83
377.424	3.41
377.635	-25.26
377.845	-82.6
378.055	97.62
378.266	-105.13
378.476	52.56
378.686	97.62
378.897	11.61
379.107	111.96
379.317	38.23
379.528	54.61
379.738	56.66
379.948	-37.55
380.158	25.94
380.369	122.2
380.579	50.52
380.789	-19.11
380.999	75.09
381.21	87.38
381.42	124.24
381.63	-4.78
381.84	81.24
382.05	68.95
382.261	91.48
382.471	58.71
382.681	11.61
382.891	122.2
383.101	54.61
383.311	5.46
383.521	-8.87
383.731	54.61
383.941	111.96
384.151	40.28
384.361	-27.31
384.571	48.47
384.781	73.04
384.991	142.68
385.201	107.86
385.411	130.39
385.621	64.85
385.831	30.04
386.041	87.38
386.251	9.56
386.461	79.19
386.671	-4.78
386.881	124.24
387.091	-15.02
387.301	85.33
387.511	60.76
387.72	60.76
387.93	83.28
388.14	-117.42
388.35	58.71
388.56	132.44
388.769	17.75
388.979	30.04
389.189	-60.07
389.399	77.14
389.609	71
389.818	34.13
390.028	103.76
390.238	120.15
390.447	-12.97
390.657	40.28
390.867	-19.11
391.076	-74.41
391.286	17.75
391.496	50.52
391.705	27.99
391.915	109.91
392.125	134.48
392.334	-55.98
392.544	171.35
392.753	-6.83
392.963	-74.41
393.172	27.99
393.382	-25.26
393.591	79.19
393.801	25.94
394.01	138.58
394.22	21.84
394.429	-10.92
394.639	3.41
394.848	27.99
395.058	56.66
395.267	-0.68
395.477	73.04
395.686	118.1
395.895	97.62
396.105	134.48
396.314	38.23
396.524	30.04
396.733	-10.92
396.942	146.77
397.152	-33.45
397.361	87.38
397.57	7.51
397.78	44.37
397.989	23.89
398.198	179.54
398.407	1.37
398.617	-4.78
398.826	62.8
399.035	-27.31
399.244	77.14
399.453	7.51
399.663	62.8
399.872	11.61
400.081	-98.99
400.29	105.81
400.499	-15.02
400.708	48.47
400.917	40.28
401.127	46.42
401.336	21.84
401.545	116.05
401.754	109.91
401.963	52.56
402.172	9.56
402.381	-53.93
402.59	54.61
402.799	-10.92
403.008	103.76
403.217	40.28
403.426	136.53
403.635	-45.74
403.844	38.23
404.053	15.7
404.262	-41.64
404.471	177.49
404.68	-12.97
404.888	19.8
405.097	27.99
405.306	42.32
405.515	44.37
405.724	64.85
405.933	46.42
406.142	5.46
406.35	46.42
406.559	-80.55
406.768	27.99
406.977	122.2
407.185	142.68
407.394	50.52
407.603	-117.42
407.812	62.8
408.02	152.91
408.229	48.47
408.438	34.13
408.646	-68.27
408.855	64.85
409.064	54.61
409.272	21.84
409.481	130.39
409.69	13.65
409.898	-66.22
410.107	124.24
410.315	-25.26
410.524	-47.79
410.733	44.37
410.941	-45.74
411.15	118.1
411.358	134.48
411.567	138.58
411.775	-15.02
411.984	154.96
412.192	97.62
412.401	5.46
412.609	140.63
412.818	64.85
413.026	34.13
413.234	66.9
413.443	-31.4
413.651	-23.21
413.86	11.61
414.068	157.01
414.276	109.91
414.485	-6.83
414.693	91.48
414.901	267.6
415.11	44.37
415.318	-0.68
415.526	36.18
415.734	146.77
415.943	46.42
416.151	101.72
416.359	38.23
416.567	30.04
416.776	116.05
416.984	58.71
417.192	116.05
417.4	-6.83
417.608	32.08
417.817	-27.31
418.025	126.29
418.233	175.44
418.441	-31.4
418.649	-37.55
418.857	46.42
419.065	120.15
419.273	-23.21
419.481	-78.51
419.689	40.28
419.897	32.08
420.105	-27.31
420.313	75.09
420.521	48.47
420.729	40.28
420.937	-62.12
421.145	-62.12
421.353	38.23
421.561	189.78
421.769	36.18
421.977	-15.02
422.185	118.1
422.393	44.37
422.601	13.65
422.809	142.68
423.017	64.85
423.224	30.04
423.432	46.42
423.64	58.71
423.848	152.91
424.056	-35.5
424.263	56.66
424.471	58.71
424.679	161.11
424.887	-51.88
425.094	1.37
425.302	60.76
425.51	40.28
425.718	34.13
425.925	40.28
426.133	-41.64
426.341	114
426.548	11.61
426.756	56.66
426.964	54.61
427.171	-2.73
427.379	42.32
427.586	114
427.794	169.3
428.001	56.66
428.209	60.76
428.417	124.24
428.624	118.1
428.832	-8.87
429.039	66.9
429.247	120.15
429.454	-4.78
429.662	134.48
429.869	118.1
430.076	109.91
430.284	56.66
430.491	130.39
430.699	85.33
430.906	167.25
431.114	-0.68
431.321	169.3
431.528	103.76
431.736	97.62
431.943	81.24
432.15	210.26
432.358	128.34
432.565	200.02
432.772	-33.45
432.979	97.62
433.187	56.66
433.394	202.07
433.601	93.52
433.808	140.63
434.016	120.15
434.223	144.72
434.43	144.72
434.637	183.63
434.844	193.87
435.052	212.31
435.259	159.06
435.466	206.16
435.673	191.83
435.88	189.78
436.087	228.69
436.294	265.55
436.501	232.79
436.708	224.59
436.915	228.69
437.122	300.37
437.329	197.97
437.537	261.46
437.743	206.16
437.95	351.57
438.157	294.22
438.364	230.74
438.571	255.31
438.778	329.04
438.985	392.53
439.192	343.38
439.399	314.7
439.606	429.39
439.813	413.01
440.02	496.97
440.227	523.6
440.433	427.34
440.64	415.05
440.847	335.18
441.054	314.7
441.261	539.98
441.467	462.16
441.674	441.68
441.881	529.74
442.088	492.88
442.294	640.33
442.501	589.13
442.708	742.73
442.914	634.19
443.121	595.28
443.328	671.05
443.534	750.92
443.741	654.67
443.948	658.76
444.154	728.39
444.361	834.89
444.568	795.98
444.774	804.17
444.981	662.86
445.187	914.76
445.394	867.66
445.6	841.03
445.807	986.44
446.013	955.72
446.22	816.46
446.426	998.73
446.633	1226.05
446.839	1269.06
447.046	1105.22
447.252	1262.91
447.459	1238.34
447.665	1174.85
447.871	1434.94
448.078	1477.95
448.284	1463.61
448.491	1539.39
448.697	1578.3
448.903	1619.26
449.11	1680.7
449.316	1699.13
449.522	1789.24
449.728	1793.34
449.935	1989.94
450.141	2004.28
450.347	2213.17
450.553	2129.2
450.76	2237.75
450.966	2170.16
451.172	2338.1
451.378	2266.42
451.584	2387.25
451.791	2559.28
451.997	2669.87
452.203	2680.11
452.409	2940.2
452.615	2948.39
452.821	2862.38
453.027	2997.54
453.233	3349.79
453.44	3175.72
453.646	3355.94
453.852	3487.01
454.058	3544.35
454.264	3775.77
454.47	4025.62
454.676	3974.42
454.882	4476.18
455.088	4107.54
455.294	4472.08
455.5	4629.77
455.705	4969.74
455.911	4953.35
456.117	5106.95
456.323	5266.69
456.529	5305.6
456.735	5840.12
456.941	6003.96
457.147	6169.85
457.352	6329.59
457.558	6462.71
457.764	6847.72
457.97	7101.67
458.176	7384.29
458.381	7724.26
458.587	7759.07
458.793	8316.12
458.999	8139.99
459.204	9071.82
459.41	9508.04
459.616	9444.55
459.821	10097.85
460.027	10298.55
460.233	10972.33
460.438	11089.07
460.644	11605.16
460.85	11992.22
461.055	12131.48
461.261	12643.48
461.466	12555.41
461.672	12799.12
461.878	14382.2
462.083	14193.79
462.289	14468.22
462.494	15006.83
462.7	15021.17
462.905	15332.46
463.111	16467.03
463.316	17501.26
463.522	17513.55
463.727	18084.93
463.932	18943.03
464.138	19446.83
464.343	20261.92
464.549	20526.11
464.754	21799.94
464.959	22713.34
465.165	23002.1
465.37	22813.69
465.575	22782.97
465.781	24419.3
465.986	25123.8
466.191	24677.34
466.397	24890.33
466.602	24558.56
466.807	25617.36
467.012	26160.07
467.218	26473.41
467.423	26639.29
467.628	27642.8
467.833	28711.84
468.038	28445.6
468.244	28023.72
468.449	29186.97
468.654	28584.87
