Data from USB4F104151__43__09-27-49-906.txt Node

Date: Wed Feb 26 09:27:49 EST 2025
User: louis
Spectrometer: USB4F10415
Trigger mode: 4
Integration Time (sec): 1.000000E-1
Scans to average: 1
Electric dark correction enabled: true
Nonlinearity correction enabled: false
Boxcar width: 0
XAxis mode: Wavelengths
Number of Pixels in Spectrum: 3648
>>>>>Begin Spectral Data<<<<<
178.204	-383.14
178.424	-383.14
178.644	-383.14
178.864	-372.9
179.084	-409.76
179.304	75.6
179.524	-47.27
179.744	10.07
179.964	59.22
180.184	67.41
180.404	-30.89
180.624	24.4
180.844	1.88
181.064	-63.66
181.283	32.6
181.503	-80.04
181.723	-49.32
181.943	-178.34
182.163	161.62
182.383	-49.32
182.602	67.41
182.822	124.76
183.042	22.36
183.262	-63.66
183.482	12.12
183.701	1.88
183.921	26.45
184.141	-55.47
184.361	130.9
184.58	-30.89
184.8	44.88
185.02	-26.79
185.239	38.74
185.459	42.84
185.679	87.89
185.898	-88.23
186.118	10.07
186.338	153.43
186.557	42.84
186.777	-10.41
186.997	-6.31
187.216	-14.51
187.436	96.08
187.655	87.89
187.875	34.64
188.095	-41.13
188.314	100.18
188.534	102.23
188.753	-102.57
188.973	116.56
189.192	91.99
189.412	32.6
189.631	48.98
189.851	18.26
190.07	91.99
190.29	-22.7
190.509	-6.31
190.729	8.02
190.948	94.04
191.168	161.62
191.387	124.76
191.607	8.02
191.826	24.4
192.045	-6.31
192.265	-30.89
192.484	91.99
192.704	38.74
192.923	-45.23
193.142	151.38
193.362	135
193.581	100.18
193.8	57.17
194.02	34.64
194.239	-12.46
194.458	32.6
194.678	-14.51
194.897	-24.75
195.116	46.93
195.335	32.6
195.555	34.64
195.774	12.12
195.993	38.74
196.212	48.98
196.432	12.12
196.651	-39.08
196.87	57.17
197.089	120.66
197.308	46.93
197.528	-20.65
197.747	-18.6
197.966	36.69
198.185	124.76
198.404	-18.6
198.623	104.28
198.842	57.17
199.062	227.15
199.281	149.33
199.5	-47.27
199.719	57.17
199.938	124.76
200.157	75.6
200.376	28.5
200.595	63.32
200.814	89.94
201.033	-0.17
201.252	153.43
201.471	75.6
201.69	18.26
201.909	22.36
202.128	124.76
202.347	44.88
202.566	-22.7
202.785	-104.62
203.004	-41.13
203.223	161.62
203.442	55.12
203.661	-49.32
203.879	10.07
204.098	59.22
204.317	-14.51
204.536	51.03
204.755	46.93
204.974	81.75
205.193	10.07
205.411	135
205.63	141.14
205.849	91.99
206.068	-10.41
206.287	-30.89
206.505	34.64
206.724	34.64
206.943	18.26
207.162	16.21
207.381	24.4
207.599	-82.09
207.818	12.12
208.037	-6.31
208.255	30.55
208.474	-20.65
208.693	67.41
208.911	30.55
209.13	51.03
209.349	100.18
209.567	59.22
209.786	55.12
210.005	-6.31
210.223	42.84
210.442	-112.81
210.661	48.98
210.879	30.55
211.098	-4.27
211.316	100.18
211.535	87.89
211.753	71.51
211.972	65.36
212.191	-16.55
212.409	34.64
212.628	59.22
212.846	-94.38
213.065	55.12
213.283	38.74
213.502	48.98
213.72	-16.55
213.938	22.36
214.157	-73.9
214.375	108.37
214.594	-10.41
214.812	110.42
215.031	14.17
215.249	40.79
215.467	-0.17
215.686	28.5
215.904	71.51
216.122	69.46
216.341	112.47
216.559	12.12
216.778	85.84
216.996	67.41
217.214	-18.6
217.432	-10.41
217.651	-16.55
217.869	89.94
218.087	-22.7
218.306	-22.7
218.524	59.22
218.742	59.22
218.96	112.47
219.179	-0.17
219.397	100.18
219.615	204.63
219.833	75.6
220.051	-47.27
220.27	69.46
220.488	69.46
220.706	46.93
220.924	-61.61
221.142	1.88
221.36	42.84
221.578	85.84
221.796	-57.51
222.015	42.84
222.233	-12.46
222.451	130.9
222.669	-6.31
222.887	85.84
223.105	32.6
223.323	40.79
223.541	12.12
223.759	44.88
223.977	5.97
224.195	141.14
224.413	51.03
224.631	42.84
224.849	-14.51
225.067	114.52
225.285	-57.51
225.503	-30.89
225.721	-121
225.939	75.6
226.157	10.07
226.375	247.63
226.592	-102.57
226.81	91.99
227.028	108.37
227.246	1.88
227.464	-0.17
227.682	65.36
227.9	18.26
228.117	87.89
228.335	83.8
228.553	-16.55
228.771	-75.95
228.989	36.69
229.206	79.7
229.424	24.4
229.642	36.69
229.86	-43.18
230.077	135
230.295	20.31
230.513	110.42
230.731	-30.89
230.948	151.38
231.166	116.56
231.384	-6.31
231.601	-49.32
231.819	184.15
232.037	-18.6
232.254	-10.41
232.472	51.03
232.689	-47.27
232.907	18.26
233.125	67.41
233.342	-39.08
233.56	-10.41
233.777	-63.66
233.995	-96.43
234.213	67.41
234.43	69.46
234.648	-20.65
234.865	53.08
235.083	75.6
235.3	-10.41
235.518	100.18
235.735	143.19
235.953	89.94
236.17	59.22
236.388	1.88
236.605	48.98
236.822	8.02
237.04	51.03
237.257	30.55
237.475	-18.6
237.692	12.12
237.909	87.89
238.127	-39.08
238.344	-41.13
238.562	98.13
238.779	-53.42
238.996	-39.08
239.214	-37.03
239.431	153.43
239.648	1.88
239.865	34.64
240.083	71.51
240.3	-6.31
240.517	-10.41
240.735	71.51
240.952	87.89
241.169	-22.7
241.386	59.22
241.603	-55.47
241.821	-118.95
242.038	85.84
242.255	36.69
242.472	-92.33
242.689	38.74
242.907	63.32
243.124	104.28
243.341	67.41
243.558	26.45
243.775	-123.05
243.992	-24.75
244.209	108.37
244.426	116.56
244.643	106.32
244.86	-51.37
245.078	79.7
245.295	-59.56
245.512	48.98
245.729	-49.32
245.946	98.13
246.163	83.8
246.38	-6.31
246.597	112.47
246.814	24.4
247.031	69.46
247.248	26.45
247.464	89.94
247.681	-45.23
247.898	53.08
248.115	63.32
248.332	20.31
248.549	122.71
248.766	190.29
248.983	-30.89
249.2	75.6
249.417	132.95
249.633	-6.31
249.85	-2.22
250.067	5.97
250.284	67.41
250.501	59.22
250.717	143.19
250.934	-16.55
251.151	22.36
251.368	-18.6
251.585	46.93
251.801	79.7
252.018	24.4
252.235	71.51
252.451	-18.6
252.668	48.98
252.885	104.28
253.102	48.98
253.318	-18.6
253.535	-26.79
253.752	8.02
253.968	-14.51
254.185	-16.55
254.401	40.79
254.618	8.02
254.835	-67.75
255.051	114.52
255.268	40.79
255.484	18.26
255.701	53.08
255.917	34.64
256.134	-39.08
256.351	-14.51
256.567	-39.08
256.784	12.12
257	-24.75
257.217	34.64
257.433	63.32
257.65	38.74
257.866	100.18
258.082	-67.75
258.299	77.65
258.515	96.08
258.732	-4.27
258.948	-65.71
259.165	-8.36
259.381	-71.85
259.597	114.52
259.814	-73.9
260.03	30.55
260.246	-41.13
260.463	139.09
260.679	186.19
260.895	28.5
261.112	67.41
261.328	-6.31
261.544	10.07
261.761	178
261.977	8.02
262.193	22.36
262.409	30.55
262.626	28.5
262.842	67.41
263.058	22.36
263.274	108.37
263.49	65.36
263.707	85.84
263.923	67.41
264.139	-102.57
264.355	34.64
264.571	165.71
264.787	22.36
265.004	157.52
265.22	22.36
265.436	-18.6
265.652	14.17
265.868	51.03
266.084	-16.55
266.3	26.45
266.516	-4.27
266.732	-0.17
266.948	-8.36
267.164	67.41
267.38	71.51
267.596	3.93
267.812	94.04
268.028	-37.03
268.244	-0.17
268.46	22.36
268.676	-28.84
268.892	51.03
269.108	-39.08
269.324	18.26
269.54	-71.85
269.756	89.94
269.972	-147.62
270.188	81.75
270.403	-20.65
270.619	-30.89
270.835	30.55
271.051	10.07
271.267	18.26
271.483	-88.23
271.698	51.03
271.914	85.84
272.13	-88.23
272.346	59.22
272.562	-6.31
272.777	143.19
272.993	63.32
273.209	-2.22
273.425	5.97
273.64	-59.56
273.856	77.65
274.072	61.27
274.287	-10.41
274.503	12.12
274.719	53.08
274.934	-47.27
275.15	-65.71
275.366	-90.28
275.581	-63.66
275.797	24.4
276.012	-37.03
276.228	-24.75
276.444	36.69
276.659	46.93
276.875	-26.79
277.09	3.93
277.306	-14.51
277.521	94.04
277.737	46.93
277.952	-8.36
278.168	-14.51
278.383	8.02
278.599	63.32
278.814	94.04
279.03	46.93
279.245	61.27
279.461	-10.41
279.676	55.12
279.892	-22.7
280.107	71.51
280.322	34.64
280.538	12.12
280.753	-18.6
280.969	63.32
281.184	8.02
281.399	83.8
281.615	-34.99
281.83	-20.65
282.045	-75.95
282.26	-32.94
282.476	10.07
282.691	16.21
282.906	-32.94
283.122	32.6
283.337	-55.47
283.552	98.13
283.767	14.17
283.983	69.46
284.198	-22.7
284.413	96.08
284.628	-73.9
284.843	24.4
285.058	102.23
285.274	42.84
285.489	1.88
285.704	61.27
285.919	-16.55
286.134	-24.75
286.349	-10.41
286.564	-57.51
286.779	71.51
286.995	40.79
287.21	-43.18
287.425	59.22
287.64	8.02
287.855	61.27
288.07	-41.13
288.285	102.23
288.5	73.56
288.715	89.94
288.93	-28.84
289.145	-32.94
289.36	51.03
289.575	5.97
289.79	75.6
290.004	-22.7
290.219	83.8
290.434	10.07
290.649	30.55
290.864	-12.46
291.079	-43.18
291.294	18.26
291.509	-26.79
291.724	18.26
291.938	-14.51
292.153	79.7
292.368	5.97
292.583	73.56
292.798	75.6
293.012	-22.7
293.227	51.03
293.442	-22.7
293.657	30.55
293.871	141.14
294.086	24.4
294.301	122.71
294.516	83.8
294.73	30.55
294.945	-57.51
295.16	18.26
295.374	87.89
295.589	106.32
295.804	10.07
296.018	8.02
296.233	135
296.447	132.95
296.662	-26.79
296.877	77.65
297.091	44.88
297.306	18.26
297.52	18.26
297.735	-24.75
297.949	42.84
298.164	18.26
298.378	20.31
298.593	18.26
298.807	34.64
299.022	-0.17
299.236	194.39
299.451	57.17
299.665	22.36
299.88	42.84
300.094	28.5
300.309	22.36
300.523	59.22
300.737	-26.79
300.952	65.36
301.166	-24.75
301.381	-112.81
301.595	-18.6
301.809	-51.37
302.024	14.17
302.238	-53.42
302.452	122.71
302.667	3.93
302.881	145.24
303.095	75.6
303.309	51.03
303.524	-49.32
303.738	73.56
303.952	-14.51
304.166	42.84
304.381	-149.67
304.595	180.05
304.809	-45.23
305.023	40.79
305.237	-26.79
305.452	10.07
305.666	16.21
305.88	75.6
306.094	30.55
306.308	24.4
306.522	108.37
306.736	73.56
306.95	67.41
307.164	-26.79
307.379	-51.37
307.593	96.08
307.807	98.13
308.021	149.33
308.235	34.64
308.449	-88.23
308.663	12.12
308.877	157.52
309.091	100.18
309.305	55.12
309.519	-123.05
309.733	22.36
309.947	-20.65
310.161	-22.7
310.374	110.42
310.588	67.41
310.802	-39.08
311.016	34.64
311.23	34.64
311.444	-47.27
311.658	-6.31
311.872	128.85
312.085	128.85
312.299	75.6
312.513	98.13
312.727	71.51
312.941	-24.75
313.154	73.56
313.368	-6.31
313.582	-20.65
313.796	73.56
314.009	-0.17
314.223	106.32
314.437	53.08
314.651	44.88
314.864	8.02
315.078	-10.41
315.292	-147.62
315.505	-65.71
315.719	24.4
315.933	69.46
316.146	18.26
316.36	-98.47
316.573	98.13
316.787	22.36
317.001	12.12
317.214	-26.79
317.428	14.17
317.641	-98.47
317.855	26.45
318.068	48.98
318.282	34.64
318.495	128.85
318.709	67.41
318.922	24.4
319.136	122.71
319.349	98.13
319.563	-96.43
319.776	10.07
319.99	-84.14
320.203	63.32
320.417	1.88
320.63	122.71
320.843	137.04
321.057	16.21
321.27	53.08
321.483	104.28
321.697	141.14
321.91	-30.89
322.124	59.22
322.337	67.41
322.55	-102.57
322.763	40.79
322.977	26.45
323.19	-49.32
323.403	12.12
323.617	-18.6
323.83	153.43
324.043	-18.6
324.256	-28.84
324.469	-123.05
324.683	116.56
324.896	-71.85
325.109	73.56
325.322	-12.46
325.535	116.56
325.748	51.03
325.962	-0.17
326.175	8.02
326.388	-2.22
326.601	55.12
326.814	-10.41
327.027	57.17
327.24	85.84
327.453	-65.71
327.666	63.32
327.879	87.89
328.092	57.17
328.305	14.17
328.518	-47.27
328.731	24.4
328.944	-22.7
329.157	10.07
329.37	-55.47
329.583	118.61
329.796	87.89
330.009	-92.33
330.222	67.41
330.435	173.91
330.648	100.18
330.861	38.74
331.073	91.99
331.286	26.45
331.499	12.12
331.712	10.07
331.925	38.74
332.138	3.93
332.35	81.75
332.563	-22.7
332.776	98.13
332.989	-24.75
333.202	24.4
333.414	-49.32
333.627	30.55
333.84	-30.89
334.053	-26.79
334.265	46.93
334.478	-63.66
334.691	40.79
334.903	30.55
335.116	14.17
335.329	59.22
335.541	57.17
335.754	151.38
335.966	-37.03
336.179	59.22
336.392	-39.08
336.604	26.45
336.817	67.41
337.029	91.99
337.242	38.74
337.454	48.98
337.667	16.21
337.88	5.97
338.092	34.64
338.305	18.26
338.517	-39.08
338.729	63.32
338.942	114.52
339.154	-80.04
339.367	-135.34
339.579	135
339.792	-61.61
340.004	55.12
340.217	-26.79
340.429	87.89
340.641	-24.75
340.854	-30.89
341.066	1.88
341.278	132.95
341.491	165.71
341.703	8.02
341.915	20.31
342.128	100.18
342.34	26.45
342.552	-112.81
342.764	24.4
342.977	40.79
343.189	67.41
343.401	42.84
343.613	12.12
343.826	3.93
344.038	34.64
344.25	42.84
344.462	32.6
344.674	48.98
344.886	16.21
345.099	18.26
345.311	169.81
345.523	-20.65
345.735	34.64
345.947	-24.75
346.159	51.03
346.371	40.79
346.583	-12.46
346.795	114.52
347.007	8.02
347.219	96.08
347.431	14.17
347.643	161.62
347.855	-41.13
348.067	34.64
348.279	-65.71
348.491	40.79
348.703	18.26
348.915	-16.55
349.127	-82.09
349.339	-26.79
349.551	-10.41
349.763	71.51
349.975	3.93
350.187	34.64
350.399	63.32
350.61	-0.17
350.822	-30.89
351.034	73.56
351.246	18.26
351.458	77.65
351.669	30.55
351.881	79.7
352.093	51.03
352.305	87.89
352.517	77.65
352.728	57.17
352.94	108.37
353.152	14.17
353.363	1.88
353.575	128.85
353.787	120.66
353.999	10.07
354.21	130.9
354.422	-67.75
354.633	-45.23
354.845	32.6
355.057	-2.22
355.268	34.64
355.48	36.69
355.692	51.03
355.903	51.03
356.115	-63.66
356.326	-69.8
356.538	57.17
356.749	32.6
356.961	79.7
357.172	-41.13
357.384	48.98
357.595	96.08
357.807	-45.23
358.018	-41.13
358.23	-12.46
358.441	223.06
358.653	48.98
358.864	1.88
359.075	3.93
359.287	48.98
359.498	96.08
359.709	-0.17
359.921	-18.6
360.132	-22.7
360.344	16.21
360.555	-84.14
360.766	75.6
360.977	-55.47
361.189	51.03
361.4	-43.18
361.611	51.03
361.823	135
362.034	22.36
362.245	-112.81
362.456	48.98
362.667	51.03
362.879	-55.47
363.09	40.79
363.301	59.22
363.512	24.4
363.723	34.64
363.935	102.23
364.146	83.8
364.357	-0.17
364.568	63.32
364.779	-24.75
364.99	73.56
365.201	-51.37
365.412	79.7
365.623	-20.65
365.834	87.89
366.045	30.55
366.256	128.85
366.467	65.36
366.678	-18.6
366.889	63.32
367.1	-71.85
367.311	65.36
367.522	-24.75
367.733	3.93
367.944	5.97
368.155	65.36
368.366	1.88
368.577	147.28
368.788	149.33
368.999	-32.94
369.209	91.99
369.42	188.24
369.631	182.1
369.842	100.18
370.053	-43.18
370.264	106.32
370.474	-63.66
370.685	16.21
370.896	53.08
371.107	91.99
371.317	-10.41
371.528	24.4
371.739	108.37
371.95	55.12
372.16	63.32
372.371	-59.56
372.582	16.21
372.792	85.84
373.003	55.12
373.214	16.21
373.424	94.04
373.635	-12.46
373.846	116.56
374.056	59.22
374.267	75.6
374.477	8.02
374.688	-73.9
374.898	12.12
375.109	28.5
375.319	42.84
375.53	100.18
375.74	34.64
375.951	67.41
376.161	16.21
376.372	87.89
376.582	40.79
376.793	63.32
377.003	-2.22
377.214	48.98
377.424	67.41
377.635	14.17
377.845	-24.75
378.055	85.84
378.266	-63.66
378.476	51.03
378.686	65.36
378.897	-16.55
379.107	40.79
379.317	1.88
379.528	-22.7
379.738	46.93
379.948	-55.47
380.158	116.56
380.369	-16.55
380.579	20.31
380.789	8.02
380.999	36.69
381.21	40.79
381.42	132.95
381.63	40.79
381.84	10.07
382.05	-12.46
382.261	67.41
382.471	157.52
382.681	67.41
382.891	120.66
383.101	5.97
383.311	-22.7
383.521	-71.85
383.731	71.51
383.941	69.46
384.151	40.79
384.361	32.6
384.571	65.36
384.781	53.08
384.991	128.85
385.201	79.7
385.411	42.84
385.621	51.03
385.831	16.21
386.041	57.17
386.251	40.79
386.461	61.27
386.671	28.5
386.881	75.6
387.091	-18.6
387.301	128.85
387.511	71.51
387.72	-47.27
387.93	122.71
388.14	-28.84
388.35	3.93
388.56	14.17
388.769	104.28
388.979	-20.65
389.189	-0.17
389.399	24.4
389.609	83.8
389.818	126.8
390.028	34.64
390.238	83.8
390.447	-49.32
390.657	-43.18
390.867	-26.79
391.076	5.97
391.286	42.84
391.496	61.27
391.705	-57.51
391.915	157.52
392.125	91.99
392.334	55.12
392.544	38.74
392.753	48.98
392.963	22.36
393.172	51.03
393.382	-57.51
393.591	149.33
393.801	71.51
394.01	157.52
394.22	-67.75
394.429	-39.08
394.639	-28.84
394.848	-14.51
395.058	67.41
395.267	-2.22
395.477	22.36
395.686	-6.31
395.895	114.52
396.105	157.52
396.314	1.88
396.524	30.55
396.733	46.93
396.942	91.99
397.152	48.98
397.361	55.12
397.57	89.94
397.78	118.61
397.989	112.47
398.198	98.13
398.407	-2.22
398.617	46.93
398.826	42.84
399.035	24.4
399.244	132.95
399.453	38.74
399.663	46.93
399.872	67.41
400.081	-22.7
400.29	75.6
400.499	-61.61
400.708	22.36
400.917	10.07
401.127	55.12
401.336	-55.47
401.545	104.28
401.754	100.18
401.963	30.55
402.172	65.36
402.381	-155.82
402.59	5.97
402.799	-18.6
403.008	55.12
403.217	96.08
403.426	63.32
403.635	-57.51
403.844	3.93
404.053	38.74
404.262	34.64
404.471	169.81
404.68	55.12
404.888	3.93
405.097	-24.75
405.306	48.98
405.515	94.04
405.724	-0.17
405.933	65.36
406.142	8.02
406.35	135
406.559	-18.6
406.768	71.51
406.977	94.04
407.185	8.02
407.394	71.51
407.603	-80.04
407.812	83.8
408.02	118.61
408.229	46.93
408.438	-49.32
408.646	-129.19
408.855	30.55
409.064	34.64
409.272	18.26
409.481	22.36
409.69	18.26
409.898	-55.47
410.107	75.6
410.315	102.23
410.524	79.7
410.733	34.64
410.941	67.41
411.15	30.55
411.358	87.89
411.567	57.17
411.775	-18.6
411.984	-18.6
412.192	-0.17
412.401	-12.46
412.609	149.33
412.818	161.62
413.026	98.13
413.234	-20.65
413.443	89.94
413.651	16.21
413.86	-55.47
414.068	143.19
414.276	192.34
414.485	-32.94
414.693	198.48
414.901	147.28
415.11	24.4
415.318	83.8
415.526	32.6
415.734	75.6
415.943	14.17
416.151	71.51
416.359	-6.31
416.567	32.6
416.776	59.22
416.984	14.17
417.192	124.76
417.4	-26.79
417.608	-47.27
417.817	1.88
418.025	87.89
418.233	178
418.441	-34.99
418.649	87.89
418.857	65.36
419.065	38.74
419.273	22.36
419.481	57.17
419.689	-0.17
419.897	-57.51
420.105	-59.56
420.313	67.41
420.521	67.41
420.729	120.66
420.937	-34.99
421.145	14.17
421.353	67.41
421.561	75.6
421.769	147.28
421.977	1.88
422.185	188.24
422.393	42.84
422.601	110.42
422.809	180.05
423.017	-34.99
423.224	44.88
423.432	34.64
423.64	51.03
423.848	46.93
424.056	-34.99
424.263	57.17
424.471	30.55
424.679	169.81
424.887	5.97
425.094	102.23
425.302	24.4
425.51	83.8
425.718	44.88
425.925	59.22
426.133	10.07
426.341	182.1
426.548	18.26
426.756	83.8
426.964	63.32
427.171	36.69
427.379	110.42
427.586	10.07
427.794	10.07
428.001	165.71
428.209	63.32
428.417	106.32
428.624	8.02
428.832	110.42
429.039	1.88
429.247	104.28
429.454	151.38
429.662	165.71
429.869	16.21
430.076	83.8
430.284	94.04
430.491	153.43
430.699	59.22
430.906	118.61
431.114	87.89
431.321	100.18
431.528	108.37
431.736	51.03
431.943	122.71
432.15	118.61
432.358	100.18
432.565	196.43
432.772	-37.03
432.979	184.15
433.187	94.04
433.394	110.42
433.601	106.32
433.808	173.91
434.016	192.34
434.223	196.43
434.43	186.19
434.637	116.56
434.844	163.67
435.052	178
435.259	147.28
435.466	169.81
435.673	194.39
435.88	221.01
436.087	192.34
436.294	345.94
436.501	241.49
436.708	163.67
436.915	284.5
437.122	266.07
437.329	276.31
437.537	272.21
437.743	286.54
437.95	354.13
438.157	327.5
438.364	333.65
438.571	339.79
438.778	362.32
438.985	356.18
439.192	425.81
439.399	341.84
439.606	386.9
439.813	456.53
440.02	493.39
440.227	558.92
440.433	474.96
440.64	403.28
440.847	390.99
441.054	436.05
441.261	612.17
441.467	608.08
441.674	448.33
441.881	612.17
442.088	558.92
442.294	632.65
442.501	585.55
442.708	694.09
442.914	689.99
443.121	665.42
443.328	780.11
443.534	874.31
443.741	694.09
443.948	626.51
444.154	833.35
444.361	972.61
444.568	825.16
444.774	814.92
444.981	886.6
445.187	984.9
445.394	1015.62
445.6	1023.81
445.807	1146.69
446.013	1128.26
446.22	1064.77
446.426	1099.59
446.633	1214.27
446.839	1455.94
447.046	1238.85
447.252	1402.69
447.459	1312.58
447.665	1468.22
447.871	1597.24
448.078	1666.88
448.284	1756.99
448.491	1750.84
448.697	1728.31
448.903	1820.47
449.11	1990.45
449.316	1965.88
449.522	2000.69
449.728	2189.11
449.935	2131.76
450.141	2234.16
450.347	2361.14
450.553	2238.26
450.76	2406.19
450.966	2516.78
451.172	2649.9
451.378	2735.92
451.584	2842.41
451.791	2979.62
451.997	3188.52
452.203	3110.69
452.409	3270.44
452.615	3350.31
452.821	3237.67
453.027	3362.59
453.233	3735.32
453.44	3489.57
453.646	3843.87
453.852	4126.49
454.058	4167.45
454.264	4357.91
454.47	4540.18
454.676	4544.27
454.882	5007.11
455.088	4785.93
455.294	4990.73
455.5	5267.2
455.705	5617.41
455.911	5711.61
456.117	5805.82
456.323	6041.34
456.529	5998.33
456.735	6571.76
456.941	6661.87
457.147	6989.55
457.352	7192.3
457.558	7380.71
457.764	7866.08
457.97	7964.38
458.176	8378.07
458.381	8892.11
458.587	9035.47
458.793	9565.89
458.999	9492.16
459.204	10565.3
459.41	10831.54
459.616	10610.36
459.821	11417.26
460.027	11816.61
460.233	12426.9
460.438	12627.6
460.644	13160.08
460.85	13352.59
461.055	13872.77
461.261	14444.15
461.466	14349.95
461.672	14933.62
461.878	16004.71
462.083	15730.28
462.289	16455.26
462.494	17170
462.7	17350.22
462.905	17479.24
463.111	18794.04
463.316	19689
463.522	20153.89
463.727	20610.59
463.932	21458.45
464.138	22011.4
464.343	23174.64
464.549	23262.71
464.754	24921.56
464.959	25462.22
465.165	26084.81
465.37	25705.93
465.575	25816.52
465.781	27504.05
465.986	28253.61
466.191	28016.04
466.397	28335.52
466.602	27657.65
466.807	29111.71
467.012	29355.41
467.218	30242.18
467.423	30215.56
467.628	31038.84
467.833	32666.98
468.038	32144.75
468.244	31470.97
468.449	33199.45
468.654	32716.13
468.859	32351.59
469.064	32435.56
469.269	31466.87
