Data from USB4F104151__80__09-30-46-087.txt Node

Date: Wed Feb 26 09:30:46 EST 2025
User: louis
Spectrometer: USB4F10415
Trigger mode: 4
Integration Time (sec): 1.000000E-1
Scans to average: 1
Electric dark correction enabled: true
Nonlinearity correction enabled: false
Boxcar width: 0
XAxis mode: Wavelengths
Number of Pixels in Spectrum: 3648
>>>>>Begin Spectral Data<<<<<
178.204	-341.84
178.424	-341.84
178.644	-341.84
178.864	-399.18
179.084	-366.42
179.304	-1.88
179.524	-24.4
179.744	10.41
179.964	84.14
180.184	6.31
180.404	53.42
180.624	-10.07
180.844	-5.97
181.064	-44.88
181.283	-14.17
181.503	-42.84
181.723	-10.07
181.943	-79.7
182.163	207.02
182.383	22.7
182.602	2.22
182.822	186.54
183.042	69.8
183.262	8.36
183.482	-53.08
183.701	20.65
183.921	55.47
184.141	-10.07
184.361	90.28
184.58	39.08
184.8	24.75
185.02	34.99
185.239	114.86
185.459	30.89
185.679	133.29
185.898	-153.43
186.118	32.94
186.338	30.89
186.557	34.99
186.777	-67.41
186.997	2.22
187.216	-42.84
187.436	110.76
187.655	86.19
187.875	106.67
188.095	47.27
188.314	116.9
188.534	94.38
188.753	-73.56
188.973	49.32
189.192	182.44
189.412	22.7
189.631	34.99
189.851	22.7
190.07	149.67
190.29	-102.23
190.509	-51.03
190.729	-10.07
190.948	77.99
191.168	211.11
191.387	80.04
191.607	55.47
191.826	96.43
192.045	69.8
192.265	67.75
192.484	92.33
192.704	-14.17
192.923	-38.74
193.142	184.49
193.362	102.57
193.581	135.34
193.8	73.9
194.02	135.34
194.239	26.79
194.458	123.05
194.678	63.66
194.897	-20.31
195.116	106.67
195.335	49.32
195.555	94.38
195.774	-5.97
195.993	121
196.212	71.85
196.432	102.57
196.651	51.37
196.87	18.6
197.089	231.59
197.308	39.08
197.528	43.18
197.747	-42.84
197.966	45.23
198.185	118.95
198.404	-16.21
198.623	88.23
198.842	174.25
199.062	84.14
199.281	55.47
199.5	100.52
199.719	41.13
199.938	104.62
200.157	30.89
200.376	80.04
200.595	88.23
200.814	90.28
201.033	0.17
201.252	168.1
201.471	96.43
201.69	94.38
201.909	-26.45
202.128	145.58
202.347	90.28
202.566	-12.12
202.785	-71.51
203.004	-51.03
203.223	180.39
203.442	26.79
203.661	-20.31
203.879	96.43
204.098	149.67
204.317	10.41
204.536	84.14
204.755	-1.88
204.974	86.19
205.193	2.22
205.411	184.49
205.63	59.56
205.849	55.47
206.068	30.89
206.287	-57.17
206.505	73.9
206.724	57.51
206.943	75.95
207.162	2.22
207.381	55.47
207.599	10.41
207.818	53.42
208.037	-22.36
208.255	-22.36
208.474	84.14
208.693	20.65
208.911	-12.12
209.13	88.23
209.349	88.23
209.567	108.71
209.786	153.77
210.005	-26.45
210.223	96.43
210.442	-102.23
210.661	55.47
210.879	47.27
211.098	37.03
211.316	67.75
211.535	61.61
211.753	22.7
211.972	53.42
212.191	-34.64
212.409	-22.36
212.628	129.19
212.846	-30.55
213.065	32.94
213.283	80.04
213.502	18.6
213.72	34.99
213.938	53.42
214.157	14.51
214.375	108.71
214.594	18.6
214.812	30.89
215.031	-14.17
215.249	88.23
215.467	24.75
215.686	32.94
215.904	67.75
216.122	80.04
216.341	116.9
216.559	47.27
216.778	53.42
216.996	94.38
217.214	-32.6
217.432	14.51
217.651	-85.84
217.869	84.14
218.087	14.51
218.306	34.99
218.524	123.05
218.742	39.08
218.96	6.31
219.179	16.55
219.397	26.79
219.615	235.69
219.833	116.9
220.051	-10.07
220.27	141.48
220.488	88.23
220.706	67.75
220.924	-10.07
221.142	65.71
221.36	-28.5
221.578	24.75
221.796	8.36
222.015	20.65
222.233	-3.93
222.451	137.38
222.669	-26.45
222.887	77.99
223.105	90.28
223.323	-63.32
223.541	-85.84
223.759	30.89
223.977	80.04
224.195	153.77
224.413	102.57
224.631	49.32
224.849	41.13
225.067	110.76
225.285	6.31
225.503	-32.6
225.721	-65.36
225.939	104.62
226.157	6.31
226.375	219.3
226.592	2.22
226.81	39.08
227.028	213.16
227.246	92.33
227.464	114.86
227.682	16.55
227.9	63.66
228.117	-34.64
228.335	127.14
228.553	96.43
228.771	-5.97
228.989	47.27
229.206	20.65
229.424	28.84
229.642	39.08
229.86	12.46
230.077	104.62
230.295	-3.93
230.513	118.95
230.731	96.43
230.948	174.25
231.166	100.52
231.384	12.46
231.601	-36.69
231.819	151.72
232.037	-12.12
232.254	12.46
232.472	-48.98
232.689	16.55
232.907	53.42
233.125	2.22
233.342	-46.93
233.56	63.66
233.777	-14.17
233.995	20.65
234.213	147.62
234.43	112.81
234.648	30.89
234.865	18.6
235.083	55.47
235.3	49.32
235.518	77.99
235.735	141.48
235.953	75.95
236.17	30.89
236.388	45.23
236.605	114.86
236.822	102.57
237.04	145.58
237.257	41.13
237.475	26.79
237.692	41.13
237.909	41.13
238.127	20.65
238.344	149.67
238.562	73.9
238.779	-42.84
238.996	-8.02
239.214	71.85
239.431	102.57
239.648	-22.36
239.865	6.31
240.083	106.67
240.3	-18.26
240.517	-38.74
240.735	43.18
240.952	22.7
241.169	49.32
241.386	2.22
241.603	-5.97
241.821	-55.12
242.038	51.37
242.255	71.85
242.472	-12.12
242.689	84.14
242.907	32.94
243.124	-12.12
243.341	55.47
243.558	4.27
243.775	-10.07
243.992	8.36
244.209	135.34
244.426	168.1
244.643	98.47
244.86	22.7
245.078	104.62
245.295	110.76
245.512	-63.32
245.729	-75.6
245.946	77.99
246.163	55.47
246.38	75.95
246.597	59.56
246.814	80.04
247.031	-5.97
247.248	71.85
247.464	61.61
247.681	69.8
247.898	69.8
248.115	45.23
248.332	28.84
248.549	145.58
248.766	174.25
248.983	86.19
249.2	96.43
249.417	49.32
249.633	63.66
249.85	118.95
250.067	-10.07
250.284	16.55
250.501	51.37
250.717	45.23
250.934	39.08
251.151	6.31
251.368	53.42
251.585	125.1
251.801	39.08
252.018	-16.21
252.235	129.19
252.451	-34.64
252.668	18.6
252.885	200.87
253.102	84.14
253.318	24.75
253.535	12.46
253.752	34.99
253.968	-12.12
254.185	-38.74
254.401	6.31
254.618	57.51
254.835	6.31
255.051	96.43
255.268	71.85
255.484	-16.21
255.701	71.85
255.917	90.28
256.134	0.17
256.351	80.04
256.567	-67.41
256.784	14.51
257	4.27
257.217	55.47
257.433	100.52
257.65	49.32
257.866	157.86
258.082	4.27
258.299	22.7
258.515	69.8
258.732	12.46
258.948	-71.51
259.165	37.03
259.381	-67.41
259.597	135.34
259.814	-40.79
260.03	-26.45
260.246	55.47
260.463	194.73
260.679	59.56
260.895	-22.36
261.112	98.47
261.328	-5.97
261.544	14.51
261.761	172.2
261.977	4.27
262.193	-30.55
262.409	84.14
262.626	51.37
262.842	106.67
263.058	-55.12
263.274	71.85
263.49	53.42
263.707	86.19
263.923	53.42
264.139	-79.7
264.355	-12.12
264.571	71.85
264.787	65.71
265.004	164.01
265.22	2.22
265.436	-16.21
265.652	-30.55
265.868	96.43
266.084	12.46
266.3	47.27
266.516	-44.88
266.732	65.71
266.948	-5.97
267.164	8.36
267.38	102.57
267.596	129.19
267.812	178.34
268.028	-36.69
268.244	-46.93
268.46	28.84
268.676	10.41
268.892	18.6
269.108	18.6
269.324	-18.26
269.54	-16.21
269.756	28.84
269.972	-71.51
270.188	59.56
270.403	-1.88
270.619	88.23
270.835	110.76
271.051	53.42
271.267	-20.31
271.483	10.41
271.698	137.38
271.914	49.32
272.13	96.43
272.346	88.23
272.562	34.99
272.777	98.47
272.993	-24.4
273.209	-34.64
273.425	20.65
273.64	-14.17
273.856	6.31
274.072	-42.84
274.287	-32.6
274.503	67.75
274.719	32.94
274.934	-26.45
275.15	-96.08
275.366	69.8
275.581	71.85
275.797	28.84
276.012	26.79
276.228	-32.6
276.444	-24.4
276.659	55.47
276.875	-1.88
277.09	71.85
277.306	-40.79
277.521	30.89
277.737	6.31
277.952	110.76
278.168	61.61
278.383	6.31
278.599	20.65
278.814	92.33
279.03	14.51
279.245	145.58
279.461	59.56
279.676	112.81
279.892	-61.27
280.107	-34.64
280.322	-55.12
280.538	-28.5
280.753	-32.6
280.969	135.34
281.184	110.76
281.399	153.77
281.615	-46.93
281.83	47.27
282.045	-24.4
282.26	-51.03
282.476	-10.07
282.691	104.62
282.906	43.18
283.122	2.22
283.337	34.99
283.552	116.9
283.767	34.99
283.983	137.38
284.198	-30.55
284.413	88.23
284.628	-67.41
284.843	12.46
285.058	65.71
285.274	73.9
285.489	-59.22
285.704	121
285.919	12.46
286.134	-24.4
286.349	-5.97
286.564	24.75
286.779	123.05
286.995	39.08
287.21	-59.22
287.425	53.42
287.64	-14.17
287.855	43.18
288.07	2.22
288.285	145.58
288.5	129.19
288.715	80.04
288.93	6.31
289.145	-94.04
289.36	172.2
289.575	-32.6
289.79	116.9
290.004	34.99
290.219	63.66
290.434	-40.79
290.649	6.31
290.864	-69.46
291.079	43.18
291.294	106.67
291.509	82.09
291.724	75.95
291.938	28.84
292.153	2.22
292.368	10.41
292.583	8.36
292.798	155.82
293.012	114.86
293.227	37.03
293.442	26.79
293.657	168.1
293.871	77.99
294.086	20.65
294.301	174.25
294.516	63.66
294.73	20.65
294.945	0.17
295.16	-5.97
295.374	137.38
295.589	55.47
295.804	129.19
296.018	69.8
296.233	84.14
296.447	69.8
296.662	-24.4
296.877	186.54
297.091	71.85
297.306	12.46
297.52	59.56
297.735	39.08
297.949	61.61
298.164	116.9
298.378	10.41
298.593	30.89
298.807	-14.17
299.022	43.18
299.236	127.14
299.451	-48.98
299.665	-20.31
299.88	45.23
300.094	82.09
300.309	61.61
300.523	0.17
300.737	-18.26
300.952	92.33
301.166	121
301.381	-14.17
301.595	143.53
301.809	39.08
302.024	30.89
302.238	-10.07
302.452	39.08
302.667	20.65
302.881	182.44
303.095	145.58
303.309	28.84
303.524	-42.84
303.738	55.47
303.952	53.42
304.166	104.62
304.381	-20.31
304.595	121
304.809	-51.03
305.023	-55.12
305.237	6.31
305.452	-67.41
305.666	53.42
305.88	59.56
306.094	123.05
306.308	73.9
306.522	110.76
306.736	18.6
306.95	63.66
307.164	47.27
307.379	-71.51
307.593	98.47
307.807	98.47
308.021	73.9
308.235	80.04
308.449	-108.37
308.663	-22.36
308.877	172.2
309.091	69.8
309.305	6.31
309.519	-71.51
309.733	131.24
309.947	-42.84
310.161	59.56
310.374	80.04
310.588	98.47
310.802	-104.28
311.016	14.51
311.23	80.04
311.444	4.27
311.658	94.38
311.872	49.32
312.085	170.15
312.299	102.57
312.513	98.47
312.727	133.29
312.941	-42.84
313.154	88.23
313.368	18.6
313.582	86.19
313.796	80.04
314.009	-28.5
314.223	77.99
314.437	73.9
314.651	34.99
314.864	-14.17
315.078	-1.88
315.292	-44.88
315.505	22.7
315.719	114.86
315.933	12.46
316.146	14.51
316.36	-32.6
316.573	104.62
316.787	125.1
317.001	84.14
317.214	-22.36
317.428	80.04
317.641	-69.46
317.855	34.99
318.068	53.42
318.282	51.37
318.495	102.57
318.709	92.33
318.922	96.43
319.136	129.19
319.349	37.03
319.563	57.51
319.776	84.14
319.99	20.65
320.203	129.19
320.417	-14.17
320.63	26.79
320.843	147.62
321.057	63.66
321.27	0.17
321.483	30.89
321.697	86.19
321.91	14.51
322.124	59.56
322.337	104.62
322.55	-36.69
322.763	65.71
322.977	12.46
323.19	-24.4
323.403	30.89
323.617	149.67
323.83	37.03
324.043	6.31
324.256	-20.31
324.469	-18.26
324.683	159.91
324.896	37.03
325.109	55.47
325.322	-51.03
325.535	139.43
325.748	75.95
325.962	20.65
326.175	92.33
326.388	43.18
326.601	116.9
326.814	37.03
327.027	108.71
327.24	121
327.453	-38.74
327.666	84.14
327.879	80.04
328.092	102.57
328.305	104.62
328.518	-24.4
328.731	-32.6
328.944	-14.17
329.157	41.13
329.37	20.65
329.583	118.95
329.796	176.3
330.009	-42.84
330.222	75.95
330.435	161.96
330.648	59.56
330.861	8.36
331.073	43.18
331.286	151.72
331.499	4.27
331.712	18.6
331.925	10.41
332.138	63.66
332.35	129.19
332.563	-40.79
332.776	100.52
332.989	-51.03
333.202	39.08
333.414	71.85
333.627	2.22
333.84	61.61
334.053	110.76
334.265	34.99
334.478	-63.32
334.691	16.55
334.903	6.31
335.116	-71.51
335.329	28.84
335.541	71.85
335.754	63.66
335.966	20.65
336.179	102.57
336.392	-36.69
336.604	22.7
336.817	84.14
337.029	-26.45
337.242	28.84
337.454	55.47
337.667	4.27
337.88	75.95
338.092	22.7
338.305	86.19
338.517	-73.56
338.729	57.51
338.942	69.8
339.154	12.46
339.367	-102.23
339.579	65.71
339.792	-22.36
340.004	10.41
340.217	4.27
340.429	67.75
340.641	2.22
340.854	-65.36
341.066	45.23
341.278	127.14
341.491	170.15
341.703	39.08
341.915	12.46
342.128	102.57
342.34	39.08
342.552	-77.65
342.764	-44.88
342.977	-1.88
343.189	14.51
343.401	28.84
343.613	-36.69
343.826	80.04
344.038	-51.03
344.25	57.51
344.462	-12.12
344.674	96.43
344.886	22.7
345.099	63.66
345.311	88.23
345.523	-1.88
345.735	-94.04
345.947	45.23
346.159	37.03
346.371	14.51
346.583	-12.12
346.795	161.96
347.007	-55.12
347.219	53.42
347.431	24.75
347.643	100.52
347.855	-8.02
348.067	73.9
348.279	-102.23
348.491	71.85
348.703	24.75
348.915	-10.07
349.127	4.27
349.339	112.81
349.551	-1.88
349.763	16.55
349.975	39.08
350.187	108.71
350.399	143.53
350.61	118.95
350.822	-40.79
351.034	30.89
351.246	49.32
351.458	71.85
351.669	57.51
351.881	110.76
352.093	86.19
352.305	184.49
352.517	84.14
352.728	178.34
352.94	20.65
353.152	110.76
353.363	37.03
353.575	-26.45
353.787	104.62
353.999	20.65
354.21	116.9
354.422	-1.88
354.633	39.08
354.845	-5.97
355.057	10.41
355.268	131.24
355.48	77.99
355.692	-83.8
355.903	43.18
356.115	39.08
356.326	-22.36
356.538	174.25
356.749	110.76
356.961	135.34
357.172	-20.31
357.384	59.56
357.595	243.88
357.807	-14.17
358.018	-46.93
358.23	-10.07
358.441	129.19
358.653	-30.55
358.864	-18.26
359.075	30.89
359.287	57.51
359.498	65.71
359.709	8.36
359.921	55.47
360.132	116.9
360.344	-12.12
360.555	88.23
360.766	73.9
360.977	32.94
361.189	73.9
361.4	2.22
361.611	75.95
361.823	129.19
362.034	90.28
362.245	-63.32
362.456	51.37
362.667	80.04
362.879	20.65
363.09	96.43
363.301	129.19
363.512	65.71
363.723	-63.32
363.935	12.46
364.146	108.71
364.357	75.95
364.568	-1.88
364.779	-18.26
364.99	34.99
365.201	0.17
365.412	129.19
365.623	-104.28
365.834	34.99
366.045	2.22
366.256	108.71
366.467	102.57
366.678	43.18
366.889	49.32
367.1	41.13
367.311	39.08
367.522	49.32
367.733	114.86
367.944	-12.12
368.155	47.27
368.366	112.81
368.577	143.53
368.788	88.23
368.999	-67.41
369.209	53.42
369.42	178.34
369.631	178.34
369.842	55.47
370.053	-75.6
370.264	53.42
370.474	-12.12
370.685	80.04
370.896	-8.02
371.107	114.86
371.317	34.99
371.528	-1.88
371.739	63.66
371.95	45.23
372.16	45.23
372.371	12.46
372.582	45.23
372.792	32.94
373.003	80.04
373.214	51.37
373.424	59.56
373.635	47.27
373.846	104.62
374.056	69.8
374.267	-48.98
374.477	43.18
374.688	-20.31
374.898	37.03
375.109	-1.88
375.319	39.08
375.53	110.76
375.74	28.84
375.951	12.46
376.161	26.79
376.372	151.72
376.582	30.89
376.793	75.95
377.003	-51.03
377.214	-10.07
377.424	71.85
377.635	92.33
377.845	14.51
378.055	121
378.266	18.6
378.476	45.23
378.686	14.51
378.897	-5.97
379.107	69.8
379.317	82.09
379.528	86.19
379.738	63.66
379.948	-42.84
380.158	145.58
380.369	-1.88
380.579	-5.97
380.789	14.51
380.999	39.08
381.21	41.13
381.42	180.39
381.63	49.32
381.84	88.23
382.05	20.65
382.261	125.1
382.471	82.09
382.681	116.9
382.891	168.1
383.101	37.03
383.311	-51.03
383.521	-42.84
383.731	106.67
383.941	135.34
384.151	59.56
384.361	-34.64
384.571	110.76
384.781	80.04
384.991	188.58
385.201	186.54
385.411	55.47
385.621	55.47
385.831	-30.55
386.041	8.36
386.251	6.31
386.461	57.51
386.671	-59.22
386.881	37.03
387.091	12.46
387.301	114.86
387.511	10.41
387.72	80.04
387.93	47.27
388.14	-28.5
388.35	6.31
388.56	69.8
388.769	80.04
388.979	65.71
389.189	-61.27
389.399	63.66
389.609	129.19
389.818	53.42
390.028	61.61
390.238	71.85
390.447	18.6
390.657	20.65
390.867	-5.97
391.076	-61.27
391.286	34.99
391.496	39.08
391.705	24.75
391.915	147.62
392.125	143.53
392.334	0.17
392.544	75.95
392.753	86.19
392.963	20.65
393.172	2.22
393.382	69.8
393.591	145.58
393.801	6.31
394.01	159.91
394.22	88.23
394.429	-5.97
394.639	-34.64
394.848	39.08
395.058	0.17
395.267	45.23
395.477	121
395.686	37.03
395.895	211.11
396.105	155.82
396.314	69.8
396.524	98.47
396.733	4.27
396.942	96.43
397.152	125.1
397.361	157.86
397.57	71.85
397.78	41.13
397.989	77.99
398.198	149.67
398.407	51.37
398.617	22.7
398.826	49.32
399.035	34.99
399.244	94.38
399.453	30.89
399.663	92.33
399.872	88.23
400.081	-34.64
400.29	127.14
400.499	51.37
400.708	112.81
400.917	8.36
401.127	53.42
401.336	45.23
401.545	192.68
401.754	147.62
401.963	4.27
402.172	22.7
402.381	-30.55
402.59	77.99
402.799	90.28
403.008	123.05
403.217	-24.4
403.426	102.57
403.635	-55.12
403.844	71.85
404.053	6.31
404.262	41.13
404.471	141.48
404.68	80.04
404.888	51.37
405.097	45.23
405.306	63.66
405.515	71.85
405.724	14.51
405.933	104.62
406.142	14.51
406.35	170.15
406.559	114.86
406.768	51.37
406.977	166.06
407.185	43.18
407.394	108.71
407.603	-63.32
407.812	53.42
408.02	155.82
408.229	63.66
408.438	116.9
408.646	2.22
408.855	-40.79
409.064	63.66
409.272	67.75
409.481	161.96
409.69	-61.27
409.898	-34.64
410.107	90.28
410.315	94.38
410.524	-26.45
410.733	10.41
410.941	26.79
411.15	0.17
411.358	151.72
411.567	108.71
411.775	96.43
411.984	34.99
412.192	39.08
412.401	12.46
412.609	94.38
412.818	118.95
413.026	43.18
413.234	34.99
413.443	22.7
413.651	24.75
413.86	-18.26
414.068	125.1
414.276	106.67
414.485	18.6
414.693	145.58
414.901	94.38
415.11	92.33
415.318	20.65
415.526	69.8
415.734	61.61
415.943	118.95
416.151	104.62
416.359	-18.26
416.567	39.08
416.776	100.52
416.984	63.66
417.192	190.63
417.4	37.03
417.608	53.42
417.817	2.22
418.025	123.05
418.233	166.06
418.441	18.6
418.649	30.89
418.857	69.8
419.065	149.67
419.273	47.27
419.481	18.6
419.689	106.67
419.897	12.46
420.105	-36.69
420.313	106.67
420.521	135.34
420.729	164.01
420.937	-69.46
421.145	-38.74
421.353	77.99
421.561	141.48
421.769	172.2
421.977	39.08
422.185	80.04
422.393	84.14
422.601	63.66
422.809	71.85
423.017	100.52
423.224	102.57
423.432	88.23
423.64	114.86
423.848	43.18
424.056	-26.45
424.263	51.37
424.471	-5.97
424.679	151.72
424.887	20.65
425.094	82.09
425.302	28.84
425.51	88.23
425.718	139.43
425.925	53.42
426.133	30.89
426.341	106.67
426.548	69.8
426.756	92.33
426.964	100.52
427.171	90.28
427.379	82.09
427.586	2.22
427.794	147.62
428.001	39.08
428.209	127.14
428.417	174.25
428.624	30.89
428.832	153.77
429.039	82.09
429.247	84.14
429.454	69.8
429.662	155.82
429.869	96.43
430.076	77.99
430.284	198.82
430.491	219.3
430.699	161.96
430.906	186.54
431.114	168.1
431.321	129.19
431.528	170.15
431.736	159.91
431.943	155.82
432.15	125.1
432.358	166.06
432.565	170.15
432.772	-8.02
432.979	256.17
433.187	92.33
433.394	141.48
433.601	123.05
433.808	166.06
434.016	221.35
434.223	247.97
434.43	149.67
434.637	295.08
434.844	219.3
435.052	225.45
435.259	225.45
435.466	299.17
435.673	157.86
435.88	274.6
436.087	317.61
436.294	215.21
436.501	331.94
436.708	299.17
436.915	299.17
437.122	325.8
437.329	168.1
437.537	342.18
437.743	295.08
437.95	448.68
438.157	333.99
438.364	356.52
438.571	321.7
438.778	358.57
438.985	424.1
439.192	463.01
439.399	247.97
439.606	413.86
439.813	546.98
440.02	477.35
440.227	583.84
440.433	522.4
440.64	454.82
440.847	460.96
441.054	497.83
441.261	608.42
441.467	501.92
441.674	520.35
441.881	696.48
442.088	575.65
442.294	604.32
442.501	604.32
442.708	635.04
442.914	710.82
443.121	739.49
443.328	807.07
443.534	800.93
443.741	792.73
443.948	739.49
444.154	819.36
444.361	882.85
444.568	944.28
444.774	876.7
444.981	921.76
445.187	956.57
445.394	1018.01
445.6	946.33
445.807	1116.31
446.013	1065.11
446.22	1128.6
446.426	1249.43
446.633	1364.12
446.839	1523.86
447.046	1345.69
447.252	1380.5
447.459	1417.37
447.665	1435.8
447.871	1482.9
448.078	1656.98
448.284	1667.22
448.491	1718.42
448.697	1874.06
448.903	1902.73
449.11	2009.23
449.316	1869.97
449.522	2154.63
449.728	2203.79
449.935	2275.46
450.141	2234.5
450.347	2508.93
450.553	2431.11
450.76	2431.11
450.966	2580.61
451.172	2746.5
451.378	2637.95
451.584	2848.9
451.791	3039.36
451.997	3172.47
452.203	3299.45
452.409	3352.7
452.615	3494.01
452.821	3289.21
453.027	3379.32
453.233	3979.37
453.44	3577.97
453.646	3999.85
453.852	4147.31
454.058	4309.1
454.264	4470.89
454.47	4763.75
454.676	4626.53
454.882	5240.92
455.088	4968.54
455.294	5146.72
455.5	5519.45
455.705	5730.39
455.911	5810.26
456.117	5965.9
456.323	6103.12
456.529	6199.37
456.735	6930.5
456.941	6840.39
457.147	7096.38
457.352	7434.3
457.558	7725.11
457.764	8196.14
457.97	8372.27
458.176	8628.26
458.381	9064.48
458.587	9005.09
458.793	9474.07
458.999	9621.53
459.204	11065.35
459.41	11227.14
459.616	11141.12
459.821	11692.02
460.027	12066.8
460.233	12756.97
460.438	12857.32
460.644	13500.38
460.85	13486.04
461.055	14049.24
461.261	14835.66
461.466	14530.51
461.672	14804.94
461.878	16644.01
462.083	16586.67
462.289	16564.14
462.494	17614.75
462.7	17624.99
462.905	17921.95
463.111	19394.43
463.316	19984.25
463.522	20625.26
463.727	21223.27
463.932	21944.16
464.138	22634.32
464.343	23639.87
464.549	23973.69
464.754	25509.67
464.959	26111.77
465.165	26480.41
465.37	26371.86
465.575	26566.42
465.781	28235.52
465.986	28692.21
466.191	28833.52
466.397	28854
466.602	28118.78
466.807	29843.17
467.012	30301.92
467.218	30807.76
467.423	31258.32
467.628	31913.67
467.833	33457.84
468.038	32902.84
468.244	32362.17
468.449	34031.27
468.654	33259.18
468.859	33406.64
469.064	33742.5
469.269	32769.72
