Data from USB4F104151__52__09-28-17-903.txt Node

Date: Wed Feb 26 09:28:17 EST 2025
User: louis
Spectrometer: USB4F10415
Trigger mode: 4
Integration Time (sec): 1.000000E-1
Scans to average: 1
Electric dark correction enabled: true
Nonlinearity correction enabled: false
Boxcar width: 0
XAxis mode: Wavelengths
Number of Pixels in Spectrum: 3648
>>>>>Begin Spectral Data<<<<<
178.204	-353.27
178.424	-353.27
178.644	-353.27
178.864	-300.03
179.084	-369.66
179.304	-39.94
179.524	-74.75
179.744	-39.94
179.964	31.74
180.184	19.46
180.404	44.03
180.624	-7.17
180.844	58.37
181.064	-35.84
181.283	56.32
181.503	-25.6
181.723	13.31
181.943	-119.81
182.163	152.57
182.383	-23.55
182.602	56.32
182.822	121.85
183.042	15.36
183.262	-11.26
183.482	-58.37
183.701	27.65
183.921	11.26
184.141	27.65
184.361	91.13
184.58	121.85
184.8	46.08
185.02	-58.37
185.239	93.18
185.459	74.75
185.679	89.09
185.898	-66.56
186.118	-25.6
186.338	13.31
186.557	82.94
186.777	-33.79
186.997	33.79
187.216	21.5
187.436	142.33
187.655	48.13
187.875	107.52
188.095	72.7
188.314	95.23
188.534	91.13
188.753	-56.32
188.973	109.57
189.192	105.47
189.412	39.94
189.631	15.36
189.851	-3.07
190.07	109.57
190.29	-74.75
190.509	-37.89
190.729	-25.6
190.948	148.48
191.168	318.46
191.387	66.56
191.607	-44.03
191.826	87.04
192.045	78.85
192.265	9.22
192.484	60.42
192.704	46.08
192.923	-68.61
193.142	220.16
193.362	72.7
193.581	37.89
193.8	95.23
194.02	138.24
194.239	80.89
194.458	101.37
194.678	5.12
194.897	15.36
195.116	93.18
195.335	23.55
195.555	56.32
195.774	13.31
195.993	128
196.212	119.81
196.432	52.22
196.651	-37.89
196.87	89.09
197.089	179.2
197.308	78.85
197.528	80.89
197.747	-21.5
197.966	-5.12
198.185	187.39
198.404	-56.32
198.623	72.7
198.842	105.47
199.062	101.37
199.281	62.46
199.5	50.18
199.719	68.61
199.938	7.17
200.157	111.61
200.376	117.76
200.595	70.65
200.814	-11.26
201.033	21.5
201.252	156.67
201.471	72.7
201.69	128
201.909	39.94
202.128	31.74
202.347	-41.98
202.566	21.5
202.785	-23.55
203.004	11.26
203.223	257.02
203.442	76.8
203.661	56.32
203.879	58.37
204.098	189.44
204.317	-11.26
204.536	142.33
204.755	48.13
204.974	140.29
205.193	11.26
205.411	179.2
205.63	168.96
205.849	84.99
206.068	39.94
206.287	-15.36
206.505	181.25
206.724	-74.75
206.943	62.46
207.162	37.89
207.381	95.23
207.599	52.22
207.818	70.65
208.037	29.7
208.255	41.98
208.474	23.55
208.693	-5.12
208.911	5.12
209.13	72.7
209.349	39.94
209.567	-37.89
209.786	107.52
210.005	31.74
210.223	93.18
210.442	-48.13
210.661	41.98
210.879	31.74
211.098	31.74
211.316	31.74
211.535	-46.08
211.753	44.03
211.972	-1.02
212.191	-17.41
212.409	-72.7
212.628	150.53
212.846	9.22
213.065	31.74
213.283	74.75
213.502	-1.02
213.72	9.22
213.938	31.74
214.157	52.22
214.375	113.66
214.594	13.31
214.812	60.42
215.031	-5.12
215.249	54.27
215.467	50.18
215.686	-3.07
215.904	93.18
216.122	3.07
216.341	76.8
216.559	80.89
216.778	121.85
216.996	76.8
217.214	7.17
217.432	-29.7
217.651	5.12
217.869	17.41
218.087	52.22
218.306	1.02
218.524	44.03
218.742	-39.94
218.96	87.04
219.179	15.36
219.397	39.94
219.615	187.39
219.833	68.61
220.051	-19.46
220.27	105.47
220.488	99.33
220.706	123.9
220.924	56.32
221.142	19.46
221.36	78.85
221.578	39.94
221.796	39.94
222.015	84.99
222.233	52.22
222.451	105.47
222.669	-33.79
222.887	148.48
223.105	11.26
223.323	-84.99
223.541	-37.89
223.759	15.36
223.977	64.51
224.195	128
224.413	136.19
224.631	52.22
224.849	31.74
225.067	183.29
225.285	-25.6
225.503	-33.79
225.721	-84.99
225.939	33.79
226.157	52.22
226.375	248.83
226.592	-19.46
226.81	72.7
227.028	87.04
227.246	144.38
227.464	-1.02
227.682	11.26
227.9	152.57
228.117	60.42
228.335	-17.41
228.553	23.55
228.771	-1.02
228.989	48.13
229.206	113.66
229.424	56.32
229.642	58.37
229.86	-109.57
230.077	97.28
230.295	37.89
230.513	136.19
230.731	41.98
230.948	111.61
231.166	80.89
231.384	-3.07
231.601	60.42
231.819	128
232.037	-46.08
232.254	-78.85
232.472	13.31
232.689	-23.55
232.907	138.24
233.125	11.26
233.342	-23.55
233.56	66.56
233.777	23.55
233.995	23.55
234.213	97.28
234.43	-25.6
234.648	50.18
234.865	66.56
235.083	168.96
235.3	-52.22
235.518	95.23
235.735	105.47
235.953	1.02
236.17	7.17
236.388	50.18
236.605	46.08
236.822	74.75
237.04	52.22
237.257	-9.22
237.475	-19.46
237.692	50.18
237.909	60.42
238.127	-29.7
238.344	97.28
238.562	168.96
238.779	-17.41
238.996	-62.46
239.214	37.89
239.431	97.28
239.648	35.84
239.865	72.7
240.083	33.79
240.3	-33.79
240.517	23.55
240.735	84.99
240.952	138.24
241.169	39.94
241.386	62.46
241.603	41.98
241.821	-37.89
242.038	78.85
242.255	68.61
242.472	-41.98
242.689	39.94
242.907	76.8
243.124	17.41
243.341	39.94
243.558	-82.94
243.775	-82.94
243.992	-76.8
244.209	123.9
244.426	175.1
244.643	66.56
244.86	93.18
245.078	138.24
245.295	33.79
245.512	58.37
245.729	21.5
245.946	105.47
246.163	19.46
246.38	68.61
246.597	11.26
246.814	41.98
247.031	21.5
247.248	-17.41
247.464	44.03
247.681	13.31
247.898	27.65
248.115	74.75
248.332	15.36
248.549	52.22
248.766	211.96
248.983	48.13
249.2	48.13
249.417	80.89
249.633	1.02
249.85	93.18
250.067	13.31
250.284	35.84
250.501	93.18
250.717	80.89
250.934	-35.84
251.151	21.5
251.368	48.13
251.585	56.32
251.801	48.13
252.018	-62.46
252.235	105.47
252.451	27.65
252.668	48.13
252.885	72.7
253.102	74.75
253.318	31.74
253.535	-21.5
253.752	-54.27
253.968	64.51
254.185	-37.89
254.401	89.09
254.618	31.74
254.835	46.08
255.051	183.29
255.268	68.61
255.484	48.13
255.701	80.89
255.917	154.62
256.134	7.17
256.351	82.94
256.567	-3.07
256.784	3.07
257	-58.37
257.217	72.7
257.433	134.14
257.65	1.02
257.866	128
258.082	-91.13
258.299	-62.46
258.515	52.22
258.732	52.22
258.948	-99.33
259.165	46.08
259.381	-15.36
259.597	70.65
259.814	31.74
260.03	7.17
260.246	19.46
260.463	80.89
260.679	103.42
260.895	-5.12
261.112	72.7
261.328	5.12
261.544	37.89
261.761	158.72
261.977	91.13
262.193	39.94
262.409	123.9
262.626	31.74
262.842	50.18
263.058	-66.56
263.274	11.26
263.49	52.22
263.707	146.43
263.923	68.61
264.139	-70.65
264.355	70.65
264.571	115.71
264.787	39.94
265.004	60.42
265.22	23.55
265.436	-19.46
265.652	-17.41
265.868	82.94
266.084	-13.31
266.3	-17.41
266.516	-39.94
266.732	13.31
266.948	136.19
267.164	64.51
267.38	99.33
267.596	39.94
267.812	128
268.028	80.89
268.244	-41.98
268.46	58.37
268.676	3.07
268.892	58.37
269.108	-9.22
269.324	-1.02
269.54	-15.36
269.756	27.65
269.972	-66.56
270.188	-15.36
270.403	-21.5
270.619	107.52
270.835	87.04
271.051	7.17
271.267	-82.94
271.483	78.85
271.698	23.55
271.914	31.74
272.13	41.98
272.346	-25.6
272.562	105.47
272.777	201.72
272.993	46.08
273.209	31.74
273.425	46.08
273.64	-35.84
273.856	48.13
274.072	-52.22
274.287	-33.79
274.503	50.18
274.719	115.71
274.934	-21.5
275.15	-80.89
275.366	80.89
275.581	21.5
275.797	37.89
276.012	31.74
276.228	-9.22
276.444	89.09
276.659	195.58
276.875	17.41
277.09	-93.18
277.306	-41.98
277.521	76.8
277.737	64.51
277.952	152.57
278.168	44.03
278.383	68.61
278.599	9.22
278.814	72.7
279.03	72.7
279.245	93.18
279.461	68.61
279.676	158.72
279.892	7.17
280.107	52.22
280.322	56.32
280.538	60.42
280.753	-3.07
280.969	82.94
281.184	-111.61
281.399	183.29
281.615	95.23
281.83	25.6
282.045	7.17
282.26	-3.07
282.476	84.99
282.691	105.47
282.906	44.03
283.122	3.07
283.337	27.65
283.552	39.94
283.767	-25.6
283.983	80.89
284.198	11.26
284.413	125.95
284.628	-9.22
284.843	58.37
285.058	91.13
285.274	-1.02
285.489	13.31
285.704	37.89
285.919	50.18
286.134	-41.98
286.349	23.55
286.564	-54.27
286.779	162.81
286.995	5.12
287.21	-13.31
287.425	89.09
287.64	-66.56
287.855	19.46
288.07	-23.55
288.285	74.75
288.5	185.34
288.715	97.28
288.93	60.42
289.145	-9.22
289.36	175.1
289.575	-29.7
289.79	76.8
290.004	-5.12
290.219	41.98
290.434	13.31
290.649	15.36
290.864	-17.41
291.079	52.22
291.294	35.84
291.509	39.94
291.724	111.61
291.938	-1.02
292.153	46.08
292.368	58.37
292.583	64.51
292.798	109.57
293.012	68.61
293.227	115.71
293.442	-35.84
293.657	54.27
293.871	101.37
294.086	87.04
294.301	191.49
294.516	21.5
294.73	-31.74
294.945	17.41
295.16	-41.98
295.374	138.24
295.589	87.04
295.804	19.46
296.018	105.47
296.233	93.18
296.447	48.13
296.662	-58.37
296.877	58.37
297.091	121.85
297.306	119.81
297.52	41.98
297.735	89.09
297.949	19.46
298.164	76.8
298.378	82.94
298.593	-19.46
298.807	44.03
299.022	44.03
299.236	60.42
299.451	-37.89
299.665	56.32
299.88	17.41
300.094	60.42
300.309	-1.02
300.523	52.22
300.737	23.55
300.952	-21.5
301.166	37.89
301.381	-3.07
301.595	7.17
301.809	62.46
302.024	-29.7
302.238	7.17
302.452	-1.02
302.667	21.5
302.881	111.61
303.095	37.89
303.309	25.6
303.524	23.55
303.738	-5.12
303.952	-3.07
304.166	80.89
304.381	-148.48
304.595	91.13
304.809	-5.12
305.023	89.09
305.237	25.6
305.452	-60.42
305.666	101.37
305.88	80.89
306.094	80.89
306.308	144.38
306.522	101.37
306.736	33.79
306.95	119.81
307.164	31.74
307.379	27.65
307.593	199.68
307.807	146.43
308.021	5.12
308.235	138.24
308.449	-82.94
308.663	15.36
308.877	152.57
309.091	70.65
309.305	113.66
309.519	-74.75
309.733	111.61
309.947	-72.7
310.161	97.28
310.374	162.81
310.588	117.76
310.802	-23.55
311.016	80.89
311.23	103.42
311.444	-68.61
311.658	21.5
311.872	105.47
312.085	179.2
312.299	82.94
312.513	130.05
312.727	37.89
312.941	84.99
313.154	109.57
313.368	5.12
313.582	89.09
313.796	56.32
314.009	52.22
314.223	72.7
314.437	101.37
314.651	128
314.864	11.26
315.078	-3.07
315.292	-1.02
315.505	29.7
315.719	-9.22
315.933	46.08
316.146	56.32
316.36	-68.61
316.573	70.65
316.787	35.84
317.001	48.13
317.214	-113.66
317.428	-25.6
317.641	-9.22
317.855	-84.99
318.068	31.74
318.282	76.8
318.495	187.39
318.709	107.52
318.922	-33.79
319.136	97.28
319.349	84.99
319.563	-41.98
319.776	46.08
319.99	-80.89
320.203	89.09
320.417	111.61
320.63	39.94
320.843	119.81
321.057	80.89
321.27	33.79
321.483	56.32
321.697	113.66
321.91	113.66
322.124	52.22
322.337	119.81
322.55	-25.6
322.763	-23.55
322.977	-56.32
323.19	-5.12
323.403	-46.08
323.617	66.56
323.83	138.24
324.043	66.56
324.256	-48.13
324.469	-68.61
324.683	89.09
324.896	-9.22
325.109	39.94
325.322	-41.98
325.535	72.7
325.748	105.47
325.962	21.5
326.175	35.84
326.388	46.08
326.601	99.33
326.814	82.94
327.027	82.94
327.24	113.66
327.453	-31.74
327.666	23.55
327.879	115.71
328.092	113.66
328.305	82.94
328.518	23.55
328.731	11.26
328.944	56.32
329.157	138.24
329.37	62.46
329.583	128
329.796	134.14
330.009	-97.28
330.222	72.7
330.435	123.9
330.648	27.65
330.861	46.08
331.073	-52.22
331.286	23.55
331.499	56.32
331.712	-62.46
331.925	29.7
332.138	80.89
332.35	115.71
332.563	5.12
332.776	46.08
332.989	-46.08
333.202	56.32
333.414	29.7
333.627	48.13
333.84	27.65
334.053	27.65
334.265	-11.26
334.478	-41.98
334.691	50.18
334.903	35.84
335.116	-31.74
335.329	21.5
335.541	80.89
335.754	136.19
335.966	68.61
336.179	54.27
336.392	-19.46
336.604	39.94
336.817	11.26
337.029	39.94
337.242	27.65
337.454	105.47
337.667	39.94
337.88	103.42
338.092	99.33
338.305	58.37
338.517	23.55
338.729	119.81
338.942	138.24
339.154	-44.03
339.367	-29.7
339.579	109.57
339.792	17.41
340.004	60.42
340.217	60.42
340.429	70.65
340.641	37.89
340.854	-107.52
341.066	-68.61
341.278	46.08
341.491	173.05
341.703	7.17
341.915	-46.08
342.128	97.28
342.34	15.36
342.552	-25.6
342.764	35.84
342.977	5.12
343.189	60.42
343.401	80.89
343.613	-66.56
343.826	48.13
344.038	-27.65
344.25	121.85
344.462	-33.79
344.674	62.46
344.886	23.55
345.099	29.7
345.311	97.28
345.523	37.89
345.735	-54.27
345.947	64.51
346.159	146.43
346.371	89.09
346.583	-44.03
346.795	218.11
347.007	-11.26
347.219	33.79
347.431	29.7
347.643	80.89
347.855	19.46
348.067	115.71
348.279	-62.46
348.491	113.66
348.703	70.65
348.915	-23.55
349.127	-103.42
349.339	48.13
349.551	-33.79
349.763	115.71
349.975	31.74
350.187	82.94
350.399	50.18
350.61	39.94
350.822	44.03
351.034	60.42
351.246	7.17
351.458	70.65
351.669	56.32
351.881	162.81
352.093	21.5
352.305	150.53
352.517	84.99
352.728	125.95
352.94	15.36
353.152	80.89
353.363	-87.04
353.575	107.52
353.787	136.19
353.999	41.98
354.21	93.18
354.422	-7.17
354.633	-70.65
354.845	60.42
355.057	64.51
355.268	31.74
355.48	93.18
355.692	-119.81
355.903	-25.6
356.115	-82.94
356.326	-76.8
356.538	152.57
356.749	68.61
356.961	103.42
357.172	-21.5
357.384	-33.79
357.595	171.01
357.807	3.07
358.018	-5.12
358.23	31.74
358.441	125.95
358.653	31.74
358.864	13.31
359.075	-74.75
359.287	125.95
359.498	29.7
359.709	54.27
359.921	3.07
360.132	60.42
360.344	56.32
360.555	15.36
360.766	97.28
360.977	54.27
361.189	82.94
361.4	31.74
361.611	64.51
361.823	150.53
362.034	91.13
362.245	-58.37
362.456	1.02
362.667	37.89
362.879	-37.89
363.09	-74.75
363.301	50.18
363.512	9.22
363.723	-5.12
363.935	15.36
364.146	35.84
364.357	25.6
364.568	35.84
364.779	-37.89
364.99	39.94
365.201	-1.02
365.412	101.37
365.623	-15.36
365.834	31.74
366.045	56.32
366.256	48.13
366.467	78.85
366.678	21.5
366.889	52.22
367.1	-33.79
367.311	87.04
367.522	-41.98
367.733	60.42
367.944	84.99
368.155	64.51
368.366	97.28
368.577	121.85
368.788	130.05
368.999	-70.65
369.209	39.94
369.42	154.62
369.631	175.1
369.842	107.52
370.053	89.09
370.264	91.13
370.474	-3.07
370.685	72.7
370.896	48.13
371.107	132.09
371.317	56.32
371.528	48.13
371.739	146.43
371.95	95.23
372.16	99.33
372.371	-9.22
372.582	44.03
372.792	95.23
373.003	80.89
373.214	7.17
373.424	93.18
373.635	-17.41
373.846	70.65
374.056	-1.02
374.267	-7.17
374.477	56.32
374.688	-37.89
374.898	46.08
375.109	11.26
375.319	50.18
375.53	76.8
375.74	68.61
375.951	13.31
376.161	64.51
376.372	103.42
376.582	44.03
376.793	21.5
377.003	29.7
377.214	46.08
377.424	107.52
377.635	39.94
377.845	-70.65
378.055	121.85
378.266	-68.61
378.476	48.13
378.686	54.27
378.897	82.94
379.107	105.47
379.317	-17.41
379.528	105.47
379.738	134.14
379.948	-35.84
380.158	140.29
380.369	54.27
380.579	91.13
380.789	41.98
380.999	39.94
381.21	103.42
381.42	128
381.63	60.42
381.84	91.13
382.05	62.46
382.261	199.68
382.471	103.42
382.681	1.02
382.891	78.85
383.101	140.29
383.311	-50.18
383.521	15.36
383.731	-1.02
383.941	68.61
384.151	97.28
384.361	-5.12
384.571	64.51
384.781	78.85
384.991	130.05
385.201	72.7
385.411	60.42
385.621	97.28
385.831	5.12
386.041	76.8
386.251	-11.26
386.461	48.13
386.671	15.36
386.881	39.94
387.091	68.61
387.301	80.89
387.511	72.7
387.72	72.7
387.93	7.17
388.14	5.12
388.35	9.22
388.56	60.42
388.769	25.6
388.979	74.75
389.189	-54.27
389.399	64.51
389.609	35.84
389.818	105.47
390.028	33.79
390.238	23.55
390.447	44.03
390.657	95.23
390.867	13.31
391.076	-52.22
391.286	101.37
391.496	76.8
391.705	21.5
391.915	107.52
392.125	103.42
392.334	48.13
392.544	125.95
392.753	115.71
392.963	-1.02
393.172	84.99
393.382	-25.6
393.591	125.95
393.801	19.46
394.01	105.47
394.22	35.84
394.429	41.98
394.639	-25.6
394.848	95.23
395.058	29.7
395.267	31.74
395.477	35.84
395.686	97.28
395.895	115.71
396.105	130.05
396.314	15.36
396.524	39.94
396.733	-21.5
396.942	80.89
397.152	19.46
397.361	117.76
397.57	23.55
397.78	58.37
397.989	19.46
398.198	214.01
398.407	72.7
398.617	-9.22
398.826	56.32
399.035	80.89
399.244	128
399.453	58.37
399.663	21.5
399.872	39.94
400.081	3.07
400.29	130.05
400.499	-84.99
400.708	95.23
400.917	78.85
401.127	82.94
401.336	-31.74
401.545	171.01
401.754	168.96
401.963	117.76
402.172	19.46
402.381	-60.42
402.59	84.99
402.799	60.42
403.008	78.85
403.217	70.65
403.426	130.05
403.635	-109.57
403.844	115.71
404.053	1.02
404.262	35.84
404.471	160.77
404.68	35.84
404.888	9.22
405.097	44.03
405.306	60.42
405.515	1.02
405.724	37.89
405.933	70.65
406.142	50.18
406.35	134.14
406.559	78.85
406.768	91.13
406.977	203.77
407.185	-29.7
407.394	87.04
407.603	-1.02
407.812	37.89
408.02	111.61
408.229	64.51
408.438	13.31
408.646	11.26
408.855	68.61
409.064	-5.12
409.272	-1.02
409.481	99.33
409.69	-60.42
409.898	-52.22
410.107	54.27
410.315	109.57
410.524	66.56
410.733	54.27
410.941	66.56
411.15	91.13
411.358	13.31
411.567	158.72
411.775	46.08
411.984	44.03
412.192	62.46
412.401	5.12
412.609	183.29
412.818	54.27
413.026	56.32
413.234	-21.5
413.443	7.17
413.651	-7.17
413.86	-9.22
414.068	111.61
414.276	162.81
414.485	60.42
414.693	199.68
414.901	175.1
415.11	41.98
415.318	80.89
415.526	37.89
415.734	56.32
415.943	64.51
416.151	95.23
416.359	64.51
416.567	48.13
416.776	142.33
416.984	103.42
417.192	191.49
417.4	-23.55
417.608	-13.31
417.817	-17.41
418.025	82.94
418.233	125.95
418.441	-9.22
418.649	-87.04
418.857	105.47
419.065	130.05
419.273	15.36
419.481	58.37
419.689	35.84
419.897	31.74
420.105	13.31
420.313	123.9
420.521	80.89
420.729	119.81
420.937	-1.02
421.145	-13.31
421.353	62.46
421.561	150.53
421.769	72.7
421.977	-25.6
422.185	128
422.393	66.56
422.601	82.94
422.809	31.74
423.017	11.26
423.224	54.27
423.432	103.42
423.64	44.03
423.848	101.37
424.056	-99.33
424.263	138.24
424.471	58.37
424.679	152.57
424.887	-19.46
425.094	238.59
425.302	84.99
425.51	175.1
425.718	84.99
425.925	31.74
426.133	7.17
426.341	232.44
426.548	105.47
426.756	95.23
426.964	95.23
427.171	-74.75
427.379	107.52
427.586	-17.41
427.794	154.62
428.001	93.18
428.209	27.65
428.417	113.66
428.624	64.51
428.832	17.41
429.039	115.71
429.247	54.27
429.454	134.14
429.662	142.33
429.869	64.51
430.076	105.47
430.284	48.13
430.491	187.39
430.699	144.38
430.906	144.38
431.114	138.24
431.321	107.52
431.528	87.04
431.736	138.24
431.943	234.49
432.15	123.9
432.358	119.81
432.565	152.57
432.772	-19.46
432.979	232.44
433.187	89.09
433.394	197.63
433.601	23.55
433.808	134.14
434.016	203.77
434.223	173.05
434.43	101.37
434.637	218.11
434.844	222.2
435.052	252.92
435.259	226.3
435.466	187.39
435.673	181.25
435.88	283.64
436.087	259.07
436.294	220.16
436.501	283.64
436.708	226.3
436.915	211.96
437.122	295.93
437.329	236.54
437.537	261.12
437.743	240.64
437.95	371.71
438.157	222.2
438.364	297.98
438.571	265.21
438.778	285.69
438.985	338.94
439.192	351.23
439.399	222.2
439.606	367.61
439.813	496.63
440.02	543.74
440.227	459.77
440.433	445.43
440.64	459.77
440.847	343.03
441.054	439.29
441.261	523.26
441.467	480.25
441.674	453.63
441.881	523.26
442.088	504.82
442.294	558.07
442.501	535.54
442.708	635.89
442.914	519.16
443.121	623.61
443.328	619.51
443.534	726
443.741	650.23
443.948	551.93
444.154	703.48
444.361	893.94
444.568	711.67
444.774	705.53
444.981	742.39
445.187	879.6
445.394	807.92
445.6	783.35
445.807	928.75
446.013	906.23
446.22	818.16
446.426	982
446.633	1002.48
446.839	1149.93
447.046	910.32
447.252	1225.71
447.459	1192.94
447.665	1088.5
447.871	1254.38
448.078	1369.07
448.284	1375.21
448.491	1371.12
448.697	1473.51
448.903	1481.71
449.11	1493.99
449.316	1534.95
449.522	1653.73
449.728	1698.79
449.935	1768.42
450.141	1809.38
450.347	1874.92
450.553	1901.54
450.76	1901.54
450.966	1928.16
451.172	2083.81
451.378	2163.68
451.584	2282.46
451.791	2560.98
451.997	2509.79
452.203	2458.59
452.409	2800.6
452.615	2771.93
452.821	2612.18
453.027	2681.82
453.233	3148.75
453.44	3005.39
453.646	2964.43
453.852	3191.76
454.058	3380.17
454.264	3396.56
454.47	3759.05
454.676	3642.31
454.882	4213.7
455.088	3943.36
455.294	3980.23
455.5	4289.47
455.705	4668.34
455.911	4422.59
456.117	4680.63
456.323	4850.61
456.529	5067.7
456.735	5374.89
456.941	5518.25
457.147	5903.27
457.352	5788.58
457.558	5936.04
457.764	6405.02
457.97	6493.08
458.176	6728.6
458.381	7023.51
458.587	7289.74
458.793	7601.04
458.999	7584.65
459.204	8518.53
459.41	8772.47
459.616	8876.92
459.821	9259.89
460.027	9692.01
460.233	10070.89
460.438	10236.77
460.644	10595.17
460.85	10687.32
461.055	11117.4
461.261	11823.95
461.466	11502.42
461.672	11658.06
461.878	12954.43
462.083	13060.92
462.289	13191.99
462.494	13726.51
462.7	13687.6
462.905	13994.79
463.111	15418.13
463.316	15903.5
463.522	16388.87
463.727	16476.93
463.932	17251.06
464.138	18053.87
464.343	18490.09
464.549	18631.4
464.754	20019.92
464.959	20406.98
465.165	21066.43
465.37	20693.7
465.575	20890.31
465.781	22045.36
465.986	22995.62
466.191	22581.93
466.397	22674.09
466.602	22010.54
466.807	23567
467.012	24060.56
467.218	24101.52
467.423	24259.21
467.628	25123.46
467.833	26069.62
468.038	25938.55
468.244	25449.08
468.449	26772.07
468.654	26268.27
468.859	26204.78
469.064	26176.11
469.269	25537.15
469.474	25670.26
469.679	26638.95
