Data from USB4F104151__59__09-28-52-599.txt Node

Date: Wed Feb 26 09:28:52 EST 2025
User: louis
Spectrometer: USB4F10415
Trigger mode: 4
Integration Time (sec): 1.000000E-1
Scans to average: 1
Electric dark correction enabled: true
Nonlinearity correction enabled: false
Boxcar width: 0
XAxis mode: Wavelengths
Number of Pixels in Spectrum: 3648
>>>>>Begin Spectral Data<<<<<
178.204	-336.21
178.424	-336.21
178.644	-336.21
178.864	-397.65
179.084	-340.3
179.304	-20.82
179.524	40.62
179.744	-78.16
179.964	81.58
180.184	-35.16
180.404	42.67
180.624	30.38
180.844	-43.35
181.064	-26.96
181.283	-18.77
181.503	-12.63
181.723	40.62
181.943	-110.93
182.163	163.5
182.383	-33.11
182.602	-20.82
182.822	126.63
183.042	65.19
183.262	-63.83
183.482	3.75
183.701	3.75
183.921	44.71
184.141	-10.58
184.361	106.15
184.58	1.71
184.8	40.62
185.02	48.81
185.239	110.25
185.459	71.34
185.679	136.87
185.898	-69.97
186.118	134.82
186.338	69.29
186.557	81.58
186.777	-45.4
186.997	52.91
187.216	1.71
187.436	194.22
187.655	-22.87
187.875	-4.44
188.095	-16.73
188.314	114.34
188.534	79.53
188.753	-22.87
188.973	132.78
189.192	210.6
189.412	69.29
189.631	-0.34
189.851	-12.63
190.07	124.58
190.29	-0.34
190.509	3.75
190.729	-20.82
190.948	108.2
191.168	177.83
191.387	71.34
191.607	28.33
191.826	61.1
192.045	7.85
192.265	-41.3
192.484	44.71
192.704	36.52
192.923	-110.93
193.142	208.55
193.362	28.33
193.581	186.02
193.8	-0.34
194.02	73.39
194.239	42.67
194.458	73.39
194.678	-22.87
194.897	61.1
195.116	-20.82
195.335	-4.44
195.555	20.14
195.774	3.75
195.993	87.72
196.212	9.9
196.432	-57.68
196.651	-55.64
196.87	-12.63
197.089	171.69
197.308	3.75
197.528	-8.53
197.747	-12.63
197.966	71.34
198.185	85.67
198.404	-80.21
198.623	97.96
198.842	130.73
199.062	65.19
199.281	67.24
199.5	36.52
199.719	134.82
199.938	122.54
200.157	48.81
200.376	85.67
200.595	79.53
200.814	65.19
201.033	-8.53
201.252	149.16
201.471	-12.63
201.69	57
201.909	42.67
202.128	89.77
202.347	100.01
202.566	44.71
202.785	-20.82
203.004	-37.2
203.223	190.12
203.442	18.09
203.661	-88.4
203.879	1.71
204.098	65.19
204.317	40.62
204.536	89.77
204.755	181.93
204.974	143.02
205.193	48.81
205.411	116.39
205.63	95.91
205.849	79.53
206.068	-33.11
206.287	-53.59
206.505	91.82
206.724	-2.39
206.943	7.85
207.162	-39.25
207.381	85.67
207.599	-33.11
207.818	-45.4
208.037	-24.92
208.255	9.9
208.474	85.67
208.693	69.29
208.911	-29.01
209.13	65.19
209.349	71.34
209.567	42.67
209.786	18.09
210.005	161.45
210.223	-0.34
210.442	-53.59
210.661	50.86
210.879	48.81
211.098	30.38
211.316	-24.92
211.535	77.48
211.753	-20.82
211.972	32.43
212.191	-31.06
212.409	-57.68
212.628	18.09
212.846	7.85
213.065	16.04
213.283	134.82
213.502	46.76
213.72	110.25
213.938	46.76
214.157	-16.73
214.375	130.73
214.594	22.19
214.812	30.38
215.031	-16.73
215.249	-92.5
215.467	77.48
215.686	61.1
215.904	69.29
216.122	-29.01
216.341	102.06
216.559	24.23
216.778	77.48
216.996	118.44
217.214	44.71
217.432	-6.49
217.651	-131.41
217.869	16.04
218.087	85.67
218.306	36.52
218.524	159.4
218.742	13.99
218.96	22.19
219.179	38.57
219.397	20.14
219.615	165.54
219.833	63.15
220.051	-53.59
220.27	69.29
220.488	77.48
220.706	95.91
220.924	9.9
221.142	69.29
221.36	20.14
221.578	67.24
221.796	7.85
222.015	69.29
222.233	77.48
222.451	89.77
222.669	-86.36
222.887	93.87
223.105	18.09
223.323	-63.83
223.541	-39.25
223.759	85.67
223.977	69.29
224.195	167.59
224.413	108.2
224.631	69.29
224.849	48.81
225.067	218.79
225.285	-18.77
225.503	34.47
225.721	-141.65
225.939	-55.64
226.157	57
226.375	194.22
226.592	-86.36
226.81	-6.49
227.028	46.76
227.246	155.3
227.464	28.33
227.682	171.69
227.9	95.91
228.117	54.95
228.335	77.48
228.553	50.86
228.771	59.05
228.989	65.19
229.206	61.1
229.424	32.43
229.642	-31.06
229.86	-14.68
230.077	87.72
230.295	-4.44
230.513	91.82
230.731	44.71
230.948	48.81
231.166	91.82
231.384	22.19
231.601	-84.31
231.819	145.06
232.037	-45.4
232.254	-106.84
232.472	-0.34
232.689	40.62
232.907	67.24
233.125	-6.49
233.342	-51.54
233.56	16.04
233.777	-24.92
233.995	20.14
234.213	79.53
234.43	155.3
234.648	16.04
234.865	38.57
235.083	54.95
235.3	32.43
235.518	151.21
235.735	85.67
235.953	89.77
236.17	54.95
236.388	-22.87
236.605	36.52
236.822	95.91
237.04	81.58
237.257	16.04
237.475	-53.59
237.692	71.34
237.909	71.34
238.127	48.81
238.344	26.28
238.562	20.14
238.779	-20.82
238.996	-61.78
239.214	83.63
239.431	124.58
239.648	-18.77
239.865	147.11
240.083	83.63
240.3	-8.53
240.517	-72.02
240.735	-37.2
240.952	3.75
241.169	61.1
241.386	71.34
241.603	5.8
241.821	-6.49
242.038	155.3
242.255	54.95
242.472	-104.79
242.689	16.04
242.907	100.01
243.124	-20.82
243.341	22.19
243.558	-20.82
243.775	-102.74
243.992	-55.64
244.209	42.67
244.426	194.22
244.643	40.62
244.86	24.23
245.078	95.91
245.295	36.52
245.512	-2.39
245.729	61.1
245.946	52.91
246.163	-8.53
246.38	-37.2
246.597	61.1
246.814	65.19
247.031	-43.35
247.248	-26.96
247.464	32.43
247.681	1.71
247.898	130.73
248.115	50.86
248.332	22.19
248.549	179.88
248.766	151.21
248.983	93.87
249.2	73.39
249.417	95.91
249.633	-47.44
249.85	57
250.067	32.43
250.284	73.39
250.501	34.47
250.717	102.06
250.934	13.99
251.151	46.76
251.368	44.71
251.585	143.02
251.801	102.06
252.018	-39.25
252.235	83.63
252.451	18.09
252.668	-49.49
252.885	122.54
253.102	75.43
253.318	26.28
253.535	89.77
253.752	32.43
253.968	38.57
254.185	-74.07
254.401	-29.01
254.618	24.23
254.835	20.14
255.051	155.3
255.268	65.19
255.484	32.43
255.701	3.75
255.917	118.44
256.134	-45.4
256.351	-24.92
256.567	16.04
256.784	26.28
257	5.8
257.217	93.87
257.433	59.05
257.65	93.87
257.866	61.1
258.082	-0.34
258.299	24.23
258.515	20.14
258.732	-8.53
258.948	16.04
259.165	44.71
259.381	18.09
259.597	89.77
259.814	-26.96
260.03	-0.34
260.246	44.71
260.463	77.48
260.679	124.58
260.895	26.28
261.112	59.05
261.328	24.23
261.544	-18.77
261.761	149.16
261.977	-72.02
262.193	13.99
262.409	28.33
262.626	91.82
262.842	22.19
263.058	-33.11
263.274	16.04
263.49	48.81
263.707	110.25
263.923	124.58
264.139	-47.44
264.355	48.81
264.571	134.82
264.787	3.75
265.004	28.33
265.22	40.62
265.436	-12.63
265.652	-16.73
265.868	7.85
266.084	-10.58
266.3	140.97
266.516	-6.49
266.732	38.57
266.948	71.34
267.164	1.71
267.38	32.43
267.596	93.87
267.812	163.5
268.028	18.09
268.244	-4.44
268.46	18.09
268.676	36.52
268.892	11.95
269.108	-37.2
269.324	65.19
269.54	-12.63
269.756	124.58
269.972	-78.16
270.188	-20.82
270.403	-63.83
270.619	-8.53
270.835	69.29
271.051	-0.34
271.267	-26.96
271.483	34.47
271.698	57
271.914	89.77
272.13	-29.01
272.346	75.43
272.562	-12.63
272.777	81.58
272.993	-12.63
273.209	22.19
273.425	40.62
273.64	5.8
273.856	145.06
274.072	32.43
274.287	-45.4
274.503	71.34
274.719	20.14
274.934	57
275.15	32.43
275.366	54.95
275.581	20.14
275.797	85.67
276.012	34.47
276.228	26.28
276.444	20.14
276.659	102.06
276.875	-55.64
277.09	32.43
277.306	32.43
277.521	-12.63
277.737	18.09
277.952	48.81
278.168	-26.96
278.383	46.76
278.599	-4.44
278.814	93.87
279.03	77.48
279.245	104.11
279.461	-12.63
279.676	85.67
279.892	-55.64
280.107	-37.2
280.322	-22.87
280.538	42.67
280.753	-12.63
280.969	61.1
281.184	-37.2
281.399	95.91
281.615	52.91
281.83	46.76
282.045	-117.08
282.26	36.52
282.476	122.54
282.691	54.95
282.906	54.95
283.122	-22.87
283.337	-33.11
283.552	77.48
283.767	-61.78
283.983	175.78
284.198	-41.3
284.413	42.67
284.628	11.95
284.843	13.99
285.058	79.53
285.274	69.29
285.489	-37.2
285.704	-2.39
285.919	-37.2
286.134	-4.44
286.349	34.47
286.564	-4.44
286.779	140.97
286.995	11.95
287.21	-88.4
287.425	28.33
287.64	28.33
287.855	73.39
288.07	-16.73
288.285	202.41
288.5	190.12
288.715	73.39
288.93	26.28
289.145	32.43
289.36	-4.44
289.575	-90.45
289.79	93.87
290.004	5.8
290.219	44.71
290.434	3.75
290.649	16.04
290.864	-72.02
291.079	22.19
291.294	59.05
291.509	65.19
291.724	7.85
291.938	-29.01
292.153	-31.06
292.368	-33.11
292.583	16.04
292.798	122.54
293.012	26.28
293.227	65.19
293.442	44.71
293.657	-16.73
293.871	116.39
294.086	57
294.301	116.39
294.516	112.3
294.73	79.53
294.945	24.23
295.16	-2.39
295.374	79.53
295.589	85.67
295.804	-4.44
296.018	16.04
296.233	153.26
296.447	22.19
296.662	-39.25
296.877	100.01
297.091	69.29
297.306	32.43
297.52	13.99
297.735	59.05
297.949	44.71
298.164	46.76
298.378	5.8
298.593	-22.87
298.807	-43.35
299.022	59.05
299.236	173.74
299.451	-69.97
299.665	3.75
299.88	-4.44
300.094	26.28
300.309	5.8
300.523	46.76
300.737	-14.68
300.952	26.28
301.166	100.01
301.381	-33.11
301.595	-29.01
301.809	3.75
302.024	13.99
302.238	-14.68
302.452	71.34
302.667	1.71
302.881	79.53
303.095	48.81
303.309	50.86
303.524	50.86
303.738	34.47
303.952	11.95
304.166	16.04
304.381	-94.55
304.595	91.82
304.809	11.95
305.023	118.44
305.237	-18.77
305.452	46.76
305.666	-37.2
305.88	73.39
306.094	81.58
306.308	59.05
306.522	40.62
306.736	73.39
306.95	46.76
307.164	-92.5
307.379	3.75
307.593	126.63
307.807	100.01
308.021	108.2
308.235	85.67
308.449	-129.36
308.663	75.43
308.877	157.35
309.091	44.71
309.305	130.73
309.519	-168.27
309.733	85.67
309.947	-61.78
310.161	102.06
310.374	40.62
310.588	42.67
310.802	-29.01
311.016	-41.3
311.23	102.06
311.444	-45.4
311.658	44.71
311.872	140.97
312.085	13.99
312.299	116.39
312.513	83.63
312.727	48.81
312.941	-18.77
313.154	63.15
313.368	18.09
313.582	57
313.796	-16.73
314.009	-8.53
314.223	102.06
314.437	95.91
314.651	130.73
314.864	-37.2
315.078	-37.2
315.292	-39.25
315.505	-24.92
315.719	-0.34
315.933	57
316.146	-24.92
316.36	20.14
316.573	124.58
316.787	-45.4
317.001	93.87
317.214	7.85
317.428	11.95
317.641	-80.21
317.855	-8.53
318.068	61.1
318.282	85.67
318.495	83.63
318.709	42.67
318.922	-45.4
319.136	159.4
319.349	130.73
319.563	-20.82
319.776	18.09
319.99	-84.31
320.203	57
320.417	-14.68
320.63	44.71
320.843	171.69
321.057	36.52
321.27	-18.77
321.483	-16.73
321.697	36.52
321.91	46.76
322.124	40.62
322.337	20.14
322.55	-18.77
322.763	118.44
322.977	26.28
323.19	1.71
323.403	71.34
323.617	52.91
323.83	28.33
324.043	75.43
324.256	18.09
324.469	-78.16
324.683	108.2
324.896	-59.73
325.109	-6.49
325.322	-29.01
325.535	102.06
325.748	77.48
325.962	112.3
326.175	-12.63
326.388	-6.49
326.601	87.72
326.814	-4.44
327.027	79.53
327.24	143.02
327.453	-14.68
327.666	57
327.879	118.44
328.092	26.28
328.305	57
328.518	-162.13
328.731	-24.92
328.944	11.95
329.157	28.33
329.37	-35.16
329.583	153.26
329.796	77.48
330.009	-24.92
330.222	61.1
330.435	83.63
330.648	-29.01
330.861	13.99
331.073	65.19
331.286	69.29
331.499	38.57
331.712	28.33
331.925	40.62
332.138	44.71
332.35	59.05
332.563	-45.4
332.776	106.15
332.989	22.19
333.202	50.86
333.414	65.19
333.627	48.81
333.84	-43.35
334.053	97.96
334.265	9.9
334.478	104.11
334.691	-6.49
334.903	9.9
335.116	36.52
335.329	-10.58
335.541	61.1
335.754	97.96
335.966	-22.87
336.179	22.19
336.392	-0.34
336.604	-41.3
336.817	77.48
337.029	-12.63
337.242	9.9
337.454	-29.01
337.667	40.62
337.88	124.58
338.092	11.95
338.305	9.9
338.517	-0.34
338.729	100.01
338.942	81.58
339.154	-80.21
339.367	-59.73
339.579	81.58
339.792	13.99
340.004	100.01
340.217	9.9
340.429	-22.87
340.641	-20.82
340.854	-78.16
341.066	-4.44
341.278	110.25
341.491	161.45
341.703	-8.53
341.915	-29.01
342.128	79.53
342.34	153.26
342.552	-37.2
342.764	61.1
342.977	-2.39
343.189	77.48
343.401	26.28
343.613	-65.88
343.826	16.04
344.038	9.9
344.25	20.14
344.462	11.95
344.674	69.29
344.886	11.95
345.099	32.43
345.311	11.95
345.523	-90.45
345.735	-88.4
345.947	11.95
346.159	24.23
346.371	34.47
346.583	-18.77
346.795	200.36
347.007	71.34
347.219	5.8
347.431	40.62
347.643	63.15
347.855	-8.53
348.067	192.17
348.279	-59.73
348.491	36.52
348.703	48.81
348.915	9.9
349.127	-4.44
349.339	30.38
349.551	-4.44
349.763	34.47
349.975	16.04
350.187	93.87
350.399	75.43
350.61	30.38
350.822	-22.87
351.034	81.58
351.246	42.67
351.458	-6.49
351.669	100.01
351.881	-45.4
352.093	110.25
352.305	77.48
352.517	61.1
352.728	59.05
352.94	-31.06
353.152	48.81
353.363	36.52
353.575	57
353.787	173.74
353.999	20.14
354.21	50.86
354.422	-12.63
354.633	38.57
354.845	61.1
355.057	9.9
355.268	93.87
355.48	57
355.692	-80.21
355.903	-33.11
356.115	-80.21
356.326	-88.4
356.538	112.3
356.749	73.39
356.961	118.44
357.172	20.14
357.384	11.95
357.595	155.3
357.807	-18.77
358.018	16.04
358.23	16.04
358.441	118.44
358.653	28.33
358.864	20.14
359.075	20.14
359.287	85.67
359.498	85.67
359.709	100.01
359.921	11.95
360.132	52.91
360.344	73.39
360.555	-16.73
360.766	20.14
360.977	-43.35
361.189	93.87
361.4	89.77
361.611	100.01
361.823	102.06
362.034	7.85
362.245	-74.07
362.456	52.91
362.667	36.52
362.879	32.43
363.09	57
363.301	26.28
363.512	-4.44
363.723	-53.59
363.935	-29.01
364.146	124.58
364.357	7.85
364.568	36.52
364.779	-53.59
364.99	57
365.201	46.76
365.412	54.95
365.623	-74.07
365.834	46.76
366.045	71.34
366.256	50.86
366.467	48.81
366.678	26.28
366.889	32.43
367.1	-49.49
367.311	69.29
367.522	1.71
367.733	28.33
367.944	97.96
368.155	24.23
368.366	61.1
368.577	112.3
368.788	85.67
368.999	-6.49
369.209	40.62
369.42	212.65
369.631	132.78
369.842	61.1
370.053	11.95
370.264	54.95
370.474	-72.02
370.685	34.47
370.896	18.09
371.107	149.16
371.317	16.04
371.528	87.72
371.739	126.63
371.95	48.81
372.16	24.23
372.371	-35.16
372.582	-22.87
372.792	61.1
373.003	61.1
373.214	-0.34
373.424	126.63
373.635	-49.49
373.846	36.52
374.056	1.71
374.267	83.63
374.477	63.15
374.688	36.52
374.898	67.24
375.109	67.24
375.319	48.81
375.53	106.15
375.74	112.3
375.951	-8.53
376.161	147.11
376.372	63.15
376.582	20.14
376.793	71.34
377.003	-74.07
377.214	-43.35
377.424	73.39
377.635	13.99
377.845	-47.44
378.055	126.63
378.266	-0.34
378.476	50.86
378.686	42.67
378.897	44.71
379.107	102.06
379.317	65.19
379.528	18.09
379.738	44.71
379.948	-41.3
380.158	116.39
380.369	73.39
380.579	18.09
380.789	100.01
380.999	-24.92
381.21	34.47
381.42	222.89
381.63	-53.59
381.84	112.3
382.05	69.29
382.261	9.9
382.471	89.77
382.681	46.76
382.891	124.58
383.101	114.34
383.311	-6.49
383.521	-12.63
383.731	36.52
383.941	71.34
384.151	54.95
384.361	24.23
384.571	77.48
384.781	1.71
384.991	116.39
385.201	140.97
385.411	26.28
385.621	-0.34
385.831	-22.87
386.041	59.05
386.251	42.67
386.461	87.72
386.671	13.99
386.881	30.38
387.091	52.91
387.301	77.48
387.511	85.67
387.72	69.29
387.93	61.1
388.14	-127.32
388.35	26.28
388.56	132.78
388.769	67.24
388.979	5.8
389.189	-29.01
389.399	7.85
389.609	69.29
389.818	102.06
390.028	-18.77
390.238	73.39
390.447	-0.34
390.657	73.39
390.867	-47.44
391.076	-53.59
391.286	48.81
391.496	-20.82
391.705	-22.87
391.915	61.1
392.125	79.53
392.334	-10.58
392.544	91.82
392.753	5.8
392.963	-4.44
393.172	110.25
393.382	5.8
393.591	163.5
393.801	13.99
394.01	126.63
394.22	11.95
394.429	85.67
394.639	75.43
394.848	7.85
395.058	61.1
395.267	34.47
395.477	61.1
395.686	57
395.895	161.45
396.105	130.73
396.314	73.39
396.524	57
396.733	9.9
396.942	143.02
397.152	75.43
397.361	61.1
397.57	11.95
397.78	9.9
397.989	57
398.198	122.54
398.407	20.14
398.617	16.04
398.826	48.81
399.035	59.05
399.244	114.34
399.453	57
399.663	24.23
399.872	-0.34
400.081	9.9
400.29	159.4
400.499	44.71
400.708	32.43
400.917	-29.01
401.127	24.23
401.336	3.75
401.545	104.11
401.754	91.82
401.963	46.76
402.172	3.75
402.381	-24.92
402.59	32.43
402.799	18.09
403.008	143.02
403.217	75.43
403.426	34.47
403.635	-12.63
403.844	3.75
404.053	16.04
404.262	44.71
404.471	114.34
404.68	97.96
404.888	85.67
405.097	46.76
405.306	42.67
405.515	132.78
405.724	26.28
405.933	112.3
406.142	44.71
406.35	93.87
406.559	26.28
406.768	44.71
406.977	181.93
407.185	57
407.394	34.47
407.603	-69.97
407.812	95.91
408.02	100.01
408.229	81.58
408.438	87.72
408.646	5.8
408.855	-16.73
409.064	-18.77
409.272	9.9
409.481	63.15
409.69	-39.25
409.898	-8.53
410.107	89.77
410.315	59.05
410.524	-33.11
410.733	1.71
410.941	20.14
411.15	126.63
411.358	108.2
411.567	102.06
411.775	3.75
411.984	22.19
412.192	34.47
412.401	26.28
412.609	50.86
412.818	134.82
413.026	18.09
413.234	-2.39
413.443	-16.73
413.651	-41.3
413.86	1.71
414.068	116.39
414.276	171.69
414.485	-29.01
414.693	167.59
414.901	149.16
415.11	40.62
415.318	18.09
415.526	52.91
415.734	54.95
415.943	11.95
416.151	167.59
416.359	-0.34
416.567	42.67
416.776	81.58
416.984	46.76
417.192	192.17
417.4	-35.16
417.608	-16.73
417.817	9.9
418.025	65.19
418.233	153.26
418.441	-59.73
418.649	36.52
418.857	149.16
419.065	183.98
419.273	28.33
419.481	59.05
419.689	1.71
419.897	22.19
420.105	-98.64
420.313	118.44
420.521	151.21
420.729	102.06
420.937	-16.73
421.145	61.1
421.353	11.95
421.561	173.74
421.769	52.91
421.977	22.19
422.185	93.87
422.393	34.47
422.601	89.77
422.809	-12.63
423.017	11.95
423.224	91.82
423.432	75.43
423.64	36.52
423.848	106.15
424.056	-33.11
424.263	128.68
424.471	-24.92
424.679	110.25
424.887	-33.11
425.094	171.69
425.302	83.63
425.51	-76.12
425.718	169.64
425.925	-41.3
426.133	18.09
426.341	183.98
426.548	24.23
426.756	83.63
426.964	20.14
427.171	-39.25
427.379	59.05
427.586	38.57
427.794	48.81
428.001	130.73
428.209	57
428.417	77.48
428.624	20.14
428.832	63.15
429.039	-10.58
429.247	13.99
429.454	75.43
429.662	200.36
429.869	106.15
430.076	102.06
430.284	138.92
430.491	186.02
430.699	136.87
430.906	165.54
431.114	110.25
431.321	100.01
431.528	97.96
431.736	77.48
431.943	126.63
432.15	138.92
432.358	200.36
432.565	226.98
432.772	-53.59
432.979	132.78
433.187	102.06
433.394	153.26
433.601	87.72
433.808	134.82
434.016	222.89
434.223	181.93
434.43	155.3
434.637	177.83
434.844	169.64
435.052	233.13
435.259	173.74
435.466	216.74
435.673	229.03
435.88	335.53
436.087	226.98
436.294	282.28
436.501	274.09
436.708	186.02
436.915	196.26
437.122	259.75
437.329	196.26
437.537	335.53
437.743	231.08
437.95	372.39
438.157	272.04
438.364	282.28
438.571	239.27
438.778	360.1
438.985	325.29
439.192	331.43
439.399	331.43
439.606	482.98
439.813	419.49
440.02	503.46
440.227	568.99
440.433	509.6
440.64	495.27
440.847	407.2
441.054	503.46
441.261	618.15
441.467	556.71
441.674	497.32
441.881	628.39
442.088	544.42
442.294	636.58
442.501	718.5
442.708	655.01
442.914	577.19
443.121	786.08
443.328	724.64
443.534	773.79
443.741	765.6
443.948	683.68
444.154	829.09
444.361	880.29
444.568	915.1
444.774	888.48
444.981	878.24
445.187	906.91
445.394	917.15
445.6	966.3
445.807	1130.14
446.013	1089.18
446.22	1207.96
446.426	1224.34
446.633	1269.4
446.839	1343.13
447.046	1142.43
447.252	1388.18
447.459	1322.65
447.665	1423
447.871	1537.68
448.078	1732.24
448.284	1576.59
448.491	1726.1
448.697	1752.72
448.903	1787.54
449.11	1894.03
449.316	1889.93
449.522	1982.09
449.728	2078.35
449.935	2252.42
450.141	2137.74
450.347	2244.23
450.553	2442.89
450.76	2277
450.966	2465.41
451.172	2584.2
451.378	2707.07
451.584	2901.63
451.791	2850.43
451.997	2985.6
452.203	2938.49
452.409	3208.83
452.615	3391.09
452.821	3245.69
453.027	3221.11
453.233	3761.78
453.44	3567.22
453.646	3874.42
453.852	3933.81
454.058	4130.41
454.264	4206.19
454.47	4628.07
454.676	4562.53
454.882	4849.25
455.088	4572.77
455.294	4871.78
455.5	5232.22
455.705	5631.57
455.911	5475.93
456.117	5779.03
456.323	5834.32
456.529	5811.79
456.735	6506.06
456.941	6567.49
457.147	6919.75
457.352	7124.54
457.558	7224.89
457.764	7798.32
457.97	7931.44
458.176	8148.53
458.381	8637.99
458.587	8859.17
458.793	9068.06
458.999	9385.5
459.204	10423.82
459.41	10626.57
459.616	10501.64
459.821	11283.97
460.027	11959.8
460.233	12406.25
460.438	12314.09
460.644	12959.2
460.85	13278.69
461.055	13411.81
461.261	14282.19
461.466	14028.24
461.672	14136.79
461.878	16008.63
462.083	15627.71
462.289	16010.68
462.494	16563.63
462.7	16854.44
462.905	17008.04
463.111	18412.95
463.316	19387.78
463.522	19649.92
463.727	20041.08
463.932	21267.81
464.138	21611.87
464.343	22598.99
464.549	22699.34
464.754	24544.56
464.959	24927.53
465.165	25226.54
465.37	25052.46
465.575	25232.68
465.781	26987.79
465.986	27929.86
466.191	27317.51
466.397	27553.03
466.602	26748.18
466.807	28441.85
467.012	29175.02
467.218	29289.71
467.423	29514.98
467.628	30319.84
467.833	31743.17
468.038	31235.28
468.244	30553.3
468.449	32095.42
468.654	31538.38
468.859	31433.93
469.064	31429.84
469.269	30657.75
469.474	31143.12
469.679	32099.52
469.885	31120.59
470.09	31562.95
