Data from USB4F104151__61__09-29-05-597.txt Node

Date: Wed Feb 26 09:29:05 EST 2025
User: louis
Spectrometer: USB4F10415
Trigger mode: 4
Integration Time (sec): 1.000000E-1
Scans to average: 1
Electric dark correction enabled: true
Nonlinearity correction enabled: false
Boxcar width: 0
XAxis mode: Wavelengths
Number of Pixels in Spectrum: 3648
>>>>>Begin Spectral Data<<<<<
178.204	-378.19
178.424	-378.19
178.644	-378.19
178.864	-324.94
179.084	-300.37
179.304	33.45
179.524	-75.09
179.744	-30.04
179.964	6.83
180.184	76.46
180.404	76.46
180.624	-40.28
180.844	-38.23
181.064	-44.37
181.283	4.78
181.503	6.83
181.723	23.21
181.943	-81.24
182.163	119.46
182.383	19.11
182.602	148.14
182.822	68.27
183.042	105.13
183.262	0.68
183.482	10.92
183.701	51.88
183.921	148.14
184.141	-1.37
184.361	125.61
184.58	35.5
184.8	74.41
185.02	8.87
185.239	119.46
185.459	92.84
185.679	68.27
185.898	-38.23
186.118	64.17
186.338	47.79
186.557	76.46
186.777	-36.18
186.997	10.92
187.216	27.31
187.436	109.22
187.655	53.93
187.875	94.89
188.095	10.92
188.314	139.94
188.534	68.27
188.753	-36.18
188.973	76.46
189.192	234.15
189.412	-44.37
189.631	10.92
189.851	105.13
190.07	223.91
190.29	-7.51
190.509	-23.89
190.729	-23.89
190.948	94.89
191.168	252.58
191.387	-9.56
191.607	47.79
191.826	51.88
192.045	90.79
192.265	72.36
192.484	166.57
192.704	31.4
192.923	84.65
193.142	141.99
193.362	27.31
193.581	119.46
193.8	74.41
194.02	27.31
194.239	19.11
194.458	94.89
194.678	-13.65
194.897	47.79
195.116	74.41
195.335	68.27
195.555	45.74
195.774	-73.04
195.993	107.18
196.212	35.5
196.432	25.26
196.651	-15.7
196.87	80.55
197.089	281.25
197.308	125.61
197.528	39.59
197.747	-3.41
197.966	43.69
198.185	127.66
198.404	74.41
198.623	111.27
198.842	168.62
199.062	117.42
199.281	82.6
199.5	98.99
199.719	43.69
199.938	55.98
200.157	121.51
200.376	121.51
200.595	121.51
200.814	64.17
201.033	-21.85
201.252	70.31
201.471	131.75
201.69	55.98
201.909	37.55
202.128	180.9
202.347	55.98
202.566	-13.65
202.785	2.73
203.004	15.02
203.223	225.96
203.442	74.41
203.661	-79.19
203.879	84.65
204.098	78.51
204.317	-21.85
204.536	137.9
204.755	39.59
204.974	144.04
205.193	2.73
205.411	137.9
205.63	127.66
205.849	31.4
206.068	23.21
206.287	-60.76
206.505	172.71
206.724	-3.41
206.943	-7.51
207.162	39.59
207.381	27.31
207.599	117.42
207.818	53.93
208.037	-103.76
208.255	82.6
208.474	53.93
208.693	10.92
208.911	62.12
209.13	96.94
209.349	19.11
209.567	74.41
209.786	117.42
210.005	117.42
210.223	109.22
210.442	-15.7
210.661	10.92
210.879	70.31
211.098	23.21
211.316	41.64
211.535	137.9
211.753	60.07
211.972	127.66
212.191	23.21
212.409	62.12
212.628	133.8
212.846	-81.24
213.065	41.64
213.283	156.33
213.502	70.31
213.72	23.21
213.938	72.36
214.157	58.03
214.375	109.22
214.594	37.55
214.812	60.07
215.031	55.98
215.249	-5.46
215.467	-5.46
215.686	29.35
215.904	51.88
216.122	0.68
216.341	137.9
216.559	127.66
216.778	47.79
216.996	141.99
217.214	55.98
217.432	43.69
217.651	-54.61
217.869	2.73
218.087	-30.04
218.306	-58.71
218.524	19.11
218.742	72.36
218.96	49.83
219.179	-15.7
219.397	-38.23
219.615	230.06
219.833	135.85
220.051	23.21
220.27	141.99
220.488	55.98
220.706	164.52
220.924	23.21
221.142	-19.8
221.36	-30.04
221.578	68.27
221.796	-15.7
222.015	55.98
222.233	92.84
222.451	189.1
222.669	-30.04
222.887	33.45
223.105	82.6
223.323	88.75
223.541	-11.61
223.759	103.08
223.977	113.32
224.195	131.75
224.413	51.88
224.631	25.26
224.849	162.47
225.067	203.43
225.285	8.87
225.503	80.55
225.721	-21.85
225.939	78.51
226.157	58.03
226.375	207.53
226.592	60.07
226.81	78.51
227.028	111.27
227.246	121.51
227.464	129.7
227.682	96.94
227.9	55.98
228.117	74.41
228.335	141.99
228.553	43.69
228.771	29.35
228.989	51.88
229.206	68.27
229.424	29.35
229.642	-19.8
229.86	17.07
230.077	101.03
230.295	96.94
230.513	166.57
230.731	129.7
230.948	164.52
231.166	182.95
231.384	0.68
231.601	-17.75
231.819	123.56
232.037	15.02
232.254	19.11
232.472	33.45
232.689	-3.41
232.907	133.8
233.125	-21.85
233.342	-36.18
233.56	-9.56
233.777	6.83
233.995	10.92
234.213	166.57
234.43	19.11
234.648	103.08
234.865	84.65
235.083	70.31
235.3	94.89
235.518	82.6
235.735	209.58
235.953	107.18
236.17	72.36
236.388	76.46
236.605	41.64
236.822	139.94
237.04	158.38
237.257	80.55
237.475	-23.89
237.692	53.93
237.909	94.89
238.127	43.69
238.344	88.75
238.562	19.11
238.779	-62.8
238.996	12.97
239.214	-3.41
239.431	176.81
239.648	10.92
239.865	123.56
240.083	88.75
240.3	17.07
240.517	21.16
240.735	72.36
240.952	84.65
241.169	51.88
241.386	33.45
241.603	4.78
241.821	-15.7
242.038	125.61
242.255	80.55
242.472	19.11
242.689	82.6
242.907	101.03
243.124	66.22
243.341	88.75
243.558	29.35
243.775	-5.46
243.992	-85.33
244.209	68.27
244.426	232.1
244.643	31.4
244.86	-30.04
245.078	92.84
245.295	101.03
245.512	23.21
245.729	-54.61
245.946	8.87
246.163	41.64
246.38	8.87
246.597	-17.75
246.814	25.26
247.031	125.61
247.248	10.92
247.464	60.07
247.681	133.8
247.898	70.31
248.115	66.22
248.332	86.7
248.549	96.94
248.766	148.14
248.983	98.99
249.2	62.12
249.417	68.27
249.633	70.31
249.85	76.46
250.067	15.02
250.284	-36.18
250.501	107.18
250.717	76.46
250.934	43.69
251.151	58.03
251.368	76.46
251.585	27.31
251.801	68.27
252.018	-40.28
252.235	72.36
252.451	60.07
252.668	43.69
252.885	84.65
253.102	39.59
253.318	27.31
253.535	8.87
253.752	62.12
253.968	39.59
254.185	-46.42
254.401	39.59
254.618	68.27
254.835	49.83
255.051	98.99
255.268	96.94
255.484	121.51
255.701	6.83
255.917	51.88
256.134	-36.18
256.351	19.11
256.567	-9.56
256.784	55.98
257	0.68
257.217	92.84
257.433	119.46
257.65	-25.94
257.866	223.91
258.082	-9.56
258.299	39.59
258.515	0.68
258.732	17.07
258.948	-32.08
259.165	-1.37
259.381	-81.24
259.597	29.35
259.814	-30.04
260.03	68.27
260.246	6.83
260.463	129.7
260.679	123.56
260.895	2.73
261.112	70.31
261.328	39.59
261.544	-36.18
261.761	162.47
261.977	55.98
262.193	-68.95
262.409	105.13
262.626	146.09
262.842	39.59
263.058	-46.42
263.274	78.51
263.49	141.99
263.707	55.98
263.923	195.24
264.139	19.11
264.355	39.59
264.571	96.94
264.787	125.61
265.004	62.12
265.22	23.21
265.436	-44.37
265.652	74.41
265.868	21.16
266.084	-50.52
266.3	80.55
266.516	-44.37
266.732	66.22
266.948	109.22
267.164	43.69
267.38	103.08
267.596	60.07
267.812	172.71
268.028	107.18
268.244	15.02
268.46	101.03
268.676	39.59
268.892	58.03
269.108	43.69
269.324	-42.32
269.54	23.21
269.756	119.46
269.972	-25.94
270.188	17.07
270.403	-13.65
270.619	21.16
270.835	101.03
271.051	23.21
271.267	-66.9
271.483	6.83
271.698	60.07
271.914	107.18
272.13	84.65
272.346	58.03
272.562	-21.85
272.777	195.24
272.993	19.11
273.209	-21.85
273.425	8.87
273.64	-38.23
273.856	125.61
274.072	15.02
274.287	-3.41
274.503	98.99
274.719	96.94
274.934	-5.46
275.15	-87.38
275.366	39.59
275.581	21.16
275.797	-1.37
276.012	107.18
276.228	78.51
276.444	109.22
276.659	103.08
276.875	39.59
277.09	0.68
277.306	4.78
277.521	62.12
277.737	115.37
277.952	154.28
278.168	41.64
278.383	35.5
278.599	0.68
278.814	105.13
279.03	68.27
279.245	168.62
279.461	39.59
279.676	47.79
279.892	2.73
280.107	-34.13
280.322	10.92
280.538	4.78
280.753	-13.65
280.969	27.31
281.184	27.31
281.399	144.04
281.615	17.07
281.83	101.03
282.045	-30.04
282.26	-11.61
282.476	2.73
282.691	68.27
282.906	-58.71
283.122	27.31
283.337	23.21
283.552	86.7
283.767	60.07
283.983	62.12
284.198	-15.7
284.413	74.41
284.628	-44.37
284.843	84.65
285.058	82.6
285.274	64.17
285.489	-56.66
285.704	158.38
285.919	-1.37
286.134	0.68
286.349	98.99
286.564	51.88
286.779	193.19
286.995	4.78
287.21	17.07
287.425	47.79
287.64	-3.41
287.855	21.16
288.07	-48.47
288.285	105.13
288.5	158.38
288.715	94.89
288.93	-19.8
289.145	-62.8
289.36	103.08
289.575	-32.08
289.79	125.61
290.004	-71
290.219	80.55
290.434	31.4
290.649	-9.56
290.864	19.11
291.079	60.07
291.294	27.31
291.509	60.07
291.724	15.02
291.938	121.51
292.153	133.8
292.368	60.07
292.583	27.31
292.798	84.65
293.012	158.38
293.227	39.59
293.442	-17.75
293.657	107.18
293.871	82.6
294.086	107.18
294.301	168.62
294.516	146.09
294.73	25.26
294.945	-21.85
295.16	88.75
295.374	92.84
295.589	58.03
295.804	17.07
296.018	41.64
296.233	141.99
296.447	49.83
296.662	-21.85
296.877	107.18
297.091	107.18
297.306	0.68
297.52	96.94
297.735	92.84
297.949	45.74
298.164	12.97
298.378	64.17
298.593	6.83
298.807	82.6
299.022	51.88
299.236	146.09
299.451	80.55
299.665	86.7
299.88	17.07
300.094	0.68
300.309	25.26
300.523	68.27
300.737	10.92
300.952	23.21
301.166	70.31
301.381	-30.04
301.595	-9.56
301.809	58.03
302.024	47.79
302.238	-11.61
302.452	101.03
302.667	51.88
302.881	117.42
303.095	101.03
303.309	-15.7
303.524	0.68
303.738	-30.04
303.952	-30.04
304.166	60.07
304.381	-107.86
304.595	84.65
304.809	10.92
305.023	6.83
305.237	33.45
305.452	58.03
305.666	88.75
305.88	70.31
306.094	17.07
306.308	33.45
306.522	55.98
306.736	66.22
306.95	180.9
307.164	78.51
307.379	78.51
307.593	152.23
307.807	21.16
308.021	144.04
308.235	-1.37
308.449	-15.7
308.663	31.4
308.877	133.8
309.091	137.9
309.305	-46.42
309.519	-3.41
309.733	90.79
309.947	-32.08
310.161	2.73
310.374	68.27
310.588	111.27
310.802	10.92
311.016	12.97
311.23	78.51
311.444	17.07
311.658	17.07
311.872	133.8
312.085	123.56
312.299	146.09
312.513	113.32
312.727	23.21
312.941	-5.46
313.154	35.5
313.368	66.22
313.582	27.31
313.796	47.79
314.009	80.55
314.223	72.36
314.437	35.5
314.651	98.99
314.864	35.5
315.078	68.27
315.292	-5.46
315.505	45.74
315.719	31.4
315.933	12.97
316.146	8.87
316.36	-34.13
316.573	139.94
316.787	62.12
317.001	43.69
317.214	10.92
317.428	31.4
317.641	-13.65
317.855	4.78
318.068	23.21
318.282	15.02
318.495	133.8
318.709	35.5
318.922	19.11
319.136	178.86
319.349	117.42
319.563	-52.56
319.776	55.98
319.99	-73.04
320.203	82.6
320.417	121.51
320.63	107.18
320.843	164.52
321.057	19.11
321.27	103.08
321.483	137.9
321.697	109.22
321.91	39.59
322.124	15.02
322.337	125.61
322.55	0.68
322.763	62.12
322.977	76.46
323.19	23.21
323.403	137.9
323.617	133.8
323.83	72.36
324.043	27.31
324.256	51.88
324.469	-54.61
324.683	129.7
324.896	0.68
325.109	23.21
325.322	8.87
325.535	96.94
325.748	137.9
325.962	51.88
326.175	80.55
326.388	72.36
326.601	150.18
326.814	27.31
327.027	117.42
327.24	127.66
327.453	-118.1
327.666	117.42
327.879	90.79
328.092	55.98
328.305	60.07
328.518	-9.56
328.731	-13.65
328.944	53.93
329.157	58.03
329.37	12.97
329.583	113.32
329.796	133.8
330.009	-93.52
330.222	12.97
330.435	96.94
330.648	53.93
330.861	64.17
331.073	23.21
331.286	129.7
331.499	31.4
331.712	-3.41
331.925	8.87
332.138	47.79
332.35	92.84
332.563	-71
332.776	103.08
332.989	-66.9
333.202	-62.8
333.414	41.64
333.627	-15.7
333.84	27.31
334.053	-13.65
334.265	55.98
334.478	29.35
334.691	33.45
334.903	72.36
335.116	-11.61
335.329	43.69
335.541	70.31
335.754	162.47
335.966	-36.18
336.179	98.99
336.392	80.55
336.604	51.88
336.817	146.09
337.029	129.7
337.242	43.69
337.454	51.88
337.667	27.31
337.88	152.23
338.092	33.45
338.305	98.99
338.517	6.83
338.729	64.17
338.942	199.34
339.154	-13.65
339.367	10.92
339.579	98.99
339.792	8.87
340.004	76.46
340.217	62.12
340.429	-36.18
340.641	8.87
340.854	23.21
341.066	21.16
341.278	131.75
341.491	203.43
341.703	10.92
341.915	-19.8
342.128	146.09
342.34	74.41
342.552	31.4
342.764	39.59
342.977	51.88
343.189	76.46
343.401	98.99
343.613	0.68
343.826	43.69
344.038	-36.18
344.25	27.31
344.462	4.78
344.674	60.07
344.886	60.07
345.099	6.83
345.311	113.32
345.523	19.11
345.735	-48.47
345.947	27.31
346.159	90.79
346.371	35.5
346.583	-13.65
346.795	129.7
347.007	-15.7
347.219	66.22
347.431	62.12
347.643	49.83
347.855	43.69
348.067	127.66
348.279	-50.52
348.491	-73.04
348.703	107.18
348.915	31.4
349.127	-11.61
349.339	33.45
349.551	33.45
349.763	113.32
349.975	84.65
350.187	121.51
350.399	90.79
350.61	133.8
350.822	12.97
351.034	150.18
351.246	17.07
351.458	82.6
351.669	-5.46
351.881	117.42
352.093	117.42
352.305	105.13
352.517	10.92
352.728	148.14
352.94	115.37
353.152	33.45
353.363	-116.05
353.575	96.94
353.787	135.85
353.999	113.32
354.21	113.32
354.422	-73.04
354.633	-32.08
354.845	64.17
355.057	10.92
355.268	101.03
355.48	78.51
355.692	27.31
355.903	17.07
356.115	-89.43
356.326	-58.71
356.538	187.05
356.749	105.13
356.961	43.69
357.172	80.55
357.384	-21.85
357.595	215.72
357.807	2.73
358.018	-25.94
358.23	60.07
358.441	166.57
358.653	92.84
358.864	27.31
359.075	-7.51
359.287	92.84
359.498	141.99
359.709	84.65
359.921	-5.46
360.132	23.21
360.344	78.51
360.555	-11.61
360.766	31.4
360.977	43.69
361.189	74.41
361.4	12.97
361.611	64.17
361.823	113.32
362.034	98.99
362.245	19.11
362.456	35.5
362.667	51.88
362.879	-25.94
363.09	25.26
363.301	90.79
363.512	15.02
363.723	55.98
363.935	0.68
364.146	113.32
364.357	51.88
364.568	82.6
364.779	15.02
364.99	53.93
365.201	41.64
365.412	135.85
365.623	-54.61
365.834	70.31
366.045	76.46
366.256	135.85
366.467	76.46
366.678	74.41
366.889	66.22
367.1	-23.89
367.311	123.56
367.522	-30.04
367.733	76.46
367.944	127.66
368.155	39.59
368.366	-23.89
368.577	170.66
368.788	111.27
368.999	-48.47
369.209	51.88
369.42	314.02
369.631	273.06
369.842	-7.51
370.053	76.46
370.264	98.99
370.474	-15.7
370.685	76.46
370.896	4.78
371.107	158.38
371.317	27.31
371.528	27.31
371.739	152.23
371.95	58.03
372.16	10.92
372.371	-50.52
372.582	33.45
372.792	27.31
373.003	92.84
373.214	76.46
373.424	94.89
373.635	-66.9
373.846	115.37
374.056	-17.75
374.267	72.36
374.477	27.31
374.688	68.27
374.898	80.55
375.109	-30.04
375.319	101.03
375.53	76.46
375.74	43.69
375.951	-79.19
376.161	35.5
376.372	68.27
376.582	17.07
376.793	-9.56
377.003	68.27
377.214	0.68
377.424	127.66
377.635	88.75
377.845	4.78
378.055	125.61
378.266	-66.9
378.476	51.88
378.686	182.95
378.897	92.84
379.107	137.9
379.317	137.9
379.528	25.26
379.738	-7.51
379.948	17.07
380.158	62.12
380.369	35.5
380.579	113.32
380.789	-7.51
380.999	76.46
381.21	125.61
381.42	205.48
381.63	-5.46
381.84	96.94
382.05	74.41
382.261	135.85
382.471	121.51
382.681	-25.94
382.891	53.93
383.101	64.17
383.311	-17.75
383.521	92.84
383.731	129.7
383.941	58.03
384.151	78.51
384.361	92.84
384.571	-19.8
384.781	27.31
384.991	160.42
385.201	137.9
385.411	96.94
385.621	86.7
385.831	76.46
386.041	88.75
386.251	90.79
386.461	72.36
386.671	45.74
386.881	19.11
387.091	88.75
387.301	139.94
387.511	88.75
387.72	47.79
387.93	70.31
388.14	-56.66
388.35	66.22
388.56	101.03
388.769	129.7
388.979	39.59
389.189	33.45
389.399	60.07
389.609	64.17
389.818	123.56
390.028	35.5
390.238	58.03
390.447	19.11
390.657	72.36
390.867	45.74
391.076	33.45
391.286	60.07
391.496	8.87
391.705	-27.99
391.915	162.47
392.125	84.65
392.334	-23.89
392.544	162.47
392.753	35.5
392.963	8.87
393.172	109.22
393.382	39.59
393.591	101.03
393.801	-9.56
394.01	125.61
394.22	84.65
394.429	51.88
394.639	19.11
394.848	101.03
395.058	137.9
395.267	-44.37
395.477	35.5
395.686	29.35
395.895	195.24
396.105	221.86
396.314	84.65
396.524	49.83
396.733	31.4
396.942	213.67
397.152	51.88
397.361	162.47
397.57	68.27
397.78	15.02
397.989	51.88
398.198	180.9
398.407	51.88
398.617	25.26
398.826	27.31
399.035	64.17
399.244	125.61
399.453	41.64
399.663	51.88
399.872	60.07
400.081	-42.32
400.29	152.23
400.499	-5.46
400.708	133.8
400.917	-1.37
401.127	45.74
401.336	21.16
401.545	170.66
401.754	78.51
401.963	103.08
402.172	-42.32
402.381	35.5
402.59	-54.61
402.799	12.97
403.008	117.42
403.217	98.99
403.426	39.59
403.635	-40.28
403.844	121.51
404.053	-38.23
404.262	58.03
404.471	195.24
404.68	105.13
404.888	31.4
405.097	-1.37
405.306	115.37
405.515	182.95
405.724	39.59
405.933	101.03
406.142	27.31
406.35	96.94
406.559	27.31
406.768	43.69
406.977	101.03
407.185	68.27
407.394	49.83
407.603	-15.7
407.812	86.7
408.02	80.55
408.229	101.03
408.438	68.27
408.646	25.26
408.855	51.88
409.064	-7.51
409.272	49.83
409.481	88.75
409.69	23.21
409.898	-64.85
410.107	68.27
410.315	141.99
410.524	29.35
410.733	51.88
410.941	105.13
411.15	66.22
411.358	92.84
411.567	207.53
411.775	35.5
411.984	-32.08
412.192	103.08
412.401	80.55
412.609	135.85
412.818	49.83
413.026	121.51
413.234	15.02
413.443	17.07
413.651	17.07
413.86	27.31
414.068	101.03
414.276	141.99
414.485	21.16
414.693	185
414.901	133.8
415.11	98.99
415.318	47.79
415.526	10.92
415.734	123.56
415.943	64.17
416.151	33.45
416.359	82.6
416.567	41.64
416.776	80.55
416.984	154.28
417.192	78.51
417.4	90.79
417.608	72.36
417.817	-15.7
418.025	133.8
418.233	168.62
418.441	43.69
418.649	17.07
418.857	84.65
419.065	121.51
419.273	27.31
419.481	12.97
419.689	41.64
419.897	-13.65
420.105	-83.28
420.313	107.18
420.521	135.85
420.729	146.09
420.937	76.46
421.145	33.45
421.353	55.98
421.561	150.18
421.769	25.26
421.977	0.68
422.185	141.99
422.393	37.55
422.601	121.51
422.809	90.79
423.017	49.83
423.224	74.41
423.432	119.46
423.64	51.88
423.848	195.24
424.056	17.07
424.263	121.51
424.471	47.79
424.679	123.56
424.887	-17.75
425.094	182.95
425.302	47.79
425.51	2.73
425.718	37.55
425.925	68.27
426.133	21.16
426.341	158.38
426.548	98.99
426.756	82.6
426.964	101.03
427.171	-50.52
427.379	141.99
427.586	82.6
427.794	105.13
428.001	131.75
428.209	117.42
428.417	150.18
428.624	111.27
428.832	88.75
429.039	158.38
429.247	101.03
429.454	101.03
429.662	164.52
429.869	107.18
430.076	123.56
430.284	172.71
430.491	164.52
430.699	80.55
430.906	125.61
431.114	107.18
431.321	125.61
431.528	172.71
431.736	92.84
431.943	92.84
432.15	162.47
432.358	178.86
432.565	230.06
432.772	47.79
432.979	78.51
433.187	219.82
433.394	199.34
433.601	105.13
433.808	203.43
434.016	156.33
434.223	246.44
434.43	211.62
434.637	303.78
434.844	244.39
435.052	223.91
435.259	230.06
435.466	232.1
435.673	199.34
435.88	305.83
436.087	311.97
436.294	244.39
436.501	346.79
436.708	271.01
436.915	336.55
437.122	352.93
437.329	172.71
437.537	268.97
437.743	395.94
437.95	363.17
438.157	332.45
438.364	354.98
438.571	320.17
438.778	375.46
438.985	418.47
439.192	459.43
439.399	420.52
439.606	320.17
439.813	557.73
440.02	551.59
440.227	494.24
440.433	518.82
440.64	496.29
440.847	436.9
441.054	535.2
441.261	649.89
441.467	539.3
441.674	524.96
441.881	709.28
442.088	527.01
442.294	584.35
442.501	746.14
442.708	684.7
442.914	744.1
443.121	783.01
443.328	723.62
443.534	850.59
443.741	817.82
443.948	778.91
444.154	909.98
444.361	957.08
444.568	971.42
444.774	965.28
444.981	807.58
445.187	973.47
445.394	1002.14
445.6	1018.52
445.807	1258.14
446.013	1114.78
446.22	1073.82
446.426	1153.69
446.633	1397.4
446.839	1411.73
447.046	1276.57
447.252	1516.18
447.459	1483.41
447.665	1499.8
447.871	1550.99
448.078	1618.58
448.284	1651.35
448.491	1878.67
448.697	1878.67
448.903	1966.73
449.11	1968.78
449.316	1911.44
449.522	2130.57
449.728	2220.68
449.935	2267.78
450.141	2243.21
450.347	2421.38
450.553	2351.75
450.76	2415.24
450.966	2628.23
451.172	2669.19
451.378	2804.35
451.584	2818.69
451.791	2960
451.997	3046.01
452.203	3299.96
452.409	3388.02
452.615	3388.02
452.821	3326.58
453.027	3324.54
453.233	3943.02
453.44	3598.96
453.646	3957.36
453.852	4135.53
454.058	4225.64
454.264	4371.05
454.47	4586.08
454.676	4598.37
454.882	5083.74
455.088	4819.55
455.294	5081.69
455.5	5481.05
455.705	5786.19
455.911	5745.23
456.117	5929.55
456.323	6249.04
456.529	6097.49
456.735	6677.06
456.941	6928.96
457.147	7002.69
457.352	7377.47
457.558	7381.56
457.764	8034.86
457.97	8165.93
458.176	8634.92
458.381	8860.2
458.587	9105.95
458.793	9382.43
458.999	9595.42
459.204	10615.3
459.41	10893.83
459.616	10777.09
459.821	11373.05
460.027	12050.93
460.233	12288.5
460.438	12507.63
460.644	13259.23
460.85	13269.47
461.055	13795.8
461.261	14332.37
461.466	14322.13
461.672	14567.88
461.878	16236.98
462.083	16116.15
462.289	16435.63
462.494	16935.34
462.7	17531.3
462.905	17506.72
463.111	18848.14
463.316	20009.34
463.522	20150.65
463.727	20717.93
463.932	21473.63
464.138	22430.04
464.343	23032.14
464.549	23173.45
464.754	25127.21
464.959	25506.09
465.165	26061.08
465.37	26007.84
465.575	26149.15
465.781	27924.74
465.986	28401.91
466.191	27799.81
466.397	28012.8
466.602	27664.64
466.807	28811.51
467.012	29376.75
467.218	30107.87
467.423	29855.97
467.628	30789.84
467.833	32610.49
468.038	32004.29
468.244	31344.84
468.449	33214.64
468.654	32458.94
468.859	32729.27
469.064	32575.67
469.269	31695.05
