Data from USB4F104151__45__11-26-43-591.txt Node

Date: Wed Feb 26 11:26:43 EST 2025
User: louis
Spectrometer: USB4F10415
Trigger mode: 4
Integration Time (sec): 1.000000E-1
Scans to average: 1
Electric dark correction enabled: true
Nonlinearity correction enabled: false
Boxcar width: 0
XAxis mode: Wavelengths
Number of Pixels in Spectrum: 3648
>>>>>Begin Spectral Data<<<<<
178.204	-410.62
178.424	-410.62
178.644	-410.62
178.864	-424.95
179.084	-418.81
179.304	-25.6
179.524	21.5
179.744	-23.55
179.964	115.71
180.184	-5.12
180.404	-41.98
180.624	35.84
180.844	23.55
181.064	-72.7
181.283	-1.02
181.503	-62.46
181.723	35.84
181.943	-121.85
182.163	162.81
182.383	-50.18
182.602	58.37
182.822	150.53
183.042	132.09
183.262	-13.31
183.482	37.89
183.701	11.26
183.921	58.37
184.141	29.7
184.361	101.37
184.58	95.23
184.8	23.55
185.02	19.46
185.239	48.13
185.459	76.8
185.679	107.52
185.898	-93.18
186.118	27.65
186.338	52.22
186.557	84.99
186.777	-60.42
186.997	-37.89
187.216	-41.98
187.436	201.72
187.655	74.75
187.875	66.56
188.095	-54.27
188.314	82.94
188.534	123.9
188.753	-62.46
188.973	87.04
189.192	224.25
189.412	37.89
189.631	1.02
189.851	46.08
190.07	121.85
190.29	-87.04
190.509	-35.84
190.729	35.84
190.948	111.61
191.168	166.91
191.387	78.85
191.607	48.13
191.826	-3.07
192.045	66.56
192.265	-44.03
192.484	9.22
192.704	-35.84
192.923	-123.9
193.142	203.77
193.362	105.47
193.581	125.95
193.8	89.09
194.02	31.74
194.239	9.22
194.458	56.32
194.678	76.8
194.897	-21.5
195.116	70.65
195.335	84.99
195.555	37.89
195.774	3.07
195.993	78.85
196.212	-3.07
196.432	52.22
196.651	-31.74
196.87	3.07
197.089	234.49
197.308	74.75
197.528	60.42
197.747	-41.98
197.966	52.22
198.185	115.71
198.404	-74.75
198.623	125.95
198.842	136.19
199.062	121.85
199.281	70.65
199.5	5.12
199.719	41.98
199.938	66.56
200.157	95.23
200.376	101.37
200.595	56.32
200.814	142.33
201.033	17.41
201.252	183.29
201.471	33.79
201.69	138.24
201.909	54.27
202.128	82.94
202.347	52.22
202.566	-17.41
202.785	-58.37
203.004	-70.65
203.223	250.88
203.442	35.84
203.661	-128
203.879	130.05
204.098	74.75
204.317	-33.79
204.536	93.18
204.755	-5.12
204.974	125.95
205.193	9.22
205.411	130.05
205.63	41.98
205.849	50.18
206.068	5.12
206.287	1.02
206.505	117.76
206.724	35.84
206.943	19.46
207.162	-1.02
207.381	60.42
207.599	41.98
207.818	74.75
208.037	-60.42
208.255	54.27
208.474	-56.32
208.693	89.09
208.911	15.36
209.13	154.62
209.349	91.13
209.567	54.27
209.786	154.62
210.005	41.98
210.223	-25.6
210.442	-99.33
210.661	54.27
210.879	72.7
211.098	33.79
211.316	58.37
211.535	48.13
211.753	84.99
211.972	99.33
212.191	29.7
212.409	-31.74
212.628	103.42
212.846	11.26
213.065	52.22
213.283	144.38
213.502	31.74
213.72	29.7
213.938	66.56
214.157	-5.12
214.375	111.61
214.594	60.42
214.812	134.14
215.031	-11.26
215.249	56.32
215.467	91.13
215.686	29.7
215.904	70.65
216.122	56.32
216.341	130.05
216.559	54.27
216.778	150.53
216.996	111.61
217.214	27.65
217.432	9.22
217.651	-80.89
217.869	93.18
218.087	23.55
218.306	3.07
218.524	46.08
218.742	-1.02
218.96	87.04
219.179	60.42
219.397	35.84
219.615	203.77
219.833	91.13
220.051	76.8
220.27	111.61
220.488	99.33
220.706	62.46
220.924	13.31
221.142	-21.5
221.36	54.27
221.578	64.51
221.796	64.51
222.015	60.42
222.233	84.99
222.451	183.29
222.669	-60.42
222.887	72.7
223.105	5.12
223.323	60.42
223.541	-35.84
223.759	60.42
223.977	35.84
224.195	54.27
224.413	97.28
224.631	78.85
224.849	48.13
225.067	179.2
225.285	-68.61
225.503	60.42
225.721	-21.5
225.939	27.65
226.157	15.36
226.375	228.35
226.592	-17.41
226.81	33.79
227.028	52.22
227.246	111.61
227.464	132.09
227.682	207.87
227.9	31.74
228.117	74.75
228.335	54.27
228.553	117.76
228.771	-82.94
228.989	31.74
229.206	144.38
229.424	-15.36
229.642	-19.46
229.86	37.89
230.077	119.81
230.295	74.75
230.513	84.99
230.731	33.79
230.948	58.37
231.166	148.48
231.384	21.5
231.601	-35.84
231.819	185.34
232.037	-60.42
232.254	-19.46
232.472	-54.27
232.689	19.46
232.907	111.61
233.125	46.08
233.342	-35.84
233.56	39.94
233.777	23.55
233.995	-29.7
234.213	80.89
234.43	56.32
234.648	58.37
234.865	-46.08
235.083	-19.46
235.3	68.61
235.518	117.76
235.735	142.33
235.953	99.33
236.17	46.08
236.388	-11.26
236.605	146.43
236.822	146.43
237.04	72.7
237.257	54.27
237.475	-39.94
237.692	82.94
237.909	87.04
238.127	-44.03
238.344	140.29
238.562	50.18
238.779	-33.79
238.996	9.22
239.214	97.28
239.431	93.18
239.648	13.31
239.865	103.42
240.083	-13.31
240.3	-31.74
240.517	-62.46
240.735	33.79
240.952	175.1
241.169	64.51
241.386	29.7
241.603	19.46
241.821	-82.94
242.038	5.12
242.255	95.23
242.472	-11.26
242.689	56.32
242.907	78.85
243.124	95.23
243.341	-33.79
243.558	1.02
243.775	-35.84
243.992	-72.7
244.209	181.25
244.426	181.25
244.643	37.89
244.86	89.09
245.078	132.09
245.295	52.22
245.512	-15.36
245.729	54.27
245.946	29.7
246.163	107.52
246.38	-1.02
246.597	23.55
246.814	31.74
247.031	-82.94
247.248	5.12
247.464	130.05
247.681	80.89
247.898	82.94
248.115	33.79
248.332	-23.55
248.549	31.74
248.766	218.11
248.983	99.33
249.2	48.13
249.417	95.23
249.633	-35.84
249.85	64.51
250.067	95.23
250.284	60.42
250.501	95.23
250.717	52.22
250.934	21.5
251.151	-27.65
251.368	37.89
251.585	99.33
251.801	64.51
252.018	19.46
252.235	101.37
252.451	-58.37
252.668	91.13
252.885	62.46
253.102	-7.17
253.318	23.55
253.535	-33.79
253.752	52.22
253.968	-31.74
254.185	-41.98
254.401	132.09
254.618	66.56
254.835	-64.51
255.051	173.05
255.268	111.61
255.484	11.26
255.701	48.13
255.917	33.79
256.134	-97.28
256.351	74.75
256.567	-21.5
256.784	44.03
257	-13.31
257.217	39.94
257.433	97.28
257.65	33.79
257.866	113.66
258.082	-50.18
258.299	-7.17
258.515	138.24
258.732	15.36
258.948	-35.84
259.165	39.94
259.381	-142.33
259.597	58.37
259.814	-25.6
260.03	50.18
260.246	52.22
260.463	44.03
260.679	105.47
260.895	99.33
261.112	62.46
261.328	3.07
261.544	-25.6
261.761	142.33
261.977	21.5
262.193	-19.46
262.409	128
262.626	-25.6
262.842	37.89
263.058	54.27
263.274	72.7
263.49	39.94
263.707	35.84
263.923	52.22
264.139	-35.84
264.355	74.75
264.571	177.15
264.787	82.94
265.004	89.09
265.22	68.61
265.436	35.84
265.652	119.81
265.868	58.37
266.084	-60.42
266.3	41.98
266.516	-33.79
266.732	70.65
266.948	50.18
267.164	44.03
267.38	115.71
267.596	60.42
267.812	138.24
268.028	64.51
268.244	-11.26
268.46	31.74
268.676	-46.08
268.892	130.05
269.108	1.02
269.324	-41.98
269.54	-64.51
269.756	64.51
269.972	-1.02
270.188	107.52
270.403	-15.36
270.619	-48.13
270.835	148.48
271.051	5.12
271.267	-21.5
271.483	-68.61
271.698	148.48
271.914	68.61
272.13	113.66
272.346	-19.46
272.562	33.79
272.777	144.38
272.993	5.12
273.209	-52.22
273.425	138.24
273.64	-58.37
273.856	119.81
274.072	-52.22
274.287	-9.22
274.503	150.53
274.719	150.53
274.934	-52.22
275.15	-60.42
275.366	-5.12
275.581	-82.94
275.797	50.18
276.012	84.99
276.228	17.41
276.444	95.23
276.659	115.71
276.875	7.17
277.09	-82.94
277.306	9.22
277.521	17.41
277.737	21.5
277.952	64.51
278.168	-35.84
278.383	89.09
278.599	76.8
278.814	56.32
279.03	54.27
279.245	113.66
279.461	44.03
279.676	50.18
279.892	-72.7
280.107	-17.41
280.322	-138.24
280.538	80.89
280.753	-48.13
280.969	25.6
281.184	44.03
281.399	197.63
281.615	39.94
281.83	74.75
282.045	-52.22
282.26	76.8
282.476	7.17
282.691	142.33
282.906	62.46
283.122	23.55
283.337	29.7
283.552	177.15
283.767	-17.41
283.983	44.03
284.198	44.03
284.413	56.32
284.628	-109.57
284.843	-25.6
285.058	87.04
285.274	37.89
285.489	-93.18
285.704	54.27
285.919	-48.13
286.134	7.17
286.349	78.85
286.564	3.07
286.779	138.24
286.995	9.22
287.21	-105.47
287.425	19.46
287.64	23.55
287.855	5.12
288.07	-46.08
288.285	76.8
288.5	72.7
288.715	62.46
288.93	-1.02
289.145	-21.5
289.36	89.09
289.575	29.7
289.79	27.65
290.004	-56.32
290.219	89.09
290.434	-60.42
290.649	-31.74
290.864	9.22
291.079	5.12
291.294	35.84
291.509	60.42
291.724	1.02
291.938	93.18
292.153	60.42
292.368	-19.46
292.583	44.03
292.798	56.32
293.012	31.74
293.227	39.94
293.442	-25.6
293.657	56.32
293.871	31.74
294.086	41.98
294.301	193.53
294.516	115.71
294.73	50.18
294.945	-66.56
295.16	44.03
295.374	134.14
295.589	95.23
295.804	-58.37
296.018	19.46
296.233	95.23
296.447	89.09
296.662	3.07
296.877	105.47
297.091	33.79
297.306	5.12
297.52	70.65
297.735	87.04
297.949	39.94
298.164	7.17
298.378	37.89
298.593	1.02
298.807	-60.42
299.022	48.13
299.236	115.71
299.451	-41.98
299.665	-17.41
299.88	39.94
300.094	56.32
300.309	72.7
300.523	70.65
300.737	-31.74
300.952	48.13
301.166	62.46
301.381	-41.98
301.595	46.08
301.809	27.65
302.024	58.37
302.238	-27.65
302.452	117.76
302.667	58.37
302.881	64.51
303.095	33.79
303.309	97.28
303.524	19.46
303.738	-9.22
303.952	-33.79
304.166	52.22
304.381	-84.99
304.595	160.77
304.809	-25.6
305.023	15.36
305.237	-23.55
305.452	46.08
305.666	123.9
305.88	58.37
306.094	136.19
306.308	101.37
306.522	132.09
306.736	54.27
306.95	99.33
307.164	78.85
307.379	60.42
307.593	150.53
307.807	134.14
308.021	74.75
308.235	84.99
308.449	-132.09
308.663	-13.31
308.877	203.77
309.091	76.8
309.305	142.33
309.519	-35.84
309.733	152.57
309.947	-62.46
310.161	52.22
310.374	-11.26
310.588	177.15
310.802	-37.89
311.016	82.94
311.23	21.5
311.444	3.07
311.658	5.12
311.872	31.74
312.085	103.42
312.299	66.56
312.513	154.62
312.727	35.84
312.941	-64.51
313.154	35.84
313.368	64.51
313.582	-11.26
313.796	19.46
314.009	15.36
314.223	144.38
314.437	25.6
314.651	23.55
314.864	-7.17
315.078	35.84
315.292	-56.32
315.505	39.94
315.719	31.74
315.933	27.65
316.146	72.7
316.36	-39.94
316.573	152.57
316.787	148.48
317.001	87.04
317.214	15.36
317.428	68.61
317.641	-78.85
317.855	-50.18
318.068	58.37
318.282	62.46
318.495	269.31
318.709	89.09
318.922	33.79
319.136	193.53
319.349	117.76
319.563	19.46
319.776	62.46
319.99	-33.79
320.203	132.09
320.417	27.65
320.63	68.61
320.843	132.09
321.057	13.31
321.27	-25.6
321.483	72.7
321.697	146.43
321.91	56.32
322.124	19.46
322.337	115.71
322.55	-7.17
322.763	52.22
322.977	33.79
323.19	11.26
323.403	19.46
323.617	64.51
323.83	152.57
324.043	-3.07
324.256	60.42
324.469	-76.8
324.683	113.66
324.896	68.61
325.109	68.61
325.322	-70.65
325.535	117.76
325.748	160.77
325.962	-1.02
326.175	50.18
326.388	84.99
326.601	91.13
326.814	-9.22
327.027	58.37
327.24	191.49
327.453	-64.51
327.666	128
327.879	109.57
328.092	72.7
328.305	23.55
328.518	1.02
328.731	33.79
328.944	37.89
329.157	50.18
329.37	17.41
329.583	168.96
329.796	74.75
330.009	-44.03
330.222	31.74
330.435	103.42
330.648	64.51
330.861	89.09
331.073	23.55
331.286	35.84
331.499	74.75
331.712	-48.13
331.925	48.13
332.138	27.65
332.35	125.95
332.563	-58.37
332.776	150.53
332.989	-37.89
333.202	31.74
333.414	-27.65
333.627	95.23
333.84	72.7
334.053	119.81
334.265	7.17
334.478	46.08
334.691	-3.07
334.903	50.18
335.116	-37.89
335.329	13.31
335.541	111.61
335.754	162.81
335.966	11.26
336.179	33.79
336.392	117.76
336.604	-25.6
336.817	1.02
337.029	39.94
337.242	41.98
337.454	76.8
337.667	54.27
337.88	62.46
338.092	15.36
338.305	27.65
338.517	35.84
338.729	25.6
338.942	66.56
339.154	-15.36
339.367	-23.55
339.579	68.61
339.792	-46.08
340.004	119.81
340.217	56.32
340.429	50.18
340.641	-25.6
340.854	-64.51
341.066	13.31
341.278	111.61
341.491	117.76
341.703	60.42
341.915	41.98
342.128	125.95
342.34	23.55
342.552	31.74
342.764	33.79
342.977	31.74
343.189	46.08
343.401	21.5
343.613	-74.75
343.826	46.08
344.038	-37.89
344.25	50.18
344.462	-52.22
344.674	21.5
344.886	21.5
345.099	52.22
345.311	39.94
345.523	-27.65
345.735	-95.23
345.947	74.75
346.159	23.55
346.371	66.56
346.583	25.6
346.795	168.96
347.007	48.13
347.219	87.04
347.431	-27.65
347.643	173.05
347.855	39.94
348.067	142.33
348.279	-60.42
348.491	19.46
348.703	72.7
348.915	-25.6
349.127	-35.84
349.339	1.02
349.551	11.26
349.763	123.9
349.975	-9.22
350.187	74.75
350.399	222.2
350.61	80.89
350.822	19.46
351.034	62.46
351.246	56.32
351.458	121.85
351.669	82.94
351.881	115.71
352.093	60.42
352.305	117.76
352.517	-1.02
352.728	101.37
352.94	54.27
353.152	64.51
353.363	19.46
353.575	41.98
353.787	218.11
353.999	58.37
354.21	125.95
354.422	-5.12
354.633	13.31
354.845	19.46
355.057	35.84
355.268	13.31
355.48	80.89
355.692	7.17
355.903	-13.31
356.115	-74.75
356.326	-46.08
356.538	148.48
356.749	62.46
356.961	68.61
357.172	58.37
357.384	-64.51
357.595	232.44
357.807	-50.18
358.018	-1.02
358.23	46.08
358.441	183.29
358.653	128
358.864	84.99
359.075	-50.18
359.287	-1.02
359.498	70.65
359.709	48.13
359.921	13.31
360.132	125.95
360.344	-5.12
360.555	-27.65
360.766	70.65
360.977	-29.7
361.189	132.09
361.4	5.12
361.611	142.33
361.823	164.86
362.034	52.22
362.245	13.31
362.456	-1.02
362.667	29.7
362.879	-5.12
363.09	72.7
363.301	111.61
363.512	50.18
363.723	-48.13
363.935	-46.08
364.146	103.42
364.357	-5.12
364.568	29.7
364.779	-29.7
364.99	136.19
365.201	46.08
365.412	109.57
365.623	-113.66
365.834	103.42
366.045	39.94
366.256	93.18
366.467	31.74
366.678	78.85
366.889	52.22
367.1	-62.46
367.311	101.37
367.522	-35.84
367.733	121.85
367.944	78.85
368.155	-56.32
368.366	93.18
368.577	150.53
368.788	166.91
368.999	-105.47
369.209	74.75
369.42	203.77
369.631	261.12
369.842	144.38
370.053	23.55
370.264	107.52
370.474	13.31
370.685	117.76
370.896	74.75
371.107	101.37
371.317	111.61
371.528	99.33
371.739	125.95
371.95	41.98
372.16	17.41
372.371	-64.51
372.582	84.99
372.792	103.42
373.003	33.79
373.214	37.89
373.424	105.47
373.635	-15.36
373.846	74.75
374.056	52.22
374.267	50.18
374.477	107.52
374.688	15.36
374.898	107.52
375.109	105.47
375.319	95.23
375.53	84.99
375.74	115.71
375.951	-1.02
376.161	13.31
376.372	160.77
376.582	60.42
376.793	84.99
377.003	-15.36
377.214	48.13
377.424	103.42
377.635	89.09
377.845	-21.5
378.055	130.05
378.266	39.94
378.476	-41.98
378.686	97.28
378.897	29.7
379.107	58.37
379.317	23.55
379.528	15.36
379.738	132.09
379.948	-50.18
380.158	134.14
380.369	21.5
380.579	-9.22
380.789	74.75
380.999	136.19
381.21	101.37
381.42	183.29
381.63	25.6
381.84	136.19
382.05	93.18
382.261	72.7
382.471	123.9
382.681	11.26
382.891	173.05
383.101	-33.79
383.311	-27.65
383.521	-46.08
383.731	128
383.941	146.43
384.151	-13.31
384.361	-17.41
384.571	-13.31
384.781	21.5
384.991	175.1
385.201	138.24
385.411	154.62
385.621	29.7
385.831	7.17
386.041	33.79
386.251	-39.94
386.461	48.13
386.671	17.41
386.881	52.22
387.091	-37.89
387.301	97.28
387.511	-9.22
387.72	15.36
387.93	101.37
388.14	-58.37
388.35	35.84
388.56	101.37
388.769	105.47
388.979	72.7
389.189	-5.12
389.399	109.57
389.609	44.03
389.818	160.77
390.028	121.85
390.238	76.8
390.447	-56.32
390.657	17.41
390.867	66.56
391.076	3.07
391.286	44.03
391.496	21.5
391.705	-41.98
391.915	19.46
392.125	177.15
392.334	19.46
392.544	136.19
392.753	54.27
392.963	-35.84
393.172	89.09
393.382	-58.37
393.591	252.92
393.801	37.89
394.01	232.44
394.22	84.99
394.429	-13.31
394.639	33.79
394.848	185.34
395.058	23.55
395.267	-13.31
395.477	89.09
395.686	48.13
395.895	187.39
396.105	185.34
396.314	117.76
396.524	54.27
396.733	13.31
396.942	121.85
397.152	76.8
397.361	37.89
397.57	23.55
397.78	-1.02
397.989	50.18
398.198	244.73
398.407	-31.74
398.617	44.03
398.826	56.32
399.035	29.7
399.244	91.13
399.453	37.89
399.663	13.31
399.872	146.43
400.081	-82.94
400.29	111.61
400.499	-5.12
400.708	128
400.917	91.13
401.127	17.41
401.336	-17.41
401.545	267.26
401.754	173.05
401.963	23.55
402.172	76.8
402.381	-39.94
402.59	91.13
402.799	78.85
403.008	179.2
403.217	87.04
403.426	130.05
403.635	-19.46
403.844	17.41
404.053	105.47
404.262	58.37
404.471	207.87
404.68	74.75
404.888	3.07
405.097	11.26
405.306	113.66
405.515	105.47
405.724	-19.46
405.933	152.57
406.142	56.32
406.35	76.8
406.559	44.03
406.768	-19.46
406.977	87.04
407.185	72.7
407.394	44.03
407.603	29.7
407.812	101.37
408.02	89.09
408.229	-17.41
408.438	76.8
408.646	-76.8
408.855	128
409.064	70.65
409.272	-7.17
409.481	107.52
409.69	-27.65
409.898	-1.02
410.107	128
410.315	146.43
410.524	-89.09
410.733	87.04
410.941	52.22
411.15	185.34
411.358	82.94
411.567	175.1
411.775	5.12
411.984	-13.31
412.192	13.31
412.401	13.31
412.609	115.71
412.818	183.29
413.026	107.52
413.234	-37.89
413.443	21.5
413.651	7.17
413.86	52.22
414.068	148.48
414.276	136.19
414.485	9.22
414.693	185.34
414.901	191.49
415.11	78.85
415.318	9.22
415.526	84.99
415.734	138.24
415.943	50.18
416.151	113.66
416.359	62.46
416.567	19.46
416.776	82.94
416.984	107.52
417.192	246.78
417.4	15.36
417.608	-1.02
417.817	-33.79
418.025	130.05
418.233	195.58
418.441	48.13
418.649	-46.08
418.857	-3.07
419.065	179.2
419.273	39.94
419.481	29.7
419.689	80.89
419.897	7.17
420.105	25.6
420.313	56.32
420.521	177.15
420.729	99.33
420.937	46.08
421.145	-1.02
421.353	136.19
421.561	154.62
421.769	68.61
421.977	27.65
422.185	185.34
422.393	76.8
422.601	95.23
422.809	62.46
423.017	62.46
423.224	41.98
423.432	78.85
423.64	82.94
423.848	121.85
424.056	-1.02
424.263	41.98
424.471	-13.31
424.679	191.49
424.887	-62.46
425.094	138.24
425.302	68.61
425.51	82.94
425.718	93.18
425.925	84.99
426.133	-48.13
426.341	224.25
426.548	115.71
426.756	-3.07
426.964	87.04
427.171	21.5
427.379	156.67
427.586	105.47
427.794	89.09
428.001	173.05
428.209	29.7
428.417	158.72
428.624	121.85
428.832	25.6
429.039	95.23
429.247	68.61
429.454	166.91
429.662	236.54
429.869	68.61
430.076	105.47
430.284	160.77
430.491	125.95
430.699	101.37
430.906	242.68
431.114	218.11
431.321	93.18
431.528	95.23
431.736	119.81
431.943	179.2
432.15	171.01
432.358	187.39
432.565	312.32
432.772	21.5
432.979	203.77
433.187	105.47
433.394	240.64
433.601	173.05
433.808	216.06
434.016	259.07
434.223	267.26
434.43	271.36
434.637	232.44
434.844	328.7
435.052	195.58
435.259	232.44
435.466	289.79
435.673	259.07
435.88	252.92
436.087	336.89
436.294	343.03
436.501	267.26
436.708	332.79
436.915	293.88
437.122	402.43
437.329	279.55
437.537	297.98
437.743	322.56
437.95	408.57
438.157	465.91
438.364	392.19
438.571	381.95
438.778	418.81
438.985	531.45
439.192	445.43
439.399	482.3
439.606	439.29
439.813	470.01
440.02	654.33
440.227	654.33
440.433	576.5
440.64	558.07
440.847	510.97
441.054	547.83
441.261	705.53
441.467	601.08
441.674	535.54
441.881	748.53
442.088	590.84
442.294	826.36
442.501	775.16
442.708	824.31
442.914	728.05
443.121	922.61
443.328	943.09
443.534	959.47
443.741	982
443.948	809.97
444.154	898.03
444.361	1135.6
444.568	1072.11
444.774	1115.12
444.981	943.09
445.187	1235.95
445.394	1233.9
445.6	1149.93
445.807	1440.75
446.013	1231.85
446.22	1158.13
446.426	1326.06
446.633	1479.66
446.839	1625.06
447.046	1459.18
447.252	1692.65
447.459	1633.26
447.665	1676.26
447.871	1856.48
448.078	2075.62
448.284	1813.48
448.491	2032.61
448.697	2141.15
448.903	2218.97
449.11	2143.2
449.316	2087.9
449.522	2331.61
449.728	2487.26
449.935	2550.75
450.141	2548.7
450.347	2802.65
450.553	2741.21
450.76	2765.78
450.966	3060.69
451.172	2995.15
451.378	3029.97
451.584	3261.39
451.791	3349.45
451.997	3611.59
452.203	3632.07
452.409	3941.32
452.615	4070.34
452.821	3822.53
453.027	3808.2
453.233	4361.15
453.44	4125.63
453.646	4602.81
453.852	4735.93
454.058	4805.56
454.264	4985.78
454.47	5317.55
454.676	5190.58
454.882	5761.96
455.088	5475.24
455.294	5729.19
455.5	6433.69
455.705	6640.54
455.911	6306.72
456.117	6734.75
456.323	7080.85
456.529	6888.34
456.735	7623.56
456.941	7828.36
457.147	8086.4
457.352	8317.83
457.558	8608.64
457.764	9120.63
457.97	9354.1
458.176	9448.3
458.381	10021.74
458.587	10269.54
458.793	10961.75
458.999	10941.27
459.204	12428.1
459.41	12608.32
459.616	12301.12
459.821	13214.52
460.027	13740.85
460.233	14263.08
460.438	14390.05
460.644	15110.94
460.85	15436.56
461.055	16016.14
461.261	16489.22
461.466	16274.18
461.672	16818.94
461.878	18836.19
462.083	18455.27
462.289	18965.21
462.494	19532.5
462.7	19923.66
462.905	20015.82
463.111	21799.6
463.316	22829.73
463.522	22946.47
463.727	23671.45
463.932	24853.12
464.138	25598.59
464.343	26808.93
464.549	26808.93
464.754	28879.43
464.959	29438.53
465.165	30089.78
465.37	29964.85
465.575	29727.29
465.781	31932.95
465.986	32711.18
466.191	32266.77
466.397	32870.92
466.602	32227.86
466.807	33769.98
467.012	34304.5
467.218	35049.96
467.423	35131.88
467.628	35709.41
467.833	37939.65
468.038	37202.38
468.244	36231.64
468.449	38470.07
