Data from USB4F104151__68__11-30-58-264.txt Node

Date: Wed Feb 26 11:30:58 EST 2025
User: louis
Spectrometer: USB4F10415
Trigger mode: 4
Integration Time (sec): 1.000000E-1
Scans to average: 1
Electric dark correction enabled: true
Nonlinearity correction enabled: false
Boxcar width: 0
XAxis mode: Wavelengths
Number of Pixels in Spectrum: 3648
>>>>>Begin Spectral Data<<<<<
178.204	-420
178.424	-420
178.644	-420
178.864	-448.68
179.084	-362.66
179.304	63.32
179.524	-51.37
179.744	-6.31
179.964	96.08
180.184	1.88
180.404	28.5
180.624	-86.19
180.844	34.64
181.064	-55.47
181.283	34.64
181.503	-110.76
181.723	51.03
181.943	-118.95
182.163	161.62
182.383	-69.8
182.602	8.02
182.822	171.86
183.042	22.36
183.262	-45.23
183.482	-4.27
183.701	-18.6
183.921	38.74
184.141	-14.51
184.361	120.66
184.58	96.08
184.8	18.26
185.02	-37.03
185.239	110.42
185.459	-20.65
185.679	116.56
185.898	-67.75
186.118	81.75
186.338	55.12
186.557	98.13
186.777	-69.8
186.997	-104.62
187.216	55.12
187.436	229.2
187.655	3.93
187.875	75.6
188.095	59.22
188.314	94.04
188.534	65.36
188.753	-88.23
188.973	96.08
189.192	169.81
189.412	1.88
189.631	73.56
189.851	34.64
190.07	94.04
190.29	-57.51
190.509	32.6
190.729	20.31
190.948	118.61
191.168	218.96
191.387	8.02
191.607	44.88
191.826	48.98
192.045	53.08
192.265	3.93
192.484	1.88
192.704	-6.31
192.923	-0.17
193.142	171.86
193.362	71.51
193.581	235.35
193.8	51.03
194.02	89.94
194.239	34.64
194.458	16.21
194.678	-32.94
194.897	81.75
195.116	44.88
195.335	85.84
195.555	63.32
195.774	-49.32
195.993	120.66
196.212	1.88
196.432	30.55
196.651	-114.86
196.87	-10.41
197.089	223.06
197.308	32.6
197.528	89.94
197.747	42.84
197.966	48.98
198.185	137.04
198.404	-6.31
198.623	108.37
198.842	108.37
199.062	71.51
199.281	30.55
199.5	77.65
199.719	-32.94
199.938	-22.7
200.157	42.84
200.376	87.89
200.595	165.71
200.814	5.97
201.033	-82.09
201.252	157.52
201.471	77.65
201.69	22.36
201.909	53.08
202.128	83.8
202.347	110.42
202.566	46.93
202.785	-59.56
203.004	36.69
203.223	243.54
203.442	42.84
203.661	10.07
203.879	81.75
204.098	139.09
204.317	-47.27
204.536	98.13
204.755	75.6
204.974	81.75
205.193	42.84
205.411	75.6
205.63	96.08
205.849	59.22
206.068	-26.79
206.287	-32.94
206.505	182.1
206.724	26.45
206.943	-8.36
207.162	-16.55
207.381	28.5
207.599	24.4
207.818	18.26
208.037	44.88
208.255	-30.89
208.474	122.71
208.693	20.31
208.911	-2.22
209.13	57.17
209.349	87.89
209.567	24.4
209.786	112.47
210.005	112.47
210.223	14.17
210.442	-131.24
210.661	-57.51
210.879	40.79
211.098	16.21
211.316	-92.33
211.535	67.41
211.753	48.98
211.972	28.5
212.191	-88.23
212.409	10.07
212.628	159.57
212.846	5.97
213.065	32.6
213.283	98.13
213.502	48.98
213.72	-55.47
213.938	40.79
214.157	26.45
214.375	24.4
214.594	-18.6
214.812	36.69
215.031	38.74
215.249	26.45
215.467	-12.46
215.686	24.4
215.904	32.6
216.122	-80.04
216.341	149.33
216.559	83.8
216.778	44.88
216.996	169.81
217.214	83.8
217.432	-8.36
217.651	14.17
217.869	10.07
218.087	-84.14
218.306	-53.42
218.524	73.56
218.742	26.45
218.96	69.46
219.179	61.27
219.397	65.36
219.615	143.19
219.833	38.74
220.051	-16.55
220.27	116.56
220.488	198.48
220.706	106.32
220.924	55.12
221.142	16.21
221.36	8.02
221.578	30.55
221.796	-28.84
222.015	30.55
222.233	57.17
222.451	139.09
222.669	-39.08
222.887	102.23
223.105	-94.38
223.323	20.31
223.541	-51.37
223.759	110.42
223.977	26.45
224.195	178
224.413	38.74
224.631	69.46
224.849	112.47
225.067	122.71
225.285	-0.17
225.503	-10.41
225.721	-20.65
225.939	38.74
226.157	89.94
226.375	153.43
226.592	-34.99
226.81	-22.7
227.028	73.56
227.246	91.99
227.464	65.36
227.682	59.22
227.9	46.93
228.117	81.75
228.335	-6.31
228.553	-53.42
228.771	-10.41
228.989	122.71
229.206	40.79
229.424	16.21
229.642	-37.03
229.86	-49.32
230.077	151.38
230.295	44.88
230.513	51.03
230.731	-49.32
230.948	147.28
231.166	65.36
231.384	1.88
231.601	-41.13
231.819	143.19
232.037	-4.27
232.254	-69.8
232.472	38.74
232.689	-12.46
232.907	104.28
233.125	-30.89
233.342	-0.17
233.56	-20.65
233.777	1.88
233.995	-80.04
234.213	91.99
234.43	-0.17
234.648	57.17
234.865	-16.55
235.083	26.45
235.3	32.6
235.518	171.86
235.735	112.47
235.953	48.98
236.17	26.45
236.388	-10.41
236.605	-32.94
236.822	87.89
237.04	94.04
237.257	135
237.475	-39.08
237.692	42.84
237.909	32.6
238.127	81.75
238.344	73.56
238.562	91.99
238.779	-86.19
238.996	-0.17
239.214	8.02
239.431	81.75
239.648	-53.42
239.865	67.41
240.083	128.85
240.3	-2.22
240.517	-53.42
240.735	18.26
240.952	87.89
241.169	28.5
241.386	44.88
241.603	-22.7
241.821	-121
242.038	44.88
242.255	94.04
242.472	-84.14
242.689	61.27
242.907	34.64
243.124	51.03
243.341	-8.36
243.558	-41.13
243.775	-63.66
243.992	-39.08
244.209	75.6
244.426	120.66
244.643	57.17
244.86	28.5
245.078	102.23
245.295	110.42
245.512	67.41
245.729	-2.22
245.946	42.84
246.163	8.02
246.38	40.79
246.597	40.79
246.814	24.4
247.031	28.5
247.248	110.42
247.464	57.17
247.681	-18.6
247.898	75.6
248.115	75.6
248.332	-0.17
248.549	100.18
248.766	114.52
248.983	110.42
249.2	110.42
249.417	1.88
249.633	-0.17
249.85	59.22
250.067	1.88
250.284	20.31
250.501	42.84
250.717	3.93
250.934	-30.89
251.151	-26.79
251.368	69.46
251.585	46.93
251.801	94.04
252.018	14.17
252.235	91.99
252.451	-24.75
252.668	-2.22
252.885	124.76
253.102	112.47
253.318	-16.55
253.535	-18.6
253.752	3.93
253.968	-22.7
254.185	-34.99
254.401	57.17
254.618	36.69
254.835	-51.37
255.051	122.71
255.268	42.84
255.484	30.55
255.701	-67.75
255.917	65.36
256.134	-18.6
256.351	-37.03
256.567	-67.75
256.784	18.26
257	-110.76
257.217	126.8
257.433	94.04
257.65	83.8
257.866	102.23
258.082	-20.65
258.299	-71.85
258.515	53.08
258.732	24.4
258.948	-28.84
259.165	42.84
259.381	-16.55
259.597	34.64
259.814	-26.79
260.03	28.5
260.246	40.79
260.463	77.65
260.679	75.6
260.895	65.36
261.112	71.51
261.328	124.76
261.544	5.97
261.761	89.94
261.977	-16.55
262.193	-45.23
262.409	53.08
262.626	-16.55
262.842	57.17
263.058	-65.71
263.274	114.52
263.49	53.08
263.707	-2.22
263.923	137.04
264.139	-39.08
264.355	16.21
264.571	106.32
264.787	87.89
265.004	169.81
265.22	-39.08
265.436	14.17
265.652	-34.99
265.868	126.8
266.084	5.97
266.3	18.26
266.516	-34.99
266.732	42.84
266.948	-4.27
267.164	-59.56
267.38	8.02
267.596	22.36
267.812	157.52
268.028	5.97
268.244	-16.55
268.46	-32.94
268.676	-34.99
268.892	24.4
269.108	1.88
269.324	-59.56
269.54	-102.57
269.756	114.52
269.972	-67.75
270.188	48.98
270.403	-37.03
270.619	-47.27
270.835	61.27
271.051	67.41
271.267	-59.56
271.483	-82.09
271.698	112.47
271.914	32.6
272.13	22.36
272.346	-28.84
272.562	51.03
272.777	186.19
272.993	32.6
273.209	-28.84
273.425	65.36
273.64	-133.29
273.856	51.03
274.072	24.4
274.287	-2.22
274.503	114.52
274.719	96.08
274.934	59.22
275.15	-22.7
275.366	-57.51
275.581	-18.6
275.797	-6.31
276.012	98.13
276.228	-53.42
276.444	55.12
276.659	75.6
276.875	-6.31
277.09	-22.7
277.306	94.04
277.521	61.27
277.737	3.93
277.952	110.42
278.168	-16.55
278.383	14.17
278.599	22.36
278.814	137.04
279.03	-16.55
279.245	112.47
279.461	67.41
279.676	167.76
279.892	-82.09
280.107	-96.43
280.322	-49.32
280.538	126.8
280.753	-4.27
280.969	5.97
281.184	40.79
281.399	157.52
281.615	-53.42
281.83	69.46
282.045	-18.6
282.26	-24.75
282.476	-53.42
282.691	161.62
282.906	69.46
283.122	18.26
283.337	-65.71
283.552	130.9
283.767	-32.94
283.983	100.18
284.198	12.12
284.413	85.84
284.628	-65.71
284.843	40.79
285.058	126.8
285.274	-24.75
285.489	22.36
285.704	51.03
285.919	-39.08
286.134	-49.32
286.349	10.07
286.564	10.07
286.779	46.93
286.995	5.97
287.21	-84.14
287.425	83.8
287.64	16.21
287.855	106.32
288.07	34.64
288.285	98.13
288.5	145.24
288.715	83.8
288.93	24.4
289.145	-106.67
289.36	73.56
289.575	-26.79
289.79	137.04
290.004	32.6
290.219	77.65
290.434	26.45
290.649	46.93
290.864	-28.84
291.079	-4.27
291.294	-20.65
291.509	10.07
291.724	-16.55
291.938	-73.9
292.153	112.47
292.368	18.26
292.583	20.31
292.798	124.76
293.012	57.17
293.227	85.84
293.442	-39.08
293.657	22.36
293.871	91.99
294.086	32.6
294.301	214.87
294.516	173.91
294.73	46.93
294.945	-30.89
295.16	-6.31
295.374	87.89
295.589	26.45
295.804	-18.6
296.018	5.97
296.233	34.64
296.447	85.84
296.662	-24.75
296.877	-6.31
297.091	24.4
297.306	-37.03
297.52	-65.71
297.735	-28.84
297.949	46.93
298.164	48.98
298.378	38.74
298.593	14.17
298.807	-22.7
299.022	-39.08
299.236	110.42
299.451	-53.42
299.665	38.74
299.88	-32.94
300.094	32.6
300.309	3.93
300.523	42.84
300.737	46.93
300.952	102.23
301.166	28.5
301.381	-20.65
301.595	18.26
301.809	53.08
302.024	61.27
302.238	-37.03
302.452	26.45
302.667	51.03
302.881	40.79
303.095	104.28
303.309	28.5
303.524	-47.27
303.738	-39.08
303.952	-47.27
304.166	61.27
304.381	-82.09
304.595	65.36
304.809	-75.95
305.023	51.03
305.237	-28.84
305.452	24.4
305.666	57.17
305.88	48.98
306.094	108.37
306.308	55.12
306.522	87.89
306.736	-100.52
306.95	71.51
307.164	20.31
307.379	-82.09
307.593	139.09
307.807	108.37
308.021	81.75
308.235	100.18
308.449	30.55
308.663	-12.46
308.877	163.67
309.091	-18.6
309.305	135
309.519	-112.81
309.733	81.75
309.947	-45.23
310.161	77.65
310.374	67.41
310.588	182.1
310.802	-67.75
311.016	-116.9
311.23	71.51
311.444	-8.36
311.658	38.74
311.872	116.56
312.085	155.47
312.299	61.27
312.513	73.56
312.727	71.51
312.941	44.88
313.154	100.18
313.368	124.76
313.582	-8.36
313.796	67.41
314.009	20.31
314.223	79.7
314.437	108.37
314.651	130.9
314.864	1.88
315.078	-24.75
315.292	5.97
315.505	-51.37
315.719	85.84
315.933	73.56
316.146	-22.7
316.36	-80.04
316.573	145.24
316.787	73.56
317.001	18.26
317.214	-59.56
317.428	16.21
317.641	-26.79
317.855	-20.65
318.068	53.08
318.282	36.69
318.495	151.38
318.709	34.64
318.922	81.75
319.136	149.33
319.349	112.47
319.563	-2.22
319.776	51.03
319.99	-14.51
320.203	71.51
320.417	18.26
320.63	67.41
320.843	132.95
321.057	81.75
321.27	5.97
321.483	67.41
321.697	87.89
321.91	63.32
322.124	51.03
322.337	102.23
322.55	3.93
322.763	40.79
322.977	-24.75
323.19	-61.61
323.403	28.5
323.617	34.64
323.83	122.71
324.043	-37.03
324.256	85.84
324.469	-153.77
324.683	112.47
324.896	24.4
325.109	61.27
325.322	-61.61
325.535	32.6
325.748	96.08
325.962	16.21
326.175	8.02
326.388	61.27
326.601	75.6
326.814	10.07
327.027	18.26
327.24	206.67
327.453	-84.14
327.666	40.79
327.879	124.76
328.092	87.89
328.305	42.84
328.518	48.98
328.731	-43.18
328.944	-53.42
329.157	98.13
329.37	-12.46
329.583	124.76
329.796	190.29
330.009	-41.13
330.222	161.62
330.435	44.88
330.648	57.17
330.861	79.7
331.073	26.45
331.286	36.69
331.499	46.93
331.712	-84.14
331.925	55.12
332.138	48.98
332.35	73.56
332.563	-4.27
332.776	79.7
332.989	-69.8
333.202	-12.46
333.414	-94.38
333.627	-45.23
333.84	-8.36
334.053	89.94
334.265	-10.41
334.478	-4.27
334.691	57.17
334.903	-59.56
335.116	24.4
335.329	38.74
335.541	61.27
335.754	130.9
335.966	16.21
336.179	40.79
336.392	18.26
336.604	-26.79
336.817	112.47
337.029	36.69
337.242	20.31
337.454	85.84
337.667	100.18
337.88	114.52
338.092	91.99
338.305	73.56
338.517	-53.42
338.729	63.32
338.942	102.23
339.154	48.98
339.367	12.12
339.579	59.22
339.792	-39.08
340.004	81.75
340.217	16.21
340.429	38.74
340.641	-45.23
340.854	-71.85
341.066	8.02
341.278	104.28
341.491	145.24
341.703	-32.94
341.915	20.31
342.128	151.38
342.34	42.84
342.552	14.17
342.764	102.23
342.977	20.31
343.189	65.36
343.401	67.41
343.613	-30.89
343.826	5.97
344.038	-73.9
344.25	61.27
344.462	1.88
344.674	-0.17
344.886	12.12
345.099	46.93
345.311	124.76
345.523	-4.27
345.735	-49.32
345.947	28.5
346.159	69.46
346.371	-30.89
346.583	-43.18
346.795	192.34
347.007	28.5
347.219	5.97
347.431	-32.94
347.643	89.94
347.855	-8.36
348.067	130.9
348.279	-67.75
348.491	98.13
348.703	-32.94
348.915	1.88
349.127	-41.13
349.339	57.17
349.551	-22.7
349.763	69.46
349.975	16.21
350.187	100.18
350.399	57.17
350.61	46.93
350.822	65.36
351.034	14.17
351.246	98.13
351.458	61.27
351.669	79.7
351.881	96.08
352.093	69.46
352.305	163.67
352.517	71.51
352.728	96.08
352.94	-32.94
353.152	106.32
353.363	-30.89
353.575	69.46
353.787	135
353.999	63.32
354.21	202.58
354.422	-96.43
354.633	-6.31
354.845	42.84
355.057	67.41
355.268	5.97
355.48	48.98
355.692	-34.99
355.903	44.88
356.115	-69.8
356.326	-108.71
356.538	157.52
356.749	67.41
356.961	180.05
357.172	8.02
357.384	-63.66
357.595	165.71
357.807	-6.31
358.018	-110.76
358.23	-24.75
358.441	137.04
358.653	108.37
358.864	18.26
359.075	-55.47
359.287	-14.51
359.498	61.27
359.709	83.8
359.921	-10.41
360.132	114.52
360.344	-61.61
360.555	-8.36
360.766	30.55
360.977	26.45
361.189	143.19
361.4	1.88
361.611	96.08
361.823	79.7
362.034	5.97
362.245	-102.57
362.456	-12.46
362.667	3.93
362.879	-100.52
363.09	-0.17
363.301	30.55
363.512	59.22
363.723	-96.43
363.935	-39.08
364.146	149.33
364.357	40.79
364.568	-41.13
364.779	-49.32
364.99	55.12
365.201	-10.41
365.412	122.71
365.623	-8.36
365.834	81.75
366.045	-4.27
366.256	48.98
366.467	30.55
366.678	-18.6
366.889	112.47
367.1	-10.41
367.311	75.6
367.522	10.07
367.733	83.8
367.944	46.93
368.155	28.5
368.366	26.45
368.577	81.75
368.788	67.41
368.999	-18.6
369.209	42.84
369.42	204.63
369.631	241.49
369.842	67.41
370.053	-12.46
370.264	145.24
370.474	-47.27
370.685	79.7
370.896	51.03
371.107	120.66
371.317	18.26
371.528	63.32
371.739	89.94
371.95	51.03
372.16	-34.99
372.371	-2.22
372.582	1.88
372.792	46.93
373.003	53.08
373.214	65.36
373.424	48.98
373.635	-77.99
373.846	118.61
374.056	42.84
374.267	48.98
374.477	108.37
374.688	79.7
374.898	71.51
375.109	-0.17
375.319	102.23
375.53	-16.55
375.74	59.22
375.951	-4.27
376.161	14.17
376.372	51.03
376.582	-59.56
376.793	34.64
377.003	-57.51
377.214	-16.55
377.424	112.47
377.635	-102.57
377.845	-73.9
378.055	83.8
378.266	-24.75
378.476	30.55
378.686	65.36
378.897	28.5
379.107	155.47
379.317	67.41
379.528	-71.85
379.738	38.74
379.948	20.31
380.158	98.13
380.369	40.79
380.579	36.69
380.789	-20.65
380.999	145.24
381.21	100.18
381.42	159.57
381.63	-69.8
381.84	110.42
382.05	5.97
382.261	96.08
382.471	163.67
382.681	-24.75
382.891	194.39
383.101	34.64
383.311	-45.23
383.521	44.88
383.731	83.8
383.941	71.51
384.151	75.6
384.361	-53.42
384.571	79.7
384.781	67.41
384.991	223.06
385.201	163.67
385.411	53.08
385.621	69.46
385.831	71.51
386.041	73.56
386.251	12.12
386.461	120.66
386.671	-0.17
386.881	42.84
387.091	61.27
387.301	89.94
387.511	61.27
387.72	48.98
387.93	48.98
388.14	-51.37
388.35	51.03
388.56	139.09
388.769	128.85
388.979	79.7
389.189	55.12
389.399	-20.65
389.609	77.65
389.818	118.61
390.028	38.74
390.238	65.36
390.447	-45.23
390.657	122.71
390.867	59.22
391.076	-67.75
391.286	48.98
391.496	20.31
391.705	59.22
391.915	130.9
392.125	30.55
392.334	91.99
392.544	112.47
392.753	12.12
392.963	-12.46
393.172	55.12
393.382	-20.65
393.591	180.05
393.801	-26.79
394.01	48.98
394.22	46.93
394.429	32.6
394.639	-71.85
394.848	22.36
395.058	42.84
395.267	10.07
395.477	91.99
395.686	46.93
395.895	221.01
396.105	214.87
396.314	114.52
396.524	-4.27
396.733	20.31
396.942	-20.65
397.152	67.41
397.361	135
397.57	30.55
397.78	77.65
397.989	63.32
398.198	171.86
398.407	-26.79
398.617	67.41
398.826	46.93
399.035	10.07
399.244	175.95
399.453	71.51
399.663	59.22
399.872	135
400.081	-8.36
400.29	128.85
400.499	-41.13
400.708	114.52
400.917	75.6
401.127	-8.36
401.336	69.46
401.545	173.91
401.754	167.76
401.963	44.88
402.172	94.04
402.381	-8.36
402.59	44.88
402.799	-63.66
403.008	75.6
403.217	48.98
403.426	71.51
403.635	-88.23
403.844	81.75
404.053	26.45
404.262	77.65
404.471	190.29
404.68	36.69
404.888	75.6
405.097	42.84
405.306	48.98
405.515	137.04
405.724	-39.08
405.933	71.51
406.142	-0.17
406.35	85.84
406.559	79.7
406.768	22.36
406.977	202.58
407.185	51.03
407.394	61.27
407.603	14.17
407.812	28.5
408.02	135
408.229	51.03
408.438	36.69
408.646	-75.95
408.855	24.4
409.064	65.36
409.272	38.74
409.481	153.43
409.69	-53.42
409.898	-6.31
410.107	81.75
410.315	100.18
410.524	-77.99
410.733	18.26
410.941	44.88
411.15	96.08
411.358	-59.56
411.567	126.8
411.775	1.88
411.984	51.03
412.192	77.65
412.401	-22.7
412.609	159.57
412.818	112.47
413.026	75.6
413.234	36.69
413.443	118.61
413.651	-49.32
413.86	14.17
414.068	120.66
414.276	130.9
414.485	46.93
414.693	202.58
414.901	132.95
415.11	57.17
415.318	-26.79
415.526	83.8
415.734	51.03
415.943	87.89
416.151	32.6
416.359	-0.17
416.567	71.51
416.776	87.89
416.984	135
417.192	190.29
417.4	40.79
417.608	57.17
417.817	32.6
418.025	141.14
418.233	198.48
418.441	12.12
418.649	18.26
418.857	38.74
419.065	106.32
419.273	40.79
419.481	112.47
419.689	40.79
419.897	48.98
420.105	-55.47
420.313	46.93
420.521	116.56
420.729	81.75
420.937	-108.71
421.145	57.17
421.353	24.4
421.561	225.11
421.769	12.12
421.977	-69.8
422.185	124.76
422.393	65.36
422.601	118.61
422.809	77.65
423.017	26.45
423.224	53.08
423.432	135
423.64	38.74
423.848	153.43
424.056	32.6
424.263	132.95
424.471	-51.37
424.679	83.8
424.887	51.03
425.094	94.04
425.302	98.13
425.51	79.7
425.718	89.94
425.925	85.84
426.133	3.93
426.341	122.71
426.548	-6.31
426.756	30.55
426.964	-0.17
427.171	81.75
427.379	89.94
427.586	81.75
427.794	100.18
428.001	106.32
428.209	40.79
428.417	159.57
428.624	116.56
428.832	147.28
429.039	118.61
429.247	32.6
429.454	110.42
429.662	274.26
429.869	85.84
430.076	167.76
430.284	116.56
430.491	178
430.699	171.86
430.906	233.3
431.114	137.04
431.321	169.81
431.528	48.98
431.736	120.66
431.943	147.28
432.15	225.11
432.358	202.58
432.565	235.35
432.772	20.31
432.979	241.49
433.187	112.47
433.394	253.78
433.601	71.51
433.808	292.69
434.016	270.16
434.223	175.95
434.43	237.39
434.637	341.84
434.844	278.35
435.052	278.35
435.259	300.88
435.466	327.5
435.673	245.59
435.88	313.17
436.087	300.88
436.294	323.41
436.501	309.07
436.708	270.16
436.915	304.98
437.122	352.08
437.329	237.39
437.537	225.11
437.743	366.42
437.95	452.43
438.157	413.52
438.364	337.74
438.571	446.29
438.778	454.48
438.985	485.2
439.192	477.01
439.399	511.82
439.606	538.45
439.813	540.49
440.02	579.4
440.227	790.35
440.433	546.64
440.64	483.15
440.847	489.29
441.054	585.55
441.261	665.42
441.467	683.85
441.674	689.99
441.881	761.67
442.088	632.65
442.294	773.96
442.501	859.98
442.708	808.78
442.914	829.26
443.121	997.19
443.328	929.61
443.534	991.05
443.741	927.56
443.948	884.55
444.154	976.71
444.361	1165.12
444.568	1034.05
444.774	1144.64
444.981	1042.25
445.187	1310.53
445.394	1259.33
445.6	1216.32
445.807	1335.1
446.013	1392.45
446.22	1304.39
446.426	1535.81
446.633	1537.85
446.839	1713.98
447.046	1455.94
447.252	1797.95
447.459	1711.93
447.665	1824.57
447.871	2045.75
448.078	2115.38
448.284	2019.13
448.491	2256.69
448.697	2164.53
448.903	2324.27
449.11	2338.61
449.316	2207.54
449.522	2608.94
449.728	2672.43
449.935	2723.63
450.141	2774.83
450.347	2985.77
450.553	2860.84
450.76	2987.82
450.966	3209
451.172	3225.38
451.378	3309.35
451.584	3489.57
451.791	3759.9
451.997	3903.26
452.203	3983.13
452.409	4101.91
452.615	4198.17
452.821	4161.3
453.027	4151.06
453.233	4683.53
453.44	4525.84
453.646	4830.99
453.852	5105.42
454.058	5177.09
454.264	5275.4
454.47	5654.27
454.676	5738.24
454.882	6407.92
455.088	6020.86
455.294	6434.55
455.5	6684.4
455.705	6971.11
455.911	7116.52
456.117	7356.13
456.323	7694.05
456.529	7657.18
456.735	8318.68
456.941	8427.22
457.147	8902.35
457.352	9205.45
457.558	9410.25
457.764	9848.51
457.97	10167.99
458.176	10602.16
458.381	11054.76
458.587	11488.93
458.793	11919.01
458.999	11919.01
459.204	13366.92
459.41	13844.1
459.616	13602.44
459.821	14321.27
460.027	14886.51
460.233	15773.28
460.438	15816.29
460.644	16750.17
460.85	16842.32
461.055	17538.63
461.261	18470.46
461.466	18175.55
461.672	18542.14
461.878	20487.71
462.083	20477.47
462.289	20659.74
462.494	21720.59
462.7	21769.74
462.905	22388.22
463.111	24045.03
463.316	25314.77
463.522	25759.18
463.727	26539.46
463.932	27407.8
464.138	28294.57
464.343	29365.65
464.549	29742.48
464.754	31378.81
464.959	32501.09
465.165	32992.61
465.37	32697.7
465.575	32824.67
465.781	34962.75
465.986	36183.34
466.191	35458.36
466.397	35859.76
466.602	34665.8
466.807	37041.44
467.012	37776.66
467.218	37922.07
467.423	38190.35
467.628	39507.19
467.833	41465.05
468.038	40613.1
468.244	39507.19
468.449	41886.93
468.654	41059.55
468.859	40961.25
