Data from USB4F104151__15__09-25-15-522.txt Node

Date: Wed Feb 26 09:25:15 EST 2025
User: louis
Spectrometer: USB4F10415
Trigger mode: 4
Integration Time (sec): 1.000000E-1
Scans to average: 1
Electric dark correction enabled: true
Nonlinearity correction enabled: false
Boxcar width: 0
XAxis mode: Wavelengths
Number of Pixels in Spectrum: 3648
>>>>>Begin Spectral Data<<<<<
178.204	-327.33
178.424	-327.33
178.644	-327.33
178.864	-343.72
179.084	-306.85
179.304	-22.19
179.524	-44.71
179.744	-32.43
179.964	78.16
180.184	16.73
180.404	-7.85
180.624	-16.04
180.844	16.73
181.064	-114.34
181.283	18.77
181.503	18.77
181.723	88.4
181.943	4.44
182.163	153.94
182.383	76.12
182.602	135.51
182.822	110.93
183.042	67.92
183.262	10.58
183.482	72.02
183.701	-24.23
183.921	98.64
184.141	-1.71
184.361	45.4
184.58	104.79
184.8	78.16
185.02	59.73
185.239	110.93
185.459	39.25
185.679	57.68
185.898	-28.33
186.118	104.79
186.338	82.26
186.557	133.46
186.777	-30.38
186.997	20.82
187.216	-1.71
187.436	127.32
187.655	133.46
187.875	102.74
188.095	69.97
188.314	106.84
188.534	155.99
188.753	-44.71
188.973	160.08
189.192	176.47
189.412	80.21
189.631	53.59
189.851	78.16
190.07	182.61
190.29	-22.19
190.509	12.63
190.729	102.74
190.948	86.36
191.168	250.19
191.387	100.69
191.607	35.16
191.826	117.08
192.045	2.39
192.265	117.08
192.484	143.7
192.704	72.02
192.923	35.16
193.142	164.18
193.362	94.55
193.581	80.21
193.8	53.59
194.02	145.75
194.239	18.77
194.458	125.27
194.678	76.12
194.897	119.12
195.116	76.12
195.335	82.26
195.555	37.2
195.774	8.53
195.993	100.69
196.212	76.12
196.432	33.11
196.651	35.16
196.87	-28.33
197.089	227.67
197.308	69.97
197.528	92.5
197.747	-102.06
197.966	65.88
198.185	90.45
198.404	2.39
198.623	110.93
198.842	112.98
199.062	188.75
199.281	164.18
199.5	-38.57
199.719	106.84
199.938	65.88
200.157	86.36
200.376	65.88
200.595	98.64
200.814	43.35
201.033	49.49
201.252	166.23
201.471	59.73
201.69	102.74
201.909	63.83
202.128	98.64
202.347	37.2
202.566	53.59
202.785	-52.91
203.004	10.58
203.223	260.43
203.442	139.6
203.661	10.58
203.879	76.12
204.098	127.32
204.317	6.49
204.536	119.12
204.755	98.64
204.974	57.68
205.193	2.39
205.411	209.23
205.63	94.55
205.849	110.93
206.068	49.49
206.287	63.83
206.505	117.08
206.724	26.96
206.943	35.16
207.162	-38.57
207.381	-5.8
207.599	51.54
207.818	24.92
208.037	-1.71
208.255	49.49
208.474	129.36
208.693	115.03
208.911	127.32
209.13	137.56
209.349	2.39
209.567	55.64
209.786	110.93
210.005	47.44
210.223	18.77
210.442	-69.29
210.661	55.64
210.879	112.98
211.098	125.27
211.316	43.35
211.535	129.36
211.753	53.59
211.972	100.69
212.191	41.3
212.409	35.16
212.628	59.73
212.846	20.82
213.065	84.31
213.283	119.12
213.502	86.36
213.72	29.01
213.938	55.64
214.157	69.97
214.375	115.03
214.594	4.44
214.812	65.88
215.031	45.4
215.249	127.32
215.467	18.77
215.686	106.84
215.904	86.36
216.122	102.74
216.341	131.41
216.559	45.4
216.778	186.71
216.996	127.32
217.214	88.4
217.432	4.44
217.651	12.63
217.869	86.36
218.087	39.25
218.306	22.87
218.524	39.25
218.742	14.68
218.96	78.16
219.179	47.44
219.397	57.68
219.615	215.38
219.833	98.64
220.051	41.3
220.27	78.16
220.488	125.27
220.706	39.25
220.924	45.4
221.142	14.68
221.36	133.46
221.578	41.3
221.796	29.01
222.015	67.92
222.233	47.44
222.451	94.55
222.669	4.44
222.887	106.84
223.105	65.88
223.323	4.44
223.541	115.03
223.759	117.08
223.977	18.77
224.195	151.89
224.413	110.93
224.631	131.41
224.849	74.07
225.067	45.4
225.285	84.31
225.503	43.35
225.721	-28.33
225.939	37.2
226.157	162.13
226.375	260.43
226.592	-30.38
226.81	33.11
227.028	160.08
227.246	112.98
227.464	102.74
227.682	149.84
227.9	86.36
228.117	127.32
228.335	119.12
228.553	-28.33
228.771	88.4
228.989	18.77
229.206	78.16
229.424	61.78
229.642	55.64
229.86	78.16
230.077	127.32
230.295	24.92
230.513	110.93
230.731	100.69
230.948	170.32
231.166	160.08
231.384	-7.85
231.601	24.92
231.819	123.22
232.037	65.88
232.254	12.63
232.472	112.98
232.689	-108.2
232.907	149.84
233.125	49.49
233.342	53.59
233.56	127.32
233.777	84.31
233.995	112.98
234.213	84.31
234.43	18.77
234.648	67.92
234.865	45.4
235.083	100.69
235.3	117.08
235.518	123.22
235.735	125.27
235.953	100.69
236.17	65.88
236.388	86.36
236.605	127.32
236.822	69.97
237.04	164.18
237.257	125.27
237.475	43.35
237.692	0.34
237.909	43.35
238.127	80.21
238.344	84.31
238.562	119.12
238.779	-28.33
238.996	-3.75
239.214	88.4
239.431	14.68
239.648	61.78
239.865	160.08
240.083	141.65
240.3	43.35
240.517	69.97
240.735	0.34
240.952	151.89
241.169	100.69
241.386	131.41
241.603	94.55
241.821	10.58
242.038	82.26
242.255	74.07
242.472	33.11
242.689	127.32
242.907	108.88
243.124	127.32
243.341	20.82
243.558	106.84
243.775	2.39
243.992	2.39
244.209	139.6
244.426	151.89
244.643	78.16
244.86	16.73
245.078	112.98
245.295	45.4
245.512	39.25
245.729	-1.71
245.946	80.21
246.163	31.06
246.38	72.02
246.597	65.88
246.814	65.88
247.031	82.26
247.248	129.36
247.464	108.88
247.681	57.68
247.898	78.16
248.115	51.54
248.332	12.63
248.549	155.99
248.766	176.47
248.983	125.27
249.2	102.74
249.417	86.36
249.633	92.5
249.85	45.4
250.067	-11.95
250.284	45.4
250.501	78.16
250.717	65.88
250.934	-69.29
251.151	-28.33
251.368	82.26
251.585	123.22
251.801	24.92
252.018	-11.95
252.235	102.74
252.451	-13.99
252.668	-3.75
252.885	94.55
253.102	65.88
253.318	35.16
253.535	55.64
253.752	-3.75
253.968	12.63
254.185	-13.99
254.401	69.97
254.618	145.75
254.835	-20.14
255.051	233.81
255.268	33.11
255.484	86.36
255.701	74.07
255.917	153.94
256.134	61.78
256.351	61.78
256.567	45.4
256.784	37.2
257	0.34
257.217	43.35
257.433	90.45
257.65	31.06
257.866	176.47
258.082	6.49
258.299	65.88
258.515	96.6
258.732	51.54
258.948	12.63
259.165	49.49
259.381	49.49
259.597	125.27
259.814	41.3
260.03	78.16
260.246	49.49
260.463	69.97
260.679	69.97
260.895	8.53
261.112	94.55
261.328	35.16
261.544	69.97
261.761	282.96
261.977	-30.38
262.193	-3.75
262.409	74.07
262.626	65.88
262.842	100.69
263.058	-22.19
263.274	151.89
263.49	94.55
263.707	86.36
263.923	104.79
264.139	8.53
264.355	90.45
264.571	151.89
264.787	94.55
265.004	104.79
265.22	137.56
265.436	49.49
265.652	10.58
265.868	61.78
266.084	4.44
266.3	33.11
266.516	37.2
266.732	-3.75
266.948	131.41
267.164	61.78
267.38	4.44
267.596	76.12
267.812	190.8
268.028	37.2
268.244	74.07
268.46	72.02
268.676	76.12
268.892	110.93
269.108	16.73
269.324	37.2
269.54	-40.62
269.756	100.69
269.972	-59.05
270.188	37.2
270.403	29.01
270.619	72.02
270.835	110.93
271.051	102.74
271.267	-63.15
271.483	-20.14
271.698	98.64
271.914	172.37
272.13	49.49
272.346	29.01
272.562	215.38
272.777	215.38
272.993	16.73
273.209	10.58
273.425	100.69
273.64	-63.15
273.856	158.03
274.072	-69.29
274.287	31.06
274.503	123.22
274.719	121.17
274.934	18.77
275.15	-1.71
275.366	94.55
275.581	37.2
275.797	35.16
276.012	129.36
276.228	-24.23
276.444	45.4
276.659	106.84
276.875	20.82
277.09	12.63
277.306	-11.95
277.521	135.51
277.737	65.88
277.952	168.27
278.168	84.31
278.383	53.59
278.599	108.88
278.814	123.22
279.03	29.01
279.245	174.42
279.461	61.78
279.676	86.36
279.892	-11.95
280.107	-5.8
280.322	35.16
280.538	37.2
280.753	35.16
280.969	164.18
281.184	61.78
281.399	162.13
281.615	139.6
281.83	127.32
282.045	-28.33
282.26	-30.38
282.476	94.55
282.691	74.07
282.906	80.21
283.122	45.4
283.337	84.31
283.552	147.8
283.767	41.3
283.983	135.51
284.198	145.75
284.413	131.41
284.628	-36.52
284.843	106.84
285.058	8.53
285.274	-3.75
285.489	8.53
285.704	86.36
285.919	24.92
286.134	31.06
286.349	86.36
286.564	-13.99
286.779	133.46
286.995	88.4
287.21	-52.91
287.425	151.89
287.64	4.44
287.855	20.82
288.07	-40.62
288.285	143.7
288.5	141.65
288.715	115.03
288.93	61.78
289.145	-22.19
289.36	151.89
289.575	47.44
289.79	98.64
290.004	57.68
290.219	117.08
290.434	-44.71
290.649	61.78
290.864	67.92
291.079	-20.14
291.294	84.31
291.509	59.73
291.724	31.06
291.938	92.5
292.153	76.12
292.368	39.25
292.583	45.4
292.798	119.12
293.012	82.26
293.227	162.13
293.442	57.68
293.657	98.64
293.871	127.32
294.086	192.85
294.301	237.91
294.516	102.74
294.73	47.44
294.945	2.39
295.16	-5.8
295.374	147.8
295.589	125.27
295.804	45.4
296.018	65.88
296.233	67.92
296.447	63.83
296.662	61.78
296.877	223.57
297.091	61.78
297.306	2.39
297.52	45.4
297.735	143.7
297.949	143.7
298.164	33.11
298.378	92.5
298.593	-28.33
298.807	8.53
299.022	65.88
299.236	153.94
299.451	160.08
299.665	-42.67
299.88	20.82
300.094	100.69
300.309	53.59
300.523	78.16
300.737	35.16
300.952	53.59
301.166	45.4
301.381	20.82
301.595	98.64
301.809	57.68
302.024	131.41
302.238	43.35
302.452	151.89
302.667	45.4
302.881	49.49
303.095	67.92
303.309	84.31
303.524	37.2
303.738	74.07
303.952	29.01
304.166	82.26
304.381	-22.19
304.595	164.18
304.809	12.63
305.023	82.26
305.237	33.11
305.452	55.64
305.666	110.93
305.88	104.79
306.094	98.64
306.308	43.35
306.522	164.18
306.736	-7.85
306.95	188.75
307.164	61.78
307.379	-5.8
307.593	205.14
307.807	67.92
308.021	100.69
308.235	115.03
308.449	20.82
308.663	-9.9
308.877	237.91
309.091	72.02
309.305	90.45
309.519	-87.72
309.733	131.41
309.947	2.39
310.161	76.12
310.374	205.14
310.588	160.08
310.802	0.34
311.016	41.3
311.23	-22.19
311.444	43.35
311.658	61.78
311.872	125.27
312.085	100.69
312.299	106.84
312.513	133.46
312.727	127.32
312.941	-63.15
313.154	53.59
313.368	4.44
313.582	110.93
313.796	12.63
314.009	37.2
314.223	119.12
314.437	108.88
314.651	155.99
314.864	39.25
315.078	65.88
315.292	45.4
315.505	43.35
315.719	92.5
315.933	98.64
316.146	-26.28
316.36	-42.67
316.573	131.41
316.787	57.68
317.001	53.59
317.214	-18.09
317.428	82.26
317.641	10.58
317.855	37.2
318.068	-16.04
318.282	133.46
318.495	180.56
318.709	131.41
318.922	53.59
319.136	188.75
319.349	147.8
319.563	61.78
319.776	29.01
319.99	-61.1
320.203	76.12
320.417	4.44
320.63	104.79
320.843	170.32
321.057	123.22
321.27	35.16
321.483	149.84
321.697	110.93
321.91	63.83
322.124	117.08
322.337	84.31
322.55	-13.99
322.763	76.12
322.977	31.06
323.19	-1.71
323.403	16.73
323.617	155.99
323.83	102.74
324.043	-42.67
324.256	84.31
324.469	69.97
324.683	145.75
324.896	35.16
325.109	100.69
325.322	8.53
325.535	49.49
325.748	110.93
325.962	45.4
326.175	176.47
326.388	100.69
326.601	61.78
326.814	67.92
327.027	117.08
327.24	151.89
327.453	-20.14
327.666	94.55
327.879	127.32
328.092	72.02
328.305	65.88
328.518	16.73
328.731	106.84
328.944	26.96
329.157	84.31
329.37	61.78
329.583	231.76
329.796	237.91
330.009	-83.63
330.222	8.53
330.435	162.13
330.648	57.68
330.861	53.59
331.073	49.49
331.286	135.51
331.499	119.12
331.712	-18.09
331.925	47.44
332.138	151.89
332.35	10.58
332.563	69.97
332.776	153.94
332.989	16.73
333.202	96.6
333.414	24.92
333.627	45.4
333.84	74.07
334.053	72.02
334.265	-7.85
334.478	-20.14
334.691	76.12
334.903	35.16
335.116	-22.19
335.329	2.39
335.541	69.97
335.754	231.76
335.966	10.58
336.179	33.11
336.392	72.02
336.604	90.45
336.817	119.12
337.029	78.16
337.242	74.07
337.454	131.41
337.667	26.96
337.88	63.83
338.092	119.12
338.305	76.12
338.517	35.16
338.729	110.93
338.942	231.76
339.154	-28.33
339.367	53.59
339.579	121.17
339.792	94.55
340.004	123.22
340.217	41.3
340.429	127.32
340.641	18.77
340.854	49.49
341.066	78.16
341.278	133.46
341.491	221.52
341.703	53.59
341.915	76.12
342.128	90.45
342.34	110.93
342.552	-61.1
342.764	10.58
342.977	-20.14
343.189	127.32
343.401	49.49
343.613	29.01
343.826	51.54
344.038	-24.23
344.25	69.97
344.462	18.77
344.674	84.31
344.886	2.39
345.099	110.93
345.311	100.69
345.523	57.68
345.735	-40.62
345.947	-13.99
346.159	110.93
346.371	61.78
346.583	69.97
346.795	149.84
347.007	-18.09
347.219	135.51
347.431	16.73
347.643	170.32
347.855	31.06
348.067	102.74
348.279	35.16
348.491	119.12
348.703	141.65
348.915	4.44
349.127	-28.33
349.339	45.4
349.551	-20.14
349.763	110.93
349.975	102.74
350.187	94.55
350.399	94.55
350.61	55.64
350.822	78.16
351.034	94.55
351.246	115.03
351.458	135.51
351.669	102.74
351.881	92.5
352.093	151.89
352.305	125.27
352.517	98.64
352.728	176.47
352.94	-9.9
353.152	63.83
353.363	-3.75
353.575	119.12
353.787	168.27
353.999	4.44
354.21	213.33
354.422	43.35
354.633	47.44
354.845	14.68
355.057	78.16
355.268	39.25
355.48	45.4
355.692	-61.1
355.903	-20.14
356.115	-28.33
356.326	-30.38
356.538	92.5
356.749	141.65
356.961	65.88
357.172	49.49
357.384	18.77
357.595	143.7
357.807	20.82
358.018	16.73
358.23	41.3
358.441	231.76
358.653	86.36
358.864	84.31
359.075	61.78
359.287	31.06
359.498	123.22
359.709	92.5
359.921	65.88
360.132	139.6
360.344	26.96
360.555	39.25
360.766	61.78
360.977	35.16
361.189	158.03
361.4	4.44
361.611	145.75
361.823	135.51
362.034	88.4
362.245	20.82
362.456	69.97
362.667	12.63
362.879	2.39
363.09	69.97
363.301	94.55
363.512	10.58
363.723	-11.95
363.935	12.63
364.146	141.65
364.357	90.45
364.568	45.4
364.779	26.96
364.99	127.32
365.201	20.82
365.412	90.45
365.623	-48.81
365.834	67.92
366.045	-3.75
366.256	59.73
366.467	176.47
366.678	72.02
366.889	78.16
367.1	16.73
367.311	82.26
367.522	12.63
367.733	86.36
367.944	10.58
368.155	49.49
368.366	33.11
368.577	125.27
368.788	61.78
368.999	-16.04
369.209	59.73
369.42	256.34
369.631	233.81
369.842	63.83
370.053	59.73
370.264	194.9
370.474	-7.85
370.685	31.06
370.896	29.01
371.107	162.13
371.317	84.31
371.528	108.88
371.739	110.93
371.95	80.21
372.16	35.16
372.371	14.68
372.582	61.78
372.792	102.74
373.003	74.07
373.214	112.98
373.424	102.74
373.635	45.4
373.846	139.6
374.056	29.01
374.267	96.6
374.477	106.84
374.688	-16.04
374.898	31.06
375.109	35.16
375.319	35.16
375.53	108.88
375.74	61.78
375.951	51.54
376.161	72.02
376.372	65.88
376.582	-50.86
376.793	125.27
377.003	-7.85
377.214	-42.67
377.424	53.59
377.635	35.16
377.845	72.02
378.055	125.27
378.266	-11.95
378.476	2.39
378.686	90.45
378.897	67.92
379.107	18.77
379.317	94.55
379.528	16.73
379.738	131.41
379.948	2.39
380.158	127.32
380.369	-3.75
380.579	47.44
380.789	82.26
380.999	117.08
381.21	106.84
381.42	155.99
381.63	108.88
381.84	115.03
382.05	78.16
382.261	98.64
382.471	176.47
382.681	16.73
382.891	119.12
383.101	84.31
383.311	43.35
383.521	29.01
383.731	158.03
383.941	108.88
384.151	84.31
384.361	74.07
384.571	102.74
384.781	108.88
384.991	192.85
385.201	186.71
385.411	147.8
385.621	94.55
385.831	24.92
386.041	106.84
386.251	53.59
386.461	55.64
386.671	49.49
386.881	76.12
387.091	49.49
387.301	155.99
387.511	74.07
387.72	102.74
387.93	127.32
388.14	33.11
388.35	33.11
388.56	76.12
388.769	82.26
388.979	16.73
389.189	41.3
389.399	110.93
389.609	108.88
389.818	127.32
390.028	4.44
390.238	117.08
390.447	53.59
390.657	102.74
390.867	94.55
391.076	51.54
391.286	135.51
391.496	-13.99
391.705	125.27
391.915	102.74
392.125	139.6
392.334	106.84
392.544	201.04
392.753	106.84
392.963	37.2
393.172	110.93
393.382	14.68
393.591	188.75
393.801	29.01
394.01	106.84
394.22	131.41
394.429	74.07
394.639	69.97
394.848	96.6
395.058	90.45
395.267	-5.8
395.477	151.89
395.686	117.08
395.895	186.71
396.105	229.71
396.314	172.37
396.524	129.36
396.733	-7.85
396.942	178.51
397.152	223.57
397.361	123.22
397.57	72.02
397.78	33.11
397.989	78.16
398.198	196.95
398.407	-3.75
398.617	2.39
398.826	102.74
399.035	35.16
399.244	61.78
399.453	74.07
399.663	78.16
399.872	37.2
400.081	10.58
400.29	145.75
400.499	47.44
400.708	86.36
400.917	35.16
401.127	39.25
401.336	-11.95
401.545	250.19
401.754	35.16
401.963	115.03
402.172	-71.34
402.381	-5.8
402.59	45.4
402.799	82.26
403.008	168.27
403.217	47.44
403.426	121.17
403.635	22.87
403.844	35.16
404.053	12.63
404.262	18.77
404.471	143.7
404.68	125.27
404.888	74.07
405.097	-20.14
405.306	29.01
405.515	112.98
405.724	31.06
405.933	160.08
406.142	51.54
406.35	164.18
406.559	31.06
406.768	117.08
406.977	192.85
407.185	63.83
407.394	102.74
407.603	-26.28
407.812	96.6
408.02	119.12
408.229	-1.71
408.438	112.98
408.646	39.25
408.855	-18.09
409.064	76.12
409.272	57.68
409.481	86.36
409.69	-11.95
409.898	-28.33
410.107	151.89
410.315	20.82
410.524	78.16
410.733	84.31
410.941	119.12
411.15	127.32
411.358	139.6
411.567	141.65
411.775	108.88
411.984	123.22
412.192	102.74
412.401	-38.57
412.609	248.15
412.818	151.89
413.026	143.7
413.234	108.88
413.443	29.01
413.651	29.01
413.86	4.44
414.068	184.66
414.276	178.51
414.485	49.49
414.693	158.03
414.901	239.95
415.11	127.32
415.318	2.39
415.526	20.82
415.734	143.7
415.943	61.78
416.151	135.51
416.359	86.36
416.567	176.47
416.776	131.41
416.984	106.84
417.192	166.23
417.4	135.51
417.608	178.51
417.817	18.77
418.025	129.36
418.233	166.23
418.441	41.3
418.649	8.53
418.857	37.2
419.065	135.51
419.273	-9.9
419.481	74.07
419.689	90.45
419.897	67.92
420.105	12.63
420.313	117.08
420.521	155.99
420.729	170.32
420.937	57.68
421.145	-40.62
421.353	174.42
421.561	108.88
421.769	18.77
421.977	69.97
422.185	139.6
422.393	24.92
422.601	80.21
422.809	31.06
423.017	147.8
423.224	141.65
423.432	229.71
423.64	90.45
423.848	102.74
424.056	53.59
424.263	205.14
424.471	-9.9
424.679	176.47
424.887	4.44
425.094	108.88
425.302	194.9
425.51	98.64
425.718	166.23
425.925	45.4
426.133	69.97
426.341	172.37
426.548	65.88
426.756	31.06
426.964	49.49
427.171	84.31
427.379	143.7
427.586	74.07
427.794	139.6
428.001	160.08
428.209	192.85
428.417	250.19
428.624	84.31
428.832	168.27
429.039	57.68
429.247	176.47
429.454	211.28
429.662	184.66
429.869	147.8
430.076	106.84
430.284	227.67
430.491	231.76
430.699	160.08
430.906	182.61
431.114	149.84
431.321	139.6
431.528	135.51
431.736	192.85
431.943	229.71
432.15	170.32
432.358	242
432.565	221.52
432.772	100.69
432.979	239.95
433.187	184.66
433.394	192.85
433.601	131.41
433.808	250.19
434.016	203.09
434.223	242
434.43	233.81
434.637	342.35
434.844	285.01
435.052	315.73
435.259	381.26
435.466	276.82
435.673	295.25
435.88	336.21
436.087	352.59
436.294	338.26
436.501	332.11
436.708	307.54
436.915	297.3
437.122	334.16
437.329	282.96
437.537	303.44
437.743	383.31
437.95	430.41
438.157	397.65
438.364	319.82
438.571	450.89
438.778	420.17
438.985	491.85
439.192	442.7
439.399	428.37
439.606	534.86
439.813	532.81
440.02	590.16
440.227	665.93
440.433	635.21
440.64	526.67
440.847	602.44
441.054	624.97
441.261	797
441.467	598.35
441.674	608.59
441.881	770.38
442.088	692.55
442.294	864.58
442.501	815.43
442.708	803.15
442.914	749.9
443.121	938.31
443.328	946.5
443.534	991.56
443.741	962.89
443.948	876.87
444.154	1042.76
444.361	1184.07
444.568	1102.15
444.774	1151.3
444.981	1050.95
445.187	1222.98
445.394	1231.17
445.6	1208.64
445.807	1319.23
446.013	1372.48
446.22	1345.86
446.426	1429.82
446.633	1579.33
446.839	1712.44
447.046	1483.07
447.252	1769.79
447.459	1794.36
447.665	1782.07
447.871	1978.68
448.078	2070.84
448.284	1990.97
448.491	2023.73
448.697	2132.28
448.903	2289.97
449.11	2322.74
449.316	2326.83
449.522	2584.88
449.728	2609.45
449.935	2666.8
450.141	2638.13
450.347	2865.45
450.553	2867.5
450.76	3023.14
450.966	2924.84
451.172	3205.41
451.378	3287.33
451.584	3485.98
451.791	3543.33
451.997	3809.56
452.203	3903.77
452.409	4006.17
452.615	4174.1
452.821	4010.26
453.027	4176.15
453.233	4714.77
453.44	4516.11
453.646	4747.53
453.852	4901.13
454.058	5206.28
454.264	5251.33
454.47	5574.91
454.676	5624.06
454.882	6181.11
455.088	5826.81
455.294	6174.97
455.5	6746.35
455.705	6988.01
455.911	6969.58
456.117	7239.91
456.323	7379.17
456.529	7352.55
456.735	8161.5
456.941	8485.08
457.147	8622.29
457.352	8997.07
457.558	9064.65
457.764	9750.72
457.97	10043.58
458.176	10315.96
458.381	10911.92
458.587	11272.36
458.793	11546.79
458.999	11487.4
459.204	13185.16
459.41	13521.03
459.616	13314.19
459.821	14184.57
460.027	14594.17
460.233	15226.99
460.438	15351.92
460.644	16353.37
460.85	16097.38
461.055	17027.15
461.261	17780.81
461.466	17764.42
461.672	17846.34
461.878	19937.32
462.083	19703.85
462.289	20103.2
462.494	20895.77
462.7	21127.19
462.905	21450.77
463.111	22763.51
463.316	24068.07
463.522	25065.43
463.727	25413.59
463.932	26513.34
464.138	27539.38
464.343	28370.85
464.549	28424.1
464.754	30830.46
464.959	31211.39
465.165	31932.27
465.37	31889.26
465.575	31825.78
465.781	34049.87
465.986	34572.1
466.191	34072.4
466.397	34533.19
466.602	33671
466.807	35682.1
467.012	36329.26
467.218	37078.82
467.423	37426.97
467.628	38057.74
467.833	40079.09
468.038	39370.49
468.244	38639.37
