Data from USB4F104151__14__09-25-11-723.txt Node

Date: Wed Feb 26 09:25:11 EST 2025
User: louis
Spectrometer: USB4F10415
Trigger mode: 4
Integration Time (sec): 1.000000E-1
Scans to average: 1
Electric dark correction enabled: true
Nonlinearity correction enabled: false
Boxcar width: 0
XAxis mode: Wavelengths
Number of Pixels in Spectrum: 3648
>>>>>Begin Spectral Data<<<<<
178.204	-307.54
178.424	-307.54
178.644	-307.54
178.864	-325.97
179.084	-311.63
179.304	-22.87
179.524	5.8
179.744	9.9
179.964	30.38
180.184	-12.63
180.404	-26.96
180.624	110.25
180.844	3.75
181.064	-76.12
181.283	-31.06
181.503	-22.87
181.723	32.43
181.943	-37.2
182.163	181.93
182.383	73.39
182.602	93.87
182.822	159.4
183.042	97.96
183.262	22.19
183.482	13.99
183.701	36.52
183.921	28.33
184.141	87.72
184.361	118.44
184.58	93.87
184.8	85.67
185.02	22.19
185.239	85.67
185.459	40.62
185.679	151.21
185.898	-45.4
186.118	112.3
186.338	34.47
186.557	79.53
186.777	-86.36
186.997	65.19
187.216	102.06
187.436	114.34
187.655	30.38
187.875	163.5
188.095	69.29
188.314	179.88
188.534	149.16
188.753	-16.73
188.973	140.97
189.192	143.02
189.412	11.95
189.631	67.24
189.851	116.39
190.07	171.69
190.29	-8.53
190.509	69.29
190.729	85.67
190.948	100.01
191.168	294.57
191.387	114.34
191.607	85.67
191.826	52.91
192.045	40.62
192.265	116.39
192.484	95.91
192.704	100.01
192.923	3.75
193.142	190.12
193.362	134.82
193.581	149.16
193.8	114.34
194.02	122.54
194.239	114.34
194.458	102.06
194.678	69.29
194.897	118.44
195.116	52.91
195.335	67.24
195.555	104.11
195.774	42.67
195.993	167.59
196.212	65.19
196.432	-29.01
196.651	-6.49
196.87	36.52
197.089	218.79
197.308	91.82
197.528	130.73
197.747	48.81
197.966	110.25
198.185	95.91
198.404	30.38
198.623	71.34
198.842	110.25
199.062	116.39
199.281	145.06
199.5	-6.49
199.719	34.47
199.938	118.44
200.157	59.05
200.376	161.45
200.595	93.87
200.814	67.24
201.033	11.95
201.252	108.2
201.471	112.3
201.69	77.48
201.909	114.34
202.128	116.39
202.347	100.01
202.566	34.47
202.785	-37.2
203.004	1.71
203.223	171.69
203.442	50.86
203.661	11.95
203.879	102.06
204.098	114.34
204.317	-12.63
204.536	163.5
204.755	126.63
204.974	71.34
205.193	52.91
205.411	118.44
205.63	40.62
205.849	124.58
206.068	85.67
206.287	28.33
206.505	214.7
206.724	-10.58
206.943	24.23
207.162	44.71
207.381	179.88
207.599	52.91
207.818	69.29
208.037	-37.2
208.255	102.06
208.474	165.54
208.693	85.67
208.911	-20.82
209.13	143.02
209.349	134.82
209.567	81.58
209.786	130.73
210.005	157.35
210.223	114.34
210.442	-14.68
210.661	42.67
210.879	42.67
211.098	71.34
211.316	106.15
211.535	48.81
211.753	-20.82
211.972	95.91
212.191	3.75
212.409	20.14
212.628	155.3
212.846	11.95
213.065	140.97
213.283	122.54
213.502	89.77
213.72	93.87
213.938	44.71
214.157	143.02
214.375	175.78
214.594	52.91
214.812	79.53
215.031	42.67
215.249	75.43
215.467	136.87
215.686	83.63
215.904	149.16
216.122	97.96
216.341	186.02
216.559	-22.87
216.778	118.44
216.996	161.45
217.214	71.34
217.432	28.33
217.651	13.99
217.869	44.71
218.087	34.47
218.306	57
218.524	97.96
218.742	75.43
218.96	177.83
219.179	91.82
219.397	57
219.615	304.81
219.833	136.87
220.051	-4.44
220.27	163.5
220.488	67.24
220.706	57
220.924	11.95
221.142	-4.44
221.36	155.3
221.578	93.87
221.796	42.67
222.015	73.39
222.233	81.58
222.451	169.64
222.669	75.43
222.887	102.06
223.105	40.62
223.323	30.38
223.541	1.71
223.759	42.67
223.977	-16.73
224.195	132.78
224.413	93.87
224.631	120.49
224.849	116.39
225.067	253.61
225.285	71.34
225.503	28.33
225.721	-41.3
225.939	42.67
226.157	165.54
226.375	282.28
226.592	50.86
226.81	118.44
227.028	75.43
227.246	204.46
227.464	130.73
227.682	132.78
227.9	132.78
228.117	132.78
228.335	73.39
228.553	63.15
228.771	38.57
228.989	5.8
229.206	108.2
229.424	75.43
229.642	50.86
229.86	-14.68
230.077	167.59
230.295	108.2
230.513	87.72
230.731	16.04
230.948	206.5
231.166	181.93
231.384	3.75
231.601	-53.59
231.819	169.64
232.037	-4.44
232.254	-16.73
232.472	30.38
232.689	40.62
232.907	59.05
233.125	42.67
233.342	54.95
233.56	-14.68
233.777	44.71
233.995	-18.77
234.213	112.3
234.43	188.07
234.648	63.15
234.865	13.99
235.083	77.48
235.3	73.39
235.518	159.4
235.735	173.74
235.953	155.3
236.17	83.63
236.388	97.96
236.605	79.53
236.822	61.1
237.04	118.44
237.257	100.01
237.475	69.29
237.692	128.68
237.909	124.58
238.127	44.71
238.344	18.09
238.562	122.54
238.779	32.43
238.996	13.99
239.214	91.82
239.431	120.49
239.648	24.23
239.865	57
240.083	67.24
240.3	-49.49
240.517	-12.63
240.735	65.19
240.952	116.39
241.169	163.5
241.386	143.02
241.603	44.71
241.821	89.77
242.038	63.15
242.255	134.82
242.472	97.96
242.689	106.15
242.907	126.63
243.124	36.52
243.341	36.52
243.558	122.54
243.775	-22.87
243.992	-18.77
244.209	161.45
244.426	196.26
244.643	48.81
244.86	85.67
245.078	44.71
245.295	87.72
245.512	83.63
245.729	-20.82
245.946	165.54
246.163	18.09
246.38	34.47
246.597	108.2
246.814	132.78
247.031	61.1
247.248	171.69
247.464	61.1
247.681	59.05
247.898	81.58
248.115	28.33
248.332	-4.44
248.549	161.45
248.766	269.99
248.983	44.71
249.2	110.25
249.417	110.25
249.633	-4.44
249.85	143.02
250.067	110.25
250.284	93.87
250.501	157.35
250.717	71.34
250.934	-12.63
251.151	-26.96
251.368	116.39
251.585	93.87
251.801	83.63
252.018	-33.11
252.235	149.16
252.451	-45.4
252.668	-0.34
252.885	136.87
253.102	116.39
253.318	-12.63
253.535	34.47
253.752	40.62
253.968	-26.96
254.185	-4.44
254.401	40.62
254.618	124.58
254.835	20.14
255.051	151.21
255.268	54.95
255.484	20.14
255.701	85.67
255.917	122.54
256.134	-8.53
256.351	34.47
256.567	-22.87
256.784	67.24
257	1.71
257.217	194.22
257.433	159.4
257.65	110.25
257.866	110.25
258.082	42.67
258.299	24.23
258.515	52.91
258.732	48.81
258.948	20.14
259.165	118.44
259.381	-24.92
259.597	114.34
259.814	147.11
260.03	30.38
260.246	65.19
260.463	100.01
260.679	167.59
260.895	73.39
261.112	106.15
261.328	69.29
261.544	65.19
261.761	126.63
261.977	52.91
262.193	-37.2
262.409	132.78
262.626	3.75
262.842	85.67
263.058	38.57
263.274	143.02
263.49	20.14
263.707	114.34
263.923	61.1
264.139	-33.11
264.355	22.19
264.571	149.16
264.787	91.82
265.004	155.3
265.22	52.91
265.436	44.71
265.652	147.11
265.868	75.43
266.084	9.9
266.3	52.91
266.516	-29.01
266.732	3.75
266.948	48.81
267.164	-22.87
267.38	65.19
267.596	73.39
267.812	241.32
268.028	71.34
268.244	18.09
268.46	18.09
268.676	61.1
268.892	69.29
269.108	52.91
269.324	61.1
269.54	11.95
269.756	118.44
269.972	36.52
270.188	97.96
270.403	-14.68
270.619	57
270.835	108.2
271.051	75.43
271.267	61.1
271.483	-29.01
271.698	126.63
271.914	130.73
272.13	36.52
272.346	44.71
272.562	143.02
272.777	97.96
272.993	7.85
273.209	97.96
273.425	136.87
273.64	-29.01
273.856	42.67
274.072	57
274.287	77.48
274.503	91.82
274.719	93.87
274.934	83.63
275.15	-72.02
275.366	52.91
275.581	-12.63
275.797	32.43
276.012	69.29
276.228	-6.49
276.444	100.01
276.659	177.83
276.875	24.23
277.09	120.49
277.306	22.19
277.521	173.74
277.737	52.91
277.952	79.53
278.168	40.62
278.383	1.71
278.599	143.02
278.814	126.63
279.03	28.33
279.245	190.12
279.461	36.52
279.676	89.77
279.892	32.43
280.107	65.19
280.322	-8.53
280.538	77.48
280.753	-4.44
280.969	7.85
281.184	5.8
281.399	216.74
281.615	106.15
281.83	85.67
282.045	18.09
282.26	20.14
282.476	54.95
282.691	153.26
282.906	65.19
283.122	110.25
283.337	1.71
283.552	73.39
283.767	20.14
283.983	136.87
284.198	67.24
284.413	136.87
284.628	-14.68
284.843	104.11
285.058	69.29
285.274	57
285.489	-37.2
285.704	114.34
285.919	75.43
286.134	34.47
286.349	22.19
286.564	67.24
286.779	143.02
286.995	30.38
287.21	-20.82
287.425	91.82
287.64	7.85
287.855	52.91
288.07	16.04
288.285	106.15
288.5	186.02
288.715	34.47
288.93	18.09
289.145	61.1
289.36	89.77
289.575	71.34
289.79	173.74
290.004	11.95
290.219	132.78
290.434	11.95
290.649	40.62
290.864	18.09
291.079	97.96
291.294	54.95
291.509	91.82
291.724	52.91
291.938	36.52
292.153	108.2
292.368	-14.68
292.583	97.96
292.798	102.06
293.012	91.82
293.227	34.47
293.442	75.43
293.657	163.5
293.871	130.73
294.086	81.58
294.301	147.11
294.516	97.96
294.73	-4.44
294.945	16.04
295.16	69.29
295.374	186.02
295.589	151.21
295.804	18.09
296.018	13.99
296.233	143.02
296.447	46.76
296.662	28.33
296.877	143.02
297.091	149.16
297.306	-0.34
297.52	28.33
297.735	157.35
297.949	59.05
298.164	108.2
298.378	63.15
298.593	-6.49
298.807	18.09
299.022	24.23
299.236	226.98
299.451	63.15
299.665	20.14
299.88	30.38
300.094	73.39
300.309	59.05
300.523	104.11
300.737	48.81
300.952	42.67
301.166	106.15
301.381	77.48
301.595	46.76
301.809	63.15
302.024	77.48
302.238	26.28
302.452	147.11
302.667	9.9
302.881	140.97
303.095	106.15
303.309	83.63
303.524	24.23
303.738	69.29
303.952	46.76
304.166	57
304.381	-8.53
304.595	233.13
304.809	-35.16
305.023	93.87
305.237	36.52
305.452	46.76
305.666	116.39
305.88	114.34
306.094	130.73
306.308	77.48
306.522	186.02
306.736	102.06
306.95	32.43
307.164	20.14
307.379	11.95
307.593	143.02
307.807	130.73
308.021	110.25
308.235	73.39
308.449	32.43
308.663	61.1
308.877	253.61
309.091	67.24
309.305	181.93
309.519	-22.87
309.733	128.68
309.947	-41.3
310.161	67.24
310.374	171.69
310.588	112.3
310.802	69.29
311.016	48.81
311.23	26.28
311.444	63.15
311.658	52.91
311.872	149.16
312.085	130.73
312.299	134.82
312.513	149.16
312.727	89.77
312.941	67.24
313.154	81.58
313.368	87.72
313.582	69.29
313.796	102.06
314.009	89.77
314.223	140.97
314.437	159.4
314.651	106.15
314.864	28.33
315.078	57
315.292	-4.44
315.505	116.39
315.719	93.87
315.933	149.16
316.146	77.48
316.36	-8.53
316.573	102.06
316.787	52.91
317.001	114.34
317.214	11.95
317.428	91.82
317.641	11.95
317.855	126.63
318.068	93.87
318.282	24.23
318.495	200.36
318.709	77.48
318.922	16.04
319.136	175.78
319.349	93.87
319.563	-18.77
319.776	75.43
319.99	11.95
320.203	124.58
320.417	126.63
320.63	102.06
320.843	149.16
321.057	157.35
321.27	28.33
321.483	206.5
321.697	124.58
321.91	69.29
322.124	73.39
322.337	120.49
322.55	24.23
322.763	75.43
322.977	87.72
323.19	11.95
323.403	36.52
323.617	85.67
323.83	208.55
324.043	32.43
324.256	102.06
324.469	22.19
324.683	179.88
324.896	9.9
325.109	-12.63
325.322	40.62
325.535	118.44
325.748	75.43
325.962	1.71
326.175	155.3
326.388	57
326.601	171.69
326.814	22.19
327.027	54.95
327.24	143.02
327.453	11.95
327.666	130.73
327.879	83.63
328.092	132.78
328.305	110.25
328.518	42.67
328.731	5.8
328.944	73.39
329.157	75.43
329.37	26.28
329.583	126.63
329.796	143.02
330.009	-16.73
330.222	46.76
330.435	151.21
330.648	100.01
330.861	97.96
331.073	22.19
331.286	183.98
331.499	22.19
331.712	24.23
331.925	44.71
332.138	85.67
332.35	192.17
332.563	44.71
332.776	122.54
332.989	40.62
333.202	-8.53
333.414	89.77
333.627	118.44
333.84	40.62
334.053	124.58
334.265	42.67
334.478	36.52
334.691	106.15
334.903	38.57
335.116	24.23
335.329	67.24
335.541	140.97
335.754	138.92
335.966	81.58
336.179	61.1
336.392	100.01
336.604	44.71
336.817	75.43
337.029	28.33
337.242	89.77
337.454	104.11
337.667	89.77
337.88	181.93
338.092	124.58
338.305	112.3
338.517	67.24
338.729	81.58
338.942	167.59
339.154	-16.73
339.367	-37.2
339.579	93.87
339.792	-20.82
340.004	132.78
340.217	36.52
340.429	85.67
340.641	9.9
340.854	-0.34
341.066	1.71
341.278	183.98
341.491	175.78
341.703	-29.01
341.915	34.47
342.128	110.25
342.34	75.43
342.552	34.47
342.764	-16.73
342.977	20.14
343.189	93.87
343.401	159.4
343.613	13.99
343.826	48.81
344.038	32.43
344.25	91.82
344.462	153.26
344.674	65.19
344.886	87.72
345.099	151.21
345.311	50.86
345.523	143.02
345.735	59.05
345.947	143.02
346.159	24.23
346.371	89.77
346.583	106.15
346.795	104.11
347.007	102.06
347.219	124.58
347.431	26.28
347.643	126.63
347.855	124.58
348.067	97.96
348.279	77.48
348.491	59.05
348.703	114.34
348.915	7.85
349.127	24.23
349.339	52.91
349.551	50.86
349.763	124.58
349.975	9.9
350.187	73.39
350.399	126.63
350.61	106.15
350.822	32.43
351.034	100.01
351.246	108.2
351.458	165.54
351.669	93.87
351.881	91.82
352.093	54.95
352.305	110.25
352.517	3.75
352.728	159.4
352.94	126.63
353.152	77.48
353.363	28.33
353.575	106.15
353.787	126.63
353.999	161.45
354.21	208.55
354.422	34.47
354.633	3.75
354.845	52.91
355.057	134.82
355.268	136.87
355.48	143.02
355.692	7.85
355.903	16.04
356.115	59.05
356.326	-0.34
356.538	91.82
356.749	122.54
356.961	245.41
357.172	-22.87
357.384	-18.77
357.595	222.89
357.807	71.34
358.018	65.19
358.23	46.76
358.441	208.55
358.653	75.43
358.864	132.78
359.075	-0.34
359.287	106.15
359.498	122.54
359.709	59.05
359.921	9.9
360.132	89.77
360.344	138.92
360.555	36.52
360.766	104.11
360.977	50.86
361.189	196.26
361.4	77.48
361.611	122.54
361.823	155.3
362.034	126.63
362.245	-57.68
362.456	52.91
362.667	89.77
362.879	69.29
363.09	69.29
363.301	124.58
363.512	124.58
363.723	28.33
363.935	91.82
364.146	147.11
364.357	77.48
364.568	97.96
364.779	22.19
364.99	175.78
365.201	155.3
365.412	179.88
365.623	-6.49
365.834	93.87
366.045	50.86
366.256	110.25
366.467	59.05
366.678	75.43
366.889	87.72
367.1	36.52
367.311	108.2
367.522	46.76
367.733	108.2
367.944	130.73
368.155	22.19
368.366	108.2
368.577	59.05
368.788	126.63
368.999	46.76
369.209	85.67
369.42	294.57
369.631	231.08
369.842	151.21
370.053	-14.68
370.264	159.4
370.474	63.15
370.685	91.82
370.896	69.29
371.107	212.65
371.317	149.16
371.528	75.43
371.739	75.43
371.95	83.63
372.16	46.76
372.371	-45.4
372.582	77.48
372.792	145.06
373.003	122.54
373.214	87.72
373.424	118.44
373.635	26.28
373.846	173.74
374.056	52.91
374.267	181.93
374.477	110.25
374.688	16.04
374.898	42.67
375.109	7.85
375.319	87.72
375.53	110.25
375.74	100.01
375.951	59.05
376.161	67.24
376.372	79.53
376.582	11.95
376.793	73.39
377.003	20.14
377.214	81.58
377.424	54.95
377.635	65.19
377.845	100.01
378.055	181.93
378.266	3.75
378.476	81.58
378.686	122.54
378.897	114.34
379.107	63.15
379.317	138.92
379.528	61.1
379.738	75.43
379.948	11.95
380.158	118.44
380.369	97.96
380.579	126.63
380.789	32.43
380.999	100.01
381.21	132.78
381.42	136.87
381.63	-10.58
381.84	112.3
382.05	173.74
382.261	165.54
382.471	169.64
382.681	36.52
382.891	136.87
383.101	73.39
383.311	42.67
383.521	24.23
383.731	140.97
383.941	110.25
384.151	106.15
384.361	75.43
384.571	73.39
384.781	163.5
384.991	204.46
385.201	202.41
385.411	130.73
385.621	118.44
385.831	134.82
386.041	130.73
386.251	40.62
386.461	81.58
386.671	38.57
386.881	65.19
387.091	104.11
387.301	97.96
387.511	93.87
387.72	140.97
387.93	151.21
388.14	-82.26
388.35	81.58
388.56	143.02
388.769	153.26
388.979	89.77
389.189	9.9
389.399	61.1
389.609	155.3
389.818	110.25
390.028	44.71
390.238	134.82
390.447	9.9
390.657	104.11
390.867	77.48
391.076	-53.59
391.286	52.91
391.496	73.39
391.705	38.57
391.915	102.06
392.125	65.19
392.334	42.67
392.544	59.05
392.753	124.58
392.963	50.86
393.172	77.48
393.382	-18.77
393.591	269.99
393.801	61.1
394.01	226.98
394.22	57
394.429	157.35
394.639	85.67
394.848	93.87
395.058	140.97
395.267	97.96
395.477	134.82
395.686	102.06
395.895	196.26
396.105	202.41
396.314	130.73
396.524	143.02
396.733	89.77
396.942	130.73
397.152	102.06
397.361	138.92
397.57	102.06
397.78	132.78
397.989	120.49
398.198	233.13
398.407	63.15
398.617	65.19
398.826	65.19
399.035	85.67
399.244	126.63
399.453	102.06
399.663	188.07
399.872	106.15
400.081	-12.63
400.29	120.49
400.499	63.15
400.708	241.32
400.917	61.1
401.127	93.87
401.336	69.29
401.545	124.58
401.754	183.98
401.963	77.48
402.172	106.15
402.381	32.43
402.59	16.04
402.799	77.48
403.008	110.25
403.217	77.48
403.426	85.67
403.635	13.99
403.844	30.38
404.053	32.43
404.262	126.63
404.471	220.84
404.68	171.69
404.888	89.77
405.097	59.05
405.306	159.4
405.515	126.63
405.724	52.91
405.933	122.54
406.142	93.87
406.35	147.11
406.559	108.2
406.768	108.2
406.977	294.57
407.185	126.63
407.394	147.11
407.603	-12.63
407.812	177.83
408.02	136.87
408.229	9.9
408.438	124.58
408.646	77.48
408.855	54.95
409.064	73.39
409.272	89.77
409.481	83.63
409.69	44.71
409.898	26.28
410.107	77.48
410.315	171.69
410.524	7.85
410.733	79.53
410.941	13.99
411.15	128.68
411.358	61.1
411.567	145.06
411.775	118.44
411.984	95.91
412.192	85.67
412.401	95.91
412.609	97.96
412.818	163.5
413.026	118.44
413.234	69.29
413.443	81.58
413.651	130.73
413.86	77.48
414.068	163.5
414.276	171.69
414.485	61.1
414.693	143.02
414.901	298.66
415.11	112.3
415.318	38.57
415.526	73.39
415.734	112.3
415.943	77.48
416.151	157.35
416.359	140.97
416.567	126.63
416.776	181.93
416.984	181.93
417.192	255.65
417.4	30.38
417.608	57
417.817	-12.63
418.025	108.2
418.233	198.31
418.441	-8.53
418.649	69.29
418.857	112.3
419.065	97.96
419.273	3.75
419.481	106.15
419.689	118.44
419.897	28.33
420.105	73.39
420.313	136.87
420.521	171.69
420.729	167.59
420.937	83.63
421.145	-35.16
421.353	130.73
421.561	181.93
421.769	85.67
421.977	138.92
422.185	151.21
422.393	61.1
422.601	140.97
422.809	112.3
423.017	143.02
423.224	153.26
423.432	134.82
423.64	-2.39
423.848	274.09
424.056	69.29
424.263	204.46
424.471	77.48
424.679	140.97
424.887	-16.73
425.094	169.64
425.302	132.78
425.51	83.63
425.718	229.03
425.925	83.63
426.133	122.54
426.341	231.08
426.548	116.39
426.756	48.81
426.964	186.02
427.171	30.38
427.379	126.63
427.586	65.19
427.794	140.97
428.001	231.08
428.209	149.16
428.417	136.87
428.624	163.5
428.832	136.87
429.039	212.65
429.247	91.82
429.454	183.98
429.662	241.32
429.869	208.55
430.076	140.97
430.284	163.5
430.491	261.8
430.699	274.09
430.906	229.03
431.114	196.26
431.321	249.51
431.528	220.84
431.736	173.74
431.943	145.06
432.15	239.27
432.358	183.98
432.565	267.94
432.772	75.43
432.979	306.85
433.187	200.36
433.394	290.47
433.601	231.08
433.808	241.32
434.016	341.67
434.223	237.22
434.43	278.18
434.637	233.13
434.844	325.29
435.052	353.96
435.259	300.71
435.466	382.63
435.673	384.68
435.88	343.72
436.087	360.1
436.294	493.22
436.501	310.95
436.708	417.44
436.915	345.77
437.122	446.12
437.329	366.25
437.537	356.01
437.743	523.94
437.95	478.88
438.157	487.08
438.364	612
438.571	532.13
438.778	544.42
438.985	575.14
439.192	644.77
439.399	589.47
439.606	691.87
439.813	702.11
440.02	716.45
440.227	790.17
440.433	689.82
440.64	667.3
440.847	636.58
441.054	798.37
441.261	923.29
441.467	812.7
441.674	777.89
441.881	911
442.088	827.04
442.294	945.82
442.501	962.2
442.708	1126.04
442.914	1003.16
443.121	1107.61
443.328	1083.03
443.534	1148.57
443.741	1175.19
443.948	1054.36
444.154	1379.99
444.361	1468.05
444.568	1322.65
444.774	1427.09
444.981	1310.36
445.187	1609.36
445.394	1629.84
445.6	1527.44
445.807	1705.62
446.013	1666.71
446.22	1658.51
446.426	1760.91
446.633	1978
446.839	2170.51
447.046	1904.27
447.252	2264.71
447.459	2246.28
447.665	2272.9
447.871	2303.62
448.078	2553.48
448.284	2543.24
448.491	2477.7
448.697	2772.61
448.903	2940.54
449.11	2928.25
449.316	2993.79
449.522	3214.97
449.728	3321.46
449.935	3303.03
450.141	3430.01
450.347	3794.54
450.553	3499.64
450.76	3622.52
450.966	3950.19
451.172	3864.18
451.378	4320.87
451.584	4302.44
451.791	4515.43
451.997	4720.23
452.203	4703.84
452.409	4929.12
452.615	5088.86
452.821	5021.28
453.027	5111.39
453.233	5963.34
453.44	5686.87
453.646	5924.43
453.852	6188.62
454.058	6456.9
454.264	6678.08
454.47	7142.97
454.676	7087.68
454.882	7577.14
455.088	7335.48
455.294	7650.87
455.5	8039.98
455.705	8699.43
455.911	8748.58
456.117	8914.47
456.323	9379.36
456.529	9262.62
456.735	10102.29
456.941	10223.12
457.147	10847.75
457.352	11079.17
457.558	11382.27
457.764	12152.31
457.97	12408.3
458.176	12873.19
458.381	13675.99
458.587	13809.11
458.793	14546.38
458.999	14544.33
459.204	16197.04
459.41	16895.4
459.616	16932.26
459.821	17604
460.027	18609.55
460.233	18857.35
460.438	19230.09
460.644	20403.57
460.85	20372.85
461.055	21615.97
461.261	22281.56
461.466	22256.98
461.672	22392.15
461.878	25183.53
462.083	24675.63
462.289	25105.71
462.494	26424.6
462.7	26404.12
462.905	26828.05
463.111	28574.97
463.316	30444.76
463.522	30780.63
463.727	31673.54
463.932	33117.36
464.138	34061.47
464.343	35521.68
464.549	35853.45
464.754	37934.18
464.959	39007.32
465.165	40420.42
465.37	39392.34
465.575	39844.94
465.781	42593.31
465.986	43410.45
466.191	43131.93
466.397	43088.92
466.602	42365.99
466.807	44737.54
467.012	45429.75
467.218	45931.5
467.423	46013.42
467.628	47508.44
