Data from USB4F104151__2__11-24-09-509.txt Node

Date: Wed Feb 26 11:24:09 EST 2025
User: louis
Spectrometer: USB4F10415
Trigger mode: 4
Integration Time (sec): 1.000000E-1
Scans to average: 1
Electric dark correction enabled: true
Nonlinearity correction enabled: false
Boxcar width: 0
XAxis mode: Wavelengths
Number of Pixels in Spectrum: 3648
>>>>>Begin Spectral Data<<<<<
178.204	-426.66
178.424	-426.66
178.644	-426.66
178.864	-377.51
179.084	-436.9
179.304	42.32
179.524	-19.11
179.744	27.99
179.964	17.75
180.184	-6.83
180.404	34.13
180.624	-6.83
180.844	-82.6
181.064	-17.07
181.283	32.08
181.503	-60.07
181.723	38.23
181.943	-109.22
182.163	228.69
182.383	5.46
182.602	23.89
182.822	87.38
183.042	56.66
183.262	-51.88
183.482	-39.59
183.701	66.9
183.921	50.52
184.141	-131.75
184.361	99.67
184.58	81.24
184.8	40.28
185.02	-27.31
185.239	36.18
185.459	44.37
185.679	97.62
185.898	-72.36
186.118	11.61
186.338	19.8
186.557	124.24
186.777	-80.55
186.997	5.46
187.216	50.52
187.436	197.97
187.655	75.09
187.875	107.86
188.095	9.56
188.314	169.3
188.534	177.49
188.753	32.08
188.973	50.52
189.192	128.34
189.412	11.61
189.631	91.48
189.851	1.37
190.07	128.34
190.29	-4.78
190.509	-33.45
190.729	9.56
190.948	181.59
191.168	236.88
191.387	52.56
191.607	15.7
191.826	17.75
192.045	-8.87
192.265	40.28
192.484	-6.83
192.704	-31.4
192.923	-51.88
193.142	91.48
193.362	173.39
193.581	116.05
193.8	38.23
194.02	75.09
194.239	66.9
194.458	50.52
194.678	-17.07
194.897	-45.74
195.116	46.42
195.335	23.89
195.555	58.71
195.774	-8.87
195.993	120.15
196.212	-66.22
196.432	25.94
196.651	-6.83
196.87	25.94
197.089	197.97
197.308	71
197.528	73.04
197.747	48.47
197.966	3.41
198.185	101.72
198.404	-23.21
198.623	118.1
198.842	5.46
199.062	128.34
199.281	58.71
199.5	13.65
199.719	60.76
199.938	77.14
200.157	103.76
200.376	85.33
200.595	181.59
200.814	68.95
201.033	44.37
201.252	167.25
201.471	42.32
201.69	36.18
201.909	83.28
202.128	107.86
202.347	52.56
202.566	17.75
202.785	-49.83
203.004	-51.88
203.223	302.42
203.442	27.99
203.661	-51.88
203.879	85.33
204.098	118.1
204.317	21.85
204.536	136.53
204.755	81.24
204.974	114
205.193	48.47
205.411	167.25
205.63	132.44
205.849	103.76
206.068	68.95
206.287	-55.98
206.505	165.2
206.724	11.61
206.943	32.08
207.162	-55.98
207.381	25.94
207.599	62.8
207.818	46.42
208.037	-35.5
208.255	-4.78
208.474	111.96
208.693	32.08
208.911	73.04
209.13	79.19
209.349	54.61
209.567	30.04
209.786	44.37
210.005	140.63
210.223	62.8
210.442	-82.6
210.661	58.71
210.879	48.47
211.098	-4.78
211.316	13.65
211.535	62.8
211.753	17.75
211.972	99.67
212.191	13.65
212.409	87.38
212.628	85.33
212.846	-60.07
213.065	77.14
213.283	111.96
213.502	30.04
213.72	85.33
213.938	48.47
214.157	36.18
214.375	105.81
214.594	56.66
214.812	58.71
215.031	38.23
215.249	44.37
215.467	83.28
215.686	-10.92
215.904	-0.68
216.122	89.43
216.341	134.48
216.559	97.62
216.778	120.15
216.996	105.81
217.214	5.46
217.432	68.95
217.651	-17.07
217.869	58.71
218.087	38.23
218.306	-55.98
218.524	71
218.742	46.42
218.96	91.48
219.179	77.14
219.397	64.85
219.615	179.54
219.833	154.96
220.051	46.42
220.27	116.05
220.488	75.09
220.706	99.67
220.924	-2.73
221.142	-29.35
221.36	52.56
221.578	56.66
221.796	91.48
222.015	105.81
222.233	-21.16
222.451	124.24
222.669	9.56
222.887	64.85
223.105	15.7
223.323	7.51
223.541	-27.31
223.759	23.89
223.977	11.61
224.195	181.59
224.413	27.99
224.631	40.28
224.849	-41.64
225.067	195.92
225.285	-64.17
225.503	-55.98
225.721	-47.79
225.939	54.61
226.157	-15.02
226.375	179.54
226.592	-0.68
226.81	-31.4
227.028	116.05
227.246	71
227.464	25.94
227.682	54.61
227.9	54.61
228.117	77.14
228.335	79.19
228.553	30.04
228.771	9.56
228.989	36.18
229.206	66.9
229.424	-17.07
229.642	48.47
229.86	-49.83
230.077	189.78
230.295	30.04
230.513	116.05
230.731	27.99
230.948	159.06
231.166	81.24
231.384	60.76
231.601	27.99
231.819	154.96
232.037	-60.07
232.254	5.46
232.472	60.76
232.689	-27.31
232.907	83.28
233.125	19.8
233.342	9.56
233.56	-33.45
233.777	48.47
233.995	23.89
234.213	34.13
234.43	118.1
234.648	34.13
234.865	-29.35
235.083	107.86
235.3	17.75
235.518	44.37
235.735	144.72
235.953	60.76
236.17	50.52
236.388	79.19
236.605	75.09
236.822	109.91
237.04	134.48
237.257	95.57
237.475	-66.22
237.692	75.09
237.909	124.24
238.127	17.75
238.344	73.04
238.562	85.33
238.779	-6.83
238.996	-90.79
239.214	-17.07
239.431	148.82
239.648	-33.45
239.865	23.89
240.083	54.61
240.3	23.89
240.517	-2.73
240.735	13.65
240.952	167.25
241.169	75.09
241.386	44.37
241.603	58.71
241.821	-29.35
242.038	46.42
242.255	138.58
242.472	27.99
242.689	93.52
242.907	87.38
243.124	36.18
243.341	46.42
243.558	-8.87
243.775	-49.83
243.992	-25.26
244.209	66.9
244.426	208.21
244.643	-23.21
244.86	9.56
245.078	71
245.295	68.95
245.512	-15.02
245.729	-4.78
245.946	9.56
246.163	36.18
246.38	15.7
246.597	48.47
246.814	9.56
247.031	40.28
247.248	64.85
247.464	83.28
247.681	-35.5
247.898	50.52
248.115	25.94
248.332	-4.78
248.549	79.19
248.766	185.68
248.983	163.15
249.2	105.81
249.417	124.24
249.633	93.52
249.85	68.95
250.067	52.56
250.284	25.94
250.501	68.95
250.717	36.18
250.934	7.51
251.151	73.04
251.368	-41.64
251.585	101.72
251.801	1.37
252.018	-39.59
252.235	197.97
252.451	-84.65
252.668	-2.73
252.885	99.67
253.102	3.41
253.318	85.33
253.535	30.04
253.752	-2.73
253.968	-15.02
254.185	-0.68
254.401	27.99
254.618	9.56
254.835	-25.26
255.051	140.63
255.268	64.85
255.484	95.57
255.701	-10.92
255.917	134.48
256.134	-8.87
256.351	-35.5
256.567	-10.92
256.784	-55.98
257	-39.59
257.217	83.28
257.433	95.57
257.65	23.89
257.866	177.49
258.082	-12.97
258.299	-23.21
258.515	83.28
258.732	-19.11
258.948	7.51
259.165	21.85
259.381	5.46
259.597	105.81
259.814	54.61
260.03	-4.78
260.246	19.8
260.463	142.68
260.679	101.72
260.895	56.66
261.112	64.85
261.328	-8.87
261.544	-25.26
261.761	148.82
261.977	5.46
262.193	-37.55
262.409	-10.92
262.626	58.71
262.842	50.52
263.058	-86.7
263.274	30.04
263.49	75.09
263.707	183.63
263.923	107.86
264.139	-84.65
264.355	15.7
264.571	93.52
264.787	116.05
265.004	118.1
265.22	50.52
265.436	19.8
265.652	-8.87
265.868	40.28
266.084	-25.26
266.3	75.09
266.516	-21.16
266.732	99.67
266.948	21.85
267.164	64.85
267.38	71
267.596	89.43
267.812	152.91
268.028	64.85
268.244	75.09
268.46	60.76
268.676	27.99
268.892	85.33
269.108	-39.59
269.324	3.41
269.54	-2.73
269.756	118.1
269.972	-33.45
270.188	50.52
270.403	-17.07
270.619	7.51
270.835	107.86
271.051	1.37
271.267	-55.98
271.483	50.52
271.698	130.39
271.914	89.43
272.13	124.24
272.346	3.41
272.562	-37.55
272.777	134.48
272.993	5.46
273.209	-2.73
273.425	66.9
273.64	-51.88
273.856	7.51
274.072	-23.21
274.287	-12.97
274.503	89.43
274.719	85.33
274.934	-23.21
275.15	19.8
275.366	9.56
275.581	-10.92
275.797	-29.35
276.012	50.52
276.228	-27.31
276.444	30.04
276.659	116.05
276.875	-35.5
277.09	-43.69
277.306	36.18
277.521	79.19
277.737	11.61
277.952	130.39
278.168	77.14
278.383	73.04
278.599	34.13
278.814	75.09
279.03	-17.07
279.245	171.35
279.461	118.1
279.676	97.62
279.892	-10.92
280.107	-68.27
280.322	-12.97
280.538	87.38
280.753	-53.93
280.969	79.19
281.184	-21.16
281.399	195.92
281.615	19.8
281.83	50.52
282.045	-19.11
282.26	-27.31
282.476	9.56
282.691	7.51
282.906	75.09
283.122	68.95
283.337	-78.51
283.552	95.57
283.767	46.42
283.983	130.39
284.198	64.85
284.413	77.14
284.628	-103.08
284.843	17.75
285.058	56.66
285.274	85.33
285.489	-70.31
285.704	140.63
285.919	-8.87
286.134	42.32
286.349	3.41
286.564	-25.26
286.779	128.34
286.995	32.08
287.21	-66.22
287.425	95.57
287.64	40.28
287.855	1.37
288.07	-144.04
288.285	89.43
288.5	122.2
288.715	50.52
288.93	19.8
289.145	-31.4
289.36	124.24
289.575	-4.78
289.79	99.67
290.004	15.7
290.219	93.52
290.434	-17.07
290.649	42.32
290.864	54.61
291.079	-43.69
291.294	66.9
291.509	68.95
291.724	46.42
291.938	-2.73
292.153	3.41
292.368	-15.02
292.583	101.72
292.798	75.09
293.012	79.19
293.227	62.8
293.442	58.71
293.657	91.48
293.871	128.34
294.086	40.28
294.301	118.1
294.516	202.07
294.73	52.56
294.945	-0.68
295.16	-33.45
295.374	91.48
295.589	54.61
295.804	54.61
296.018	116.05
296.233	101.72
296.447	114
296.662	83.28
296.877	101.72
297.091	56.66
297.306	3.41
297.52	64.85
297.735	97.62
297.949	-12.97
298.164	-19.11
298.378	21.85
298.593	5.46
298.807	30.04
299.022	66.9
299.236	157.01
299.451	105.81
299.665	-43.69
299.88	-33.45
300.094	103.76
300.309	-0.68
300.523	58.71
300.737	17.75
300.952	114
301.166	58.71
301.381	-41.64
301.595	27.99
301.809	75.09
302.024	15.7
302.238	-53.93
302.452	134.48
302.667	9.56
302.881	200.02
303.095	79.19
303.309	23.89
303.524	-60.07
303.738	-19.11
303.952	15.7
304.166	107.86
304.381	-121.51
304.595	126.29
304.809	-43.69
305.023	44.37
305.237	44.37
305.452	-33.45
305.666	75.09
305.88	128.34
306.094	40.28
306.308	60.76
306.522	60.76
306.736	25.94
306.95	46.42
307.164	-31.4
307.379	27.99
307.593	161.11
307.807	48.47
308.021	124.24
308.235	-10.92
308.449	-62.12
308.663	73.04
308.877	185.68
309.091	23.89
309.305	144.72
309.519	-135.85
309.733	60.76
309.947	-84.65
310.161	91.48
310.374	114
310.588	73.04
310.802	-43.69
311.016	-10.92
311.23	-12.97
311.444	-90.79
311.658	17.75
311.872	107.86
312.085	75.09
312.299	124.24
312.513	152.91
312.727	52.56
312.941	13.65
313.154	75.09
313.368	54.61
313.582	7.51
313.796	34.13
314.009	-12.97
314.223	171.35
314.437	66.9
314.651	105.81
314.864	3.41
315.078	-60.07
315.292	-10.92
315.505	3.41
315.719	42.32
315.933	73.04
316.146	50.52
316.36	-127.66
316.573	56.66
316.787	64.85
317.001	52.56
317.214	-12.97
317.428	105.81
317.641	-33.45
317.855	-86.7
318.068	48.47
318.282	36.18
318.495	87.38
318.709	140.63
318.922	15.7
319.136	154.96
319.349	128.34
319.563	83.28
319.776	122.2
319.99	-27.31
320.203	71
320.417	128.34
320.63	1.37
320.843	165.2
321.057	23.89
321.27	-8.87
321.483	132.44
321.697	83.28
321.91	25.94
322.124	62.8
322.337	150.87
322.55	27.99
322.763	101.72
322.977	15.7
323.19	21.85
323.403	-76.46
323.617	107.86
323.83	118.1
324.043	-6.83
324.256	64.85
324.469	-103.08
324.683	120.15
324.896	46.42
325.109	7.51
325.322	-60.07
325.535	64.85
325.748	77.14
325.962	27.99
326.175	68.95
326.388	-10.92
326.601	124.24
326.814	34.13
327.027	103.76
327.24	251.22
327.453	-90.79
327.666	75.09
327.879	138.58
328.092	124.24
328.305	58.71
328.518	54.61
328.731	23.89
328.944	107.86
329.157	36.18
329.37	13.65
329.583	152.91
329.796	189.78
330.009	-76.46
330.222	116.05
330.435	97.62
330.648	62.8
330.861	-8.87
331.073	124.24
331.286	103.76
331.499	-15.02
331.712	9.56
331.925	25.94
332.138	27.99
332.35	71
332.563	13.65
332.776	91.48
332.989	44.37
333.202	-39.59
333.414	-6.83
333.627	-12.97
333.84	-64.17
334.053	1.37
334.265	-84.65
334.478	-49.83
334.691	7.51
334.903	30.04
335.116	-17.07
335.329	9.56
335.541	11.61
335.754	89.43
335.966	1.37
336.179	62.8
336.392	30.04
336.604	34.13
336.817	126.29
337.029	124.24
337.242	42.32
337.454	161.11
337.667	-23.21
337.88	167.25
338.092	101.72
338.305	19.8
338.517	58.71
338.729	93.52
338.942	138.58
339.154	-45.74
339.367	-101.03
339.579	21.85
339.792	-33.45
340.004	103.76
340.217	-2.73
340.429	-25.26
340.641	-15.02
340.854	-33.45
341.066	21.85
341.278	116.05
341.491	175.44
341.703	58.71
341.915	-6.83
342.128	130.39
342.34	15.7
342.552	50.52
342.764	73.04
342.977	-6.83
343.189	32.08
343.401	83.28
343.613	-41.64
343.826	32.08
344.038	-55.98
344.25	105.81
344.462	-12.97
344.674	109.91
344.886	79.19
345.099	-0.68
345.311	73.04
345.523	27.99
345.735	-8.87
345.947	97.62
346.159	42.32
346.371	95.57
346.583	62.8
346.795	234.83
347.007	11.61
347.219	77.14
347.431	-86.7
347.643	79.19
347.855	11.61
348.067	130.39
348.279	-105.13
348.491	3.41
348.703	165.2
348.915	-105.13
349.127	-82.6
349.339	-8.87
349.551	15.7
349.763	75.09
349.975	-33.45
350.187	118.1
350.399	111.96
350.61	64.85
350.822	32.08
351.034	-8.87
351.246	154.96
351.458	109.91
351.669	64.85
351.881	111.96
352.093	40.28
352.305	99.67
352.517	68.95
352.728	42.32
352.94	120.15
353.152	83.28
353.363	-41.64
353.575	89.43
353.787	120.15
353.999	91.48
354.21	195.92
354.422	-6.83
354.633	-39.59
354.845	42.32
355.057	79.19
355.268	89.43
355.48	157.01
355.692	-15.02
355.903	87.38
356.115	-103.08
356.326	-41.64
356.538	95.57
356.749	25.94
356.961	136.53
357.172	97.62
357.384	-6.83
357.595	202.07
357.807	23.89
358.018	-27.31
358.23	-72.36
358.441	206.16
358.653	101.72
358.864	54.61
359.075	-8.87
359.287	58.71
359.498	142.68
359.709	109.91
359.921	81.24
360.132	75.09
360.344	-31.4
360.555	58.71
360.766	23.89
360.977	-0.68
361.189	167.25
361.4	-39.59
361.611	46.42
361.823	93.52
362.034	116.05
362.245	-8.87
362.456	3.41
362.667	25.94
362.879	-62.12
363.09	71
363.301	99.67
363.512	27.99
363.723	-31.4
363.935	25.94
364.146	120.15
364.357	42.32
364.568	64.85
364.779	-4.78
364.99	120.15
365.201	-8.87
365.412	87.38
365.623	85.33
365.834	79.19
366.045	91.48
366.256	71
366.467	126.29
366.678	7.51
366.889	60.76
367.1	-35.5
367.311	122.2
367.522	17.75
367.733	91.48
367.944	42.32
368.155	19.8
368.366	91.48
368.577	103.76
368.788	136.53
368.999	-78.51
369.209	54.61
369.42	234.83
369.631	200.02
369.842	128.34
370.053	-37.55
370.264	50.52
370.474	-2.73
370.685	118.1
370.896	13.65
371.107	161.11
371.317	79.19
371.528	60.76
371.739	128.34
371.95	77.14
372.16	142.68
372.371	9.56
372.582	17.75
372.792	116.05
373.003	3.41
373.214	40.28
373.424	85.33
373.635	-15.02
373.846	83.28
374.056	97.62
374.267	73.04
374.477	85.33
374.688	-47.79
374.898	23.89
375.109	101.72
375.319	54.61
375.53	107.86
375.74	81.24
375.951	75.09
376.161	118.1
376.372	161.11
376.582	32.08
376.793	32.08
377.003	-8.87
377.214	75.09
377.424	95.57
377.635	36.18
377.845	-17.07
378.055	111.96
378.266	-98.99
378.476	103.76
378.686	32.08
378.897	52.56
379.107	89.43
379.317	87.38
379.528	-17.07
379.738	144.72
379.948	5.46
380.158	173.39
380.369	11.61
380.579	77.14
380.789	44.37
380.999	111.96
381.21	101.72
381.42	148.82
381.63	-6.83
381.84	146.77
382.05	75.09
382.261	27.99
382.471	97.62
382.681	23.89
382.891	177.49
383.101	134.48
383.311	-6.83
383.521	-23.21
383.731	124.24
383.941	97.62
384.151	15.7
384.361	9.56
384.571	56.66
384.781	73.04
384.991	249.17
385.201	238.93
385.411	124.24
385.621	54.61
385.831	64.85
386.041	111.96
386.251	114
386.461	83.28
386.671	25.94
386.881	40.28
387.091	42.32
387.301	157.01
387.511	73.04
387.72	130.39
387.93	5.46
388.14	-23.21
388.35	38.23
388.56	64.85
388.769	87.38
388.979	30.04
389.189	9.56
389.399	-39.59
389.609	93.52
389.818	130.39
390.028	79.19
390.238	62.8
390.447	-4.78
390.657	81.24
390.867	-0.68
391.076	-35.5
391.286	79.19
391.496	23.89
391.705	30.04
391.915	204.11
392.125	58.71
392.334	58.71
392.544	109.91
392.753	114
392.963	-39.59
393.172	128.34
393.382	9.56
393.591	138.58
393.801	54.61
394.01	140.63
394.22	83.28
394.429	25.94
394.639	34.13
394.848	42.32
395.058	73.04
395.267	99.67
395.477	75.09
395.686	58.71
395.895	220.5
396.105	181.59
396.314	81.24
396.524	52.56
396.733	42.32
396.942	50.52
397.152	136.53
397.361	93.52
397.57	30.04
397.78	5.46
397.989	116.05
398.198	60.76
398.407	62.8
398.617	79.19
398.826	34.13
399.035	34.13
399.244	87.38
399.453	3.41
399.663	40.28
399.872	42.32
400.081	-12.97
400.29	25.94
400.499	-72.36
400.708	134.48
400.917	40.28
401.127	83.28
401.336	30.04
401.545	189.78
401.754	58.71
401.963	87.38
402.172	-19.11
402.381	19.8
402.59	-6.83
402.799	81.24
403.008	52.56
403.217	30.04
403.426	130.39
403.635	-64.17
403.844	-4.78
404.053	58.71
404.262	13.65
404.471	146.77
404.68	5.46
404.888	-19.11
405.097	64.85
405.306	81.24
405.515	-2.73
405.724	3.41
405.933	132.44
406.142	38.23
406.35	95.57
406.559	17.75
406.768	60.76
406.977	189.78
407.185	56.66
407.394	116.05
407.603	-43.69
407.812	189.78
408.02	148.82
408.229	64.85
408.438	23.89
408.646	-33.45
408.855	-33.45
409.064	103.76
409.272	-6.83
409.481	44.37
409.69	-27.31
409.898	-15.02
410.107	132.44
410.315	134.48
410.524	11.61
410.733	56.66
410.941	25.94
411.15	79.19
411.358	93.52
411.567	154.96
411.775	103.76
411.984	91.48
412.192	128.34
412.401	23.89
412.609	136.53
412.818	130.39
413.026	60.76
413.234	56.66
413.443	34.13
413.651	-17.07
413.86	32.08
414.068	152.91
414.276	187.73
414.485	-64.17
414.693	116.05
414.901	130.39
415.11	30.04
415.318	60.76
415.526	-15.02
415.734	107.86
415.943	73.04
416.151	83.28
416.359	50.52
416.567	44.37
416.776	83.28
416.984	85.33
417.192	181.59
417.4	11.61
417.608	36.18
417.817	-60.07
418.025	116.05
418.233	185.68
418.441	-58.03
418.649	-31.4
418.857	42.32
419.065	128.34
419.273	46.42
419.481	56.66
419.689	54.61
419.897	64.85
420.105	-72.36
420.313	122.2
420.521	161.11
420.729	236.88
420.937	19.8
421.145	1.37
421.353	56.66
421.561	138.58
421.769	-15.02
421.977	21.85
422.185	136.53
422.393	87.38
422.601	111.96
422.809	83.28
423.017	71
423.224	25.94
423.432	105.81
423.64	56.66
423.848	185.68
424.056	15.7
424.263	189.78
424.471	-4.78
424.679	238.93
424.887	23.89
425.094	169.3
425.302	128.34
425.51	27.99
425.718	95.57
425.925	79.19
426.133	9.56
426.341	179.54
426.548	62.8
426.756	17.75
426.964	118.1
427.171	42.32
427.379	105.81
427.586	30.04
427.794	130.39
428.001	114
428.209	95.57
428.417	136.53
428.624	132.44
428.832	40.28
429.039	132.44
429.247	126.29
429.454	185.68
429.662	204.11
429.869	99.67
430.076	103.76
430.284	85.33
430.491	191.83
430.699	116.05
430.906	265.55
431.114	19.8
431.321	185.68
431.528	204.11
431.736	52.56
431.943	111.96
432.15	169.3
432.358	159.06
432.565	275.79
432.772	3.41
432.979	253.27
433.187	111.96
433.394	152.91
433.601	93.52
433.808	275.79
434.016	224.59
434.223	167.25
434.43	173.39
434.637	109.91
434.844	300.37
435.052	167.25
435.259	255.31
435.466	228.69
435.673	200.02
435.88	245.07
436.087	286.03
436.294	378.19
436.501	318.8
436.708	275.79
436.915	290.13
437.122	390.48
437.329	240.98
437.537	339.28
437.743	267.6
437.95	478.54
438.157	329.04
438.364	316.75
438.571	349.52
438.778	443.73
438.985	384.34
439.192	374.1
439.399	384.34
439.606	431.44
439.813	484.69
440.02	517.45
440.227	589.13
440.433	523.6
440.64	499.02
440.847	374.1
441.054	572.75
441.261	722.25
441.467	621.9
441.674	542.03
441.881	705.87
442.088	591.18
442.294	742.73
442.501	779.59
442.708	783.69
442.914	681.29
443.121	699.72
443.328	871.75
443.534	965.96
443.741	875.85
443.948	853.32
444.154	990.53
444.361	1041.73
444.568	1000.77
444.774	968.01
444.981	951.62
445.187	1193.28
445.394	1140.04
445.6	1099.08
445.807	1287.49
446.013	1174.85
446.22	1264.96
446.426	1396.03
446.633	1428.8
446.839	1596.73
447.046	1350.98
447.252	1537.34
447.459	1500.48
447.665	1678.65
447.871	1680.7
448.078	1910.07
448.284	1744.19
448.491	1926.46
448.697	2043.19
448.903	2069.81
449.11	2127.16
449.316	2018.61
449.522	2303.28
449.728	2340.15
449.935	2407.73
450.141	2405.68
450.347	2628.91
450.553	2620.72
450.76	2620.72
450.966	2798.89
451.172	2911.53
451.378	3015.98
451.584	3061.03
451.791	3392.8
451.997	3390.75
452.203	3464.48
452.409	3656.99
452.615	3763.48
452.821	3638.56
453.027	3714.33
453.233	4177.17
453.44	4025.62
453.646	4154.65
453.852	4400.4
454.058	4592.91
454.264	4697.36
454.47	5102.86
454.676	5221.64
454.882	5459.2
455.088	5225.73
455.294	5473.54
455.5	5993.72
455.705	6319.35
455.911	6229.24
456.117	6427.89
456.323	6751.47
456.529	6558.96
456.735	7376.1
456.941	7460.07
457.147	7767.26
457.352	7845.09
457.558	8074.46
457.764	8729.81
457.97	8969.42
458.176	9395.4
458.381	9645.25
458.587	10101.95
458.793	10243.26
458.999	10210.49
459.204	11566.24
459.41	12090.52
459.616	11979.93
459.821	12532.89
460.027	13057.17
460.233	13599.88
460.438	13800.58
460.644	14595.19
460.85	14802.04
461.055	15285.36
461.261	15813.73
461.466	15666.28
461.672	15934.56
461.878	17783.88
462.083	17617.99
462.289	17988.67
462.494	18861.11
462.7	18781.24
462.905	18949.17
463.111	20812.82
463.316	21652.49
463.522	21838.86
463.727	22436.86
463.932	23608.3
464.138	24439.78
464.343	25283.54
464.549	25430.99
464.754	27777.97
464.959	28244.9
465.165	28369.83
465.37	28275.62
465.575	28486.56
465.781	30522.24
465.986	31009.66
466.191	30571.39
466.397	31148.92
466.602	30399.37
466.807	31978.35
467.012	32559.97
467.218	33391.45
467.423	33389.4
467.628	34413.38
467.833	36025.14
468.038	34884.42
468.244	34212.68
468.449	36354.86
468.654	35433.27
468.859	35672.88
469.064	35496.76
