Data from USB4F104151__51__11-26-51-691.txt Node

Date: Wed Feb 26 11:26:51 EST 2025
User: louis
Spectrometer: USB4F10415
Trigger mode: 4
Integration Time (sec): 1.000000E-1
Scans to average: 1
Electric dark correction enabled: true
Nonlinearity correction enabled: false
Boxcar width: 0
XAxis mode: Wavelengths
Number of Pixels in Spectrum: 3648
>>>>>Begin Spectral Data<<<<<
178.204	-395.6
178.424	-395.6
178.644	-395.6
178.864	-438.61
179.084	-467.28
179.304	38.57
179.524	-18.77
179.744	-14.68
179.964	36.52
180.184	-29.01
180.404	48.81
180.624	-0.34
180.844	26.28
181.064	-16.73
181.283	20.14
181.503	-74.07
181.723	-16.73
181.943	-86.36
182.163	196.26
182.383	-47.44
182.602	110.25
182.822	159.4
183.042	57
183.262	42.67
183.482	61.1
183.701	42.67
183.921	44.71
184.141	-84.31
184.361	67.24
184.58	83.63
184.8	97.96
185.02	-41.3
185.239	67.24
185.459	22.19
185.679	67.24
185.898	-65.88
186.118	5.8
186.338	44.71
186.557	44.71
186.777	-29.01
186.997	-39.25
187.216	5.8
187.436	175.78
187.655	9.9
187.875	77.48
188.095	16.04
188.314	73.39
188.534	75.43
188.753	-92.5
188.973	106.15
189.192	116.39
189.412	50.86
189.631	-39.25
189.851	18.09
190.07	95.91
190.29	5.8
190.509	-20.82
190.729	5.8
190.948	181.93
191.168	177.83
191.387	42.67
191.607	11.95
191.826	83.63
192.045	5.8
192.265	-4.44
192.484	73.39
192.704	116.39
192.923	-76.12
193.142	192.17
193.362	126.63
193.581	79.53
193.8	40.62
194.02	85.67
194.239	13.99
194.458	65.19
194.678	-26.96
194.897	54.95
195.116	87.72
195.335	79.53
195.555	-14.68
195.774	11.95
195.993	81.58
196.212	118.44
196.432	26.28
196.651	-26.96
196.87	81.58
197.089	237.22
197.308	13.99
197.528	30.38
197.747	-12.63
197.966	36.52
198.185	106.15
198.404	-24.92
198.623	108.2
198.842	102.06
199.062	28.33
199.281	-22.87
199.5	71.34
199.719	87.72
199.938	54.95
200.157	46.76
200.376	134.82
200.595	161.45
200.814	69.29
201.033	20.14
201.252	128.68
201.471	93.87
201.69	93.87
201.909	50.86
202.128	147.11
202.347	20.14
202.566	87.72
202.785	-80.21
203.004	-22.87
203.223	210.6
203.442	52.91
203.661	-45.4
203.879	63.15
204.098	149.16
204.317	-24.92
204.536	77.48
204.755	104.11
204.974	79.53
205.193	-2.39
205.411	216.74
205.63	118.44
205.849	89.77
206.068	-24.92
206.287	-20.82
206.505	114.34
206.724	57
206.943	-10.58
207.162	-2.39
207.381	-0.34
207.599	69.29
207.818	124.58
208.037	-119.12
208.255	48.81
208.474	79.53
208.693	44.71
208.911	18.09
209.13	143.02
209.349	91.82
209.567	50.86
209.786	28.33
210.005	132.78
210.223	-0.34
210.442	-100.69
210.661	3.75
210.879	79.53
211.098	59.05
211.316	-14.68
211.535	40.62
211.753	50.86
211.972	69.29
212.191	48.81
212.409	38.57
212.628	124.58
212.846	-49.49
213.065	-35.16
213.283	110.25
213.502	18.09
213.72	83.63
213.938	81.58
214.157	-57.68
214.375	106.15
214.594	-0.34
214.812	11.95
215.031	-22.87
215.249	-4.44
215.467	38.57
215.686	26.28
215.904	52.91
216.122	36.52
216.341	102.06
216.559	38.57
216.778	40.62
216.996	89.77
217.214	16.04
217.432	22.19
217.651	1.71
217.869	32.43
218.087	48.81
218.306	22.19
218.524	48.81
218.742	13.99
218.96	26.28
219.179	7.85
219.397	-2.39
219.615	196.26
219.833	-8.53
220.051	-24.92
220.27	75.43
220.488	97.96
220.706	77.48
220.924	22.19
221.142	34.47
221.36	67.24
221.578	1.71
221.796	63.15
222.015	108.2
222.233	71.34
222.451	130.73
222.669	20.14
222.887	67.24
223.105	-6.49
223.323	16.04
223.541	-49.49
223.759	102.06
223.977	52.91
224.195	95.91
224.413	87.72
224.631	54.95
224.849	7.85
225.067	175.78
225.285	40.62
225.503	-51.54
225.721	-155.99
225.939	44.71
226.157	-12.63
226.375	286.37
226.592	11.95
226.81	-31.06
227.028	108.2
227.246	69.29
227.464	38.57
227.682	126.63
227.9	57
228.117	50.86
228.335	69.29
228.553	95.91
228.771	9.9
228.989	-24.92
229.206	59.05
229.424	11.95
229.642	-51.54
229.86	9.9
230.077	134.82
230.295	26.28
230.513	36.52
230.731	30.38
230.948	171.69
231.166	190.12
231.384	-51.54
231.601	-90.45
231.819	138.92
232.037	-39.25
232.254	-8.53
232.472	22.19
232.689	-35.16
232.907	161.45
233.125	-43.35
233.342	3.75
233.56	-29.01
233.777	-22.87
233.995	20.14
234.213	102.06
234.43	20.14
234.648	36.52
234.865	48.81
235.083	63.15
235.3	24.23
235.518	42.67
235.735	97.96
235.953	65.19
236.17	30.38
236.388	-12.63
236.605	69.29
236.822	5.8
237.04	118.44
237.257	-18.77
237.475	-8.53
237.692	77.48
237.909	65.19
238.127	-47.44
238.344	130.73
238.562	52.91
238.779	-67.92
238.996	16.04
239.214	18.09
239.431	67.24
239.648	-14.68
239.865	52.91
240.083	81.58
240.3	-35.16
240.517	-4.44
240.735	61.1
240.952	95.91
241.169	65.19
241.386	114.34
241.603	79.53
241.821	-61.78
242.038	46.76
242.255	104.11
242.472	-18.77
242.689	26.28
242.907	75.43
243.124	155.3
243.341	52.91
243.558	16.04
243.775	-65.88
243.992	-86.36
244.209	69.29
244.426	147.11
244.643	67.24
244.86	-41.3
245.078	140.97
245.295	26.28
245.512	-14.68
245.729	20.14
245.946	61.1
246.163	38.57
246.38	24.23
246.597	110.25
246.814	11.95
247.031	42.67
247.248	22.19
247.464	65.19
247.681	26.28
247.898	104.11
248.115	87.72
248.332	-16.73
248.549	122.54
248.766	161.45
248.983	67.24
249.2	57
249.417	136.87
249.633	16.04
249.85	136.87
250.067	20.14
250.284	112.3
250.501	40.62
250.717	-4.44
250.934	-10.58
251.151	20.14
251.368	46.76
251.585	13.99
251.801	24.23
252.018	18.09
252.235	188.07
252.451	-14.68
252.668	-18.77
252.885	151.21
253.102	59.05
253.318	7.85
253.535	-57.68
253.752	-35.16
253.968	24.23
254.185	-63.83
254.401	128.68
254.618	102.06
254.835	-12.63
255.051	42.67
255.268	57
255.484	95.91
255.701	71.34
255.917	48.81
256.134	-24.92
256.351	11.95
256.567	-26.96
256.784	11.95
257	-29.01
257.217	67.24
257.433	79.53
257.65	-10.58
257.866	67.24
258.082	-22.87
258.299	-14.68
258.515	34.47
258.732	-49.49
258.948	-10.58
259.165	73.39
259.381	-20.82
259.597	85.67
259.814	65.19
260.03	11.95
260.246	-31.06
260.463	130.73
260.679	102.06
260.895	30.38
261.112	34.47
261.328	54.95
261.544	-16.73
261.761	159.4
261.977	-35.16
262.193	-22.87
262.409	108.2
262.626	67.24
262.842	75.43
263.058	-33.11
263.274	34.47
263.49	48.81
263.707	114.34
263.923	138.92
264.139	-184.66
264.355	63.15
264.571	106.15
264.787	46.76
265.004	97.96
265.22	24.23
265.436	48.81
265.652	57
265.868	28.33
266.084	-61.78
266.3	57
266.516	-72.02
266.732	85.67
266.948	18.09
267.164	-35.16
267.38	208.55
267.596	93.87
267.812	171.69
268.028	-41.3
268.244	-59.73
268.46	24.23
268.676	18.09
268.892	67.24
269.108	-41.3
269.324	-20.82
269.54	-72.02
269.756	57
269.972	-47.44
270.188	13.99
270.403	-49.49
270.619	38.57
270.835	77.48
271.051	26.28
271.267	-39.25
271.483	-6.49
271.698	44.71
271.914	93.87
272.13	16.04
272.346	9.9
272.562	16.04
272.777	18.09
272.993	-14.68
273.209	54.95
273.425	54.95
273.64	-41.3
273.856	120.49
274.072	18.09
274.287	-14.68
274.503	106.15
274.719	106.15
274.934	50.86
275.15	-80.21
275.366	81.58
275.581	-61.78
275.797	59.05
276.012	9.9
276.228	-4.44
276.444	13.99
276.659	132.78
276.875	-31.06
277.09	65.19
277.306	-41.3
277.521	24.23
277.737	38.57
277.952	59.05
278.168	44.71
278.383	-41.3
278.599	126.63
278.814	132.78
279.03	-6.49
279.245	155.3
279.461	26.28
279.676	61.1
279.892	-59.73
280.107	-69.97
280.322	18.09
280.538	100.01
280.753	-14.68
280.969	57
281.184	24.23
281.399	196.26
281.615	81.58
281.83	95.91
282.045	-45.4
282.26	-121.17
282.476	30.38
282.691	11.95
282.906	50.86
283.122	-43.35
283.337	-0.34
283.552	97.96
283.767	5.8
283.983	81.58
284.198	-57.68
284.413	-14.68
284.628	-29.01
284.843	38.57
285.058	95.91
285.274	18.09
285.489	-12.63
285.704	59.05
285.919	-74.07
286.134	28.33
286.349	36.52
286.564	-2.39
286.779	124.58
286.995	-18.77
287.21	-41.3
287.425	42.67
287.64	-10.58
287.855	52.91
288.07	-127.32
288.285	138.92
288.5	57
288.715	9.9
288.93	40.62
289.145	-14.68
289.36	67.24
289.575	5.8
289.79	196.26
290.004	73.39
290.219	40.62
290.434	-55.64
290.649	-8.53
290.864	-26.96
291.079	20.14
291.294	20.14
291.509	13.99
291.724	54.95
291.938	22.19
292.153	83.63
292.368	-8.53
292.583	83.63
292.798	69.29
293.012	44.71
293.227	93.87
293.442	-6.49
293.657	87.72
293.871	151.21
294.086	-10.58
294.301	89.77
294.516	61.1
294.73	48.81
294.945	-72.02
295.16	71.34
295.374	147.11
295.589	161.45
295.804	-10.58
296.018	-26.96
296.233	57
296.447	50.86
296.662	-41.3
296.877	114.34
297.091	85.67
297.306	20.14
297.52	-57.68
297.735	46.76
297.949	54.95
298.164	30.38
298.378	22.19
298.593	-35.16
298.807	-55.64
299.022	81.58
299.236	69.29
299.451	-0.34
299.665	-37.2
299.88	-47.44
300.094	28.33
300.309	52.91
300.523	42.67
300.737	-20.82
300.952	85.67
301.166	102.06
301.381	-131.41
301.595	-57.68
301.809	3.75
302.024	-29.01
302.238	-12.63
302.452	108.2
302.667	73.39
302.881	81.58
303.095	69.29
303.309	-29.01
303.524	-72.02
303.738	34.47
303.952	-24.92
304.166	65.19
304.381	-145.75
304.595	114.34
304.809	30.38
305.023	16.04
305.237	-33.11
305.452	54.95
305.666	-41.3
305.88	61.1
306.094	16.04
306.308	28.33
306.522	38.57
306.736	24.23
306.95	108.2
307.164	-6.49
307.379	20.14
307.593	110.25
307.807	85.67
308.021	100.01
308.235	50.86
308.449	-108.88
308.663	-63.83
308.877	229.03
309.091	71.34
309.305	69.29
309.519	-121.17
309.733	118.44
309.947	-86.36
310.161	112.3
310.374	149.16
310.588	118.44
310.802	-133.46
311.016	11.95
311.23	38.57
311.444	-61.78
311.658	20.14
311.872	147.11
312.085	95.91
312.299	181.93
312.513	91.82
312.727	-0.34
312.941	-59.73
313.154	-14.68
313.368	42.67
313.582	65.19
313.796	79.53
314.009	67.24
314.223	157.35
314.437	85.67
314.651	3.75
314.864	-10.58
315.078	-26.96
315.292	-94.55
315.505	38.57
315.719	50.86
315.933	63.15
316.146	-6.49
316.36	-31.06
316.573	108.2
316.787	1.71
317.001	16.04
317.214	-51.54
317.428	40.62
317.641	-22.87
317.855	1.71
318.068	50.86
318.282	95.91
318.495	218.79
318.709	126.63
318.922	18.09
319.136	192.17
319.349	83.63
319.563	-72.02
319.776	79.53
319.99	-29.01
320.203	52.91
320.417	36.52
320.63	73.39
320.843	192.17
321.057	34.47
321.27	-14.68
321.483	93.87
321.697	128.68
321.91	63.15
322.124	24.23
322.337	102.06
322.55	-43.35
322.763	112.3
322.977	-33.11
323.19	-31.06
323.403	42.67
323.617	65.19
323.83	65.19
324.043	-16.73
324.256	130.73
324.469	-47.44
324.683	65.19
324.896	-45.4
325.109	13.99
325.322	-90.45
325.535	116.39
325.748	81.58
325.962	30.38
326.175	120.49
326.388	9.9
326.601	124.58
326.814	-43.35
327.027	102.06
327.24	136.87
327.453	-53.59
327.666	75.43
327.879	102.06
328.092	83.63
328.305	83.63
328.518	16.04
328.731	-53.59
328.944	30.38
329.157	95.91
329.37	-45.4
329.583	161.45
329.796	130.73
330.009	-26.96
330.222	69.29
330.435	85.67
330.648	157.35
330.861	65.19
331.073	40.62
331.286	46.76
331.499	48.81
331.712	-8.53
331.925	7.85
332.138	9.9
332.35	140.97
332.563	13.99
332.776	102.06
332.989	-8.53
333.202	-12.63
333.414	36.52
333.627	-14.68
333.84	91.82
334.053	26.28
334.265	-2.39
334.478	-63.83
334.691	-18.77
334.903	-22.87
335.116	-16.73
335.329	34.47
335.541	28.33
335.754	161.45
335.966	54.95
336.179	3.75
336.392	16.04
336.604	89.77
336.817	108.2
337.029	32.43
337.242	-47.44
337.454	169.64
337.667	46.76
337.88	93.87
338.092	63.15
338.305	89.77
338.517	-35.16
338.729	18.09
338.942	147.11
339.154	-61.78
339.367	-12.63
339.579	18.09
339.792	24.23
340.004	34.47
340.217	16.04
340.429	26.28
340.641	11.95
340.854	-76.12
341.066	63.15
341.278	132.78
341.491	122.54
341.703	18.09
341.915	34.47
342.128	81.58
342.34	-29.01
342.552	-37.2
342.764	77.48
342.977	-57.68
343.189	57
343.401	-20.82
343.613	-37.2
343.826	-22.87
344.038	-61.78
344.25	30.38
344.462	-31.06
344.674	61.1
344.886	-41.3
345.099	-6.49
345.311	63.15
345.523	13.99
345.735	-98.64
345.947	97.96
346.159	32.43
346.371	26.28
346.583	-12.63
346.795	128.68
347.007	-45.4
347.219	147.11
347.431	-47.44
347.643	190.12
347.855	5.8
348.067	198.31
348.279	36.52
348.491	59.05
348.703	59.05
348.915	48.81
349.127	-35.16
349.339	-2.39
349.551	-63.83
349.763	128.68
349.975	48.81
350.187	69.29
350.399	192.17
350.61	57
350.822	-14.68
351.034	20.14
351.246	100.01
351.458	110.25
351.669	32.43
351.881	104.11
352.093	161.45
352.305	97.96
352.517	30.38
352.728	143.02
352.94	18.09
353.152	32.43
353.363	-6.49
353.575	63.15
353.787	198.31
353.999	100.01
354.21	112.3
354.422	-53.59
354.633	-88.4
354.845	32.43
355.057	52.91
355.268	106.15
355.48	36.52
355.692	-43.35
355.903	-18.77
356.115	-2.39
356.326	-98.64
356.538	171.69
356.749	87.72
356.961	93.87
357.172	22.19
357.384	-63.83
357.595	186.02
357.807	63.15
358.018	-45.4
358.23	-12.63
358.441	91.82
358.653	110.25
358.864	18.09
359.075	-51.54
359.287	75.43
359.498	132.78
359.709	65.19
359.921	-10.58
360.132	122.54
360.344	-20.82
360.555	-47.44
360.766	20.14
360.977	54.95
361.189	138.92
361.4	-29.01
361.611	130.73
361.823	81.58
362.034	83.63
362.245	-96.6
362.456	40.62
362.667	95.91
362.879	22.19
363.09	50.86
363.301	36.52
363.512	24.23
363.723	-37.2
363.935	-47.44
364.146	87.72
364.357	63.15
364.568	46.76
364.779	-51.54
364.99	155.3
365.201	1.71
365.412	79.53
365.623	-102.74
365.834	42.67
366.045	26.28
366.256	30.38
366.467	48.81
366.678	-33.11
366.889	-2.39
367.1	-22.87
367.311	69.29
367.522	11.95
367.733	54.95
367.944	24.23
368.155	3.75
368.366	77.48
368.577	61.1
368.788	85.67
368.999	-53.59
369.209	57
369.42	233.13
369.631	157.35
369.842	54.95
370.053	1.71
370.264	100.01
370.474	-24.92
370.685	36.52
370.896	-51.54
371.107	36.52
371.317	75.43
371.528	30.38
371.739	120.49
371.95	81.58
372.16	48.81
372.371	-102.74
372.582	-16.73
372.792	110.25
373.003	69.29
373.214	46.76
373.424	73.39
373.635	-33.11
373.846	97.96
374.056	7.85
374.267	-20.82
374.477	13.99
374.688	-106.84
374.898	-24.92
375.109	89.77
375.319	40.62
375.53	73.39
375.74	120.49
375.951	-31.06
376.161	13.99
376.372	104.11
376.582	26.28
376.793	71.34
377.003	-18.77
377.214	-76.12
377.424	36.52
377.635	20.14
377.845	-12.63
378.055	93.87
378.266	-92.5
378.476	28.33
378.686	91.82
378.897	28.33
379.107	20.14
379.317	52.91
379.528	20.14
379.738	67.24
379.948	-45.4
380.158	138.92
380.369	-45.4
380.579	114.34
380.789	-14.68
380.999	65.19
381.21	140.97
381.42	222.89
381.63	-49.49
381.84	93.87
382.05	46.76
382.261	122.54
382.471	145.06
382.681	-94.55
382.891	165.54
383.101	3.75
383.311	-47.44
383.521	26.28
383.731	83.63
383.941	145.06
384.151	-6.49
384.361	36.52
384.571	93.87
384.781	36.52
384.991	177.83
385.201	87.72
385.411	128.68
385.621	40.62
385.831	5.8
386.041	1.71
386.251	81.58
386.461	79.53
386.671	24.23
386.881	59.05
387.091	30.38
387.301	100.01
387.511	-33.11
387.72	40.62
387.93	118.44
388.14	-16.73
388.35	42.67
388.56	145.06
388.769	85.67
388.979	52.91
389.189	7.85
389.399	-4.44
389.609	91.82
389.818	40.62
390.028	13.99
390.238	38.57
390.447	16.04
390.657	108.2
390.867	3.75
391.076	-88.4
391.286	11.95
391.496	-61.78
391.705	-0.34
391.915	79.53
392.125	97.96
392.334	1.71
392.544	138.92
392.753	77.48
392.963	-14.68
393.172	38.57
393.382	-8.53
393.591	157.35
393.801	-6.49
394.01	145.06
394.22	75.43
394.429	75.43
394.639	26.28
394.848	44.71
395.058	5.8
395.267	-110.93
395.477	97.96
395.686	61.1
395.895	147.11
396.105	233.13
396.314	13.99
396.524	40.62
396.733	40.62
396.942	198.31
397.152	87.72
397.361	145.06
397.57	48.81
397.78	44.71
397.989	-2.39
398.198	229.03
398.407	7.85
398.617	95.91
398.826	-24.92
399.035	40.62
399.244	124.58
399.453	65.19
399.663	-14.68
399.872	83.63
400.081	-61.78
400.29	110.25
400.499	-55.64
400.708	24.23
400.917	3.75
401.127	-8.53
401.336	22.19
401.545	216.74
401.754	77.48
401.963	59.05
402.172	-53.59
402.381	-45.4
402.59	48.81
402.799	54.95
403.008	120.49
403.217	79.53
403.426	38.57
403.635	-22.87
403.844	36.52
404.053	-22.87
404.262	-26.96
404.471	132.78
404.68	50.86
404.888	36.52
405.097	38.57
405.306	-6.49
405.515	97.96
405.724	13.99
405.933	130.73
406.142	71.34
406.35	124.58
406.559	54.95
406.768	-12.63
406.977	161.45
407.185	50.86
407.394	7.85
407.603	-106.84
407.812	-10.58
408.02	59.05
408.229	36.52
408.438	136.87
408.646	-16.73
408.855	42.67
409.064	16.04
409.272	22.19
409.481	73.39
409.69	1.71
409.898	-22.87
410.107	140.97
410.315	130.73
410.524	-14.68
410.733	87.72
410.941	34.47
411.15	69.29
411.358	36.52
411.567	100.01
411.775	9.9
411.984	44.71
412.192	122.54
412.401	9.9
412.609	151.21
412.818	132.78
413.026	136.87
413.234	-18.77
413.443	36.52
413.651	91.82
413.86	-37.2
414.068	67.24
414.276	108.2
414.485	20.14
414.693	200.36
414.901	145.06
415.11	85.67
415.318	28.33
415.526	57
415.734	75.43
415.943	32.43
416.151	83.63
416.359	36.52
416.567	69.29
416.776	169.64
416.984	59.05
417.192	69.29
417.4	69.29
417.608	-51.54
417.817	-63.83
418.025	20.14
418.233	140.97
418.441	-43.35
418.649	-6.49
418.857	13.99
419.065	192.17
419.273	26.28
419.481	77.48
419.689	32.43
419.897	7.85
420.105	-47.44
420.313	143.02
420.521	134.82
420.729	183.98
420.937	11.95
421.145	-45.4
421.353	126.63
421.561	155.3
421.769	134.82
421.977	-6.49
422.185	85.67
422.393	-14.68
422.601	59.05
422.809	126.63
423.017	32.43
423.224	106.15
423.432	110.25
423.64	24.23
423.848	118.44
424.056	44.71
424.263	120.49
424.471	36.52
424.679	122.54
424.887	-18.77
425.094	143.02
425.302	67.24
425.51	11.95
425.718	102.06
425.925	79.53
426.133	7.85
426.341	263.85
426.548	-47.44
426.756	44.71
426.964	87.72
427.171	-14.68
427.379	87.72
427.586	89.77
427.794	104.11
428.001	130.73
428.209	44.71
428.417	171.69
428.624	93.87
428.832	44.71
429.039	61.1
429.247	102.06
429.454	71.34
429.662	145.06
429.869	122.54
430.076	97.96
430.284	97.96
430.491	186.02
430.699	165.54
430.906	179.88
431.114	65.19
431.321	50.86
431.528	54.95
431.736	97.96
431.943	100.01
432.15	85.67
432.358	114.34
432.565	161.45
432.772	-20.82
432.979	93.87
433.187	40.62
433.394	124.58
433.601	132.78
433.808	204.46
434.016	200.36
434.223	44.71
434.43	106.15
434.637	190.12
434.844	147.11
435.052	102.06
435.259	239.27
435.466	222.89
435.673	136.87
435.88	220.84
436.087	231.08
436.294	325.29
436.501	224.94
436.708	95.91
436.915	222.89
437.122	153.26
437.329	118.44
437.537	226.98
437.743	196.26
437.95	292.52
438.157	296.61
438.364	243.37
438.571	190.12
438.778	274.09
438.985	372.39
439.192	392.87
439.399	294.57
439.606	364.2
439.813	407.2
440.02	452.26
440.227	513.7
440.433	405.16
440.64	339.62
440.847	327.33
441.054	370.34
441.261	566.95
441.467	401.06
441.674	444.07
441.881	474.79
442.088	401.06
442.294	575.14
442.501	566.95
442.708	546.47
442.914	491.17
443.121	622.24
443.328	558.75
443.534	525.99
443.741	540.32
443.948	548.51
444.154	605.86
444.361	794.27
444.568	718.5
444.774	609.95
444.981	575.14
445.187	820.89
445.394	657.06
445.6	749.22
445.807	806.56
446.013	767.65
446.22	839.33
446.426	884.38
446.633	964.25
446.839	1130.14
447.046	949.92
447.252	1093.27
447.459	986.78
447.665	1040.03
447.871	1162.9
448.078	1298.07
448.284	1242.78
448.491	1265.3
448.697	1392.28
448.903	1423
449.11	1451.67
449.316	1359.51
449.522	1595.03
449.728	1640.08
449.935	1687.18
450.141	1654.42
450.347	1822.35
450.553	1799.82
450.76	1773.2
450.966	2000.52
451.172	1961.61
451.378	2025.1
451.584	2107.02
451.791	2320.01
451.997	2358.92
452.203	2156.17
452.409	2467.46
452.615	2629.25
452.821	2369.16
453.027	2475.65
453.233	2905.73
453.44	2700.93
453.646	2903.68
453.852	3120.76
454.058	3010.17
454.264	3196.54
454.47	3315.32
454.676	3425.91
454.882	3909.23
455.088	3516.02
455.294	3890.8
455.5	4191.85
455.705	4324.97
455.911	4304.49
456.117	4540.01
456.323	4648.55
456.529	4497
456.735	5058.14
456.941	5080.67
457.147	5213.79
457.352	5461.59
457.558	5639.76
457.764	6084.17
457.97	6006.35
458.176	6291.02
458.381	6692.42
458.587	6661.7
458.793	7112.25
458.999	7085.63
459.204	7749.17
459.41	8455.72
459.616	8130.09
459.821	8744.49
460.027	9020.96
460.233	9514.52
460.438	9383.45
460.644	9772.57
460.85	9924.12
461.055	10475.02
461.261	11048.45
461.466	10677.77
461.672	10987.01
461.878	12416.49
462.083	11978.23
462.289	12406.25
462.494	12627.43
462.7	13106.66
462.905	13020.64
463.111	14163.41
463.316	14863.82
463.522	15140.29
463.727	15588.8
463.932	16356.79
464.138	16698.8
464.343	17501.6
464.549	17599.9
464.754	18812.3
464.959	19432.83
465.165	19713.41
465.37	19404.16
465.575	19631.49
465.781	20800.88
465.986	21394.79
466.191	21120.36
466.397	21300.58
466.602	20874.6
466.807	21904.73
467.012	22490.45
467.218	23160.14
467.423	22895.95
467.628	23579.97
467.833	24945.97
468.038	24464.69
468.244	24046.91
468.449	25451.81
468.654	24806.7
468.859	24749.36
