Data from USB4F104151__19__10-23-34-747.txt Node

Date: Wed Feb 26 10:23:34 EST 2025
User: louis
Spectrometer: USB4F10415
Trigger mode: 4
Integration Time (sec): 1.000000E-1
Scans to average: 1
Electric dark correction enabled: true
Nonlinearity correction enabled: false
Boxcar width: 0
XAxis mode: Wavelengths
Number of Pixels in Spectrum: 3648
>>>>>Begin Spectral Data<<<<<
178.204	-313.51
178.424	-313.51
178.644	-313.51
178.864	-411.81
179.084	-391.33
179.304	26.45
179.524	1.88
179.744	24.4
179.964	3.93
180.184	36.69
180.404	22.36
180.624	16.21
180.844	32.6
181.064	-71.85
181.283	-39.08
181.503	-104.62
181.723	51.03
181.943	-104.62
182.163	206.67
182.383	-63.66
182.602	132.95
182.822	192.34
183.042	20.31
183.262	-96.43
183.482	8.02
183.701	87.89
183.921	71.51
184.141	-26.79
184.361	165.71
184.58	87.89
184.8	38.74
185.02	-43.18
185.239	77.65
185.459	108.37
185.679	206.67
185.898	-61.61
186.118	34.64
186.338	98.13
186.557	106.32
186.777	-59.56
186.997	32.6
187.216	59.22
187.436	218.96
187.655	3.93
187.875	57.17
188.095	-6.31
188.314	132.95
188.534	153.43
188.753	-41.13
188.973	196.43
189.192	110.42
189.412	10.07
189.631	3.93
189.851	40.79
190.07	161.62
190.29	-22.7
190.509	18.26
190.729	53.08
190.948	77.65
191.168	192.34
191.387	87.89
191.607	57.17
191.826	83.8
192.045	57.17
192.265	61.27
192.484	75.6
192.704	73.56
192.923	5.97
193.142	145.24
193.362	57.17
193.581	122.71
193.8	73.56
194.02	100.18
194.239	63.32
194.458	8.02
194.678	57.17
194.897	-10.41
195.116	118.61
195.335	-53.42
195.555	57.17
195.774	-47.27
195.993	96.08
196.212	42.84
196.432	77.65
196.651	-16.55
196.87	75.6
197.089	180.05
197.308	5.97
197.528	128.85
197.747	-71.85
197.966	53.08
198.185	108.37
198.404	55.12
198.623	212.82
198.842	188.24
199.062	36.69
199.281	128.85
199.5	91.99
199.719	91.99
199.938	135
200.157	108.37
200.376	202.58
200.595	169.81
200.814	59.22
201.033	34.64
201.252	186.19
201.471	38.74
201.69	38.74
201.909	63.32
202.128	36.69
202.347	130.9
202.566	-69.8
202.785	-82.09
203.004	-8.36
203.223	229.2
203.442	-2.22
203.661	-20.65
203.879	63.32
204.098	89.94
204.317	-28.84
204.536	116.56
204.755	83.8
204.974	137.04
205.193	-45.23
205.411	81.75
205.63	132.95
205.849	85.84
206.068	18.26
206.287	-45.23
206.505	135
206.724	94.04
206.943	12.12
207.162	-73.9
207.381	135
207.599	53.08
207.818	87.89
208.037	-61.61
208.255	-57.51
208.474	126.8
208.693	94.04
208.911	-34.99
209.13	118.61
209.349	10.07
209.567	75.6
209.786	96.08
210.005	71.51
210.223	71.51
210.442	-82.09
210.661	-22.7
210.879	83.8
211.098	91.99
211.316	112.47
211.535	85.84
211.753	85.84
211.972	98.13
212.191	16.21
212.409	-61.61
212.628	46.93
212.846	-22.7
213.065	48.98
213.283	85.84
213.502	-20.65
213.72	46.93
213.938	110.42
214.157	22.36
214.375	67.41
214.594	-2.22
214.812	98.13
215.031	14.17
215.249	94.04
215.467	26.45
215.686	57.17
215.904	110.42
216.122	-6.31
216.341	137.04
216.559	-14.51
216.778	114.52
216.996	151.38
217.214	34.64
217.432	-0.17
217.651	-75.95
217.869	12.12
218.087	-2.22
218.306	44.88
218.524	10.07
218.742	-14.51
218.96	106.32
219.179	-30.89
219.397	14.17
219.615	175.95
219.833	63.32
220.051	-57.51
220.27	69.46
220.488	57.17
220.706	53.08
220.924	1.88
221.142	-18.6
221.36	73.56
221.578	44.88
221.796	12.12
222.015	53.08
222.233	14.17
222.451	171.86
222.669	-100.52
222.887	18.26
223.105	20.31
223.323	67.41
223.541	-12.46
223.759	98.13
223.977	-22.7
224.195	79.7
224.413	149.33
224.631	48.98
224.849	98.13
225.067	171.86
225.285	-28.84
225.503	73.56
225.721	-53.42
225.939	24.4
226.157	34.64
226.375	233.3
226.592	75.6
226.81	42.84
227.028	85.84
227.246	171.86
227.464	46.93
227.682	55.12
227.9	85.84
228.117	46.93
228.335	34.64
228.553	79.7
228.771	-59.56
228.989	108.37
229.206	18.26
229.424	118.61
229.642	34.64
229.86	-37.03
230.077	153.43
230.295	14.17
230.513	98.13
230.731	100.18
230.948	102.23
231.166	110.42
231.384	42.84
231.601	-14.51
231.819	163.67
232.037	-71.85
232.254	-47.27
232.472	14.17
232.689	-86.19
232.907	102.23
233.125	-53.42
233.342	32.6
233.56	22.36
233.777	63.32
233.995	57.17
234.213	96.08
234.43	124.76
234.648	-32.94
234.865	32.6
235.083	10.07
235.3	73.56
235.518	159.57
235.735	122.71
235.953	98.13
236.17	1.88
236.388	53.08
236.605	94.04
236.822	94.04
237.04	65.36
237.257	24.4
237.475	53.08
237.692	20.31
237.909	69.46
238.127	42.84
238.344	18.26
238.562	32.6
238.779	12.12
238.996	-12.46
239.214	40.79
239.431	79.7
239.648	8.02
239.865	96.08
240.083	48.98
240.3	-43.18
240.517	32.6
240.735	1.88
240.952	135
241.169	42.84
241.386	104.28
241.603	104.28
241.821	-34.99
242.038	16.21
242.255	81.75
242.472	-80.04
242.689	36.69
242.907	67.41
243.124	59.22
243.341	59.22
243.558	-110.76
243.775	-112.81
243.992	-53.42
244.209	110.42
244.426	241.49
244.643	10.07
244.86	-47.27
245.078	89.94
245.295	40.79
245.512	57.17
245.729	53.08
245.946	24.4
246.163	8.02
246.38	-73.9
246.597	151.38
246.814	79.7
247.031	59.22
247.248	57.17
247.464	96.08
247.681	10.07
247.898	120.66
248.115	151.38
248.332	63.32
248.549	178
248.766	161.62
248.983	48.98
249.2	44.88
249.417	77.65
249.633	24.4
249.85	91.99
250.067	-20.65
250.284	71.51
250.501	114.52
250.717	63.32
250.934	-80.04
251.151	-6.31
251.368	81.75
251.585	28.5
251.801	53.08
252.018	-24.75
252.235	69.46
252.451	-37.03
252.668	30.55
252.885	118.61
253.102	61.27
253.318	-20.65
253.535	48.98
253.752	-41.13
253.968	-84.14
254.185	-51.37
254.401	36.69
254.618	48.98
254.835	18.26
255.051	218.96
255.268	118.61
255.484	36.69
255.701	24.4
255.917	26.45
256.134	-39.08
256.351	44.88
256.567	-34.99
256.784	42.84
257	-61.61
257.217	91.99
257.433	163.67
257.65	36.69
257.866	173.91
258.082	-67.75
258.299	28.5
258.515	79.7
258.732	44.88
258.948	-16.55
259.165	79.7
259.381	-12.46
259.597	75.6
259.814	34.64
260.03	-39.08
260.246	-39.08
260.463	34.64
260.679	186.19
260.895	40.79
261.112	-8.36
261.328	69.46
261.544	48.98
261.761	147.28
261.977	12.12
262.193	-37.03
262.409	137.04
262.626	30.55
262.842	51.03
263.058	1.88
263.274	28.5
263.49	71.51
263.707	1.88
263.923	104.28
264.139	-104.62
264.355	-67.75
264.571	135
264.787	141.14
265.004	102.23
265.22	-0.17
265.436	-37.03
265.652	18.26
265.868	71.51
266.084	-16.55
266.3	48.98
266.516	-65.71
266.732	89.94
266.948	85.84
267.164	-45.23
267.38	71.51
267.596	81.75
267.812	225.11
268.028	-20.65
268.244	32.6
268.46	112.47
268.676	30.55
268.892	48.98
269.108	12.12
269.324	-6.31
269.54	-14.51
269.756	116.56
269.972	1.88
270.188	100.18
270.403	-57.51
270.619	40.79
270.835	145.24
271.051	81.75
271.267	5.97
271.483	69.46
271.698	79.7
271.914	81.75
272.13	-49.32
272.346	-8.36
272.562	20.31
272.777	-14.51
272.993	-20.65
273.209	10.07
273.425	73.56
273.64	-14.51
273.856	44.88
274.072	-45.23
274.287	-41.13
274.503	120.66
274.719	67.41
274.934	65.36
275.15	-47.27
275.366	-10.41
275.581	-12.46
275.797	67.41
276.012	87.89
276.228	14.17
276.444	83.8
276.659	77.65
276.875	-49.32
277.09	-10.41
277.306	-47.27
277.521	38.74
277.737	18.26
277.952	67.41
278.168	1.88
278.383	81.75
278.599	153.43
278.814	145.24
279.03	85.84
279.245	112.47
279.461	55.12
279.676	22.36
279.892	69.46
280.107	-98.47
280.322	36.69
280.538	32.6
280.753	-10.41
280.969	83.8
281.184	53.08
281.399	114.52
281.615	75.6
281.83	61.27
282.045	-59.56
282.26	-12.46
282.476	65.36
282.691	128.85
282.906	106.32
283.122	34.64
283.337	65.36
283.552	85.84
283.767	51.03
283.983	79.7
284.198	24.4
284.413	85.84
284.628	-65.71
284.843	-4.27
285.058	120.66
285.274	102.23
285.489	3.93
285.704	32.6
285.919	18.26
286.134	24.4
286.349	14.17
286.564	16.21
286.779	153.43
286.995	59.22
287.21	-20.65
287.425	53.08
287.64	-86.19
287.855	81.75
288.07	-39.08
288.285	118.61
288.5	173.91
288.715	114.52
288.93	87.89
289.145	36.69
289.36	102.23
289.575	46.93
289.79	102.23
290.004	42.84
290.219	126.8
290.434	48.98
290.649	-2.22
290.864	-30.89
291.079	73.56
291.294	67.41
291.509	116.56
291.724	-8.36
291.938	-22.7
292.153	-8.36
292.368	1.88
292.583	48.98
292.798	77.65
293.012	77.65
293.227	73.56
293.442	36.69
293.657	87.89
293.871	89.94
294.086	102.23
294.301	116.56
294.516	100.18
294.73	8.02
294.945	22.36
295.16	65.36
295.374	108.37
295.589	96.08
295.804	30.55
296.018	40.79
296.233	124.76
296.447	75.6
296.662	24.4
296.877	116.56
297.091	71.51
297.306	55.12
297.52	94.04
297.735	-20.65
297.949	14.17
298.164	85.84
298.378	48.98
298.593	-28.84
298.807	-137.38
299.022	18.26
299.236	81.75
299.451	-0.17
299.665	46.93
299.88	59.22
300.094	57.17
300.309	22.36
300.523	81.75
300.737	14.17
300.952	153.43
301.166	102.23
301.381	-41.13
301.595	20.31
301.809	85.84
302.024	53.08
302.238	-71.85
302.452	69.46
302.667	96.08
302.881	227.15
303.095	69.46
303.309	30.55
303.524	30.55
303.738	87.89
303.952	-39.08
304.166	26.45
304.381	-77.99
304.595	79.7
304.809	-6.31
305.023	94.04
305.237	-0.17
305.452	24.4
305.666	85.84
305.88	143.19
306.094	89.94
306.308	51.03
306.522	61.27
306.736	118.61
306.95	63.32
307.164	63.32
307.379	-0.17
307.593	139.09
307.807	178
308.021	75.6
308.235	79.7
308.449	-30.89
308.663	1.88
308.877	261.97
309.091	44.88
309.305	51.03
309.519	-131.24
309.733	63.32
309.947	-106.67
310.161	98.13
310.374	159.57
310.588	126.8
310.802	-28.84
311.016	20.31
311.23	57.17
311.444	-98.47
311.658	10.07
311.872	94.04
312.085	116.56
312.299	67.41
312.513	108.37
312.727	55.12
312.941	-20.65
313.154	63.32
313.368	96.08
313.582	44.88
313.796	63.32
314.009	75.6
314.223	75.6
314.437	10.07
314.651	96.08
314.864	3.93
315.078	65.36
315.292	-43.18
315.505	-14.51
315.719	16.21
315.933	59.22
316.146	-0.17
316.36	-16.55
316.573	114.52
316.787	91.99
317.001	44.88
317.214	-65.71
317.428	-37.03
317.641	-32.94
317.855	-12.46
318.068	-16.55
318.282	77.65
318.495	218.96
318.709	149.33
318.922	44.88
319.136	124.76
319.349	124.76
319.563	-16.55
319.776	75.6
319.99	-41.13
320.203	71.51
320.417	55.12
320.63	132.95
320.843	202.58
321.057	79.7
321.27	24.4
321.483	67.41
321.697	87.89
321.91	71.51
322.124	87.89
322.337	77.65
322.55	-4.27
322.763	32.6
322.977	36.69
323.19	-2.22
323.403	75.6
323.617	94.04
323.83	157.52
324.043	5.97
324.256	20.31
324.469	-59.56
324.683	126.8
324.896	-16.55
325.109	48.98
325.322	-131.24
325.535	28.5
325.748	147.28
325.962	18.26
326.175	-22.7
326.388	79.7
326.601	137.04
326.814	-8.36
327.027	38.74
327.24	83.8
327.453	-59.56
327.666	87.89
327.879	159.57
328.092	75.6
328.305	118.61
328.518	-4.27
328.731	-14.51
328.944	10.07
329.157	100.18
329.37	-47.27
329.583	128.85
329.796	135
330.009	48.98
330.222	73.56
330.435	81.75
330.648	14.17
330.861	63.32
331.073	-14.51
331.286	75.6
331.499	26.45
331.712	-57.51
331.925	24.4
332.138	36.69
332.35	100.18
332.563	1.88
332.776	124.76
332.989	-0.17
333.202	36.69
333.414	48.98
333.627	-49.32
333.84	42.84
334.053	59.22
334.265	-47.27
334.478	30.55
334.691	100.18
334.903	20.31
335.116	42.84
335.329	12.12
335.541	96.08
335.754	135
335.966	-51.37
336.179	63.32
336.392	75.6
336.604	79.7
336.817	53.08
337.029	42.84
337.242	22.36
337.454	18.26
337.667	-22.7
337.88	126.8
338.092	59.22
338.305	91.99
338.517	28.5
338.729	135
338.942	91.99
339.154	-34.99
339.367	-84.14
339.579	104.28
339.792	-53.42
340.004	71.51
340.217	75.6
340.429	10.07
340.641	1.88
340.854	1.88
341.066	32.6
341.278	85.84
341.491	65.36
341.703	57.17
341.915	24.4
342.128	100.18
342.34	120.66
342.552	5.97
342.764	42.84
342.977	83.8
343.189	85.84
343.401	65.36
343.613	-61.61
343.826	104.28
344.038	-51.37
344.25	22.36
344.462	36.69
344.674	42.84
344.886	53.08
345.099	77.65
345.311	169.81
345.523	14.17
345.735	-26.79
345.947	20.31
346.159	79.7
346.371	75.6
346.583	28.5
346.795	212.82
347.007	-18.6
347.219	28.5
347.431	-4.27
347.643	89.94
347.855	32.6
348.067	65.36
348.279	-18.6
348.491	42.84
348.703	34.64
348.915	81.75
349.127	-24.75
349.339	36.69
349.551	-24.75
349.763	67.41
349.975	30.55
350.187	79.7
350.399	98.13
350.61	69.46
350.822	77.65
351.034	48.98
351.246	106.32
351.458	10.07
351.669	139.09
351.881	34.64
352.093	167.76
352.305	143.19
352.517	87.89
352.728	161.62
352.94	12.12
353.152	69.46
353.363	14.17
353.575	51.03
353.787	110.42
353.999	51.03
354.21	223.06
354.422	-67.75
354.633	3.93
354.845	36.69
355.057	-8.36
355.268	73.56
355.48	65.36
355.692	-4.27
355.903	38.74
356.115	-6.31
356.326	-67.75
356.538	151.38
356.749	65.36
356.961	114.52
357.172	20.31
357.384	3.93
357.595	188.24
357.807	38.74
358.018	-65.71
358.23	40.79
358.441	77.65
358.653	16.21
358.864	14.17
359.075	-12.46
359.287	-16.55
359.498	85.84
359.709	34.64
359.921	44.88
360.132	32.6
360.344	32.6
360.555	-28.84
360.766	91.99
360.977	-14.51
361.189	75.6
361.4	44.88
361.611	73.56
361.823	153.43
362.034	114.52
362.245	-43.18
362.456	51.03
362.667	102.23
362.879	-4.27
363.09	96.08
363.301	120.66
363.512	8.02
363.723	36.69
363.935	63.32
364.146	91.99
364.357	20.31
364.568	32.6
364.779	-90.28
364.99	28.5
365.201	32.6
365.412	116.56
365.623	-125.1
365.834	108.37
366.045	20.31
366.256	94.04
366.467	106.32
366.678	112.47
366.889	42.84
367.1	-2.22
367.311	40.79
367.522	3.93
367.733	-39.08
367.944	143.19
368.155	51.03
368.366	63.32
368.577	46.93
368.788	126.8
368.999	-30.89
369.209	63.32
369.42	196.43
369.631	210.77
369.842	120.66
370.053	-8.36
370.264	16.21
370.474	-51.37
370.685	116.56
370.896	42.84
371.107	178
371.317	87.89
371.528	16.21
371.739	184.15
371.95	112.47
372.16	65.36
372.371	-28.84
372.582	-67.75
372.792	79.7
373.003	55.12
373.214	30.55
373.424	79.7
373.635	-96.43
373.846	104.28
374.056	28.5
374.267	55.12
374.477	57.17
374.688	-0.17
374.898	26.45
375.109	-12.46
375.319	141.14
375.53	85.84
375.74	44.88
375.951	1.88
376.161	55.12
376.372	89.94
376.582	40.79
376.793	73.56
377.003	-0.17
377.214	12.12
377.424	96.08
377.635	18.26
377.845	73.56
378.055	145.24
378.266	-77.99
378.476	-20.65
378.686	98.13
378.897	77.65
379.107	145.24
379.317	44.88
379.528	-26.79
379.738	116.56
379.948	-80.04
380.158	126.8
380.369	-32.94
380.579	22.36
380.789	51.03
380.999	65.36
381.21	96.08
381.42	208.72
381.63	32.6
381.84	186.19
382.05	40.79
382.261	124.76
382.471	96.08
382.681	-6.31
382.891	147.28
383.101	87.89
383.311	-55.47
383.521	46.93
383.731	118.61
383.941	83.8
384.151	30.55
384.361	12.12
384.571	34.64
384.781	48.98
384.991	198.48
385.201	218.96
385.411	128.85
385.621	169.81
385.831	-4.27
386.041	53.08
386.251	55.12
386.461	59.22
386.671	28.5
386.881	81.75
387.091	67.41
387.301	143.19
387.511	-4.27
387.72	24.4
387.93	81.75
388.14	-18.6
388.35	63.32
388.56	59.22
388.769	55.12
388.979	-8.36
389.189	1.88
389.399	22.36
389.609	118.61
389.818	132.95
390.028	139.09
390.238	91.99
390.447	-12.46
390.657	102.23
390.867	71.51
391.076	42.84
391.286	63.32
391.496	48.98
391.705	-4.27
391.915	122.71
392.125	32.6
392.334	73.56
392.544	110.42
392.753	59.22
392.963	1.88
393.172	81.75
393.382	44.88
393.591	155.47
393.801	-2.22
394.01	83.8
394.22	40.79
394.429	75.6
394.639	40.79
394.848	46.93
395.058	141.14
395.267	1.88
395.477	42.84
395.686	102.23
395.895	171.86
396.105	249.68
396.314	122.71
396.524	32.6
396.733	59.22
396.942	112.47
397.152	55.12
397.361	85.84
397.57	135
397.78	65.36
397.989	167.76
398.198	159.57
398.407	63.32
398.617	3.93
398.826	65.36
399.035	87.89
399.244	59.22
399.453	46.93
399.663	30.55
399.872	110.42
400.081	-53.42
400.29	145.24
400.499	10.07
400.708	126.8
400.917	-16.55
401.127	-28.84
401.336	-61.61
401.545	167.76
401.754	137.04
401.963	83.8
402.172	69.46
402.381	-12.46
402.59	59.22
402.799	-20.65
403.008	110.42
403.217	67.41
403.426	65.36
403.635	-32.94
403.844	28.5
404.053	65.36
404.262	67.41
404.471	155.47
404.68	104.28
404.888	34.64
405.097	1.88
405.306	69.46
405.515	81.75
405.724	-39.08
405.933	77.65
406.142	32.6
406.35	53.08
406.559	-8.36
406.768	28.5
406.977	128.85
407.185	46.93
407.394	24.4
407.603	-10.41
407.812	85.84
408.02	182.1
408.229	20.31
408.438	28.5
408.646	18.26
408.855	-47.27
409.064	108.37
409.272	-22.7
409.481	149.33
409.69	20.31
409.898	3.93
410.107	61.27
410.315	116.56
410.524	36.69
410.733	83.8
410.941	26.45
411.15	48.98
411.358	161.62
411.567	175.95
411.775	61.27
411.984	73.56
412.192	85.84
412.401	51.03
412.609	151.38
412.818	155.47
413.026	42.84
413.234	59.22
413.443	85.84
413.651	-49.32
413.86	30.55
414.068	87.89
414.276	173.91
414.485	-0.17
414.693	221.01
414.901	225.11
415.11	100.18
415.318	40.79
415.526	96.08
415.734	235.35
415.943	61.27
416.151	139.09
416.359	57.17
416.567	96.08
416.776	98.13
416.984	143.19
417.192	151.38
417.4	46.93
417.608	51.03
417.817	-43.18
418.025	71.51
418.233	225.11
418.441	16.21
418.649	-24.75
418.857	102.23
419.065	184.15
419.273	28.5
419.481	75.6
419.689	-2.22
419.897	42.84
420.105	-37.03
420.313	114.52
420.521	182.1
420.729	190.29
420.937	137.04
421.145	18.26
421.353	161.62
421.561	143.19
421.769	114.52
421.977	-53.42
422.185	200.53
422.393	8.02
422.601	65.36
422.809	71.51
423.017	100.18
423.224	63.32
423.432	67.41
423.64	8.02
423.848	143.19
424.056	20.31
424.263	91.99
424.471	135
424.679	171.86
424.887	36.69
425.094	149.33
425.302	53.08
425.51	89.94
425.718	182.1
425.925	91.99
426.133	77.65
426.341	210.77
426.548	116.56
426.756	128.85
426.964	98.13
427.171	77.65
427.379	94.04
427.586	87.89
427.794	184.15
428.001	112.47
428.209	57.17
428.417	161.62
428.624	118.61
428.832	106.32
429.039	81.75
429.247	135
429.454	126.8
429.662	264.02
429.869	69.46
430.076	143.19
430.284	102.23
430.491	245.59
430.699	102.23
430.906	251.73
431.114	190.29
431.321	102.23
431.528	145.24
431.736	188.24
431.943	214.87
432.15	218.96
432.358	206.67
432.565	268.11
432.772	106.32
432.979	261.97
433.187	149.33
433.394	268.11
433.601	182.1
433.808	253.78
434.016	317.26
434.223	259.92
434.43	212.82
434.637	229.2
434.844	180.05
435.052	331.6
435.259	345.94
435.466	241.49
435.673	304.98
435.88	397.14
436.087	407.38
436.294	442.19
436.501	423.76
436.708	393.04
436.915	304.98
437.122	444.24
437.329	366.42
437.537	368.46
437.743	446.29
437.95	593.74
438.157	409.42
438.364	438.09
438.571	509.77
438.778	563.02
438.985	657.23
439.192	524.11
439.399	565.07
439.606	542.54
439.813	700.23
440.02	808.78
440.227	898.89
440.433	716.62
440.64	782.15
440.847	769.87
441.054	763.72
441.261	1007.43
441.467	843.59
441.674	751.43
441.881	882.5
442.088	884.55
442.294	862.02
442.501	905.03
442.708	1011.53
442.914	954.18
443.121	1124.16
443.328	1052.49
443.534	1204.03
443.741	1189.7
443.948	1165.12
444.154	1312.58
444.361	1445.7
444.568	1511.23
444.774	1351.49
444.981	1331.01
445.187	1576.77
445.394	1625.92
445.6	1578.81
445.807	1756.99
446.013	1707.84
446.22	1703.74
446.426	1779.51
446.633	1935.16
446.839	2109.24
447.046	1957.69
447.252	2150.2
447.459	2219.83
447.665	2275.12
447.871	2375.47
448.078	2574.13
448.284	2518.83
448.491	2604.85
448.697	2768.68
448.903	2871.08
449.11	2918.18
449.316	2854.7
449.522	3286.82
449.728	3182.37
449.935	3374.88
450.141	3462.94
450.347	3647.26
450.553	3581.73
450.76	3495.71
450.966	3852.06
451.172	4052.76
451.378	4267.8
451.584	4081.43
451.791	4448.02
451.997	4708.11
452.203	4681.49
452.409	5089.03
452.615	5261.06
452.821	5103.37
453.027	5105.42
453.233	5758.72
453.44	5484.29
453.646	5992.19
453.852	6242.04
454.058	6397.68
454.264	6852.33
454.47	7007.98
454.676	7063.27
454.882	7622.37
455.088	7382.76
455.294	7812.83
455.5	8261.34
455.705	8574.67
455.911	8754.9
456.117	8785.62
456.323	9555.65
456.529	9357
456.735	10096.32
456.941	10575.54
457.147	10766
457.352	11050.67
457.558	11288.23
457.764	12240.54
457.97	12512.92
458.176	13094.54
458.381	13584.01
458.587	13983.36
458.793	14616.18
458.999	14517.88
459.204	16369.24
459.41	16834.13
459.616	16719.45
459.821	17595.98
460.027	18511.42
460.233	19385.9
460.438	19316.27
460.644	20438.56
460.85	20803.1
461.055	21104.15
461.261	22363.65
461.466	22060.55
461.672	22416.9
461.878	25001.43
462.083	24665.56
462.289	25249.24
462.494	26254.79
462.7	26406.34
462.905	27055.54
463.111	28738.97
463.316	30508.42
463.522	31161.72
463.727	31942
463.932	32863.58
464.138	34157.9
464.343	35366.2
464.549	35571
464.754	38288.65
464.959	39392.51
465.165	40170.74
465.37	39521.53
465.575	39685.37
465.781	42417.36
465.986	43336.9
466.191	43166.91
466.397	43261.12
466.602	42136.79
466.807	44608.68
467.012	45380.77
467.218	46146.71
467.423	46115.99
467.628	47357.06
467.833	49511.52
468.038	48663.66
468.244	47834.24
468.449	50586.71
468.654	49376.36
468.859	49089.64
469.064	49566.82
