Data from USB4F104151__65__11-30-55-165.txt Node

Date: Wed Feb 26 11:30:55 EST 2025
User: louis
Spectrometer: USB4F10415
Trigger mode: 4
Integration Time (sec): 1.000000E-1
Scans to average: 1
Electric dark correction enabled: true
Nonlinearity correction enabled: false
Boxcar width: 0
XAxis mode: Wavelengths
Number of Pixels in Spectrum: 3648
>>>>>Begin Spectral Data<<<<<
178.204	-418.47
178.424	-418.47
178.644	-418.47
178.864	-438.95
179.084	-348.84
179.304	-8.87
179.524	-88.75
179.744	54.61
179.964	44.37
180.184	-37.55
180.404	81.24
180.624	50.52
180.844	-15.02
181.064	-90.79
181.283	54.61
181.503	-84.65
181.723	40.28
181.943	-58.03
182.163	185.68
182.383	17.75
182.602	54.61
182.822	64.85
183.042	46.42
183.262	-39.59
183.482	-15.02
183.701	-0.68
183.921	42.32
184.141	-51.88
184.361	15.7
184.58	44.37
184.8	-10.92
185.02	-47.79
185.239	103.76
185.459	56.66
185.679	52.56
185.898	-8.87
186.118	23.89
186.338	120.15
186.557	116.05
186.777	-51.88
186.997	42.32
187.216	46.42
187.436	261.46
187.655	73.04
187.875	136.53
188.095	85.33
188.314	216.4
188.534	81.24
188.753	-41.64
188.973	128.34
189.192	126.29
189.412	-0.68
189.631	-8.87
189.851	71
190.07	157.01
190.29	-23.21
190.509	-64.17
190.729	68.95
190.948	132.44
191.168	154.96
191.387	68.95
191.607	56.66
191.826	103.76
192.045	27.99
192.265	30.04
192.484	34.13
192.704	23.89
192.923	-72.36
193.142	169.3
193.362	101.72
193.581	122.2
193.8	13.65
194.02	95.57
194.239	66.9
194.458	75.09
194.678	-35.5
194.897	27.99
195.116	66.9
195.335	58.71
195.555	-17.07
195.774	-62.12
195.993	42.32
196.212	-19.11
196.432	-2.73
196.651	5.46
196.87	11.61
197.089	249.17
197.308	87.38
197.528	-49.83
197.747	-27.31
197.966	15.7
198.185	93.52
198.404	-39.59
198.623	81.24
198.842	154.96
199.062	122.2
199.281	58.71
199.5	-37.55
199.719	89.43
199.938	64.85
200.157	126.29
200.376	34.13
200.595	62.8
200.814	50.52
201.033	-17.07
201.252	181.59
201.471	85.33
201.69	50.52
201.909	197.97
202.128	111.96
202.347	77.14
202.566	-27.31
202.785	-25.26
203.004	64.85
203.223	269.65
203.442	-55.98
203.661	-74.41
203.879	138.58
204.098	132.44
204.317	-8.87
204.536	89.43
204.755	60.76
204.974	85.33
205.193	15.7
205.411	144.72
205.63	95.57
205.849	77.14
206.068	5.46
206.287	-19.11
206.505	36.18
206.724	60.76
206.943	7.51
207.162	-64.17
207.381	46.42
207.599	48.47
207.818	32.08
208.037	-29.35
208.255	15.7
208.474	38.23
208.693	109.91
208.911	5.46
209.13	32.08
209.349	130.39
209.567	87.38
209.786	32.08
210.005	157.01
210.223	21.84
210.442	-105.13
210.661	38.23
210.879	81.24
211.098	-39.59
211.316	27.99
211.535	89.43
211.753	9.56
211.972	25.94
212.191	48.47
212.409	9.56
212.628	48.47
212.846	-70.31
213.065	85.33
213.283	75.09
213.502	101.72
213.72	-15.02
213.938	13.65
214.157	-6.83
214.375	81.24
214.594	40.28
214.812	68.95
215.031	56.66
215.249	50.52
215.467	64.85
215.686	-47.79
215.904	58.71
216.122	73.04
216.341	91.48
216.559	85.33
216.778	118.1
216.996	126.29
217.214	9.56
217.432	-39.59
217.651	-101.03
217.869	93.52
218.087	58.71
218.306	-0.68
218.524	120.15
218.742	56.66
218.96	114
219.179	13.65
219.397	-0.68
219.615	288.08
219.833	58.71
220.051	-78.51
220.27	89.43
220.488	152.91
220.706	27.99
220.924	48.47
221.142	-92.84
221.36	54.61
221.578	85.33
221.796	32.08
222.015	48.47
222.233	13.65
222.451	140.63
222.669	25.94
222.887	87.38
223.105	-8.87
223.323	-19.11
223.541	-27.31
223.759	-0.68
223.977	11.61
224.195	165.2
224.413	71
224.631	25.94
224.849	56.66
225.067	228.69
225.285	-70.31
225.503	138.58
225.721	-43.69
225.939	38.23
226.157	17.75
226.375	238.93
226.592	-21.16
226.81	87.38
227.028	107.86
227.246	152.91
227.464	50.52
227.682	152.91
227.9	21.84
228.117	21.84
228.335	66.9
228.553	54.61
228.771	27.99
228.989	56.66
229.206	97.62
229.424	17.75
229.642	-0.68
229.86	-2.73
230.077	120.15
230.295	19.8
230.513	17.75
230.731	54.61
230.948	52.56
231.166	126.29
231.384	17.75
231.601	13.65
231.819	169.3
232.037	25.94
232.254	-41.64
232.472	13.65
232.689	-8.87
232.907	161.11
233.125	54.61
233.342	7.51
233.56	19.8
233.777	-47.79
233.995	-12.97
234.213	44.37
234.43	52.56
234.648	-6.83
234.865	-49.83
235.083	42.32
235.3	126.29
235.518	150.87
235.735	75.09
235.953	75.09
236.17	-12.97
236.388	30.04
236.605	89.43
236.822	144.72
237.04	97.62
237.257	36.18
237.475	-0.68
237.692	38.23
237.909	66.9
238.127	-96.94
238.344	134.48
238.562	25.94
238.779	-25.26
238.996	-23.21
239.214	107.86
239.431	114
239.648	15.7
239.865	38.23
240.083	103.76
240.3	1.37
240.517	44.37
240.735	-74.41
240.952	163.15
241.169	48.47
241.386	77.14
241.603	66.9
241.821	36.18
242.038	93.52
242.255	152.91
242.472	60.76
242.689	116.05
242.907	44.37
243.124	1.37
243.341	101.72
243.558	-33.45
243.775	-33.45
243.992	-37.55
244.209	89.43
244.426	179.54
244.643	48.47
244.86	11.61
245.078	122.2
245.295	40.28
245.512	-0.68
245.729	32.08
245.946	60.76
246.163	85.33
246.38	-29.35
246.597	21.84
246.814	50.52
247.031	30.04
247.248	42.32
247.464	40.28
247.681	105.81
247.898	-4.78
248.115	-10.92
248.332	-70.31
248.549	130.39
248.766	154.96
248.983	103.76
249.2	109.91
249.417	111.96
249.633	-6.83
249.85	150.87
250.067	52.56
250.284	75.09
250.501	126.29
250.717	54.61
250.934	27.99
251.151	-15.02
251.368	83.28
251.585	58.71
251.801	89.43
252.018	-8.87
252.235	79.19
252.451	-76.46
252.668	-12.97
252.885	114
253.102	85.33
253.318	7.51
253.535	3.41
253.752	-19.11
253.968	60.76
254.185	-66.22
254.401	56.66
254.618	27.99
254.835	-45.74
255.051	165.2
255.268	11.61
255.484	38.23
255.701	75.09
255.917	54.61
256.134	-58.03
256.351	79.19
256.567	-43.69
256.784	-6.83
257	-101.03
257.217	58.71
257.433	118.1
257.65	60.76
257.866	132.44
258.082	-21.16
258.299	-72.36
258.515	48.47
258.732	-15.02
258.948	-53.93
259.165	-6.83
259.381	-55.98
259.597	148.82
259.814	66.9
260.03	-12.97
260.246	44.37
260.463	126.29
260.679	114
260.895	38.23
261.112	19.8
261.328	79.19
261.544	19.8
261.761	120.15
261.977	-4.78
262.193	-51.88
262.409	122.2
262.626	62.8
262.842	40.28
263.058	19.8
263.274	101.72
263.49	32.08
263.707	95.57
263.923	116.05
264.139	-25.26
264.355	157.01
264.571	32.08
264.787	71
265.004	103.76
265.22	114
265.436	19.8
265.652	32.08
265.868	56.66
266.084	-41.64
266.3	38.23
266.516	-27.31
266.732	91.48
266.948	56.66
267.164	-37.55
267.38	77.14
267.596	116.05
267.812	134.48
268.028	103.76
268.244	48.47
268.46	38.23
268.676	42.32
268.892	111.96
269.108	-15.02
269.324	36.18
269.54	-45.74
269.756	89.43
269.972	5.46
270.188	44.37
270.403	-74.41
270.619	13.65
270.835	114
271.051	21.84
271.267	-62.12
271.483	23.89
271.698	146.77
271.914	44.37
272.13	23.89
272.346	1.37
272.562	5.46
272.777	62.8
272.993	-98.99
273.209	-8.87
273.425	109.91
273.64	-4.78
273.856	116.05
274.072	-15.02
274.287	-19.11
274.503	140.63
274.719	99.67
274.934	1.37
275.15	-66.22
275.366	30.04
275.581	-12.97
275.797	21.84
276.012	-19.11
276.228	3.41
276.444	32.08
276.659	97.62
276.875	11.61
277.09	1.37
277.306	13.65
277.521	32.08
277.737	-12.97
277.952	68.95
278.168	40.28
278.383	68.95
278.599	19.8
278.814	114
279.03	40.28
279.245	140.63
279.461	-17.07
279.676	109.91
279.892	-29.35
280.107	-98.99
280.322	-60.07
280.538	62.8
280.753	17.75
280.969	101.72
281.184	-15.02
281.399	159.06
281.615	66.9
281.83	21.84
282.045	-17.07
282.26	-41.64
282.476	-29.35
282.691	159.06
282.906	73.04
283.122	-23.21
283.337	-6.83
283.552	32.08
283.767	-62.12
283.983	107.86
284.198	71
284.413	79.19
284.628	-15.02
284.843	152.91
285.058	148.82
285.274	1.37
285.489	-70.31
285.704	42.32
285.919	25.94
286.134	7.51
286.349	38.23
286.564	-49.83
286.779	132.44
286.995	68.95
287.21	-68.27
287.425	30.04
287.64	-37.55
287.855	71
288.07	-86.7
288.285	159.06
288.5	68.95
288.715	105.81
288.93	-6.83
289.145	-25.26
289.36	66.9
289.575	-62.12
289.79	85.33
290.004	30.04
290.219	81.24
290.434	62.8
290.649	-74.41
290.864	-25.26
291.079	3.41
291.294	11.61
291.509	-2.73
291.724	48.47
291.938	118.1
292.153	66.9
292.368	95.57
292.583	60.76
292.798	175.44
293.012	126.29
293.227	130.39
293.442	27.99
293.657	44.37
293.871	148.82
294.086	36.18
294.301	124.24
294.516	73.04
294.73	93.52
294.945	-29.35
295.16	97.62
295.374	40.28
295.589	97.62
295.804	77.14
296.018	-8.87
296.233	118.1
296.447	144.72
296.662	-19.11
296.877	64.85
297.091	66.9
297.306	89.43
297.52	50.52
297.735	66.9
297.949	44.37
298.164	-10.92
298.378	32.08
298.593	-37.55
298.807	-12.97
299.022	32.08
299.236	81.24
299.451	-4.78
299.665	1.37
299.88	-8.87
300.094	30.04
300.309	-6.83
300.523	36.18
300.737	-0.68
300.952	126.29
301.166	79.19
301.381	21.84
301.595	-37.55
301.809	87.38
302.024	-19.11
302.238	-41.64
302.452	52.56
302.667	54.61
302.881	214.35
303.095	159.06
303.309	46.42
303.524	-12.97
303.738	-6.83
303.952	38.23
304.166	79.19
304.381	-115.37
304.595	195.92
304.809	60.76
305.023	42.32
305.237	111.96
305.452	-0.68
305.666	132.44
305.88	66.9
306.094	126.29
306.308	101.72
306.522	97.62
306.736	58.71
306.95	36.18
307.164	32.08
307.379	44.37
307.593	183.63
307.807	77.14
308.021	3.41
308.235	79.19
308.449	-51.88
308.663	79.19
308.877	212.31
309.091	19.8
309.305	118.1
309.519	-115.37
309.733	116.05
309.947	-68.27
310.161	32.08
310.374	58.71
310.588	99.67
310.802	9.56
311.016	-23.21
311.23	85.33
311.444	-45.74
311.658	75.09
311.872	99.67
312.085	93.52
312.299	175.44
312.513	179.54
312.727	38.23
312.941	-23.21
313.154	30.04
313.368	30.04
313.582	-29.35
313.796	42.32
314.009	-27.31
314.223	154.96
314.437	42.32
314.651	95.57
314.864	-51.88
315.078	30.04
315.292	-58.03
315.505	21.84
315.719	85.33
315.933	109.91
316.146	-66.22
316.36	-49.83
316.573	128.34
316.787	163.15
317.001	81.24
317.214	-37.55
317.428	87.38
317.641	68.95
317.855	50.52
318.068	116.05
318.282	9.56
318.495	171.35
318.709	101.72
318.922	13.65
319.136	189.78
319.349	181.59
319.563	36.18
319.776	79.19
319.99	1.37
320.203	81.24
320.417	5.46
320.63	114
320.843	152.91
321.057	68.95
321.27	146.77
321.483	38.23
321.697	140.63
321.91	101.72
322.124	-12.97
322.337	109.91
322.55	-80.55
322.763	44.37
322.977	73.04
323.19	60.76
323.403	77.14
323.617	126.29
323.83	142.68
324.043	-62.12
324.256	60.76
324.469	-82.6
324.683	105.81
324.896	-33.45
325.109	87.38
325.322	-76.46
325.535	40.28
325.748	87.38
325.962	-8.87
326.175	34.13
326.388	173.39
326.601	87.38
326.814	11.61
327.027	13.65
327.24	111.96
327.453	-111.27
327.666	21.84
327.879	56.66
328.092	36.18
328.305	66.9
328.518	40.28
328.731	91.48
328.944	-15.02
329.157	111.96
329.37	140.63
329.583	103.76
329.796	157.01
330.009	-105.13
330.222	89.43
330.435	175.44
330.648	17.75
330.861	25.94
331.073	134.48
331.286	81.24
331.499	19.8
331.712	-43.69
331.925	-31.4
332.138	68.95
332.35	36.18
332.563	-43.69
332.776	36.18
332.989	-8.87
333.202	-4.78
333.414	11.61
333.627	44.37
333.84	56.66
334.053	44.37
334.265	-8.87
334.478	81.24
334.691	91.48
334.903	58.71
335.116	5.46
335.329	50.52
335.541	95.57
335.754	66.9
335.966	40.28
336.179	9.56
336.392	42.32
336.604	75.09
336.817	77.14
337.029	36.18
337.242	46.42
337.454	56.66
337.667	52.56
337.88	165.2
338.092	62.8
338.305	103.76
338.517	-10.92
338.729	103.76
338.942	118.1
339.154	11.61
339.367	-82.6
339.579	152.91
339.792	-15.02
340.004	66.9
340.217	71
340.429	44.37
340.641	-19.11
340.854	-62.12
341.066	27.99
341.278	175.44
341.491	118.1
341.703	5.46
341.915	-12.97
342.128	58.71
342.34	66.9
342.552	-41.64
342.764	56.66
342.977	-29.35
343.189	66.9
343.401	44.37
343.613	25.94
343.826	66.9
344.038	-17.07
344.25	-6.83
344.462	30.04
344.674	75.09
344.886	11.61
345.099	17.75
345.311	83.28
345.523	-17.07
345.735	-47.79
345.947	32.08
346.159	1.37
346.371	44.37
346.583	32.08
346.795	142.68
347.007	15.7
347.219	44.37
347.431	36.18
347.643	105.81
347.855	-12.97
348.067	62.8
348.279	1.37
348.491	116.05
348.703	66.9
348.915	64.85
349.127	-21.16
349.339	30.04
349.551	7.51
349.763	48.47
349.975	-29.35
350.187	132.44
350.399	101.72
350.61	52.56
350.822	23.89
351.034	19.8
351.246	77.14
351.458	17.75
351.669	126.29
351.881	122.2
352.093	138.58
352.305	81.24
352.517	7.51
352.728	116.05
352.94	1.37
353.152	95.57
353.363	50.52
353.575	73.04
353.787	64.85
353.999	32.08
354.21	165.2
354.422	-25.26
354.633	15.7
354.845	19.8
355.057	42.32
355.268	77.14
355.48	150.87
355.692	23.89
355.903	32.08
356.115	-39.59
356.326	-62.12
356.538	181.59
356.749	50.52
356.961	122.2
357.172	34.13
357.384	-35.5
357.595	202.07
357.807	-47.79
358.018	52.56
358.23	36.18
358.441	128.34
358.653	58.71
358.864	111.96
359.075	50.52
359.287	148.82
359.498	99.67
359.709	19.8
359.921	44.37
360.132	58.71
360.344	40.28
360.555	48.47
360.766	3.41
360.977	11.61
361.189	130.39
361.4	25.94
361.611	50.52
361.823	101.72
362.034	50.52
362.245	-2.73
362.456	-4.78
362.667	36.18
362.879	27.99
363.09	46.42
363.301	54.61
363.512	42.32
363.723	15.7
363.935	-33.45
364.146	64.85
364.357	11.61
364.568	13.65
364.779	-84.65
364.99	91.48
365.201	54.61
365.412	73.04
365.623	-92.84
365.834	7.51
366.045	66.9
366.256	103.76
366.467	27.99
366.678	-12.97
366.889	38.23
367.1	-2.73
367.311	126.29
367.522	-78.51
367.733	193.87
367.944	116.05
368.155	81.24
368.366	73.04
368.577	97.62
368.788	134.48
368.999	-78.51
369.209	68.95
369.42	290.13
369.631	189.78
369.842	91.48
370.053	13.65
370.264	77.14
370.474	-47.79
370.685	116.05
370.896	38.23
371.107	177.49
371.317	154.96
371.528	136.53
371.739	60.76
371.95	103.76
372.16	50.52
372.371	42.32
372.582	42.32
372.792	64.85
373.003	128.34
373.214	13.65
373.424	75.09
373.635	-39.59
373.846	157.01
374.056	48.47
374.267	89.43
374.477	62.8
374.688	-6.83
374.898	54.61
375.109	99.67
375.319	60.76
375.53	132.44
375.74	138.58
375.951	-23.21
376.161	36.18
376.372	136.53
376.582	23.89
376.793	52.56
377.003	-31.4
377.214	-27.31
377.424	73.04
377.635	32.08
377.845	-62.12
378.055	134.48
378.266	38.23
378.476	7.51
378.686	44.37
378.897	68.95
379.107	118.1
379.317	105.81
379.528	7.51
379.738	66.9
379.948	-2.73
380.158	97.62
380.369	13.65
380.579	116.05
380.789	73.04
380.999	89.43
381.21	40.28
381.42	191.83
381.63	71
381.84	118.1
382.05	111.96
382.261	105.81
382.471	146.77
382.681	-17.07
382.891	200.02
383.101	81.24
383.311	-43.69
383.521	-62.12
383.731	150.87
383.941	25.94
384.151	36.18
384.361	-21.16
384.571	40.28
384.781	66.9
384.991	247.12
385.201	157.01
385.411	58.71
385.621	66.9
385.831	56.66
386.041	5.46
386.251	17.75
386.461	109.91
386.671	7.51
386.881	5.46
387.091	66.9
387.301	87.38
387.511	13.65
387.72	105.81
387.93	132.44
388.14	-27.31
388.35	91.48
388.56	132.44
388.769	111.96
388.979	-39.59
389.189	17.75
389.399	54.61
389.609	77.14
389.818	79.19
390.028	64.85
390.238	54.61
390.447	-19.11
390.657	81.24
390.867	40.28
391.076	9.56
391.286	99.67
391.496	3.41
391.705	87.38
391.915	120.15
392.125	132.44
392.334	-15.02
392.544	195.92
392.753	77.14
392.963	-4.78
393.172	11.61
393.382	11.61
393.591	202.07
393.801	7.51
394.01	157.01
394.22	130.39
394.429	-33.45
394.639	19.8
394.848	21.84
395.058	17.75
395.267	25.94
395.477	81.24
395.686	107.86
395.895	269.65
396.105	249.17
396.314	27.99
396.524	27.99
396.733	5.46
396.942	138.58
397.152	173.39
397.361	124.24
397.57	62.8
397.78	93.52
397.989	124.24
398.198	206.16
398.407	42.32
398.617	50.52
398.826	64.85
399.035	25.94
399.244	97.62
399.453	81.24
399.663	3.41
399.872	81.24
400.081	32.08
400.29	97.62
400.499	68.95
400.708	54.61
400.917	5.46
401.127	9.56
401.336	34.13
401.545	226.64
401.754	77.14
401.963	161.11
402.172	40.28
402.381	-135.85
402.59	85.33
402.799	120.15
403.008	161.11
403.217	95.57
403.426	50.52
403.635	-49.83
403.844	-2.73
404.053	60.76
404.262	48.47
404.471	175.44
404.68	99.67
404.888	23.89
405.097	40.28
405.306	19.8
405.515	19.8
405.724	-2.73
405.933	126.29
406.142	93.52
406.35	140.63
406.559	-80.55
406.768	124.24
406.977	146.77
407.185	105.81
407.394	1.37
407.603	-53.93
407.812	44.37
408.02	142.68
408.229	58.71
408.438	111.96
408.646	-8.87
408.855	79.19
409.064	60.76
409.272	64.85
409.481	103.76
409.69	-86.7
409.898	21.84
410.107	42.32
410.315	124.24
410.524	-8.87
410.733	19.8
410.941	27.99
411.15	60.76
411.358	46.42
411.567	109.91
411.775	64.85
411.984	103.76
412.192	44.37
412.401	-53.93
412.609	193.87
412.818	152.91
413.026	60.76
413.234	-29.35
413.443	73.04
413.651	17.75
413.86	66.9
414.068	167.25
414.276	179.54
414.485	62.8
414.693	187.73
414.901	136.53
415.11	146.77
415.318	50.52
415.526	73.04
415.734	154.96
415.943	85.33
416.151	116.05
416.359	15.7
416.567	89.43
416.776	118.1
416.984	165.2
417.192	130.39
417.4	19.8
417.608	7.51
417.817	19.8
418.025	124.24
418.233	208.21
418.441	-72.36
418.649	-27.31
418.857	89.43
419.065	157.01
419.273	64.85
419.481	95.57
419.689	-23.21
419.897	-25.26
420.105	-8.87
420.313	60.76
420.521	263.51
420.729	126.29
420.937	-35.5
421.145	-21.16
421.353	118.1
421.561	259.41
421.769	73.04
421.977	30.04
422.185	81.24
422.393	7.51
422.601	101.72
422.809	124.24
423.017	62.8
423.224	150.87
423.432	105.81
423.64	1.37
423.848	189.78
424.056	130.39
424.263	114
424.471	42.32
424.679	120.15
424.887	1.37
425.094	140.63
425.302	97.62
425.51	101.72
425.718	107.86
425.925	159.06
426.133	58.71
426.341	187.73
426.548	83.28
426.756	50.52
426.964	36.18
427.171	46.42
427.379	97.62
427.586	122.2
427.794	75.09
428.001	152.91
428.209	19.8
428.417	122.2
428.624	122.2
428.832	152.91
429.039	73.04
429.247	118.1
429.454	101.72
429.662	214.35
429.869	138.58
430.076	132.44
430.284	148.82
430.491	204.11
430.699	232.79
430.906	218.45
431.114	124.24
431.321	171.35
431.528	169.3
431.736	144.72
431.943	273.75
432.15	200.02
432.358	179.54
432.565	292.18
432.772	52.56
432.979	263.51
433.187	109.91
433.394	226.64
433.601	181.59
433.808	179.54
434.016	318.8
434.223	216.4
434.43	267.6
434.637	202.07
434.844	333.14
435.052	193.87
435.259	292.18
435.466	253.27
435.673	281.94
435.88	347.47
436.087	339.28
436.294	333.14
436.501	347.47
436.708	345.42
436.915	351.57
437.122	464.21
437.329	343.38
437.537	394.58
437.743	431.44
437.95	453.97
438.157	415.06
438.364	408.91
438.571	435.53
438.778	523.6
438.985	537.93
439.192	582.99
439.399	566.6
439.606	570.7
439.813	591.18
440.02	621.9
440.227	705.87
440.433	703.82
440.64	640.33
440.847	638.28
441.054	703.82
441.261	767.31
441.467	781.64
441.674	648.52
441.881	826.7
442.088	664.91
442.294	890.18
442.501	996.68
442.708	929.1
442.914	1013.06
443.121	963.91
443.328	972.1
443.534	1072.45
443.741	1013.06
443.948	937.29
444.154	1242.43
444.361	1209.67
444.568	1056.07
444.774	1160.52
444.981	1185.09
445.187	1387.84
445.394	1336.64
445.6	1318.21
445.807	1518.91
446.013	1492.29
446.22	1406.27
446.426	1676.6
446.633	1711.42
446.839	1973.56
447.046	1756.47
447.252	1973.56
447.459	1883.45
447.665	1959.22
447.871	2184.5
448.078	2215.22
448.284	2178.36
448.491	2229.56
448.697	2454.83
448.903	2508.08
449.11	2639.15
449.316	2526.51
449.522	2633.01
449.728	2839.85
449.935	2874.67
450.141	2956.58
450.347	3265.83
450.553	3069.22
450.76	3286.31
450.966	3482.91
451.172	3613.98
451.378	3638.56
451.584	3773.72
451.791	4056.34
451.997	4097.3
452.203	4187.41
452.409	4410.64
452.615	4494.61
452.821	4533.52
453.027	4547.86
453.233	5199.11
453.44	5022.98
453.646	5106.95
453.852	5657.85
454.058	5668.09
454.264	5815.55
454.47	6270.2
454.676	6163.7
454.882	6835.44
455.088	6626.54
455.294	6798.57
455.5	7232.74
455.705	7628
455.911	7830.75
456.117	7802.08
456.323	8332.5
456.529	8275.16
456.735	9112.78
456.941	9157.83
457.147	9571.52
457.352	9839.81
457.558	9985.21
457.764	10767.54
457.97	11107.5
458.176	11601.06
458.381	11855.01
458.587	12319.9
458.793	12676.24
458.999	12844.18
459.204	14513.27
459.41	14818.42
459.616	14658.68
459.821	15778.92
460.027	16481.37
460.233	16890.96
460.438	17169.49
460.644	18400.32
460.85	18314.3
461.055	18947.12
461.261	19950.63
461.466	19489.84
461.672	19948.58
461.878	22324.22
462.083	21820.42
462.289	22725.63
462.494	23405.55
462.7	23305.2
462.905	23931.88
463.111	25922.51
463.316	27110.33
463.522	27837.36
463.727	28513.19
463.932	29553.55
464.138	30471.04
464.343	31671.15
464.549	31720.31
464.754	34048.85
464.959	35005.25
465.165	35611.45
465.37	34952
465.575	35468.09
465.781	37520.15
465.986	38822.66
466.191	38144.78
466.397	38720.26
466.602	37692.18
466.807	39596.79
467.012	40415.98
467.218	41126.63
467.423	40973.03
467.628	42590.92
467.833	44440.24
468.038	43459.26
468.244	43258.56
468.449	44774.06
468.654	44272.31
468.859	43780.79
