Data from USB4F104151__94__10-35-19-729.txt Node

Date: Wed Feb 26 10:35:19 EST 2025
User: louis
Spectrometer: USB4F10415
Trigger mode: 4
Integration Time (sec): 1.000000E-1
Scans to average: 1
Electric dark correction enabled: true
Nonlinearity correction enabled: false
Boxcar width: 0
XAxis mode: Wavelengths
Number of Pixels in Spectrum: 3648
>>>>>Begin Spectral Data<<<<<
178.204	-432.97
178.424	-432.97
178.644	-432.97
178.864	-373.58
179.084	-355.15
179.304	21.67
179.524	-35.67
179.744	1.19
179.964	58.54
180.184	3.24
180.404	50.35
180.624	-25.43
180.844	42.15
181.064	-78.68
181.283	-25.43
181.503	-72.53
181.723	60.59
181.943	-115.54
182.163	205.99
182.383	11.43
182.602	-13.14
182.822	220.33
183.042	44.2
183.262	-25.43
183.482	-43.86
183.701	31.91
183.921	130.22
184.141	-103.25
184.361	124.07
184.58	138.41
184.8	60.59
185.02	-52.05
185.239	101.55
185.459	126.12
185.679	142.5
185.898	-80.72
186.118	111.78
186.338	91.31
186.557	62.63
186.777	-54.1
186.997	72.87
187.216	56.49
187.436	169.13
187.655	44.2
187.875	-15.19
188.095	48.3
188.314	99.5
188.534	126.12
188.753	-43.86
188.973	158.89
189.192	177.32
189.412	44.2
189.631	-43.86
189.851	81.07
190.07	179.37
190.29	-31.57
190.509	-78.68
190.729	-23.38
190.948	115.88
191.168	189.61
191.387	21.67
191.607	31.91
191.826	33.96
192.045	-54.1
192.265	-2.9
192.484	58.54
192.704	36.01
192.923	-0.85
193.142	175.27
193.362	117.93
193.581	107.69
193.8	5.29
194.02	64.68
194.239	44.2
194.458	124.07
194.678	-19.29
194.897	-13.14
195.116	128.17
195.335	38.06
195.555	72.87
195.774	7.34
195.993	152.74
196.212	101.55
196.432	13.48
196.651	33.96
196.87	-2.9
197.089	236.71
197.308	15.53
197.528	44.2
197.747	-19.29
197.966	113.83
198.185	152.74
198.404	9.39
198.623	87.21
198.842	81.07
199.062	-13.14
199.281	66.73
199.5	58.54
199.719	56.49
199.938	95.4
200.157	60.59
200.376	79.02
200.595	109.74
200.814	89.26
201.033	-45.91
201.252	144.55
201.471	9.39
201.69	85.16
201.909	62.63
202.128	93.35
202.347	74.92
202.566	11.43
202.785	-97.11
203.004	-15.19
203.223	214.18
203.442	-21.33
203.661	-54.1
203.879	72.87
204.098	130.22
204.317	60.59
204.536	187.56
204.755	101.55
204.974	130.22
205.193	-43.86
205.411	193.7
205.63	117.93
205.849	79.02
206.068	-7
206.287	19.63
206.505	130.22
206.724	33.96
206.943	-47.96
207.162	-13.14
207.381	156.84
207.599	7.34
207.818	64.68
208.037	-68.44
208.255	-31.57
208.474	29.87
208.693	140.46
208.911	109.74
209.13	99.5
209.349	101.55
209.567	103.59
209.786	101.55
210.005	19.63
210.223	79.02
210.442	11.43
210.661	23.72
210.879	74.92
211.098	42.15
211.316	-27.48
211.535	23.72
211.753	27.82
211.972	29.87
212.191	-29.52
212.409	-31.57
212.628	48.3
212.846	-25.43
213.065	25.77
213.283	126.12
213.502	40.11
213.72	-7
213.938	33.96
214.157	17.58
214.375	119.98
214.594	9.39
214.812	81.07
215.031	46.25
215.249	9.39
215.467	27.82
215.686	50.35
215.904	25.77
216.122	46.25
216.341	142.5
216.559	23.72
216.778	107.69
216.996	101.55
217.214	25.77
217.432	46.25
217.651	-82.77
217.869	-11.09
218.087	-2.9
218.306	7.34
218.524	56.49
218.742	64.68
218.96	21.67
219.179	42.15
219.397	46.25
219.615	244.9
219.833	83.11
220.051	-52.05
220.27	115.88
220.488	148.65
220.706	70.83
220.924	13.48
221.142	19.63
221.36	-37.72
221.578	101.55
221.796	3.24
222.015	-37.72
222.233	50.35
222.451	251.05
222.669	46.25
222.887	62.63
223.105	5.29
223.323	15.53
223.541	-80.72
223.759	130.22
223.977	38.06
224.195	87.21
224.413	126.12
224.631	-11.09
224.849	132.26
225.067	167.08
225.285	23.72
225.503	79.02
225.721	-109.4
225.939	60.59
226.157	-0.85
226.375	195.75
226.592	33.96
226.81	54.44
227.028	70.83
227.246	119.98
227.464	97.45
227.682	44.2
227.9	119.98
228.117	21.67
228.335	25.77
228.553	38.06
228.771	56.49
228.989	19.63
229.206	42.15
229.424	15.53
229.642	-19.29
229.86	11.43
230.077	124.07
230.295	107.69
230.513	165.03
230.731	134.31
230.948	152.74
231.166	148.65
231.384	103.59
231.601	-68.44
231.819	99.5
232.037	-31.57
232.254	-74.58
232.472	119.98
232.689	-41.81
232.907	99.5
233.125	29.87
233.342	17.58
233.56	-2.9
233.777	17.58
233.995	60.59
234.213	142.5
234.43	91.31
234.648	-19.29
234.865	-7
235.083	66.73
235.3	64.68
235.518	101.55
235.735	160.94
235.953	138.41
236.17	33.96
236.388	1.19
236.605	52.39
236.822	115.88
237.04	85.16
237.257	70.83
237.475	-60.24
237.692	62.63
237.909	113.83
238.127	-11.09
238.344	97.45
238.562	19.63
238.779	-90.96
238.996	5.29
239.214	27.82
239.431	85.16
239.648	1.19
239.865	74.92
240.083	9.39
240.3	-13.14
240.517	74.92
240.735	-11.09
240.952	128.17
241.169	146.6
241.386	124.07
241.603	-64.34
241.821	-47.96
242.038	-13.14
242.255	95.4
242.472	-66.39
242.689	42.15
242.907	79.02
243.124	103.59
243.341	42.15
243.558	13.48
243.775	-35.67
243.992	-25.43
244.209	124.07
244.426	95.4
244.643	91.31
244.86	-99.16
245.078	205.99
245.295	31.91
245.512	29.87
245.729	7.34
245.946	144.55
246.163	68.78
246.38	-64.34
246.597	70.83
246.814	89.26
247.031	72.87
247.248	29.87
247.464	17.58
247.681	72.87
247.898	101.55
248.115	50.35
248.332	-11.09
248.549	167.08
248.766	138.41
248.983	101.55
249.2	62.63
249.417	62.63
249.633	29.87
249.85	97.45
250.067	83.11
250.284	48.3
250.501	52.39
250.717	93.35
250.934	-103.25
251.151	36.01
251.368	23.72
251.585	17.58
251.801	56.49
252.018	31.91
252.235	128.17
252.451	-50
252.668	-11.09
252.885	152.74
253.102	165.03
253.318	33.96
253.535	19.63
253.752	-15.19
253.968	29.87
254.185	-11.09
254.401	-2.9
254.618	119.98
254.835	56.49
255.051	156.84
255.268	79.02
255.484	54.44
255.701	46.25
255.917	38.06
256.134	-88.92
256.351	64.68
256.567	-15.19
256.784	33.96
257	-9.05
257.217	142.5
257.433	85.16
257.65	21.67
257.866	173.22
258.082	-107.35
258.299	-56.15
258.515	-2.9
258.732	36.01
258.948	44.2
259.165	60.59
259.381	-45.91
259.597	101.55
259.814	119.98
260.03	17.58
260.246	52.39
260.463	126.12
260.679	140.46
260.895	33.96
261.112	91.31
261.328	31.91
261.544	29.87
261.761	169.13
261.977	-90.96
262.193	27.82
262.409	113.83
262.626	3.24
262.842	40.11
263.058	-39.76
263.274	152.74
263.49	89.26
263.707	38.06
263.923	117.93
264.139	52.39
264.355	46.25
264.571	70.83
264.787	91.31
265.004	185.51
265.22	-35.67
265.436	5.29
265.652	54.44
265.868	54.44
266.084	-58.2
266.3	68.78
266.516	-11.09
266.732	85.16
266.948	146.6
267.164	-62.29
267.38	76.97
267.596	21.67
267.812	144.55
268.028	95.4
268.244	3.24
268.46	-17.24
268.676	29.87
268.892	29.87
269.108	1.19
269.324	-2.9
269.54	-13.14
269.756	79.02
269.972	11.43
270.188	36.01
270.403	-21.33
270.619	11.43
270.835	189.61
271.051	-4.95
271.267	42.15
271.483	13.48
271.698	107.69
271.914	42.15
272.13	70.83
272.346	3.24
272.562	9.39
272.777	242.85
272.993	-9.05
273.209	-47.96
273.425	99.5
273.64	-41.81
273.856	74.92
274.072	-21.33
274.287	-0.85
274.503	64.68
274.719	27.82
274.934	-0.85
275.15	-74.58
275.366	21.67
275.581	-50
275.797	42.15
276.012	44.2
276.228	93.35
276.444	40.11
276.659	130.22
276.875	-72.53
277.09	91.31
277.306	-54.1
277.521	40.11
277.737	5.29
277.952	48.3
278.168	-17.24
278.383	38.06
278.599	58.54
278.814	70.83
279.03	42.15
279.245	138.41
279.461	15.53
279.676	156.84
279.892	-74.58
280.107	-39.76
280.322	-93.01
280.538	-4.95
280.753	-15.19
280.969	38.06
281.184	38.06
281.399	201.9
281.615	5.29
281.83	74.92
282.045	-31.57
282.26	29.87
282.476	91.31
282.691	183.46
282.906	62.63
283.122	36.01
283.337	-60.24
283.552	72.87
283.767	91.31
283.983	101.55
284.198	5.29
284.413	38.06
284.628	-13.14
284.843	19.63
285.058	68.78
285.274	74.92
285.489	-19.29
285.704	109.74
285.919	-50
286.134	-21.33
286.349	17.58
286.564	-33.62
286.779	128.17
286.995	70.83
287.21	-2.9
287.425	19.63
287.64	-19.29
287.855	54.44
288.07	-47.96
288.285	122.02
288.5	60.59
288.715	38.06
288.93	-66.39
289.145	50.35
289.36	66.73
289.575	58.54
289.79	95.4
290.004	50.35
290.219	89.26
290.434	7.34
290.649	83.11
290.864	19.63
291.079	68.78
291.294	74.92
291.509	76.97
291.724	25.77
291.938	31.91
292.153	74.92
292.368	58.54
292.583	17.58
292.798	95.4
293.012	81.07
293.227	31.91
293.442	-0.85
293.657	148.65
293.871	60.59
294.086	87.21
294.301	181.42
294.516	83.11
294.73	54.44
294.945	-45.91
295.16	-0.85
295.374	167.08
295.589	85.16
295.804	62.63
296.018	-13.14
296.233	173.22
296.447	91.31
296.662	-4.95
296.877	70.83
297.091	111.78
297.306	15.53
297.52	58.54
297.735	95.4
297.949	83.11
298.164	38.06
298.378	-4.95
298.593	-62.29
298.807	62.63
299.022	42.15
299.236	111.78
299.451	-45.91
299.665	72.87
299.88	44.2
300.094	146.6
300.309	-54.1
300.523	99.5
300.737	-93.01
300.952	101.55
301.166	93.35
301.381	-31.57
301.595	-35.67
301.809	48.3
302.024	33.96
302.238	13.48
302.452	79.02
302.667	-11.09
302.881	130.22
303.095	144.55
303.309	-9.05
303.524	-7
303.738	68.78
303.952	-45.91
304.166	33.96
304.381	-4.95
304.595	140.46
304.809	52.39
305.023	79.02
305.237	17.58
305.452	-45.91
305.666	60.59
305.88	74.92
306.094	46.25
306.308	74.92
306.522	76.97
306.736	74.92
306.95	185.51
307.164	76.97
307.379	29.87
307.593	79.02
307.807	109.74
308.021	85.16
308.235	50.35
308.449	-86.87
308.663	21.67
308.877	226.47
309.091	27.82
309.305	40.11
309.519	-45.91
309.733	156.84
309.947	1.19
310.161	107.69
310.374	31.91
310.588	44.2
310.802	-15.19
311.016	21.67
311.23	122.02
311.444	-13.14
311.658	1.19
311.872	122.02
312.085	50.35
312.299	68.78
312.513	107.69
312.727	74.92
312.941	-9.05
313.154	23.72
313.368	42.15
313.582	72.87
313.796	23.72
314.009	15.53
314.223	165.03
314.437	50.35
314.651	134.31
314.864	-9.05
315.078	76.97
315.292	-74.58
315.505	13.48
315.719	76.97
315.933	83.11
316.146	-0.85
316.36	-31.57
316.573	144.55
316.787	109.74
317.001	93.35
317.214	-7
317.428	66.73
317.641	-97.11
317.855	1.19
318.068	87.21
318.282	87.21
318.495	111.78
318.709	99.5
318.922	-9.05
319.136	140.46
319.349	165.03
319.563	9.39
319.776	136.36
319.99	-50
320.203	117.93
320.417	54.44
320.63	5.29
320.843	95.4
321.057	64.68
321.27	68.78
321.483	134.31
321.697	50.35
321.91	15.53
322.124	68.78
322.337	38.06
322.55	-56.15
322.763	54.44
322.977	70.83
323.19	-31.57
323.403	13.48
323.617	87.21
323.83	205.99
324.043	74.92
324.256	103.59
324.469	-70.48
324.683	144.55
324.896	11.43
325.109	-11.09
325.322	-58.2
325.535	79.02
325.748	95.4
325.962	13.48
326.175	-15.19
326.388	93.35
326.601	62.63
326.814	-19.29
327.027	-33.62
327.24	199.85
327.453	-90.96
327.666	54.44
327.879	105.64
328.092	29.87
328.305	-27.48
328.518	42.15
328.731	-4.95
328.944	-27.48
329.157	89.26
329.37	27.82
329.583	138.41
329.796	29.87
330.009	-74.58
330.222	50.35
330.435	171.18
330.648	76.97
330.861	38.06
331.073	7.34
331.286	148.65
331.499	60.59
331.712	31.91
331.925	101.55
332.138	62.63
332.35	25.77
332.563	21.67
332.776	99.5
332.989	29.87
333.202	13.48
333.414	23.72
333.627	52.39
333.84	52.39
334.053	19.63
334.265	25.77
334.478	-47.96
334.691	29.87
334.903	1.19
335.116	-11.09
335.329	1.19
335.541	87.21
335.754	107.69
335.966	23.72
336.179	27.82
336.392	-0.85
336.604	66.73
336.817	54.44
337.029	97.45
337.242	46.25
337.454	79.02
337.667	-11.09
337.88	140.46
338.092	9.39
338.305	79.02
338.517	-13.14
338.729	-7
338.942	134.31
339.154	-82.77
339.367	-33.62
339.579	105.64
339.792	81.07
340.004	136.36
340.217	74.92
340.429	3.24
340.641	-56.15
340.854	-33.62
341.066	33.96
341.278	70.83
341.491	195.75
341.703	76.97
341.915	-47.96
342.128	95.4
342.34	68.78
342.552	-35.67
342.764	79.02
342.977	-11.09
343.189	64.68
343.401	31.91
343.613	52.39
343.826	-7
344.038	-15.19
344.25	-7
344.462	-25.43
344.674	-19.29
344.886	44.2
345.099	83.11
345.311	124.07
345.523	-41.81
345.735	-70.48
345.947	3.24
346.159	1.19
346.371	33.96
346.583	42.15
346.795	148.65
347.007	-54.1
347.219	140.46
347.431	-23.38
347.643	95.4
347.855	-50
348.067	156.84
348.279	-43.86
348.491	74.92
348.703	68.78
348.915	-11.09
349.127	-95.06
349.339	62.63
349.551	17.58
349.763	54.44
349.975	17.58
350.187	117.93
350.399	140.46
350.61	140.46
350.822	72.87
351.034	66.73
351.246	60.59
351.458	58.54
351.669	-27.48
351.881	79.02
352.093	83.11
352.305	21.67
352.517	17.58
352.728	126.12
352.94	76.97
353.152	33.96
353.363	21.67
353.575	56.49
353.787	113.83
353.999	36.01
354.21	154.79
354.422	-60.24
354.633	72.87
354.845	5.29
355.057	56.49
355.268	72.87
355.48	81.07
355.692	-64.34
355.903	54.44
356.115	-56.15
356.326	-93.01
356.538	154.79
356.749	42.15
356.961	128.17
357.172	58.54
357.384	1.19
357.595	212.14
357.807	-39.76
358.018	36.01
358.23	36.01
358.441	158.89
358.653	89.26
358.864	15.53
359.075	7.34
359.287	21.67
359.498	46.25
359.709	38.06
359.921	107.69
360.132	97.45
360.344	40.11
360.555	-35.67
360.766	5.29
360.977	-7
361.189	140.46
361.4	40.11
361.611	117.93
361.823	70.83
362.034	140.46
362.245	-105.3
362.456	54.44
362.667	21.67
362.879	-21.33
363.09	81.07
363.301	93.35
363.512	25.77
363.723	-21.33
363.935	-7
364.146	54.44
364.357	21.67
364.568	64.68
364.779	-47.96
364.99	195.75
365.201	-33.62
365.412	146.6
365.623	-113.49
365.834	76.97
366.045	70.83
366.256	154.79
366.467	5.29
366.678	-68.44
366.889	56.49
367.1	-19.29
367.311	132.26
367.522	-2.9
367.733	81.07
367.944	89.26
368.155	1.19
368.366	85.16
368.577	115.88
368.788	136.36
368.999	-27.48
369.209	40.11
369.42	160.94
369.631	228.52
369.842	181.42
370.053	113.83
370.264	60.59
370.474	17.58
370.685	-2.9
370.896	36.01
371.107	91.31
371.317	-15.19
371.528	-37.72
371.739	140.46
371.95	128.17
372.16	74.92
372.371	-7
372.582	-99.16
372.792	68.78
373.003	54.44
373.214	60.59
373.424	113.83
373.635	3.24
373.846	124.07
374.056	27.82
374.267	19.63
374.477	109.74
374.688	-37.72
374.898	148.65
375.109	132.26
375.319	29.87
375.53	101.55
375.74	132.26
375.951	17.58
376.161	25.77
376.372	64.68
376.582	60.59
376.793	103.59
377.003	38.06
377.214	-60.24
377.424	136.36
377.635	58.54
377.845	44.2
378.055	97.45
378.266	-47.96
378.476	48.3
378.686	1.19
378.897	97.45
379.107	113.83
379.317	29.87
379.528	29.87
379.738	44.2
379.948	-56.15
380.158	126.12
380.369	9.39
380.579	132.26
380.789	89.26
380.999	109.74
381.21	111.78
381.42	236.71
381.63	54.44
381.84	199.85
382.05	83.11
382.261	130.22
382.471	189.61
382.681	-45.91
382.891	150.7
383.101	15.53
383.311	29.87
383.521	-62.29
383.731	105.64
383.941	76.97
384.151	74.92
384.361	52.39
384.571	62.63
384.781	81.07
384.991	236.71
385.201	126.12
385.411	93.35
385.621	38.06
385.831	81.07
386.041	44.2
386.251	21.67
386.461	109.74
386.671	-13.14
386.881	-4.95
387.091	25.77
387.301	162.98
387.511	31.91
387.72	128.17
387.93	52.39
388.14	-52.05
388.35	119.98
388.56	134.31
388.769	150.7
388.979	17.58
389.189	99.5
389.399	60.59
389.609	105.64
389.818	83.11
390.028	50.35
390.238	140.46
390.447	9.39
390.657	70.83
390.867	58.54
391.076	-74.58
391.286	107.69
391.496	9.39
391.705	36.01
391.915	167.08
392.125	93.35
392.334	42.15
392.544	138.41
392.753	58.54
392.963	-0.85
393.172	25.77
393.382	-4.95
393.591	124.07
393.801	7.34
394.01	134.31
394.22	119.98
394.429	21.67
394.639	50.35
394.848	29.87
395.058	36.01
395.267	40.11
395.477	97.45
395.686	89.26
395.895	175.27
396.105	177.32
396.314	21.67
396.524	46.25
396.733	17.58
396.942	72.87
397.152	58.54
397.361	27.82
397.57	60.59
397.78	66.73
397.989	109.74
398.198	226.47
398.407	33.96
398.617	76.97
398.826	1.19
399.035	9.39
399.244	107.69
399.453	146.6
399.663	52.39
399.872	31.91
400.081	-35.67
400.29	134.31
400.499	-2.9
400.708	150.7
400.917	72.87
401.127	44.2
401.336	27.82
401.545	261.29
401.754	93.35
401.963	101.55
402.172	-31.57
402.381	-7
402.59	5.29
402.799	-2.9
403.008	201.9
403.217	17.58
403.426	95.4
403.635	-0.85
403.844	70.83
404.053	44.2
404.262	13.48
404.471	187.56
404.68	70.83
404.888	44.2
405.097	52.39
405.306	70.83
405.515	87.21
405.724	5.29
405.933	165.03
406.142	58.54
406.35	138.41
406.559	1.19
406.768	52.39
406.977	146.6
407.185	62.63
407.394	52.39
407.603	-58.2
407.812	40.11
408.02	76.97
408.229	44.2
408.438	42.15
408.646	-50
408.855	62.63
409.064	-4.95
409.272	31.91
409.481	72.87
409.69	-9.05
409.898	11.43
410.107	44.2
410.315	60.59
410.524	-64.34
410.733	101.55
410.941	5.29
411.15	148.65
411.358	144.55
411.567	203.94
411.775	89.26
411.984	40.11
412.192	99.5
412.401	62.63
412.609	138.41
412.818	189.61
413.026	79.02
413.234	7.34
413.443	97.45
413.651	-0.85
413.86	58.54
414.068	103.59
414.276	111.78
414.485	-47.96
414.693	142.5
414.901	105.64
415.11	5.29
415.318	74.92
415.526	74.92
415.734	179.37
415.943	107.69
416.151	259.24
416.359	126.12
416.567	64.68
416.776	171.18
416.984	46.25
417.192	146.6
417.4	-50
417.608	-43.86
417.817	-50
418.025	140.46
418.233	212.14
418.441	-27.48
418.649	11.43
418.857	60.59
419.065	93.35
419.273	-4.95
419.481	132.26
419.689	95.4
419.897	-25.43
420.105	-19.29
420.313	95.4
420.521	173.22
420.729	107.69
420.937	52.39
421.145	-23.38
421.353	81.07
421.561	87.21
421.769	70.83
421.977	-13.14
422.185	140.46
422.393	46.25
422.601	132.26
422.809	132.26
423.017	13.48
423.224	140.46
423.432	107.69
423.64	11.43
423.848	171.18
424.056	15.53
424.263	83.11
424.471	-54.1
424.679	107.69
424.887	-47.96
425.094	154.79
425.302	97.45
425.51	7.34
425.718	160.94
425.925	160.94
426.133	3.24
426.341	234.66
426.548	58.54
426.756	81.07
426.964	72.87
427.171	3.24
427.379	79.02
427.586	44.2
427.794	95.4
428.001	113.83
428.209	79.02
428.417	185.51
428.624	38.06
428.832	156.84
429.039	33.96
429.247	89.26
429.454	189.61
429.662	205.99
429.869	136.36
430.076	105.64
430.284	146.6
430.491	244.9
430.699	148.65
430.906	228.52
431.114	91.31
431.321	140.46
431.528	140.46
431.736	138.41
431.943	171.18
432.15	193.7
432.358	169.13
432.565	220.33
432.772	38.06
432.979	165.03
433.187	234.66
433.394	261.29
433.601	130.22
433.808	187.56
434.016	171.18
434.223	234.66
434.43	181.42
434.637	259.24
434.844	279.72
435.052	195.75
435.259	324.77
435.466	251.05
435.673	267.43
435.88	302.25
436.087	312.49
436.294	339.11
436.501	269.48
436.708	263.33
436.915	240.81
437.122	332.97
437.329	183.46
437.537	322.73
437.743	341.16
437.95	429.22
438.157	355.49
438.364	345.25
438.571	304.29
438.778	468.13
438.985	404.64
439.192	382.12
439.399	386.21
439.606	410.79
439.813	455.84
440.02	613.54
440.227	591.01
440.433	558.24
440.64	572.58
440.847	441.51
441.054	455.84
441.261	744.61
441.467	552.1
441.674	568.48
441.881	664.74
442.088	658.59
442.294	814.24
442.501	699.55
442.708	806.05
442.914	758.94
443.121	773.28
443.328	799.9
443.534	838.81
443.741	912.54
443.948	720.03
444.154	984.22
444.361	1141.91
444.568	924.83
444.774	1084.57
444.981	951.45
445.187	1119.39
445.394	1160.34
445.6	1115.29
445.807	1244.31
446.013	1168.54
446.22	1090.71
446.426	1252.5
446.633	1391.77
446.839	1594.51
447.046	1436.82
447.252	1520.79
447.459	1531.03
447.665	1559.7
447.871	1752.21
448.078	1784.98
448.284	1774.74
448.491	1950.86
448.697	1873.04
448.903	2094.22
449.11	2098.31
449.316	2071.69
449.522	2219.14
449.728	2401.41
449.935	2387.08
450.141	2428.04
450.347	2528.39
450.553	2606.21
450.76	2563.2
450.966	2774.14
451.172	2849.92
451.378	2942.08
451.584	2864.25
451.791	3224.7
451.997	3271.8
452.203	3409.01
452.409	3632.24
452.615	3718.26
452.821	3607.67
453.027	3652.72
453.233	4146.28
453.44	4058.22
453.646	4189.29
453.852	4328.55
454.058	4359.27
454.264	4602.98
454.47	4969.57
454.676	5028.96
454.882	5434.46
455.088	5188.7
455.294	5653.59
455.5	5715.03
455.705	6155.34
455.911	6132.81
456.117	6513.74
456.323	6630.47
456.529	6569.03
456.735	7035.97
456.941	7296.06
457.147	7638.07
457.352	7779.38
457.558	7928.88
457.764	8680.49
457.97	8694.82
458.176	9233.44
458.381	9491.48
458.587	9663.51
458.793	10482.7
458.999	10109.97
459.204	11543.55
459.41	11734.01
459.616	11713.53
459.821	12270.58
460.027	13073.38
460.233	13661.15
460.438	13523.93
460.644	14242.77
460.85	14379.98
461.055	14889.93
461.261	15762.36
461.466	15539.13
461.672	15819.71
461.878	17480.61
462.083	17378.21
462.289	17742.75
462.494	18658.19
462.7	18674.57
462.905	18899.85
463.111	20329.33
463.316	21515.11
463.522	21429.09
463.727	22500.18
463.932	23288.65
464.138	23814.98
464.343	25072.43
464.549	25076.52
464.754	27048.72
464.959	27663.11
465.165	28115.71
465.37	27798.27
465.575	28209.92
465.781	29934.31
465.986	31089.36
466.191	30712.53
466.397	30135.01
466.602	29838.05
466.807	31722.18
467.012	32522.94
467.218	32875.19
467.423	32549.56
467.628	33979.04
467.833	35256.98
468.038	34728.6
468.244	34183.84
468.449	35877.51
468.654	35203.73
468.859	35347.09
469.064	35160.72
