Data from USB4F104151__69__11-30-58-964.txt Node

Date: Wed Feb 26 11:30:58 EST 2025
User: louis
Spectrometer: USB4F10415
Trigger mode: 4
Integration Time (sec): 1.000000E-1
Scans to average: 1
Electric dark correction enabled: true
Nonlinearity correction enabled: false
Boxcar width: 0
XAxis mode: Wavelengths
Number of Pixels in Spectrum: 3648
>>>>>Begin Spectral Data<<<<<
178.204	-401.23
178.424	-401.23
178.644	-401.23
178.864	-399.18
179.084	-411.47
179.304	-63.32
179.524	-8.02
179.744	116.9
179.964	39.08
180.184	-12.12
180.404	41.13
180.624	-79.7
180.844	26.79
181.064	-94.04
181.283	2.22
181.503	-53.08
181.723	84.14
181.943	-73.56
182.163	186.54
182.383	-1.88
182.602	123.05
182.822	223.4
183.042	178.34
183.262	71.85
183.482	-26.45
183.701	63.66
183.921	18.6
184.141	-73.56
184.361	57.51
184.58	166.06
184.8	73.9
185.02	12.46
185.239	139.43
185.459	77.99
185.679	149.67
185.898	-65.36
186.118	43.18
186.338	108.71
186.557	121
186.777	-75.6
186.997	26.79
187.216	4.27
187.436	202.92
187.655	147.62
187.875	127.14
188.095	10.41
188.314	241.83
188.534	86.19
188.753	-16.21
188.973	131.24
189.192	184.49
189.412	30.89
189.631	90.28
189.851	84.14
190.07	204.97
190.29	-40.79
190.509	71.85
190.729	88.23
190.948	180.39
191.168	258.21
191.387	86.19
191.607	77.99
191.826	137.38
192.045	90.28
192.265	49.32
192.484	77.99
192.704	77.99
192.923	-44.88
193.142	194.73
193.362	166.06
193.581	213.16
193.8	88.23
194.02	112.81
194.239	90.28
194.458	143.53
194.678	82.09
194.897	18.6
195.116	106.67
195.335	61.61
195.555	127.14
195.774	51.37
195.993	182.44
196.212	45.23
196.432	67.75
196.651	-44.88
196.87	102.57
197.089	254.12
197.308	129.19
197.528	116.9
197.747	-87.89
197.966	104.62
198.185	180.39
198.404	12.46
198.623	168.1
198.842	168.1
199.062	209.06
199.281	176.3
199.5	127.14
199.719	63.66
199.938	131.24
200.157	129.19
200.376	133.29
200.595	69.8
200.814	88.23
201.033	26.79
201.252	186.54
201.471	57.51
201.69	90.28
201.909	65.71
202.128	137.38
202.347	153.77
202.566	24.75
202.785	16.55
203.004	55.47
203.223	331.94
203.442	26.79
203.661	39.08
203.879	69.8
204.098	215.21
204.317	71.85
204.536	125.1
204.755	141.48
204.974	147.62
205.193	112.81
205.411	121
205.63	157.86
205.849	106.67
206.068	32.94
206.287	-24.4
206.505	143.53
206.724	92.33
206.943	-14.17
207.162	6.31
207.381	57.51
207.599	63.66
207.818	131.24
208.037	63.66
208.255	73.9
208.474	143.53
208.693	84.14
208.911	-14.17
209.13	22.7
209.349	96.43
209.567	67.75
209.786	73.9
210.005	145.58
210.223	65.71
210.442	-63.32
210.661	14.51
210.879	63.66
211.098	37.03
211.316	102.57
211.535	32.94
211.753	86.19
211.972	84.14
212.191	53.42
212.409	61.61
212.628	151.72
212.846	-1.88
213.065	127.14
213.283	86.19
213.502	51.37
213.72	88.23
213.938	34.99
214.157	114.86
214.375	96.43
214.594	28.84
214.812	69.8
215.031	63.66
215.249	137.38
215.467	112.81
215.686	65.71
215.904	20.65
216.122	0.17
216.341	118.95
216.559	125.1
216.778	98.47
216.996	149.67
217.214	123.05
217.432	51.37
217.651	-85.84
217.869	65.71
218.087	14.51
218.306	41.13
218.524	57.51
218.742	-1.88
218.96	178.34
219.179	86.19
219.397	69.8
219.615	227.5
219.833	164.01
220.051	22.7
220.27	170.15
220.488	123.05
220.706	71.85
220.924	108.71
221.142	-8.02
221.36	45.23
221.578	127.14
221.796	77.99
222.015	88.23
222.233	176.3
222.451	209.06
222.669	-3.93
222.887	135.34
223.105	49.32
223.323	110.76
223.541	-26.45
223.759	108.71
223.977	106.67
224.195	172.2
224.413	151.72
224.631	116.9
224.849	131.24
225.067	182.44
225.285	30.89
225.503	30.89
225.721	-114.52
225.939	92.33
226.157	43.18
226.375	295.08
226.592	12.46
226.81	28.84
227.028	229.54
227.246	153.77
227.464	90.28
227.682	200.87
227.9	133.29
228.117	75.95
228.335	69.8
228.553	141.48
228.771	53.42
228.989	108.71
229.206	61.61
229.424	80.04
229.642	26.79
229.86	37.03
230.077	118.95
230.295	106.67
230.513	96.43
230.731	102.57
230.948	256.17
231.166	278.69
231.384	63.66
231.601	0.17
231.819	231.59
232.037	67.75
232.254	59.56
232.472	55.47
232.689	118.95
232.907	207.02
233.125	-63.32
233.342	-18.26
233.56	-10.07
233.777	69.8
233.995	-5.97
234.213	137.38
234.43	123.05
234.648	34.99
234.865	63.66
235.083	22.7
235.3	116.9
235.518	53.42
235.735	129.19
235.953	139.43
236.17	112.81
236.388	133.29
236.605	47.27
236.822	133.29
237.04	202.92
237.257	69.8
237.475	22.7
237.692	94.38
237.909	182.44
238.127	-30.55
238.344	39.08
238.562	26.79
238.779	-75.6
238.996	-32.6
239.214	131.24
239.431	139.43
239.648	129.19
239.865	77.99
240.083	82.09
240.3	30.89
240.517	-36.69
240.735	24.75
240.952	168.1
241.169	123.05
241.386	18.6
241.603	49.32
241.821	51.37
242.038	129.19
242.255	168.1
242.472	-75.6
242.689	98.47
242.907	92.33
243.124	51.37
243.341	61.61
243.558	6.31
243.775	14.51
243.992	-69.46
244.209	151.72
244.426	190.63
244.643	75.95
244.86	28.84
245.078	73.9
245.295	41.13
245.512	37.03
245.729	-20.31
245.946	92.33
246.163	118.95
246.38	49.32
246.597	51.37
246.814	63.66
247.031	26.79
247.248	49.32
247.464	127.14
247.681	121
247.898	84.14
248.115	86.19
248.332	43.18
248.549	141.48
248.766	192.68
248.983	106.67
249.2	149.67
249.417	123.05
249.633	96.43
249.85	178.34
250.067	118.95
250.284	43.18
250.501	73.9
250.717	39.08
250.934	4.27
251.151	82.09
251.368	139.43
251.585	43.18
251.801	49.32
252.018	-57.17
252.235	211.11
252.451	18.6
252.668	47.27
252.885	77.99
253.102	88.23
253.318	-12.12
253.535	32.94
253.752	53.42
253.968	16.55
254.185	-51.03
254.401	104.62
254.618	65.71
254.835	39.08
255.051	159.91
255.268	139.43
255.484	73.9
255.701	116.9
255.917	129.19
256.134	20.65
256.351	86.19
256.567	-24.4
256.784	90.28
257	-14.17
257.217	18.6
257.433	108.71
257.65	86.19
257.866	211.11
258.082	-65.36
258.299	0.17
258.515	47.27
258.732	86.19
258.948	73.9
259.165	102.57
259.381	53.42
259.597	116.9
259.814	-14.17
260.03	49.32
260.246	43.18
260.463	88.23
260.679	77.99
260.895	80.04
261.112	-20.31
261.328	16.55
261.544	20.65
261.761	219.3
261.977	28.84
262.193	-71.51
262.409	139.43
262.626	45.23
262.842	-3.93
263.058	-26.45
263.274	131.24
263.49	69.8
263.707	108.71
263.923	73.9
264.139	26.79
264.355	22.7
264.571	24.75
264.787	94.38
265.004	182.44
265.22	41.13
265.436	39.08
265.652	55.47
265.868	59.56
266.084	-16.21
266.3	63.66
266.516	49.32
266.732	88.23
266.948	125.1
267.164	61.61
267.38	157.86
267.596	100.52
267.812	256.17
268.028	106.67
268.244	-14.17
268.46	98.47
268.676	-32.6
268.892	77.99
269.108	-22.36
269.324	8.36
269.54	-28.5
269.756	155.82
269.972	-61.27
270.188	34.99
270.403	-24.4
270.619	24.75
270.835	108.71
271.051	98.47
271.267	10.41
271.483	32.94
271.698	180.39
271.914	141.48
272.13	94.38
272.346	77.99
272.562	69.8
272.777	166.06
272.993	84.14
273.209	2.22
273.425	127.14
273.64	-46.93
273.856	139.43
274.072	-8.02
274.287	47.27
274.503	30.89
274.719	86.19
274.934	16.55
275.15	-63.32
275.366	88.23
275.581	43.18
275.797	65.71
276.012	47.27
276.228	47.27
276.444	-22.36
276.659	65.71
276.875	65.71
277.09	45.23
277.306	53.42
277.521	57.51
277.737	69.8
277.952	112.81
278.168	12.46
278.383	77.99
278.599	96.43
278.814	145.58
279.03	26.79
279.245	131.24
279.461	49.32
279.676	116.9
279.892	-38.74
280.107	34.99
280.322	4.27
280.538	131.24
280.753	22.7
280.969	61.61
281.184	92.33
281.399	182.44
281.615	24.75
281.83	90.28
282.045	20.65
282.26	32.94
282.476	75.95
282.691	166.06
282.906	159.91
283.122	92.33
283.337	71.85
283.552	112.81
283.767	63.66
283.983	88.23
284.198	43.18
284.413	110.76
284.628	-63.32
284.843	75.95
285.058	61.61
285.274	61.61
285.489	-14.17
285.704	106.67
285.919	77.99
286.134	-61.27
286.349	125.1
286.564	32.94
286.779	168.1
286.995	65.71
287.21	-5.97
287.425	6.31
287.64	30.89
287.855	141.48
288.07	-46.93
288.285	65.71
288.5	59.56
288.715	82.09
288.93	28.84
289.145	88.23
289.36	149.67
289.575	73.9
289.79	180.39
290.004	-104.28
290.219	131.24
290.434	14.51
290.649	24.75
290.864	39.08
291.079	-14.17
291.294	14.51
291.509	80.04
291.724	18.6
291.938	47.27
292.153	98.47
292.368	69.8
292.583	135.34
292.798	121
293.012	108.71
293.227	75.95
293.442	0.17
293.657	118.95
293.871	178.34
294.086	59.56
294.301	245.93
294.516	198.82
294.73	43.18
294.945	-48.98
295.16	-12.12
295.374	102.57
295.589	239.78
295.804	6.31
296.018	86.19
296.233	174.25
296.447	125.1
296.662	65.71
296.877	84.14
297.091	80.04
297.306	30.89
297.52	71.85
297.735	-1.88
297.949	110.76
298.164	59.56
298.378	69.8
298.593	63.66
298.807	14.51
299.022	-28.5
299.236	196.78
299.451	28.84
299.665	96.43
299.88	63.66
300.094	84.14
300.309	112.81
300.523	18.6
300.737	45.23
300.952	51.37
301.166	116.9
301.381	-36.69
301.595	39.08
301.809	98.47
302.024	75.95
302.238	-5.97
302.452	151.72
302.667	108.71
302.881	176.3
303.095	161.96
303.309	116.9
303.524	22.7
303.738	10.41
303.952	-53.08
304.166	57.51
304.381	-40.79
304.595	174.25
304.809	37.03
305.023	102.57
305.237	14.51
305.452	-28.5
305.666	67.75
305.88	71.85
306.094	166.06
306.308	147.62
306.522	-20.31
306.736	80.04
306.95	153.77
307.164	-28.5
307.379	77.99
307.593	176.3
307.807	155.82
308.021	84.14
308.235	34.99
308.449	-53.08
308.663	90.28
308.877	217.26
309.091	82.09
309.305	112.81
309.519	-55.12
309.733	196.78
309.947	-57.17
310.161	123.05
310.374	135.34
310.588	168.1
310.802	20.65
311.016	16.55
311.23	30.89
311.444	-46.93
311.658	129.19
311.872	172.2
312.085	137.38
312.299	123.05
312.513	153.77
312.727	59.56
312.941	22.7
313.154	123.05
313.368	92.33
313.582	69.8
313.796	116.9
314.009	20.65
314.223	116.9
314.437	69.8
314.651	135.34
314.864	-12.12
315.078	63.66
315.292	-22.36
315.505	94.38
315.719	133.29
315.933	69.8
316.146	-57.17
316.36	2.22
316.573	176.3
316.787	131.24
317.001	88.23
317.214	-38.74
317.428	118.95
317.641	55.47
317.855	16.55
318.068	153.77
318.282	100.52
318.495	157.86
318.709	45.23
318.922	28.84
319.136	204.97
319.349	141.48
319.563	106.67
319.776	94.38
319.99	28.84
320.203	123.05
320.417	133.29
320.63	186.54
320.843	147.62
321.057	84.14
321.27	47.27
321.483	75.95
321.697	172.2
321.91	90.28
322.124	69.8
322.337	84.14
322.55	-48.98
322.763	84.14
322.977	45.23
323.19	-12.12
323.403	61.61
323.617	170.15
323.83	145.58
324.043	61.61
324.256	123.05
324.469	-44.88
324.683	88.23
324.896	114.86
325.109	47.27
325.322	10.41
325.535	90.28
325.748	121
325.962	65.71
326.175	98.47
326.388	84.14
326.601	39.08
326.814	73.9
327.027	61.61
327.24	190.63
327.453	-28.5
327.666	55.47
327.879	172.2
328.092	114.86
328.305	155.82
328.518	-26.45
328.731	0.17
328.944	71.85
329.157	34.99
329.37	114.86
329.583	157.86
329.796	243.88
330.009	-53.08
330.222	180.39
330.435	149.67
330.648	125.1
330.861	14.51
331.073	73.9
331.286	121
331.499	73.9
331.712	30.89
331.925	24.75
332.138	123.05
332.35	57.51
332.563	6.31
332.776	135.34
332.989	12.46
333.202	39.08
333.414	37.03
333.627	55.47
333.84	51.37
334.053	47.27
334.265	-18.26
334.478	51.37
334.691	34.99
334.903	53.42
335.116	37.03
335.329	55.47
335.541	102.57
335.754	170.15
335.966	32.94
336.179	100.52
336.392	61.61
336.604	41.13
336.817	106.67
337.029	67.75
337.242	129.19
337.454	73.9
337.667	69.8
337.88	137.38
338.092	61.61
338.305	80.04
338.517	90.28
338.729	135.34
338.942	190.63
339.154	63.66
339.367	53.42
339.579	90.28
339.792	-46.93
340.004	73.9
340.217	92.33
340.429	32.94
340.641	0.17
340.854	55.47
341.066	45.23
341.278	98.47
341.491	215.21
341.703	82.09
341.915	24.75
342.128	98.47
342.34	112.81
342.552	55.47
342.764	45.23
342.977	-8.02
343.189	65.71
343.401	104.62
343.613	-3.93
343.826	22.7
344.038	-1.88
344.25	22.7
344.462	69.8
344.674	125.1
344.886	63.66
345.099	88.23
345.311	45.23
345.523	61.61
345.735	-77.65
345.947	84.14
346.159	43.18
346.371	61.61
346.583	30.89
346.795	215.21
347.007	37.03
347.219	69.8
347.431	16.55
347.643	161.96
347.855	43.18
348.067	217.26
348.279	-18.26
348.491	45.23
348.703	137.38
348.915	-5.97
349.127	-12.12
349.339	16.55
349.551	10.41
349.763	104.62
349.975	75.95
350.187	164.01
350.399	127.14
350.61	170.15
350.822	112.81
351.034	43.18
351.246	129.19
351.458	127.14
351.669	71.85
351.881	123.05
352.093	139.43
352.305	258.21
352.517	59.56
352.728	172.2
352.94	18.6
353.152	80.04
353.363	24.75
353.575	153.77
353.787	211.11
353.999	26.79
354.21	184.49
354.422	24.75
354.633	71.85
354.845	84.14
355.057	71.85
355.268	147.62
355.48	209.06
355.692	-44.88
355.903	69.8
356.115	8.36
356.326	-85.84
356.538	141.48
356.749	108.71
356.961	155.82
357.172	131.24
357.384	-30.55
357.595	237.74
357.807	63.66
358.018	4.27
358.23	0.17
358.441	153.77
358.653	69.8
358.864	125.1
359.075	-12.12
359.287	92.33
359.498	26.79
359.709	180.39
359.921	82.09
360.132	94.38
360.344	61.61
360.555	16.55
360.766	104.62
360.977	37.03
361.189	172.2
361.4	96.43
361.611	139.43
361.823	92.33
362.034	92.33
362.245	-8.02
362.456	88.23
362.667	145.58
362.879	-42.84
363.09	147.62
363.301	45.23
363.512	133.29
363.723	26.79
363.935	-28.5
364.146	84.14
364.357	10.41
364.568	12.46
364.779	-40.79
364.99	155.82
365.201	41.13
365.412	100.52
365.623	-110.42
365.834	16.55
366.045	98.47
366.256	178.34
366.467	116.9
366.678	65.71
366.889	127.14
367.1	30.89
367.311	164.01
367.522	77.99
367.733	45.23
367.944	51.37
368.155	73.9
368.366	118.95
368.577	178.34
368.788	123.05
368.999	63.66
369.209	39.08
369.42	123.05
369.631	272.55
369.842	98.47
370.053	10.41
370.264	157.86
370.474	98.47
370.685	53.42
370.896	88.23
371.107	168.1
371.317	112.81
371.528	75.95
371.739	153.77
371.95	192.68
372.16	100.52
372.371	-67.41
372.582	2.22
372.792	67.75
373.003	182.44
373.214	102.57
373.424	155.82
373.635	8.36
373.846	184.49
374.056	49.32
374.267	125.1
374.477	84.14
374.688	-10.07
374.898	112.81
375.109	172.2
375.319	123.05
375.53	92.33
375.74	114.86
375.951	37.03
376.161	137.38
376.372	164.01
376.582	43.18
376.793	155.82
377.003	-1.88
377.214	-10.07
377.424	123.05
377.635	30.89
377.845	-24.4
378.055	98.47
378.266	-10.07
378.476	18.6
378.686	86.19
378.897	92.33
379.107	147.62
379.317	73.9
379.528	8.36
379.738	114.86
379.948	34.99
380.158	143.53
380.369	43.18
380.579	43.18
380.789	82.09
380.999	82.09
381.21	153.77
381.42	184.49
381.63	39.08
381.84	80.04
382.05	161.96
382.261	174.25
382.471	73.9
382.681	41.13
382.891	116.9
383.101	65.71
383.311	18.6
383.521	-14.17
383.731	18.6
383.941	157.86
384.151	61.61
384.361	96.43
384.571	82.09
384.781	108.71
384.991	108.71
385.201	237.74
385.411	26.79
385.621	20.65
385.831	69.8
386.041	94.38
386.251	47.27
386.461	112.81
386.671	-22.36
386.881	104.62
387.091	104.62
387.301	114.86
387.511	92.33
387.72	22.7
387.93	118.95
388.14	24.75
388.35	100.52
388.56	131.24
388.769	106.67
388.979	59.56
389.189	59.56
389.399	84.14
389.609	61.61
389.818	-1.88
390.028	96.43
390.238	104.62
390.447	-85.84
390.657	22.7
390.867	129.19
391.076	-14.17
391.286	86.19
391.496	30.89
391.705	110.76
391.915	151.72
392.125	102.57
392.334	98.47
392.544	108.71
392.753	90.28
392.963	-48.98
393.172	75.95
393.382	-24.4
393.591	209.06
393.801	61.61
394.01	184.49
394.22	178.34
394.429	61.61
394.639	94.38
394.848	59.56
395.058	86.19
395.267	45.23
395.477	129.19
395.686	55.47
395.895	250.02
396.105	276.65
396.314	118.95
396.524	-1.88
396.733	6.31
396.942	155.82
397.152	4.27
397.361	82.09
397.57	100.52
397.78	53.42
397.989	73.9
398.198	262.31
398.407	77.99
398.617	-18.26
398.826	116.9
399.035	26.79
399.244	143.53
399.453	127.14
399.663	57.51
399.872	49.32
400.081	18.6
400.29	143.53
400.499	28.84
400.708	202.92
400.917	43.18
401.127	-42.84
401.336	20.65
401.545	145.58
401.754	86.19
401.963	186.54
402.172	71.85
402.381	12.46
402.59	53.42
402.799	133.29
403.008	149.67
403.217	102.57
403.426	28.84
403.635	41.13
403.844	82.09
404.053	88.23
404.262	43.18
404.471	176.3
404.68	170.15
404.888	96.43
405.097	26.79
405.306	49.32
405.515	90.28
405.724	98.47
405.933	123.05
406.142	123.05
406.35	82.09
406.559	98.47
406.768	147.62
406.977	155.82
407.185	75.95
407.394	61.61
407.603	-3.93
407.812	127.14
408.02	92.33
408.229	41.13
408.438	125.1
408.646	24.75
408.855	67.75
409.064	86.19
409.272	65.71
409.481	86.19
409.69	0.17
409.898	0.17
410.107	198.82
410.315	147.62
410.524	45.23
410.733	104.62
410.941	94.38
411.15	135.34
411.358	192.68
411.567	196.78
411.775	61.61
411.984	82.09
412.192	108.71
412.401	106.67
412.609	180.39
412.818	116.9
413.026	155.82
413.234	30.89
413.443	-24.4
413.651	77.99
413.86	73.9
414.068	202.92
414.276	239.78
414.485	-1.88
414.693	274.6
414.901	182.44
415.11	108.71
415.318	102.57
415.526	114.86
415.734	170.15
415.943	116.9
416.151	196.78
416.359	67.75
416.567	176.3
416.776	184.49
416.984	41.13
417.192	178.34
417.4	123.05
417.608	59.56
417.817	28.84
418.025	125.1
418.233	239.78
418.441	53.42
418.649	22.7
418.857	82.09
419.065	164.01
419.273	28.84
419.481	110.76
419.689	92.33
419.897	71.85
420.105	67.75
420.313	204.97
420.521	106.67
420.729	184.49
420.937	57.51
421.145	41.13
421.353	211.11
421.561	202.92
421.769	190.63
421.977	92.33
422.185	125.1
422.393	53.42
422.601	141.48
422.809	147.62
423.017	57.51
423.224	114.86
423.432	155.82
423.64	90.28
423.848	137.38
424.056	63.66
424.263	112.81
424.471	20.65
424.679	116.9
424.887	104.62
425.094	133.29
425.302	106.67
425.51	139.43
425.718	200.87
425.925	153.77
426.133	80.04
426.341	211.11
426.548	80.04
426.756	41.13
426.964	92.33
427.171	110.76
427.379	55.47
427.586	55.47
427.794	147.62
428.001	182.44
428.209	155.82
428.417	204.97
428.624	176.3
428.832	190.63
429.039	114.86
429.247	125.1
429.454	110.76
429.662	260.26
429.869	151.72
430.076	65.71
430.284	274.6
430.491	247.97
430.699	221.35
430.906	245.93
431.114	116.9
431.321	88.23
431.528	198.82
431.736	225.45
431.943	170.15
432.15	198.82
432.358	235.69
432.565	305.32
432.772	161.96
432.979	215.21
433.187	139.43
433.394	297.13
433.601	135.34
433.808	229.54
434.016	301.22
434.223	243.88
434.43	245.93
434.637	303.27
434.844	207.02
435.052	303.27
435.259	284.84
435.466	258.21
435.673	262.31
435.88	340.13
436.087	415.91
436.294	311.46
436.501	368.81
436.708	290.98
436.915	415.91
437.122	377
437.329	370.85
437.537	440.48
437.743	329.89
437.95	508.07
438.157	368.81
438.364	372.9
438.571	434.34
438.778	497.83
438.985	622.75
439.192	487.59
439.399	581.79
439.606	544.93
439.813	530.59
440.02	661.66
440.227	706.72
440.433	573.6
440.64	579.75
440.847	561.31
441.054	673.95
441.261	747.68
441.467	714.91
441.674	712.86
441.881	723.1
442.088	733.34
442.294	792.73
442.501	841.89
442.708	821.41
442.914	872.61
443.121	899.23
443.328	1044.63
443.534	1058.97
443.741	1040.54
443.948	893.09
444.154	1077.4
444.361	1233.05
444.568	1190.04
444.774	1208.47
444.981	1122.46
445.187	1280.15
445.394	1151.13
445.6	1300.63
445.807	1427.6
446.013	1435.8
446.22	1384.6
446.426	1611.92
446.633	1640.59
446.839	1882.25
447.046	1638.55
447.252	1714.32
447.459	1783.95
447.665	1882.25
447.871	2056.33
448.078	2037.9
448.284	2052.24
448.491	2113.67
448.697	2297.99
448.903	2431.11
449.11	2326.66
449.316	2332.81
449.522	2570.37
449.728	2740.35
449.935	2781.31
450.141	2762.88
450.347	2900.09
450.553	2936.96
450.76	2971.77
450.966	3266.68
451.172	3340.41
451.378	3592.31
451.584	3569.78
451.791	3811.44
451.997	3915.89
452.203	4024.43
452.409	4141.16
452.615	4245.61
452.821	4132.97
453.027	4270.19
453.233	4839.52
453.44	4663.4
453.646	4878.43
453.852	5103.71
454.058	5138.52
454.264	5400.66
454.47	5851.22
454.676	5804.11
454.882	6320.2
455.088	6051.92
455.294	6299.72
455.5	6910.02
455.705	7229.5
455.911	7383.1
456.117	7264.32
456.323	7755.83
456.529	7704.63
456.735	8382.51
456.941	8683.56
457.147	8968.23
457.352	9062.43
457.558	9377.82
457.764	10059.79
457.97	10309.65
458.176	10788.87
458.381	11427.84
458.587	11311.1
458.793	11739.13
458.999	11841.53
459.204	13496.28
459.41	13959.13
459.616	13783
459.821	14307.28
460.027	15017.93
460.233	15902.65
460.438	16121.78
460.644	16781.23
460.85	16930.73
461.055	17661.85
461.261	18696.08
461.466	18225.04
461.672	18601.87
461.878	20639.6
462.083	20780.91
462.289	20834.16
462.494	21669.73
462.7	21743.45
462.905	22314.84
463.111	23721.79
463.316	25212.71
463.522	25399.08
463.727	26367.77
463.932	27373.32
464.138	28030.72
464.343	29374.19
464.549	29611.75
464.754	31672.01
464.959	32691.9
465.165	32808.63
465.37	32786.1
465.575	32710.33
465.781	35083.92
465.986	35944.07
466.191	35534.48
466.397	36062.85
466.602	34989.72
466.807	37084.79
467.012	37666.41
467.218	38442.59
467.423	38260.32
467.628	39437.9
467.833	41414.19
