Data from USB4F104151__2__10-22-10-255.txt Node

Date: Wed Feb 26 10:22:10 EST 2025
User: louis
Spectrometer: USB4F10415
Trigger mode: 4
Integration Time (sec): 1.000000E-1
Scans to average: 1
Electric dark correction enabled: true
Nonlinearity correction enabled: false
Boxcar width: 0
XAxis mode: Wavelengths
Number of Pixels in Spectrum: 3648
>>>>>Begin Spectral Data<<<<<
178.204	-390.82
178.424	-390.82
178.644	-390.82
178.864	-378.53
179.084	-423.59
179.304	106.84
179.524	4.44
179.744	-46.76
179.964	22.87
180.184	-7.85
180.404	78.16
180.624	-46.76
180.844	16.73
181.064	-75.43
181.283	41.3
181.503	-65.19
181.723	-28.33
181.943	-134.82
182.163	153.94
182.383	14.68
182.602	53.59
182.822	94.55
183.042	74.07
183.262	-3.75
183.482	-34.47
183.701	102.74
183.921	41.3
184.141	-26.28
184.361	45.4
184.58	63.83
184.8	29.01
185.02	-28.33
185.239	104.79
185.459	160.08
185.679	90.45
185.898	-102.06
186.118	47.44
186.338	86.36
186.557	110.93
186.777	-48.81
186.997	78.16
187.216	55.64
187.436	172.37
187.655	149.84
187.875	117.08
188.095	100.69
188.314	131.41
188.534	121.17
188.753	-38.57
188.973	135.51
189.192	174.42
189.412	-7.85
189.631	80.21
189.851	51.54
190.07	246.1
190.29	-52.91
190.509	0.34
190.729	63.83
190.948	129.36
191.168	217.43
191.387	149.84
191.607	-3.75
191.826	139.6
192.045	2.39
192.265	41.3
192.484	31.06
192.704	39.25
192.923	49.49
193.142	223.57
193.362	129.36
193.581	141.65
193.8	117.08
194.02	55.64
194.239	67.92
194.458	39.25
194.678	53.59
194.897	-9.9
195.116	106.84
195.335	10.58
195.555	72.02
195.774	49.49
195.993	129.36
196.212	96.6
196.432	80.21
196.651	47.44
196.87	82.26
197.089	223.57
197.308	31.06
197.528	51.54
197.747	-81.58
197.966	151.89
198.185	158.03
198.404	-20.14
198.623	110.93
198.842	151.89
199.062	115.03
199.281	158.03
199.5	94.55
199.719	94.55
199.938	98.64
200.157	69.97
200.376	119.12
200.595	78.16
200.814	115.03
201.033	-87.72
201.252	153.94
201.471	108.88
201.69	135.51
201.909	88.4
202.128	141.65
202.347	86.36
202.566	63.83
202.785	-54.95
203.004	-7.85
203.223	250.19
203.442	47.44
203.661	-44.71
203.879	121.17
204.098	135.51
204.317	24.92
204.536	117.08
204.755	98.64
204.974	37.2
205.193	43.35
205.411	162.13
205.63	223.57
205.849	127.32
206.068	55.64
206.287	-30.38
206.505	192.85
206.724	65.88
206.943	18.77
207.162	55.64
207.381	16.73
207.599	20.82
207.818	45.4
208.037	55.64
208.255	20.82
208.474	123.22
208.693	72.02
208.911	10.58
209.13	106.84
209.349	84.31
209.567	147.8
209.786	160.08
210.005	129.36
210.223	16.73
210.442	-61.1
210.661	37.2
210.879	47.44
211.098	33.11
211.316	80.21
211.535	186.71
211.753	63.83
211.972	51.54
212.191	69.97
212.409	45.4
212.628	158.03
212.846	57.68
213.065	137.56
213.283	57.68
213.502	12.63
213.72	121.17
213.938	4.44
214.157	63.83
214.375	139.6
214.594	49.49
214.812	153.94
215.031	-22.19
215.249	59.73
215.467	63.83
215.686	76.12
215.904	141.65
216.122	14.68
216.341	59.73
216.559	84.31
216.778	186.71
216.996	143.7
217.214	16.73
217.432	24.92
217.651	-40.62
217.869	94.55
218.087	-50.86
218.306	96.6
218.524	96.6
218.742	29.01
218.96	115.03
219.179	8.53
219.397	78.16
219.615	262.48
219.833	158.03
220.051	-3.75
220.27	108.88
220.488	55.64
220.706	55.64
220.924	26.96
221.142	18.77
221.36	86.36
221.578	106.84
221.796	8.53
222.015	82.26
222.233	110.93
222.451	188.75
222.669	47.44
222.887	84.31
223.105	-5.8
223.323	22.87
223.541	-24.23
223.759	92.5
223.977	69.97
224.195	121.17
224.413	67.92
224.631	51.54
224.849	67.92
225.067	168.27
225.285	22.87
225.503	4.44
225.721	-63.15
225.939	-16.04
226.157	55.64
226.375	231.76
226.592	4.44
226.81	-50.86
227.028	162.13
227.246	131.41
227.464	139.6
227.682	119.12
227.9	88.4
228.117	67.92
228.335	117.08
228.553	41.3
228.771	51.54
228.989	59.73
229.206	131.41
229.424	76.12
229.642	37.2
229.86	-67.24
230.077	121.17
230.295	26.96
230.513	115.03
230.731	100.69
230.948	147.8
231.166	121.17
231.384	-32.43
231.601	-5.8
231.819	198.99
232.037	61.78
232.254	-7.85
232.472	2.39
232.689	0.34
232.907	131.41
233.125	-26.28
233.342	43.35
233.56	49.49
233.777	26.96
233.995	102.74
234.213	65.88
234.43	63.83
234.648	47.44
234.865	12.63
235.083	67.92
235.3	88.4
235.518	145.75
235.735	82.26
235.953	108.88
236.17	59.73
236.388	-9.9
236.605	18.77
236.822	158.03
237.04	90.45
237.257	10.58
237.475	-52.91
237.692	90.45
237.909	65.88
238.127	63.83
238.344	137.56
238.562	94.55
238.779	-75.43
238.996	22.87
239.214	108.88
239.431	133.46
239.648	-3.75
239.865	76.12
240.083	174.42
240.3	82.26
240.517	37.2
240.735	117.08
240.952	86.36
241.169	84.31
241.386	141.65
241.603	31.06
241.821	-22.19
242.038	158.03
242.255	129.36
242.472	31.06
242.689	153.94
242.907	115.03
243.124	57.68
243.341	47.44
243.558	84.31
243.775	-26.28
243.992	2.39
244.209	80.21
244.426	203.09
244.643	94.55
244.86	0.34
245.078	59.73
245.295	133.46
245.512	78.16
245.729	0.34
245.946	98.64
246.163	104.79
246.38	45.4
246.597	88.4
246.814	49.49
247.031	59.73
247.248	39.25
247.464	164.18
247.681	100.69
247.898	78.16
248.115	129.36
248.332	-42.67
248.549	196.95
248.766	237.91
248.983	127.32
249.2	92.5
249.417	194.9
249.633	47.44
249.85	149.84
250.067	26.96
250.284	33.11
250.501	92.5
250.717	37.2
250.934	0.34
251.151	61.78
251.368	55.64
251.585	133.46
251.801	135.51
252.018	65.88
252.235	76.12
252.451	-77.48
252.668	-46.76
252.885	172.37
253.102	82.26
253.318	10.58
253.535	41.3
253.752	45.4
253.968	53.59
254.185	-46.76
254.401	82.26
254.618	65.88
254.835	-1.71
255.051	186.71
255.268	69.97
255.484	115.03
255.701	4.44
255.917	37.2
256.134	33.11
256.351	18.77
256.567	33.11
256.784	2.39
257	-26.28
257.217	123.22
257.433	139.6
257.65	24.92
257.866	143.7
258.082	-81.58
258.299	63.83
258.515	10.58
258.732	4.44
258.948	29.01
259.165	55.64
259.381	-26.28
259.597	67.92
259.814	72.02
260.03	-5.8
260.246	-26.28
260.463	153.94
260.679	203.09
260.895	6.49
261.112	112.98
261.328	45.4
261.544	-38.57
261.761	280.91
261.977	26.96
262.193	18.77
262.409	94.55
262.626	155.99
262.842	104.79
263.058	-7.85
263.274	129.36
263.49	74.07
263.707	143.7
263.923	119.12
264.139	18.77
264.355	133.46
264.571	74.07
264.787	41.3
265.004	78.16
265.22	57.68
265.436	-28.33
265.652	2.39
265.868	63.83
266.084	-28.33
266.3	47.44
266.516	6.49
266.732	112.98
266.948	24.92
267.164	84.31
267.38	166.23
267.596	86.36
267.812	182.61
268.028	98.64
268.244	0.34
268.46	117.08
268.676	10.58
268.892	96.6
269.108	6.49
269.324	20.82
269.54	18.77
269.756	96.6
269.972	47.44
270.188	-7.85
270.403	-44.71
270.619	10.58
270.835	90.45
271.051	72.02
271.267	-7.85
271.483	33.11
271.698	117.08
271.914	43.35
272.13	51.54
272.346	31.06
272.562	57.68
272.777	178.51
272.993	0.34
273.209	59.73
273.425	78.16
273.64	-24.23
273.856	76.12
274.072	43.35
274.287	-11.95
274.503	78.16
274.719	49.49
274.934	-24.23
275.15	43.35
275.366	47.44
275.581	-13.99
275.797	86.36
276.012	53.59
276.228	45.4
276.444	90.45
276.659	162.13
276.875	-16.04
277.09	100.69
277.306	-7.85
277.521	43.35
277.737	69.97
277.952	141.65
278.168	125.27
278.383	-3.75
278.599	59.73
278.814	100.69
279.03	88.4
279.245	151.89
279.461	115.03
279.676	160.08
279.892	-85.67
280.107	20.82
280.322	-7.85
280.538	135.51
280.753	-1.71
280.969	47.44
281.184	69.97
281.399	139.6
281.615	35.16
281.83	26.96
282.045	-69.29
282.26	86.36
282.476	61.78
282.691	227.67
282.906	18.77
283.122	115.03
283.337	31.06
283.552	61.78
283.767	82.26
283.983	135.51
284.198	80.21
284.413	121.17
284.628	-59.05
284.843	90.45
285.058	57.68
285.274	22.87
285.489	39.25
285.704	104.79
285.919	31.06
286.134	149.84
286.349	59.73
286.564	8.53
286.779	170.32
286.995	10.58
287.21	0.34
287.425	47.44
287.64	-42.67
287.855	29.01
288.07	-104.11
288.285	174.42
288.5	94.55
288.715	51.54
288.93	-16.04
289.145	20.82
289.36	139.6
289.575	-3.75
289.79	176.47
290.004	-26.28
290.219	133.46
290.434	-16.04
290.649	-20.14
290.864	45.4
291.079	-5.8
291.294	33.11
291.509	125.27
291.724	20.82
291.938	-3.75
292.153	76.12
292.368	16.73
292.583	90.45
292.798	100.69
293.012	-9.9
293.227	80.21
293.442	20.82
293.657	125.27
293.871	133.46
294.086	59.73
294.301	219.47
294.516	192.85
294.73	96.6
294.945	-13.99
295.16	108.88
295.374	127.32
295.589	61.78
295.804	14.68
296.018	88.4
296.233	186.71
296.447	84.31
296.662	39.25
296.877	67.92
297.091	108.88
297.306	53.59
297.52	35.16
297.735	108.88
297.949	-26.28
298.164	104.79
298.378	37.2
298.593	8.53
298.807	2.39
299.022	22.87
299.236	170.32
299.451	106.84
299.665	59.73
299.88	63.83
300.094	133.46
300.309	76.12
300.523	82.26
300.737	65.88
300.952	112.98
301.166	88.4
301.381	-24.23
301.595	84.31
301.809	43.35
302.024	37.2
302.238	39.25
302.452	178.51
302.667	14.68
302.881	104.79
303.095	88.4
303.309	61.78
303.524	82.26
303.738	67.92
303.952	37.2
304.166	94.55
304.381	-132.78
304.595	139.6
304.809	10.58
305.023	82.26
305.237	59.73
305.452	69.97
305.666	117.08
305.88	115.03
306.094	72.02
306.308	106.84
306.522	63.83
306.736	63.83
306.95	102.74
307.164	80.21
307.379	-57
307.593	110.93
307.807	180.56
308.021	-26.28
308.235	117.08
308.449	-3.75
308.663	59.73
308.877	231.76
309.091	84.31
309.305	55.64
309.519	-75.43
309.733	172.37
309.947	-30.38
310.161	121.17
310.374	127.32
310.588	147.8
310.802	-13.99
311.016	63.83
311.23	131.41
311.444	-1.71
311.658	82.26
311.872	98.64
312.085	137.56
312.299	137.56
312.513	115.03
312.727	72.02
312.941	-28.33
313.154	78.16
313.368	51.54
313.582	65.88
313.796	115.03
314.009	51.54
314.223	94.55
314.437	100.69
314.651	100.69
314.864	49.49
315.078	-18.09
315.292	-50.86
315.505	117.08
315.719	96.6
315.933	49.49
316.146	72.02
316.36	35.16
316.573	160.08
316.787	106.84
317.001	127.32
317.214	41.3
317.428	57.68
317.641	-38.57
317.855	-40.62
318.068	119.12
318.282	123.22
318.495	215.38
318.709	147.8
318.922	63.83
319.136	139.6
319.349	131.41
319.563	57.68
319.776	125.27
319.99	-71.34
320.203	80.21
320.417	63.83
320.63	137.56
320.843	194.9
321.057	104.79
321.27	-32.43
321.483	119.12
321.697	104.79
321.91	98.64
322.124	-52.91
322.337	119.12
322.55	37.2
322.763	135.51
322.977	16.73
323.19	12.63
323.403	24.92
323.617	63.83
323.83	82.26
324.043	74.07
324.256	47.44
324.469	-71.34
324.683	112.98
324.896	20.82
325.109	8.53
325.322	-102.06
325.535	108.88
325.748	63.83
325.962	35.16
326.175	98.64
326.388	90.45
326.601	127.32
326.814	33.11
327.027	57.68
327.24	176.47
327.453	-106.15
327.666	86.36
327.879	117.08
328.092	115.03
328.305	72.02
328.518	98.64
328.731	20.82
328.944	-7.85
329.157	39.25
329.37	51.54
329.583	168.27
329.796	174.42
330.009	45.4
330.222	190.8
330.435	125.27
330.648	137.56
330.861	47.44
331.073	80.21
331.286	155.99
331.499	22.87
331.712	-1.71
331.925	57.68
332.138	78.16
332.35	123.22
332.563	35.16
332.776	117.08
332.989	8.53
333.202	-9.9
333.414	92.5
333.627	65.88
333.84	33.11
334.053	92.5
334.265	29.01
334.478	90.45
334.691	-7.85
334.903	22.87
335.116	26.96
335.329	-16.04
335.541	26.96
335.754	135.51
335.966	16.73
336.179	31.06
336.392	92.5
336.604	-1.71
336.817	121.17
337.029	84.31
337.242	92.5
337.454	31.06
337.667	33.11
337.88	135.51
338.092	72.02
338.305	110.93
338.517	4.44
338.729	86.36
338.942	174.42
339.154	-34.47
339.367	29.01
339.579	33.11
339.792	18.77
340.004	43.35
340.217	10.58
340.429	31.06
340.641	-18.09
340.854	-44.71
341.066	55.64
341.278	237.91
341.491	215.38
341.703	72.02
341.915	55.64
342.128	119.12
342.34	84.31
342.552	-32.43
342.764	16.73
342.977	43.35
343.189	0.34
343.401	149.84
343.613	-22.19
343.826	10.58
344.038	-28.33
344.25	49.49
344.462	-65.19
344.674	100.69
344.886	-1.71
345.099	37.2
345.311	108.88
345.523	12.63
345.735	-1.71
345.947	106.84
346.159	82.26
346.371	80.21
346.583	110.93
346.795	151.89
347.007	14.68
347.219	69.97
347.431	33.11
347.643	143.7
347.855	0.34
348.067	119.12
348.279	8.53
348.491	-3.75
348.703	57.68
348.915	-32.43
349.127	-28.33
349.339	65.88
349.551	-5.8
349.763	67.92
349.975	8.53
350.187	147.8
350.399	129.36
350.61	149.84
350.822	-9.9
351.034	55.64
351.246	88.4
351.458	82.26
351.669	119.12
351.881	121.17
352.093	106.84
352.305	94.55
352.517	129.36
352.728	233.81
352.94	63.83
353.152	82.26
353.363	-20.14
353.575	63.83
353.787	250.19
353.999	88.4
354.21	219.47
354.422	-34.47
354.633	39.25
354.845	76.12
355.057	-7.85
355.268	117.08
355.48	129.36
355.692	-63.15
355.903	35.16
356.115	20.82
356.326	-83.63
356.538	82.26
356.749	92.5
356.961	235.86
357.172	16.73
357.384	-32.43
357.595	213.33
357.807	31.06
358.018	41.3
358.23	69.97
358.441	172.37
358.653	106.84
358.864	96.6
359.075	6.49
359.287	104.79
359.498	168.27
359.709	129.36
359.921	72.02
360.132	47.44
360.344	57.68
360.555	24.92
360.766	55.64
360.977	18.77
361.189	160.08
361.4	33.11
361.611	108.88
361.823	127.32
362.034	129.36
362.245	24.92
362.456	69.97
362.667	141.65
362.879	12.63
363.09	55.64
363.301	115.03
363.512	76.12
363.723	10.58
363.935	33.11
364.146	168.27
364.357	61.78
364.568	-9.9
364.779	-5.8
364.99	143.7
365.201	-1.71
365.412	117.08
365.623	-3.75
365.834	35.16
366.045	31.06
366.256	147.8
366.467	172.37
366.678	39.25
366.889	117.08
367.1	43.35
367.311	166.23
367.522	80.21
367.733	112.98
367.944	121.17
368.155	41.3
368.366	139.6
368.577	158.03
368.788	131.41
368.999	14.68
369.209	16.73
369.42	186.71
369.631	264.53
369.842	92.5
370.053	31.06
370.264	117.08
370.474	-7.85
370.685	63.83
370.896	51.54
371.107	90.45
371.317	31.06
371.528	-22.19
371.739	207.19
371.95	153.94
372.16	80.21
372.371	59.73
372.582	-52.91
372.792	129.36
373.003	74.07
373.214	76.12
373.424	194.9
373.635	-9.9
373.846	141.65
374.056	112.98
374.267	90.45
374.477	24.92
374.688	-24.23
374.898	147.8
375.109	16.73
375.319	80.21
375.53	106.84
375.74	96.6
375.951	2.39
376.161	76.12
376.372	47.44
376.582	26.96
376.793	135.51
377.003	45.4
377.214	26.96
377.424	133.46
377.635	49.49
377.845	57.68
378.055	182.61
378.266	-59.05
378.476	98.64
378.686	16.73
378.897	84.31
379.107	4.44
379.317	112.98
379.528	41.3
379.738	125.27
379.948	2.39
380.158	145.75
380.369	94.55
380.579	104.79
380.789	55.64
380.999	129.36
381.21	94.55
381.42	207.19
381.63	22.87
381.84	125.27
382.05	112.98
382.261	67.92
382.471	164.18
382.681	80.21
382.891	158.03
383.101	100.69
383.311	-40.62
383.521	-54.95
383.731	149.84
383.941	59.73
384.151	24.92
384.361	63.83
384.571	47.44
384.781	43.35
384.991	151.89
385.201	278.87
385.411	72.02
385.621	59.73
385.831	41.3
386.041	8.53
386.251	51.54
386.461	147.8
386.671	94.55
386.881	84.31
387.091	100.69
387.301	117.08
387.511	63.83
387.72	141.65
387.93	115.03
388.14	-61.1
388.35	80.21
388.56	141.65
388.769	135.51
388.979	26.96
389.189	-65.19
389.399	-16.04
389.609	72.02
389.818	108.88
390.028	39.25
390.238	141.65
390.447	-7.85
390.657	51.54
390.867	37.2
391.076	2.39
391.286	147.8
391.496	31.06
391.705	98.64
391.915	166.23
392.125	147.8
392.334	-30.38
392.544	102.74
392.753	72.02
392.963	-9.9
393.172	90.45
393.382	-3.75
393.591	237.91
393.801	67.92
394.01	217.43
394.22	78.16
394.429	-7.85
394.639	80.21
394.848	104.79
395.058	84.31
395.267	41.3
395.477	74.07
395.686	98.64
395.895	227.67
396.105	264.53
396.314	100.69
396.524	16.73
396.733	-38.57
396.942	207.19
397.152	135.51
397.361	90.45
397.57	90.45
397.78	65.88
397.989	129.36
398.198	229.71
398.407	123.22
398.617	37.2
398.826	86.36
399.035	22.87
399.244	20.82
399.453	67.92
399.663	84.31
399.872	131.41
400.081	53.59
400.29	129.36
400.499	39.25
400.708	133.46
400.917	-1.71
401.127	18.77
401.336	31.06
401.545	170.32
401.754	129.36
401.963	59.73
402.172	26.96
402.381	-46.76
402.59	104.79
402.799	86.36
403.008	110.93
403.217	110.93
403.426	49.49
403.635	2.39
403.844	139.6
404.053	-18.09
404.262	55.64
404.471	250.19
404.68	102.74
404.888	74.07
405.097	-26.28
405.306	112.98
405.515	119.12
405.724	10.58
405.933	170.32
406.142	110.93
406.35	160.08
406.559	-3.75
406.768	117.08
406.977	184.66
407.185	88.4
407.394	10.58
407.603	16.73
407.812	49.49
408.02	94.55
408.229	59.73
408.438	53.59
408.646	-61.1
408.855	37.2
409.064	57.68
409.272	51.54
409.481	127.32
409.69	33.11
409.898	14.68
410.107	86.36
410.315	178.51
410.524	63.83
410.733	115.03
410.941	92.5
411.15	57.68
411.358	80.21
411.567	108.88
411.775	74.07
411.984	45.4
412.192	131.41
412.401	43.35
412.609	133.46
412.818	102.74
413.026	104.79
413.234	96.6
413.443	80.21
413.651	-18.09
413.86	49.49
414.068	102.74
414.276	117.08
414.485	-3.75
414.693	254.29
414.901	178.51
415.11	135.51
415.318	61.78
415.526	88.4
415.734	98.64
415.943	31.06
416.151	233.81
416.359	29.01
416.567	106.84
416.776	78.16
416.984	84.31
417.192	172.37
417.4	39.25
417.608	-9.9
417.817	47.44
418.025	76.12
418.233	180.56
418.441	-18.09
418.649	-9.9
418.857	112.98
419.065	162.13
419.273	0.34
419.481	90.45
419.689	39.25
419.897	47.44
420.105	31.06
420.313	117.08
420.521	172.37
420.729	88.4
420.937	76.12
421.145	6.49
421.353	145.75
421.561	207.19
421.769	106.84
421.977	35.16
422.185	72.02
422.393	41.3
422.601	192.85
422.809	76.12
423.017	31.06
423.224	29.01
423.432	178.51
423.64	59.73
423.848	117.08
424.056	2.39
424.263	108.88
424.471	35.16
424.679	203.09
424.887	57.68
425.094	149.84
425.302	115.03
425.51	-9.9
425.718	108.88
425.925	117.08
426.133	94.55
426.341	205.14
426.548	69.97
426.756	14.68
426.964	74.07
427.171	22.87
427.379	69.97
427.586	139.6
427.794	188.75
428.001	176.47
428.209	78.16
428.417	190.8
428.624	168.27
428.832	74.07
429.039	135.51
429.247	96.6
429.454	98.64
429.662	192.85
429.869	102.74
430.076	231.76
430.284	184.66
430.491	188.75
430.699	231.76
430.906	194.9
431.114	80.21
431.321	110.93
431.528	104.79
431.736	188.75
431.943	110.93
432.15	137.56
432.358	198.99
432.565	254.29
432.772	57.68
432.979	205.14
433.187	117.08
433.394	256.34
433.601	127.32
433.808	135.51
434.016	219.47
434.223	258.39
434.43	180.56
434.637	190.8
434.844	244.05
435.052	225.62
435.259	248.15
435.466	172.37
435.673	299.34
435.88	348.5
436.087	297.3
436.294	319.82
436.501	317.78
436.708	229.71
436.915	323.92
437.122	321.87
437.329	256.34
437.537	323.92
437.743	356.69
437.95	383.31
438.157	371.02
438.364	371.02
438.571	391.5
438.778	477.52
438.985	454.99
439.192	416.08
439.399	399.7
439.606	502.09
439.813	481.61
440.02	518.48
440.227	627.02
440.433	549.2
440.64	344.4
440.847	444.75
441.054	577.87
441.261	698.7
441.467	624.97
441.674	504.14
441.881	651.6
442.088	676.17
442.294	700.75
442.501	739.66
442.708	715.08
442.914	745.8
443.121	860.49
443.328	774.47
443.534	1046.85
443.741	868.68
443.948	780.62
444.154	973.13
444.361	1184.07
444.568	917.83
444.774	999.75
444.981	829.77
445.187	1106.24
445.394	1118.53
445.6	977.22
445.807	1171.78
446.013	1177.92
446.22	1044.81
446.426	1419.58
446.633	1335.62
446.839	1493.31
447.046	1308.99
447.252	1448.26
447.459	1397.06
447.665	1628.48
447.871	1675.58
448.078	1722.68
448.284	1788.22
448.491	1878.33
448.697	1870.14
448.903	1943.86
449.11	2019.64
449.316	1915.19
449.522	2191.67
449.728	2253.11
449.935	2271.54
450.141	2244.92
450.347	2545.97
450.553	2418.99
450.76	2488.62
450.966	2619.69
451.172	2777.39
451.378	2924.84
451.584	2844.97
451.791	3225.89
451.997	3221.8
452.203	3363.11
452.409	3340.58
452.615	3580.19
452.821	3584.29
453.027	3674.4
453.233	4020.5
453.44	3780.89
453.646	4155.67
453.852	4356.37
454.058	4397.33
454.264	4534.54
454.47	4886.79
454.676	4794.64
454.882	5157.13
455.088	5013.77
455.294	5296.39
455.5	5740.8
455.705	6121.72
455.911	6043.9
456.117	6064.38
456.323	6387.96
456.529	6566.13
456.735	6961.39
456.941	7157.99
457.147	7330.02
457.352	7475.43
457.558	7803.1
457.764	8120.54
457.97	8333.53
458.176	8861.9
458.381	9224.39
458.587	9330.89
458.793	9857.21
458.999	9789.63
459.204	11147.44
459.41	11595.94
459.616	11292.84
459.821	11983.01
460.027	12546.2
460.233	12982.42
460.438	13181.07
460.644	13766.79
460.85	13936.77
461.055	14811.25
461.261	15339.63
461.466	14852.21
461.672	14876.79
461.878	16978
462.083	16592.98
462.289	16963.67
462.494	17823.81
462.7	18085.95
462.905	18298.94
463.111	19699.75
463.316	20637.72
463.522	20994.07
463.727	21542.92
463.932	22589.44
464.138	23097.33
464.343	24426.46
464.549	24371.17
464.754	26378.18
464.959	27008.95
465.165	26943.42
465.37	27039.67
465.575	27023.29
465.781	28886.94
465.986	29622.16
466.191	29093.79
466.397	29411.22
466.602	28901.28
466.807	30394.25
467.012	30777.22
467.218	31625.07
467.423	31463.29
467.628	32511.85
467.833	33697.62
468.038	33554.26
468.244	32696.16
468.449	34565.96
