Data from USB4F104151__58__09-28-41-600.txt Node

Date: Wed Feb 26 09:28:41 EST 2025
User: louis
Spectrometer: USB4F10415
Trigger mode: 4
Integration Time (sec): 1.000000E-1
Scans to average: 1
Electric dark correction enabled: true
Nonlinearity correction enabled: false
Boxcar width: 0
XAxis mode: Wavelengths
Number of Pixels in Spectrum: 3648
>>>>>Begin Spectral Data<<<<<
178.204	-387.07
178.424	-387.07
178.644	-387.07
178.864	-352.25
179.084	-374.78
179.304	8.19
179.524	-20.48
179.744	-8.19
179.964	47.1
180.184	47.1
180.404	49.15
180.624	4.1
180.844	-40.96
181.064	-114.69
181.283	20.48
181.503	-51.2
181.723	59.39
181.943	-90.11
182.163	135.17
182.383	-6.14
182.602	20.48
182.822	110.59
183.042	59.39
183.262	-88.06
183.482	-12.29
183.701	18.43
183.921	51.2
184.141	-18.43
184.361	45.06
184.58	73.73
184.8	32.77
185.02	8.19
185.239	108.54
185.459	63.49
185.679	40.96
185.898	-86.01
186.118	69.63
186.338	10.24
186.557	108.54
186.777	0
186.997	-24.58
187.216	10.24
187.436	98.3
187.655	38.91
187.875	51.2
188.095	-6.14
188.314	126.97
188.534	61.44
188.753	-20.48
188.973	45.06
189.192	151.55
189.412	-12.29
189.631	38.91
189.851	12.29
190.07	102.4
190.29	0
190.509	-83.97
190.729	-59.39
190.948	77.82
191.168	258.04
191.387	43.01
191.607	47.1
191.826	83.97
192.045	26.62
192.265	63.49
192.484	139.26
192.704	116.73
192.923	-73.73
193.142	151.55
193.362	122.88
193.581	163.84
193.8	53.25
194.02	108.54
194.239	16.38
194.458	49.15
194.678	-10.24
194.897	24.58
195.116	30.72
195.335	-16.38
195.555	69.63
195.774	18.43
195.993	77.82
196.212	36.86
196.432	28.67
196.651	-10.24
196.87	6.14
197.089	186.37
197.308	55.3
197.528	100.35
197.747	-86.01
197.966	18.43
198.185	204.8
198.404	10.24
198.623	45.06
198.842	65.54
199.062	165.89
199.281	45.06
199.5	-30.72
199.719	73.73
199.938	22.53
200.157	118.78
200.376	139.26
200.595	79.87
200.814	73.73
201.033	12.29
201.252	90.11
201.471	61.44
201.69	57.34
201.909	-51.2
202.128	83.97
202.347	26.62
202.566	61.44
202.785	-32.77
203.004	-30.72
203.223	104.45
203.442	-4.1
203.661	-12.29
203.879	-4.1
204.098	36.86
204.317	-63.49
204.536	32.77
204.755	34.82
204.974	106.49
205.193	10.24
205.411	67.58
205.63	69.63
205.849	65.54
206.068	26.62
206.287	-45.06
206.505	53.25
206.724	-6.14
206.943	18.43
207.162	-24.58
207.381	96.25
207.599	12.29
207.818	71.68
208.037	-65.53
208.255	4.1
208.474	12.29
208.693	55.3
208.911	-57.34
209.13	94.21
209.349	98.3
209.567	102.4
209.786	133.12
210.005	55.3
210.223	-22.53
210.442	-151.55
210.661	63.49
210.879	108.54
211.098	143.36
211.316	67.58
211.535	69.63
211.753	51.2
211.972	67.58
212.191	-49.15
212.409	28.67
212.628	100.35
212.846	-61.44
213.065	59.39
213.283	122.88
213.502	61.44
213.72	71.68
213.938	-22.53
214.157	22.53
214.375	28.67
214.594	-22.53
214.812	88.06
215.031	24.58
215.249	129.02
215.467	16.38
215.686	8.19
215.904	2.05
216.122	-14.34
216.341	178.17
216.559	20.48
216.778	112.64
216.996	83.97
217.214	53.25
217.432	51.2
217.651	-71.68
217.869	34.82
218.087	30.72
218.306	106.49
218.524	63.49
218.742	-32.77
218.96	145.41
219.179	-45.06
219.397	57.34
219.615	151.55
219.833	55.3
220.051	-12.29
220.27	106.49
220.488	65.54
220.706	94.21
220.924	4.1
221.142	47.1
221.36	69.63
221.578	157.69
221.796	77.82
222.015	-24.58
222.233	24.58
222.451	122.88
222.669	-45.06
222.887	83.97
223.105	-8.19
223.323	28.67
223.541	-20.48
223.759	112.64
223.977	-20.48
224.195	151.55
224.413	75.77
224.631	-10.24
224.849	67.58
225.067	247.8
225.285	-61.44
225.503	-24.58
225.721	-38.91
225.939	26.62
226.157	77.82
226.375	153.6
226.592	-32.77
226.81	59.39
227.028	122.88
227.246	108.54
227.464	14.34
227.682	114.69
227.9	61.44
228.117	16.38
228.335	92.16
228.553	-8.19
228.771	57.34
228.989	16.38
229.206	108.54
229.424	-63.49
229.642	18.43
229.86	-36.86
230.077	124.93
230.295	14.34
230.513	108.54
230.731	139.26
230.948	143.36
231.166	81.92
231.384	55.3
231.601	8.19
231.819	212.99
232.037	49.15
232.254	24.58
232.472	10.24
232.689	12.29
232.907	176.13
233.125	-51.2
233.342	32.77
233.56	-32.77
233.777	32.77
233.995	20.48
234.213	100.35
234.43	81.92
234.648	30.72
234.865	81.92
235.083	20.48
235.3	71.68
235.518	96.25
235.735	86.01
235.953	55.3
236.17	-38.91
236.388	47.1
236.605	-32.77
236.822	112.64
237.04	65.54
237.257	53.25
237.475	-32.77
237.692	61.44
237.909	83.97
238.127	45.06
238.344	92.16
238.562	-12.29
238.779	-4.1
238.996	-36.86
239.214	59.39
239.431	36.86
239.648	-12.29
239.865	47.1
240.083	94.21
240.3	-8.19
240.517	-59.39
240.735	-6.14
240.952	92.16
241.169	22.53
241.386	65.54
241.603	28.67
241.821	-6.14
242.038	63.49
242.255	131.07
242.472	-14.34
242.689	53.25
242.907	124.93
243.124	94.21
243.341	0
243.558	-83.97
243.775	22.53
243.992	-110.59
244.209	55.3
244.426	129.02
244.643	49.15
244.86	61.44
245.078	69.63
245.295	108.54
245.512	-8.19
245.729	-51.2
245.946	75.77
246.163	73.73
246.38	-28.67
246.597	83.97
246.814	65.54
247.031	55.3
247.248	18.43
247.464	-24.58
247.681	67.58
247.898	32.77
248.115	69.63
248.332	-20.48
248.549	124.93
248.766	135.17
248.983	45.06
249.2	32.77
249.417	94.21
249.633	-12.29
249.85	112.64
250.067	-20.48
250.284	45.06
250.501	106.49
250.717	49.15
250.934	-38.91
251.151	32.77
251.368	-20.48
251.585	106.49
251.801	-12.29
252.018	-6.14
252.235	59.39
252.451	-20.48
252.668	-12.29
252.885	124.93
253.102	92.16
253.318	-36.86
253.535	-10.24
253.752	-10.24
253.968	-45.06
254.185	-69.63
254.401	-36.86
254.618	6.14
254.835	4.1
255.051	81.92
255.268	69.63
255.484	-4.1
255.701	-12.29
255.917	18.43
256.134	34.82
256.351	57.34
256.567	-45.06
256.784	69.63
257	45.06
257.217	43.01
257.433	18.43
257.65	49.15
257.866	157.69
258.082	-77.82
258.299	-36.86
258.515	40.96
258.732	26.62
258.948	-20.48
259.165	26.62
259.381	-47.1
259.597	104.45
259.814	2.05
260.03	-8.19
260.246	-36.86
260.463	126.97
260.679	124.93
260.895	92.16
261.112	69.63
261.328	-38.91
261.544	38.91
261.761	94.21
261.977	-10.24
262.193	-69.63
262.409	96.25
262.626	94.21
262.842	47.1
263.058	36.86
263.274	63.49
263.49	81.92
263.707	22.53
263.923	26.62
264.139	-36.86
264.355	45.06
264.571	34.82
264.787	16.38
265.004	102.4
265.22	18.43
265.436	18.43
265.652	-28.67
265.868	22.53
266.084	6.14
266.3	51.2
266.516	0
266.732	0
266.948	81.92
267.164	47.1
267.38	10.24
267.596	94.21
267.812	217.08
268.028	26.62
268.244	-2.05
268.46	114.69
268.676	8.19
268.892	69.63
269.108	-20.48
269.324	-38.91
269.54	36.86
269.756	43.01
269.972	-57.34
270.188	-34.82
270.403	-8.19
270.619	34.82
270.835	92.16
271.051	-59.39
271.267	45.06
271.483	-14.34
271.698	47.1
271.914	94.21
272.13	10.24
272.346	-53.25
272.562	8.19
272.777	155.65
272.993	18.43
273.209	12.29
273.425	106.49
273.64	-63.49
273.856	88.06
274.072	-45.06
274.287	32.77
274.503	53.25
274.719	43.01
274.934	22.53
275.15	-169.98
275.366	40.96
275.581	-10.24
275.797	57.34
276.012	55.3
276.228	57.34
276.444	0
276.659	106.49
276.875	-36.86
277.09	49.15
277.306	69.63
277.521	10.24
277.737	-2.05
277.952	43.01
278.168	86.01
278.383	14.34
278.599	-12.29
278.814	81.92
279.03	2.05
279.245	161.79
279.461	51.2
279.676	57.34
279.892	-8.19
280.107	-12.29
280.322	-8.19
280.538	-24.58
280.753	28.67
280.969	86.01
281.184	-32.77
281.399	114.69
281.615	67.58
281.83	100.35
282.045	-43.01
282.26	4.1
282.476	61.44
282.691	65.54
282.906	34.82
283.122	96.25
283.337	-92.16
283.552	73.73
283.767	-55.3
283.983	139.26
284.198	38.91
284.413	129.02
284.628	-8.19
284.843	24.58
285.058	94.21
285.274	45.06
285.489	-14.34
285.704	49.15
285.919	2.05
286.134	43.01
286.349	12.29
286.564	-77.82
286.779	94.21
286.995	45.06
287.21	10.24
287.425	67.58
287.64	-8.19
287.855	34.82
288.07	-36.86
288.285	28.67
288.5	45.06
288.715	45.06
288.93	65.54
289.145	0
289.36	165.89
289.575	-28.67
289.79	114.69
290.004	40.96
290.219	96.25
290.434	-81.92
290.649	61.44
290.864	-59.39
291.079	53.25
291.294	38.91
291.509	53.25
291.724	18.43
291.938	40.96
292.153	28.67
292.368	4.1
292.583	53.25
292.798	10.24
293.012	114.69
293.227	-53.25
293.442	-16.38
293.657	98.3
293.871	92.16
294.086	49.15
294.301	194.56
294.516	77.82
294.73	-6.14
294.945	-28.67
295.16	-47.1
295.374	192.51
295.589	14.34
295.804	-40.96
296.018	49.15
296.233	77.82
296.447	65.54
296.662	-12.29
296.877	98.3
297.091	106.49
297.306	63.49
297.52	18.43
297.735	55.3
297.949	43.01
298.164	45.06
298.378	-18.43
298.593	-40.96
298.807	34.82
299.022	16.38
299.236	98.3
299.451	26.62
299.665	-4.1
299.88	-10.24
300.094	86.01
300.309	55.3
300.523	77.82
300.737	-57.34
300.952	28.67
301.166	57.34
301.381	-61.44
301.595	-2.05
301.809	43.01
302.024	6.14
302.238	-34.82
302.452	-8.19
302.667	24.58
302.881	61.44
303.095	53.25
303.309	69.63
303.524	-30.72
303.738	18.43
303.952	-65.53
304.166	12.29
304.381	-129.02
304.595	116.73
304.809	0
305.023	8.19
305.237	32.77
305.452	6.14
305.666	59.39
305.88	-36.86
306.094	51.2
306.308	65.54
306.522	143.36
306.736	36.86
306.95	112.64
307.164	-6.14
307.379	-28.67
307.593	57.34
307.807	79.87
308.021	16.38
308.235	45.06
308.449	-28.67
308.663	-18.43
308.877	196.61
309.091	38.91
309.305	81.92
309.519	-102.4
309.733	53.25
309.947	-40.96
310.161	86.01
310.374	20.48
310.588	112.64
310.802	-55.3
311.016	-4.1
311.23	40.96
311.444	-14.34
311.658	26.62
311.872	75.77
312.085	83.97
312.299	143.36
312.513	92.16
312.727	12.29
312.941	-69.63
313.154	77.82
313.368	16.38
313.582	-43.01
313.796	24.58
314.009	-4.1
314.223	114.69
314.437	73.73
314.651	34.82
314.864	-32.77
315.078	57.34
315.292	-16.38
315.505	-32.77
315.719	102.4
315.933	40.96
316.146	10.24
316.36	-24.58
316.573	129.02
316.787	86.01
317.001	53.25
317.214	32.77
317.428	65.54
317.641	-69.63
317.855	24.58
318.068	57.34
318.282	67.58
318.495	147.45
318.709	4.1
318.922	47.1
319.136	157.69
319.349	69.63
319.563	69.63
319.776	69.63
319.99	-102.4
320.203	26.62
320.417	26.62
320.63	73.73
320.843	90.11
321.057	40.96
321.27	34.82
321.483	47.1
321.697	120.83
321.91	57.34
322.124	28.67
322.337	51.2
322.55	34.82
322.763	63.49
322.977	20.48
323.19	59.39
323.403	102.4
323.617	20.48
323.83	53.25
324.043	32.77
324.256	43.01
324.469	-67.58
324.683	143.36
324.896	0
325.109	-6.14
325.322	-69.63
325.535	110.59
325.748	2.05
325.962	6.14
326.175	-20.48
326.388	69.63
326.601	86.01
326.814	36.86
327.027	6.14
327.24	28.67
327.453	-38.91
327.666	57.34
327.879	69.63
328.092	59.39
328.305	75.77
328.518	12.29
328.731	-24.58
328.944	49.15
329.157	67.58
329.37	-49.15
329.583	122.88
329.796	145.41
330.009	-63.49
330.222	40.96
330.435	118.78
330.648	2.05
330.861	88.06
331.073	20.48
331.286	40.96
331.499	36.86
331.712	-12.29
331.925	30.72
332.138	-2.05
332.35	124.93
332.563	-20.48
332.776	143.36
332.989	-61.44
333.202	59.39
333.414	28.67
333.627	-10.24
333.84	61.44
334.053	45.06
334.265	-6.14
334.478	65.54
334.691	6.14
334.903	92.16
335.116	-36.86
335.329	32.77
335.541	126.97
335.754	71.68
335.966	24.58
336.179	57.34
336.392	75.77
336.604	-18.43
336.817	34.82
337.029	86.01
337.242	34.82
337.454	73.73
337.667	53.25
337.88	86.01
338.092	75.77
338.305	75.77
338.517	45.06
338.729	57.34
338.942	118.78
339.154	-2.05
339.367	-14.34
339.579	75.77
339.792	-22.53
340.004	61.44
340.217	-16.38
340.429	63.49
340.641	10.24
340.854	-14.34
341.066	28.67
341.278	88.06
341.491	98.3
341.703	69.63
341.915	-4.1
342.128	65.54
342.34	14.34
342.552	-114.69
342.764	32.77
342.977	51.2
343.189	10.24
343.401	34.82
343.613	-20.48
343.826	-28.67
344.038	-8.19
344.25	43.01
344.462	18.43
344.674	69.63
344.886	90.11
345.099	26.62
345.311	-32.77
345.523	81.92
345.735	-38.91
345.947	69.63
346.159	57.34
346.371	-4.1
346.583	-16.38
346.795	167.93
347.007	-45.06
347.219	57.34
347.431	-6.14
347.643	98.3
347.855	0
348.067	49.15
348.279	-28.67
348.491	61.44
348.703	30.72
348.915	69.63
349.127	-24.58
349.339	-6.14
349.551	75.77
349.763	81.92
349.975	-36.86
350.187	106.49
350.399	141.31
350.61	114.69
350.822	20.48
351.034	59.39
351.246	61.44
351.458	43.01
351.669	59.39
351.881	45.06
352.093	90.11
352.305	118.78
352.517	40.96
352.728	135.17
352.94	-28.67
353.152	28.67
353.363	0
353.575	28.67
353.787	69.63
353.999	112.64
354.21	96.25
354.422	45.06
354.633	2.05
354.845	-14.34
355.057	16.38
355.268	-24.58
355.48	79.87
355.692	-57.34
355.903	-8.19
356.115	61.44
356.326	-24.58
356.538	81.92
356.749	137.21
356.961	59.39
357.172	36.86
357.384	-30.72
357.595	157.69
357.807	0
358.018	8.19
358.23	36.86
358.441	153.6
358.653	-20.48
358.864	2.05
359.075	-36.86
359.287	22.53
359.498	116.73
359.709	43.01
359.921	-2.05
360.132	77.82
360.344	20.48
360.555	-53.25
360.766	49.15
360.977	-53.25
361.189	18.43
361.4	-6.14
361.611	61.44
361.823	75.77
362.034	61.44
362.245	-79.87
362.456	30.72
362.667	-45.06
362.879	-20.48
363.09	36.86
363.301	88.06
363.512	49.15
363.723	-53.25
363.935	18.43
364.146	94.21
364.357	-8.19
364.568	28.67
364.779	-38.91
364.99	86.01
365.201	-77.82
365.412	67.58
365.623	28.67
365.834	94.21
366.045	40.96
366.256	106.49
366.467	86.01
366.678	40.96
366.889	26.62
367.1	10.24
367.311	36.86
367.522	-20.48
367.733	49.15
367.944	-65.53
368.155	28.67
368.366	92.16
368.577	4.1
368.788	120.83
368.999	-20.48
369.209	16.38
369.42	188.41
369.631	280.57
369.842	86.01
370.053	-45.06
370.264	124.93
370.474	30.72
370.685	102.4
370.896	43.01
371.107	57.34
371.317	59.39
371.528	63.49
371.739	86.01
371.95	43.01
372.16	59.39
372.371	10.24
372.582	34.82
372.792	145.41
373.003	34.82
373.214	40.96
373.424	12.29
373.635	-38.91
373.846	110.59
374.056	83.97
374.267	106.49
374.477	51.2
374.688	22.53
374.898	-12.29
375.109	53.25
375.319	-4.1
375.53	81.92
375.74	151.55
375.951	12.29
376.161	108.54
376.372	40.96
376.582	18.43
376.793	-34.82
377.003	-22.53
377.214	-4.1
377.424	94.21
377.635	43.01
377.845	-100.35
378.055	169.98
378.266	-20.48
378.476	30.72
378.686	49.15
378.897	30.72
379.107	49.15
379.317	-14.34
379.528	-45.06
379.738	106.49
379.948	20.48
380.158	75.77
380.369	86.01
380.579	57.34
380.789	-8.19
380.999	81.92
381.21	100.35
381.42	139.26
381.63	18.43
381.84	16.38
382.05	116.73
382.261	104.45
382.471	108.54
382.681	10.24
382.891	100.35
383.101	77.82
383.311	-8.19
383.521	-28.67
383.731	-30.72
383.941	-8.19
384.151	55.3
384.361	-12.29
384.571	8.19
384.781	106.49
384.991	157.69
385.201	163.84
385.411	28.67
385.621	81.92
385.831	92.16
386.041	104.45
386.251	-28.67
386.461	122.88
386.671	20.48
386.881	-51.2
387.091	-30.72
387.301	92.16
387.511	0
387.72	51.2
387.93	67.58
388.14	-43.01
388.35	18.43
388.56	126.97
388.769	133.12
388.979	53.25
389.189	24.58
389.399	26.62
389.609	92.16
389.818	36.86
390.028	61.44
390.238	49.15
390.447	10.24
390.657	94.21
390.867	36.86
391.076	-40.96
391.286	12.29
391.496	-63.49
391.705	6.14
391.915	81.92
392.125	98.3
392.334	38.91
392.544	4.1
392.753	18.43
392.963	-45.06
393.172	108.54
393.382	-20.48
393.591	176.13
393.801	45.06
394.01	94.21
394.22	122.88
394.429	49.15
394.639	4.1
394.848	96.25
395.058	53.25
395.267	-12.29
395.477	32.77
395.686	129.02
395.895	167.93
396.105	122.88
396.314	24.58
396.524	67.58
396.733	26.62
396.942	145.41
397.152	-14.34
397.361	24.58
397.57	65.54
397.78	12.29
397.989	71.68
398.198	102.4
398.407	26.62
398.617	-4.1
398.826	-4.1
399.035	18.43
399.244	77.82
399.453	53.25
399.663	83.97
399.872	47.1
400.081	61.44
400.29	112.64
400.499	-69.63
400.708	106.49
400.917	0
401.127	14.34
401.336	-51.2
401.545	153.6
401.754	12.29
401.963	59.39
402.172	26.62
402.381	-75.77
402.59	-12.29
402.799	57.34
403.008	83.97
403.217	100.35
403.426	122.88
403.635	-55.3
403.844	20.48
404.053	65.54
404.262	-2.05
404.471	174.08
404.68	20.48
404.888	-22.53
405.097	2.05
405.306	57.34
405.515	75.77
405.724	34.82
405.933	61.44
406.142	106.49
406.35	165.89
406.559	-6.14
406.768	47.1
406.977	104.45
407.185	4.1
407.394	133.12
407.603	-81.92
407.812	65.54
408.02	75.77
408.229	38.91
408.438	38.91
408.646	-34.82
408.855	-14.34
409.064	22.53
409.272	38.91
409.481	77.82
409.69	-38.91
409.898	-45.06
410.107	86.01
410.315	102.4
410.524	-55.3
410.733	65.54
410.941	10.24
411.15	59.39
411.358	59.39
411.567	225.28
411.775	45.06
411.984	32.77
412.192	75.77
412.401	10.24
412.609	122.88
412.818	106.49
413.026	30.72
413.234	28.67
413.443	47.1
413.651	0
413.86	22.53
414.068	61.44
414.276	71.68
414.485	20.48
414.693	116.73
414.901	147.45
415.11	51.2
415.318	73.73
415.526	79.87
415.734	61.44
415.943	51.2
416.151	118.78
416.359	14.34
416.567	-10.24
416.776	86.01
416.984	28.67
417.192	129.02
417.4	4.1
417.608	43.01
417.817	-51.2
418.025	126.97
418.233	147.45
418.441	-26.62
418.649	-28.67
418.857	81.92
419.065	141.31
419.273	-20.48
419.481	112.64
419.689	45.06
419.897	28.67
420.105	-4.1
420.313	18.43
420.521	188.41
420.729	92.16
420.937	-6.14
421.145	-79.87
421.353	36.86
421.561	118.78
421.769	108.54
421.977	-4.1
422.185	83.97
422.393	-32.77
422.601	114.69
422.809	4.1
423.017	77.82
423.224	49.15
423.432	100.35
423.64	100.35
423.848	139.26
424.056	100.35
424.263	106.49
424.471	-16.38
424.679	131.07
424.887	-36.86
425.094	65.54
425.302	65.54
425.51	36.86
425.718	110.59
425.925	83.97
426.133	40.96
426.341	137.21
426.548	20.48
426.756	-4.1
426.964	88.06
427.171	18.43
427.379	49.15
427.586	79.87
427.794	90.11
428.001	112.64
428.209	57.34
428.417	129.02
428.624	69.63
428.832	83.97
429.039	30.72
429.247	14.34
429.454	126.97
429.662	129.02
429.869	118.78
430.076	129.02
430.284	110.59
430.491	190.46
430.699	155.65
430.906	145.41
431.114	53.25
431.321	118.78
431.528	18.43
431.736	149.5
431.943	116.73
432.15	92.16
432.358	163.84
432.565	204.8
432.772	2.05
432.979	159.74
433.187	61.44
433.394	133.12
433.601	36.86
433.808	206.84
434.016	249.85
434.223	122.88
434.43	79.87
434.637	61.44
434.844	258.04
435.052	149.5
435.259	196.61
435.466	139.26
435.673	163.84
435.88	217.08
436.087	208.89
436.294	198.65
436.501	196.61
436.708	178.17
436.915	221.18
437.122	217.08
437.329	149.5
437.537	208.89
437.743	258.04
437.95	215.04
438.157	212.99
438.364	194.56
438.571	278.52
438.778	346.11
438.985	282.62
439.192	387.07
439.399	303.1
439.606	323.58
439.813	352.25
440.02	458.74
440.227	460.79
440.433	331.77
440.64	430.07
440.847	327.68
441.054	444.41
441.261	511.99
441.467	423.93
441.674	428.03
441.881	649.21
442.088	391.16
442.294	458.74
442.501	550.9
442.708	608.25
442.914	464.89
443.121	557.05
443.328	491.51
443.534	630.77
443.741	675.83
443.948	581.62
444.154	659.45
444.361	798.71
444.568	665.59
444.774	673.78
444.981	704.5
445.187	708.6
445.394	772.08
445.6	901.11
445.807	800.76
446.013	921.59
446.22	806.9
446.426	983.03
446.633	995.31
446.839	1066.99
447.046	888.82
447.252	1124.33
447.459	946.16
447.665	1122.29
447.871	1142.77
448.078	1327.08
448.284	1236.97
448.491	1341.42
448.697	1413.1
448.903	1435.63
449.11	1470.44
449.316	1490.92
449.522	1511.4
449.728	1609.7
449.935	1740.77
450.141	1613.8
450.347	1822.69
450.553	1937.38
450.76	1855.46
450.966	1959.91
451.172	2062.3
451.378	2121.7
451.584	2054.11
451.791	2275.29
451.997	2351.07
452.203	2359.26
452.409	2490.33
452.615	2590.68
452.821	2570.2
453.027	2555.86
453.233	2944.98
453.44	2783.19
453.646	2899.92
453.852	3143.63
454.058	3117.01
454.264	3338.19
454.47	3514.31
454.676	3448.78
454.882	3893.19
455.088	3588.04
455.294	3782.6
455.5	4255.68
455.705	4335.55
455.911	4212.67
456.117	4370.37
456.323	4726.71
456.529	4739
456.735	5287.86
456.941	5056.43
457.147	5377.97
457.352	5627.82
457.558	5586.86
457.764	6049.7
457.97	6287.26
458.176	6416.29
458.381	6815.64
458.587	7024.53
458.793	7296.91
458.999	7137.17
459.204	7974.79
459.41	8277.89
459.616	8343.42
459.821	8617.85
460.027	9125.75
460.233	9432.94
460.438	9557.87
460.644	10235.75
460.85	10180.45
461.055	10585.95
461.261	11210.58
461.466	10858.33
461.672	11124.57
461.878	12513.09
462.083	12355.4
462.289	12506.95
462.494	13111.1
462.7	13115.19
462.905	13289.27
463.111	14667.55
463.316	15150.87
463.522	15400.72
463.727	15935.24
463.932	16318.22
464.138	17104.63
464.343	17708.79
464.549	17854.19
464.754	19607.25
464.959	19250.91
465.165	20158.16
465.37	19635.92
465.575	19822.29
465.781	21171.9
465.986	21929.65
466.191	21403.32
466.397	21931.7
466.602	21116.61
466.807	22707.88
467.012	22640.29
467.218	23086.75
467.423	23355.04
467.628	23979.67
467.833	24995.46
468.038	24651.4
468.244	24395.4
468.449	25245.31
468.654	25032.32
468.859	24821.38
469.064	24741.51
469.269	24106.64
469.474	24622.73
469.679	25273.98
469.885	24493.71
470.09	24843.91
