Data from USB4F104151__47__09-28-03-504.txt Node

Date: Wed Feb 26 09:28:03 EST 2025
User: louis
Spectrometer: USB4F10415
Trigger mode: 4
Integration Time (sec): 1.000000E-1
Scans to average: 1
Electric dark correction enabled: true
Nonlinearity correction enabled: false
Boxcar width: 0
XAxis mode: Wavelengths
Number of Pixels in Spectrum: 3648
>>>>>Begin Spectral Data<<<<<
178.204	-347.47
178.424	-347.47
178.644	-347.47
178.864	-351.57
179.084	-320.85
179.304	49.83
179.524	-3.41
179.744	47.79
179.964	37.55
180.184	-19.8
180.404	-46.42
180.624	17.07
180.844	-5.46
181.064	-79.19
181.283	-19.8
181.503	-58.71
181.723	80.55
181.943	-91.48
182.163	195.24
182.383	12.97
182.602	49.83
182.822	119.46
183.042	98.99
183.262	25.26
183.482	-15.7
183.701	-48.47
183.921	37.55
184.141	-5.46
184.361	111.27
184.58	29.35
184.8	17.07
185.02	-15.7
185.239	80.55
185.459	41.64
185.679	182.95
185.898	-32.08
186.118	8.87
186.338	25.26
186.557	64.17
186.777	-40.28
186.997	-36.18
187.216	12.97
187.436	160.42
187.655	31.4
187.875	35.5
188.095	49.83
188.314	152.23
188.534	78.51
188.753	-54.61
188.973	111.27
189.192	98.99
189.412	17.07
189.631	25.26
189.851	41.64
190.07	133.8
190.29	17.07
190.509	74.41
190.729	-21.84
190.948	152.23
191.168	258.73
191.387	58.03
191.607	-66.9
191.826	72.36
192.045	6.83
192.265	0.68
192.484	2.73
192.704	76.46
192.923	-77.14
193.142	182.95
193.362	58.03
193.581	129.7
193.8	98.99
194.02	58.03
194.239	31.4
194.458	92.84
194.678	8.87
194.897	41.64
195.116	0.68
195.335	55.98
195.555	88.75
195.774	-9.56
195.993	51.88
196.212	70.31
196.432	49.83
196.651	45.74
196.87	25.26
197.089	172.71
197.308	29.35
197.528	180.9
197.747	-95.57
197.966	17.07
198.185	80.55
198.404	8.87
198.623	25.26
198.842	84.65
199.062	92.84
199.281	74.41
199.5	15.02
199.719	111.27
199.938	27.31
200.157	21.16
200.376	29.35
200.595	111.27
200.814	74.41
201.033	-3.41
201.252	137.9
201.471	70.31
201.69	152.23
201.909	-44.37
202.128	123.56
202.347	94.89
202.566	37.55
202.785	-60.76
203.004	15.02
203.223	154.28
203.442	86.7
203.661	-5.46
203.879	53.93
204.098	62.12
204.317	78.51
204.536	33.45
204.755	84.65
204.974	17.07
205.193	29.35
205.411	150.18
205.63	137.9
205.849	66.22
206.068	25.26
206.287	-1.37
206.505	113.32
206.724	58.03
206.943	8.87
207.162	-23.89
207.381	2.73
207.599	23.21
207.818	12.97
208.037	17.07
208.255	72.36
208.474	19.11
208.693	-32.08
208.911	119.46
209.13	76.46
209.349	35.5
209.567	21.16
209.786	78.51
210.005	19.11
210.223	49.83
210.442	-73.04
210.661	58.03
210.879	51.88
211.098	6.83
211.316	39.59
211.535	76.46
211.753	39.59
211.972	98.99
212.191	72.36
212.409	86.7
212.628	72.36
212.846	-56.66
213.065	94.89
213.283	148.14
213.502	45.74
213.72	88.75
213.938	43.69
214.157	-58.71
214.375	92.84
214.594	-38.23
214.812	37.55
215.031	21.16
215.249	-1.37
215.467	53.93
215.686	62.12
215.904	66.22
216.122	41.64
216.341	98.99
216.559	27.31
216.778	31.4
216.996	70.31
217.214	-23.89
217.432	-1.37
217.651	-21.84
217.869	15.02
218.087	41.64
218.306	31.4
218.524	78.51
218.742	-30.04
218.96	144.04
219.179	-81.24
219.397	-11.61
219.615	144.04
219.833	37.55
220.051	0.68
220.27	131.75
220.488	131.75
220.706	70.31
220.924	41.64
221.142	27.31
221.36	103.08
221.578	23.21
221.796	17.07
222.015	62.12
222.233	25.26
222.451	139.94
222.669	-23.89
222.887	23.21
223.105	-9.56
223.323	-38.23
223.541	-60.76
223.759	-7.51
223.977	35.5
224.195	193.19
224.413	84.65
224.631	64.17
224.849	17.07
225.067	131.75
225.285	-3.41
225.503	4.78
225.721	-52.56
225.939	45.74
226.157	17.07
226.375	166.57
226.592	43.69
226.81	35.5
227.028	135.85
227.246	139.94
227.464	43.69
227.682	88.75
227.9	80.55
228.117	55.98
228.335	31.4
228.553	-9.56
228.771	41.64
228.989	33.45
229.206	45.74
229.424	-25.94
229.642	-27.99
229.86	-52.56
230.077	94.89
230.295	-9.56
230.513	92.84
230.731	66.22
230.948	107.18
231.166	103.08
231.384	2.73
231.601	4.78
231.819	148.14
232.037	-3.41
232.254	12.97
232.472	70.31
232.689	29.35
232.907	80.55
233.125	53.93
233.342	27.31
233.56	-44.37
233.777	2.73
233.995	35.5
234.213	86.7
234.43	15.02
234.648	51.88
234.865	41.64
235.083	137.9
235.3	-9.56
235.518	55.98
235.735	199.34
235.953	62.12
236.17	-7.51
236.388	17.07
236.605	-3.41
236.822	68.27
237.04	58.03
237.257	45.74
237.475	-13.65
237.692	53.93
237.909	47.79
238.127	-64.85
238.344	58.03
238.562	84.65
238.779	-17.75
238.996	-44.37
239.214	47.79
239.431	60.07
239.648	-21.84
239.865	66.22
240.083	88.75
240.3	-91.48
240.517	-32.08
240.735	107.18
240.952	178.86
241.169	6.83
241.386	39.59
241.603	6.83
241.821	-30.04
242.038	109.23
242.255	119.46
242.472	-68.95
242.689	74.41
242.907	33.45
243.124	15.02
243.341	8.87
243.558	-9.56
243.775	-60.76
243.992	-120.15
244.209	70.31
244.426	84.65
244.643	92.84
244.86	-9.56
245.078	72.36
245.295	49.83
245.512	43.69
245.729	-34.13
245.946	111.27
246.163	51.88
246.38	68.27
246.597	0.68
246.814	-42.32
247.031	-1.37
247.248	-32.08
247.464	70.31
247.681	60.07
247.898	58.03
248.115	74.41
248.332	66.22
248.549	96.94
248.766	152.23
248.983	72.36
249.2	29.35
249.417	80.55
249.633	-25.94
249.85	27.31
250.067	4.78
250.284	29.35
250.501	80.55
250.717	94.89
250.934	-56.66
251.151	-9.56
251.368	39.59
251.585	66.22
251.801	39.59
252.018	0.68
252.235	51.88
252.451	-56.66
252.668	-19.8
252.885	121.51
253.102	-32.08
253.318	-42.32
253.535	-11.61
253.752	2.73
253.968	-32.08
254.185	-48.47
254.401	31.4
254.618	25.26
254.835	10.92
255.051	98.99
255.268	70.31
255.484	74.41
255.701	41.64
255.917	51.88
256.134	17.07
256.351	70.31
256.567	-27.99
256.784	64.17
257	-64.85
257.217	164.52
257.433	103.08
257.65	117.42
257.866	82.6
258.082	-7.51
258.299	-81.24
258.515	74.41
258.732	-7.51
258.948	-7.51
259.165	17.07
259.381	-105.81
259.597	80.55
259.814	0.68
260.03	8.87
260.246	-58.71
260.463	74.41
260.679	135.85
260.895	47.79
261.112	92.84
261.328	-17.75
261.544	-1.37
261.761	160.42
261.977	-38.23
262.193	-85.33
262.409	29.35
262.626	88.75
262.842	80.55
263.058	-103.76
263.274	27.31
263.49	0.68
263.707	133.8
263.923	64.17
264.139	-79.19
264.355	35.5
264.571	185
264.787	49.83
265.004	72.36
265.22	78.51
265.436	-23.89
265.652	53.93
265.868	53.93
266.084	-32.08
266.3	62.12
266.516	-7.51
266.732	66.22
266.948	53.93
267.164	39.59
267.38	90.79
267.596	117.42
267.812	129.7
268.028	58.03
268.244	12.97
268.46	68.27
268.676	37.55
268.892	-13.65
269.108	-27.99
269.324	8.87
269.54	-48.47
269.756	53.93
269.972	-25.94
270.188	-1.37
270.403	-50.52
270.619	25.26
270.835	82.6
271.051	105.13
271.267	17.07
271.483	4.78
271.698	66.22
271.914	70.31
272.13	12.97
272.346	21.16
272.562	19.11
272.777	51.88
272.993	-3.41
273.209	-52.56
273.425	123.56
273.64	-120.15
273.856	55.98
274.072	-32.08
274.287	-36.18
274.503	74.41
274.719	123.56
274.934	4.78
275.15	-111.96
275.366	41.64
275.581	-9.56
275.797	-36.18
276.012	0.68
276.228	-66.9
276.444	17.07
276.659	76.46
276.875	-19.8
277.09	-7.51
277.306	-3.41
277.521	62.12
277.737	-68.95
277.952	31.4
278.168	12.97
278.383	23.21
278.599	70.31
278.814	66.22
279.03	10.92
279.245	119.46
279.461	17.07
279.676	135.85
279.892	53.93
280.107	-3.41
280.322	12.97
280.538	60.07
280.753	8.87
280.969	17.07
281.184	70.31
281.399	150.18
281.615	47.79
281.83	17.07
282.045	-91.48
282.26	-3.41
282.476	0.68
282.691	29.35
282.906	-32.08
283.122	0.68
283.337	23.21
283.552	90.79
283.767	-73.04
283.983	70.31
284.198	17.07
284.413	103.08
284.628	-52.56
284.843	8.87
285.058	72.36
285.274	-11.61
285.489	-21.84
285.704	76.46
285.919	-75.09
286.134	35.5
286.349	-23.89
286.564	-23.89
286.779	86.7
286.995	12.97
287.21	-25.94
287.425	4.78
287.64	-21.84
287.855	-50.52
288.07	-103.76
288.285	70.31
288.5	164.52
288.715	111.27
288.93	-19.8
289.145	43.69
289.36	62.12
289.575	-52.56
289.79	105.13
290.004	-30.04
290.219	127.66
290.434	12.97
290.649	-27.99
290.864	-19.8
291.079	-17.75
291.294	74.41
291.509	35.5
291.724	6.83
291.938	35.5
292.153	39.59
292.368	37.55
292.583	17.07
292.798	107.18
293.012	78.51
293.227	68.27
293.442	-38.23
293.657	31.4
293.871	64.17
294.086	58.03
294.301	98.99
294.516	131.75
294.73	27.31
294.945	-68.95
295.16	2.73
295.374	135.85
295.589	90.79
295.804	39.59
296.018	53.93
296.233	221.86
296.447	23.21
296.662	-64.85
296.877	82.6
297.091	76.46
297.306	8.87
297.52	8.87
297.735	0.68
297.949	10.92
298.164	41.64
298.378	51.88
298.593	6.83
298.807	-21.84
299.022	6.83
299.236	148.14
299.451	-79.19
299.665	72.36
299.88	-19.8
300.094	74.41
300.309	8.87
300.523	51.88
300.737	21.16
300.952	76.46
301.166	70.31
301.381	-32.08
301.595	12.97
301.809	21.16
302.024	33.45
302.238	-3.41
302.452	58.03
302.667	55.98
302.881	96.94
303.095	127.66
303.309	17.07
303.524	45.74
303.738	-56.66
303.952	51.88
304.166	23.21
304.381	-87.38
304.595	168.62
304.809	-40.28
305.023	41.64
305.237	-36.18
305.452	25.26
305.666	45.74
305.88	-11.61
306.094	10.92
306.308	17.07
306.522	66.22
306.736	62.12
306.95	84.65
307.164	-17.75
307.379	47.79
307.593	45.74
307.807	74.41
308.021	139.94
308.235	47.79
308.449	-52.56
308.663	31.4
308.877	193.19
309.091	33.45
309.305	66.22
309.519	-130.39
309.733	88.75
309.947	-52.56
310.161	-46.42
310.374	119.46
310.588	72.36
310.802	-81.24
311.016	-7.51
311.23	-3.41
311.444	-11.61
311.658	-27.99
311.872	115.37
312.085	43.69
312.299	45.74
312.513	129.7
312.727	19.11
312.941	-60.76
313.154	45.74
313.368	27.31
313.582	37.55
313.796	-27.99
314.009	-7.51
314.223	131.75
314.437	84.65
314.651	62.12
314.864	-68.95
315.078	-15.7
315.292	-58.71
315.505	-7.51
315.719	92.84
315.933	74.41
316.146	19.11
316.36	55.98
316.573	82.6
316.787	123.56
317.001	23.21
317.214	-42.32
317.428	31.4
317.641	31.4
317.855	-9.56
318.068	35.5
318.282	4.78
318.495	109.23
318.709	0.68
318.922	41.64
319.136	72.36
319.349	98.99
319.563	8.87
319.776	58.03
319.99	-46.42
320.203	117.42
320.417	8.87
320.63	80.55
320.843	148.14
321.057	84.65
321.27	33.45
321.483	0.68
321.697	33.45
321.91	-21.84
322.124	33.45
322.337	60.07
322.55	0.68
322.763	64.17
322.977	2.73
323.19	53.93
323.403	88.75
323.617	31.4
323.83	74.41
324.043	-44.37
324.256	-1.37
324.469	-85.33
324.683	135.85
324.896	17.07
325.109	-1.37
325.322	-75.09
325.535	78.51
325.748	33.45
325.962	17.07
326.175	94.89
326.388	127.66
326.601	111.27
326.814	10.92
327.027	76.46
327.24	119.46
327.453	-38.23
327.666	66.22
327.879	72.36
328.092	33.45
328.305	101.03
328.518	-30.04
328.731	21.16
328.944	8.87
329.157	55.98
329.37	-62.8
329.583	139.94
329.796	127.66
330.009	-52.56
330.222	25.26
330.435	51.88
330.648	-13.65
330.861	74.41
331.073	45.74
331.286	58.03
331.499	23.21
331.712	-19.8
331.925	-34.13
332.138	80.55
332.35	105.13
332.563	-60.76
332.776	45.74
332.989	45.74
333.202	-23.89
333.414	103.08
333.627	25.26
333.84	29.35
334.053	43.69
334.265	0.68
334.478	-36.18
334.691	74.41
334.903	53.93
335.116	-15.7
335.329	64.17
335.541	23.21
335.754	131.75
335.966	31.4
336.179	25.26
336.392	51.88
336.604	-9.56
336.817	2.73
337.029	115.37
337.242	17.07
337.454	84.65
337.667	139.94
337.88	107.18
338.092	-7.51
338.305	105.13
338.517	-50.52
338.729	156.33
338.942	78.51
339.154	-38.23
339.367	-32.08
339.579	92.84
339.792	-13.65
340.004	131.75
340.217	10.92
340.429	58.03
340.641	-75.09
340.854	27.31
341.066	68.27
341.278	72.36
341.491	152.23
341.703	10.92
341.915	-75.09
342.128	53.93
342.34	17.07
342.552	33.45
342.764	21.16
342.977	41.64
343.189	21.16
343.401	139.94
343.613	-75.09
343.826	-77.14
344.038	-44.37
344.25	8.87
344.462	-27.99
344.674	-27.99
344.886	70.31
345.099	31.4
345.311	43.69
345.523	25.26
345.735	-138.58
345.947	39.59
346.159	105.13
346.371	25.26
346.583	119.46
346.795	127.66
347.007	94.89
347.219	31.4
347.431	-32.08
347.643	80.55
347.855	-32.08
348.067	117.42
348.279	-27.99
348.491	62.12
348.703	-5.46
348.915	4.78
349.127	-1.37
349.339	41.64
349.551	-83.28
349.763	-7.51
349.975	-3.41
350.187	82.6
350.399	51.88
350.61	45.74
350.822	-17.75
351.034	-34.13
351.246	74.41
351.458	125.61
351.669	121.51
351.881	66.22
352.093	121.51
352.305	70.31
352.517	-36.18
352.728	78.51
352.94	-19.8
353.152	27.31
353.363	-56.66
353.575	96.94
353.787	86.7
353.999	107.18
354.21	98.99
354.422	-56.66
354.633	-50.52
354.845	4.78
355.057	66.22
355.268	41.64
355.48	49.83
355.692	-77.14
355.903	107.18
356.115	-17.75
356.326	-111.96
356.538	144.04
356.749	64.17
356.961	150.18
357.172	33.45
357.384	-13.65
357.595	266.92
357.807	23.21
358.018	-32.08
358.23	33.45
358.441	74.41
358.653	2.73
358.864	17.07
359.075	-52.56
359.287	72.36
359.498	17.07
359.709	-7.51
359.921	8.87
360.132	47.79
360.344	27.31
360.555	-40.28
360.766	62.12
360.977	31.4
361.189	55.98
361.4	-44.37
361.611	84.65
361.823	58.03
362.034	60.07
362.245	-62.8
362.456	64.17
362.667	80.55
362.879	-11.61
363.09	55.98
363.301	-48.47
363.512	-1.37
363.723	-11.61
363.935	-9.56
364.146	80.55
364.357	-36.18
364.568	94.89
364.779	-48.47
364.99	125.61
365.201	0.68
365.412	129.7
365.623	-32.08
365.834	86.7
366.045	12.97
366.256	92.84
366.467	53.93
366.678	-34.13
366.889	33.45
367.1	23.21
367.311	148.14
367.522	-46.42
367.733	25.26
367.944	64.17
368.155	62.12
368.366	113.32
368.577	45.74
368.788	113.32
368.999	-17.75
369.209	39.59
369.42	170.66
369.631	203.43
369.842	29.35
370.053	66.22
370.264	45.74
370.474	-44.37
370.685	74.41
370.896	-5.46
371.107	39.59
371.317	35.5
371.528	-15.7
371.739	156.33
371.95	-46.42
372.16	109.23
372.371	-25.94
372.582	49.83
372.792	58.03
373.003	25.26
373.214	51.88
373.424	96.94
373.635	-32.08
373.846	111.27
374.056	51.88
374.267	4.78
374.477	33.45
374.688	17.07
374.898	-27.99
375.109	-32.08
375.319	19.11
375.53	82.6
375.74	98.99
375.951	0.68
376.161	31.4
376.372	74.41
376.582	-87.38
376.793	94.89
377.003	-11.61
377.214	0.68
377.424	33.45
377.635	39.59
377.845	17.07
378.055	115.37
378.266	-23.89
378.476	6.83
378.686	74.41
378.897	43.69
379.107	78.51
379.317	82.6
379.528	-11.61
379.738	107.18
379.948	-17.75
380.158	88.75
380.369	101.03
380.579	123.56
380.789	0.68
380.999	53.93
381.21	55.98
381.42	154.28
381.63	12.97
381.84	25.26
382.05	84.65
382.261	115.37
382.471	98.99
382.681	-36.18
382.891	109.23
383.101	125.61
383.311	-95.57
383.521	-46.42
383.731	55.98
383.941	74.41
384.151	53.93
384.361	58.03
384.571	-13.65
384.781	111.27
384.991	154.28
385.201	144.04
385.411	117.42
385.621	47.79
385.831	21.16
386.041	41.64
386.251	62.12
386.461	90.79
386.671	-5.46
386.881	-7.51
387.091	17.07
387.301	84.65
387.511	2.73
387.72	125.61
387.93	78.51
388.14	-83.28
388.35	-23.89
388.56	78.51
388.769	41.64
388.979	21.16
389.189	8.87
389.399	66.22
389.609	115.37
389.818	47.79
390.028	12.97
390.238	47.79
390.447	53.93
390.657	160.42
390.867	60.07
391.076	-44.37
391.286	115.37
391.496	-64.85
391.705	4.78
391.915	74.41
392.125	105.13
392.334	45.74
392.544	88.75
392.753	78.51
392.963	-66.9
393.172	78.51
393.382	45.74
393.591	103.08
393.801	12.97
394.01	37.55
394.22	62.12
394.429	2.73
394.639	37.55
394.848	62.12
395.058	58.03
395.267	-36.18
395.477	29.35
395.686	70.31
395.895	152.23
396.105	203.43
396.314	156.33
396.524	33.45
396.733	39.59
396.942	76.46
397.152	49.83
397.361	146.09
397.57	-7.51
397.78	60.07
397.989	109.23
398.198	141.99
398.407	58.03
398.617	-36.18
398.826	35.5
399.035	-15.7
399.244	45.74
399.453	17.07
399.663	-5.46
399.872	33.45
400.081	8.87
400.29	115.37
400.499	25.26
400.708	150.18
400.917	-1.37
401.127	31.4
401.336	-17.75
401.545	166.57
401.754	176.81
401.963	-44.37
402.172	-50.52
402.381	-15.7
402.59	70.31
402.799	74.41
403.008	84.65
403.217	51.88
403.426	35.5
403.635	-52.56
403.844	-40.28
404.053	37.55
404.262	88.75
404.471	182.95
404.68	25.26
404.888	68.27
405.097	37.55
405.306	8.87
405.515	49.83
405.724	33.45
405.933	152.23
406.142	107.18
406.35	72.36
406.559	23.21
406.768	43.69
406.977	121.51
407.185	25.26
407.394	72.36
407.603	-30.04
407.812	105.13
408.02	80.55
408.229	4.78
408.438	33.45
408.646	-64.85
408.855	64.17
409.064	31.4
409.272	-27.99
409.481	60.07
409.69	33.45
409.898	-25.94
410.107	8.87
410.315	117.42
410.524	-17.75
410.733	0.68
410.941	-19.8
411.15	35.5
411.358	72.36
411.567	139.94
411.775	107.18
411.984	117.42
412.192	113.32
412.401	4.78
412.609	156.33
412.818	131.75
413.026	19.11
413.234	37.55
413.443	10.92
413.651	8.87
413.86	49.83
414.068	115.37
414.276	109.23
414.485	-9.56
414.693	131.75
414.901	172.71
415.11	80.55
415.318	-38.23
415.526	82.6
415.734	62.12
415.943	47.79
416.151	94.89
416.359	39.59
416.567	29.35
416.776	131.75
416.984	137.9
417.192	107.18
417.4	23.21
417.608	-46.42
417.817	-52.56
418.025	76.46
418.233	123.56
418.441	-81.24
418.649	37.55
418.857	35.5
419.065	82.6
419.273	74.41
419.481	43.69
419.689	-17.75
419.897	-36.18
420.105	0.68
420.313	78.51
420.521	45.74
420.729	84.65
420.937	17.07
421.145	-36.18
421.353	51.88
421.561	109.23
421.769	111.27
421.977	70.31
422.185	162.47
422.393	17.07
422.601	109.23
422.809	148.14
423.017	-13.65
423.224	41.64
423.432	119.46
423.64	-21.84
423.848	148.14
424.056	31.4
424.263	88.75
424.471	-13.65
424.679	123.56
424.887	-25.94
425.094	156.33
425.302	82.6
425.51	68.27
425.718	43.69
425.925	41.64
426.133	-3.41
426.341	176.81
426.548	86.7
426.756	45.74
426.964	60.07
427.171	-60.76
427.379	8.87
427.586	39.59
427.794	94.89
428.001	144.04
428.209	60.07
428.417	139.94
428.624	78.51
428.832	49.83
429.039	39.59
429.247	109.23
429.454	123.56
429.662	223.91
429.869	139.94
430.076	178.86
430.284	133.8
430.491	234.15
430.699	78.51
430.906	191.14
431.114	74.41
431.321	123.56
431.528	98.99
431.736	60.07
431.943	127.66
432.15	195.24
432.358	146.09
432.565	199.34
432.772	25.26
432.979	258.73
433.187	111.27
433.394	96.94
433.601	41.64
433.808	217.77
434.016	264.87
434.223	187.05
434.43	166.57
434.637	234.15
434.844	246.44
435.052	203.43
435.259	295.59
435.466	279.21
435.673	279.21
435.88	285.35
436.087	275.11
436.294	254.63
436.501	303.78
436.708	299.69
436.915	275.11
437.122	314.02
437.329	160.42
437.537	348.84
437.743	318.12
437.95	447.14
438.157	332.45
438.364	426.66
438.571	268.97
438.778	375.46
438.985	453.28
439.192	516.77
439.399	506.53
439.606	402.08
439.813	500.39
440.02	510.63
440.227	656.03
440.433	406.18
440.64	531.11
440.847	486.05
441.054	594.59
441.261	713.38
441.467	574.11
441.674	557.73
441.881	717.47
442.088	557.73
442.294	776.86
442.501	735.9
442.708	813.73
442.914	836.25
443.121	746.14
443.328	879.26
443.534	989.85
443.741	826.01
443.948	762.53
444.154	920.22
444.361	1122.97
444.568	975.52
444.774	877.21
444.981	901.79
445.187	1106.59
445.394	1065.63
445.6	1079.96
445.807	1231.51
446.013	1215.13
446.22	1161.88
446.426	1409.69
446.633	1426.07
446.839	1565.33
447.046	1342.1
447.252	1491.6
447.459	1575.57
447.665	1612.43
447.871	1710.74
448.078	1876.62
448.284	1727.12
448.491	1868.43
448.697	2044.56
448.903	2069.13
449.11	2185.87
449.316	2138.76
449.522	2232.97
449.728	2292.36
449.935	2351.75
450.141	2380.42
450.347	2706.05
450.553	2433.67
450.76	2650.75
450.966	2812.54
451.172	2847.36
451.378	2988.67
451.584	3101.31
451.791	3244.67
451.997	3441.27
452.203	3342.97
452.409	3619.44
452.615	3676.79
452.821	3687.03
453.027	3648.11
453.233	4160.11
453.44	3930.73
453.646	4260.46
453.852	4495.97
454.058	4475.49
454.264	4815.46
454.47	5093.98
454.676	5182.04
454.882	5466.71
455.088	5354.07
455.294	5667.41
455.5	6025.81
455.705	6404.68
455.911	6201.93
456.117	6597.19
456.323	6578.76
456.529	6693.44
456.735	7371.32
456.941	7356.99
457.147	7840.31
457.352	7832.12
457.558	8077.87
457.764	8806.95
457.97	8890.91
458.176	9413.15
458.381	9783.83
458.587	9763.35
458.793	10232.33
458.999	10408.46
459.204	11799.03
459.41	12020.21
459.616	11821.56
459.821	12788.2
460.027	13130.21
460.233	13746.65
460.438	13855.19
460.644	14744.01
460.85	15006.15
461.055	15215.04
461.261	16077.24
461.466	15858.1
461.672	16232.88
461.878	17785.24
462.083	17885.59
462.289	17863.07
462.494	18876.81
462.7	18950.54
462.905	19313.03
463.111	21047.66
463.316	21709.15
463.522	21934.43
463.727	22630.74
463.932	23363.91
464.138	24580.4
464.343	25659.68
464.549	25839.9
464.754	27789.57
464.959	27941.12
465.165	28625.14
465.37	28569.85
465.575	28459.26
465.781	30447.83
465.986	31008.98
466.191	30906.58
466.397	31164.62
466.602	30378.2
466.807	32250.05
467.012	33038.51
467.218	33319.09
467.423	33222.83
467.628	34121.89
467.833	35795.08
468.038	35207.31
468.244	34418.85
468.449	36808.82
468.654	35735.69
468.859	35922.05
469.064	36026.5
