Data from USB4F104151__11__11-24-22-108.txt Node

Date: Wed Feb 26 11:24:22 EST 2025
User: louis
Spectrometer: USB4F10415
Trigger mode: 4
Integration Time (sec): 1.000000E-1
Scans to average: 1
Electric dark correction enabled: true
Nonlinearity correction enabled: false
Boxcar width: 0
XAxis mode: Wavelengths
Number of Pixels in Spectrum: 3648
>>>>>Begin Spectral Data<<<<<
178.204	-389.46
178.424	-389.46
178.644	-389.46
178.864	-387.41
179.084	-446.8
179.304	44.71
179.524	-31.06
179.744	32.43
179.964	57
180.184	28.33
180.404	13.99
180.624	-84.31
180.844	-31.06
181.064	-65.88
181.283	40.62
181.503	-63.83
181.723	59.05
181.943	-98.64
182.163	229.03
182.383	3.75
182.602	-88.4
182.822	46.76
183.042	-16.73
183.262	11.95
183.482	42.67
183.701	83.63
183.921	9.9
184.141	-84.31
184.361	34.47
184.58	13.99
184.8	13.99
185.02	-8.53
185.239	40.62
185.459	-0.34
185.679	81.58
185.898	-135.51
186.118	36.52
186.338	-0.34
186.557	48.81
186.777	-65.88
186.997	-47.44
187.216	-96.6
187.436	171.69
187.655	34.47
187.875	44.71
188.095	-65.88
188.314	83.63
188.534	161.45
188.753	-74.07
188.973	44.71
189.192	114.34
189.412	71.34
189.631	-31.06
189.851	20.14
190.07	153.26
190.29	-88.4
190.509	-4.44
190.729	7.85
190.948	71.34
191.168	251.56
191.387	85.67
191.607	-6.49
191.826	83.63
192.045	-16.73
192.265	40.62
192.484	59.05
192.704	26.28
192.923	-88.4
193.142	177.83
193.362	100.01
193.581	95.91
193.8	97.96
194.02	114.34
194.239	32.43
194.458	63.15
194.678	-59.73
194.897	-49.49
195.116	28.33
195.335	32.43
195.555	24.23
195.774	28.33
195.993	57
196.212	5.8
196.432	-47.44
196.651	-24.92
196.87	3.75
197.089	208.55
197.308	28.33
197.528	54.95
197.747	-0.34
197.966	30.38
198.185	71.34
198.404	-47.44
198.623	93.87
198.842	106.15
199.062	102.06
199.281	36.52
199.5	69.29
199.719	59.05
199.938	50.86
200.157	7.85
200.376	167.59
200.595	46.76
200.814	-33.11
201.033	-35.16
201.252	151.21
201.471	138.92
201.69	61.1
201.909	34.47
202.128	97.96
202.347	44.71
202.566	13.99
202.785	-37.2
203.004	-35.16
203.223	278.18
203.442	-72.02
203.661	-43.35
203.879	57
204.098	138.92
204.317	-94.55
204.536	65.19
204.755	87.72
204.974	122.54
205.193	-2.39
205.411	132.78
205.63	26.28
205.849	85.67
206.068	16.04
206.287	-49.49
206.505	77.48
206.724	44.71
206.943	-31.06
207.162	20.14
207.381	44.71
207.599	-18.77
207.818	18.09
208.037	-63.83
208.255	26.28
208.474	69.29
208.693	-0.34
208.911	-29.01
209.13	24.23
209.349	57
209.567	46.76
209.786	65.19
210.005	100.01
210.223	-35.16
210.442	-72.02
210.661	9.9
210.879	44.71
211.098	44.71
211.316	11.95
211.535	81.58
211.753	130.73
211.972	108.2
212.191	11.95
212.409	-24.92
212.628	54.95
212.846	24.23
213.065	9.9
213.283	130.73
213.502	-22.87
213.72	40.62
213.938	44.71
214.157	44.71
214.375	-4.44
214.594	-18.77
214.812	67.24
215.031	24.23
215.249	79.53
215.467	5.8
215.686	-6.49
215.904	-49.49
216.122	28.33
216.341	183.98
216.559	26.28
216.778	132.78
216.996	126.63
217.214	32.43
217.432	16.04
217.651	-80.21
217.869	24.23
218.087	40.62
218.306	-37.2
218.524	30.38
218.742	36.52
218.96	81.58
219.179	-80.21
219.397	36.52
219.615	235.18
219.833	85.67
220.051	-33.11
220.27	89.77
220.488	136.87
220.706	48.81
220.924	-29.01
221.142	-41.3
221.36	28.33
221.578	106.15
221.796	-65.88
222.015	46.76
222.233	93.87
222.451	120.49
222.669	3.75
222.887	-2.39
223.105	-55.64
223.323	57
223.541	-125.27
223.759	-14.68
223.977	44.71
224.195	149.16
224.413	24.23
224.631	61.1
224.849	44.71
225.067	212.65
225.285	-2.39
225.503	-74.07
225.721	-123.22
225.939	11.95
226.157	26.28
226.375	249.51
226.592	-37.2
226.81	-55.64
227.028	57
227.246	108.2
227.464	-14.68
227.682	134.82
227.9	134.82
228.117	16.04
228.335	32.43
228.553	44.71
228.771	28.33
228.989	-0.34
229.206	100.01
229.424	63.15
229.642	-12.63
229.86	-78.16
230.077	153.26
230.295	59.05
230.513	13.99
230.731	59.05
230.948	173.74
231.166	163.5
231.384	-16.73
231.601	-51.54
231.819	235.18
232.037	34.47
232.254	36.52
232.472	20.14
232.689	100.01
232.907	54.95
233.125	1.71
233.342	-18.77
233.56	-65.88
233.777	26.28
233.995	-16.73
234.213	30.38
234.43	169.64
234.648	7.85
234.865	-35.16
235.083	79.53
235.3	46.76
235.518	-20.82
235.735	59.05
235.953	116.39
236.17	48.81
236.388	-8.53
236.605	48.81
236.822	71.34
237.04	97.96
237.257	9.9
237.475	-31.06
237.692	73.39
237.909	106.15
238.127	65.19
238.344	26.28
238.562	69.29
238.779	-14.68
238.996	-76.12
239.214	48.81
239.431	116.39
239.648	13.99
239.865	126.63
240.083	52.91
240.3	13.99
240.517	28.33
240.735	11.95
240.952	104.11
241.169	38.57
241.386	42.67
241.603	24.23
241.821	-14.68
242.038	69.29
242.255	143.02
242.472	-74.07
242.689	20.14
242.907	52.91
243.124	3.75
243.341	7.85
243.558	-67.92
243.775	-59.73
243.992	-65.88
244.209	50.86
244.426	145.06
244.643	147.11
244.86	-12.63
245.078	77.48
245.295	44.71
245.512	69.29
245.729	-33.11
245.946	118.44
246.163	79.53
246.38	-24.92
246.597	16.04
246.814	-41.3
247.031	-29.01
247.248	75.43
247.464	11.95
247.681	67.24
247.898	42.67
248.115	81.58
248.332	3.75
248.549	145.06
248.766	157.35
248.983	36.52
249.2	11.95
249.417	136.87
249.633	-12.63
249.85	75.43
250.067	20.14
250.284	-49.49
250.501	65.19
250.717	65.19
250.934	-65.88
251.151	-8.53
251.368	-59.73
251.585	26.28
251.801	9.9
252.018	7.85
252.235	128.68
252.451	-115.03
252.668	-53.59
252.885	100.01
253.102	9.9
253.318	-37.2
253.535	-41.3
253.752	34.47
253.968	-16.73
254.185	-184.66
254.401	22.19
254.618	54.95
254.835	34.47
255.051	179.88
255.268	48.81
255.484	48.81
255.701	79.53
255.917	54.95
256.134	-57.68
256.351	30.38
256.567	-86.36
256.784	11.95
257	-104.79
257.217	79.53
257.433	122.54
257.65	38.57
257.866	120.49
258.082	-63.83
258.299	-47.44
258.515	69.29
258.732	28.33
258.948	-72.02
259.165	79.53
259.381	-49.49
259.597	73.39
259.814	11.95
260.03	-14.68
260.246	22.19
260.463	114.34
260.679	122.54
260.895	79.53
261.112	65.19
261.328	20.14
261.544	-59.73
261.761	79.53
261.977	-80.21
262.193	-49.49
262.409	95.91
262.626	108.2
262.842	5.8
263.058	20.14
263.274	97.96
263.49	48.81
263.707	46.76
263.923	124.58
264.139	-108.88
264.355	22.19
264.571	61.1
264.787	13.99
265.004	97.96
265.22	65.19
265.436	42.67
265.652	26.28
265.868	40.62
266.084	-31.06
266.3	54.95
266.516	-63.83
266.732	100.01
266.948	-14.68
267.164	-31.06
267.38	102.06
267.596	69.29
267.812	206.5
268.028	28.33
268.244	59.05
268.46	26.28
268.676	100.01
268.892	30.38
269.108	26.28
269.324	-49.49
269.54	-51.54
269.756	38.57
269.972	-106.84
270.188	-41.3
270.403	-53.59
270.619	-59.73
270.835	128.68
271.051	46.76
271.267	-37.2
271.483	38.57
271.698	20.14
271.914	7.85
272.13	63.15
272.346	-35.16
272.562	30.38
272.777	118.44
272.993	-0.34
273.209	22.19
273.425	112.3
273.64	-33.11
273.856	13.99
274.072	-67.92
274.287	-12.63
274.503	13.99
274.719	54.95
274.934	48.81
275.15	-63.83
275.366	-29.01
275.581	-92.5
275.797	46.76
276.012	112.3
276.228	-33.11
276.444	42.67
276.659	151.21
276.875	-61.78
277.09	-0.34
277.306	-37.2
277.521	69.29
277.737	83.63
277.952	81.58
278.168	48.81
278.383	85.67
278.599	46.76
278.814	100.01
279.03	32.43
279.245	77.48
279.461	-20.82
279.676	89.77
279.892	11.95
280.107	-45.4
280.322	-33.11
280.538	81.58
280.753	-8.53
280.969	-37.2
281.184	16.04
281.399	81.58
281.615	108.2
281.83	73.39
282.045	5.8
282.26	-24.92
282.476	52.91
282.691	30.38
282.906	11.95
283.122	24.23
283.337	13.99
283.552	69.29
283.767	7.85
283.983	71.34
284.198	-43.35
284.413	114.34
284.628	-112.98
284.843	116.39
285.058	22.19
285.274	-10.58
285.489	-33.11
285.704	83.63
285.919	-0.34
286.134	48.81
286.349	32.43
286.564	-8.53
286.779	87.72
286.995	-31.06
287.21	7.85
287.425	97.96
287.64	-76.12
287.855	100.01
288.07	-39.25
288.285	116.39
288.5	140.97
288.715	100.01
288.93	124.58
289.145	-55.64
289.36	93.87
289.575	13.99
289.79	161.45
290.004	-41.3
290.219	67.24
290.434	-29.01
290.649	-112.98
290.864	57
291.079	89.77
291.294	50.86
291.509	-55.64
291.724	77.48
291.938	16.04
292.153	75.43
292.368	16.04
292.583	46.76
292.798	97.96
293.012	-49.49
293.227	73.39
293.442	30.38
293.657	75.43
293.871	159.4
294.086	18.09
294.301	165.54
294.516	79.53
294.73	38.57
294.945	-35.16
295.16	-0.34
295.374	104.11
295.589	169.64
295.804	-51.54
296.018	-24.92
296.233	126.63
296.447	46.76
296.662	-24.92
296.877	181.93
297.091	71.34
297.306	-4.44
297.52	-18.77
297.735	67.24
297.949	-10.58
298.164	69.29
298.378	87.72
298.593	-82.26
298.807	-53.59
299.022	24.23
299.236	106.15
299.451	-4.44
299.665	-14.68
299.88	-8.53
300.094	-0.34
300.309	11.95
300.523	48.81
300.737	7.85
300.952	87.72
301.166	153.26
301.381	-41.3
301.595	-67.92
301.809	97.96
302.024	-41.3
302.238	-26.96
302.452	46.76
302.667	16.04
302.881	124.58
303.095	-4.44
303.309	122.54
303.524	-12.63
303.738	26.28
303.952	52.91
304.166	83.63
304.381	-100.69
304.595	126.63
304.809	38.57
305.023	-8.53
305.237	-51.54
305.452	91.82
305.666	134.82
305.88	81.58
306.094	89.77
306.308	83.63
306.522	65.19
306.736	52.91
306.95	83.63
307.164	-65.88
307.379	5.8
307.593	126.63
307.807	71.34
308.021	102.06
308.235	93.87
308.449	-78.16
308.663	61.1
308.877	147.11
309.091	7.85
309.305	52.91
309.519	-86.36
309.733	63.15
309.947	-92.5
310.161	93.87
310.374	97.96
310.588	69.29
310.802	-12.63
311.016	-49.49
311.23	26.28
311.444	-135.51
311.658	1.71
311.872	136.87
312.085	89.77
312.299	65.19
312.513	77.48
312.727	16.04
312.941	46.76
313.154	-26.96
313.368	46.76
313.582	-51.54
313.796	-20.82
314.009	83.63
314.223	71.34
314.437	48.81
314.651	126.63
314.864	-33.11
315.078	-94.55
315.292	-35.16
315.505	-10.58
315.719	114.34
315.933	-41.3
316.146	1.71
316.36	-72.02
316.573	52.91
316.787	95.91
317.001	120.49
317.214	-63.83
317.428	1.71
317.641	-45.4
317.855	-51.54
318.068	26.28
318.282	7.85
318.495	153.26
318.709	5.8
318.922	28.33
319.136	63.15
319.349	81.58
319.563	-51.54
319.776	61.1
319.99	-90.45
320.203	89.77
320.417	-2.39
320.63	106.15
320.843	118.44
321.057	46.76
321.27	-53.59
321.483	65.19
321.697	147.11
321.91	20.14
322.124	-0.34
322.337	36.52
322.55	-4.44
322.763	-12.63
322.977	-31.06
323.19	-8.53
323.403	-24.92
323.617	48.81
323.83	81.58
324.043	9.9
324.256	73.39
324.469	-26.96
324.683	57
324.896	18.09
325.109	-47.44
325.322	-82.26
325.535	157.35
325.748	87.72
325.962	54.95
326.175	11.95
326.388	95.91
326.601	81.58
326.814	18.09
327.027	5.8
327.24	175.78
327.453	-88.4
327.666	7.85
327.879	116.39
328.092	32.43
328.305	28.33
328.518	-45.4
328.731	9.9
328.944	16.04
329.157	81.58
329.37	79.53
329.583	100.01
329.796	132.78
330.009	16.04
330.222	-2.39
330.435	75.43
330.648	38.57
330.861	42.67
331.073	28.33
331.286	126.63
331.499	48.81
331.712	-41.3
331.925	-43.35
332.138	59.05
332.35	75.43
332.563	-16.73
332.776	175.78
332.989	-57.68
333.202	-37.2
333.414	26.28
333.627	-20.82
333.84	-82.26
334.053	-51.54
334.265	57
334.478	3.75
334.691	5.8
334.903	34.47
335.116	-41.3
335.329	22.19
335.541	42.67
335.754	157.35
335.966	-33.11
336.179	5.8
336.392	-12.63
336.604	44.71
336.817	100.01
337.029	16.04
337.242	-55.64
337.454	118.44
337.667	-4.44
337.88	81.58
338.092	-6.49
338.305	11.95
338.517	-18.77
338.729	91.82
338.942	93.87
339.154	-10.58
339.367	-92.5
339.579	69.29
339.792	-63.83
340.004	42.67
340.217	36.52
340.429	40.62
340.641	-4.44
340.854	-139.6
341.066	42.67
341.278	112.3
341.491	157.35
341.703	102.06
341.915	5.8
342.128	102.06
342.34	-39.25
342.552	-151.89
342.764	71.34
342.977	-37.2
343.189	61.1
343.401	3.75
343.613	-47.44
343.826	91.82
344.038	-20.82
344.25	69.29
344.462	-8.53
344.674	7.85
344.886	11.95
345.099	89.77
345.311	110.25
345.523	93.87
345.735	-72.02
345.947	-0.34
346.159	34.47
346.371	95.91
346.583	-33.11
346.795	108.2
347.007	32.43
347.219	122.54
347.431	-41.3
347.643	153.26
347.855	52.91
348.067	106.15
348.279	-24.92
348.491	59.05
348.703	112.3
348.915	-63.83
349.127	18.09
349.339	85.67
349.551	13.99
349.763	71.34
349.975	5.8
350.187	71.34
350.399	73.39
350.61	52.91
350.822	-2.39
351.034	9.9
351.246	81.58
351.458	5.8
351.669	1.71
351.881	114.34
352.093	77.48
352.305	52.91
352.517	26.28
352.728	136.87
352.94	40.62
353.152	73.39
353.363	-41.3
353.575	46.76
353.787	102.06
353.999	22.19
354.21	171.69
354.422	-24.92
354.633	-6.49
354.845	30.38
355.057	-37.2
355.268	48.81
355.48	110.25
355.692	-82.26
355.903	-20.82
356.115	-20.82
356.326	-123.22
356.538	93.87
356.749	91.82
356.961	194.22
357.172	7.85
357.384	-20.82
357.595	229.03
357.807	-14.68
358.018	26.28
358.23	54.95
358.441	171.69
358.653	147.11
358.864	16.04
359.075	-49.49
359.287	18.09
359.498	61.1
359.709	108.2
359.921	69.29
360.132	42.67
360.344	91.82
360.555	38.57
360.766	44.71
360.977	40.62
361.189	93.87
361.4	24.23
361.611	124.58
361.823	118.44
362.034	59.05
362.245	-80.21
362.456	26.28
362.667	126.63
362.879	-57.68
363.09	46.76
363.301	63.15
363.512	59.05
363.723	3.75
363.935	1.71
364.146	44.71
364.357	24.23
364.568	69.29
364.779	-108.88
364.99	63.15
365.201	-6.49
365.412	36.52
365.623	-61.78
365.834	57
366.045	138.92
366.256	85.67
366.467	149.16
366.678	-18.77
366.889	20.14
367.1	-49.49
367.311	40.62
367.522	-39.25
367.733	3.75
367.944	122.54
368.155	-12.63
368.366	87.72
368.577	167.59
368.788	61.1
368.999	-65.88
369.209	7.85
369.42	173.74
369.631	231.08
369.842	48.81
370.053	-12.63
370.264	36.52
370.474	-51.54
370.685	54.95
370.896	38.57
371.107	134.82
371.317	13.99
371.528	-8.53
371.739	95.91
371.95	9.9
372.16	100.01
372.371	-55.64
372.582	-43.35
372.792	54.95
373.003	79.53
373.214	3.75
373.424	36.52
373.635	-2.39
373.846	97.96
374.056	-33.11
374.267	42.67
374.477	73.39
374.688	-39.25
374.898	91.82
375.109	34.47
375.319	7.85
375.53	46.76
375.74	85.67
375.951	9.9
376.161	40.62
376.372	59.05
376.582	-16.73
376.793	9.9
377.003	-37.2
377.214	-18.77
377.424	93.87
377.635	110.25
377.845	-119.12
378.055	192.17
378.266	-84.31
378.476	30.38
378.686	1.71
378.897	38.57
379.107	83.63
379.317	108.2
379.528	13.99
379.738	54.95
379.948	-37.2
380.158	97.96
380.369	46.76
380.579	48.81
380.789	18.09
380.999	122.54
381.21	77.48
381.42	188.07
381.63	-22.87
381.84	57
382.05	22.19
382.261	140.97
382.471	106.15
382.681	28.33
382.891	198.31
383.101	67.24
383.311	1.71
383.521	-57.68
383.731	57
383.941	120.49
384.151	28.33
384.361	-12.63
384.571	-8.53
384.781	87.72
384.991	200.36
385.201	140.97
385.411	85.67
385.621	63.15
385.831	52.91
386.041	67.24
386.251	22.19
386.461	97.96
386.671	50.86
386.881	-12.63
387.091	3.75
387.301	149.16
387.511	22.19
387.72	57
387.93	71.34
388.14	-35.16
388.35	32.43
388.56	106.15
388.769	149.16
388.979	22.19
389.189	-45.4
389.399	26.28
389.609	1.71
389.818	73.39
390.028	106.15
390.238	46.76
390.447	-43.35
390.657	100.01
390.867	40.62
391.076	-24.92
391.286	22.19
391.496	30.38
391.705	85.67
391.915	190.12
392.125	124.58
392.334	-72.02
392.544	257.7
392.753	-16.73
392.963	24.23
393.172	54.95
393.382	-59.73
393.591	210.6
393.801	-20.82
394.01	153.26
394.22	97.96
394.429	-26.96
394.639	28.33
394.848	48.81
395.058	-8.53
395.267	42.67
395.477	100.01
395.686	91.82
395.895	194.22
396.105	149.16
396.314	65.19
396.524	24.23
396.733	34.47
396.942	118.44
397.152	83.63
397.361	138.92
397.57	32.43
397.78	38.57
397.989	48.81
398.198	159.4
398.407	9.9
398.617	-35.16
398.826	63.15
399.035	89.77
399.244	34.47
399.453	22.19
399.663	-16.73
399.872	63.15
400.081	-59.73
400.29	183.98
400.499	-8.53
400.708	110.25
400.917	1.71
401.127	-8.53
401.336	20.14
401.545	87.72
401.754	3.75
401.963	77.48
402.172	-4.44
402.381	-8.53
402.59	-14.68
402.799	-65.88
403.008	140.97
403.217	65.19
403.426	71.34
403.635	-96.6
403.844	77.48
404.053	67.24
404.262	-24.92
404.471	190.12
404.68	13.99
404.888	122.54
405.097	-16.73
405.306	52.91
405.515	71.34
405.724	9.9
405.933	67.24
406.142	114.34
406.35	102.06
406.559	-41.3
406.768	20.14
406.977	110.25
407.185	-37.2
407.394	61.1
407.603	-35.16
407.812	112.3
408.02	104.11
408.229	77.48
408.438	-14.68
408.646	-2.39
408.855	28.33
409.064	-12.63
409.272	-43.35
409.481	-12.63
409.69	16.04
409.898	-94.55
410.107	30.38
410.315	40.62
410.524	-26.96
410.733	61.1
410.941	7.85
411.15	75.43
411.358	104.11
411.567	140.97
411.775	69.29
411.984	26.28
412.192	48.81
412.401	11.95
412.609	122.54
412.818	153.26
413.026	91.82
413.234	63.15
413.443	3.75
413.651	-39.25
413.86	20.14
414.068	179.88
414.276	183.98
414.485	40.62
414.693	204.46
414.901	122.54
415.11	38.57
415.318	69.29
415.526	20.14
415.734	77.48
415.943	-0.34
416.151	63.15
416.359	87.72
416.567	40.62
416.776	120.49
416.984	110.25
417.192	175.78
417.4	11.95
417.608	-8.53
417.817	-35.16
418.025	102.06
418.233	40.62
418.441	22.19
418.649	16.04
418.857	-43.35
419.065	91.82
419.273	-0.34
419.481	-0.34
419.689	-29.01
419.897	-65.88
420.105	-49.49
420.313	93.87
420.521	128.68
420.729	52.91
420.937	9.9
421.145	77.48
421.353	108.2
421.561	114.34
421.769	40.62
421.977	-8.53
422.185	122.54
422.393	11.95
422.601	138.92
422.809	48.81
423.017	32.43
423.224	11.95
423.432	126.63
423.64	54.95
423.848	118.44
424.056	-37.2
424.263	89.77
424.471	-37.2
424.679	126.63
424.887	-26.96
425.094	157.35
425.302	77.48
425.51	26.28
425.718	95.91
425.925	73.39
426.133	63.15
426.341	188.07
426.548	77.48
426.756	-61.78
426.964	77.48
427.171	7.85
427.379	13.99
427.586	52.91
427.794	36.52
428.001	140.97
428.209	54.95
428.417	167.59
428.624	118.44
428.832	65.19
429.039	102.06
429.247	63.15
429.454	100.01
429.662	169.64
429.869	155.3
430.076	30.38
430.284	159.4
430.491	208.55
430.699	134.82
430.906	200.36
431.114	42.67
431.321	79.53
431.528	130.73
431.736	81.58
431.943	87.72
432.15	110.25
432.358	46.76
432.565	212.65
432.772	34.47
432.979	163.5
433.187	81.58
433.394	87.72
433.601	124.58
433.808	145.06
434.016	200.36
434.223	198.31
434.43	181.93
434.637	167.59
434.844	218.79
435.052	116.39
435.259	226.98
435.466	255.65
435.673	235.18
435.88	224.94
436.087	257.7
436.294	196.26
436.501	179.88
436.708	210.6
436.915	188.07
437.122	280.23
437.329	161.45
437.537	280.23
437.743	276.13
437.95	337.57
438.157	206.5
438.364	304.81
438.571	263.85
438.778	401.06
438.985	399.01
439.192	313
439.399	276.13
439.606	329.38
439.813	415.4
440.02	511.65
440.227	634.53
440.433	468.64
440.64	378.53
440.847	403.11
441.054	478.88
441.261	497.32
441.467	493.22
441.674	394.92
441.881	618.15
442.088	577.19
442.294	521.89
442.501	667.3
442.708	612
442.914	681.63
443.121	714.4
443.328	683.68
443.534	650.91
443.741	644.77
443.948	636.58
444.154	796.32
444.361	949.92
444.568	741.02
444.774	822.94
444.981	687.78
445.187	990.88
445.394	878.24
445.6	833.18
445.807	1070.75
446.013	888.48
446.22	994.97
446.426	1136.28
446.633	1113.75
446.839	1390.23
447.046	1154.71
447.252	1281.69
447.459	1185.43
447.665	1259.16
447.871	1412.76
448.078	1521.3
448.284	1474.2
448.491	1562.26
448.697	1523.35
448.903	1828.49
449.11	1670.8
449.316	1707.66
449.522	1808.02
449.728	2006.67
449.935	2111.11
450.141	2037.39
450.347	2076.3
450.553	2199.18
450.76	2211.46
450.966	2279.05
451.172	2418.31
451.378	2489.99
451.584	2629.25
451.791	2819.71
451.997	2657.92
452.203	2748.03
452.409	3006.08
452.615	2991.74
452.821	2948.73
453.027	3079.8
453.233	3554.93
453.44	3464.82
453.646	3497.59
453.852	3741.3
454.058	3829.36
454.264	3942
454.47	4202.09
454.676	4214.38
454.882	4593.25
455.088	4324.97
455.294	4632.16
455.5	4722.27
455.705	5191.26
455.911	5150.3
456.117	5535.32
456.323	5531.22
456.529	5621.33
456.735	5983.82
456.941	6112.85
457.147	6438.47
457.352	6583.88
457.558	6878.79
457.764	7360.06
457.97	7478.84
458.176	7632.44
458.381	8076.85
458.587	8185.39
458.793	8623.66
458.999	8642.09
459.204	9862.68
459.41	10133.01
459.616	9815.57
459.821	10599.94
460.027	10812.93
460.233	11582.97
460.438	11177.47
460.644	11906.55
460.85	12275.18
461.055	12711.4
461.261	13422.05
461.466	13022.69
461.672	13276.64
461.878	15011.27
462.083	14542.28
462.289	14968.26
462.494	15492.54
462.7	15812.03
462.905	16010.68
463.111	17180.07
463.316	18195.86
463.522	18566.54
463.727	19051.91
463.932	19676.54
464.138	20274.55
464.343	21200.23
464.549	21226.85
464.754	22834.51
464.959	23422.28
465.165	24028.48
465.37	23698.75
465.575	23754.05
465.781	25222.44
465.986	25996.57
466.191	25687.33
466.397	25908.51
466.602	25249.07
466.807	26619.16
467.012	26918.16
467.218	27604.23
467.423	28153.09
467.628	28441.85
467.833	29641.96
468.038	29304.04
468.244	28402.94
468.449	30457.05
468.654	29770.98
468.859	29482.22
469.064	29766.88
