Data from USB4F104151__48__11-26-45-492.txt Node

Date: Wed Feb 26 11:26:45 EST 2025
User: louis
Spectrometer: USB4F10415
Trigger mode: 4
Integration Time (sec): 1.000000E-1
Scans to average: 1
Electric dark correction enabled: true
Nonlinearity correction enabled: false
Boxcar width: 0
XAxis mode: Wavelengths
Number of Pixels in Spectrum: 3648
>>>>>Begin Spectral Data<<<<<
178.204	-455.33
178.424	-455.33
178.644	-455.33
178.864	-412.32
179.084	-410.28
179.304	17.75
179.524	-19.11
179.744	5.46
179.964	27.99
180.184	-4.78
180.404	40.28
180.624	27.99
180.844	5.46
181.064	-6.83
181.283	-33.45
181.503	-43.69
181.723	-17.07
181.943	-76.46
182.163	148.82
182.383	-33.45
182.602	-25.26
182.822	122.2
183.042	44.37
183.262	-27.31
183.482	105.81
183.701	40.28
183.921	64.85
184.141	-43.69
184.361	77.14
184.58	54.61
184.8	-47.79
185.02	32.08
185.239	130.39
185.459	21.85
185.679	103.76
185.898	-21.16
186.118	21.85
186.338	11.61
186.557	122.2
186.777	-39.59
186.997	-6.83
187.216	27.99
187.436	224.59
187.655	46.42
187.875	89.43
188.095	116.05
188.314	169.3
188.534	126.29
188.753	-78.51
188.973	136.53
189.192	220.5
189.412	81.24
189.631	9.56
189.851	77.14
190.07	136.53
190.29	-35.5
190.509	-29.35
190.729	-0.68
190.948	169.3
191.168	269.65
191.387	118.1
191.607	30.04
191.826	68.95
192.045	38.23
192.265	7.51
192.484	163.15
192.704	23.89
192.923	-17.07
193.142	159.06
193.362	114
193.581	167.25
193.8	1.37
194.02	73.04
194.239	-12.97
194.458	109.91
194.678	-0.68
194.897	-8.87
195.116	42.32
195.335	148.82
195.555	111.96
195.774	-17.07
195.993	140.63
196.212	7.51
196.432	54.61
196.651	48.47
196.87	7.51
197.089	253.27
197.308	128.34
197.528	79.19
197.747	-25.26
197.966	-21.16
198.185	142.68
198.404	-25.26
198.623	132.44
198.842	68.95
199.062	146.77
199.281	73.04
199.5	62.8
199.719	111.96
199.938	-27.31
200.157	95.57
200.376	140.63
200.595	150.87
200.814	77.14
201.033	3.41
201.252	163.15
201.471	36.18
201.69	81.24
201.909	62.8
202.128	25.94
202.347	146.77
202.566	46.42
202.785	-101.03
203.004	23.89
203.223	210.26
203.442	-8.87
203.661	21.85
203.879	48.47
204.098	195.92
204.317	-45.74
204.536	210.26
204.755	77.14
204.974	132.44
205.193	38.23
205.411	173.39
205.63	126.29
205.849	77.14
206.068	9.56
206.287	-29.35
206.505	118.1
206.724	79.19
206.943	-29.35
207.162	-2.73
207.381	44.37
207.599	30.04
207.818	101.72
208.037	-6.83
208.255	32.08
208.474	64.85
208.693	3.41
208.911	-33.45
209.13	103.76
209.349	126.29
209.567	97.62
209.786	101.72
210.005	109.91
210.223	15.7
210.442	-119.46
210.661	56.66
210.879	-12.97
211.098	-0.68
211.316	58.71
211.535	32.08
211.753	40.28
211.972	101.72
212.191	38.23
212.409	13.65
212.628	79.19
212.846	-10.92
213.065	5.46
213.283	136.53
213.502	64.85
213.72	-2.73
213.938	3.41
214.157	-10.92
214.375	122.2
214.594	-4.78
214.812	32.08
215.031	34.13
215.249	-17.07
215.467	1.37
215.686	73.04
215.904	21.85
216.122	34.13
216.341	175.44
216.559	77.14
216.778	77.14
216.996	120.15
217.214	40.28
217.432	-4.78
217.651	-60.07
217.869	93.52
218.087	-0.68
218.306	21.85
218.524	34.13
218.742	44.37
218.96	68.95
219.179	23.89
219.397	-72.36
219.615	245.07
219.833	159.06
220.051	3.41
220.27	79.19
220.488	56.66
220.706	152.91
220.924	-21.16
221.142	-2.73
221.36	1.37
221.578	83.28
221.796	-17.07
222.015	95.57
222.233	91.48
222.451	128.34
222.669	-70.31
222.887	91.48
223.105	-86.7
223.323	50.52
223.541	3.41
223.759	81.24
223.977	95.57
224.195	167.25
224.413	64.85
224.631	-0.68
224.849	62.8
225.067	136.53
225.285	23.89
225.503	30.04
225.721	-58.03
225.939	138.58
226.157	93.52
226.375	249.17
226.592	-86.7
226.81	-17.07
227.028	175.44
227.246	148.82
227.464	81.24
227.682	118.1
227.9	54.61
228.117	19.8
228.335	-10.92
228.553	-25.26
228.771	85.33
228.989	60.76
229.206	23.89
229.424	27.99
229.642	38.23
229.86	38.23
230.077	144.72
230.295	54.61
230.513	105.81
230.731	60.76
230.948	40.28
231.166	128.34
231.384	62.8
231.601	-58.03
231.819	169.3
232.037	87.38
232.254	-35.5
232.472	32.08
232.689	-31.4
232.907	175.44
233.125	46.42
233.342	-37.55
233.56	40.28
233.777	-23.21
233.995	44.37
234.213	122.2
234.43	40.28
234.648	32.08
234.865	-10.92
235.083	105.81
235.3	52.56
235.518	58.71
235.735	85.33
235.953	79.19
236.17	21.85
236.388	77.14
236.605	73.04
236.822	144.72
237.04	146.77
237.257	44.37
237.475	-51.88
237.692	87.38
237.909	83.28
238.127	-27.31
238.344	134.48
238.562	87.38
238.779	-29.35
238.996	13.65
239.214	-4.78
239.431	142.68
239.648	15.7
239.865	66.9
240.083	132.44
240.3	40.28
240.517	23.89
240.735	93.52
240.952	134.48
241.169	21.85
241.386	103.76
241.603	52.56
241.821	-25.26
242.038	91.48
242.255	191.83
242.472	32.08
242.689	99.67
242.907	48.47
243.124	114
243.341	-10.92
243.558	15.7
243.775	-49.83
243.992	-29.35
244.209	134.48
244.426	175.44
244.643	79.19
244.86	-6.83
245.078	54.61
245.295	161.11
245.512	-15.02
245.729	11.61
245.946	109.91
246.163	38.23
246.38	66.9
246.597	103.76
246.814	64.85
247.031	81.24
247.248	77.14
247.464	83.28
247.681	116.05
247.898	83.28
248.115	5.46
248.332	-39.59
248.549	126.29
248.766	220.5
248.983	81.24
249.2	130.39
249.417	167.25
249.633	25.94
249.85	38.23
250.067	7.51
250.284	27.99
250.501	19.8
250.717	34.13
250.934	-58.03
251.151	11.61
251.368	52.56
251.585	44.37
251.801	66.9
252.018	13.65
252.235	66.9
252.451	-31.4
252.668	1.37
252.885	140.63
253.102	36.18
253.318	-39.59
253.535	56.66
253.752	48.47
253.968	79.19
254.185	-39.59
254.401	34.13
254.618	93.52
254.835	13.65
255.051	40.28
255.268	138.58
255.484	52.56
255.701	64.85
255.917	91.48
256.134	42.32
256.351	-0.68
256.567	-29.35
256.784	75.09
257	13.65
257.217	107.86
257.433	95.57
257.65	60.76
257.866	124.24
258.082	48.47
258.299	-29.35
258.515	87.38
258.732	27.99
258.948	81.24
259.165	81.24
259.381	-64.17
259.597	54.61
259.814	-0.68
260.03	68.95
260.246	21.85
260.463	105.81
260.679	23.89
260.895	-68.27
261.112	21.85
261.328	3.41
261.544	3.41
261.761	181.59
261.977	-25.26
262.193	-39.59
262.409	101.72
262.626	58.71
262.842	62.8
263.058	15.7
263.274	128.34
263.49	50.52
263.707	118.1
263.923	93.52
264.139	-51.88
264.355	52.56
264.571	114
264.787	32.08
265.004	142.68
265.22	-0.68
265.436	-25.26
265.652	5.46
265.868	64.85
266.084	17.75
266.3	64.85
266.516	52.56
266.732	3.41
266.948	38.23
267.164	-10.92
267.38	136.53
267.596	193.87
267.812	175.44
268.028	46.42
268.244	44.37
268.46	54.61
268.676	52.56
268.892	77.14
269.108	25.94
269.324	-4.78
269.54	-41.64
269.756	34.13
269.972	-17.07
270.188	-41.64
270.403	3.41
270.619	101.72
270.835	103.76
271.051	52.56
271.267	9.56
271.483	-76.46
271.698	73.04
271.914	138.58
272.13	27.99
272.346	15.7
272.562	120.15
272.777	126.29
272.993	15.7
273.209	19.8
273.425	95.57
273.64	1.37
273.856	79.19
274.072	-15.02
274.287	11.61
274.503	148.82
274.719	142.68
274.934	5.46
275.15	25.94
275.366	-64.17
275.581	-19.11
275.797	7.51
276.012	62.8
276.228	85.33
276.444	7.51
276.659	124.24
276.875	-4.78
277.09	44.37
277.306	-27.31
277.521	114
277.737	81.24
277.952	91.48
278.168	111.96
278.383	-15.02
278.599	27.99
278.814	-2.73
279.03	5.46
279.245	89.43
279.461	36.18
279.676	193.87
279.892	-68.27
280.107	50.52
280.322	50.52
280.538	91.48
280.753	36.18
280.969	50.52
281.184	128.34
281.399	181.59
281.615	25.94
281.83	126.29
282.045	60.76
282.26	27.99
282.476	15.7
282.691	103.76
282.906	50.52
283.122	-17.07
283.337	-47.79
283.552	77.14
283.767	73.04
283.983	30.04
284.198	-2.73
284.413	66.9
284.628	-39.59
284.843	54.61
285.058	-6.83
285.274	-2.73
285.489	-43.69
285.704	95.57
285.919	-35.5
286.134	-41.64
286.349	25.94
286.564	30.04
286.779	134.48
286.995	13.65
287.21	-15.02
287.425	140.63
287.64	34.13
287.855	54.61
288.07	-8.87
288.285	130.39
288.5	134.48
288.715	64.85
288.93	-43.69
289.145	-78.51
289.36	138.58
289.575	-21.16
289.79	62.8
290.004	-8.87
290.219	95.57
290.434	107.86
290.649	-53.93
290.864	52.56
291.079	36.18
291.294	85.33
291.509	83.28
291.724	5.46
291.938	-8.87
292.153	81.24
292.368	-12.97
292.583	136.53
292.798	79.19
293.012	73.04
293.227	21.85
293.442	95.57
293.657	56.66
293.871	83.28
294.086	-8.87
294.301	181.59
294.516	175.44
294.73	71
294.945	-15.02
295.16	15.7
295.374	71
295.589	109.91
295.804	25.94
296.018	-2.73
296.233	197.97
296.447	130.39
296.662	68.95
296.877	103.76
297.091	60.76
297.306	30.04
297.52	77.14
297.735	71
297.949	64.85
298.164	42.32
298.378	83.28
298.593	15.7
298.807	-12.97
299.022	103.76
299.236	228.69
299.451	-55.98
299.665	1.37
299.88	50.52
300.094	91.48
300.309	27.99
300.523	5.46
300.737	64.85
300.952	56.66
301.166	77.14
301.381	1.37
301.595	-74.41
301.809	109.91
302.024	-21.16
302.238	71
302.452	120.15
302.667	-29.35
302.881	99.67
303.095	157.01
303.309	23.89
303.524	-29.35
303.738	-4.78
303.952	-49.83
304.166	175.44
304.381	5.46
304.595	89.43
304.809	79.19
305.023	9.56
305.237	83.28
305.452	38.23
305.666	83.28
305.88	120.15
306.094	150.87
306.308	114
306.522	44.37
306.736	40.28
306.95	79.19
307.164	58.71
307.379	34.13
307.593	154.96
307.807	42.32
308.021	66.9
308.235	27.99
308.449	-10.92
308.663	71
308.877	249.17
309.091	120.15
309.305	1.37
309.519	-47.79
309.733	60.76
309.947	-70.31
310.161	124.24
310.374	105.81
310.588	107.86
310.802	-29.35
311.016	25.94
311.23	62.8
311.444	-0.68
311.658	56.66
311.872	138.58
312.085	111.96
312.299	138.58
312.513	167.25
312.727	54.61
312.941	5.46
313.154	83.28
313.368	79.19
313.582	1.37
313.796	62.8
314.009	-8.87
314.223	142.68
314.437	30.04
314.651	73.04
314.864	13.65
315.078	81.24
315.292	-43.69
315.505	17.75
315.719	109.91
315.933	58.71
316.146	-21.16
316.36	-4.78
316.573	154.96
316.787	97.62
317.001	85.33
317.214	-33.45
317.428	40.28
317.641	-33.45
317.855	-8.87
318.068	30.04
318.282	58.71
318.495	173.39
318.709	48.47
318.922	58.71
319.136	191.83
319.349	107.86
319.563	-12.97
319.776	109.91
319.99	-62.12
320.203	83.28
320.417	99.67
320.63	134.48
320.843	243.03
321.057	56.66
321.27	-29.35
321.483	71
321.697	128.34
321.91	68.95
322.124	27.99
322.337	64.85
322.55	-82.6
322.763	17.75
322.977	32.08
323.19	-45.74
323.403	81.24
323.617	32.08
323.83	103.76
324.043	7.51
324.256	81.24
324.469	-55.98
324.683	105.81
324.896	54.61
325.109	30.04
325.322	-49.83
325.535	118.1
325.748	87.38
325.962	13.65
326.175	105.81
326.388	126.29
326.601	157.01
326.814	17.75
327.027	77.14
327.24	132.44
327.453	-37.55
327.666	52.56
327.879	163.15
328.092	81.24
328.305	103.76
328.518	60.76
328.731	58.71
328.944	68.95
329.157	126.29
329.37	71
329.583	243.03
329.796	206.16
330.009	-76.46
330.222	142.68
330.435	101.72
330.648	89.43
330.861	71
331.073	101.72
331.286	134.48
331.499	77.14
331.712	-33.45
331.925	15.7
332.138	79.19
332.35	66.9
332.563	-35.5
332.776	105.81
332.989	64.85
333.202	85.33
333.414	48.47
333.627	54.61
333.84	5.46
334.053	-6.83
334.265	1.37
334.478	11.61
334.691	-17.07
334.903	27.99
335.116	7.51
335.329	11.61
335.541	91.48
335.754	152.91
335.966	-12.97
336.179	46.42
336.392	-43.69
336.604	-10.92
336.817	128.34
337.029	50.52
337.242	11.61
337.454	89.43
337.667	79.19
337.88	185.68
338.092	58.71
338.305	64.85
338.517	32.08
338.729	66.9
338.942	136.53
339.154	-109.22
339.367	-58.03
339.579	64.85
339.792	-41.64
340.004	62.8
340.217	-17.07
340.429	75.09
340.641	44.37
340.854	42.32
341.066	-37.55
341.278	109.91
341.491	202.07
341.703	-2.73
341.915	42.32
342.128	79.19
342.34	66.9
342.552	-72.36
342.764	64.85
342.977	89.43
343.189	150.87
343.401	87.38
343.613	-19.11
343.826	71
344.038	-8.87
344.25	48.47
344.462	68.95
344.674	89.43
344.886	-2.73
345.099	83.28
345.311	142.68
345.523	60.76
345.735	-0.68
345.947	64.85
346.159	64.85
346.371	27.99
346.583	1.37
346.795	197.97
347.007	60.76
347.219	1.37
347.431	-21.16
347.643	62.8
347.855	-39.59
348.067	109.91
348.279	-35.5
348.491	-0.68
348.703	138.58
348.915	38.23
349.127	3.41
349.339	71
349.551	66.9
349.763	144.72
349.975	107.86
350.187	68.95
350.399	101.72
350.61	50.52
350.822	91.48
351.034	68.95
351.246	-25.26
351.458	138.58
351.669	87.38
351.881	116.05
352.093	142.68
352.305	169.3
352.517	36.18
352.728	146.77
352.94	91.48
353.152	83.28
353.363	-49.83
353.575	60.76
353.787	56.66
353.999	99.67
354.21	189.78
354.422	-43.69
354.633	42.32
354.845	64.85
355.057	101.72
355.268	87.38
355.48	142.68
355.692	-6.83
355.903	15.7
356.115	13.65
356.326	19.8
356.538	134.48
356.749	64.85
356.961	97.62
357.172	38.23
357.384	-45.74
357.595	197.97
357.807	83.28
358.018	-0.68
358.23	54.61
358.441	177.49
358.653	27.99
358.864	-8.87
359.075	11.61
359.287	36.18
359.498	122.2
359.709	132.44
359.921	118.1
360.132	64.85
360.344	-2.73
360.555	-29.35
360.766	58.71
360.977	-0.68
361.189	107.86
361.4	-2.73
361.611	150.87
361.823	177.49
362.034	9.56
362.245	-10.92
362.456	111.96
362.667	126.29
362.879	-25.26
363.09	87.38
363.301	87.38
363.512	1.37
363.723	85.33
363.935	73.04
364.146	99.67
364.357	-8.87
364.568	68.95
364.779	-8.87
364.99	136.53
365.201	-29.35
365.412	85.33
365.623	-53.93
365.834	66.9
366.045	19.8
366.256	71
366.467	73.04
366.678	15.7
366.889	40.28
367.1	42.32
367.311	81.24
367.522	13.65
367.733	85.33
367.944	60.76
368.155	83.28
368.366	183.63
368.577	101.72
368.788	161.11
368.999	-64.17
369.209	25.94
369.42	238.93
369.631	202.07
369.842	60.76
370.053	56.66
370.264	169.3
370.474	-10.92
370.685	54.61
370.896	60.76
371.107	144.72
371.317	81.24
371.528	58.71
371.739	193.87
371.95	161.11
372.16	85.33
372.371	-21.16
372.582	15.7
372.792	128.34
373.003	60.76
373.214	50.52
373.424	64.85
373.635	-45.74
373.846	142.68
374.056	-8.87
374.267	68.95
374.477	114
374.688	-43.69
374.898	124.24
375.109	-4.78
375.319	103.76
375.53	77.14
375.74	116.05
375.951	11.61
376.161	52.56
376.372	136.53
376.582	68.95
376.793	89.43
377.003	44.37
377.214	79.19
377.424	64.85
377.635	5.46
377.845	32.08
378.055	247.12
378.266	-39.59
378.476	109.91
378.686	99.67
378.897	150.87
379.107	109.91
379.317	114
379.528	95.57
379.738	13.65
379.948	-0.68
380.158	103.76
380.369	-60.07
380.579	144.72
380.789	-2.73
380.999	66.9
381.21	193.87
381.42	154.96
381.63	40.28
381.84	66.9
382.05	75.09
382.261	103.76
382.471	140.63
382.681	-72.36
382.891	175.44
383.101	42.32
383.311	-49.83
383.521	-25.26
383.731	66.9
383.941	169.3
384.151	73.04
384.361	23.89
384.571	44.37
384.781	38.23
384.991	253.27
385.201	128.34
385.411	62.8
385.621	85.33
385.831	87.38
386.041	46.42
386.251	-23.21
386.461	103.76
386.671	27.99
386.881	60.76
387.091	58.71
387.301	124.24
387.511	19.8
387.72	118.1
387.93	128.34
388.14	-101.03
388.35	124.24
388.56	157.01
388.769	116.05
388.979	46.42
389.189	-66.22
389.399	38.23
389.609	138.58
389.818	154.96
390.028	87.38
390.238	103.76
390.447	5.46
390.657	54.61
390.867	44.37
391.076	-101.03
391.286	25.94
391.496	75.09
391.705	21.85
391.915	103.76
392.125	167.25
392.334	54.61
392.544	208.21
392.753	54.61
392.963	46.42
393.172	-76.46
393.382	52.56
393.591	238.93
393.801	7.51
394.01	210.26
394.22	130.39
394.429	36.18
394.639	7.51
394.848	-21.16
395.058	58.71
395.267	-39.59
395.477	83.28
395.686	23.89
395.895	185.68
396.105	214.35
396.314	34.13
396.524	107.86
396.733	105.81
396.942	146.77
397.152	66.9
397.361	91.48
397.57	126.29
397.78	36.18
397.989	79.19
398.198	226.64
398.407	99.67
398.617	66.9
398.826	85.33
399.035	21.85
399.244	107.86
399.453	111.96
399.663	97.62
399.872	81.24
400.081	-33.45
400.29	167.25
400.499	-58.03
400.708	91.48
400.917	15.7
401.127	-4.78
401.336	3.41
401.545	234.83
401.754	42.32
401.963	44.37
402.172	-4.78
402.381	-31.4
402.59	99.67
402.799	5.46
403.008	44.37
403.217	21.85
403.426	99.67
403.635	-19.11
403.844	120.15
404.053	50.52
404.262	42.32
404.471	146.77
404.68	44.37
404.888	19.8
405.097	46.42
405.306	64.85
405.515	101.72
405.724	46.42
405.933	114
406.142	99.67
406.35	118.1
406.559	101.72
406.768	40.28
406.977	148.82
407.185	105.81
407.394	83.28
407.603	-39.59
407.812	42.32
408.02	154.96
408.229	23.89
408.438	52.56
408.646	-64.17
408.855	93.52
409.064	38.23
409.272	60.76
409.481	142.68
409.69	23.89
409.898	-45.74
410.107	54.61
410.315	208.21
410.524	-15.02
410.733	159.06
410.941	11.61
411.15	124.24
411.358	122.2
411.567	107.86
411.775	62.8
411.984	40.28
412.192	120.15
412.401	15.7
412.609	251.22
412.818	146.77
413.026	48.47
413.234	21.85
413.443	124.24
413.651	11.61
413.86	60.76
414.068	177.49
414.276	142.68
414.485	-62.12
414.693	197.97
414.901	159.06
415.11	60.76
415.318	11.61
415.526	54.61
415.734	73.04
415.943	3.41
416.151	48.47
416.359	46.42
416.567	75.09
416.776	144.72
416.984	101.72
417.192	159.06
417.4	30.04
417.608	68.95
417.817	-2.73
418.025	111.96
418.233	226.64
418.441	44.37
418.649	-15.02
418.857	56.66
419.065	109.91
419.273	48.47
419.481	97.62
419.689	105.81
419.897	38.23
420.105	-4.78
420.313	75.09
420.521	191.83
420.729	114
420.937	38.23
421.145	-2.73
421.353	185.68
421.561	175.44
421.769	85.33
421.977	77.14
422.185	62.8
422.393	40.28
422.601	58.71
422.809	97.62
423.017	128.34
423.224	103.76
423.432	118.1
423.64	60.76
423.848	146.77
424.056	56.66
424.263	175.44
424.471	-0.68
424.679	173.39
424.887	19.8
425.094	169.3
425.302	122.2
425.51	27.99
425.718	138.58
425.925	148.82
426.133	-10.92
426.341	189.78
426.548	81.24
426.756	118.1
426.964	118.1
427.171	44.37
427.379	97.62
427.586	73.04
427.794	140.63
428.001	185.68
428.209	85.33
428.417	220.5
428.624	122.2
428.832	136.53
429.039	126.29
429.247	54.61
429.454	159.06
429.662	189.78
429.869	126.29
430.076	58.71
430.284	169.3
430.491	228.69
430.699	195.92
430.906	142.68
431.114	128.34
431.321	93.52
431.528	204.11
431.736	187.73
431.943	165.2
432.15	218.45
432.358	277.84
432.565	267.6
432.772	38.23
432.979	173.39
433.187	191.83
433.394	273.75
433.601	111.96
433.808	234.83
434.016	263.51
434.223	228.69
434.43	167.25
434.637	286.03
434.844	300.37
435.052	257.36
435.259	234.83
435.466	298.32
435.673	232.79
435.88	290.13
436.087	312.66
436.294	357.71
436.501	316.75
436.708	267.6
436.915	281.94
437.122	386.38
437.329	220.5
437.537	286.03
437.743	357.71
437.95	449.87
438.157	353.62
438.364	390.48
438.571	392.53
438.778	462.16
438.985	478.54
439.192	486.73
439.399	402.77
439.606	496.97
439.813	499.02
440.02	499.02
440.227	605.52
440.433	544.08
440.64	591.18
440.847	458.06
441.054	617.8
441.261	750.92
441.467	636.24
441.674	621.9
441.881	712.01
442.088	664.91
442.294	752.97
442.501	628.04
442.708	818.5
442.914	826.7
443.121	875.85
443.328	810.31
443.534	968.01
443.741	851.27
443.948	824.65
444.154	1109.32
444.361	1135.94
444.568	1056.07
444.774	1035.59
444.981	1033.54
445.187	1211.71
445.394	1224
445.6	1146.18
445.807	1338.69
446.013	1299.78
446.22	1258.82
446.426	1449.28
446.633	1467.71
446.839	1682.75
447.046	1471.81
447.252	1748.28
447.459	1580.35
447.665	1547.58
447.871	1744.19
448.078	2004.28
448.284	1881.4
448.491	1920.31
448.697	2151.73
448.903	2209.08
449.11	2209.08
449.316	2178.36
449.522	2368.82
449.728	2356.53
449.935	2469.17
450.141	2518.32
450.347	2837.8
450.553	2651.44
450.76	2811.18
450.966	3018.02
451.172	3177.76
451.378	3101.99
451.584	3222.82
451.791	3423.52
451.997	3460.38
452.203	3405.09
452.409	3671.33
452.615	4003.1
452.821	3988.76
453.027	3865.88
453.233	4439.31
453.44	4343.06
453.646	4373.78
453.852	4678.93
454.058	4883.72
454.264	4699.41
454.47	5328.13
454.676	5211.4
454.882	5879.04
455.088	5543.17
455.294	5805.31
455.5	6175.99
455.705	6702.32
455.911	6573.3
456.117	6847.72
456.323	6907.12
456.529	7167.21
456.735	7681.25
456.941	7939.29
457.147	8103.13
457.352	8228.06
457.558	8656.08
457.764	9053.39
457.97	9364.68
458.176	9731.26
458.381	10097.85
458.587	10431.67
458.793	10878.13
458.999	10763.44
459.204	12080.28
459.41	12510.36
459.616	12280.99
459.821	13218.96
460.027	13816.96
460.233	14296.19
460.438	14476.41
460.644	15168.62
460.85	15484.01
461.055	15770.72
461.261	16886.87
461.466	16403.55
461.672	16813.14
461.878	18768.95
462.083	18678.84
462.289	18840.63
462.494	19598.38
462.7	19733.54
462.905	19926.05
463.111	21720.07
463.316	22889.46
463.522	23077.88
463.727	23757.8
463.932	24656.86
464.138	25394.13
464.343	27093.94
464.549	26655.68
464.754	28863.39
464.959	29481.88
465.165	29733.78
465.37	30110.6
465.575	29760.4
465.781	31933.29
465.986	32877.41
466.191	32267.11
466.397	32678.75
466.602	31703.92
466.807	33545.05
467.012	34040.65
467.218	34970.43
467.423	34972.48
467.628	35742.52
467.833	37901.07
468.038	36967.2
468.244	36299.56
468.449	38492.94
468.654	37884.69
468.859	37690.13
