Data from USB4F104151__41__09-27-35-507.txt Node

Date: Wed Feb 26 09:27:35 EST 2025
User: louis
Spectrometer: USB4F10415
Trigger mode: 4
Integration Time (sec): 1.000000E-1
Scans to average: 1
Electric dark correction enabled: true
Nonlinearity correction enabled: false
Boxcar width: 0
XAxis mode: Wavelengths
Number of Pixels in Spectrum: 3648
>>>>>Begin Spectral Data<<<<<
178.204	-337.4
178.424	-337.4
178.644	-337.4
178.864	-359.93
179.084	-366.07
179.304	-5.63
179.524	-22.02
179.744	27.14
179.964	8.7
180.184	35.33
180.404	-32.26
180.624	25.09
180.844	-17.92
181.064	-52.74
181.283	41.47
181.503	-58.88
181.723	51.71
181.943	-110.08
182.163	123.39
182.383	-46.59
182.602	107.01
182.822	113.15
183.042	-17.92
183.262	-91.65
183.482	-22.02
183.701	31.23
183.921	12.8
184.141	-54.78
184.361	47.62
184.58	61.95
184.8	39.42
185.02	-79.36
185.239	74.24
185.459	57.86
185.679	37.38
185.898	-87.55
186.118	109.05
186.338	31.23
186.557	80.38
186.777	-26.11
186.997	33.28
187.216	43.52
187.436	188.93
187.655	16.9
187.875	57.86
188.095	-40.45
188.314	2.56
188.534	131.58
188.753	-103.93
188.973	123.39
189.192	125.44
189.412	-1.54
189.631	-9.73
189.851	35.33
190.07	141.82
190.29	-58.88
190.509	-71.17
190.729	53.76
190.948	92.67
191.168	262.65
191.387	129.53
191.607	-105.98
191.826	100.86
192.045	47.62
192.265	-50.69
192.484	109.05
192.704	-73.21
192.923	-22.02
193.142	80.38
193.362	90.62
193.581	113.15
193.8	59.9
194.02	72.19
194.239	35.33
194.458	43.52
194.678	59.9
194.897	-30.21
195.116	43.52
195.335	-40.45
195.555	100.86
195.774	68.09
195.993	55.81
196.212	-5.63
196.432	-58.88
196.651	-65.02
196.87	18.94
197.089	100.86
197.308	-5.63
197.528	92.67
197.747	-7.68
197.966	14.85
198.185	141.82
198.404	-22.02
198.623	162.3
198.842	96.77
199.062	113.15
199.281	150.01
199.5	43.52
199.719	84.48
199.938	25.09
200.157	100.86
200.376	164.35
200.595	80.38
200.814	92.67
201.033	47.62
201.252	129.53
201.471	84.48
201.69	39.42
201.909	-9.73
202.128	92.67
202.347	-1.54
202.566	-30.21
202.785	-71.17
203.004	6.66
203.223	215.55
203.442	8.7
203.661	-60.93
203.879	-1.54
204.098	64
204.317	0.51
204.536	96.77
204.755	68.09
204.974	133.63
205.193	-15.87
205.411	109.05
205.63	-3.58
205.849	35.33
206.068	-13.82
206.287	-13.82
206.505	84.48
206.724	31.23
206.943	20.99
207.162	-42.5
207.381	100.86
207.599	18.94
207.818	121.34
208.037	-30.21
208.255	59.9
208.474	8.7
208.693	16.9
208.911	55.81
209.13	55.81
209.349	92.67
209.567	16.9
209.786	68.09
210.005	66.05
210.223	41.47
210.442	-114.17
210.661	66.05
210.879	35.33
211.098	16.9
211.316	92.67
211.535	35.33
211.753	70.14
211.972	55.81
212.191	-56.83
212.409	31.23
212.628	68.09
212.846	-75.26
213.065	12.8
213.283	64
213.502	59.9
213.72	98.81
213.938	-9.73
214.157	-9.73
214.375	43.52
214.594	16.9
214.812	39.42
215.031	86.53
215.249	47.62
215.467	76.29
215.686	-22.02
215.904	66.05
216.122	96.77
216.341	107.01
216.559	-17.92
216.778	111.1
216.996	113.15
217.214	18.94
217.432	-46.59
217.651	-118.27
217.869	2.56
218.087	53.76
218.306	23.04
218.524	8.7
218.742	0.51
218.96	129.53
219.179	-17.92
219.397	23.04
219.615	199.16
219.833	88.57
220.051	-40.45
220.27	102.91
220.488	92.67
220.706	27.14
220.924	43.52
221.142	-17.92
221.36	109.05
221.578	76.29
221.796	-30.21
222.015	-60.93
222.233	59.9
222.451	115.2
222.669	-50.69
222.887	18.94
223.105	-42.5
223.323	72.19
223.541	4.61
223.759	115.2
223.977	8.7
224.195	201.21
224.413	84.48
224.631	102.91
224.849	70.14
225.067	180.73
225.285	16.9
225.503	-19.97
225.721	-89.6
225.939	43.52
226.157	-38.4
226.375	121.34
226.592	-60.93
226.81	35.33
227.028	111.1
227.246	133.63
227.464	61.95
227.682	20.99
227.9	20.99
228.117	27.14
228.335	10.75
228.553	8.7
228.771	27.14
228.989	10.75
229.206	129.53
229.424	-24.06
229.642	33.28
229.86	-75.26
230.077	117.25
230.295	88.57
230.513	47.62
230.731	80.38
230.948	190.97
231.166	152.06
231.384	0.51
231.601	-22.02
231.819	147.97
232.037	59.9
232.254	-22.02
232.472	14.85
232.689	6.66
232.907	94.72
233.125	-5.63
233.342	-26.11
233.56	-79.36
233.777	18.94
233.995	49.66
234.213	117.25
234.43	41.47
234.648	-40.45
234.865	23.04
235.083	-7.68
235.3	76.29
235.518	84.48
235.735	164.35
235.953	18.94
236.17	33.28
236.388	31.23
236.605	6.66
236.822	35.33
237.04	133.63
237.257	59.9
237.475	-13.82
237.692	-67.07
237.909	82.43
238.127	43.52
238.344	100.86
238.562	141.82
238.779	10.75
238.996	-58.88
239.214	68.09
239.431	57.86
239.648	-15.87
239.865	84.48
240.083	119.29
240.3	-9.73
240.517	-54.78
240.735	2.56
240.952	94.72
241.169	61.95
241.386	41.47
241.603	-56.83
241.821	-97.79
242.038	14.85
242.255	86.53
242.472	-40.45
242.689	135.68
242.907	33.28
243.124	31.23
243.341	-30.21
243.558	25.09
243.775	-15.87
243.992	-38.4
244.209	76.29
244.426	133.63
244.643	113.15
244.86	37.38
245.078	119.29
245.295	10.75
245.512	6.66
245.729	-108.03
245.946	-19.97
246.163	-32.26
246.38	6.66
246.597	31.23
246.814	14.85
247.031	59.9
247.248	20.99
247.464	51.71
247.681	35.33
247.898	59.9
248.115	57.86
248.332	-40.45
248.549	154.11
248.766	98.81
248.983	111.1
249.2	27.14
249.417	90.62
249.633	-38.4
249.85	113.15
250.067	43.52
250.284	55.81
250.501	80.38
250.717	51.71
250.934	-56.83
251.151	6.66
251.368	53.76
251.585	61.95
251.801	-17.92
252.018	49.66
252.235	59.9
252.451	-110.08
252.668	47.62
252.885	121.34
253.102	25.09
253.318	10.75
253.535	-5.63
253.752	6.66
253.968	27.14
254.185	35.33
254.401	-17.92
254.618	27.14
254.835	6.66
255.051	197.12
255.268	100.86
255.484	66.05
255.701	-15.87
255.917	29.18
256.134	59.9
256.351	-89.6
256.567	-56.83
256.784	6.66
257	-19.97
257.217	41.47
257.433	94.72
257.65	-28.16
257.866	129.53
258.082	-99.84
258.299	-15.87
258.515	64
258.732	-42.5
258.948	-3.58
259.165	98.81
259.381	-93.69
259.597	64
259.814	-62.98
260.03	2.56
260.246	88.57
260.463	125.44
260.679	35.33
260.895	51.71
261.112	35.33
261.328	-65.02
261.544	76.29
261.761	182.78
261.977	25.09
262.193	-9.73
262.409	109.05
262.626	66.05
262.842	4.61
263.058	-9.73
263.274	82.43
263.49	59.9
263.707	39.42
263.923	74.24
264.139	-15.87
264.355	35.33
264.571	55.81
264.787	16.9
265.004	61.95
265.22	92.67
265.436	-54.78
265.652	72.19
265.868	-30.21
266.084	-26.11
266.3	80.38
266.516	-9.73
266.732	12.8
266.948	-32.26
267.164	-3.58
267.38	23.04
267.596	115.2
267.812	182.78
268.028	16.9
268.244	-46.59
268.46	47.62
268.676	2.56
268.892	14.85
269.108	-9.73
269.324	18.94
269.54	-30.21
269.756	6.66
269.972	-48.64
270.188	0.51
270.403	-5.63
270.619	55.81
270.835	-46.59
271.051	41.47
271.267	43.52
271.483	-71.17
271.698	80.38
271.914	-22.02
272.13	-9.73
272.346	49.66
272.562	10.75
272.777	14.85
272.993	39.42
273.209	80.38
273.425	86.53
273.64	-15.87
273.856	8.7
274.072	10.75
274.287	18.94
274.503	150.01
274.719	135.68
274.934	4.61
275.15	-9.73
275.366	10.75
275.581	20.99
275.797	96.77
276.012	33.28
276.228	35.33
276.444	51.71
276.659	92.67
276.875	-50.69
277.09	2.56
277.306	4.61
277.521	43.52
277.737	35.33
277.952	-15.87
278.168	-38.4
278.383	74.24
278.599	88.57
278.814	59.9
279.03	23.04
279.245	100.86
279.461	-13.82
279.676	137.73
279.892	-69.12
280.107	64
280.322	-48.64
280.538	35.33
280.753	6.66
280.969	39.42
281.184	27.14
281.399	57.86
281.615	-13.82
281.83	43.52
282.045	-38.4
282.26	-26.11
282.476	-15.87
282.691	109.05
282.906	6.66
283.122	31.23
283.337	-3.58
283.552	125.44
283.767	12.8
283.983	119.29
284.198	4.61
284.413	82.43
284.628	-79.36
284.843	23.04
285.058	37.38
285.274	53.76
285.489	-44.54
285.704	111.1
285.919	-38.4
286.134	-34.3
286.349	-13.82
286.564	-15.87
286.779	137.73
286.995	49.66
287.21	-146.94
287.425	139.77
287.64	-24.06
287.855	2.56
288.07	-24.06
288.285	133.63
288.5	53.76
288.715	25.09
288.93	72.19
289.145	6.66
289.36	55.81
289.575	-44.54
289.79	86.53
290.004	-24.06
290.219	117.25
290.434	-40.45
290.649	27.14
290.864	-22.02
291.079	-38.4
291.294	-9.73
291.509	29.18
291.724	-58.88
291.938	59.9
292.153	16.9
292.368	12.8
292.583	61.95
292.798	117.25
293.012	-42.5
293.227	18.94
293.442	-30.21
293.657	111.1
293.871	66.05
294.086	70.14
294.301	160.25
294.516	147.97
294.73	82.43
294.945	-22.02
295.16	-7.68
295.374	168.45
295.589	51.71
295.804	23.04
296.018	70.14
296.233	109.05
296.447	111.1
296.662	-26.11
296.877	109.05
297.091	68.09
297.306	39.42
297.52	31.23
297.735	4.61
297.949	92.67
298.164	33.28
298.378	76.29
298.593	-26.11
298.807	-7.68
299.022	125.44
299.236	109.05
299.451	12.8
299.665	47.62
299.88	100.86
300.094	53.76
300.309	12.8
300.523	84.48
300.737	18.94
300.952	70.14
301.166	47.62
301.381	-50.69
301.595	33.28
301.809	18.94
302.024	-26.11
302.238	53.76
302.452	143.87
302.667	104.96
302.881	113.15
303.095	131.58
303.309	45.57
303.524	27.14
303.738	18.94
303.952	-67.07
304.166	-17.92
304.381	-105.98
304.595	31.23
304.809	-38.4
305.023	-22.02
305.237	8.7
305.452	-34.3
305.666	43.52
305.88	61.95
306.094	35.33
306.308	109.05
306.522	57.86
306.736	59.9
306.95	137.73
307.164	61.95
307.379	47.62
307.593	104.96
307.807	39.42
308.021	86.53
308.235	41.47
308.449	-79.36
308.663	-38.4
308.877	160.25
309.091	31.23
309.305	82.43
309.519	-36.35
309.733	55.81
309.947	-15.87
310.161	141.82
310.374	107.01
310.588	82.43
310.802	-58.88
311.016	-17.92
311.23	33.28
311.444	2.56
311.658	76.29
311.872	66.05
312.085	74.24
312.299	111.1
312.513	127.49
312.727	12.8
312.941	-30.21
313.154	-5.63
313.368	59.9
313.582	45.57
313.796	82.43
314.009	-30.21
314.223	129.53
314.437	-42.5
314.651	39.42
314.864	10.75
315.078	-71.17
315.292	-73.21
315.505	-17.92
315.719	61.95
315.933	88.57
316.146	41.47
316.36	-132.61
316.573	104.96
316.787	4.61
317.001	-58.88
317.214	-30.21
317.428	92.67
317.641	-77.31
317.855	-26.11
318.068	78.33
318.282	-44.54
318.495	160.25
318.709	4.61
318.922	49.66
319.136	66.05
319.349	88.57
319.563	-36.35
319.776	68.09
319.99	-67.07
320.203	109.05
320.417	-5.63
320.63	61.95
320.843	113.15
321.057	43.52
321.27	23.04
321.483	16.9
321.697	168.45
321.91	31.23
322.124	64
322.337	33.28
322.55	-42.5
322.763	121.34
322.977	-9.73
323.19	-81.41
323.403	18.94
323.617	96.77
323.83	156.16
324.043	84.48
324.256	51.71
324.469	-62.98
324.683	53.76
324.896	55.81
325.109	29.18
325.322	-144.89
325.535	72.19
325.748	57.86
325.962	76.29
326.175	43.52
326.388	53.76
326.601	174.59
326.814	-26.11
327.027	-13.82
327.24	113.15
327.453	-40.45
327.666	70.14
327.879	64
328.092	6.66
328.305	8.7
328.518	39.42
328.731	10.75
328.944	23.04
329.157	12.8
329.37	8.7
329.583	150.01
329.796	68.09
330.009	-36.35
330.222	166.4
330.435	31.23
330.648	6.66
330.861	23.04
331.073	37.38
331.286	41.47
331.499	41.47
331.712	-132.61
331.925	-5.63
332.138	16.9
332.35	174.59
332.563	-38.4
332.776	158.21
332.989	-5.63
333.202	49.66
333.414	66.05
333.627	31.23
333.84	12.8
334.053	8.7
334.265	-13.82
334.478	27.14
334.691	2.56
334.903	43.52
335.116	10.75
335.329	16.9
335.541	64
335.754	49.66
335.966	29.18
336.179	-34.3
336.392	14.85
336.604	23.04
336.817	57.86
337.029	102.91
337.242	66.05
337.454	14.85
337.667	55.81
337.88	133.63
338.092	84.48
338.305	127.49
338.517	-60.93
338.729	100.86
338.942	125.44
339.154	-65.02
339.367	-73.21
339.579	74.24
339.792	-22.02
340.004	131.58
340.217	27.14
340.429	39.42
340.641	-50.69
340.854	16.9
341.066	-17.92
341.278	49.66
341.491	150.01
341.703	47.62
341.915	-56.83
342.128	53.76
342.34	76.29
342.552	-22.02
342.764	66.05
342.977	90.62
343.189	135.68
343.401	14.85
343.613	-67.07
343.826	59.9
344.038	10.75
344.25	27.14
344.462	23.04
344.674	119.29
344.886	72.19
345.099	33.28
345.311	14.85
345.523	18.94
345.735	-67.07
345.947	68.09
346.159	35.33
346.371	8.7
346.583	43.52
346.795	205.31
347.007	72.19
347.219	98.81
347.431	-36.35
347.643	111.1
347.855	10.75
348.067	104.96
348.279	-32.26
348.491	47.62
348.703	80.38
348.915	-38.4
349.127	2.56
349.339	47.62
349.551	-46.59
349.763	55.81
349.975	-5.63
350.187	117.25
350.399	107.01
350.61	98.81
350.822	14.85
351.034	8.7
351.246	131.58
351.458	86.53
351.669	109.05
351.881	51.71
352.093	59.9
352.305	76.29
352.517	117.25
352.728	74.24
352.94	59.9
353.152	35.33
353.363	-9.73
353.575	76.29
353.787	197.12
353.999	53.76
354.21	84.48
354.422	-19.97
354.633	39.42
354.845	-26.11
355.057	-46.59
355.268	12.8
355.48	123.39
355.692	-99.84
355.903	66.05
356.115	23.04
356.326	-62.98
356.538	68.09
356.749	131.58
356.961	145.92
357.172	2.56
357.384	-22.02
357.595	137.73
357.807	-17.92
358.018	-62.98
358.23	-50.69
358.441	129.53
358.653	51.71
358.864	6.66
359.075	-54.78
359.287	6.66
359.498	131.58
359.709	64
359.921	-48.64
360.132	2.56
360.344	-5.63
360.555	-32.26
360.766	68.09
360.977	-58.88
361.189	164.35
361.4	2.56
361.611	172.54
361.823	133.63
362.034	-62.98
362.245	-11.78
362.456	6.66
362.667	-3.58
362.879	31.23
363.09	0.51
363.301	-22.02
363.512	64
363.723	23.04
363.935	-30.21
364.146	98.81
364.357	59.9
364.568	49.66
364.779	-22.02
364.99	76.29
365.201	-17.92
365.412	188.93
365.623	-32.26
365.834	4.61
366.045	-26.11
366.256	111.1
366.467	76.29
366.678	-5.63
366.889	27.14
367.1	14.85
367.311	88.57
367.522	-62.98
367.733	53.76
367.944	6.66
368.155	-7.68
368.366	117.25
368.577	121.34
368.788	31.23
368.999	-5.63
369.209	18.94
369.42	211.45
369.631	172.54
369.842	59.9
370.053	41.47
370.264	125.44
370.474	16.9
370.685	111.1
370.896	0.51
371.107	66.05
371.317	92.67
371.528	41.47
371.739	98.81
371.95	84.48
372.16	66.05
372.371	-93.69
372.582	0.51
372.792	76.29
373.003	43.52
373.214	70.14
373.424	4.61
373.635	-69.12
373.846	145.92
374.056	6.66
374.267	-11.78
374.477	57.86
374.688	2.56
374.898	14.85
375.109	18.94
375.319	6.66
375.53	158.21
375.74	57.86
375.951	-22.02
376.161	14.85
376.372	107.01
376.582	-32.26
376.793	-3.58
377.003	-19.97
377.214	-60.93
377.424	43.52
377.635	37.38
377.845	18.94
378.055	199.16
378.266	-1.54
378.476	27.14
378.686	-32.26
378.897	70.14
379.107	90.62
379.317	59.9
379.528	-67.07
379.738	84.48
379.948	-22.02
380.158	72.19
380.369	51.71
380.579	37.38
380.789	39.42
380.999	90.62
381.21	86.53
381.42	145.92
381.63	6.66
381.84	47.62
382.05	117.25
382.261	96.77
382.471	102.91
382.681	-13.82
382.891	121.34
383.101	80.38
383.311	-50.69
383.521	-58.88
383.731	72.19
383.941	121.34
384.151	18.94
384.361	0.51
384.571	51.71
384.781	23.04
384.991	154.11
385.201	174.59
385.411	107.01
385.621	66.05
385.831	72.19
386.041	47.62
386.251	0.51
386.461	100.86
386.671	41.47
386.881	35.33
387.091	-22.02
387.301	66.05
387.511	16.9
387.72	61.95
387.93	109.05
388.14	37.38
388.35	18.94
388.56	139.77
388.769	100.86
388.979	0.51
389.189	-9.73
389.399	4.61
389.609	76.29
389.818	133.63
390.028	18.94
390.238	80.38
390.447	-52.74
390.657	10.75
390.867	18.94
391.076	-17.92
391.286	10.75
391.496	-7.68
391.705	27.14
391.915	104.96
392.125	113.15
392.334	-22.02
392.544	59.9
392.753	80.38
392.963	23.04
393.172	-46.59
393.382	10.75
393.591	139.77
393.801	39.42
394.01	135.68
394.22	84.48
394.429	43.52
394.639	-1.54
394.848	35.33
395.058	96.77
395.267	-11.78
395.477	80.38
395.686	59.9
395.895	174.59
396.105	139.77
396.314	39.42
396.524	47.62
396.733	-9.73
396.942	98.81
397.152	51.71
397.361	135.68
397.57	23.04
397.78	59.9
397.989	109.05
398.198	164.35
398.407	-17.92
398.617	-9.73
398.826	23.04
399.035	10.75
399.244	80.38
399.453	16.9
399.663	100.86
399.872	86.53
400.081	-62.98
400.29	158.21
400.499	-50.69
400.708	164.35
400.917	61.95
401.127	-1.54
401.336	29.18
401.545	141.82
401.754	-3.58
401.963	133.63
402.172	61.95
402.381	-7.68
402.59	117.25
402.799	20.99
403.008	74.24
403.217	-3.58
403.426	74.24
403.635	-46.59
403.844	27.14
404.053	-11.78
404.262	37.38
404.471	109.05
404.68	84.48
404.888	-46.59
405.097	47.62
405.306	-15.87
405.515	92.67
405.724	39.42
405.933	92.67
406.142	43.52
406.35	174.59
406.559	-13.82
406.768	68.09
406.977	137.73
407.185	31.23
407.394	88.57
407.603	-7.68
407.812	41.47
408.02	100.86
408.229	-22.02
408.438	27.14
408.646	-48.64
408.855	12.8
409.064	72.19
409.272	39.42
409.481	98.81
409.69	-13.82
409.898	-11.78
410.107	80.38
410.315	127.49
410.524	-5.63
410.733	64
410.941	0.51
411.15	31.23
411.358	35.33
411.567	145.92
411.775	98.81
411.984	104.96
412.192	150.01
412.401	-13.82
412.609	133.63
412.818	109.05
413.026	117.25
413.234	45.57
413.443	10.75
413.651	16.9
413.86	27.14
414.068	133.63
414.276	182.78
414.485	6.66
414.693	92.67
414.901	172.54
415.11	31.23
415.318	10.75
415.526	-5.63
415.734	109.05
415.943	35.33
416.151	94.72
416.359	70.14
416.567	41.47
416.776	92.67
416.984	100.86
417.192	166.4
417.4	68.09
417.608	-38.4
417.817	-34.3
418.025	90.62
418.233	117.25
418.441	-24.06
418.649	20.99
418.857	-1.54
419.065	145.92
419.273	16.9
419.481	37.38
419.689	20.99
419.897	-7.68
420.105	-9.73
420.313	90.62
420.521	29.18
420.729	133.63
420.937	-36.35
421.145	20.99
421.353	29.18
421.561	205.31
421.769	49.66
421.977	-5.63
422.185	109.05
422.393	72.19
422.601	92.67
422.809	100.86
423.017	43.52
423.224	55.81
423.432	113.15
423.64	72.19
423.848	125.44
424.056	39.42
424.263	72.19
424.471	53.76
424.679	133.63
424.887	-24.06
425.094	160.25
425.302	70.14
425.51	27.14
425.718	88.57
425.925	78.33
426.133	10.75
426.341	139.77
426.548	55.81
426.756	45.57
426.964	37.38
427.171	-58.88
427.379	47.62
427.586	88.57
427.794	72.19
428.001	86.53
428.209	74.24
428.417	154.11
428.624	39.42
428.832	51.71
429.039	49.66
429.247	-15.87
429.454	84.48
429.662	209.4
429.869	119.29
430.076	27.14
430.284	104.96
430.491	152.06
430.699	109.05
430.906	147.97
431.114	102.91
431.321	100.86
431.528	115.2
431.736	100.86
431.943	119.29
432.15	104.96
432.358	121.34
432.565	199.16
432.772	27.14
432.979	182.78
433.187	59.9
433.394	141.82
433.601	109.05
433.808	252.41
434.016	287.23
434.223	182.78
434.43	250.36
434.637	262.65
434.844	272.89
435.052	182.78
435.259	231.93
435.466	258.56
435.673	186.88
435.88	346.62
436.087	289.28
436.294	330.23
436.501	297.47
436.708	184.83
436.915	320
437.122	279.04
437.329	219.64
437.537	270.84
437.743	248.32
437.95	360.95
438.157	246.27
438.364	289.28
438.571	317.95
438.778	403.96
438.985	403.96
439.192	432.63
439.399	360.95
439.606	434.68
439.813	397.82
440.02	510.46
440.227	578.04
440.433	444.92
440.64	395.77
440.847	403.96
441.054	573.94
441.261	614.9
441.467	512.5
441.674	539.13
441.881	705.01
442.088	616.95
442.294	604.66
442.501	625.14
442.708	709.11
442.914	696.82
443.121	719.35
443.328	776.69
443.534	889.33
443.741	729.59
443.948	725.49
444.154	780.79
444.361	1030.64
444.568	895.47
444.774	870.9
444.981	942.58
445.187	1028.59
445.394	967.15
445.6	1065.46
445.807	1174
446.013	1073.65
446.22	1122.8
446.426	1255.92
446.633	1346.03
446.839	1489.39
447.046	1331.69
447.252	1468.91
447.459	1409.51
447.665	1477.1
447.871	1628.65
448.078	1642.98
448.284	1624.55
448.491	1802.72
448.697	1798.63
448.903	1927.65
449.11	1982.95
449.316	1923.55
449.522	2107.87
449.728	2206.17
449.935	2226.65
450.141	2314.72
450.347	2386.4
450.553	2327
450.76	2384.35
450.966	2583
451.172	2632.15
451.378	2681.3
451.584	2820.56
451.791	2984.4
451.997	3166.67
452.203	3070.42
452.409	3408.33
452.615	3545.55
452.821	3336.65
453.027	3361.23
453.233	3901.89
453.44	3662.28
453.646	3975.62
453.852	4196.8
454.058	4274.62
454.264	4436.41
454.47	4643.26
454.676	4821.43
454.882	5161.39
455.088	5054.9
455.294	5179.82
455.5	5583.27
455.705	5749.16
455.911	5831.08
456.117	5966.24
456.323	6222.24
456.529	6207.91
456.735	6805.91
456.941	6885.78
457.147	7299.47
457.352	7373.2
457.558	7504.27
457.764	8239.49
457.97	8366.46
458.176	8427.9
458.381	9019.77
458.587	9183.6
458.793	9601.39
458.999	9537.9
459.204	10762.59
459.41	11204.95
459.616	10801.5
459.821	11630.93
460.027	12173.64
460.233	12675.39
460.438	12732.73
460.644	13648.18
460.85	13558.07
461.055	14080.3
461.261	14997.79
461.466	14377.25
461.672	14491.94
461.878	16617.73
462.083	16285.96
462.289	16869.63
462.494	17717.49
462.7	17445.11
462.905	17914.09
463.111	19144.92
463.316	20166.86
463.522	20474.06
463.727	21256.38
463.932	22112.43
464.138	22653.09
464.343	23666.84
464.549	23752.85
464.754	25495.67
464.959	25985.14
465.165	26333.29
465.37	26302.57
465.575	26488.94
465.781	28117.07
465.986	29126.72
466.191	28475.47
466.397	28792.9
466.602	28151.89
466.807	29861.94
467.012	30054.45
467.218	30255.15
467.423	30834.73
467.628	31522.85
467.833	33470.47
468.038	32827.4
468.244	31926.3
468.449	33783.8
468.654	32722.96
468.859	32956.43
469.064	33107.97
469.269	32544.78
469.474	32243.73
