Data from USB4F104151__7__11-24-17-508.txt Node

Date: Wed Feb 26 11:24:17 EST 2025
User: louis
Spectrometer: USB4F10415
Trigger mode: 4
Integration Time (sec): 1.000000E-1
Scans to average: 1
Electric dark correction enabled: true
Nonlinearity correction enabled: false
Boxcar width: 0
XAxis mode: Wavelengths
Number of Pixels in Spectrum: 3648
>>>>>Begin Spectral Data<<<<<
178.204	-421.2
178.424	-421.2
178.644	-421.2
178.864	-415.06
179.084	-494.93
179.304	-17.75
179.524	19.11
179.744	2.73
179.964	115.37
180.184	-30.04
180.404	23.21
180.624	25.26
180.844	-9.56
181.064	-101.72
181.283	-38.23
181.503	-19.8
181.723	31.4
181.943	-81.24
182.163	185
182.383	21.16
182.602	39.59
182.822	125.61
183.042	68.27
183.262	-13.65
183.482	17.07
183.701	-83.28
183.921	86.7
184.141	-42.32
184.361	17.07
184.58	98.99
184.8	-23.89
185.02	39.59
185.239	107.18
185.459	21.16
185.679	72.36
185.898	-79.19
186.118	-3.41
186.338	60.07
186.557	82.6
186.777	-21.85
186.997	0.68
187.216	10.92
187.436	248.49
187.655	23.21
187.875	84.65
188.095	43.69
188.314	139.94
188.534	113.32
188.753	19.11
188.973	123.56
189.192	193.19
189.412	-5.46
189.631	82.6
189.851	125.61
190.07	135.85
190.29	-107.86
190.509	33.45
190.729	47.79
190.948	139.94
191.168	185
191.387	113.32
191.607	23.21
191.826	45.74
192.045	-34.13
192.265	-46.42
192.484	55.98
192.704	27.31
192.923	-36.18
193.142	152.23
193.362	84.65
193.581	213.67
193.8	2.73
194.02	29.35
194.239	68.27
194.458	94.89
194.678	-50.52
194.897	23.21
195.116	19.11
195.335	70.31
195.555	96.94
195.774	-7.51
195.993	25.26
196.212	39.59
196.432	8.87
196.651	-81.24
196.87	-15.7
197.089	258.73
197.308	84.65
197.528	25.26
197.747	25.26
197.966	4.78
198.185	109.22
198.404	-46.42
198.623	84.65
198.842	96.94
199.062	174.76
199.281	82.6
199.5	-25.94
199.719	74.41
199.938	33.45
200.157	74.41
200.376	119.46
200.595	131.75
200.814	92.84
201.033	-56.66
201.252	80.55
201.471	78.51
201.69	62.12
201.909	29.35
202.128	96.94
202.347	55.98
202.566	55.98
202.785	-50.52
203.004	17.07
203.223	201.38
203.442	88.75
203.661	-32.08
203.879	62.12
204.098	43.69
204.317	37.55
204.536	107.18
204.755	43.69
204.974	84.65
205.193	27.31
205.411	146.09
205.63	21.16
205.849	49.83
206.068	58.03
206.287	-17.75
206.505	70.31
206.724	-9.56
206.943	-1.37
207.162	-1.37
207.381	-19.8
207.599	-5.46
207.818	31.4
208.037	-36.18
208.255	-11.61
208.474	-30.04
208.693	66.22
208.911	-5.46
209.13	27.31
209.349	82.6
209.567	111.27
209.786	-48.47
210.005	146.09
210.223	15.02
210.442	-89.43
210.661	-1.37
210.879	47.79
211.098	55.98
211.316	37.55
211.535	109.22
211.753	96.94
211.972	123.56
212.191	-1.37
212.409	43.69
212.628	107.18
212.846	-99.67
213.065	25.26
213.283	111.27
213.502	64.17
213.72	47.79
213.938	-95.57
214.157	0.68
214.375	21.16
214.594	-21.85
214.812	27.31
215.031	62.12
215.249	25.26
215.467	12.97
215.686	-40.28
215.904	15.02
216.122	55.98
216.341	180.9
216.559	-79.19
216.778	68.27
216.996	129.7
217.214	-30.04
217.432	68.27
217.651	-75.09
217.869	60.07
218.087	-48.47
218.306	10.92
218.524	-60.76
218.742	70.31
218.96	92.84
219.179	86.7
219.397	-7.51
219.615	189.1
219.833	119.46
220.051	-3.41
220.27	86.7
220.488	139.94
220.706	88.75
220.924	-17.75
221.142	-46.42
221.36	66.22
221.578	49.83
221.796	-19.8
222.015	0.68
222.233	70.31
222.451	109.22
222.669	-81.24
222.887	141.99
223.105	-5.46
223.323	55.98
223.541	-36.18
223.759	117.42
223.977	12.97
224.195	84.65
224.413	96.94
224.631	15.02
224.849	8.87
225.067	172.71
225.285	-27.99
225.503	-5.46
225.721	-89.43
225.939	78.51
226.157	17.07
226.375	197.29
226.592	-58.71
226.81	-5.46
227.028	111.27
227.246	51.88
227.464	78.51
227.682	107.18
227.9	64.17
228.117	-30.04
228.335	29.35
228.553	92.84
228.771	27.31
228.989	-13.65
229.206	41.64
229.424	78.51
229.642	17.07
229.86	6.83
230.077	90.79
230.295	12.97
230.513	178.86
230.731	60.07
230.948	144.04
231.166	43.69
231.384	-13.65
231.601	-11.61
231.819	160.42
232.037	-21.85
232.254	-19.8
232.472	41.64
232.689	10.92
232.907	109.22
233.125	-11.61
233.342	-1.37
233.56	-5.46
233.777	4.78
233.995	23.21
234.213	111.27
234.43	58.03
234.648	15.02
234.865	19.11
235.083	103.08
235.3	45.74
235.518	76.46
235.735	125.61
235.953	117.42
236.17	0.68
236.388	17.07
236.605	72.36
236.822	62.12
237.04	121.51
237.257	41.64
237.475	-60.76
237.692	90.79
237.909	66.22
238.127	-15.7
238.344	58.03
238.562	60.07
238.779	-77.14
238.996	-93.52
239.214	115.37
239.431	80.55
239.648	4.78
239.865	12.97
240.083	125.61
240.3	-27.99
240.517	60.07
240.735	35.5
240.952	82.6
241.169	76.46
241.386	-21.85
241.603	-23.89
241.821	-132.44
242.038	90.79
242.255	111.27
242.472	33.45
242.689	43.69
242.907	12.97
243.124	45.74
243.341	21.16
243.558	-36.18
243.775	-46.42
243.992	-15.7
244.209	109.22
244.426	90.79
244.643	35.5
244.86	39.59
245.078	31.4
245.295	70.31
245.512	84.65
245.729	-21.85
245.946	88.75
246.163	49.83
246.38	-23.89
246.597	39.59
246.814	62.12
247.031	25.26
247.248	25.26
247.464	62.12
247.681	10.92
247.898	12.97
248.115	68.27
248.332	39.59
248.549	84.65
248.766	176.81
248.983	-7.51
249.2	27.31
249.417	111.27
249.633	31.4
249.85	98.99
250.067	96.94
250.284	35.5
250.501	76.46
250.717	47.79
250.934	-118.1
251.151	-50.52
251.368	53.93
251.585	123.56
251.801	105.13
252.018	-124.24
252.235	131.75
252.451	-64.85
252.668	8.87
252.885	74.41
253.102	78.51
253.318	-38.23
253.535	-5.46
253.752	19.11
253.968	-23.89
254.185	-38.23
254.401	66.22
254.618	41.64
254.835	-46.42
255.051	101.03
255.268	94.89
255.484	92.84
255.701	64.17
255.917	60.07
256.134	-48.47
256.351	82.6
256.567	10.92
256.784	-34.13
257	-107.86
257.217	154.28
257.433	115.37
257.65	76.46
257.866	23.21
258.082	-3.41
258.299	-7.51
258.515	0.68
258.732	66.22
258.948	-54.61
259.165	88.75
259.381	-30.04
259.597	66.22
259.814	80.55
260.03	4.78
260.246	-32.08
260.463	86.7
260.679	162.47
260.895	96.94
261.112	25.26
261.328	70.31
261.544	-25.94
261.761	154.28
261.977	-13.65
262.193	-75.09
262.409	137.9
262.626	-23.89
262.842	-38.23
263.058	-66.9
263.274	101.03
263.49	90.79
263.707	141.99
263.923	45.74
264.139	-83.28
264.355	74.41
264.571	58.03
264.787	121.51
265.004	125.61
265.22	-9.56
265.436	-44.37
265.652	37.55
265.868	0.68
266.084	-50.52
266.3	53.93
266.516	23.21
266.732	70.31
266.948	51.88
267.164	-52.56
267.38	68.27
267.596	78.51
267.812	82.6
268.028	-9.56
268.244	-64.85
268.46	76.46
268.676	0.68
268.892	53.93
269.108	8.87
269.324	-85.33
269.54	8.87
269.756	58.03
269.972	-120.15
270.188	-19.8
270.403	-124.24
270.619	105.13
270.835	74.41
271.051	25.26
271.267	-97.62
271.483	-21.85
271.698	117.42
271.914	-17.75
272.13	47.79
272.346	-32.08
272.562	-21.85
272.777	174.76
272.993	10.92
273.209	-23.89
273.425	23.21
273.64	-73.04
273.856	80.55
274.072	-71
274.287	45.74
274.503	41.64
274.719	80.55
274.934	70.31
275.15	-136.53
275.366	-44.37
275.581	17.07
275.797	41.64
276.012	-73.04
276.228	-3.41
276.444	35.5
276.659	148.14
276.875	-46.42
277.09	45.74
277.306	10.92
277.521	80.55
277.737	21.16
277.952	98.99
278.168	-25.94
278.383	105.13
278.599	94.89
278.814	80.55
279.03	-5.46
279.245	6.83
279.461	49.83
279.676	101.03
279.892	-38.23
280.107	6.83
280.322	-97.62
280.538	47.79
280.753	-50.52
280.969	23.21
281.184	17.07
281.399	133.8
281.615	-9.56
281.83	12.97
282.045	-3.41
282.26	17.07
282.476	-17.75
282.691	94.89
282.906	15.02
283.122	62.12
283.337	-62.8
283.552	-60.76
283.767	6.83
283.983	129.7
284.198	-15.7
284.413	49.83
284.628	-21.85
284.843	-30.04
285.058	41.64
285.274	-17.75
285.489	-3.41
285.704	127.66
285.919	-7.51
286.134	-15.7
286.349	41.64
286.564	0.68
286.779	203.43
286.995	15.02
287.21	-73.04
287.425	113.32
287.64	41.64
287.855	-1.37
288.07	-71
288.285	43.69
288.5	90.79
288.715	88.75
288.93	45.74
289.145	-36.18
289.36	133.8
289.575	-15.7
289.79	72.36
290.004	-71
290.219	70.31
290.434	-3.41
290.649	-1.37
290.864	-36.18
291.079	135.85
291.294	60.07
291.509	60.07
291.724	-3.41
291.938	33.45
292.153	86.7
292.368	2.73
292.583	94.89
292.798	146.09
293.012	53.93
293.227	27.31
293.442	-48.47
293.657	123.56
293.871	109.22
294.086	43.69
294.301	203.43
294.516	129.7
294.73	29.35
294.945	-105.81
295.16	25.26
295.374	27.31
295.589	70.31
295.804	-15.7
296.018	-11.61
296.233	131.75
296.447	-30.04
296.662	-7.51
296.877	146.09
297.091	51.88
297.306	-5.46
297.52	10.92
297.735	111.27
297.949	70.31
298.164	29.35
298.378	-32.08
298.593	68.27
298.807	64.17
299.022	45.74
299.236	158.38
299.451	-1.37
299.665	70.31
299.88	19.11
300.094	70.31
300.309	41.64
300.523	29.35
300.737	49.83
300.952	96.94
301.166	107.18
301.381	-46.42
301.595	17.07
301.809	12.97
302.024	-13.65
302.238	-66.9
302.452	80.55
302.667	-3.41
302.881	88.75
303.095	39.59
303.309	51.88
303.524	-52.56
303.738	-36.18
303.952	6.83
304.166	84.65
304.381	-144.72
304.595	144.04
304.809	-17.75
305.023	98.99
305.237	4.78
305.452	-40.28
305.666	84.65
305.88	88.75
306.094	60.07
306.308	70.31
306.522	72.36
306.736	58.03
306.95	144.04
307.164	-1.37
307.379	62.12
307.593	25.26
307.807	139.94
308.021	47.79
308.235	51.88
308.449	-68.95
308.663	15.02
308.877	195.24
309.091	-3.41
309.305	111.27
309.519	-77.14
309.733	2.73
309.947	-60.76
310.161	74.41
310.374	53.93
310.588	125.61
310.802	19.11
311.016	-27.99
311.23	-1.37
311.444	27.31
311.658	12.97
311.872	162.47
312.085	45.74
312.299	92.84
312.513	193.19
312.727	-15.7
312.941	-44.37
313.154	98.99
313.368	35.5
313.582	21.16
313.796	47.79
314.009	41.64
314.223	60.07
314.437	90.79
314.651	80.55
314.864	-27.99
315.078	-25.94
315.292	-83.28
315.505	-25.94
315.719	49.83
315.933	70.31
316.146	-46.42
316.36	-9.56
316.573	84.65
316.787	92.84
317.001	-3.41
317.214	-17.75
317.428	47.79
317.641	-3.41
317.855	47.79
318.068	53.93
318.282	113.32
318.495	139.94
318.709	-5.46
318.922	-19.8
319.136	201.38
319.349	172.71
319.563	-1.37
319.776	39.59
319.99	-109.91
320.203	213.67
320.417	-73.04
320.63	39.59
320.843	176.81
321.057	39.59
321.27	74.41
321.483	84.65
321.697	62.12
321.91	105.13
322.124	78.51
322.337	80.55
322.55	-46.42
322.763	2.73
322.977	17.07
323.19	47.79
323.403	8.87
323.617	78.51
323.83	96.94
324.043	-54.61
324.256	80.55
324.469	-64.85
324.683	58.03
324.896	-46.42
325.109	41.64
325.322	-21.85
325.535	90.79
325.748	78.51
325.962	8.87
326.175	21.16
326.388	37.55
326.601	125.61
326.814	-15.7
327.027	-40.28
327.24	111.27
327.453	-157.01
327.666	58.03
327.879	152.23
328.092	78.51
328.305	55.98
328.518	29.35
328.731	-17.75
328.944	6.83
329.157	92.84
329.37	-95.57
329.583	164.52
329.796	205.48
330.009	-46.42
330.222	94.89
330.435	90.79
330.648	-19.8
330.861	86.7
331.073	96.94
331.286	111.27
331.499	12.97
331.712	6.83
331.925	12.97
332.138	49.83
332.35	84.65
332.563	-68.95
332.776	144.04
332.989	-25.94
333.202	47.79
333.414	51.88
333.627	29.35
333.84	-21.85
334.053	117.42
334.265	-73.04
334.478	80.55
334.691	-1.37
334.903	29.35
335.116	-48.47
335.329	121.51
335.541	86.7
335.754	101.03
335.966	10.92
336.179	-27.99
336.392	-7.51
336.604	-7.51
336.817	127.66
337.029	15.02
337.242	43.69
337.454	66.22
337.667	21.16
337.88	139.94
338.092	51.88
338.305	68.27
338.517	10.92
338.729	74.41
338.942	90.79
339.154	-58.71
339.367	-13.65
339.579	35.5
339.792	-81.24
340.004	76.46
340.217	-21.85
340.429	64.17
340.641	64.17
340.854	-32.08
341.066	19.11
341.278	68.27
341.491	230.06
341.703	37.55
341.915	-23.89
342.128	25.26
342.34	-1.37
342.552	-30.04
342.764	-40.28
342.977	-34.13
343.189	39.59
343.401	21.16
343.613	12.97
343.826	-25.94
344.038	-17.75
344.25	4.78
344.462	25.26
344.674	-17.75
344.886	-34.13
345.099	98.99
345.311	64.17
345.523	-15.7
345.735	-128.34
345.947	37.55
346.159	119.46
346.371	51.88
346.583	-23.89
346.795	127.66
347.007	53.93
347.219	133.8
347.431	49.83
347.643	92.84
347.855	-71
348.067	82.6
348.279	-23.89
348.491	-3.41
348.703	84.65
348.915	23.21
349.127	-62.8
349.339	33.45
349.551	0.68
349.763	53.93
349.975	-9.56
350.187	150.18
350.399	107.18
350.61	8.87
350.822	96.94
351.034	35.5
351.246	15.02
351.458	76.46
351.669	96.94
351.881	49.83
352.093	176.81
352.305	96.94
352.517	45.74
352.728	150.18
352.94	105.13
353.152	-27.99
353.363	0.68
353.575	92.84
353.787	129.7
353.999	64.17
354.21	129.7
354.422	15.02
354.633	-46.42
354.845	2.73
355.057	-13.65
355.268	-11.61
355.48	125.61
355.692	-11.61
355.903	15.02
356.115	-30.04
356.326	-130.39
356.538	109.22
356.749	-5.46
356.961	111.27
357.172	37.55
357.384	-27.99
357.595	209.58
357.807	10.92
358.018	43.69
358.23	-13.65
358.441	103.08
358.653	111.27
358.864	84.65
359.075	-7.51
359.287	-17.75
359.498	121.51
359.709	35.5
359.921	47.79
360.132	19.11
360.344	55.98
360.555	-48.47
360.766	19.11
360.977	0.68
361.189	84.65
361.4	60.07
361.611	68.27
361.823	70.31
362.034	47.79
362.245	-66.9
362.456	60.07
362.667	27.31
362.879	-79.19
363.09	82.6
363.301	60.07
363.512	15.02
363.723	4.78
363.935	29.35
364.146	82.6
364.357	2.73
364.568	68.27
364.779	-52.56
364.99	133.8
365.201	-19.8
365.412	111.27
365.623	-105.81
365.834	82.6
366.045	39.59
366.256	74.41
366.467	66.22
366.678	12.97
366.889	60.07
367.1	23.21
367.311	94.89
367.522	25.26
367.733	31.4
367.944	47.79
368.155	-3.41
368.366	78.51
368.577	84.65
368.788	45.74
368.999	-32.08
369.209	51.88
369.42	185
369.631	221.86
369.842	43.69
370.053	-11.61
370.264	80.55
370.474	0.68
370.685	84.65
370.896	-30.04
371.107	170.66
371.317	4.78
371.528	-11.61
371.739	107.18
371.95	39.59
372.16	84.65
372.371	-9.56
372.582	-27.99
372.792	33.45
373.003	2.73
373.214	58.03
373.424	74.41
373.635	39.59
373.846	92.84
374.056	94.89
374.267	66.22
374.477	19.11
374.688	8.87
374.898	8.87
375.109	60.07
375.319	45.74
375.53	107.18
375.74	135.85
375.951	43.69
376.161	113.32
376.372	41.64
376.582	-5.46
376.793	58.03
377.003	35.5
377.214	-54.61
377.424	68.27
377.635	41.64
377.845	-9.56
378.055	107.18
378.266	-36.18
378.476	19.11
378.686	84.65
378.897	-9.56
379.107	125.61
379.317	115.37
379.528	-27.99
379.738	78.51
379.948	-38.23
380.158	109.22
380.369	-11.61
380.579	121.51
380.789	-25.94
380.999	33.45
381.21	111.27
381.42	105.13
381.63	49.83
381.84	146.09
382.05	23.21
382.261	86.7
382.471	129.7
382.681	25.26
382.891	133.8
383.101	113.32
383.311	-25.94
383.521	-7.51
383.731	43.69
383.941	148.14
384.151	103.08
384.361	58.03
384.571	25.26
384.781	29.35
384.991	121.51
385.201	141.99
385.411	135.85
385.621	78.51
385.831	27.31
386.041	72.36
386.251	31.4
386.461	82.6
386.671	19.11
386.881	45.74
387.091	12.97
387.301	64.17
387.511	-11.61
387.72	-9.56
387.93	94.89
388.14	-36.18
388.35	152.23
388.56	47.79
388.769	162.47
388.979	15.02
389.189	-19.8
389.399	72.36
389.609	109.22
389.818	80.55
390.028	141.99
390.238	101.03
390.447	49.83
390.657	37.55
390.867	29.35
391.076	-62.8
391.286	43.69
391.496	-3.41
391.705	8.87
391.915	76.46
392.125	82.6
392.334	45.74
392.544	144.04
392.753	137.9
392.963	-42.32
393.172	33.45
393.382	-1.37
393.591	240.29
393.801	-36.18
394.01	113.32
394.22	53.93
394.429	94.89
394.639	-34.13
394.848	109.22
395.058	105.13
395.267	21.16
395.477	8.87
395.686	72.36
395.895	162.47
396.105	223.91
396.314	35.5
396.524	94.89
396.733	-1.37
396.942	133.8
397.152	66.22
397.361	51.88
397.57	2.73
397.78	-13.65
397.989	115.37
398.198	217.77
398.407	0.68
398.617	121.51
398.826	58.03
399.035	-3.41
399.244	109.22
399.453	131.75
399.663	62.12
399.872	53.93
400.081	-73.04
400.29	152.23
400.499	-3.41
400.708	115.37
400.917	68.27
401.127	19.11
401.336	-9.56
401.545	139.94
401.754	176.81
401.963	101.03
402.172	-23.89
402.381	-42.32
402.59	35.5
402.799	29.35
403.008	72.36
403.217	2.73
403.426	107.18
403.635	-32.08
403.844	27.31
404.053	25.26
404.262	29.35
404.471	201.38
404.68	23.21
404.888	68.27
405.097	43.69
405.306	60.07
405.515	70.31
405.724	47.79
405.933	55.98
406.142	84.65
406.35	105.13
406.559	33.45
406.768	88.75
406.977	154.28
407.185	111.27
407.394	139.94
407.603	-114
407.812	35.5
408.02	127.66
408.229	12.97
408.438	15.02
408.646	-11.61
408.855	-17.75
409.064	68.27
409.272	58.03
409.481	82.6
409.69	-7.51
409.898	-81.24
410.107	76.46
410.315	60.07
410.524	21.16
410.733	96.94
410.941	55.98
411.15	92.84
411.358	-13.65
411.567	96.94
411.775	72.36
411.984	17.07
412.192	86.7
412.401	-19.8
412.609	223.91
412.818	109.22
413.026	92.84
413.234	49.83
413.443	33.45
413.651	17.07
413.86	23.21
414.068	107.18
414.276	160.42
414.485	6.83
414.693	144.04
414.901	115.37
415.11	60.07
415.318	-19.8
415.526	-36.18
415.734	94.89
415.943	47.79
416.151	131.75
416.359	-23.89
416.567	25.26
416.776	29.35
416.984	80.55
417.192	176.81
417.4	-19.8
417.608	19.11
417.817	10.92
418.025	64.17
418.233	133.8
418.441	-9.56
418.649	-19.8
418.857	58.03
419.065	60.07
419.273	-27.99
419.481	70.31
419.689	-13.65
419.897	-44.37
420.105	-73.04
420.313	174.76
420.521	193.19
420.729	221.86
420.937	-15.7
421.145	64.17
421.353	131.75
421.561	150.18
421.769	107.18
421.977	0.68
422.185	86.7
422.393	27.31
422.601	64.17
422.809	125.61
423.017	-3.41
423.224	43.69
423.432	119.46
423.64	-48.47
423.848	107.18
424.056	-13.65
424.263	66.22
424.471	15.02
424.679	47.79
424.887	-91.48
425.094	113.32
425.302	148.14
425.51	96.94
425.718	84.65
425.925	86.7
426.133	23.21
426.341	176.81
426.548	35.5
426.756	8.87
426.964	51.88
427.171	29.35
427.379	133.8
427.586	19.11
427.794	164.52
428.001	160.42
428.209	117.42
428.417	211.62
428.624	92.84
428.832	82.6
429.039	41.64
429.247	78.51
429.454	107.18
429.662	166.57
429.869	131.75
430.076	84.65
430.284	101.03
430.491	174.76
430.699	98.99
430.906	135.85
431.114	84.65
431.321	105.13
431.528	78.51
431.736	144.04
431.943	103.08
432.15	107.18
432.358	170.66
432.565	232.1
432.772	8.87
432.979	168.62
433.187	60.07
433.394	211.62
433.601	88.75
433.808	164.52
434.016	211.62
434.223	225.96
434.43	107.18
434.637	236.2
434.844	172.71
435.052	150.18
435.259	256.68
435.466	219.82
435.673	238.25
435.88	275.11
436.087	230.06
436.294	307.88
436.501	195.24
436.708	180.9
436.915	217.77
437.122	256.68
437.329	254.63
437.537	221.86
437.743	258.73
437.95	408.23
438.157	232.1
438.364	301.73
438.571	322.21
438.778	320.17
438.985	359.08
439.192	400.04
439.399	344.74
439.606	363.17
439.813	445.09
440.02	500.39
440.227	551.59
440.433	443.04
440.64	404.13
440.847	395.94
441.054	537.25
441.261	576.16
441.467	506.53
441.674	504.48
441.881	586.4
442.088	484
442.294	549.54
442.501	731.81
442.708	705.18
442.914	600.74
443.121	748.19
443.328	737.95
443.534	748.19
443.741	711.33
443.948	635.55
444.154	789.15
444.361	944.8
444.568	826.01
444.774	828.06
444.981	809.63
445.187	932.51
445.394	975.52
445.6	844.45
445.807	1129.11
446.013	1086.11
446.22	936.6
446.426	1215.13
446.633	1147.55
446.839	1385.11
447.046	1114.78
447.252	1366.68
447.459	1374.87
447.665	1372.82
447.871	1548.95
448.078	1663.63
448.284	1489.56
448.491	1716.88
448.697	1743.5
448.903	1829.52
449.11	1837.71
449.316	1841.81
449.522	2112.14
449.728	2024.08
449.935	2067.08
450.141	2019.98
450.347	2214.54
450.553	2210.44
450.76	2265.74
450.966	2405
451.172	2476.68
451.378	2665.09
451.584	2667.14
451.791	2837.12
451.997	2919.04
452.203	2919.04
452.409	3043.96
452.615	3293.82
452.821	3203.71
453.027	3259
453.233	3553.91
453.44	3488.37
453.646	3660.4
453.852	3869.3
454.058	3881.58
454.264	4092.52
454.47	4379.24
454.676	4242.03
454.882	4625
455.088	4461.16
455.294	4960.86
455.5	5005.92
455.705	5390.94
455.911	5296.73
456.117	5544.53
456.323	5775.95
456.529	5782.1
456.735	6220.36
456.941	6425.16
457.147	6773.32
457.352	6724.16
457.558	7019.07
457.764	7494.2
457.97	7633.46
458.176	7991.86
458.381	8315.44
458.587	8540.71
458.793	8948.26
458.999	8884.77
459.204	10041.87
459.41	10514.95
459.616	10082.83
459.821	10627.59
460.027	11123.2
460.233	11692.54
460.438	11887.09
460.644	12362.22
460.85	12564.97
461.055	12896.74
461.261	13803.99
461.466	13494.75
461.672	13713.88
461.878	15278.53
462.083	15155.65
462.289	15133.12
462.494	16193.97
462.7	16259.51
462.905	16458.16
463.111	17815.96
463.316	18538.9
463.522	19294.6
463.727	19564.93
463.932	20150.65
464.138	20959.59
464.343	21723.49
464.549	21743.97
464.754	23507.27
464.959	24471.86
465.165	24539.44
465.37	24412.47
465.575	24248.63
465.781	26020.13
465.986	27109.64
466.191	26149.15
466.397	26540.31
466.602	26104.09
466.807	27672.84
467.012	28266.75
467.218	28674.29
467.423	28823.79
467.628	29518.06
467.833	30394.59
468.038	30304.48
468.244	30019.81
468.449	31482.06
468.654	30738.65
468.859	30927.06
