Data from USB4F104151__84__10-34-23-035.txt Node

Date: Wed Feb 26 10:34:23 EST 2025
User: louis
Spectrometer: USB4F10415
Trigger mode: 4
Integration Time (sec): 1.000000E-1
Scans to average: 1
Electric dark correction enabled: true
Nonlinearity correction enabled: false
Boxcar width: 0
XAxis mode: Wavelengths
Number of Pixels in Spectrum: 3648
>>>>>Begin Spectral Data<<<<<
178.204	-357.71
178.424	-357.71
178.644	-357.71
178.864	-402.77
179.084	-363.86
179.304	-11.61
179.524	-62.8
179.744	-27.99
179.964	121.51
180.184	37.55
180.404	-17.75
180.624	8.87
180.844	-19.8
181.064	-25.94
181.283	-48.47
181.503	8.87
181.723	37.55
181.943	-111.96
182.163	154.28
182.383	-5.46
182.602	66.22
182.822	129.7
183.042	8.87
183.262	-85.33
183.482	-23.89
183.701	74.41
183.921	39.59
184.141	-42.32
184.361	80.55
184.58	70.31
184.8	78.51
185.02	-30.04
185.239	29.35
185.459	66.22
185.679	125.61
185.898	-73.04
186.118	62.12
186.338	4.78
186.557	135.85
186.777	-7.51
186.997	-56.66
187.216	51.88
187.436	191.14
187.655	55.98
187.875	58.03
188.095	-19.8
188.314	47.79
188.534	133.8
188.753	-17.75
188.973	23.21
189.192	162.47
189.412	2.73
189.631	39.59
189.851	78.51
190.07	174.76
190.29	-42.32
190.509	-13.65
190.729	-9.56
190.948	117.42
191.168	182.95
191.387	-7.51
191.607	84.65
191.826	-1.37
192.045	33.45
192.265	55.98
192.484	41.64
192.704	27.31
192.923	-25.94
193.142	135.85
193.362	137.9
193.581	207.53
193.8	70.31
194.02	80.55
194.239	-5.46
194.458	113.32
194.678	6.83
194.897	-54.61
195.116	53.93
195.335	127.66
195.555	55.98
195.774	-97.62
195.993	49.83
196.212	-15.7
196.432	23.21
196.651	-68.95
196.87	2.73
197.089	176.81
197.308	103.08
197.528	82.6
197.747	-15.7
197.966	37.55
198.185	133.8
198.404	-36.18
198.623	119.46
198.842	68.27
199.062	84.65
199.281	135.85
199.5	15.02
199.719	125.61
199.938	49.83
200.157	131.75
200.376	92.84
200.595	113.32
200.814	41.64
201.033	-101.72
201.252	94.89
201.471	64.17
201.69	29.35
201.909	45.74
202.128	47.79
202.347	101.03
202.566	25.26
202.785	-62.8
203.004	-17.75
203.223	271.01
203.442	-32.08
203.661	-48.47
203.879	21.16
204.098	137.9
204.317	51.88
204.536	146.09
204.755	88.75
204.974	70.31
205.193	60.07
205.411	98.99
205.63	47.79
205.849	39.59
206.068	-3.41
206.287	41.64
206.505	92.84
206.724	17.07
206.943	-27.99
207.162	-40.28
207.381	49.83
207.599	21.16
207.818	74.41
208.037	-54.61
208.255	6.83
208.474	2.73
208.693	33.45
208.911	29.35
209.13	35.5
209.349	70.31
209.567	117.42
209.786	101.03
210.005	70.31
210.223	60.07
210.442	-144.72
210.661	-58.71
210.879	66.22
211.098	-11.61
211.316	121.51
211.535	96.94
211.753	35.5
211.972	-54.61
212.191	-91.48
212.409	-3.41
212.628	129.7
212.846	15.02
213.065	-7.51
213.283	123.56
213.502	39.59
213.72	25.26
213.938	-42.32
214.157	-30.04
214.375	148.14
214.594	-27.99
214.812	31.4
215.031	68.27
215.249	82.6
215.467	62.12
215.686	23.21
215.904	29.35
216.122	27.31
216.341	129.7
216.559	6.83
216.778	88.75
216.996	80.55
217.214	43.69
217.432	-3.41
217.651	-114
217.869	84.65
218.087	12.97
218.306	-19.8
218.524	111.27
218.742	-1.37
218.96	82.6
219.179	-44.37
219.397	2.73
219.615	119.46
219.833	74.41
220.051	-50.52
220.27	156.33
220.488	45.74
220.706	78.51
220.924	-48.47
221.142	-13.65
221.36	152.23
221.578	-1.37
221.796	-3.41
222.015	51.88
222.233	68.27
222.451	121.51
222.669	-11.61
222.887	86.7
223.105	-1.37
223.323	53.93
223.541	-11.61
223.759	146.09
223.977	31.4
224.195	152.23
224.413	131.75
224.631	107.18
224.849	55.98
225.067	148.14
225.285	-97.62
225.503	25.26
225.721	-50.52
225.939	-23.89
226.157	12.97
226.375	225.96
226.592	4.78
226.81	4.78
227.028	139.94
227.246	92.84
227.464	84.65
227.682	107.18
227.9	92.84
228.117	68.27
228.335	60.07
228.553	39.59
228.771	12.97
228.989	-36.18
229.206	31.4
229.424	23.21
229.642	-19.8
229.86	-60.76
230.077	111.27
230.295	-19.8
230.513	127.66
230.731	-9.56
230.948	211.62
231.166	164.52
231.384	-23.89
231.601	-105.81
231.819	242.34
232.037	-25.94
232.254	-1.37
232.472	66.22
232.689	45.74
232.907	170.66
233.125	-42.32
233.342	-32.08
233.56	86.7
233.777	4.78
233.995	25.26
234.213	80.55
234.43	43.69
234.648	21.16
234.865	-52.56
235.083	15.02
235.3	78.51
235.518	66.22
235.735	117.42
235.953	103.08
236.17	64.17
236.388	15.02
236.605	70.31
236.822	51.88
237.04	162.47
237.257	103.08
237.475	-48.47
237.692	25.26
237.909	86.7
238.127	76.46
238.344	86.7
238.562	2.73
238.779	-111.96
238.996	-107.86
239.214	47.79
239.431	45.74
239.648	-27.99
239.865	-64.85
240.083	76.46
240.3	-93.52
240.517	-40.28
240.735	101.03
240.952	80.55
241.169	90.79
241.386	109.23
241.603	41.64
241.821	-40.28
242.038	90.79
242.255	25.26
242.472	-21.84
242.689	66.22
242.907	125.61
243.124	78.51
243.341	41.64
243.558	-40.28
243.775	-95.57
243.992	-68.95
244.209	92.84
244.426	137.9
244.643	107.18
244.86	33.45
245.078	58.03
245.295	92.84
245.512	2.73
245.729	33.45
245.946	15.02
246.163	27.31
246.38	41.64
246.597	115.37
246.814	39.59
247.031	98.99
247.248	35.5
247.464	103.08
247.681	47.79
247.898	64.17
248.115	19.11
248.332	-122.2
248.549	121.51
248.766	199.34
248.983	62.12
249.2	205.48
249.417	-3.41
249.633	-1.37
249.85	60.07
250.067	-36.18
250.284	-13.65
250.501	78.51
250.717	115.37
250.934	-105.81
251.151	43.69
251.368	-50.52
251.585	74.41
251.801	76.46
252.018	-36.18
252.235	113.32
252.451	37.55
252.668	39.59
252.885	94.89
253.102	-1.37
253.318	2.73
253.535	-56.66
253.752	-7.51
253.968	70.31
254.185	-60.76
254.401	-5.46
254.618	98.99
254.835	58.03
255.051	78.51
255.268	82.6
255.484	19.11
255.701	-3.41
255.917	-5.46
256.134	-25.94
256.351	33.45
256.567	-128.34
256.784	39.59
257	-64.85
257.217	80.55
257.433	25.26
257.65	70.31
257.866	96.94
258.082	-60.76
258.299	-11.61
258.515	58.03
258.732	8.87
258.948	37.55
259.165	78.51
259.381	-23.89
259.597	86.7
259.814	98.99
260.03	-27.99
260.246	60.07
260.463	185
260.679	109.23
260.895	2.73
261.112	121.51
261.328	8.87
261.544	23.21
261.761	174.76
261.977	-124.24
262.193	-44.37
262.409	121.51
262.626	-9.56
262.842	37.55
263.058	-5.46
263.274	47.79
263.49	47.79
263.707	156.33
263.923	90.79
264.139	-85.33
264.355	74.41
264.571	66.22
264.787	98.99
265.004	109.23
265.22	47.79
265.436	-52.56
265.652	-21.84
265.868	23.21
266.084	-9.56
266.3	105.13
266.516	-101.72
266.732	6.83
266.948	64.17
267.164	-25.94
267.38	88.75
267.596	27.31
267.812	201.38
268.028	66.22
268.244	-27.99
268.46	39.59
268.676	53.93
268.892	27.31
269.108	-44.37
269.324	2.73
269.54	-44.37
269.756	80.55
269.972	-66.9
270.188	-15.7
270.403	4.78
270.619	62.12
270.835	64.17
271.051	60.07
271.267	8.87
271.483	-91.48
271.698	62.12
271.914	35.5
272.13	88.75
272.346	17.07
272.562	27.31
272.777	185
272.993	88.75
273.209	78.51
273.425	117.42
273.64	-66.9
273.856	105.13
274.072	-71
274.287	-36.18
274.503	41.64
274.719	80.55
274.934	19.11
275.15	-114
275.366	35.5
275.581	-27.99
275.797	74.41
276.012	60.07
276.228	-17.75
276.444	33.45
276.659	125.61
276.875	-30.04
277.09	-60.76
277.306	-3.41
277.521	111.27
277.737	29.35
277.952	76.46
278.168	70.31
278.383	17.07
278.599	60.07
278.814	-9.56
279.03	-5.46
279.245	101.03
279.461	2.73
279.676	53.93
279.892	-52.56
280.107	-5.46
280.322	-15.7
280.538	58.03
280.753	-68.95
280.969	19.11
281.184	27.31
281.399	127.66
281.615	76.46
281.83	-48.47
282.045	-42.32
282.26	-93.52
282.476	111.27
282.691	154.28
282.906	35.5
283.122	-11.61
283.337	39.59
283.552	80.55
283.767	-30.04
283.983	98.99
284.198	29.35
284.413	39.59
284.628	-142.68
284.843	-7.51
285.058	64.17
285.274	19.11
285.489	-19.8
285.704	35.5
285.919	-3.41
286.134	62.12
286.349	23.21
286.564	-32.08
286.779	109.23
286.995	39.59
287.21	-60.76
287.425	68.27
287.64	-15.7
287.855	19.11
288.07	-21.84
288.285	80.55
288.5	109.23
288.715	39.59
288.93	6.83
289.145	-64.85
289.36	41.64
289.575	4.78
289.79	125.61
290.004	-34.13
290.219	115.37
290.434	-79.19
290.649	-32.08
290.864	-32.08
291.079	-40.28
291.294	49.83
291.509	43.69
291.724	35.5
291.938	84.65
292.153	66.22
292.368	33.45
292.583	152.23
292.798	2.73
293.012	66.22
293.227	96.94
293.442	0.68
293.657	78.51
293.871	189.1
294.086	66.22
294.301	182.95
294.516	41.64
294.73	43.69
294.945	-40.28
295.16	45.74
295.374	139.94
295.589	49.83
295.804	-44.37
296.018	53.93
296.233	58.03
296.447	70.31
296.662	-42.32
296.877	127.66
297.091	47.79
297.306	29.35
297.52	-64.85
297.735	64.17
297.949	90.79
298.164	88.75
298.378	94.89
298.593	-36.18
298.807	6.83
299.022	-9.56
299.236	113.32
299.451	60.07
299.665	158.38
299.88	-5.46
300.094	-15.7
300.309	49.83
300.523	25.26
300.737	88.75
300.952	115.37
301.166	45.74
301.381	31.4
301.595	-21.84
301.809	84.65
302.024	86.7
302.238	-48.47
302.452	94.89
302.667	-23.89
302.881	129.7
303.095	148.14
303.309	23.21
303.524	31.4
303.738	-34.13
303.952	-17.75
304.166	80.55
304.381	-93.52
304.595	123.56
304.809	19.11
305.023	-3.41
305.237	-66.9
305.452	-17.75
305.666	47.79
305.88	45.74
306.094	144.04
306.308	121.51
306.522	29.35
306.736	37.55
306.95	88.75
307.164	33.45
307.379	0.68
307.593	139.94
307.807	68.27
308.021	92.84
308.235	90.79
308.449	-120.15
308.663	27.31
308.877	211.62
309.091	15.02
309.305	58.03
309.519	-36.18
309.733	72.36
309.947	-79.19
310.161	92.84
310.374	88.75
310.588	115.37
310.802	-48.47
311.016	25.26
311.23	-19.8
311.444	-3.41
311.658	8.87
311.872	105.13
312.085	115.37
312.299	68.27
312.513	164.52
312.727	98.99
312.941	2.73
313.154	47.79
313.368	41.64
313.582	90.79
313.796	17.07
314.009	-56.66
314.223	103.08
314.437	55.98
314.651	-27.99
314.864	-46.42
315.078	35.5
315.292	-44.37
315.505	-46.42
315.719	49.83
315.933	64.17
316.146	-32.08
316.36	-9.56
316.573	219.82
316.787	170.66
317.001	82.6
317.214	-87.38
317.428	68.27
317.641	4.78
317.855	41.64
318.068	55.98
318.282	74.41
318.495	176.81
318.709	53.93
318.922	15.02
319.136	141.99
319.349	94.89
319.563	-36.18
319.776	-1.37
319.99	-95.57
320.203	70.31
320.417	58.03
320.63	47.79
320.843	219.82
321.057	66.22
321.27	37.55
321.483	156.33
321.697	98.99
321.91	121.51
322.124	-7.51
322.337	94.89
322.55	-30.04
322.763	-32.08
322.977	8.87
323.19	-73.04
323.403	37.55
323.617	78.51
323.83	96.94
324.043	80.55
324.256	58.03
324.469	-87.38
324.683	113.32
324.896	55.98
325.109	0.68
325.322	-32.08
325.535	94.89
325.748	125.61
325.962	-11.61
326.175	80.55
326.388	58.03
326.601	123.56
326.814	35.5
327.027	25.26
327.24	156.33
327.453	-77.14
327.666	78.51
327.879	80.55
328.092	45.74
328.305	6.83
328.518	-32.08
328.731	0.68
328.944	6.83
329.157	55.98
329.37	29.35
329.583	154.28
329.796	144.04
330.009	-85.33
330.222	96.94
330.435	103.08
330.648	29.35
330.861	47.79
331.073	21.16
331.286	51.88
331.499	55.98
331.712	-5.46
331.925	31.4
332.138	2.73
332.35	70.31
332.563	-5.46
332.776	105.13
332.989	-48.47
333.202	-44.37
333.414	-11.61
333.627	-54.61
333.84	92.84
334.053	62.12
334.265	43.69
334.478	66.22
334.691	23.21
334.903	35.5
335.116	0.68
335.329	72.36
335.541	25.26
335.754	141.99
335.966	27.31
336.179	-13.65
336.392	76.46
336.604	-27.99
336.817	31.4
337.029	82.6
337.242	68.27
337.454	25.26
337.667	107.18
337.88	156.33
338.092	68.27
338.305	15.02
338.517	-13.65
338.729	76.46
338.942	191.14
339.154	43.69
339.367	-15.7
339.579	39.59
339.792	-32.08
340.004	119.46
340.217	12.97
340.429	12.97
340.641	2.73
340.854	-7.51
341.066	21.16
341.278	166.57
341.491	144.04
341.703	60.07
341.915	-62.8
342.128	-40.28
342.34	35.5
342.552	12.97
342.764	68.27
342.977	-56.66
343.189	68.27
343.401	66.22
343.613	-44.37
343.826	84.65
344.038	-27.99
344.25	29.35
344.462	-1.37
344.674	88.75
344.886	68.27
345.099	19.11
345.311	33.45
345.523	-15.7
345.735	-56.66
345.947	72.36
346.159	94.89
346.371	-15.7
346.583	-11.61
346.795	185
347.007	37.55
347.219	-3.41
347.431	17.07
347.643	109.23
347.855	-77.14
348.067	96.94
348.279	-68.95
348.491	19.11
348.703	117.42
348.915	68.27
349.127	29.35
349.339	31.4
349.551	-52.56
349.763	123.56
349.975	86.7
350.187	129.7
350.399	158.38
350.61	49.83
350.822	-7.51
351.034	86.7
351.246	53.93
351.458	84.65
351.669	23.21
351.881	47.79
352.093	119.46
352.305	8.87
352.517	129.7
352.728	84.65
352.94	107.18
353.152	21.16
353.363	-17.75
353.575	84.65
353.787	82.6
353.999	125.61
354.21	221.86
354.422	-17.75
354.633	0.68
354.845	96.94
355.057	-3.41
355.268	72.36
355.48	78.51
355.692	-91.48
355.903	8.87
356.115	-44.37
356.326	-103.76
356.538	103.08
356.749	121.51
356.961	148.14
357.172	12.97
357.384	-75.09
357.595	209.58
357.807	66.22
358.018	43.69
358.23	35.5
358.441	74.41
358.653	55.98
358.864	78.51
359.075	17.07
359.287	115.37
359.498	88.75
359.709	41.64
359.921	-5.46
360.132	41.64
360.344	-64.85
360.555	84.65
360.766	-23.89
360.977	10.92
361.189	111.27
361.4	23.21
361.611	121.51
361.823	78.51
362.034	10.92
362.245	-52.56
362.456	29.35
362.667	19.11
362.879	33.45
363.09	64.17
363.301	109.23
363.512	58.03
363.723	-40.28
363.935	45.74
364.146	103.08
364.357	51.88
364.568	35.5
364.779	-32.08
364.99	109.23
365.201	-48.47
365.412	139.94
365.623	-120.15
365.834	68.27
366.045	90.79
366.256	139.94
366.467	76.46
366.678	25.26
366.889	-75.09
367.1	-3.41
367.311	125.61
367.522	-93.52
367.733	88.75
367.944	105.13
368.155	60.07
368.366	96.94
368.577	-30.04
368.788	141.99
368.999	-68.95
369.209	-17.75
369.42	148.14
369.631	152.23
369.842	60.07
370.053	-19.8
370.264	105.13
370.474	-79.19
370.685	121.51
370.896	17.07
371.107	60.07
371.317	88.75
371.528	-7.51
371.739	98.99
371.95	47.79
372.16	94.89
372.371	-17.75
372.582	45.74
372.792	60.07
373.003	64.17
373.214	10.92
373.424	115.37
373.635	-32.08
373.846	90.79
374.056	-44.37
374.267	51.88
374.477	55.98
374.688	-52.56
374.898	129.7
375.109	74.41
375.319	53.93
375.53	105.13
375.74	53.93
375.951	-62.8
376.161	88.75
376.372	111.27
376.582	-23.89
376.793	78.51
377.003	-32.08
377.214	-60.76
377.424	96.94
377.635	21.16
377.845	-27.99
378.055	103.08
378.266	-87.38
378.476	76.46
378.686	76.46
378.897	55.98
379.107	141.99
379.317	76.46
379.528	39.59
379.738	154.28
379.948	-93.52
380.158	80.55
380.369	51.88
380.579	23.21
380.789	8.87
380.999	176.81
381.21	115.37
381.42	144.04
381.63	-21.84
381.84	-3.41
382.05	74.41
382.261	103.08
382.471	82.6
382.681	-1.37
382.891	139.94
383.101	90.79
383.311	29.35
383.521	17.07
383.731	133.8
383.941	160.42
384.151	2.73
384.361	12.97
384.571	109.23
384.781	17.07
384.991	191.14
385.201	139.94
385.411	49.83
385.621	45.74
385.831	74.41
386.041	-48.47
386.251	92.84
386.461	162.47
386.671	4.78
386.881	41.64
387.091	-27.99
387.301	51.88
387.511	8.87
387.72	15.02
387.93	84.65
388.14	-62.8
388.35	72.36
388.56	199.34
388.769	144.04
388.979	-36.18
389.189	6.83
389.399	74.41
389.609	129.7
389.818	80.55
390.028	19.11
390.238	82.6
390.447	35.5
390.657	86.7
390.867	29.35
391.076	-77.14
391.286	127.66
391.496	78.51
391.705	19.11
391.915	121.51
392.125	141.99
392.334	15.02
392.544	182.95
392.753	15.02
392.963	-62.8
393.172	-3.41
393.382	25.26
393.591	148.14
393.801	39.59
394.01	139.94
394.22	88.75
394.429	33.45
394.639	72.36
394.848	82.6
395.058	10.92
395.267	-52.56
395.477	96.94
395.686	45.74
395.895	189.1
396.105	178.86
396.314	74.41
396.524	29.35
396.733	47.79
396.942	148.14
397.152	37.55
397.361	21.16
397.57	113.32
397.78	2.73
397.989	107.18
398.198	225.96
398.407	47.79
398.617	41.64
398.826	17.07
399.035	39.59
399.244	82.6
399.453	12.97
399.663	21.16
399.872	92.84
400.081	15.02
400.29	92.84
400.499	-62.8
400.708	154.28
400.917	10.92
401.127	43.69
401.336	-21.84
401.545	146.09
401.754	107.18
401.963	72.36
402.172	-56.66
402.381	-17.75
402.59	-27.99
402.799	62.12
403.008	98.99
403.217	103.08
403.426	78.51
403.635	-75.09
403.844	-5.46
404.053	-30.04
404.262	88.75
404.471	170.66
404.68	68.27
404.888	-40.28
405.097	31.4
405.306	47.79
405.515	60.07
405.724	84.65
405.933	66.22
406.142	78.51
406.35	72.36
406.559	19.11
406.768	55.98
406.977	139.94
407.185	53.93
407.394	133.8
407.603	92.84
407.812	49.83
408.02	86.7
408.229	43.69
408.438	23.21
408.646	-81.24
408.855	41.64
409.064	45.74
409.272	39.59
409.481	35.5
409.69	25.26
409.898	-66.9
410.107	31.4
410.315	98.99
410.524	-52.56
410.733	70.31
410.941	64.17
411.15	117.42
411.358	78.51
411.567	144.04
411.775	-19.8
411.984	37.55
412.192	66.22
412.401	49.83
412.609	180.9
412.818	90.79
413.026	25.26
413.234	72.36
413.443	19.11
413.651	19.11
413.86	154.28
414.068	144.04
414.276	199.34
414.485	-17.75
414.693	211.62
414.901	189.1
415.11	8.87
415.318	21.16
415.526	90.79
415.734	2.73
415.943	78.51
416.151	117.42
416.359	0.68
416.567	101.03
416.776	58.03
416.984	92.84
417.192	131.75
417.4	-11.61
417.608	-11.61
417.817	-38.23
418.025	121.51
418.233	176.81
418.441	-11.61
418.649	-11.61
418.857	53.93
419.065	125.61
419.273	45.74
419.481	6.83
419.689	39.59
419.897	-9.56
420.105	-42.32
420.313	148.14
420.521	107.18
420.729	135.85
420.937	-23.89
421.145	-21.84
421.353	135.85
421.561	172.71
421.769	45.74
421.977	49.83
422.185	131.75
422.393	-30.04
422.601	105.13
422.809	68.27
423.017	23.21
423.224	62.12
423.432	45.74
423.64	37.55
423.848	121.51
424.056	-17.75
424.263	96.94
424.471	29.35
424.679	107.18
424.887	-9.56
425.094	109.23
425.302	29.35
425.51	66.22
425.718	127.66
425.925	64.17
426.133	19.11
426.341	209.58
426.548	60.07
426.756	4.78
426.964	76.46
427.171	0.68
427.379	86.7
427.586	148.14
427.794	66.22
428.001	70.31
428.209	19.11
428.417	105.13
428.624	109.23
428.832	150.18
429.039	111.27
429.247	55.98
429.454	86.7
429.662	250.53
429.869	49.83
430.076	33.45
430.284	82.6
430.491	185
430.699	141.99
430.906	211.62
431.114	185
431.321	180.9
431.528	88.75
431.736	117.42
431.943	189.1
432.15	156.33
432.358	182.95
432.565	250.53
432.772	4.78
432.979	133.8
433.187	53.93
433.394	203.43
433.601	127.66
433.808	197.29
434.016	199.34
434.223	234.15
434.43	158.38
434.637	246.44
434.844	301.73
435.052	182.95
435.259	230.06
435.466	240.3
435.673	123.56
435.88	293.54
436.087	336.55
436.294	273.06
436.501	244.39
436.708	215.72
436.915	289.45
437.122	395.94
437.329	172.71
437.537	293.54
437.743	314.02
437.95	342.69
438.157	363.17
438.364	260.77
438.571	342.69
438.778	359.08
438.985	518.82
439.192	428.71
439.399	289.45
439.606	504.48
439.813	551.59
440.02	567.97
440.227	586.4
440.433	471.72
440.64	453.28
440.847	383.65
441.054	498.34
441.261	639.65
441.467	428.71
441.674	535.2
441.881	639.65
442.088	539.3
442.294	672.42
442.501	690.85
442.708	684.7
442.914	696.99
443.121	821.92
443.328	729.76
443.534	821.92
443.741	826.01
443.948	715.42
444.154	803.49
444.361	1012.38
444.568	981.66
444.774	912.03
444.981	893.6
445.187	1049.24
445.394	965.28
445.6	959.13
445.807	1090.2
446.013	1129.11
446.22	1006.24
446.426	1225.37
446.633	1327.77
446.839	1493.65
447.046	1284.76
447.252	1460.88
447.459	1356.44
447.665	1405.59
447.871	1610.39
448.078	1684.11
448.284	1684.11
448.491	1661.59
448.697	1852.05
448.903	1839.76
449.11	1936.01
449.316	1903.25
449.522	2126.47
449.728	2118.28
449.935	2204.3
450.141	2247.3
450.347	2280.07
450.553	2372.23
450.76	2425.48
450.966	2482.82
451.172	2634.37
451.378	2843.26
451.584	2699.91
451.791	3003
451.997	3095.16
452.203	3160.7
452.409	3275.38
452.615	3414.65
452.821	3261.05
453.027	3275.38
453.233	3893.87
453.44	3562.1
453.646	3834.48
453.852	4094.57
454.058	4100.72
454.264	4428.39
454.47	4688.48
454.676	4625
454.882	5010.01
455.088	4758.11
455.294	5003.87
455.5	5298.78
455.705	5780.05
455.911	5722.71
456.117	6011.47
456.323	5980.75
456.529	6066.77
456.735	6783.56
456.941	6730.31
457.147	7010.88
457.352	7275.07
457.558	7545.4
457.764	7785.01
457.97	8108.59
458.176	8534.57
458.381	8919.59
458.587	9191.97
458.793	9480.73
458.999	9249.31
459.204	10773
459.41	10906.12
459.616	10955.27
459.821	11485.69
460.027	12032.5
460.233	12691.94
460.438	12650.99
460.644	13527.52
460.85	13562.33
461.055	13920.73
461.261	14913.99
461.466	14252.5
461.672	14516.69
461.878	16286.13
462.083	16251.31
462.289	16480.69
462.494	17564.06
462.7	17349.03
462.905	17525.15
463.111	18919.82
463.316	19833.21
463.522	20423.03
463.727	20709.74
463.932	21649.76
464.138	22301.01
464.343	23619.91
464.549	23107.91
464.754	25323.82
464.959	25876.77
465.165	26253.59
465.37	26065.18
465.575	25850.14
465.781	27820.29
465.986	29036.78
466.191	28125.44
466.397	28354.81
466.602	27676.93
466.807	29524.2
467.012	29726.95
467.218	30236.89
467.423	30591.19
467.628	31484.11
467.833	32673.98
468.038	32315.58
468.244	31746.25
468.449	33257.65
468.654	32858.29
