Data from USB4F104151__33__11-24-59-204.txt Node

Date: Wed Feb 26 11:24:59 EST 2025
User: louis
Spectrometer: USB4F10415
Trigger mode: 4
Integration Time (sec): 1.000000E-1
Scans to average: 1
Electric dark correction enabled: true
Nonlinearity correction enabled: false
Boxcar width: 0
XAxis mode: Wavelengths
Number of Pixels in Spectrum: 3648
>>>>>Begin Spectral Data<<<<<
178.204	-372.05
178.424	-372.05
178.644	-372.05
178.864	-378.19
179.084	-427.34
179.304	98.99
179.524	45.74
179.744	-34.13
179.964	43.69
180.184	35.5
180.404	78.51
180.624	-58.71
180.844	-99.67
181.064	-56.66
181.283	25.26
181.503	-85.33
181.723	6.83
181.943	-71
182.163	144.04
182.383	-19.8
182.602	-23.89
182.822	168.62
183.042	49.83
183.262	-36.18
183.482	-30.04
183.701	10.92
183.921	39.59
184.141	-99.67
184.361	47.79
184.58	6.83
184.8	78.51
185.02	-44.37
185.239	53.93
185.459	29.35
185.679	160.42
185.898	-101.72
186.118	70.31
186.338	-15.7
186.557	86.7
186.777	-46.42
186.997	-5.46
187.216	76.46
187.436	121.51
187.655	78.51
187.875	33.45
188.095	25.26
188.314	107.18
188.534	156.33
188.753	-1.37
188.973	103.08
189.192	148.14
189.412	84.65
189.631	6.83
189.851	139.94
190.07	187.05
190.29	-111.96
190.509	-42.32
190.729	-38.23
190.948	174.76
191.168	228.01
191.387	58.03
191.607	51.88
191.826	68.27
192.045	-11.61
192.265	-3.41
192.484	55.98
192.704	70.31
192.923	-3.41
193.142	191.14
193.362	84.65
193.581	92.84
193.8	125.61
194.02	96.94
194.239	43.69
194.458	53.93
194.678	-1.37
194.897	-3.41
195.116	68.27
195.335	37.55
195.555	19.11
195.774	-7.51
195.993	55.98
196.212	68.27
196.432	-5.46
196.651	-62.8
196.87	25.26
197.089	234.15
197.308	-9.56
197.528	58.03
197.747	-34.13
197.966	133.8
198.185	123.56
198.404	-73.04
198.623	123.56
198.842	133.8
199.062	96.94
199.281	98.99
199.5	35.5
199.719	70.31
199.938	72.36
200.157	144.04
200.376	64.17
200.595	115.37
200.814	51.88
201.033	39.59
201.252	131.75
201.471	49.83
201.69	76.46
201.909	31.4
202.128	47.79
202.347	78.51
202.566	-44.37
202.785	-56.66
203.004	27.31
203.223	322.21
203.442	-9.56
203.661	-19.8
203.879	90.79
204.098	197.29
204.317	-30.04
204.536	123.56
204.755	105.13
204.974	66.22
205.193	-95.57
205.411	72.36
205.63	64.17
205.849	82.6
206.068	12.97
206.287	23.21
206.505	129.7
206.724	39.59
206.943	17.07
207.162	-66.9
207.381	10.92
207.599	62.12
207.818	12.97
208.037	-13.65
208.255	25.26
208.474	105.13
208.693	43.69
208.911	-44.37
209.13	101.03
209.349	150.18
209.567	105.13
209.786	86.7
210.005	137.9
210.223	88.75
210.442	-91.48
210.661	98.99
210.879	88.75
211.098	-15.7
211.316	23.21
211.535	80.55
211.753	64.17
211.972	115.37
212.191	55.98
212.409	17.07
212.628	68.27
212.846	-62.8
213.065	25.26
213.283	68.27
213.502	84.65
213.72	66.22
213.938	43.69
214.157	-68.95
214.375	113.32
214.594	12.97
214.812	111.27
215.031	-15.7
215.249	64.17
215.467	39.59
215.686	-9.56
215.904	88.75
216.122	10.92
216.341	86.7
216.559	51.88
216.778	101.03
216.996	86.7
217.214	17.07
217.432	-9.56
217.651	-68.95
217.869	53.93
218.087	37.55
218.306	-56.66
218.524	15.02
218.742	88.75
218.96	-58.71
219.179	-3.41
219.397	51.88
219.615	295.59
219.833	80.55
220.051	2.73
220.27	92.84
220.488	121.51
220.706	152.23
220.924	-1.37
221.142	-21.85
221.36	64.17
221.578	58.03
221.796	33.45
222.015	117.42
222.233	31.4
222.451	70.31
222.669	-32.08
222.887	39.59
223.105	-44.37
223.323	-7.51
223.541	-25.94
223.759	55.98
223.977	-15.7
224.195	111.27
224.413	86.7
224.631	17.07
224.849	17.07
225.067	223.91
225.285	-66.9
225.503	-27.99
225.721	-81.24
225.939	37.55
226.157	15.02
226.375	203.43
226.592	-95.57
226.81	-17.75
227.028	137.9
227.246	107.18
227.464	84.65
227.682	127.66
227.9	47.79
228.117	72.36
228.335	60.07
228.553	62.12
228.771	-54.61
228.989	-3.41
229.206	66.22
229.424	19.11
229.642	47.79
229.86	-42.32
230.077	105.13
230.295	43.69
230.513	53.93
230.731	29.35
230.948	146.09
231.166	117.42
231.384	8.87
231.601	-34.13
231.819	170.66
232.037	-9.56
232.254	-46.42
232.472	17.07
232.689	53.93
232.907	152.23
233.125	-3.41
233.342	-85.33
233.56	-105.81
233.777	96.94
233.995	0.68
234.213	49.83
234.43	123.56
234.648	60.07
234.865	-38.23
235.083	141.99
235.3	23.21
235.518	129.7
235.735	125.61
235.953	84.65
236.17	51.88
236.388	-54.61
236.605	37.55
236.822	70.31
237.04	82.6
237.257	72.36
237.475	-58.71
237.692	8.87
237.909	131.75
238.127	0.68
238.344	82.6
238.562	31.4
238.779	-48.47
238.996	45.74
239.214	64.17
239.431	10.92
239.648	-25.94
239.865	41.64
240.083	31.4
240.3	-54.61
240.517	8.87
240.735	33.45
240.952	55.98
241.169	0.68
241.386	101.03
241.603	53.93
241.821	-81.24
242.038	111.27
242.255	127.66
242.472	19.11
242.689	113.32
242.907	23.21
243.124	37.55
243.341	2.73
243.558	-36.18
243.775	-42.32
243.992	-19.8
244.209	135.85
244.426	242.34
244.643	66.22
244.86	27.31
245.078	66.22
245.295	129.7
245.512	-17.75
245.729	-21.85
245.946	47.79
246.163	55.98
246.38	29.35
246.597	117.42
246.814	37.55
247.031	19.11
247.248	21.16
247.464	92.84
247.681	19.11
247.898	115.37
248.115	72.36
248.332	-68.95
248.549	154.28
248.766	150.18
248.983	135.85
249.2	39.59
249.417	105.13
249.633	-9.56
249.85	94.89
250.067	107.18
250.284	53.93
250.501	-11.61
250.717	119.46
250.934	-91.48
251.151	25.26
251.368	-54.61
251.585	6.83
251.801	84.65
252.018	-25.94
252.235	84.65
252.451	-54.61
252.668	29.35
252.885	133.8
253.102	92.84
253.318	64.17
253.535	41.64
253.752	2.73
253.968	0.68
254.185	-23.89
254.401	-17.75
254.618	-11.61
254.835	-30.04
255.051	135.85
255.268	45.74
255.484	43.69
255.701	-11.61
255.917	58.03
256.134	37.55
256.351	23.21
256.567	-27.99
256.784	25.26
257	-66.9
257.217	182.95
257.433	90.79
257.65	96.94
257.866	101.03
258.082	-66.9
258.299	27.31
258.515	113.32
258.732	-44.37
258.948	-62.8
259.165	-3.41
259.381	-62.8
259.597	82.6
259.814	25.26
260.03	-58.71
260.246	-60.76
260.463	103.08
260.679	164.52
260.895	92.84
261.112	58.03
261.328	47.79
261.544	-17.75
261.761	148.14
261.977	-48.47
262.193	-107.86
262.409	35.5
262.626	21.16
262.842	80.55
263.058	2.73
263.274	148.14
263.49	60.07
263.707	53.93
263.923	37.55
264.139	-58.71
264.355	55.98
264.571	103.08
264.787	70.31
265.004	146.09
265.22	82.6
265.436	-21.85
265.652	45.74
265.868	84.65
266.084	-1.37
266.3	-23.89
266.516	-25.94
266.732	72.36
266.948	2.73
267.164	-66.9
267.38	117.42
267.596	129.7
267.812	193.19
268.028	41.64
268.244	-60.76
268.46	-11.61
268.676	-13.65
268.892	25.26
269.108	-32.08
269.324	-42.32
269.54	-64.85
269.756	109.23
269.972	-77.14
270.188	39.59
270.403	80.55
270.619	-25.94
270.835	23.21
271.051	154.28
271.267	12.97
271.483	27.31
271.698	131.75
271.914	70.31
272.13	92.84
272.346	2.73
272.562	113.32
272.777	141.99
272.993	70.31
273.209	-42.32
273.425	74.41
273.64	-103.76
273.856	119.46
274.072	-27.99
274.287	-30.04
274.503	103.08
274.719	12.97
274.934	-85.33
275.15	-66.9
275.366	43.69
275.581	-42.32
275.797	43.69
276.012	49.83
276.228	-23.89
276.444	12.97
276.659	90.79
276.875	-11.61
277.09	76.46
277.306	-58.71
277.521	80.55
277.737	-46.42
277.952	62.12
278.168	84.65
278.383	72.36
278.599	55.98
278.814	86.7
279.03	58.03
279.245	119.46
279.461	-56.66
279.676	41.64
279.892	-62.8
280.107	-25.94
280.322	-25.94
280.538	86.7
280.753	12.97
280.969	111.27
281.184	84.65
281.399	101.03
281.615	49.83
281.83	64.17
282.045	-48.47
282.26	17.07
282.476	21.16
282.691	150.18
282.906	94.89
283.122	90.79
283.337	0.68
283.552	35.5
283.767	-5.46
283.983	55.98
284.198	109.23
284.413	53.93
284.628	-73.04
284.843	51.88
285.058	-27.99
285.274	-3.41
285.489	-1.37
285.704	103.08
285.919	-81.24
286.134	4.78
286.349	51.88
286.564	-50.52
286.779	158.38
286.995	-19.8
287.21	-101.72
287.425	92.84
287.64	25.26
287.855	39.59
288.07	-42.32
288.285	105.13
288.5	187.05
288.715	31.4
288.93	45.74
289.145	-27.99
289.36	55.98
289.575	10.92
289.79	88.75
290.004	33.45
290.219	115.37
290.434	-58.71
290.649	-34.13
290.864	23.21
291.079	-56.66
291.294	90.79
291.509	62.12
291.724	39.59
291.938	2.73
292.153	74.41
292.368	33.45
292.583	111.27
292.798	105.13
293.012	133.8
293.227	35.5
293.442	-23.89
293.657	66.22
293.871	127.66
294.086	47.79
294.301	146.09
294.516	88.75
294.73	15.02
294.945	-105.81
295.16	23.21
295.374	123.56
295.589	113.32
295.804	-50.52
296.018	-15.7
296.233	160.42
296.447	12.97
296.662	98.99
296.877	76.46
297.091	72.36
297.306	-15.7
297.52	-62.8
297.735	64.17
297.949	58.03
298.164	90.79
298.378	66.22
298.593	-56.66
298.807	-21.85
299.022	-40.28
299.236	193.19
299.451	-25.94
299.665	-66.9
299.88	-25.94
300.094	70.31
300.309	33.45
300.523	27.31
300.737	39.59
300.952	37.55
301.166	45.74
301.381	4.78
301.595	39.59
301.809	43.69
302.024	107.18
302.238	29.35
302.452	107.18
302.667	60.07
302.881	150.18
303.095	84.65
303.309	82.6
303.524	-9.56
303.738	43.69
303.952	-34.13
304.166	62.12
304.381	-179.54
304.595	113.32
304.809	-50.52
305.023	8.87
305.237	-13.65
305.452	-1.37
305.666	72.36
305.88	64.17
306.094	123.56
306.308	98.99
306.522	141.99
306.736	72.36
306.95	121.51
307.164	-7.51
307.379	-1.37
307.593	72.36
307.807	47.79
308.021	39.59
308.235	88.75
308.449	-71
308.663	64.17
308.877	223.91
309.091	150.18
309.305	105.13
309.519	-66.9
309.733	156.33
309.947	-132.44
310.161	47.79
310.374	43.69
310.588	180.9
310.802	-30.04
311.016	58.03
311.23	55.98
311.444	-34.13
311.658	68.27
311.872	70.31
312.085	141.99
312.299	137.9
312.513	164.52
312.727	70.31
312.941	-44.37
313.154	23.21
313.368	47.79
313.582	53.93
313.796	-7.51
314.009	17.07
314.223	137.9
314.437	107.18
314.651	68.27
314.864	-21.85
315.078	58.03
315.292	-40.28
315.505	21.16
315.719	55.98
315.933	76.46
316.146	-34.13
316.36	66.22
316.573	180.9
316.787	43.69
317.001	66.22
317.214	-9.56
317.428	2.73
317.641	-25.94
317.855	19.11
318.068	-11.61
318.282	17.07
318.495	156.33
318.709	0.68
318.922	21.16
319.136	182.95
319.349	94.89
319.563	10.92
319.776	174.76
319.99	-68.95
320.203	80.55
320.417	21.16
320.63	70.31
320.843	129.7
321.057	39.59
321.27	49.83
321.483	117.42
321.697	113.32
321.91	27.31
322.124	60.07
322.337	105.13
322.55	-19.8
322.763	86.7
322.977	64.17
323.19	-19.8
323.403	49.83
323.617	51.88
323.83	45.74
324.043	15.02
324.256	25.26
324.469	0.68
324.683	55.98
324.896	33.45
325.109	43.69
325.322	-15.7
325.535	103.08
325.748	103.08
325.962	45.74
326.175	47.79
326.388	68.27
326.601	150.18
326.814	84.65
327.027	47.79
327.24	199.34
327.453	-81.24
327.666	121.51
327.879	146.09
328.092	60.07
328.305	94.89
328.518	17.07
328.731	2.73
328.944	-23.89
329.157	72.36
329.37	-15.7
329.583	209.58
329.796	154.28
330.009	-5.46
330.222	-3.41
330.435	84.65
330.648	55.98
330.861	33.45
331.073	37.55
331.286	113.32
331.499	51.88
331.712	-1.37
331.925	2.73
332.138	45.74
332.35	43.69
332.563	-25.94
332.776	166.57
332.989	-68.95
333.202	-23.89
333.414	33.45
333.627	15.02
333.84	-23.89
334.053	70.31
334.265	-15.7
334.478	25.26
334.691	2.73
334.903	80.55
335.116	-62.8
335.329	0.68
335.541	43.69
335.754	191.14
335.966	6.83
336.179	-30.04
336.392	60.07
336.604	25.26
336.817	117.42
337.029	121.51
337.242	64.17
337.454	76.46
337.667	-11.61
337.88	84.65
338.092	-71
338.305	78.51
338.517	-11.61
338.729	72.36
338.942	182.95
339.154	15.02
339.367	-38.23
339.579	19.11
339.792	-27.99
340.004	158.38
340.217	-7.51
340.429	68.27
340.641	-38.23
340.854	21.16
341.066	23.21
341.278	119.46
341.491	127.66
341.703	72.36
341.915	8.87
342.128	101.03
342.34	-7.51
342.552	-66.9
342.764	-79.19
342.977	-9.56
343.189	27.31
343.401	131.75
343.613	-52.56
343.826	12.97
344.038	-71
344.25	-3.41
344.462	8.87
344.674	39.59
344.886	92.84
345.099	90.79
345.311	21.16
345.523	-42.32
345.735	-3.41
345.947	-15.7
346.159	148.14
346.371	-1.37
346.583	29.35
346.795	166.57
347.007	-13.65
347.219	58.03
347.431	-42.32
347.643	168.62
347.855	41.64
348.067	164.52
348.279	-62.8
348.491	62.12
348.703	33.45
348.915	-85.33
349.127	39.59
349.339	8.87
349.551	21.16
349.763	101.03
349.975	33.45
350.187	82.6
350.399	94.89
350.61	117.42
350.822	41.64
351.034	-13.65
351.246	51.88
351.458	68.27
351.669	90.79
351.881	90.79
352.093	8.87
352.305	86.7
352.517	80.55
352.728	178.86
352.94	125.61
353.152	55.98
353.363	41.64
353.575	103.08
353.787	141.99
353.999	60.07
354.21	182.95
354.422	-48.47
354.633	64.17
354.845	4.78
355.057	-15.7
355.268	51.88
355.48	103.08
355.692	-109.91
355.903	8.87
356.115	-30.04
356.326	-9.56
356.538	80.55
356.749	113.32
356.961	53.93
357.172	90.79
357.384	-21.85
357.595	117.42
357.807	4.78
358.018	6.83
358.23	31.4
358.441	141.99
358.653	8.87
358.864	-13.65
359.075	-9.56
359.287	109.23
359.498	15.02
359.709	94.89
359.921	113.32
360.132	113.32
360.344	12.97
360.555	-25.94
360.766	72.36
360.977	68.27
361.189	148.14
361.4	35.5
361.611	101.03
361.823	115.37
362.034	58.03
362.245	-93.52
362.456	43.69
362.667	70.31
362.879	-44.37
363.09	21.16
363.301	86.7
363.512	-48.47
363.723	-89.43
363.935	0.68
364.146	103.08
364.357	-9.56
364.568	58.03
364.779	-73.04
364.99	92.84
365.201	-40.28
365.412	109.23
365.623	12.97
365.834	92.84
366.045	10.92
366.256	144.04
366.467	123.56
366.678	39.59
366.889	127.66
367.1	-36.18
367.311	105.13
367.522	-25.94
367.733	-3.41
367.944	66.22
368.155	39.59
368.366	86.7
368.577	109.23
368.788	82.6
368.999	19.11
369.209	72.36
369.42	195.24
369.631	244.39
369.842	-27.99
370.053	-15.7
370.264	98.99
370.474	-23.89
370.685	55.98
370.896	86.7
371.107	94.89
371.317	82.6
371.528	-75.09
371.739	117.42
371.95	31.4
372.16	55.98
372.371	-79.19
372.582	-9.56
372.792	55.98
373.003	90.79
373.214	29.35
373.424	72.36
373.635	-36.18
373.846	131.75
374.056	2.73
374.267	31.4
374.477	-34.13
374.688	-97.62
374.898	49.83
375.109	10.92
375.319	74.41
375.53	162.47
375.74	76.46
375.951	-7.51
376.161	131.75
376.372	105.13
376.582	47.79
376.793	31.4
377.003	51.88
377.214	80.55
377.424	76.46
377.635	17.07
377.845	25.26
378.055	121.51
378.266	0.68
378.476	27.31
378.686	101.03
378.897	115.37
379.107	127.66
379.317	49.83
379.528	49.83
379.738	39.59
379.948	15.02
380.158	70.31
380.369	-23.89
380.579	15.02
380.789	31.4
380.999	-23.89
381.21	58.03
381.42	141.99
381.63	-11.61
381.84	88.75
382.05	135.85
382.261	160.42
382.471	170.66
382.681	19.11
382.891	139.94
383.101	66.22
383.311	-30.04
383.521	-42.32
383.731	66.22
383.941	27.31
384.151	111.27
384.361	51.88
384.571	25.26
384.781	-46.42
384.991	178.86
385.201	135.85
385.411	-1.37
385.621	68.27
385.831	66.22
386.041	33.45
386.251	-62.8
386.461	121.51
386.671	-13.65
386.881	68.27
387.091	-38.23
387.301	23.21
387.511	53.93
387.72	43.69
387.93	64.17
388.14	-107.86
388.35	55.98
388.56	180.9
388.769	150.18
388.979	33.45
389.189	-21.85
389.399	39.59
389.609	88.75
389.818	55.98
390.028	105.13
390.238	115.37
390.447	-21.85
390.657	84.65
390.867	55.98
391.076	-30.04
391.286	98.99
391.496	8.87
391.705	-3.41
391.915	162.47
392.125	111.27
392.334	41.64
392.544	144.04
392.753	-60.76
392.963	-19.8
393.172	76.46
393.382	-71
393.591	193.19
393.801	41.64
394.01	150.18
394.22	66.22
394.429	31.4
394.639	92.84
394.848	51.88
395.058	123.56
395.267	-42.32
395.477	-3.41
395.686	15.02
395.895	164.52
396.105	162.47
396.314	58.03
396.524	76.46
396.733	64.17
396.942	113.32
397.152	105.13
397.361	152.23
397.57	15.02
397.78	29.35
397.989	119.46
398.198	232.1
398.407	55.98
398.617	51.88
398.826	-1.37
399.035	-21.85
399.244	121.51
399.453	6.83
399.663	86.7
399.872	-40.28
400.081	-21.85
400.29	127.66
400.499	-15.7
400.708	105.13
400.917	88.75
401.127	33.45
401.336	-64.85
401.545	133.8
401.754	141.99
401.963	105.13
402.172	10.92
402.381	15.02
402.59	6.83
402.799	25.26
403.008	115.37
403.217	29.35
403.426	29.35
403.635	-46.42
403.844	31.4
404.053	23.21
404.262	6.83
404.471	166.57
404.68	74.41
404.888	109.23
405.097	66.22
405.306	-15.7
405.515	98.99
405.724	86.7
405.933	133.8
406.142	78.51
406.35	70.31
406.559	-15.7
406.768	64.17
406.977	189.1
407.185	64.17
407.394	62.12
407.603	-40.28
407.812	6.83
408.02	121.51
408.229	121.51
408.438	62.12
408.646	-54.61
408.855	15.02
409.064	47.79
409.272	33.45
409.481	78.51
409.69	-23.89
409.898	-25.94
410.107	25.26
410.315	82.6
410.524	-13.65
410.733	45.74
410.941	35.5
411.15	148.14
411.358	58.03
411.567	117.42
411.775	88.75
411.984	47.79
412.192	137.9
412.401	-17.75
412.609	115.37
412.818	187.05
413.026	96.94
413.234	10.92
413.443	76.46
413.651	-109.91
413.86	80.55
414.068	113.32
414.276	129.7
414.485	15.02
414.693	131.75
414.901	185
415.11	29.35
415.318	45.74
415.526	164.52
415.734	105.13
415.943	60.07
416.151	109.23
416.359	23.21
416.567	-7.51
416.776	33.45
416.984	141.99
417.192	178.86
417.4	51.88
417.608	29.35
417.817	-25.94
418.025	174.76
418.233	137.9
418.441	51.88
418.649	-46.42
418.857	129.7
419.065	225.96
419.273	-34.13
419.481	105.13
419.689	72.36
419.897	-56.66
420.105	23.21
420.313	115.37
420.521	135.85
420.729	105.13
420.937	-17.75
421.145	29.35
421.353	158.38
421.561	266.92
421.769	109.23
421.977	33.45
422.185	156.33
422.393	-9.56
422.601	76.46
422.809	117.42
423.017	135.85
423.224	103.08
423.432	139.94
423.64	80.55
423.848	90.79
424.056	66.22
424.263	92.84
424.471	64.17
424.679	144.04
424.887	6.83
425.094	58.03
425.302	72.36
425.51	-89.43
425.718	162.47
425.925	23.21
426.133	0.68
426.341	219.82
426.548	211.62
426.756	78.51
426.964	88.75
427.171	-1.37
427.379	39.59
427.586	135.85
427.794	162.47
428.001	152.23
428.209	129.7
428.417	127.66
428.624	156.33
428.832	107.18
429.039	43.69
429.247	76.46
429.454	80.55
429.662	156.33
429.869	103.08
430.076	152.23
430.284	131.75
430.491	215.72
430.699	197.29
430.906	168.62
431.114	148.14
431.321	88.75
431.528	39.59
431.736	215.72
431.943	51.88
432.15	172.71
432.358	168.62
432.565	236.2
432.772	39.59
432.979	238.25
433.187	115.37
433.394	236.2
433.601	197.29
433.808	242.34
434.016	236.2
434.223	195.24
434.43	207.53
434.637	240.3
434.844	242.34
435.052	201.38
435.259	230.06
435.466	334.5
435.673	213.67
435.88	330.41
436.087	324.26
436.294	379.56
436.501	330.41
436.708	238.25
436.915	305.83
437.122	352.93
437.329	264.87
437.537	305.83
437.743	275.11
437.95	363.17
438.157	279.21
438.364	309.93
438.571	348.84
438.778	404.13
438.985	449.19
439.192	404.13
439.399	371.37
439.606	432.8
439.813	443.04
440.02	594.59
440.227	666.27
440.433	514.72
440.64	469.67
440.847	441
441.054	578.21
441.261	635.55
441.467	557.73
441.674	588.45
441.881	668.32
442.088	590.5
442.294	688.8
442.501	725.66
442.708	840.35
442.914	744.1
443.121	787.1
443.328	791.2
443.534	795.29
443.741	879.26
443.948	823.97
444.154	996
444.361	1170.07
444.568	993.95
444.774	996
444.981	936.6
445.187	1143.45
445.394	1051.29
445.6	1092.25
445.807	1264.28
446.013	1188.5
446.22	1157.79
446.426	1426.07
446.633	1358.49
446.839	1591.95
447.046	1366.68
447.252	1540.76
447.459	1567.38
447.665	1634.96
447.871	1747.6
448.078	1901.2
448.284	1864.33
448.491	1880.72
448.697	1907.34
448.903	2118.28
449.11	2058.89
449.316	1993.36
449.522	2329.22
449.728	2388.61
449.935	2443.91
450.141	2372.23
450.347	2505.35
450.553	2574.98
450.76	2640.51
450.966	2884.22
451.172	2816.64
451.378	2998.91
451.584	2986.62
451.791	3267.19
451.997	3271.29
452.203	3455.61
452.409	3660.4
452.615	3644.02
452.821	3662.45
453.027	3736.18
453.233	4282.99
453.44	4008.56
453.646	4170.35
453.852	4532.84
454.058	4569.7
454.264	4659.81
454.47	5173.85
454.676	4932.19
454.882	5642.84
455.088	5259.87
455.294	5470.81
455.5	6097.49
455.705	6195.79
455.911	6306.38
456.117	6382.15
456.323	6844.99
456.529	6660.68
456.735	7320.12
456.941	7416.38
457.147	7598.65
457.352	7911.99
457.558	8155.69
457.764	8692.26
457.97	8831.52
458.176	9089.57
458.381	9689.62
458.587	9832.98
458.793	10338.83
458.999	10234.38
459.204	11733.5
459.41	12032.5
459.616	11870.71
459.821	12536.3
460.027	12919.27
460.233	13795.8
460.438	13722.07
460.644	14375.38
460.85	14680.52
461.055	15315.39
461.261	16099.76
461.466	15778.23
461.672	15933.88
461.878	17772.96
462.083	17430.94
462.289	18069.91
462.494	18717.07
462.7	18917.77
462.905	19126.66
463.111	20793.71
463.316	21713.25
463.522	22100.31
463.727	22604.11
463.932	23374.15
464.138	24400.18
464.343	25219.37
464.549	25561.38
464.754	27175.18
464.959	27932.93
465.165	28373.24
465.37	28274.94
465.575	28614.9
465.781	30279.9
465.986	31168.72
466.191	30718.17
466.397	31092.94
466.602	30296.28
466.807	32268.48
467.012	32329.92
467.218	33271.98
467.423	33355.95
467.628	34388.13
467.833	36057.22
468.038	35213.46
468.244	34629.79
