Data from USB4F104151__95__11-31-46-258.txt Node

Date: Wed Feb 26 11:31:46 EST 2025
User: louis
Spectrometer: USB4F10415
Trigger mode: 4
Integration Time (sec): 1.000000E-1
Scans to average: 1
Electric dark correction enabled: true
Nonlinearity correction enabled: false
Boxcar width: 0
XAxis mode: Wavelengths
Number of Pixels in Spectrum: 3648
>>>>>Begin Spectral Data<<<<<
178.204	-409.94
178.424	-409.94
178.644	-409.94
178.864	-436.56
179.084	-340.3
179.304	42.67
179.524	-78.16
179.744	-24.92
179.964	34.47
180.184	-4.44
180.404	87.72
180.624	-29.01
180.844	20.14
181.064	-35.16
181.283	9.9
181.503	-53.59
181.723	30.38
181.943	-86.36
182.163	149.16
182.383	48.81
182.602	24.23
182.822	163.5
183.042	67.24
183.262	-29.01
183.482	-18.77
183.701	77.48
183.921	52.91
184.141	-16.73
184.361	48.81
184.58	-4.44
184.8	32.43
185.02	-72.02
185.239	145.06
185.459	52.91
185.679	138.92
185.898	-65.88
186.118	54.95
186.338	106.15
186.557	38.57
186.777	-43.35
186.997	36.52
187.216	108.2
187.436	202.41
187.655	61.1
187.875	132.78
188.095	67.24
188.314	83.63
188.534	104.11
188.753	-22.87
188.973	73.39
189.192	226.98
189.412	38.57
189.631	42.67
189.851	-6.49
190.07	161.45
190.29	-8.53
190.509	-86.36
190.729	50.86
190.948	130.73
191.168	202.41
191.387	42.67
191.607	-22.87
191.826	52.91
192.045	28.33
192.265	-12.63
192.484	65.19
192.704	5.8
192.923	-55.64
193.142	161.45
193.362	83.63
193.581	126.63
193.8	71.34
194.02	22.19
194.239	20.14
194.458	40.62
194.678	69.29
194.897	-14.68
195.116	112.3
195.335	75.43
195.555	75.43
195.774	26.28
195.993	83.63
196.212	32.43
196.432	-29.01
196.651	34.47
196.87	38.57
197.089	229.03
197.308	-4.44
197.528	50.86
197.747	-45.4
197.966	36.52
198.185	145.06
198.404	7.85
198.623	61.1
198.842	122.54
199.062	140.97
199.281	181.93
199.5	30.38
199.719	11.95
199.938	71.34
200.157	71.34
200.376	122.54
200.595	77.48
200.814	30.38
201.033	63.15
201.252	251.56
201.471	11.95
201.69	108.2
201.909	69.29
202.128	212.65
202.347	65.19
202.566	83.63
202.785	-8.53
203.004	44.71
203.223	292.52
203.442	24.23
203.661	-16.73
203.879	85.67
204.098	100.01
204.317	-10.58
204.536	165.54
204.755	65.19
204.974	89.77
205.193	32.43
205.411	124.58
205.63	77.48
205.849	32.43
206.068	28.33
206.287	-51.54
206.505	179.88
206.724	18.09
206.943	20.14
207.162	-6.49
207.381	59.05
207.599	40.62
207.818	104.11
208.037	-22.87
208.255	100.01
208.474	65.19
208.693	159.4
208.911	-8.53
209.13	138.92
209.349	48.81
209.567	120.49
209.786	63.15
210.005	75.43
210.223	57
210.442	-115.03
210.661	16.04
210.879	114.34
211.098	44.71
211.316	57
211.535	59.05
211.753	46.76
211.972	40.62
212.191	-6.49
212.409	22.19
212.628	77.48
212.846	-14.68
213.065	24.23
213.283	48.81
213.502	24.23
213.72	50.86
213.938	65.19
214.157	26.28
214.375	81.58
214.594	11.95
214.812	102.06
215.031	20.14
215.249	32.43
215.467	57
215.686	69.29
215.904	59.05
216.122	52.91
216.341	138.92
216.559	73.39
216.778	110.25
216.996	149.16
217.214	5.8
217.432	32.43
217.651	-63.83
217.869	22.19
218.087	67.24
218.306	-53.59
218.524	126.63
218.742	-6.49
218.96	112.3
219.179	40.62
219.397	1.71
219.615	269.99
219.833	87.72
220.051	11.95
220.27	130.73
220.488	122.54
220.706	83.63
220.924	-22.87
221.142	11.95
221.36	93.87
221.578	83.63
221.796	65.19
222.015	93.87
222.233	65.19
222.451	134.82
222.669	-53.59
222.887	63.15
223.105	-12.63
223.323	16.04
223.541	-8.53
223.759	-22.87
223.977	73.39
224.195	216.74
224.413	38.57
224.631	104.11
224.849	3.75
225.067	257.7
225.285	-88.4
225.503	-33.11
225.721	-88.4
225.939	3.75
226.157	36.52
226.375	196.26
226.592	-41.3
226.81	13.99
227.028	102.06
227.246	116.39
227.464	24.23
227.682	89.77
227.9	128.68
228.117	34.47
228.335	65.19
228.553	-6.49
228.771	18.09
228.989	61.1
229.206	42.67
229.424	59.05
229.642	36.52
229.86	-12.63
230.077	169.64
230.295	57
230.513	89.77
230.731	48.81
230.948	204.46
231.166	136.87
231.384	-22.87
231.601	3.75
231.819	226.98
232.037	-14.68
232.254	7.85
232.472	46.76
232.689	-20.82
232.907	106.15
233.125	34.47
233.342	-10.58
233.56	32.43
233.777	63.15
233.995	11.95
234.213	77.48
234.43	130.73
234.648	65.19
234.865	-12.63
235.083	65.19
235.3	89.77
235.518	48.81
235.735	147.11
235.953	112.3
236.17	5.8
236.388	28.33
236.605	67.24
236.822	54.95
237.04	208.55
237.257	28.33
237.475	-104.79
237.692	-20.82
237.909	65.19
238.127	40.62
238.344	100.01
238.562	-26.96
238.779	5.8
238.996	-112.98
239.214	104.11
239.431	128.68
239.648	18.09
239.865	38.57
240.083	106.15
240.3	24.23
240.517	-10.58
240.735	93.87
240.952	73.39
241.169	28.33
241.386	104.11
241.603	36.52
241.821	7.85
242.038	91.82
242.255	120.49
242.472	-10.58
242.689	110.25
242.907	73.39
243.124	22.19
243.341	52.91
243.558	-53.59
243.775	7.85
243.992	-53.59
244.209	157.35
244.426	134.82
244.643	59.05
244.86	59.05
245.078	102.06
245.295	77.48
245.512	79.53
245.729	22.19
245.946	104.11
246.163	59.05
246.38	26.28
246.597	138.92
246.814	65.19
247.031	-49.49
247.248	-12.63
247.464	116.39
247.681	34.47
247.898	102.06
248.115	159.4
248.332	104.11
248.549	104.11
248.766	140.97
248.983	59.05
249.2	52.91
249.417	34.47
249.633	-100.69
249.85	87.72
250.067	11.95
250.284	-8.53
250.501	93.87
250.717	102.06
250.934	-47.44
251.151	9.9
251.368	89.77
251.585	30.38
251.801	81.58
252.018	-41.3
252.235	81.58
252.451	-69.97
252.668	18.09
252.885	108.2
253.102	73.39
253.318	44.71
253.535	65.19
253.752	-59.73
253.968	36.52
254.185	-6.49
254.401	106.15
254.618	122.54
254.835	-26.96
255.051	112.3
255.268	16.04
255.484	34.47
255.701	44.71
255.917	57
256.134	1.71
256.351	34.47
256.567	-14.68
256.784	32.43
257	-80.21
257.217	130.73
257.433	-61.78
257.65	87.72
257.866	177.83
258.082	11.95
258.299	75.43
258.515	65.19
258.732	42.67
258.948	-49.49
259.165	-12.63
259.381	-43.35
259.597	188.07
259.814	61.1
260.03	24.23
260.246	36.52
260.463	95.91
260.679	124.58
260.895	67.24
261.112	-4.44
261.328	114.34
261.544	-24.92
261.761	110.25
261.977	-90.45
262.193	-33.11
262.409	91.82
262.626	97.96
262.842	-2.39
263.058	13.99
263.274	85.67
263.49	-14.68
263.707	77.48
263.923	155.3
264.139	87.72
264.355	-14.68
264.571	130.73
264.787	95.91
265.004	108.2
265.22	63.15
265.436	-2.39
265.652	36.52
265.868	75.43
266.084	-35.16
266.3	36.52
266.516	-26.96
266.732	28.33
266.948	63.15
267.164	32.43
267.38	63.15
267.596	61.1
267.812	214.7
268.028	-26.96
268.244	22.19
268.46	61.1
268.676	32.43
268.892	175.78
269.108	-8.53
269.324	97.96
269.54	22.19
269.756	63.15
269.972	3.75
270.188	108.2
270.403	-55.64
270.619	3.75
270.835	93.87
271.051	20.14
271.267	-35.16
271.483	40.62
271.698	155.3
271.914	112.3
272.13	9.9
272.346	16.04
272.562	110.25
272.777	50.86
272.993	-12.63
273.209	-94.55
273.425	59.05
273.64	-29.01
273.856	112.3
274.072	30.38
274.287	61.1
274.503	77.48
274.719	87.72
274.934	26.28
275.15	-24.92
275.366	65.19
275.581	-33.11
275.797	61.1
276.012	87.72
276.228	50.86
276.444	36.52
276.659	79.53
276.875	32.43
277.09	40.62
277.306	-16.73
277.521	75.43
277.737	59.05
277.952	100.01
278.168	-24.92
278.383	42.67
278.599	40.62
278.814	50.86
279.03	44.71
279.245	114.34
279.461	73.39
279.676	167.59
279.892	-35.16
280.107	-51.54
280.322	-55.64
280.538	38.57
280.753	-4.44
280.969	3.75
281.184	108.2
281.399	126.63
281.615	42.67
281.83	71.34
282.045	-59.73
282.26	30.38
282.476	16.04
282.691	126.63
282.906	59.05
283.122	108.2
283.337	-0.34
283.552	44.71
283.767	13.99
283.983	100.01
284.198	57
284.413	124.58
284.628	-35.16
284.843	46.76
285.058	140.97
285.274	-18.77
285.489	-41.3
285.704	130.73
285.919	-24.92
286.134	-0.34
286.349	85.67
286.564	30.38
286.779	114.34
286.995	-35.16
287.21	-104.79
287.425	59.05
287.64	-8.53
287.855	97.96
288.07	-96.6
288.285	128.68
288.5	38.57
288.715	102.06
288.93	-6.49
289.145	-65.88
289.36	79.53
289.575	22.19
289.79	175.78
290.004	-76.12
290.219	165.54
290.434	-90.45
290.649	-69.97
290.864	9.9
291.079	52.91
291.294	48.81
291.509	71.34
291.724	-63.83
291.938	46.76
292.153	32.43
292.368	50.86
292.583	-2.39
292.798	155.3
293.012	67.24
293.227	85.67
293.442	-2.39
293.657	89.77
293.871	143.02
294.086	50.86
294.301	177.83
294.516	57
294.73	81.58
294.945	-39.25
295.16	-4.44
295.374	124.58
295.589	63.15
295.804	-47.44
296.018	140.97
296.233	69.29
296.447	57
296.662	-39.25
296.877	132.78
297.091	97.96
297.306	18.09
297.52	-51.54
297.735	16.04
297.949	-18.77
298.164	79.53
298.378	36.52
298.593	22.19
298.807	34.47
299.022	75.43
299.236	192.17
299.451	-12.63
299.665	46.76
299.88	-20.82
300.094	54.95
300.309	42.67
300.523	9.9
300.737	48.81
300.952	-31.06
301.166	106.15
301.381	-74.07
301.595	112.3
301.809	-8.53
302.024	61.1
302.238	-65.88
302.452	136.87
302.667	155.3
302.881	128.68
303.095	91.82
303.309	5.8
303.524	73.39
303.738	-33.11
303.952	13.99
304.166	165.54
304.381	-16.73
304.595	130.73
304.809	5.8
305.023	1.71
305.237	-22.87
305.452	100.01
305.666	100.01
305.88	157.35
306.094	54.95
306.308	67.24
306.522	155.3
306.736	102.06
306.95	106.15
307.164	48.81
307.379	-20.82
307.593	130.73
307.807	202.41
308.021	50.86
308.235	63.15
308.449	-96.6
308.663	75.43
308.877	151.21
309.091	13.99
309.305	79.53
309.519	-18.77
309.733	145.06
309.947	5.8
310.161	48.81
310.374	110.25
310.588	190.12
310.802	-26.96
311.016	18.09
311.23	79.53
311.444	50.86
311.658	20.14
311.872	81.58
312.085	179.88
312.299	106.15
312.513	124.58
312.727	69.29
312.941	-0.34
313.154	57
313.368	54.95
313.582	13.99
313.796	40.62
314.009	69.29
314.223	50.86
314.437	67.24
314.651	69.29
314.864	-49.49
315.078	48.81
315.292	-26.96
315.505	34.47
315.719	61.1
315.933	147.11
316.146	20.14
316.36	22.19
316.573	108.2
316.787	120.49
317.001	102.06
317.214	7.85
317.428	28.33
317.641	-0.34
317.855	30.38
318.068	52.91
318.282	40.62
318.495	173.74
318.709	112.3
318.922	-6.49
319.136	161.45
319.349	136.87
319.563	-8.53
319.776	42.67
319.99	-69.97
320.203	95.91
320.417	-74.07
320.63	136.87
320.843	171.69
321.057	91.82
321.27	69.29
321.483	59.05
321.697	200.36
321.91	63.15
322.124	-29.01
322.337	54.95
322.55	-37.2
322.763	69.29
322.977	26.28
323.19	24.23
323.403	36.52
323.617	5.8
323.83	165.54
324.043	-53.59
324.256	24.23
324.469	-18.77
324.683	71.34
324.896	-4.44
325.109	83.63
325.322	-63.83
325.535	145.06
325.748	171.69
325.962	30.38
326.175	59.05
326.388	73.39
326.601	83.63
326.814	5.8
327.027	89.77
327.24	179.88
327.453	-35.16
327.666	102.06
327.879	110.25
328.092	155.3
328.305	71.34
328.518	-33.11
328.731	-8.53
328.944	13.99
329.157	89.77
329.37	48.81
329.583	120.49
329.796	83.63
330.009	7.85
330.222	57
330.435	73.39
330.648	46.76
330.861	52.91
331.073	24.23
331.286	75.43
331.499	91.82
331.712	20.14
331.925	69.29
332.138	-16.73
332.35	120.49
332.563	-35.16
332.776	67.24
332.989	16.04
333.202	1.71
333.414	9.9
333.627	-29.01
333.84	-16.73
334.053	36.52
334.265	-41.3
334.478	-49.49
334.691	11.95
334.903	85.67
335.116	61.1
335.329	5.8
335.541	28.33
335.754	114.34
335.966	-18.77
336.179	-51.54
336.392	46.76
336.604	67.24
336.817	106.15
337.029	65.19
337.242	81.58
337.454	61.1
337.667	-18.77
337.88	112.3
338.092	140.97
338.305	50.86
338.517	-4.44
338.729	118.44
338.942	122.54
339.154	-53.59
339.367	-16.73
339.579	28.33
339.792	30.38
340.004	122.54
340.217	-12.63
340.429	28.33
340.641	11.95
340.854	-10.58
341.066	-12.63
341.278	220.84
341.491	151.21
341.703	124.58
341.915	-16.73
342.128	73.39
342.34	97.96
342.552	-106.84
342.764	24.23
342.977	-39.25
343.189	104.11
343.401	22.19
343.613	-106.84
343.826	67.24
344.038	-0.34
344.25	118.44
344.462	36.52
344.674	71.34
344.886	-26.96
345.099	65.19
345.311	69.29
345.523	-55.64
345.735	-47.44
345.947	59.05
346.159	28.33
346.371	-10.58
346.583	73.39
346.795	183.98
347.007	-22.87
347.219	89.77
347.431	16.04
347.643	89.77
347.855	34.47
348.067	143.02
348.279	-65.88
348.491	7.85
348.703	30.38
348.915	73.39
349.127	34.47
349.339	7.85
349.551	26.28
349.763	104.11
349.975	147.11
350.187	85.67
350.399	128.68
350.61	73.39
350.822	-12.63
351.034	73.39
351.246	18.09
351.458	30.38
351.669	83.63
351.881	85.67
352.093	102.06
352.305	77.48
352.517	52.91
352.728	73.39
352.94	95.91
353.152	65.19
353.363	18.09
353.575	59.05
353.787	169.64
353.999	97.96
354.21	161.45
354.422	-55.64
354.633	18.09
354.845	100.01
355.057	32.43
355.268	42.67
355.48	95.91
355.692	-59.73
355.903	11.95
356.115	-35.16
356.326	-12.63
356.538	118.44
356.749	81.58
356.961	124.58
357.172	67.24
357.384	13.99
357.595	208.55
357.807	-47.44
358.018	-57.68
358.23	57
358.441	173.74
358.653	136.87
358.864	57
359.075	-88.4
359.287	32.43
359.498	65.19
359.709	83.63
359.921	-14.68
360.132	67.24
360.344	-20.82
360.555	22.19
360.766	81.58
360.977	-16.73
361.189	48.81
361.4	-22.87
361.611	132.78
361.823	104.11
362.034	102.06
362.245	-78.16
362.456	16.04
362.667	188.07
362.879	-33.11
363.09	140.97
363.301	132.78
363.512	79.53
363.723	-53.59
363.935	-45.4
364.146	100.01
364.357	-20.82
364.568	34.47
364.779	-10.58
364.99	202.41
365.201	13.99
365.412	102.06
365.623	-67.92
365.834	104.11
366.045	20.14
366.256	102.06
366.467	85.67
366.678	40.62
366.889	-8.53
367.1	32.43
367.311	126.63
367.522	34.47
367.733	100.01
367.944	114.34
368.155	1.71
368.366	112.3
368.577	124.58
368.788	239.27
368.999	18.09
369.209	42.67
369.42	241.32
369.631	253.61
369.842	138.92
370.053	77.48
370.264	63.15
370.474	-0.34
370.685	36.52
370.896	18.09
371.107	110.25
371.317	122.54
371.528	-4.44
371.739	145.06
371.95	93.87
372.16	42.67
372.371	1.71
372.582	-0.34
372.792	79.53
373.003	9.9
373.214	151.21
373.424	120.49
373.635	-8.53
373.846	222.89
374.056	42.67
374.267	77.48
374.477	77.48
374.688	1.71
374.898	44.71
375.109	112.3
375.319	16.04
375.53	145.06
375.74	106.15
375.951	-2.39
376.161	110.25
376.372	151.21
376.582	26.28
376.793	77.48
377.003	13.99
377.214	16.04
377.424	112.3
377.635	57
377.845	3.75
378.055	167.59
378.266	-88.4
378.476	16.04
378.686	38.57
378.897	69.29
379.107	89.77
379.317	9.9
379.528	-2.39
379.738	157.35
379.948	-24.92
380.158	73.39
380.369	108.2
380.579	122.54
380.789	32.43
380.999	118.44
381.21	73.39
381.42	143.02
381.63	30.38
381.84	73.39
382.05	52.91
382.261	36.52
382.471	138.92
382.681	-0.34
382.891	179.88
383.101	65.19
383.311	16.04
383.521	36.52
383.731	7.85
383.941	116.39
384.151	108.2
384.361	65.19
384.571	116.39
384.781	38.57
384.991	261.8
385.201	169.64
385.411	24.23
385.621	102.06
385.831	38.57
386.041	104.11
386.251	32.43
386.461	46.76
386.671	18.09
386.881	-8.53
387.091	7.85
387.301	114.34
387.511	120.49
387.72	110.25
387.93	97.96
388.14	1.71
388.35	52.91
388.56	110.25
388.769	165.54
388.979	-31.06
389.189	61.1
389.399	112.3
389.609	161.45
389.818	114.34
390.028	36.52
390.238	-8.53
390.447	-90.45
390.657	32.43
390.867	-8.53
391.076	-12.63
391.286	124.58
391.496	24.23
391.705	130.73
391.915	83.63
392.125	196.26
392.334	26.28
392.544	40.62
392.753	24.23
392.963	-39.25
393.172	102.06
393.382	5.8
393.591	173.74
393.801	-45.4
394.01	163.5
394.22	89.77
394.429	-24.92
394.639	-4.44
394.848	132.78
395.058	32.43
395.267	42.67
395.477	71.34
395.686	116.39
395.895	153.26
396.105	138.92
396.314	77.48
396.524	44.71
396.733	5.8
396.942	161.45
397.152	116.39
397.361	143.02
397.57	40.62
397.78	-4.44
397.989	102.06
398.198	269.99
398.407	44.71
398.617	-24.92
398.826	-0.34
399.035	57
399.244	79.53
399.453	26.28
399.663	71.34
399.872	85.67
400.081	5.8
400.29	120.49
400.499	-26.96
400.708	159.4
400.917	28.33
401.127	11.95
401.336	-31.06
401.545	183.98
401.754	106.15
401.963	116.39
402.172	-6.49
402.381	-22.87
402.59	30.38
402.799	48.81
403.008	57
403.217	120.49
403.426	69.29
403.635	-4.44
403.844	63.15
404.053	11.95
404.262	57
404.471	231.08
404.68	61.1
404.888	138.92
405.097	95.91
405.306	116.39
405.515	75.43
405.724	36.52
405.933	26.28
406.142	93.87
406.35	97.96
406.559	-16.73
406.768	40.62
406.977	177.83
407.185	48.81
407.394	65.19
407.603	-53.59
407.812	104.11
408.02	155.3
408.229	110.25
408.438	30.38
408.646	-51.54
408.855	93.87
409.064	63.15
409.272	59.05
409.481	73.39
409.69	-16.73
409.898	-98.64
410.107	89.77
410.315	106.15
410.524	-20.82
410.733	28.33
410.941	42.67
411.15	120.49
411.358	112.3
411.567	128.68
411.775	30.38
411.984	122.54
412.192	169.64
412.401	30.38
412.609	151.21
412.818	151.21
413.026	110.25
413.234	65.19
413.443	61.1
413.651	-2.39
413.86	42.67
414.068	85.67
414.276	167.59
414.485	18.09
414.693	59.05
414.901	157.35
415.11	126.63
415.318	50.86
415.526	93.87
415.734	97.96
415.943	114.34
416.151	204.46
416.359	42.67
416.567	97.96
416.776	155.3
416.984	65.19
417.192	274.09
417.4	32.43
417.608	81.58
417.817	22.19
418.025	124.58
418.233	143.02
418.441	-59.73
418.649	42.67
418.857	122.54
419.065	179.88
419.273	87.72
419.481	24.23
419.689	67.24
419.897	65.19
420.105	32.43
420.313	188.07
420.521	163.5
420.729	130.73
420.937	22.19
421.145	-8.53
421.353	147.11
421.561	212.65
421.769	100.01
421.977	-26.96
422.185	83.63
422.393	50.86
422.601	97.96
422.809	44.71
423.017	67.24
423.224	63.15
423.432	130.73
423.64	40.62
423.848	140.97
424.056	20.14
424.263	167.59
424.471	7.85
424.679	204.46
424.887	-10.58
425.094	188.07
425.302	102.06
425.51	75.43
425.718	116.39
425.925	110.25
426.133	69.29
426.341	198.31
426.548	122.54
426.756	44.71
426.964	91.82
427.171	153.26
427.379	71.34
427.586	63.15
427.794	122.54
428.001	167.59
428.209	145.06
428.417	186.02
428.624	108.2
428.832	108.2
429.039	128.68
429.247	159.4
429.454	95.91
429.662	235.18
429.869	116.39
430.076	183.98
430.284	114.34
430.491	114.34
430.699	194.22
430.906	159.4
431.114	140.97
431.321	120.49
431.528	104.11
431.736	229.03
431.943	167.59
432.15	173.74
432.358	151.21
432.565	315.05
432.772	59.05
432.979	214.7
433.187	106.15
433.394	175.78
433.601	91.82
433.808	171.69
434.016	292.52
434.223	222.89
434.43	202.41
434.637	222.89
434.844	292.52
435.052	251.56
435.259	284.33
435.466	282.28
435.673	317.09
435.88	339.62
436.087	362.15
436.294	327.33
436.501	280.23
436.708	280.23
436.915	296.61
437.122	444.07
437.329	284.33
437.537	374.44
437.743	380.58
437.95	550.56
438.157	317.09
438.364	374.44
438.571	366.25
438.778	382.63
438.985	466.6
439.192	458.4
439.399	511.65
439.606	419.49
439.813	525.99
440.02	536.23
440.227	667.3
440.433	632.48
440.64	558.75
440.847	528.03
441.054	638.62
441.261	736.93
441.467	671.39
441.674	700.06
441.881	693.92
442.088	636.58
442.294	865.95
442.501	784.03
442.708	931.48
442.914	757.41
443.121	913.05
443.328	923.29
443.534	970.4
443.741	958.11
443.948	890.53
444.154	1046.17
444.361	1107.61
444.568	1078.94
444.774	1138.33
444.981	968.35
445.187	1269.4
445.394	1267.35
445.6	1316.5
445.807	1384.09
446.013	1449.62
446.22	1441.43
446.426	1539.73
446.633	1576.59
446.839	1820.3
447.046	1588.88
447.252	1775.25
447.459	1816.21
447.665	1865.36
447.871	1969.8
448.078	2096.78
448.284	2090.63
448.491	2203.27
448.697	2221.7
448.903	2334.34
449.11	2391.69
449.316	2322.06
449.522	2567.81
449.728	2670.21
449.935	2662.02
450.141	2715.27
450.347	3006.08
450.553	2948.73
450.76	3036.8
450.966	3245.69
451.172	3298.94
451.378	3395.19
451.584	3509.88
451.791	3761.78
451.997	3694.19
452.203	3890.8
452.409	3993.2
452.615	4249.19
452.821	4136.56
453.027	4073.07
453.233	4810.34
453.44	4513.38
453.646	4703.84
453.852	4910.69
454.058	5191.26
454.264	5318.23
454.47	5723.73
454.676	5674.58
454.882	6260.3
455.088	6043.21
455.294	6354.51
455.5	6567.49
455.705	6954.56
455.911	6985.28
456.117	7116.35
456.323	7638.58
456.529	7589.43
456.735	8355.37
456.941	8633.89
457.147	8779.3
457.352	9088.54
457.558	9303.58
457.764	9852.44
457.97	9870.87
458.176	10368.52
458.381	10964.48
458.587	11191.81
458.793	11775.48
458.999	12037.62
459.204	13194.72
459.41	13555.16
459.616	13598.17
459.821	14163.41
460.027	14996.93
460.233	15728.06
460.438	15734.2
460.644	16422.32
460.85	16706.99
461.055	17341.86
461.261	18294.16
461.466	17644.96
461.672	18271.64
461.878	20237.69
462.083	20073.85
462.289	20477.3
462.494	21187.94
462.7	21501.28
462.905	21878.11
463.111	23534.92
463.316	24827.18
463.522	25191.72
463.727	26004.77
463.932	26782.99
464.138	27825.41
464.343	28699.89
464.549	28642.55
464.754	31300.81
464.959	32027.84
465.165	32330.94
465.37	32199.87
465.575	32353.47
465.781	33926.31
465.986	35357.84
466.191	34557.08
466.397	35341.46
466.602	34329.76
466.807	36545.66
467.012	37108.85
467.218	37557.36
467.423	37608.56
467.628	38634.59
467.833	40649.79
468.038	39730.25
468.244	39378
468.449	41194.55
