Data from USB4F104151__106__10-35-53-525.txt Node

Date: Wed Feb 26 10:35:53 EST 2025
User: louis
Spectrometer: USB4F10415
Trigger mode: 4
Integration Time (sec): 1.000000E-1
Scans to average: 1
Electric dark correction enabled: true
Nonlinearity correction enabled: false
Boxcar width: 0
XAxis mode: Wavelengths
Number of Pixels in Spectrum: 3648
>>>>>Begin Spectral Data<<<<<
178.204	-403.96
178.424	-403.96
178.644	-403.96
178.864	-369.15
179.084	-428.54
179.304	73.21
179.524	-29.18
179.744	34.3
179.964	79.36
180.184	17.92
180.404	38.4
180.624	-49.66
180.844	-72.19
181.064	-119.29
181.283	79.36
181.503	-6.66
181.723	-45.57
181.943	-39.42
182.163	200.19
182.383	-10.75
182.602	32.26
182.822	148.99
183.042	54.78
183.262	-59.9
183.482	19.97
183.701	3.58
183.921	26.11
184.141	-59.9
184.361	38.4
184.58	19.97
184.8	32.26
185.02	30.21
185.239	83.45
185.459	110.08
185.679	161.28
185.898	-41.47
186.118	95.74
186.338	1.54
186.557	124.41
186.777	5.63
186.997	-8.7
187.216	85.5
187.436	294.4
187.655	95.74
187.875	69.12
188.095	62.98
188.314	103.93
188.534	130.56
188.753	-4.61
188.973	155.13
189.192	118.27
189.412	-29.18
189.631	46.59
189.851	32.26
190.07	30.21
190.29	15.87
190.509	19.97
190.729	44.54
190.948	167.42
191.168	265.72
191.387	44.54
191.607	36.35
191.826	79.36
192.045	-66.05
192.265	36.35
192.484	52.74
192.704	11.78
192.923	-70.14
193.142	97.79
193.362	140.8
193.581	185.85
193.8	34.3
194.02	105.98
194.239	-51.71
194.458	48.64
194.678	75.26
194.897	-12.8
195.116	60.93
195.335	81.41
195.555	130.56
195.774	120.32
195.993	95.74
196.212	26.11
196.432	52.74
196.651	-31.23
196.87	-41.47
197.089	237.05
197.308	142.85
197.528	17.92
197.747	-41.47
197.966	71.17
198.185	42.5
198.404	-20.99
198.623	222.72
198.842	132.61
199.062	148.99
199.281	148.99
199.5	77.31
199.719	136.7
199.938	75.26
200.157	89.6
200.376	146.94
200.595	120.32
200.814	-27.14
201.033	17.92
201.252	171.52
201.471	56.83
201.69	122.37
201.909	91.65
202.128	116.22
202.347	89.6
202.566	-18.94
202.785	-2.56
203.004	-6.66
203.223	263.68
203.442	130.56
203.661	-2.56
203.879	128.51
204.098	108.03
204.317	-27.14
204.536	130.56
204.755	99.84
204.974	95.74
205.193	91.65
205.411	101.89
205.63	73.21
205.849	163.33
206.068	-37.38
206.287	-16.9
206.505	218.62
206.724	71.17
206.943	73.21
207.162	5.63
207.381	122.37
207.599	-0.51
207.818	103.93
208.037	-25.09
208.255	81.41
208.474	95.74
208.693	44.54
208.911	26.11
209.13	187.9
209.349	44.54
209.567	114.17
209.786	60.93
210.005	110.08
210.223	83.45
210.442	-4.61
210.661	22.02
210.879	126.46
211.098	5.63
211.316	52.74
211.535	38.4
211.753	44.54
211.972	-4.61
212.191	-33.28
212.409	87.55
212.628	112.13
212.846	-31.23
213.065	-10.75
213.283	140.8
213.502	17.92
213.72	48.64
213.938	11.78
214.157	13.82
214.375	173.57
214.594	13.82
214.812	36.35
215.031	71.17
215.249	89.6
215.467	38.4
215.686	52.74
215.904	50.69
216.122	17.92
216.341	253.44
216.559	83.45
216.778	83.45
216.996	114.17
217.214	62.98
217.432	26.11
217.651	-27.14
217.869	44.54
218.087	-49.66
218.306	-31.23
218.524	46.59
218.742	67.07
218.96	95.74
219.179	-6.66
219.397	-10.75
219.615	171.52
219.833	112.13
220.051	-70.14
220.27	108.03
220.488	105.98
220.706	36.35
220.924	-39.42
221.142	-2.56
221.36	56.83
221.578	15.87
221.796	99.84
222.015	24.06
222.233	87.55
222.451	175.61
222.669	-31.23
222.887	97.79
223.105	17.92
223.323	54.78
223.541	-61.95
223.759	79.36
223.977	42.5
224.195	151.04
224.413	46.59
224.631	103.93
224.849	34.3
225.067	265.72
225.285	-78.33
225.503	15.87
225.721	-35.33
225.939	87.55
226.157	22.02
226.375	284.16
226.592	50.69
226.81	71.17
227.028	99.84
227.246	140.8
227.464	48.64
227.682	134.65
227.9	97.79
228.117	13.82
228.335	112.13
228.553	40.45
228.771	-12.8
228.989	19.97
229.206	93.69
229.424	34.3
229.642	1.54
229.86	11.78
230.077	126.46
230.295	95.74
230.513	130.56
230.731	79.36
230.948	126.46
231.166	95.74
231.384	-12.8
231.601	15.87
231.819	167.42
232.037	17.92
232.254	-96.77
232.472	34.3
232.689	28.16
232.907	155.13
233.125	-59.9
233.342	50.69
233.56	1.54
233.777	15.87
233.995	52.74
234.213	114.17
234.43	208.38
234.648	40.45
234.865	-47.62
235.083	122.37
235.3	42.5
235.518	142.85
235.735	140.8
235.953	-41.47
236.17	62.98
236.388	75.26
236.605	-18.94
236.822	146.94
237.04	136.7
237.257	73.21
237.475	1.54
237.692	95.74
237.909	103.93
238.127	-70.14
238.344	95.74
238.562	50.69
238.779	-43.52
238.996	-47.62
239.214	54.78
239.431	77.31
239.648	-29.18
239.865	1.54
240.083	26.11
240.3	7.68
240.517	-37.38
240.735	11.78
240.952	134.65
241.169	116.22
241.386	3.58
241.603	83.45
241.821	-23.04
242.038	99.84
242.255	126.46
242.472	-27.14
242.689	65.02
242.907	38.4
243.124	5.63
243.341	17.92
243.558	-23.04
243.775	-12.8
243.992	-35.33
244.209	32.26
244.426	239.1
244.643	50.69
244.86	3.58
245.078	97.79
245.295	140.8
245.512	77.31
245.729	-20.99
245.946	118.27
246.163	75.26
246.38	26.11
246.597	116.22
246.814	93.69
247.031	32.26
247.248	112.13
247.464	128.51
247.681	122.37
247.898	144.89
248.115	69.12
248.332	42.5
248.549	181.76
248.766	159.23
248.983	91.65
249.2	124.41
249.417	196.09
249.633	56.83
249.85	81.41
250.067	67.07
250.284	93.69
250.501	142.85
250.717	155.13
250.934	-12.8
251.151	44.54
251.368	-4.61
251.585	22.02
251.801	3.58
252.018	-59.9
252.235	140.8
252.451	-23.04
252.668	-2.56
252.885	112.13
253.102	38.4
253.318	36.35
253.535	85.5
253.752	19.97
253.968	-4.61
254.185	-64
254.401	-64
254.618	81.41
254.835	15.87
255.051	183.81
255.268	81.41
255.484	42.5
255.701	3.58
255.917	144.89
256.134	9.73
256.351	-4.61
256.567	-33.28
256.784	40.45
257	-152.06
257.217	91.65
257.433	99.84
257.65	77.31
257.866	110.08
258.082	34.3
258.299	-29.18
258.515	91.65
258.732	34.3
258.948	5.63
259.165	69.12
259.381	-57.86
259.597	5.63
259.814	-8.7
260.03	-0.51
260.246	-8.7
260.463	93.69
260.679	159.23
260.895	116.22
261.112	110.08
261.328	34.3
261.544	-41.47
261.761	151.04
261.977	89.6
262.193	-74.24
262.409	101.89
262.626	17.92
262.842	-12.8
263.058	58.88
263.274	89.6
263.49	-31.23
263.707	112.13
263.923	50.69
264.139	-64
264.355	93.69
264.571	58.88
264.787	73.21
265.004	103.93
265.22	36.35
265.436	-14.85
265.652	9.73
265.868	62.98
266.084	-27.14
266.3	67.07
266.516	52.74
266.732	42.5
266.948	77.31
267.164	42.5
267.38	155.13
267.596	87.55
267.812	153.09
268.028	75.26
268.244	44.54
268.46	69.12
268.676	-16.9
268.892	44.54
269.108	-20.99
269.324	22.02
269.54	-53.76
269.756	136.7
269.972	7.68
270.188	54.78
270.403	-72.19
270.619	58.88
270.835	159.23
271.051	58.88
271.267	-4.61
271.483	13.82
271.698	120.32
271.914	136.7
272.13	28.16
272.346	77.31
272.562	87.55
272.777	148.99
272.993	15.87
273.209	32.26
273.425	13.82
273.64	-68.09
273.856	69.12
274.072	-43.52
274.287	-0.51
274.503	105.98
274.719	85.5
274.934	-4.61
275.15	-66.05
275.366	40.45
275.581	58.88
275.797	95.74
276.012	48.64
276.228	-70.14
276.444	89.6
276.659	101.89
276.875	-39.42
277.09	19.97
277.306	46.59
277.521	116.22
277.737	42.5
277.952	108.03
278.168	32.26
278.383	71.17
278.599	22.02
278.814	32.26
279.03	15.87
279.245	136.7
279.461	1.54
279.676	128.51
279.892	-43.52
280.107	-33.28
280.322	-61.95
280.538	138.75
280.753	-14.85
280.969	24.06
281.184	24.06
281.399	105.98
281.615	101.89
281.83	79.36
282.045	-92.67
282.26	-4.61
282.476	34.3
282.691	130.56
282.906	54.78
283.122	50.69
283.337	19.97
283.552	-37.38
283.767	-8.7
283.983	105.98
284.198	54.78
284.413	19.97
284.628	-92.67
284.843	1.54
285.058	81.41
285.274	50.69
285.489	-53.76
285.704	142.85
285.919	24.06
286.134	46.59
286.349	54.78
286.564	11.78
286.779	58.88
286.995	7.68
287.21	-47.62
287.425	56.83
287.64	19.97
287.855	48.64
288.07	-41.47
288.285	142.85
288.5	122.37
288.715	134.65
288.93	32.26
289.145	-16.9
289.36	79.36
289.575	93.69
289.79	144.89
290.004	5.63
290.219	114.17
290.434	54.78
290.649	-88.57
290.864	46.59
291.079	15.87
291.294	93.69
291.509	54.78
291.724	7.68
291.938	81.41
292.153	9.73
292.368	40.45
292.583	83.45
292.798	32.26
293.012	58.88
293.227	81.41
293.442	32.26
293.657	56.83
293.871	108.03
294.086	93.69
294.301	249.34
294.516	128.51
294.73	69.12
294.945	-10.75
295.16	32.26
295.374	175.61
295.589	32.26
295.804	-16.9
296.018	36.35
296.233	130.56
296.447	67.07
296.662	7.68
296.877	153.09
297.091	9.73
297.306	19.97
297.52	28.16
297.735	58.88
297.949	5.63
298.164	38.4
298.378	122.37
298.593	-6.66
298.807	-8.7
299.022	17.92
299.236	232.96
299.451	67.07
299.665	52.74
299.88	40.45
300.094	81.41
300.309	60.93
300.523	69.12
300.737	32.26
300.952	26.11
301.166	95.74
301.381	-82.43
301.595	-6.66
301.809	128.51
302.024	-33.28
302.238	-78.33
302.452	108.03
302.667	32.26
302.881	75.26
303.095	159.23
303.309	30.21
303.524	-37.38
303.738	38.4
303.952	-35.33
304.166	122.37
304.381	-57.86
304.595	189.95
304.809	13.82
305.023	101.89
305.237	17.92
305.452	-35.33
305.666	91.65
305.88	179.71
306.094	136.7
306.308	75.26
306.522	36.35
306.736	87.55
306.95	108.03
307.164	-41.47
307.379	-25.09
307.593	71.17
307.807	97.79
308.021	101.89
308.235	-0.51
308.449	-43.52
308.663	58.88
308.877	179.71
309.091	65.02
309.305	40.45
309.519	-137.73
309.733	120.32
309.947	-90.62
310.161	73.21
310.374	91.65
310.588	95.74
310.802	3.58
311.016	28.16
311.23	69.12
311.444	7.68
311.658	-16.9
311.872	126.46
312.085	101.89
312.299	120.32
312.513	140.8
312.727	71.17
312.941	-35.33
313.154	73.21
313.368	46.59
313.582	44.54
313.796	19.97
314.009	42.5
314.223	161.28
314.437	48.64
314.651	163.33
314.864	-10.75
315.078	34.3
315.292	-0.51
315.505	5.63
315.719	112.13
315.933	87.55
316.146	11.78
316.36	-37.38
316.573	110.08
316.787	50.69
317.001	93.69
317.214	-10.75
317.428	22.02
317.641	13.82
317.855	24.06
318.068	19.97
318.282	77.31
318.495	93.69
318.709	75.26
318.922	50.69
319.136	142.85
319.349	110.08
319.563	36.35
319.776	112.13
319.99	-45.57
320.203	116.22
320.417	28.16
320.63	122.37
320.843	173.57
321.057	108.03
321.27	38.4
321.483	118.27
321.697	237.05
321.91	52.74
322.124	69.12
322.337	85.5
322.55	58.88
322.763	73.21
322.977	36.35
323.19	42.5
323.403	-59.9
323.617	79.36
323.83	67.07
324.043	-27.14
324.256	69.12
324.469	-45.57
324.683	171.52
324.896	24.06
325.109	34.3
325.322	-76.29
325.535	112.13
325.748	52.74
325.962	1.54
326.175	3.58
326.388	19.97
326.601	163.33
326.814	52.74
327.027	85.5
327.24	140.8
327.453	-43.52
327.666	120.32
327.879	122.37
328.092	89.6
328.305	58.88
328.518	15.87
328.731	93.69
328.944	26.11
329.157	99.84
329.37	-6.66
329.583	134.65
329.796	214.52
330.009	73.21
330.222	77.31
330.435	95.74
330.648	58.88
330.861	7.68
331.073	24.06
331.286	112.13
331.499	58.88
331.712	15.87
331.925	32.26
332.138	99.84
332.35	134.65
332.563	48.64
332.776	120.32
332.989	-23.04
333.202	50.69
333.414	114.17
333.627	91.65
333.84	-31.23
334.053	60.93
334.265	36.35
334.478	52.74
334.691	-51.71
334.903	62.98
335.116	13.82
335.329	26.11
335.541	56.83
335.754	95.74
335.966	32.26
336.179	15.87
336.392	24.06
336.604	-33.28
336.817	81.41
337.029	108.03
337.242	56.83
337.454	54.78
337.667	7.68
337.88	124.41
338.092	32.26
338.305	60.93
338.517	-57.86
338.729	56.83
338.942	151.04
339.154	-64
339.367	-25.09
339.579	38.4
339.792	-41.47
340.004	67.07
340.217	32.26
340.429	32.26
340.641	11.78
340.854	42.5
341.066	19.97
341.278	97.79
341.491	108.03
341.703	7.68
341.915	7.68
342.128	99.84
342.34	67.07
342.552	-82.43
342.764	56.83
342.977	46.59
343.189	157.18
343.401	46.59
343.613	9.73
343.826	-0.51
344.038	-57.86
344.25	54.78
344.462	34.3
344.674	34.3
344.886	19.97
345.099	91.65
345.311	101.89
345.523	-27.14
345.735	-37.38
345.947	44.54
346.159	50.69
346.371	22.02
346.583	-18.94
346.795	194.05
347.007	50.69
347.219	62.98
347.431	-4.61
347.643	200.19
347.855	105.98
348.067	142.85
348.279	-104.96
348.491	-6.66
348.703	126.46
348.915	69.12
349.127	19.97
349.339	79.36
349.551	73.21
349.763	38.4
349.975	5.63
350.187	75.26
350.399	124.41
350.61	151.04
350.822	-6.66
351.034	19.97
351.246	73.21
351.458	81.41
351.669	136.7
351.881	75.26
352.093	142.85
352.305	142.85
352.517	54.78
352.728	116.22
352.94	60.93
353.152	54.78
353.363	-55.81
353.575	44.54
353.787	198.14
353.999	71.17
354.21	165.37
354.422	48.64
354.633	11.78
354.845	5.63
355.057	1.54
355.268	52.74
355.48	71.17
355.692	-78.33
355.903	65.02
356.115	-66.05
356.326	-115.2
356.538	175.61
356.749	36.35
356.961	54.78
357.172	19.97
357.384	-82.43
357.595	241.15
357.807	69.12
358.018	30.21
358.23	91.65
358.441	126.46
358.653	87.55
358.864	73.21
359.075	32.26
359.287	-12.8
359.498	95.74
359.709	69.12
359.921	65.02
360.132	101.89
360.344	159.23
360.555	-39.42
360.766	62.98
360.977	54.78
361.189	71.17
361.4	-0.51
361.611	124.41
361.823	126.46
362.034	46.59
362.245	-31.23
362.456	34.3
362.667	114.17
362.879	30.21
363.09	46.59
363.301	40.45
363.512	79.36
363.723	-68.09
363.935	-31.23
364.146	95.74
364.357	77.31
364.568	103.93
364.779	5.63
364.99	124.41
365.201	36.35
365.412	142.85
365.623	-43.52
365.834	144.89
366.045	17.92
366.256	75.26
366.467	69.12
366.678	50.69
366.889	56.83
367.1	-43.52
367.311	144.89
367.522	56.83
367.733	52.74
367.944	30.21
368.155	58.88
368.366	126.46
368.577	75.26
368.788	89.6
368.999	-23.04
369.209	120.32
369.42	269.82
369.631	220.67
369.842	155.13
370.053	97.79
370.264	105.98
370.474	-45.57
370.685	52.74
370.896	-25.09
371.107	124.41
371.317	71.17
371.528	26.11
371.739	155.13
371.95	120.32
372.16	-29.18
372.371	-86.53
372.582	75.26
372.792	110.08
373.003	122.37
373.214	38.4
373.424	103.93
373.635	-49.66
373.846	87.55
374.056	134.65
374.267	48.64
374.477	44.54
374.688	-37.38
374.898	5.63
375.109	124.41
375.319	112.13
375.53	110.08
375.74	124.41
375.951	30.21
376.161	67.07
376.372	165.37
376.582	32.26
376.793	32.26
377.003	69.12
377.214	13.82
377.424	87.55
377.635	36.35
377.845	-47.62
378.055	161.28
378.266	-113.15
378.476	38.4
378.686	87.55
378.897	175.61
379.107	71.17
379.317	140.8
379.528	3.58
379.738	97.79
379.948	-25.09
380.158	108.03
380.369	101.89
380.579	89.6
380.789	11.78
380.999	69.12
381.21	81.41
381.42	181.76
381.63	42.5
381.84	93.69
382.05	22.02
382.261	108.03
382.471	110.08
382.681	-8.7
382.891	140.8
383.101	38.4
383.311	1.54
383.521	5.63
383.731	85.5
383.941	81.41
384.151	69.12
384.361	-59.9
384.571	73.21
384.781	81.41
384.991	228.86
385.201	144.89
385.411	71.17
385.621	132.61
385.831	19.97
386.041	28.16
386.251	11.78
386.461	71.17
386.671	67.07
386.881	146.94
387.091	-72.19
387.301	128.51
387.511	40.45
387.72	194.05
387.93	108.03
388.14	-82.43
388.35	13.82
388.56	108.03
388.769	93.69
388.979	24.06
389.189	-51.71
389.399	124.41
389.609	124.41
389.818	85.5
390.028	71.17
390.238	73.21
390.447	-16.9
390.657	75.26
390.867	-10.75
391.076	-39.42
391.286	44.54
391.496	11.78
391.705	-33.28
391.915	81.41
392.125	114.17
392.334	-33.28
392.544	181.76
392.753	77.31
392.963	-10.75
393.172	50.69
393.382	3.58
393.591	204.28
393.801	110.08
394.01	130.56
394.22	60.93
394.429	40.45
394.639	46.59
394.848	159.23
395.058	-2.56
395.267	79.36
395.477	77.31
395.686	138.75
395.895	159.23
396.105	189.95
396.314	155.13
396.524	69.12
396.733	75.26
396.942	171.52
397.152	73.21
397.361	183.81
397.57	5.63
397.78	46.59
397.989	122.37
398.198	210.43
398.407	138.75
398.617	81.41
398.826	-10.75
399.035	-10.75
399.244	167.42
399.453	19.97
399.663	108.03
399.872	130.56
400.081	26.11
400.29	151.04
400.499	-8.7
400.708	58.88
400.917	71.17
401.127	71.17
401.336	1.54
401.545	128.51
401.754	124.41
401.963	28.16
402.172	52.74
402.381	-107.01
402.59	-6.66
402.799	101.89
403.008	134.65
403.217	146.94
403.426	134.65
403.635	-4.61
403.844	32.26
404.053	85.5
404.262	36.35
404.471	157.18
404.68	28.16
404.888	-8.7
405.097	54.78
405.306	101.89
405.515	136.7
405.724	60.93
405.933	85.5
406.142	85.5
406.35	46.59
406.559	13.82
406.768	85.5
406.977	192
407.185	93.69
407.394	159.23
407.603	-72.19
407.812	120.32
408.02	192
408.229	36.35
408.438	54.78
408.646	26.11
408.855	44.54
409.064	116.22
409.272	34.3
409.481	7.68
409.69	24.06
409.898	5.63
410.107	85.5
410.315	202.24
410.524	-55.81
410.733	44.54
410.941	-23.04
411.15	165.37
411.358	48.64
411.567	67.07
411.775	48.64
411.984	79.36
412.192	105.98
412.401	69.12
412.609	153.09
412.818	194.05
413.026	69.12
413.234	22.02
413.443	85.5
413.651	-20.99
413.86	-53.76
414.068	148.99
414.276	151.04
414.485	-2.56
414.693	169.47
414.901	271.87
415.11	-12.8
415.318	83.45
415.526	24.06
415.734	97.79
415.943	146.94
416.151	103.93
416.359	50.69
416.567	50.69
416.776	93.69
416.984	105.98
417.192	118.27
417.4	87.55
417.608	24.06
417.817	5.63
418.025	155.13
418.233	136.7
418.441	-27.14
418.649	-12.8
418.857	101.89
419.065	169.47
419.273	-25.09
419.481	157.18
419.689	73.21
419.897	40.45
420.105	87.55
420.313	60.93
420.521	167.42
420.729	181.76
420.937	56.83
421.145	-18.94
421.353	159.23
421.561	169.47
421.769	120.32
421.977	1.54
422.185	97.79
422.393	-10.75
422.601	134.65
422.809	44.54
423.017	71.17
423.224	15.87
423.432	114.17
423.64	124.41
423.848	155.13
424.056	11.78
424.263	52.74
424.471	38.4
424.679	134.65
424.887	60.93
425.094	138.75
425.302	56.83
425.51	13.82
425.718	114.17
425.925	77.31
426.133	-25.09
426.341	282.11
426.548	-41.47
426.756	73.21
426.964	153.09
427.171	-64
427.379	28.16
427.586	28.16
427.794	163.33
428.001	157.18
428.209	93.69
428.417	126.46
428.624	185.85
428.832	144.89
429.039	-6.66
429.247	13.82
429.454	116.22
429.662	210.43
429.869	155.13
430.076	138.75
430.284	179.71
430.491	204.28
430.699	187.9
430.906	247.29
431.114	171.52
431.321	165.37
431.528	144.89
431.736	173.57
431.943	118.27
432.15	134.65
432.358	232.96
432.565	333.31
432.772	40.45
432.979	259.58
433.187	192
433.394	243.2
433.601	110.08
433.808	222.72
434.016	110.08
434.223	146.94
434.43	220.67
434.637	273.92
434.844	323.07
435.052	183.81
435.259	364.03
435.466	273.92
435.673	247.29
435.88	345.59
436.087	411.13
436.294	376.31
436.501	372.22
436.708	306.68
436.915	417.27
437.122	380.41
437.329	312.83
437.537	388.6
437.743	396.79
437.95	560.63
438.157	398.84
438.364	382.46
438.571	404.99
438.778	468.47
438.985	497.14
439.192	527.86
439.399	398.84
439.606	454.14
439.813	552.44
440.02	669.17
440.227	744.95
440.433	595.45
440.64	587.26
440.847	542.2
441.054	628.21
441.261	824.82
441.467	652.79
441.674	652.79
441.881	730.61
442.088	712.18
442.294	781.81
442.501	861.68
442.708	876.02
442.914	867.83
443.121	935.41
443.328	1017.33
443.534	1043.95
443.741	966.13
443.948	880.11
444.154	1052.14
444.361	1236.46
444.568	1113.58
444.774	1144.3
444.981	1058.29
445.187	1295.85
445.394	1236.46
445.6	1187.31
445.807	1375.72
446.013	1385.96
446.22	1396.2
446.426	1576.42
446.633	1502.7
446.839	1631.72
447.046	1596.9
447.252	1770.98
447.459	1689.06
447.665	1727.97
447.871	1910.24
448.078	2055.65
448.284	2033.12
448.491	2278.88
448.697	2158.05
448.903	2350.56
449.11	2407.9
449.316	2455
449.522	2551.26
449.728	2665.94
449.935	2809.3
450.141	2647.51
450.347	3077.59
450.553	2975.19
450.76	3134.93
450.966	3274.19
451.172	3249.61
451.378	3526.09
451.584	3431.88
451.791	3734.98
451.997	3808.71
452.203	3933.64
452.409	3888.58
452.615	4097.47
452.821	3962.31
453.027	4220.35
453.233	4744.63
453.44	4588.99
453.646	4746.68
453.852	4994.48
454.058	5279.15
454.264	5260.72
454.47	5547.44
454.676	5828.01
454.882	6380.96
455.088	5985.7
455.294	6198.69
455.5	6536.6
455.705	6806.94
455.911	6981.01
456.117	7222.67
456.323	7466.38
456.529	7507.34
456.735	8168.84
456.941	8279.43
457.147	8766.84
457.352	9178.48
457.558	9143.67
457.764	9629.04
457.97	10106.21
458.176	10499.42
458.381	11081.05
458.587	11083.09
458.793	11644.24
458.999	11785.55
459.204	13010.23
459.41	13610.29
459.616	13233.46
459.821	14312.74
460.027	14624.03
460.233	15590.67
460.438	15623.44
460.644	16631.04
460.85	16428.29
461.055	17233.15
461.261	17962.22
461.466	17609.97
461.672	18017.52
461.878	20055.25
462.083	19791.06
462.289	20401.35
462.494	21060.8
462.7	21308.6
462.905	21296.32
463.111	23260.32
463.316	24468.62
463.522	24800.39
463.727	25638.01
463.932	26958.95
464.138	27526.24
464.343	28664.91
464.549	28589.13
464.754	31015.97
464.959	31427.62
465.165	32085.01
465.37	32089.11
465.575	31929.37
465.781	34186.23
465.986	35077.1
466.191	34419.7
466.397	35214.31
466.602	34132.98
466.807	36539.35
467.012	36645.84
467.218	37055.43
467.423	37323.72
467.628	38632.37
467.833	40407.96
468.038	39949.21
468.244	38769.58
468.449	40741.78
