Data from USB4F104151__71__11-31-01-663.txt Node

Date: Wed Feb 26 11:31:01 EST 2025
User: louis
Spectrometer: USB4F10415
Trigger mode: 4
Integration Time (sec): 1.000000E-1
Scans to average: 1
Electric dark correction enabled: true
Nonlinearity correction enabled: false
Boxcar width: 0
XAxis mode: Wavelengths
Number of Pixels in Spectrum: 3648
>>>>>Begin Spectral Data<<<<<
178.204	-364.88
178.424	-364.88
178.644	-364.88
178.864	-377.17
179.084	-364.88
179.304	11.95
179.524	3.75
179.744	36.52
179.964	65.19
180.184	22.19
180.404	-43.35
180.624	-16.73
180.844	7.85
181.064	-59.73
181.283	7.85
181.503	-100.69
181.723	65.19
181.943	-72.02
182.163	233.13
182.383	-0.34
182.602	67.24
182.822	218.79
183.042	52.91
183.262	11.95
183.482	5.8
183.701	18.09
183.921	124.58
184.141	-12.63
184.361	79.53
184.58	32.43
184.8	57
185.02	-67.92
185.239	97.96
185.459	30.38
185.679	73.39
185.898	-80.21
186.118	28.33
186.338	102.06
186.557	106.15
186.777	34.47
186.997	-67.92
187.216	40.62
187.436	169.64
187.655	145.06
187.875	151.21
188.095	-8.53
188.314	183.98
188.534	95.91
188.753	-31.06
188.973	50.86
189.192	171.69
189.412	63.15
189.631	75.43
189.851	50.86
190.07	204.46
190.29	-6.49
190.509	-41.3
190.729	-55.64
190.948	140.97
191.168	171.69
191.387	36.52
191.607	95.91
191.826	83.63
192.045	67.24
192.265	-10.58
192.484	122.54
192.704	73.39
192.923	-92.5
193.142	196.26
193.362	118.44
193.581	169.64
193.8	69.29
194.02	81.58
194.239	13.99
194.458	122.54
194.678	73.39
194.897	-26.96
195.116	75.43
195.335	112.3
195.555	26.28
195.774	1.71
195.993	163.5
196.212	9.9
196.432	89.77
196.651	34.47
196.87	20.14
197.089	247.46
197.308	59.05
197.528	77.48
197.747	-63.83
197.966	83.63
198.185	171.69
198.404	-4.44
198.623	120.49
198.842	126.63
199.062	140.97
199.281	36.52
199.5	26.28
199.719	34.47
199.938	83.63
200.157	38.57
200.376	91.82
200.595	57
200.814	61.1
201.033	46.76
201.252	151.21
201.471	143.02
201.69	59.05
201.909	-16.73
202.128	50.86
202.347	81.58
202.566	20.14
202.785	-45.4
203.004	52.91
203.223	253.61
203.442	-4.44
203.661	-69.97
203.879	69.29
204.098	183.98
204.317	16.04
204.536	122.54
204.755	147.11
204.974	102.06
205.193	38.57
205.411	155.3
205.63	186.02
205.849	97.96
206.068	52.91
206.287	59.05
206.505	153.26
206.724	20.14
206.943	-29.01
207.162	81.58
207.381	50.86
207.599	77.48
207.818	134.82
208.037	-24.92
208.255	-16.73
208.474	122.54
208.693	-4.44
208.911	7.85
209.13	91.82
209.349	136.87
209.567	32.43
209.786	112.3
210.005	110.25
210.223	-26.96
210.442	-37.2
210.661	48.81
210.879	63.15
211.098	50.86
211.316	108.2
211.535	118.44
211.753	118.44
211.972	134.82
212.191	11.95
212.409	48.81
212.628	110.25
212.846	63.15
213.065	63.15
213.283	87.72
213.502	110.25
213.72	114.34
213.938	34.47
214.157	16.04
214.375	124.58
214.594	-47.44
214.812	91.82
215.031	-51.54
215.249	83.63
215.467	83.63
215.686	42.67
215.904	67.24
216.122	65.19
216.341	102.06
216.559	77.48
216.778	126.63
216.996	169.64
217.214	57
217.432	28.33
217.651	28.33
217.869	-29.01
218.087	20.14
218.306	3.75
218.524	16.04
218.742	-6.49
218.96	175.78
219.179	-45.4
219.397	126.63
219.615	237.22
219.833	122.54
220.051	-2.39
220.27	114.34
220.488	106.15
220.706	61.1
220.924	24.23
221.142	77.48
221.36	30.38
221.578	28.33
221.796	36.52
222.015	132.78
222.233	75.43
222.451	155.3
222.669	-4.44
222.887	50.86
223.105	-39.25
223.323	26.28
223.541	-0.34
223.759	91.82
223.977	7.85
224.195	140.97
224.413	91.82
224.631	54.95
224.849	89.77
225.067	173.74
225.285	24.23
225.503	-14.68
225.721	-84.31
225.939	3.75
226.157	3.75
226.375	263.85
226.592	7.85
226.81	69.29
227.028	163.5
227.246	181.93
227.464	69.29
227.682	116.39
227.9	63.15
228.117	81.58
228.335	50.86
228.553	11.95
228.771	3.75
228.989	52.91
229.206	93.87
229.424	57
229.642	3.75
229.86	59.05
230.077	192.17
230.295	145.06
230.513	200.36
230.731	38.57
230.948	91.82
231.166	149.16
231.384	65.19
231.601	46.76
231.819	259.75
232.037	-6.49
232.254	-18.77
232.472	79.53
232.689	3.75
232.907	112.3
233.125	7.85
233.342	-43.35
233.56	-24.92
233.777	-47.44
233.995	63.15
234.213	18.09
234.43	149.16
234.648	26.28
234.865	-10.58
235.083	40.62
235.3	-16.73
235.518	52.91
235.735	134.82
235.953	134.82
236.17	38.57
236.388	93.87
236.605	124.58
236.822	93.87
237.04	81.58
237.257	159.4
237.475	-84.31
237.692	22.19
237.909	116.39
238.127	28.33
238.344	87.72
238.562	22.19
238.779	-59.73
238.996	-63.83
239.214	18.09
239.431	79.53
239.648	93.87
239.865	57
240.083	198.31
240.3	-6.49
240.517	28.33
240.735	75.43
240.952	143.02
241.169	97.96
241.386	32.43
241.603	75.43
241.821	-78.16
242.038	30.38
242.255	140.97
242.472	-61.78
242.689	95.91
242.907	61.1
243.124	5.8
243.341	44.71
243.558	46.76
243.775	-55.64
243.992	-61.78
244.209	122.54
244.426	130.73
244.643	116.39
244.86	20.14
245.078	145.06
245.295	36.52
245.512	20.14
245.729	44.71
245.946	13.99
246.163	32.43
246.38	30.38
246.597	54.95
246.814	91.82
247.031	26.28
247.248	69.29
247.464	95.91
247.681	153.26
247.898	73.39
248.115	79.53
248.332	16.04
248.549	145.06
248.766	188.07
248.983	65.19
249.2	89.77
249.417	192.17
249.633	5.8
249.85	42.67
250.067	30.38
250.284	13.99
250.501	91.82
250.717	73.39
250.934	-45.4
251.151	38.57
251.368	69.29
251.585	24.23
251.801	138.92
252.018	-45.4
252.235	145.06
252.451	11.95
252.668	42.67
252.885	149.16
253.102	77.48
253.318	102.06
253.535	7.85
253.752	20.14
253.968	112.3
254.185	-108.88
254.401	89.77
254.618	-2.39
254.835	1.71
255.051	153.26
255.268	63.15
255.484	81.58
255.701	7.85
255.917	181.93
256.134	-41.3
256.351	52.91
256.567	-12.63
256.784	26.28
257	-88.4
257.217	85.67
257.433	65.19
257.65	36.52
257.866	104.11
258.082	-24.92
258.299	61.1
258.515	38.57
258.732	-4.44
258.948	7.85
259.165	106.15
259.381	-78.16
259.597	63.15
259.814	-4.44
260.03	-4.44
260.246	-12.63
260.463	147.11
260.679	147.11
260.895	44.71
261.112	83.63
261.328	67.24
261.544	-69.97
261.761	239.27
261.977	46.76
262.193	18.09
262.409	93.87
262.626	71.34
262.842	50.86
263.058	-24.92
263.274	112.3
263.49	75.43
263.707	118.44
263.923	69.29
264.139	-45.4
264.355	120.49
264.571	91.82
264.787	167.59
265.004	83.63
265.22	5.8
265.436	24.23
265.652	36.52
265.868	69.29
266.084	-8.53
266.3	69.29
266.516	-18.77
266.732	102.06
266.948	36.52
267.164	-20.82
267.38	83.63
267.596	81.58
267.812	224.94
268.028	26.28
268.244	-16.73
268.46	120.49
268.676	24.23
268.892	20.14
269.108	-35.16
269.324	50.86
269.54	-0.34
269.756	73.39
269.972	-26.96
270.188	22.19
270.403	26.28
270.619	24.23
270.835	85.67
271.051	26.28
271.267	34.47
271.483	-4.44
271.698	28.33
271.914	28.33
272.13	38.57
272.346	18.09
272.562	136.87
272.777	183.98
272.993	9.9
273.209	81.58
273.425	173.74
273.64	-67.92
273.856	52.91
274.072	-24.92
274.287	20.14
274.503	79.53
274.719	79.53
274.934	-24.92
275.15	30.38
275.366	50.86
275.581	16.04
275.797	16.04
276.012	110.25
276.228	91.82
276.444	89.77
276.659	85.67
276.875	-10.58
277.09	30.38
277.306	1.71
277.521	54.95
277.737	28.33
277.952	81.58
278.168	59.05
278.383	106.15
278.599	28.33
278.814	126.63
279.03	79.53
279.245	169.64
279.461	81.58
279.676	120.49
279.892	-24.92
280.107	5.8
280.322	81.58
280.538	130.73
280.753	52.91
280.969	-10.58
281.184	40.62
281.399	110.25
281.615	11.95
281.83	97.96
282.045	-98.64
282.26	59.05
282.476	46.76
282.691	34.47
282.906	100.01
283.122	50.86
283.337	34.47
283.552	79.53
283.767	-6.49
283.983	44.71
284.198	114.34
284.413	104.11
284.628	7.85
284.843	38.57
285.058	192.17
285.274	54.95
285.489	-20.82
285.704	155.3
285.919	52.91
286.134	48.81
286.349	-35.16
286.564	-2.39
286.779	255.65
286.995	48.81
287.21	13.99
287.425	65.19
287.64	65.19
287.855	104.11
288.07	-96.6
288.285	118.44
288.5	124.58
288.715	108.2
288.93	-2.39
289.145	1.71
289.36	81.58
289.575	-108.88
289.79	110.25
290.004	28.33
290.219	130.73
290.434	40.62
290.649	18.09
290.864	-61.78
291.079	83.63
291.294	-0.34
291.509	95.91
291.724	-22.87
291.938	-0.34
292.153	30.38
292.368	48.81
292.583	77.48
292.798	57
293.012	36.52
293.227	83.63
293.442	-20.82
293.657	85.67
293.871	122.54
294.086	30.38
294.301	155.3
294.516	67.24
294.73	22.19
294.945	-16.73
295.16	-2.39
295.374	124.58
295.589	153.26
295.804	-10.58
296.018	97.96
296.233	40.62
296.447	67.24
296.662	61.1
296.877	159.4
297.091	93.87
297.306	-57.68
297.52	20.14
297.735	30.38
297.949	18.09
298.164	5.8
298.378	71.34
298.593	-8.53
298.807	26.28
299.022	61.1
299.236	210.6
299.451	102.06
299.665	24.23
299.88	87.72
300.094	75.43
300.309	42.67
300.523	34.47
300.737	7.85
300.952	106.15
301.166	100.01
301.381	28.33
301.595	18.09
301.809	59.05
302.024	108.2
302.238	-49.49
302.452	138.92
302.667	52.91
302.881	224.94
303.095	100.01
303.309	65.19
303.524	-59.73
303.738	-65.88
303.952	-33.11
304.166	65.19
304.381	-14.68
304.595	110.25
304.809	73.39
305.023	44.71
305.237	22.19
305.452	13.99
305.666	16.04
305.88	83.63
306.094	77.48
306.308	83.63
306.522	145.06
306.736	83.63
306.95	85.67
307.164	73.39
307.379	57
307.593	261.8
307.807	167.59
308.021	75.43
308.235	59.05
308.449	-31.06
308.663	36.52
308.877	220.84
309.091	-24.92
309.305	97.96
309.519	-0.34
309.733	104.11
309.947	-119.12
310.161	97.96
310.374	75.43
310.588	128.68
310.802	-22.87
311.016	-22.87
311.23	13.99
311.444	50.86
311.658	52.91
311.872	200.36
312.085	116.39
312.299	177.83
312.513	143.02
312.727	28.33
312.941	-2.39
313.154	89.77
313.368	85.67
313.582	46.76
313.796	18.09
314.009	50.86
314.223	186.02
314.437	85.67
314.651	91.82
314.864	-47.44
315.078	79.53
315.292	-24.92
315.505	42.67
315.719	91.82
315.933	63.15
316.146	71.34
316.36	-47.44
316.573	118.44
316.787	147.11
317.001	61.1
317.214	-4.44
317.428	79.53
317.641	30.38
317.855	26.28
318.068	71.34
318.282	-45.4
318.495	192.17
318.709	81.58
318.922	-45.4
319.136	95.91
319.349	112.3
319.563	-10.58
319.776	-2.39
319.99	-10.58
320.203	63.15
320.417	3.75
320.63	118.44
320.843	183.98
321.057	116.39
321.27	20.14
321.483	132.78
321.697	161.45
321.91	38.57
322.124	87.72
322.337	120.49
322.55	13.99
322.763	77.48
322.977	-4.44
323.19	52.91
323.403	75.43
323.617	59.05
323.83	77.48
324.043	-0.34
324.256	20.14
324.469	52.91
324.683	177.83
324.896	77.48
325.109	1.71
325.322	-43.35
325.535	95.91
325.748	140.97
325.962	63.15
326.175	71.34
326.388	136.87
326.601	73.39
326.814	48.81
327.027	106.15
327.24	153.26
327.453	-84.31
327.666	54.95
327.879	163.5
328.092	145.06
328.305	57
328.518	-0.34
328.731	-35.16
328.944	20.14
329.157	112.3
329.37	-8.53
329.583	128.68
329.796	134.82
330.009	-24.92
330.222	102.06
330.435	97.96
330.648	81.58
330.861	167.59
331.073	83.63
331.286	167.59
331.499	73.39
331.712	-49.49
331.925	91.82
332.138	9.9
332.35	155.3
332.563	-49.49
332.776	188.07
332.989	-72.02
333.202	-0.34
333.414	69.29
333.627	-4.44
333.84	7.85
334.053	89.77
334.265	24.23
334.478	-24.92
334.691	30.38
334.903	38.57
335.116	40.62
335.329	104.11
335.541	79.53
335.754	126.63
335.966	11.95
336.179	13.99
336.392	61.1
336.604	28.33
336.817	28.33
337.029	52.91
337.242	116.39
337.454	77.48
337.667	132.78
337.88	134.82
338.092	112.3
338.305	24.23
338.517	-16.73
338.729	132.78
338.942	149.16
339.154	7.85
339.367	-51.54
339.579	71.34
339.792	-20.82
340.004	83.63
340.217	-0.34
340.429	67.24
340.641	-20.82
340.854	-6.49
341.066	-4.44
341.278	122.54
341.491	100.01
341.703	9.9
341.915	-31.06
342.128	128.68
342.34	65.19
342.552	52.91
342.764	73.39
342.977	81.58
343.189	7.85
343.401	59.05
343.613	9.9
343.826	71.34
344.038	-37.2
344.25	71.34
344.462	-45.4
344.674	104.11
344.886	57
345.099	26.28
345.311	-35.16
345.523	5.8
345.735	-45.4
345.947	11.95
346.159	57
346.371	54.95
346.583	73.39
346.795	175.78
347.007	20.14
347.219	69.29
347.431	5.8
347.643	67.24
347.855	128.68
348.067	100.01
348.279	-72.02
348.491	77.48
348.703	183.98
348.915	-4.44
349.127	7.85
349.339	26.28
349.551	-0.34
349.763	208.55
349.975	11.95
350.187	138.92
350.399	194.22
350.61	173.74
350.822	65.19
351.034	73.39
351.246	1.71
351.458	75.43
351.669	61.1
351.881	128.68
352.093	100.01
352.305	136.87
352.517	50.86
352.728	67.24
352.94	59.05
353.152	57
353.363	-0.34
353.575	91.82
353.787	161.45
353.999	61.1
354.21	186.02
354.422	89.77
354.633	36.52
354.845	-2.39
355.057	34.47
355.268	73.39
355.48	81.58
355.692	-4.44
355.903	24.23
356.115	-6.49
356.326	-69.97
356.538	194.22
356.749	89.77
356.961	202.41
357.172	85.67
357.384	-82.26
357.595	222.89
357.807	-12.63
358.018	52.91
358.23	50.86
358.441	151.21
358.653	85.67
358.864	44.71
359.075	-16.73
359.287	1.71
359.498	112.3
359.709	118.44
359.921	79.53
360.132	140.97
360.344	44.71
360.555	-35.16
360.766	95.91
360.977	38.57
361.189	108.2
361.4	-24.92
361.611	91.82
361.823	175.78
362.034	32.43
362.245	-80.21
362.456	73.39
362.667	124.58
362.879	48.81
363.09	73.39
363.301	22.19
363.512	81.58
363.723	28.33
363.935	42.67
364.146	130.73
364.357	20.14
364.568	52.91
364.779	28.33
364.99	161.45
365.201	-63.83
365.412	126.63
365.623	-74.07
365.834	18.09
366.045	57
366.256	46.76
366.467	63.15
366.678	13.99
366.889	71.34
367.1	18.09
367.311	83.63
367.522	42.67
367.733	145.06
367.944	93.87
368.155	57
368.366	65.19
368.577	81.58
368.788	120.49
368.999	-4.44
369.209	128.68
369.42	222.89
369.631	233.13
369.842	110.25
370.053	28.33
370.264	89.77
370.474	-14.68
370.685	1.71
370.896	63.15
371.107	69.29
371.317	122.54
371.528	22.19
371.739	89.77
371.95	97.96
372.16	63.15
372.371	-49.49
372.582	-82.26
372.792	138.92
373.003	95.91
373.214	91.82
373.424	106.15
373.635	-29.01
373.846	122.54
374.056	7.85
374.267	97.96
374.477	48.81
374.688	7.85
374.898	-18.77
375.109	13.99
375.319	40.62
375.53	190.12
375.74	134.82
375.951	108.2
376.161	128.68
376.372	134.82
376.582	24.23
376.793	161.45
377.003	61.1
377.214	-65.88
377.424	157.35
377.635	112.3
377.845	5.8
378.055	143.02
378.266	-39.25
378.476	-16.73
378.686	97.96
378.897	87.72
379.107	124.58
379.317	149.16
379.528	77.48
379.738	77.48
379.948	-49.49
380.158	118.44
380.369	71.34
380.579	93.87
380.789	3.75
380.999	42.67
381.21	11.95
381.42	179.88
381.63	-2.39
381.84	69.29
382.05	87.72
382.261	134.82
382.471	126.63
382.681	5.8
382.891	110.25
383.101	75.43
383.311	44.71
383.521	-20.82
383.731	210.6
383.941	130.73
384.151	11.95
384.361	132.78
384.571	32.43
384.781	87.72
384.991	97.96
385.201	241.32
385.411	140.97
385.621	79.53
385.831	34.47
386.041	118.44
386.251	95.91
386.461	157.35
386.671	-8.53
386.881	-33.11
387.091	-4.44
387.301	132.78
387.511	54.95
387.72	151.21
387.93	102.06
388.14	-63.83
388.35	130.73
388.56	93.87
388.769	147.11
388.979	85.67
389.189	-12.63
389.399	-12.63
389.609	89.77
389.818	136.87
390.028	85.67
390.238	114.34
390.447	20.14
390.657	93.87
390.867	-10.58
391.076	18.09
391.286	61.1
391.496	18.09
391.705	26.28
391.915	167.59
392.125	159.4
392.334	-18.77
392.544	130.73
392.753	52.91
392.963	-14.68
393.172	104.11
393.382	36.52
393.591	167.59
393.801	-8.53
394.01	145.06
394.22	106.15
394.429	145.06
394.639	11.95
394.848	63.15
395.058	145.06
395.267	7.85
395.477	136.87
395.686	67.24
395.895	171.69
396.105	149.16
396.314	42.67
396.524	34.47
396.733	22.19
396.942	204.46
397.152	136.87
397.361	149.16
397.57	83.63
397.78	54.95
397.989	59.05
398.198	192.17
398.407	-4.44
398.617	67.24
398.826	112.3
399.035	-49.49
399.244	95.91
399.453	48.81
399.663	48.81
399.872	52.91
400.081	-41.3
400.29	97.96
400.499	-41.3
400.708	124.58
400.917	22.19
401.127	20.14
401.336	44.71
401.545	181.93
401.754	106.15
401.963	118.44
402.172	9.9
402.381	28.33
402.59	-69.97
402.799	63.15
403.008	202.41
403.217	59.05
403.426	85.67
403.635	-59.73
403.844	73.39
404.053	20.14
404.262	93.87
404.471	161.45
404.68	81.58
404.888	112.3
405.097	30.38
405.306	18.09
405.515	120.49
405.724	65.19
405.933	147.11
406.142	132.78
406.35	124.58
406.559	67.24
406.768	102.06
406.977	171.69
407.185	77.48
407.394	100.01
407.603	-37.2
407.812	-0.34
408.02	153.26
408.229	79.53
408.438	65.19
408.646	-67.92
408.855	1.71
409.064	73.39
409.272	100.01
409.481	151.21
409.69	54.95
409.898	-63.83
410.107	120.49
410.315	192.17
410.524	104.11
410.733	50.86
410.941	48.81
411.15	89.77
411.358	108.2
411.567	100.01
411.775	73.39
411.984	26.28
412.192	140.97
412.401	22.19
412.609	218.79
412.818	102.06
413.026	71.34
413.234	42.67
413.443	20.14
413.651	-33.11
413.86	69.29
414.068	147.11
414.276	190.12
414.485	-16.73
414.693	147.11
414.901	231.08
415.11	75.43
415.318	34.47
415.526	87.72
415.734	100.01
415.943	32.43
416.151	190.12
416.359	32.43
416.567	13.99
416.776	110.25
416.984	108.2
417.192	161.45
417.4	-67.92
417.608	13.99
417.817	-63.83
418.025	36.52
418.233	175.78
418.441	-72.02
418.649	-29.01
418.857	91.82
419.065	145.06
419.273	52.91
419.481	73.39
419.689	97.96
419.897	-39.25
420.105	77.48
420.313	145.06
420.521	61.1
420.729	91.82
420.937	-49.49
421.145	-8.53
421.353	102.06
421.561	167.59
421.769	97.96
421.977	46.76
422.185	128.68
422.393	32.43
422.601	126.63
422.809	81.58
423.017	16.04
423.224	-39.25
423.432	179.88
423.64	38.57
423.848	200.36
424.056	-20.82
424.263	30.38
424.471	93.87
424.679	183.98
424.887	-80.21
425.094	145.06
425.302	97.96
425.51	108.2
425.718	159.4
425.925	48.81
426.133	18.09
426.341	259.75
426.548	54.95
426.756	26.28
426.964	206.5
427.171	48.81
427.379	57
427.586	54.95
427.794	91.82
428.001	67.24
428.209	30.38
428.417	114.34
428.624	89.77
428.832	167.59
429.039	102.06
429.247	95.91
429.454	212.65
429.662	179.88
429.869	83.63
430.076	50.86
430.284	114.34
430.491	177.83
430.699	116.39
430.906	186.02
431.114	126.63
431.321	138.92
431.528	26.28
431.736	183.98
431.943	1.71
432.15	143.02
432.358	276.13
432.565	222.89
432.772	26.28
432.979	231.08
433.187	122.54
433.394	145.06
433.601	190.12
433.808	181.93
434.016	212.65
434.223	179.88
434.43	118.44
434.637	296.61
434.844	159.4
435.052	159.4
435.259	169.64
435.466	181.93
435.673	165.54
435.88	288.42
436.087	251.56
436.294	267.94
436.501	241.32
436.708	237.22
436.915	208.55
437.122	321.19
437.329	145.06
437.537	288.42
437.743	243.37
437.95	360.1
438.157	245.41
438.364	319.14
438.571	335.53
438.778	327.33
438.985	321.19
439.192	370.34
439.399	276.13
439.606	407.2
439.813	347.81
440.02	464.55
440.227	552.61
440.433	485.03
440.64	317.09
440.847	407.2
441.054	405.16
441.261	532.13
441.467	405.16
441.674	462.5
441.881	558.75
442.088	415.4
442.294	560.8
442.501	583.33
442.708	655.01
442.914	489.12
443.121	640.67
443.328	687.78
443.534	726.69
443.741	599.71
443.948	485.03
444.154	749.22
444.361	931.48
444.568	794.27
444.774	804.51
444.981	679.58
445.187	906.91
445.394	794.27
445.6	843.42
445.807	984.73
446.013	839.33
446.22	827.04
446.426	1037.98
446.633	1097.37
446.839	1201.82
447.046	1001.12
447.252	1119.9
447.459	1191.58
447.665	1259.16
447.871	1304.21
448.078	1509.01
448.284	1343.13
448.491	1412.76
448.697	1470.1
448.903	1580.69
449.11	1488.53
449.316	1543.83
449.522	1722
449.728	1799.82
449.935	1863.31
450.141	1812.11
450.347	2016.91
450.553	1957.52
450.76	2035.34
450.966	2074.25
451.172	2262.66
451.378	2197.13
451.584	2272.9
451.791	2522.76
451.997	2612.87
452.203	2594.44
452.409	2745.98
452.615	2903.68
452.821	2829.95
453.027	2705.03
453.233	3288.7
453.44	3071.61
453.646	3057.28
453.852	3380.86
454.058	3526.26
454.264	3554.93
454.47	3694.19
454.676	3804.78
454.882	4218.47
455.088	3860.08
455.294	4200.04
455.5	4492.9
455.705	4769.38
455.911	4865.63
456.117	5008.99
456.323	5228.12
456.529	4968.03
456.735	5451.35
456.941	5604.95
457.147	5787.22
457.352	6028.88
457.558	6278.73
457.764	6708.8
457.97	6780.48
458.176	7024.19
458.381	7378.49
458.587	7542.33
458.793	7964.21
458.999	7798.32
459.204	8969.76
459.41	9178.65
459.616	9096.74
459.821	9670.17
460.027	10077.71
460.233	10456.59
460.438	10456.59
460.644	11021.83
460.85	11292.16
461.055	11693.56
461.261	12080.63
461.466	12140.02
461.672	12266.99
461.878	13782.49
462.083	13602.27
462.289	14038.48
462.494	14304.72
462.7	14370.26
462.905	14730.7
463.111	15969.72
463.316	16893.35
463.522	16938.41
463.727	17667.49
463.932	18085.27
464.138	18845.07
464.343	19303.81
464.549	19441.03
464.754	21005.67
464.959	21497.19
465.165	22136.15
465.37	21785.95
465.575	21654.88
465.781	23086.41
465.986	23579.97
466.191	23518.53
466.397	24042.81
466.602	23346.5
466.807	24583.48
467.012	24952.11
467.218	25359.66
467.423	25328.94
467.628	26107.16
467.833	27360.52
468.038	26909.97
468.244	26363.16
468.449	27487.5
468.654	27043.09
468.859	27385.1
