Data from USB4F104151__39__10-24-52-637.txt Node

Date: Wed Feb 26 10:24:52 EST 2025
User: louis
Spectrometer: USB4F10415
Trigger mode: 4
Integration Time (sec): 1.000000E-1
Scans to average: 1
Electric dark correction enabled: true
Nonlinearity correction enabled: false
Boxcar width: 0
XAxis mode: Wavelengths
Number of Pixels in Spectrum: 3648
>>>>>Begin Spectral Data<<<<<
178.204	-358.57
178.424	-358.57
178.644	-358.57
178.864	-372.9
179.084	-350.37
179.304	-0.17
179.524	-28.84
179.744	-12.46
179.964	67.41
180.184	8.02
180.404	77.65
180.624	26.45
180.844	-94.38
181.064	-108.71
181.283	51.03
181.503	-16.55
181.723	30.55
181.943	-61.61
182.163	184.15
182.383	-8.36
182.602	26.45
182.822	132.95
183.042	67.41
183.262	-20.65
183.482	-18.6
183.701	112.47
183.921	53.08
184.141	-73.9
184.361	8.02
184.58	89.94
184.8	30.55
185.02	20.31
185.239	135
185.459	143.19
185.679	173.91
185.898	-90.28
186.118	65.36
186.338	110.42
186.557	194.39
186.777	10.07
186.997	112.47
187.216	61.27
187.436	167.76
187.655	61.27
187.875	36.69
188.095	12.12
188.314	227.15
188.534	94.04
188.753	-49.32
188.973	26.45
189.192	163.67
189.412	-20.65
189.631	12.12
189.851	36.69
190.07	120.66
190.29	34.64
190.509	3.93
190.729	-43.18
190.948	135
191.168	284.5
191.387	65.36
191.607	85.84
191.826	96.08
192.045	59.22
192.265	61.27
192.484	-10.41
192.704	-61.61
192.923	-82.09
193.142	128.85
193.362	157.52
193.581	175.95
193.8	24.4
194.02	94.04
194.239	8.02
194.458	12.12
194.678	71.51
194.897	-32.94
195.116	104.28
195.335	108.37
195.555	26.45
195.774	22.36
195.993	63.32
196.212	32.6
196.432	16.21
196.651	-22.7
196.87	-18.6
197.089	178
197.308	36.69
197.528	34.64
197.747	-86.19
197.966	110.42
198.185	128.85
198.404	5.97
198.623	48.98
198.842	81.75
199.062	44.88
199.281	67.41
199.5	44.88
199.719	85.84
199.938	85.84
200.157	89.94
200.376	40.79
200.595	91.99
200.814	44.88
201.033	38.74
201.252	116.56
201.471	55.12
201.69	98.13
201.909	28.5
202.128	77.65
202.347	104.28
202.566	12.12
202.785	-45.23
203.004	-20.65
203.223	202.58
203.442	-34.99
203.661	-26.79
203.879	18.26
204.098	116.56
204.317	32.6
204.536	122.71
204.755	63.32
204.974	145.24
205.193	40.79
205.411	198.48
205.63	126.8
205.849	69.46
206.068	-4.27
206.287	-0.17
206.505	81.75
206.724	34.64
206.943	5.97
207.162	-2.22
207.381	89.94
207.599	14.17
207.818	16.21
208.037	-28.84
208.255	24.4
208.474	87.89
208.693	59.22
208.911	8.02
209.13	118.61
209.349	83.8
209.567	75.6
209.786	75.6
210.005	83.8
210.223	36.69
210.442	-143.53
210.661	1.88
210.879	-2.22
211.098	34.64
211.316	73.56
211.535	79.7
211.753	69.46
211.972	75.6
212.191	-22.7
212.409	46.93
212.628	130.9
212.846	-41.13
213.065	59.22
213.283	165.71
213.502	-55.47
213.72	67.41
213.938	116.56
214.157	-41.13
214.375	143.19
214.594	98.13
214.812	94.04
215.031	-69.8
215.249	46.93
215.467	59.22
215.686	69.46
215.904	108.37
216.122	79.7
216.341	153.43
216.559	85.84
216.778	110.42
216.996	159.57
217.214	12.12
217.432	38.74
217.651	-14.51
217.869	53.08
218.087	38.74
218.306	12.12
218.524	48.98
218.742	53.08
218.96	122.71
219.179	-8.36
219.397	63.32
219.615	307.02
219.833	165.71
220.051	-57.51
220.27	73.56
220.488	96.08
220.706	59.22
220.924	-4.27
221.142	-41.13
221.36	69.46
221.578	149.33
221.796	-10.41
222.015	40.79
222.233	40.79
222.451	128.85
222.669	-57.51
222.887	108.37
223.105	-0.17
223.323	46.93
223.541	-8.36
223.759	81.75
223.977	53.08
224.195	255.83
224.413	91.99
224.631	36.69
224.849	-28.84
225.067	153.43
225.285	28.5
225.503	-41.13
225.721	-65.71
225.939	-4.27
226.157	79.7
226.375	241.49
226.592	-8.36
226.81	32.6
227.028	143.19
227.246	180.05
227.464	106.32
227.682	157.52
227.9	116.56
228.117	22.36
228.335	48.98
228.553	28.5
228.771	36.69
228.989	-51.37
229.206	73.56
229.424	14.17
229.642	59.22
229.86	-34.99
230.077	225.11
230.295	18.26
230.513	110.42
230.731	132.95
230.948	85.84
231.166	210.77
231.384	18.26
231.601	-0.17
231.819	196.43
232.037	28.5
232.254	-20.65
232.472	22.36
232.689	96.08
232.907	83.8
233.125	-51.37
233.342	-8.36
233.56	-22.7
233.777	-37.03
233.995	22.36
234.213	40.79
234.43	102.23
234.648	94.04
234.865	79.7
235.083	48.98
235.3	26.45
235.518	122.71
235.735	139.09
235.953	81.75
236.17	65.36
236.388	-4.27
236.605	16.21
236.822	79.7
237.04	149.33
237.257	102.23
237.475	-30.89
237.692	-8.36
237.909	26.45
238.127	26.45
238.344	81.75
238.562	40.79
238.779	-57.51
238.996	10.07
239.214	-32.94
239.431	40.79
239.648	-32.94
239.865	112.47
240.083	85.84
240.3	73.56
240.517	-41.13
240.735	48.98
240.952	147.28
241.169	48.98
241.386	42.84
241.603	44.88
241.821	-2.22
242.038	118.61
242.255	116.56
242.472	22.36
242.689	87.89
242.907	40.79
243.124	98.13
243.341	48.98
243.558	20.31
243.775	-37.03
243.992	-47.27
244.209	83.8
244.426	188.24
244.643	169.81
244.86	73.56
245.078	98.13
245.295	102.23
245.512	36.69
245.729	12.12
245.946	122.71
246.163	30.55
246.38	-43.18
246.597	3.93
246.814	3.93
247.031	20.31
247.248	55.12
247.464	126.8
247.681	38.74
247.898	79.7
248.115	61.27
248.332	20.31
248.549	108.37
248.766	120.66
248.983	106.32
249.2	71.51
249.417	147.28
249.633	-0.17
249.85	120.66
250.067	20.31
250.284	79.7
250.501	53.08
250.717	75.6
250.934	32.6
251.151	36.69
251.368	40.79
251.585	42.84
251.801	104.28
252.018	-4.27
252.235	73.56
252.451	-32.94
252.668	-6.31
252.885	69.46
253.102	79.7
253.318	-69.8
253.535	75.6
253.752	-10.41
253.968	18.26
254.185	-34.99
254.401	-10.41
254.618	91.99
254.835	-37.03
255.051	151.38
255.268	98.13
255.484	10.07
255.701	36.69
255.917	34.64
256.134	-59.56
256.351	79.7
256.567	-59.56
256.784	26.45
257	16.21
257.217	118.61
257.433	51.03
257.65	32.6
257.866	132.95
258.082	10.07
258.299	69.46
258.515	18.26
258.732	42.84
258.948	-14.51
259.165	110.42
259.381	46.93
259.597	44.88
259.814	85.84
260.03	3.93
260.246	24.4
260.463	116.56
260.679	126.8
260.895	122.71
261.112	89.94
261.328	61.27
261.544	-55.47
261.761	216.91
261.977	-30.89
262.193	-53.42
262.409	79.7
262.626	-2.22
262.842	20.31
263.058	-24.75
263.274	83.8
263.49	38.74
263.707	130.9
263.923	77.65
264.139	-16.55
264.355	73.56
264.571	61.27
264.787	53.08
265.004	116.56
265.22	8.02
265.436	28.5
265.652	65.36
265.868	63.32
266.084	-14.51
266.3	67.41
266.516	40.79
266.732	48.98
266.948	57.17
267.164	26.45
267.38	227.15
267.596	53.08
267.812	110.42
268.028	57.17
268.244	16.21
268.46	104.28
268.676	-37.03
268.892	63.32
269.108	-8.36
269.324	-96.43
269.54	-49.32
269.756	57.17
269.972	-22.7
270.188	-26.79
270.403	-20.65
270.619	36.69
270.835	77.65
271.051	-18.6
271.267	12.12
271.483	34.64
271.698	106.32
271.914	55.12
272.13	-37.03
272.346	-2.22
272.562	114.52
272.777	130.9
272.993	-6.31
273.209	42.84
273.425	85.84
273.64	-12.46
273.856	114.52
274.072	14.17
274.287	-24.75
274.503	126.8
274.719	48.98
274.934	-30.89
275.15	-90.28
275.366	20.31
275.581	3.93
275.797	-6.31
276.012	32.6
276.228	48.98
276.444	22.36
276.659	155.47
276.875	-28.84
277.09	59.22
277.306	22.36
277.521	24.4
277.737	40.79
277.952	81.75
278.168	69.46
278.383	5.97
278.599	-16.55
278.814	104.28
279.03	61.27
279.245	141.14
279.461	55.12
279.676	16.21
279.892	48.98
280.107	-22.7
280.322	10.07
280.538	18.26
280.753	-2.22
280.969	96.08
281.184	42.84
281.399	161.62
281.615	79.7
281.83	65.36
282.045	1.88
282.26	-22.7
282.476	-22.7
282.691	73.56
282.906	71.51
283.122	57.17
283.337	-41.13
283.552	61.27
283.767	40.79
283.983	122.71
284.198	-24.75
284.413	32.6
284.628	-4.27
284.843	116.56
285.058	87.89
285.274	-14.51
285.489	34.64
285.704	89.94
285.919	-49.32
286.134	-24.75
286.349	61.27
286.564	14.17
286.779	145.24
286.995	-41.13
287.21	-112.81
287.425	118.61
287.64	-4.27
287.855	75.6
288.07	-51.37
288.285	69.46
288.5	77.65
288.715	28.5
288.93	-2.22
289.145	77.65
289.36	118.61
289.575	8.02
289.79	178
290.004	48.98
290.219	94.04
290.434	-6.31
290.649	-41.13
290.864	-20.65
291.079	-55.47
291.294	59.22
291.509	89.94
291.724	-28.84
291.938	28.5
292.153	169.81
292.368	-73.9
292.583	-47.27
292.798	126.8
293.012	-16.55
293.227	69.46
293.442	71.51
293.657	26.45
293.871	61.27
294.086	-10.41
294.301	180.05
294.516	130.9
294.73	116.56
294.945	20.31
295.16	-41.13
295.374	106.32
295.589	161.62
295.804	5.97
296.018	85.84
296.233	108.37
296.447	-8.36
296.662	36.69
296.877	143.19
297.091	18.26
297.306	48.98
297.52	26.45
297.735	26.45
297.949	-6.31
298.164	122.71
298.378	65.36
298.593	34.64
298.807	-6.31
299.022	40.79
299.236	190.29
299.451	42.84
299.665	-0.17
299.88	14.17
300.094	32.6
300.309	24.4
300.523	67.41
300.737	-43.18
300.952	40.79
301.166	149.33
301.381	28.5
301.595	36.69
301.809	24.4
302.024	73.56
302.238	-37.03
302.452	120.66
302.667	8.02
302.881	108.37
303.095	108.37
303.309	98.13
303.524	5.97
303.738	10.07
303.952	-4.27
304.166	89.94
304.381	-67.75
304.595	75.6
304.809	59.22
305.023	36.69
305.237	75.6
305.452	-6.31
305.666	32.6
305.88	79.7
306.094	40.79
306.308	77.65
306.522	69.46
306.736	112.47
306.95	89.94
307.164	32.6
307.379	32.6
307.593	180.05
307.807	77.65
308.021	73.56
308.235	106.32
308.449	-61.61
308.663	46.93
308.877	225.11
309.091	67.41
309.305	38.74
309.519	-41.13
309.733	77.65
309.947	-8.36
310.161	59.22
310.374	81.75
310.588	96.08
310.802	-18.6
311.016	-14.51
311.23	85.84
311.444	-20.65
311.658	-30.89
311.872	159.57
312.085	132.95
312.299	120.66
312.513	163.67
312.727	69.46
312.941	-22.7
313.154	61.27
313.368	-69.8
313.582	10.07
313.796	36.69
314.009	38.74
314.223	89.94
314.437	63.32
314.651	124.76
314.864	40.79
315.078	-8.36
315.292	-55.47
315.505	83.8
315.719	59.22
315.933	36.69
316.146	-75.95
316.36	-12.46
316.573	169.81
316.787	91.99
317.001	-49.32
317.214	-34.99
317.428	63.32
317.641	-59.56
317.855	18.26
318.068	81.75
318.282	94.04
318.495	83.8
318.709	-32.94
318.922	28.5
319.136	151.38
319.349	151.38
319.563	36.69
319.776	96.08
319.99	-57.51
320.203	79.7
320.417	3.93
320.63	16.21
320.843	122.71
321.057	1.88
321.27	24.4
321.483	126.8
321.697	124.76
321.91	-0.17
322.124	57.17
322.337	83.8
322.55	5.97
322.763	85.84
322.977	40.79
323.19	40.79
323.403	-20.65
323.617	1.88
323.83	114.52
324.043	-4.27
324.256	22.36
324.469	-53.42
324.683	79.7
324.896	24.4
325.109	40.79
325.322	-121
325.535	122.71
325.748	139.09
325.962	-26.79
326.175	42.84
326.388	91.99
326.601	83.8
326.814	-45.23
327.027	40.79
327.24	200.53
327.453	-41.13
327.666	73.56
327.879	108.37
328.092	132.95
328.305	69.46
328.518	-59.56
328.731	-16.55
328.944	32.6
329.157	69.46
329.37	135
329.583	253.78
329.796	221.01
330.009	-8.36
330.222	75.6
330.435	91.99
330.648	-16.55
330.861	73.56
331.073	122.71
331.286	114.52
331.499	69.46
331.712	-8.36
331.925	16.21
332.138	79.7
332.35	81.75
332.563	55.12
332.776	96.08
332.989	-67.75
333.202	-8.36
333.414	14.17
333.627	20.31
333.84	91.99
334.053	91.99
334.265	-55.47
334.478	-24.75
334.691	61.27
334.903	69.46
335.116	-14.51
335.329	10.07
335.541	85.84
335.754	153.43
335.966	-59.56
336.179	18.26
336.392	85.84
336.604	85.84
336.817	67.41
337.029	-24.75
337.242	-16.55
337.454	73.56
337.667	71.51
337.88	149.33
338.092	71.51
338.305	36.69
338.517	16.21
338.729	85.84
338.942	106.32
339.154	-77.99
339.367	40.79
339.579	75.6
339.792	-30.89
340.004	108.37
340.217	14.17
340.429	51.03
340.641	22.36
340.854	-30.89
341.066	36.69
341.278	110.42
341.491	100.18
341.703	53.08
341.915	-28.84
342.128	87.89
342.34	30.55
342.552	10.07
342.764	-2.22
342.977	-8.36
343.189	96.08
343.401	57.17
343.613	-41.13
343.826	44.88
344.038	-10.41
344.25	53.08
344.462	3.93
344.674	-8.36
344.886	8.02
345.099	10.07
345.311	85.84
345.523	-14.51
345.735	-94.38
345.947	77.65
346.159	59.22
346.371	46.93
346.583	34.64
346.795	200.53
347.007	38.74
347.219	89.94
347.431	-0.17
347.643	108.37
347.855	3.93
348.067	126.8
348.279	28.5
348.491	100.18
348.703	77.65
348.915	61.27
349.127	-88.23
349.339	10.07
349.551	-34.99
349.763	106.32
349.975	-30.89
350.187	94.04
350.399	175.95
350.61	48.98
350.822	-0.17
351.034	28.5
351.246	38.74
351.458	87.89
351.669	73.56
351.881	65.36
352.093	112.47
352.305	161.62
352.517	130.9
352.728	94.04
352.94	143.19
353.152	147.28
353.363	-2.22
353.575	-16.55
353.787	89.94
353.999	38.74
354.21	178
354.422	3.93
354.633	34.64
354.845	40.79
355.057	112.47
355.268	10.07
355.48	132.95
355.692	-39.08
355.903	5.97
356.115	-65.71
356.326	-53.42
356.538	173.91
356.749	53.08
356.961	149.33
357.172	-6.31
357.384	18.26
357.595	173.91
357.807	67.41
358.018	63.32
358.23	87.89
358.441	153.43
358.653	100.18
358.864	30.55
359.075	-51.37
359.287	73.56
359.498	118.61
359.709	137.04
359.921	89.94
360.132	53.08
360.344	10.07
360.555	30.55
360.766	40.79
360.977	120.66
361.189	40.79
361.4	20.31
361.611	85.84
361.823	151.38
362.034	18.26
362.245	-16.55
362.456	-22.7
362.667	53.08
362.879	-121
363.09	106.32
363.301	79.7
363.512	69.46
363.723	8.02
363.935	-32.94
364.146	59.22
364.357	-32.94
364.568	79.7
364.779	-94.38
364.99	130.9
365.201	14.17
365.412	83.8
365.623	-22.7
365.834	98.13
366.045	67.41
366.256	155.47
366.467	167.76
366.678	24.4
366.889	38.74
367.1	40.79
367.311	102.23
367.522	10.07
367.733	75.6
367.944	55.12
368.155	28.5
368.366	94.04
368.577	100.18
368.788	59.22
368.999	71.51
369.209	85.84
369.42	180.05
369.631	280.4
369.842	26.45
370.053	22.36
370.264	137.04
370.474	-24.75
370.685	71.51
370.896	28.5
371.107	137.04
371.317	110.42
371.528	65.36
371.739	89.94
371.95	81.75
372.16	67.41
372.371	-69.8
372.582	51.03
372.792	79.7
373.003	124.76
373.214	51.03
373.424	40.79
373.635	-12.46
373.846	124.76
374.056	120.66
374.267	149.33
374.477	36.69
374.688	-34.99
374.898	34.64
375.109	46.93
375.319	108.37
375.53	98.13
375.74	124.76
375.951	-26.79
376.161	-37.03
376.372	157.52
376.582	-30.89
376.793	14.17
377.003	55.12
377.214	28.5
377.424	147.28
377.635	10.07
377.845	46.93
378.055	122.71
378.266	-100.52
378.476	-4.27
378.686	-34.99
378.897	38.74
379.107	75.6
379.317	91.99
379.528	-47.27
379.738	77.65
379.948	40.79
380.158	77.65
380.369	34.64
380.579	81.75
380.789	46.93
380.999	16.21
381.21	126.8
381.42	175.95
381.63	-18.6
381.84	110.42
382.05	61.27
382.261	77.65
382.471	118.61
382.681	14.17
382.891	137.04
383.101	12.12
383.311	-55.47
383.521	14.17
383.731	124.76
383.941	128.85
384.151	12.12
384.361	-0.17
384.571	32.6
384.781	5.97
384.991	216.91
385.201	104.28
385.411	57.17
385.621	171.86
385.831	8.02
386.041	30.55
386.251	55.12
386.461	75.6
386.671	18.26
386.881	89.94
387.091	8.02
387.301	128.85
387.511	71.51
387.72	98.13
387.93	34.64
388.14	-18.6
388.35	8.02
388.56	163.67
388.769	63.32
388.979	-10.41
389.189	53.08
389.399	48.98
389.609	102.23
389.818	157.52
390.028	-53.42
390.238	165.71
390.447	-0.17
390.657	57.17
390.867	57.17
391.076	3.93
391.286	69.46
391.496	83.8
391.705	46.93
391.915	122.71
392.125	126.8
392.334	51.03
392.544	169.81
392.753	91.99
392.963	36.69
393.172	36.69
393.382	3.93
393.591	204.63
393.801	-28.84
394.01	132.95
394.22	184.15
394.429	59.22
394.639	-37.03
394.848	67.41
395.058	30.55
395.267	-41.13
395.477	18.26
395.686	96.08
395.895	196.43
396.105	227.15
396.314	143.19
396.524	12.12
396.733	32.6
396.942	126.8
397.152	124.76
397.361	122.71
397.57	75.6
397.78	63.32
397.989	114.52
398.198	194.39
398.407	48.98
398.617	40.79
398.826	51.03
399.035	-37.03
399.244	135
399.453	61.27
399.663	59.22
399.872	100.18
400.081	-51.37
400.29	143.19
400.499	-10.41
400.708	141.14
400.917	57.17
401.127	65.36
401.336	59.22
401.545	135
401.754	141.14
401.963	87.89
402.172	65.36
402.381	67.41
402.59	36.69
402.799	8.02
403.008	102.23
403.217	77.65
403.426	44.88
403.635	-67.75
403.844	87.89
404.053	-47.27
404.262	-0.17
404.471	151.38
404.68	36.69
404.888	75.6
405.097	5.97
405.306	20.31
405.515	81.75
405.724	48.98
405.933	153.43
406.142	-8.36
406.35	184.15
406.559	40.79
406.768	18.26
406.977	161.62
407.185	79.7
407.394	22.36
407.603	18.26
407.812	-0.17
408.02	96.08
408.229	36.69
408.438	98.13
408.646	-20.65
408.855	75.6
409.064	48.98
409.272	-57.51
409.481	79.7
409.69	-55.47
409.898	-26.79
410.107	69.46
410.315	175.95
410.524	24.4
410.733	36.69
410.941	38.74
411.15	108.37
411.358	20.31
411.567	130.9
411.775	51.03
411.984	28.5
412.192	126.8
412.401	83.8
412.609	198.48
412.818	149.33
413.026	124.76
413.234	55.12
413.443	51.03
413.651	-26.79
413.86	46.93
414.068	198.48
414.276	108.37
414.485	-20.65
414.693	81.75
414.901	184.15
415.11	98.13
415.318	118.61
415.526	94.04
415.734	77.65
415.943	108.37
416.151	149.33
416.359	14.17
416.567	71.51
416.776	147.28
416.984	116.56
417.192	237.39
417.4	-90.28
417.608	48.98
417.817	16.21
418.025	85.84
418.233	165.71
418.441	5.97
418.649	-55.47
418.857	42.84
419.065	100.18
419.273	77.65
419.481	-2.22
419.689	73.56
419.897	34.64
420.105	-55.47
420.313	163.67
420.521	171.86
420.729	102.23
420.937	91.99
421.145	-41.13
421.353	106.32
421.561	130.9
421.769	5.97
421.977	1.88
422.185	85.84
422.393	61.27
422.601	128.85
422.809	3.93
423.017	128.85
423.224	34.64
423.432	126.8
423.64	12.12
423.848	108.37
424.056	20.31
424.263	145.24
424.471	34.64
424.679	102.23
424.887	-49.32
425.094	163.67
425.302	104.28
425.51	3.93
425.718	122.71
425.925	118.61
426.133	28.5
426.341	194.39
426.548	73.56
426.756	44.88
426.964	118.61
427.171	57.17
427.379	46.93
427.586	81.75
427.794	132.95
428.001	149.33
428.209	63.32
428.417	159.57
428.624	143.19
428.832	106.32
429.039	73.56
429.247	106.32
429.454	94.04
429.662	245.59
429.869	165.71
430.076	87.89
430.284	77.65
430.491	221.01
430.699	38.74
430.906	212.82
431.114	155.47
431.321	114.52
431.528	48.98
431.736	65.36
431.943	155.47
432.15	175.95
432.358	194.39
432.565	272.21
432.772	-14.51
432.979	178
433.187	110.42
433.394	202.58
433.601	184.15
433.808	247.63
434.016	198.48
434.223	159.57
434.43	186.19
434.637	253.78
434.844	253.78
435.052	241.49
435.259	241.49
435.466	212.82
435.673	229.2
435.88	311.12
436.087	354.13
436.294	325.46
436.501	292.69
436.708	282.45
436.915	249.68
437.122	335.7
437.329	231.25
437.537	276.31
437.743	360.27
437.95	397.14
438.157	401.23
438.364	331.6
438.571	401.23
438.778	407.38
438.985	505.68
439.192	454.48
439.399	354.13
439.606	477.01
439.813	528.21
440.02	612.17
440.227	622.41
440.433	601.93
440.64	546.64
440.847	468.81
441.054	618.32
441.261	735.05
441.467	560.97
441.674	606.03
441.881	761.67
442.088	606.03
442.294	728.91
442.501	749.39
442.708	786.25
442.914	831.3
443.121	786.25
443.328	896.84
443.534	845.64
443.741	778.06
443.948	714.57
444.154	970.57
444.361	1111.88
444.568	995.14
444.774	1005.38
444.981	948.04
445.187	1161.03
445.394	1146.69
445.6	1089.35
445.807	1283.91
446.013	1212.23
446.22	1240.9
446.426	1441.6
446.633	1429.31
446.839	1593.15
447.046	1402.69
447.252	1711.93
447.459	1535.81
447.665	1572.67
447.871	1670.97
448.078	1906.49
448.284	1959.74
448.491	1974.07
448.697	2080.57
448.903	2185.01
449.11	2074.42
449.316	2148.15
449.522	2352.95
449.728	2402.1
449.935	2383.66
450.141	2467.63
450.347	2658.09
450.553	2535.21
450.76	2723.63
450.966	2860.84
451.172	2944.81
451.378	2953
451.584	3143.46
451.791	3372.83
451.997	3399.46
452.203	3557.15
452.409	3753.76
452.615	3716.89
452.821	3768.09
453.027	3804.96
453.233	4439.83
453.44	4046.62
453.646	4415.25
453.852	4476.69
454.058	4747.02
454.264	4800.27
454.47	5148.42
454.676	5248.77
454.882	5601.02
455.088	5275.4
455.294	5717.76
455.5	6012.67
455.705	6549.23
455.911	6448.88
456.117	6766.32
456.323	6774.51
456.529	6768.37
456.735	7497.44
456.941	7540.45
457.147	7970.52
457.352	7974.62
457.558	8302.29
457.764	8869.58
457.97	8947.4
458.176	9514.69
458.381	9977.53
458.587	10116.79
458.793	10487.48
458.999	10569.4
459.204	11751.07
459.41	12629.65
459.616	12277.4
459.821	12822.16
460.027	13223.56
460.233	13993.6
460.438	14151.29
460.644	14788.21
460.85	14806.64
461.055	15548.01
461.261	16344.67
461.466	15982.18
461.672	16207.45
461.878	18230.85
462.083	17708.62
462.289	18171.46
462.494	19090.99
462.7	19502.64
462.905	19578.41
463.111	21212.69
463.316	21923.33
463.522	22330.88
463.727	23021.05
463.932	24479.2
464.138	25077.21
464.343	26080.71
464.549	26109.38
464.754	28183.98
464.959	28857.76
465.165	29320.6
465.37	28763.55
465.575	29072.79
465.781	30881.15
465.986	31663.47
466.191	31321.46
466.397	31726.96
466.602	30965.12
466.807	32773.47
467.012	33412.44
467.218	33944.91
467.423	33891.66
467.628	35083.58
467.833	36625.7
468.038	35812.66
468.244	35460.41
468.449	36705.57
468.654	35972.4
468.859	36418.86
469.064	36810.02
