Data from USB4F104151__70__11-31-00-964.txt Node

Date: Wed Feb 26 11:31:00 EST 2025
User: louis
Spectrometer: USB4F10415
Trigger mode: 4
Integration Time (sec): 1.000000E-1
Scans to average: 1
Electric dark correction enabled: true
Nonlinearity correction enabled: false
Boxcar width: 0
XAxis mode: Wavelengths
Number of Pixels in Spectrum: 3648
>>>>>Begin Spectral Data<<<<<
178.204	-438.44
178.424	-438.44
178.644	-438.44
178.864	-399.52
179.084	-389.28
179.304	-26.79
179.524	14.17
179.744	-4.27
179.964	40.79
180.184	51.03
180.404	-10.41
180.624	-59.56
180.844	-0.17
181.064	40.79
181.283	-34.99
181.503	-41.13
181.723	30.55
181.943	-77.99
182.163	190.29
182.383	-47.27
182.602	104.28
182.822	40.79
183.042	44.88
183.262	-73.9
183.482	-43.18
183.701	46.93
183.921	3.93
184.141	12.12
184.361	42.84
184.58	46.93
184.8	51.03
185.02	-41.13
185.239	114.52
185.459	55.12
185.679	165.71
185.898	-20.65
186.118	53.08
186.338	59.22
186.557	8.02
186.777	-73.9
186.997	-59.56
187.216	-34.99
187.436	184.15
187.655	87.89
187.875	104.28
188.095	106.32
188.314	61.27
188.534	147.28
188.753	-6.31
188.973	61.27
189.192	165.71
189.412	-2.22
189.631	75.6
189.851	26.45
190.07	59.22
190.29	-55.47
190.509	3.93
190.729	51.03
190.948	196.43
191.168	198.48
191.387	79.7
191.607	-63.66
191.826	61.27
192.045	1.88
192.265	-10.41
192.484	114.52
192.704	44.88
192.923	-65.71
193.142	141.14
193.362	81.75
193.581	137.04
193.8	106.32
194.02	71.51
194.239	44.88
194.458	91.99
194.678	-14.51
194.897	34.64
195.116	53.08
195.335	46.93
195.555	34.64
195.774	-28.84
195.993	110.42
196.212	51.03
196.432	-8.36
196.651	-63.66
196.87	36.69
197.089	147.28
197.308	83.8
197.528	12.12
197.747	-12.46
197.966	55.12
198.185	96.08
198.404	-26.79
198.623	89.94
198.842	79.7
199.062	102.23
199.281	89.94
199.5	87.89
199.719	30.55
199.938	34.64
200.157	28.5
200.376	67.41
200.595	118.61
200.814	104.28
201.033	-16.55
201.252	77.65
201.471	51.03
201.69	145.24
201.909	55.12
202.128	69.46
202.347	55.12
202.566	-63.66
202.785	-53.42
203.004	-22.7
203.223	159.57
203.442	-51.37
203.661	-41.13
203.879	-2.22
204.098	153.43
204.317	-80.04
204.536	96.08
204.755	63.32
204.974	26.45
205.193	28.5
205.411	94.04
205.63	69.46
205.849	36.69
206.068	-6.31
206.287	-28.84
206.505	81.75
206.724	-55.47
206.943	-39.08
207.162	-63.66
207.381	57.17
207.599	30.55
207.818	-14.51
208.037	1.88
208.255	-14.51
208.474	59.22
208.693	40.79
208.911	-16.55
209.13	73.56
209.349	26.45
209.567	147.28
209.786	18.26
210.005	112.47
210.223	20.31
210.442	-155.82
210.661	22.36
210.879	77.65
211.098	63.32
211.316	91.99
211.535	12.12
211.753	51.03
211.972	110.42
212.191	-88.23
212.409	3.93
212.628	83.8
212.846	-14.51
213.065	51.03
213.283	83.8
213.502	65.36
213.72	59.22
213.938	-8.36
214.157	42.84
214.375	161.62
214.594	-61.61
214.812	55.12
215.031	-6.31
215.249	40.79
215.467	10.07
215.686	36.69
215.904	30.55
216.122	26.45
216.341	81.75
216.559	73.56
216.778	87.89
216.996	67.41
217.214	59.22
217.432	12.12
217.651	-61.61
217.869	5.97
218.087	112.47
218.306	1.88
218.524	48.98
218.742	-0.17
218.96	42.84
219.179	-53.42
219.397	1.88
219.615	194.39
219.833	83.8
220.051	-37.03
220.27	63.32
220.488	112.47
220.706	30.55
220.924	14.17
221.142	-67.75
221.36	34.64
221.578	38.74
221.796	-2.22
222.015	46.93
222.233	8.02
222.451	155.47
222.669	24.4
222.887	63.32
223.105	-26.79
223.323	-26.79
223.541	-77.99
223.759	34.64
223.977	106.32
224.195	96.08
224.413	87.89
224.631	51.03
224.849	38.74
225.067	200.53
225.285	14.17
225.503	22.36
225.721	-86.19
225.939	5.97
226.157	69.46
226.375	139.09
226.592	-30.89
226.81	38.74
227.028	75.6
227.246	28.5
227.464	26.45
227.682	22.36
227.9	63.32
228.117	44.88
228.335	59.22
228.553	44.88
228.771	-6.31
228.989	108.37
229.206	22.36
229.424	-28.84
229.642	-28.84
229.86	12.12
230.077	130.9
230.295	1.88
230.513	120.66
230.731	38.74
230.948	135
231.166	169.81
231.384	-0.17
231.601	-28.84
231.819	178
232.037	-90.28
232.254	-39.08
232.472	-18.6
232.689	-73.9
232.907	135
233.125	20.31
233.342	30.55
233.56	38.74
233.777	-43.18
233.995	14.17
234.213	57.17
234.43	14.17
234.648	-59.56
234.865	42.84
235.083	104.28
235.3	96.08
235.518	71.51
235.735	87.89
235.953	75.6
236.17	22.36
236.388	-32.94
236.605	28.5
236.822	57.17
237.04	59.22
237.257	96.08
237.475	-14.51
237.692	20.31
237.909	-4.27
238.127	3.93
238.344	122.71
238.562	18.26
238.779	-45.23
238.996	-75.95
239.214	30.55
239.431	71.51
239.648	-67.75
239.865	55.12
240.083	135
240.3	-20.65
240.517	-26.79
240.735	114.52
240.952	126.8
241.169	128.85
241.386	51.03
241.603	-0.17
241.821	-45.23
242.038	81.75
242.255	151.38
242.472	-22.7
242.689	137.04
242.907	40.79
243.124	59.22
243.341	1.88
243.558	-32.94
243.775	-4.27
243.992	-106.67
244.209	100.18
244.426	173.91
244.643	48.98
244.86	-8.36
245.078	14.17
245.295	91.99
245.512	22.36
245.729	12.12
245.946	-37.03
246.163	8.02
246.38	38.74
246.597	44.88
246.814	24.4
247.031	42.84
247.248	30.55
247.464	48.98
247.681	-6.31
247.898	12.12
248.115	36.69
248.332	-39.08
248.549	132.95
248.766	106.32
248.983	112.47
249.2	22.36
249.417	53.08
249.633	12.12
249.85	-14.51
250.067	14.17
250.284	61.27
250.501	53.08
250.717	-0.17
250.934	-32.94
251.151	55.12
251.368	24.4
251.585	59.22
251.801	-26.79
252.018	-22.7
252.235	147.28
252.451	-6.31
252.668	48.98
252.885	89.94
253.102	98.13
253.318	69.46
253.535	26.45
253.752	14.17
253.968	-24.75
254.185	-18.6
254.401	53.08
254.618	100.18
254.835	-34.99
255.051	221.01
255.268	85.84
255.484	75.6
255.701	79.7
255.917	102.23
256.134	-108.71
256.351	-32.94
256.567	-32.94
256.784	-10.41
257	-114.86
257.217	57.17
257.433	69.46
257.65	59.22
257.866	55.12
258.082	-32.94
258.299	-63.66
258.515	30.55
258.732	-24.75
258.948	20.31
259.165	71.51
259.381	-24.75
259.597	83.8
259.814	3.93
260.03	-34.99
260.246	-12.46
260.463	8.02
260.679	94.04
260.895	81.75
261.112	10.07
261.328	-10.41
261.544	40.79
261.761	139.09
261.977	-32.94
262.193	-88.23
262.409	61.27
262.626	20.31
262.842	-12.46
263.058	18.26
263.274	53.08
263.49	28.5
263.707	83.8
263.923	89.94
264.139	-114.86
264.355	-18.6
264.571	141.14
264.787	83.8
265.004	139.09
265.22	-45.23
265.436	22.36
265.652	-45.23
265.868	-10.41
266.084	1.88
266.3	-16.55
266.516	-28.84
266.732	34.64
266.948	38.74
267.164	30.55
267.38	149.33
267.596	69.46
267.812	116.56
268.028	61.27
268.244	-69.8
268.46	32.6
268.676	-2.22
268.892	67.41
269.108	-43.18
269.324	-45.23
269.54	-51.37
269.756	118.61
269.972	-67.75
270.188	18.26
270.403	-30.89
270.619	24.4
270.835	59.22
271.051	24.4
271.267	-22.7
271.483	-65.71
271.698	114.52
271.914	65.36
272.13	87.89
272.346	-28.84
272.562	59.22
272.777	128.85
272.993	59.22
273.209	-22.7
273.425	73.56
273.64	-82.09
273.856	89.94
274.072	-41.13
274.287	34.64
274.503	75.6
274.719	143.19
274.934	-34.99
275.15	-51.37
275.366	65.36
275.581	-39.08
275.797	-71.85
276.012	5.97
276.228	1.88
276.444	81.75
276.659	182.1
276.875	75.6
277.09	46.93
277.306	38.74
277.521	-6.31
277.737	44.88
277.952	100.18
278.168	8.02
278.383	-12.46
278.599	20.31
278.814	20.31
279.03	-57.51
279.245	155.47
279.461	46.93
279.676	120.66
279.892	-41.13
280.107	-4.27
280.322	-14.51
280.538	-18.6
280.753	-18.6
280.969	77.65
281.184	5.97
281.399	51.03
281.615	61.27
281.83	44.88
282.045	-0.17
282.26	-43.18
282.476	26.45
282.691	63.32
282.906	5.97
283.122	22.36
283.337	-22.7
283.552	32.6
283.767	57.17
283.983	71.51
284.198	1.88
284.413	106.32
284.628	-18.6
284.843	73.56
285.058	124.76
285.274	-47.27
285.489	-55.47
285.704	132.95
285.919	-59.56
286.134	12.12
286.349	55.12
286.564	30.55
286.779	132.95
286.995	10.07
287.21	51.03
287.425	128.85
287.64	-51.37
287.855	51.03
288.07	-8.36
288.285	116.56
288.5	116.56
288.715	51.03
288.93	28.5
289.145	18.26
289.36	96.08
289.575	5.97
289.79	126.8
290.004	20.31
290.219	120.66
290.434	-30.89
290.649	-51.37
290.864	34.64
291.079	-16.55
291.294	67.41
291.509	61.27
291.724	-41.13
291.938	30.55
292.153	36.69
292.368	28.5
292.583	34.64
292.798	98.13
293.012	81.75
293.227	96.08
293.442	44.88
293.657	124.76
293.871	83.8
294.086	32.6
294.301	169.81
294.516	145.24
294.73	-8.36
294.945	-75.95
295.16	24.4
295.374	73.56
295.589	20.31
295.804	-12.46
296.018	67.41
296.233	147.28
296.447	28.5
296.662	12.12
296.877	141.14
297.091	85.84
297.306	-4.27
297.52	36.69
297.735	40.79
297.949	40.79
298.164	-67.75
298.378	81.75
298.593	-92.33
298.807	-57.51
299.022	59.22
299.236	110.42
299.451	-39.08
299.665	-12.46
299.88	36.69
300.094	32.6
300.309	-6.31
300.523	165.71
300.737	-16.55
300.952	83.8
301.166	81.75
301.381	-16.55
301.595	28.5
301.809	116.56
302.024	14.17
302.238	5.97
302.452	98.13
302.667	1.88
302.881	91.99
303.095	36.69
303.309	26.45
303.524	-20.65
303.738	14.17
303.952	-8.36
304.166	26.45
304.381	-55.47
304.595	126.8
304.809	8.02
305.023	12.12
305.237	-0.17
305.452	-22.7
305.666	8.02
305.88	53.08
306.094	55.12
306.308	32.6
306.522	79.7
306.736	75.6
306.95	96.08
307.164	3.93
307.379	-12.46
307.593	116.56
307.807	161.62
308.021	55.12
308.235	118.61
308.449	-86.19
308.663	10.07
308.877	184.15
309.091	44.88
309.305	120.66
309.519	-88.23
309.733	102.23
309.947	-123.05
310.161	126.8
310.374	104.28
310.588	75.6
310.802	-26.79
311.016	36.69
311.23	153.43
311.444	-24.75
311.658	-2.22
311.872	42.84
312.085	108.37
312.299	188.24
312.513	69.46
312.727	46.93
312.941	-4.27
313.154	61.27
313.368	-0.17
313.582	32.6
313.796	32.6
314.009	34.64
314.223	122.71
314.437	-8.36
314.651	48.98
314.864	-34.99
315.078	38.74
315.292	-73.9
315.505	-57.51
315.719	-6.31
315.933	51.03
316.146	3.93
316.36	-16.55
316.573	106.32
316.787	114.52
317.001	38.74
317.214	-6.31
317.428	40.79
317.641	-123.05
317.855	12.12
318.068	14.17
318.282	83.8
318.495	55.12
318.709	8.02
318.922	59.22
319.136	143.19
319.349	48.98
319.563	1.88
319.776	55.12
319.99	-32.94
320.203	55.12
320.417	42.84
320.63	83.8
320.843	155.47
321.057	98.13
321.27	16.21
321.483	53.08
321.697	106.32
321.91	77.65
322.124	44.88
322.337	77.65
322.55	-65.71
322.763	34.64
322.977	-55.47
323.19	-30.89
323.403	-24.75
323.617	57.17
323.83	77.65
324.043	-8.36
324.256	30.55
324.469	-26.79
324.683	137.04
324.896	32.6
325.109	-12.46
325.322	-47.27
325.535	55.12
325.748	110.42
325.962	-16.55
326.175	-24.75
326.388	16.21
326.601	108.37
326.814	65.36
327.027	55.12
327.24	122.71
327.453	-43.18
327.666	122.71
327.879	55.12
328.092	108.37
328.305	126.8
328.518	-37.03
328.731	-18.6
328.944	-10.41
329.157	75.6
329.37	24.4
329.583	153.43
329.796	102.23
330.009	-4.27
330.222	-10.41
330.435	53.08
330.648	55.12
330.861	18.26
331.073	55.12
331.286	161.62
331.499	63.32
331.712	-53.42
331.925	38.74
332.138	14.17
332.35	91.99
332.563	55.12
332.776	55.12
332.989	42.84
333.202	44.88
333.414	-0.17
333.627	59.22
333.84	-2.22
334.053	42.84
334.265	10.07
334.478	-69.8
334.691	16.21
334.903	3.93
335.116	79.7
335.329	-39.08
335.541	163.67
335.754	145.24
335.966	-41.13
336.179	57.17
336.392	36.69
336.604	1.88
336.817	51.03
337.029	61.27
337.242	38.74
337.454	63.32
337.667	51.03
337.88	100.18
338.092	18.26
338.305	106.32
338.517	-30.89
338.729	91.99
338.942	108.37
339.154	20.31
339.367	-22.7
339.579	124.76
339.792	12.12
340.004	132.95
340.217	-71.85
340.429	28.5
340.641	-65.71
340.854	1.88
341.066	20.31
341.278	85.84
341.491	198.48
341.703	83.8
341.915	65.36
342.128	91.99
342.34	24.4
342.552	-22.7
342.764	89.94
342.977	16.21
343.189	100.18
343.401	75.6
343.613	1.88
343.826	44.88
344.038	-34.99
344.25	55.12
344.462	12.12
344.674	22.36
344.886	-2.22
345.099	63.32
345.311	44.88
345.523	26.45
345.735	-114.86
345.947	69.46
346.159	51.03
346.371	114.52
346.583	-41.13
346.795	161.62
347.007	36.69
347.219	112.47
347.431	-41.13
347.643	141.14
347.855	-39.08
348.067	106.32
348.279	-114.86
348.491	-100.52
348.703	59.22
348.915	73.56
349.127	-8.36
349.339	-24.75
349.551	20.31
349.763	128.85
349.975	34.64
350.187	71.51
350.399	102.23
350.61	130.9
350.822	-22.7
351.034	77.65
351.246	14.17
351.458	83.8
351.669	85.84
351.881	91.99
352.093	102.23
352.305	118.61
352.517	-4.27
352.728	63.32
352.94	112.47
353.152	112.47
353.363	-41.13
353.575	14.17
353.787	118.61
353.999	-45.23
354.21	180.05
354.422	-32.94
354.633	71.51
354.845	-45.23
355.057	36.69
355.268	-20.65
355.48	165.71
355.692	-26.79
355.903	-20.65
356.115	38.74
356.326	-49.32
356.538	128.85
356.749	59.22
356.961	94.04
357.172	30.55
357.384	-6.31
357.595	87.89
357.807	-10.41
358.018	-34.99
358.23	118.61
358.441	151.38
358.653	48.98
358.864	34.64
359.075	-41.13
359.287	40.79
359.498	102.23
359.709	73.56
359.921	65.36
360.132	10.07
360.344	18.26
360.555	-10.41
360.766	-6.31
360.977	-12.46
361.189	75.6
361.4	-24.75
361.611	161.62
361.823	120.66
362.034	18.26
362.245	-57.51
362.456	57.17
362.667	77.65
362.879	40.79
363.09	75.6
363.301	24.4
363.512	46.93
363.723	-24.75
363.935	22.36
364.146	135
364.357	-0.17
364.568	77.65
364.779	-43.18
364.99	102.23
365.201	-69.8
365.412	124.76
365.623	63.32
365.834	16.21
366.045	28.5
366.256	130.9
366.467	46.93
366.678	12.12
366.889	20.31
367.1	-30.89
367.311	100.18
367.522	51.03
367.733	79.7
367.944	75.6
368.155	8.02
368.366	48.98
368.577	87.89
368.788	137.04
368.999	-55.47
369.209	79.7
369.42	186.19
369.631	153.43
369.842	59.22
370.053	-49.32
370.264	46.93
370.474	-0.17
370.685	-2.22
370.896	1.88
371.107	175.95
371.317	57.17
371.528	51.03
371.739	122.71
371.95	100.18
372.16	55.12
372.371	3.93
372.582	69.46
372.792	91.99
373.003	-10.41
373.214	8.02
373.424	91.99
373.635	-32.94
373.846	184.15
374.056	-24.75
374.267	38.74
374.477	-6.31
374.688	-63.66
374.898	67.41
375.109	-41.13
375.319	1.88
375.53	116.56
375.74	83.8
375.951	40.79
376.161	79.7
376.372	85.84
376.582	22.36
376.793	28.5
377.003	-26.79
377.214	-2.22
377.424	81.75
377.635	-16.55
377.845	-12.46
378.055	153.43
378.266	-67.75
378.476	8.02
378.686	34.64
378.897	59.22
379.107	89.94
379.317	79.7
379.528	16.21
379.738	163.67
379.948	-12.46
380.158	75.6
380.369	18.26
380.579	57.17
380.789	40.79
380.999	36.69
381.21	61.27
381.42	163.67
381.63	48.98
381.84	42.84
382.05	132.95
382.261	130.9
382.471	141.14
382.681	5.97
382.891	155.47
383.101	112.47
383.311	-10.41
383.521	20.31
383.731	104.28
383.941	122.71
384.151	102.23
384.361	28.5
384.571	81.75
384.781	36.69
384.991	175.95
385.201	128.85
385.411	100.18
385.621	57.17
385.831	-0.17
386.041	42.84
386.251	-43.18
386.461	91.99
386.671	51.03
386.881	44.88
387.091	55.12
387.301	38.74
387.511	67.41
387.72	75.6
387.93	104.28
388.14	-90.28
388.35	46.93
388.56	30.55
388.769	155.47
388.979	57.17
389.189	-41.13
389.399	14.17
389.609	69.46
389.818	163.67
390.028	24.4
390.238	42.84
390.447	8.02
390.657	14.17
390.867	48.98
391.076	-59.56
391.286	83.8
391.496	24.4
391.705	30.55
391.915	98.13
392.125	94.04
392.334	16.21
392.544	116.56
392.753	44.88
392.963	22.36
393.172	-20.65
393.382	3.93
393.591	204.63
393.801	91.99
394.01	135
394.22	104.28
394.429	59.22
394.639	14.17
394.848	48.98
395.058	53.08
395.267	32.6
395.477	61.27
395.686	65.36
395.895	128.85
396.105	130.9
396.314	67.41
396.524	-20.65
396.733	24.4
396.942	40.79
397.152	42.84
397.361	143.19
397.57	42.84
397.78	46.93
397.989	63.32
398.198	237.39
398.407	-59.56
398.617	-20.65
398.826	-2.22
399.035	-80.04
399.244	67.41
399.453	16.21
399.663	73.56
399.872	151.38
400.081	-67.75
400.29	120.66
400.499	22.36
400.708	91.99
400.917	65.36
401.127	28.5
401.336	48.98
401.545	83.8
401.754	77.65
401.963	155.47
402.172	30.55
402.381	-112.81
402.59	59.22
402.799	-4.27
403.008	75.6
403.217	-28.84
403.426	77.65
403.635	-8.36
403.844	-41.13
404.053	-4.27
404.262	44.88
404.471	212.82
404.68	36.69
404.888	-0.17
405.097	55.12
405.306	16.21
405.515	85.84
405.724	69.46
405.933	155.47
406.142	40.79
406.35	69.46
406.559	-24.75
406.768	14.17
406.977	145.24
407.185	26.45
407.394	81.75
407.603	-34.99
407.812	63.32
408.02	75.6
408.229	38.74
408.438	53.08
408.646	-110.76
408.855	42.84
409.064	46.93
409.272	53.08
409.481	59.22
409.69	10.07
409.898	-39.08
410.107	91.99
410.315	75.6
410.524	-45.23
410.733	42.84
410.941	1.88
411.15	67.41
411.358	165.71
411.567	96.08
411.775	118.61
411.984	118.61
412.192	61.27
412.401	-24.75
412.609	229.2
412.818	48.98
413.026	77.65
413.234	-28.84
413.443	-20.65
413.651	-61.61
413.86	48.98
414.068	155.47
414.276	237.39
414.485	18.26
414.693	128.85
414.901	149.33
415.11	28.5
415.318	-82.09
415.526	96.08
415.734	87.89
415.943	135
416.151	53.08
416.359	1.88
416.567	98.13
416.776	75.6
416.984	112.47
417.192	112.47
417.4	-49.32
417.608	5.97
417.817	10.07
418.025	83.8
418.233	118.61
418.441	30.55
418.649	-55.47
418.857	59.22
419.065	173.91
419.273	32.6
419.481	55.12
419.689	-24.75
419.897	-49.32
420.105	22.36
420.313	79.7
420.521	65.36
420.729	77.65
420.937	-51.37
421.145	-47.27
421.353	65.36
421.561	161.62
421.769	61.27
421.977	46.93
422.185	71.51
422.393	8.02
422.601	112.47
422.809	128.85
423.017	22.36
423.224	32.6
423.432	161.62
423.64	30.55
423.848	85.84
424.056	-59.56
424.263	79.7
424.471	46.93
424.679	139.09
424.887	-12.46
425.094	169.81
425.302	69.46
425.51	16.21
425.718	96.08
425.925	36.69
426.133	-34.99
426.341	247.63
426.548	-14.51
426.756	-2.22
426.964	75.6
427.171	-55.47
427.379	69.46
427.586	67.41
427.794	53.08
428.001	145.24
428.209	-12.46
428.417	22.36
428.624	79.7
428.832	69.46
429.039	77.65
429.247	51.03
429.454	24.4
429.662	169.81
429.869	182.1
430.076	26.45
430.284	38.74
430.491	20.31
430.699	67.41
430.906	112.47
431.114	79.7
431.321	128.85
431.528	34.64
431.736	94.04
431.943	132.95
432.15	132.95
432.358	124.76
432.565	204.63
432.772	-41.13
432.979	175.95
433.187	48.98
433.394	149.33
433.601	116.56
433.808	186.19
434.016	218.96
434.223	126.8
434.43	153.43
434.637	175.95
434.844	214.87
435.052	157.52
435.259	126.8
435.466	167.76
435.673	175.95
435.88	151.38
436.087	243.54
436.294	245.59
436.501	200.53
436.708	227.15
436.915	155.47
437.122	210.77
437.329	153.43
437.537	231.25
437.743	294.74
437.95	343.89
438.157	237.39
438.364	278.35
438.571	227.15
438.778	239.44
438.985	329.55
439.192	382.8
439.399	225.11
439.606	333.65
439.813	411.47
440.02	495.44
440.227	509.77
440.433	415.57
440.64	341.84
440.847	276.31
441.054	429.9
441.261	489.29
441.467	515.92
441.674	431.95
441.881	538.45
442.088	388.94
442.294	450.38
442.501	477.01
442.708	583.5
442.914	491.34
443.121	616.27
443.328	698.19
443.534	651.08
443.741	642.89
443.948	624.46
444.154	636.75
444.361	894.79
444.568	696.14
444.774	816.97
444.981	661.32
445.187	894.79
445.394	890.7
445.6	833.35
445.807	935.75
446.013	857.93
446.22	831.3
446.426	952.13
446.633	1070.92
446.839	1251.14
447.046	995.14
447.252	1185.6
447.459	1185.6
447.665	1204.03
447.871	1298.24
448.078	1425.22
448.284	1421.12
448.491	1412.93
448.697	1503.04
448.903	1587.01
449.11	1597.24
449.316	1423.17
449.522	1660.73
449.728	1765.18
449.935	1761.08
450.141	1886.01
450.347	1869.62
450.553	2008.89
450.76	1908.54
450.966	2113.33
451.172	2103.09
451.378	2238.26
451.584	2344.75
451.791	2481.97
451.997	2547.5
452.203	2529.07
452.409	2780.97
452.615	2840.36
452.821	2651.95
453.027	2866.99
453.233	3200.8
453.44	3055.4
453.646	3196.71
453.852	3372.83
454.058	3454.75
454.264	3561.25
454.47	3751.71
454.676	3798.81
454.882	4235.03
455.088	3997.46
455.294	4192.02
455.5	4613.9
455.705	4841.23
455.911	4747.02
456.117	4787.98
456.323	5140.23
456.529	4982.54
456.735	5564.16
456.941	5807.87
457.147	5893.88
457.352	5947.13
457.558	6104.82
457.764	6891.24
457.97	6805.23
458.176	7028.46
458.381	7247.59
458.587	7503.59
458.793	7851.74
458.999	7870.17
459.204	9000.65
459.41	9162.44
459.616	9010.89
459.821	9699.01
460.027	10096.32
460.233	10491.57
460.438	10526.39
460.644	11269.8
460.85	11157.16
461.055	11763.36
461.261	12236.44
461.466	11992.73
461.672	12265.11
461.878	13653.64
462.083	13788.8
462.289	13842.05
462.494	14358.14
462.7	14468.73
462.905	14859.89
463.111	15961.7
463.316	16498.27
463.522	16905.81
463.727	17479.24
463.932	18159.17
464.138	18622.01
464.343	19312.17
464.549	19656.23
464.754	21366.29
464.959	21825.03
465.165	21743.11
465.37	21931.53
465.575	21808.65
465.781	22910.46
465.986	23776.75
466.191	23864.81
466.397	23803.37
466.602	23129.59
466.807	24567.26
467.012	25079.25
467.218	25353.68
467.423	25099.73
467.628	26203.59
467.833	27413.94
468.038	26885.56
468.244	26195.4
468.449	27778.48
468.654	27454.9
468.859	27338.16
469.064	27188.66
469.269	26547.65
