Data from USB4F104151__58__10-26-16-928.txt Node

Date: Wed Feb 26 10:26:16 EST 2025
User: louis
Spectrometer: USB4F10415
Trigger mode: 4
Integration Time (sec): 1.000000E-1
Scans to average: 1
Electric dark correction enabled: true
Nonlinearity correction enabled: false
Boxcar width: 0
XAxis mode: Wavelengths
Number of Pixels in Spectrum: 3648
>>>>>Begin Spectral Data<<<<<
178.204	-393.89
178.424	-393.89
178.644	-393.89
178.864	-383.65
179.084	-430.76
179.304	-21.16
179.524	-25.26
179.744	25.94
179.964	42.32
180.184	3.41
180.404	42.32
180.624	-19.11
180.844	19.8
181.064	-135.85
181.283	-25.26
181.503	-2.73
181.723	95.57
181.943	-158.38
182.163	202.07
182.383	23.89
182.602	79.19
182.822	193.87
183.042	79.19
183.262	-4.78
183.482	-23.21
183.701	48.47
183.921	32.08
184.141	-88.75
184.361	161.11
184.58	44.37
184.8	62.8
185.02	-47.79
185.239	97.62
185.459	46.42
185.679	152.92
185.898	-129.7
186.118	-17.07
186.338	116.05
186.557	136.53
186.777	-47.79
186.997	-6.83
187.216	132.44
187.436	206.16
187.655	30.04
187.875	163.15
188.095	11.61
188.314	111.96
188.534	118.1
188.753	-27.31
188.973	48.47
189.192	159.06
189.412	36.18
189.631	-51.88
189.851	161.11
190.07	146.77
190.29	11.61
190.509	13.65
190.729	48.47
190.948	136.53
191.168	152.92
191.387	71
191.607	-15.02
191.826	120.15
192.045	34.13
192.265	68.95
192.484	105.81
192.704	-2.73
192.923	-33.45
193.142	146.77
193.362	99.67
193.581	95.57
193.8	54.61
194.02	195.92
194.239	36.18
194.458	161.11
194.678	105.81
194.897	-0.68
195.116	105.81
195.335	58.71
195.555	79.19
195.774	64.85
195.993	99.67
196.212	56.66
196.432	58.71
196.651	-39.59
196.87	15.7
197.089	243.03
197.308	42.32
197.528	50.52
197.747	-74.41
197.966	-49.83
198.185	132.44
198.404	64.85
198.623	105.81
198.842	103.76
199.062	95.57
199.281	134.48
199.5	54.61
199.719	107.86
199.938	27.99
200.157	130.39
200.376	142.68
200.595	128.34
200.814	83.28
201.033	-47.79
201.252	122.2
201.471	44.37
201.69	75.09
201.909	21.85
202.128	95.57
202.347	111.96
202.566	27.99
202.785	-66.22
203.004	-33.45
203.223	236.88
203.442	23.89
203.661	-33.45
203.879	50.52
204.098	105.81
204.317	-0.68
204.536	183.63
204.755	97.62
204.974	93.52
205.193	-33.45
205.411	66.9
205.63	126.29
205.849	87.38
206.068	40.28
206.287	-15.02
206.505	204.11
206.724	105.81
206.943	15.7
207.162	-60.07
207.381	36.18
207.599	62.8
207.818	71
208.037	-45.74
208.255	42.32
208.474	54.61
208.693	19.8
208.911	-17.07
209.13	50.52
209.349	111.96
209.567	27.99
209.786	132.44
210.005	30.04
210.223	36.18
210.442	-47.79
210.661	91.48
210.879	97.62
211.098	-31.4
211.316	87.38
211.535	46.42
211.753	58.71
211.972	11.61
212.191	30.04
212.409	9.56
212.628	148.82
212.846	9.56
213.065	97.62
213.283	132.44
213.502	25.94
213.72	134.48
213.938	103.76
214.157	71
214.375	157.01
214.594	27.99
214.812	132.44
215.031	27.99
215.249	-27.31
215.467	56.66
215.686	60.76
215.904	56.66
216.122	38.23
216.341	173.39
216.559	42.32
216.778	154.96
216.996	83.28
217.214	3.41
217.432	64.85
217.651	-17.07
217.869	132.44
218.087	19.8
218.306	11.61
218.524	15.7
218.742	-19.11
218.96	111.96
219.179	79.19
219.397	83.28
219.615	245.07
219.833	52.56
220.051	7.51
220.27	103.76
220.488	91.48
220.706	126.29
220.924	11.61
221.142	-51.88
221.36	68.95
221.578	128.34
221.796	44.37
222.015	71
222.233	73.04
222.451	189.78
222.669	-84.65
222.887	66.9
223.105	42.32
223.323	1.37
223.541	-15.02
223.759	30.04
223.977	1.37
224.195	206.16
224.413	48.47
224.631	13.65
224.849	27.99
225.067	193.87
225.285	97.62
225.503	13.65
225.721	-17.07
225.939	81.24
226.157	66.9
226.375	210.26
226.592	-17.07
226.81	107.86
227.028	134.48
227.246	138.58
227.464	71
227.682	154.96
227.9	19.8
228.117	50.52
228.335	77.14
228.553	44.37
228.771	-17.07
228.989	99.67
229.206	99.67
229.424	42.32
229.642	-12.97
229.86	-33.45
230.077	148.82
230.295	3.41
230.513	107.86
230.731	103.76
230.948	79.19
231.166	193.87
231.384	32.08
231.601	5.46
231.819	161.11
232.037	3.41
232.254	5.46
232.472	27.99
232.689	-23.21
232.907	107.86
233.125	7.51
233.342	-29.35
233.56	-12.97
233.777	-31.4
233.995	32.08
234.213	85.33
234.43	118.1
234.648	23.89
234.865	30.04
235.083	32.08
235.3	-29.35
235.518	52.56
235.735	148.82
235.953	140.63
236.17	81.24
236.388	19.8
236.605	58.71
236.822	77.14
237.04	152.92
237.257	46.42
237.475	-58.03
237.692	30.04
237.909	50.52
238.127	-6.83
238.344	109.91
238.562	66.9
238.779	-8.87
238.996	32.08
239.214	73.04
239.431	99.67
239.648	66.9
239.865	56.66
240.083	87.38
240.3	-82.6
240.517	13.65
240.735	-0.68
240.952	116.05
241.169	99.67
241.386	71
241.603	83.28
241.821	-10.92
242.038	105.81
242.255	105.81
242.472	-66.22
242.689	46.42
242.907	77.14
243.124	103.76
243.341	52.56
243.558	36.18
243.775	-51.88
243.992	-4.78
244.209	85.33
244.426	173.39
244.643	87.38
244.86	3.41
245.078	56.66
245.295	15.7
245.512	25.94
245.729	-8.87
245.946	114
246.163	32.08
246.38	5.46
246.597	71
246.814	50.52
247.031	19.8
247.248	17.75
247.464	93.52
247.681	79.19
247.898	142.68
248.115	91.48
248.332	46.42
248.549	103.76
248.766	216.4
248.983	23.89
249.2	54.61
249.417	87.38
249.633	105.81
249.85	56.66
250.067	68.95
250.284	103.76
250.501	103.76
250.717	148.82
250.934	-17.07
251.151	56.66
251.368	58.71
251.585	71
251.801	-6.83
252.018	-39.59
252.235	68.95
252.451	-68.27
252.668	27.99
252.885	173.39
253.102	71
253.318	64.85
253.535	-6.83
253.752	50.52
253.968	-10.92
254.185	-8.87
254.401	3.41
254.618	138.58
254.835	48.47
255.051	52.56
255.268	132.44
255.484	58.71
255.701	34.13
255.917	52.56
256.134	-37.55
256.351	25.94
256.567	-41.64
256.784	68.95
257	-0.68
257.217	62.8
257.433	54.61
257.65	87.38
257.866	95.57
258.082	3.41
258.299	-27.31
258.515	109.91
258.732	1.37
258.948	13.65
259.165	40.28
259.381	36.18
259.597	17.75
259.814	85.33
260.03	9.56
260.246	42.32
260.463	75.09
260.679	136.53
260.895	107.86
261.112	62.8
261.328	68.95
261.544	-6.83
261.761	261.46
261.977	-47.79
262.193	21.85
262.409	101.72
262.626	99.67
262.842	27.99
263.058	-76.46
263.274	42.32
263.49	85.33
263.707	101.72
263.923	79.19
264.139	-19.11
264.355	91.48
264.571	148.82
264.787	122.2
265.004	154.96
265.22	30.04
265.436	44.37
265.652	-33.45
265.868	109.91
266.084	-31.4
266.3	38.23
266.516	-68.27
266.732	46.42
266.948	-10.92
267.164	15.7
267.38	138.58
267.596	23.89
267.812	187.73
268.028	62.8
268.244	13.65
268.46	-19.11
268.676	32.08
268.892	48.47
269.108	-41.64
269.324	-66.22
269.54	-68.27
269.756	140.63
269.972	-49.83
270.188	95.57
270.403	-53.93
270.619	17.75
270.835	107.86
271.051	73.04
271.267	-25.26
271.483	-19.11
271.698	30.04
271.914	68.95
272.13	1.37
272.346	9.56
272.562	105.81
272.777	114
272.993	-0.68
273.209	9.56
273.425	101.72
273.64	-74.41
273.856	81.24
274.072	3.41
274.287	58.71
274.503	142.68
274.719	91.48
274.934	23.89
275.15	-90.79
275.366	40.28
275.581	19.8
275.797	27.99
276.012	30.04
276.228	15.7
276.444	79.19
276.659	177.49
276.875	62.8
277.09	73.04
277.306	-23.21
277.521	56.66
277.737	124.24
277.952	95.57
278.168	120.15
278.383	130.39
278.599	21.85
278.814	111.96
279.03	11.61
279.245	116.05
279.461	15.7
279.676	124.24
279.892	21.85
280.107	-0.68
280.322	-64.17
280.538	144.72
280.753	-27.31
280.969	42.32
281.184	56.66
281.399	191.83
281.615	48.47
281.83	56.66
282.045	-21.16
282.26	-37.55
282.476	124.24
282.691	52.56
282.906	60.76
283.122	15.7
283.337	52.56
283.552	54.61
283.767	-49.83
283.983	116.05
284.198	64.85
284.413	95.57
284.628	-174.76
284.843	52.56
285.058	93.52
285.274	11.61
285.489	7.51
285.704	105.81
285.919	-45.74
286.134	-17.07
286.349	-0.68
286.564	-21.16
286.779	179.54
286.995	-12.97
287.21	-78.51
287.425	46.42
287.64	62.8
287.855	75.09
288.07	-25.26
288.285	175.44
288.5	220.5
288.715	85.33
288.93	27.99
289.145	-12.97
289.36	120.15
289.575	95.57
289.79	114
290.004	15.7
290.219	83.28
290.434	34.13
290.649	1.37
290.864	-4.78
291.079	19.8
291.294	134.48
291.509	101.72
291.724	30.04
291.938	-15.02
292.153	118.1
292.368	30.04
292.583	60.76
292.798	107.86
293.012	101.72
293.227	116.05
293.442	25.94
293.657	38.23
293.871	150.87
294.086	64.85
294.301	224.59
294.516	167.25
294.73	81.24
294.945	-51.88
295.16	-6.83
295.374	144.72
295.589	126.29
295.804	-74.41
296.018	38.23
296.233	95.57
296.447	7.51
296.662	5.46
296.877	103.76
297.091	126.29
297.306	34.13
297.52	81.24
297.735	91.48
297.949	75.09
298.164	103.76
298.378	11.61
298.593	42.32
298.807	-45.74
299.022	-60.07
299.236	64.85
299.451	-60.07
299.665	-4.78
299.88	38.23
300.094	62.8
300.309	114
300.523	56.66
300.737	52.56
300.952	71
301.166	79.19
301.381	-47.79
301.595	-53.93
301.809	-6.83
302.024	52.56
302.238	-15.02
302.452	167.25
302.667	50.52
302.881	189.78
303.095	66.9
303.309	91.48
303.524	21.85
303.738	3.41
303.952	-19.11
304.166	56.66
304.381	-43.69
304.595	118.1
304.809	-23.21
305.023	38.23
305.237	11.61
305.452	-19.11
305.666	107.86
305.88	60.76
306.094	107.86
306.308	107.86
306.522	75.09
306.736	130.39
306.95	52.56
307.164	56.66
307.379	19.8
307.593	159.06
307.807	111.96
308.021	109.91
308.235	107.86
308.449	23.89
308.663	19.8
308.877	148.82
309.091	105.81
309.305	81.24
309.519	-64.17
309.733	124.24
309.947	-76.46
310.161	21.85
310.374	116.05
310.588	144.72
310.802	-88.75
311.016	48.47
311.23	48.47
311.444	34.13
311.658	27.99
311.872	75.09
312.085	150.87
312.299	152.92
312.513	134.48
312.727	54.61
312.941	-68.27
313.154	34.13
313.368	60.76
313.582	56.66
313.796	56.66
314.009	32.08
314.223	93.52
314.437	171.35
314.651	50.52
314.864	-0.68
315.078	-70.31
315.292	3.41
315.505	7.51
315.719	66.9
315.933	79.19
316.146	32.08
316.36	-33.45
316.573	124.24
316.787	44.37
317.001	58.71
317.214	38.23
317.428	85.33
317.641	-119.46
317.855	7.51
318.068	44.37
318.282	50.52
318.495	167.25
318.709	107.86
318.922	56.66
319.136	134.48
319.349	101.72
319.563	13.65
319.776	25.94
319.99	-27.31
320.203	89.43
320.417	60.76
320.63	79.19
320.843	136.53
321.057	40.28
321.27	77.14
321.483	81.24
321.697	120.15
321.91	109.91
322.124	5.46
322.337	95.57
322.55	-6.83
322.763	128.34
322.977	19.8
323.19	58.71
323.403	21.85
323.617	60.76
323.83	142.68
324.043	32.08
324.256	87.38
324.469	5.46
324.683	159.06
324.896	71
325.109	118.1
325.322	-41.64
325.535	208.21
325.748	118.1
325.962	-19.11
326.175	32.08
326.388	144.72
326.601	77.14
326.814	-35.5
327.027	38.23
327.24	130.39
327.453	-31.4
327.666	107.86
327.879	109.91
328.092	175.44
328.305	60.76
328.518	32.08
328.731	-23.21
328.944	21.85
329.157	66.9
329.37	-12.97
329.583	185.68
329.796	140.63
330.009	-17.07
330.222	71
330.435	87.38
330.648	50.52
330.861	85.33
331.073	85.33
331.286	95.57
331.499	-15.02
331.712	48.47
331.925	62.8
332.138	32.08
332.35	175.44
332.563	-10.92
332.776	60.76
332.989	-6.83
333.202	-10.92
333.414	-2.73
333.627	109.91
333.84	-4.78
334.053	124.24
334.265	75.09
334.478	-33.45
334.691	15.7
334.903	50.52
335.116	5.46
335.329	38.23
335.541	34.13
335.754	130.39
335.966	36.18
336.179	-6.83
336.392	42.32
336.604	7.51
336.817	85.33
337.029	21.85
337.242	103.76
337.454	122.2
337.667	42.32
337.88	109.91
338.092	101.72
338.305	130.39
338.517	60.76
338.729	103.76
338.942	187.73
339.154	-41.64
339.367	-43.69
339.579	167.25
339.792	-62.12
340.004	77.14
340.217	13.65
340.429	122.2
340.641	15.7
340.854	15.7
341.066	85.33
341.278	42.32
341.491	183.63
341.703	-12.97
341.915	-0.68
342.128	58.71
342.34	27.99
342.552	-41.64
342.764	66.9
342.977	46.42
343.189	1.37
343.401	44.37
343.613	17.75
343.826	-2.73
344.038	66.9
344.25	66.9
344.462	25.94
344.674	42.32
344.886	-10.92
345.099	120.15
345.311	71
345.523	-8.87
345.735	-37.55
345.947	89.43
346.159	85.33
346.371	136.53
346.583	148.82
346.795	130.39
347.007	21.85
347.219	77.14
347.431	66.9
347.643	97.62
347.855	27.99
348.067	165.2
348.279	44.37
348.491	34.13
348.703	52.56
348.915	32.08
349.127	54.61
349.339	66.9
349.551	64.85
349.763	109.91
349.975	77.14
350.187	93.52
350.399	197.97
350.61	60.76
350.822	103.76
351.034	81.24
351.246	85.33
351.458	128.34
351.669	124.24
351.881	179.54
352.093	77.14
352.305	146.77
352.517	23.89
352.728	183.63
352.94	75.09
353.152	50.52
353.363	25.94
353.575	32.08
353.787	152.92
353.999	66.9
354.21	73.04
354.422	27.99
354.633	50.52
354.845	27.99
355.057	-37.55
355.268	38.23
355.48	81.24
355.692	-15.02
355.903	-12.97
356.115	-17.07
356.326	-27.31
356.538	146.77
356.749	126.29
356.961	136.53
357.172	-12.97
357.384	-2.73
357.595	255.31
357.807	-31.4
358.018	7.51
358.23	48.47
358.441	216.4
358.653	77.14
358.864	75.09
359.075	-0.68
359.287	32.08
359.498	101.72
359.709	120.15
359.921	71
360.132	89.43
360.344	34.13
360.555	44.37
360.766	50.52
360.977	62.8
361.189	169.3
361.4	85.33
361.611	75.09
361.823	128.34
362.034	42.32
362.245	-33.45
362.456	66.9
362.667	79.19
362.879	-41.64
363.09	144.72
363.301	58.71
363.512	101.72
363.723	1.37
363.935	-49.83
364.146	58.71
364.357	-35.5
364.568	116.05
364.779	3.41
364.99	146.77
365.201	-0.68
365.412	118.1
365.623	-21.16
365.834	97.62
366.045	27.99
366.256	77.14
366.467	58.71
366.678	66.9
366.889	93.52
367.1	13.65
367.311	83.28
367.522	15.7
367.733	107.86
367.944	118.1
368.155	11.61
368.366	97.62
368.577	132.44
368.788	165.2
368.999	11.61
369.209	-21.16
369.42	234.83
369.631	238.93
369.842	128.34
370.053	73.04
370.264	81.24
370.474	23.89
370.685	62.8
370.896	9.56
371.107	193.87
371.317	66.9
371.528	21.85
371.739	56.66
371.95	87.38
372.16	116.05
372.371	-72.36
372.582	-6.83
372.792	9.56
373.003	95.57
373.214	25.94
373.424	85.33
373.635	3.41
373.846	171.35
374.056	68.95
374.267	107.86
374.477	120.15
374.688	-31.4
374.898	42.32
375.109	38.23
375.319	109.91
375.53	116.05
375.74	81.24
375.951	64.85
376.161	77.14
376.372	107.86
376.582	58.71
376.793	138.58
377.003	46.42
377.214	13.65
377.424	42.32
377.635	50.52
377.845	-17.07
378.055	175.44
378.266	-15.02
378.476	66.9
378.686	48.47
378.897	103.76
379.107	109.91
379.317	99.67
379.528	-68.27
379.738	128.34
379.948	-12.97
380.158	114
380.369	27.99
380.579	83.28
380.789	34.13
380.999	146.77
381.21	91.48
381.42	165.2
381.63	64.85
381.84	44.37
382.05	83.28
382.261	169.3
382.471	179.54
382.681	32.08
382.891	218.45
383.101	99.67
383.311	25.94
383.521	7.51
383.731	42.32
383.941	152.92
384.151	19.8
384.361	30.04
384.571	23.89
384.781	48.47
384.991	195.92
385.201	191.83
385.411	95.57
385.621	48.47
385.831	152.92
386.041	21.85
386.251	56.66
386.461	111.96
386.671	54.61
386.881	-41.64
387.091	85.33
387.301	85.33
387.511	54.61
387.72	64.85
387.93	99.67
388.14	-144.04
388.35	27.99
388.56	107.86
388.769	148.82
388.979	46.42
389.189	25.94
389.399	62.8
389.609	136.53
389.818	167.25
390.028	122.2
390.238	204.11
390.447	5.46
390.657	114
390.867	9.56
391.076	-84.65
391.286	128.34
391.496	19.8
391.705	7.51
391.915	128.34
392.125	79.19
392.334	23.89
392.544	202.07
392.753	52.56
392.963	-70.31
393.172	66.9
393.382	5.46
393.591	191.83
393.801	-27.31
394.01	105.81
394.22	85.33
394.429	103.76
394.639	68.95
394.848	66.9
395.058	32.08
395.267	32.08
395.477	122.2
395.686	95.57
395.895	261.46
396.105	230.74
396.314	101.72
396.524	19.8
396.733	19.8
396.942	163.15
397.152	105.81
397.361	64.85
397.57	120.15
397.78	15.7
397.989	60.76
398.198	226.64
398.407	68.95
398.617	73.04
398.826	130.39
399.035	64.85
399.244	124.24
399.453	87.38
399.663	42.32
399.872	60.76
400.081	107.86
400.29	50.52
400.499	7.51
400.708	163.15
400.917	161.11
401.127	25.94
401.336	-6.83
401.545	60.76
401.754	81.24
401.963	136.53
402.172	46.42
402.381	-58.03
402.59	42.32
402.799	-0.68
403.008	101.72
403.217	103.76
403.426	62.8
403.635	-51.88
403.844	42.32
404.053	93.52
404.262	52.56
404.471	165.2
404.68	105.81
404.888	58.71
405.097	-17.07
405.306	68.95
405.515	157.01
405.724	17.75
405.933	34.13
406.142	89.43
406.35	146.77
406.559	23.89
406.768	124.24
406.977	169.3
407.185	91.48
407.394	181.59
407.603	68.95
407.812	58.71
408.02	128.34
408.229	64.85
408.438	111.96
408.646	-45.74
408.855	75.09
409.064	32.08
409.272	89.43
409.481	114
409.69	23.89
409.898	23.89
410.107	42.32
410.315	140.63
410.524	71
410.733	71
410.941	27.99
411.15	114
411.358	122.2
411.567	142.68
411.775	11.61
411.984	140.63
412.192	105.81
412.401	25.94
412.609	122.2
412.818	142.68
413.026	85.33
413.234	23.89
413.443	91.48
413.651	66.9
413.86	79.19
414.068	183.63
414.276	169.3
414.485	15.7
414.693	163.15
414.901	197.97
415.11	111.96
415.318	109.91
415.526	44.37
415.734	167.25
415.943	83.28
416.151	124.24
416.359	30.04
416.567	60.76
416.776	89.43
416.984	91.48
417.192	173.39
417.4	13.65
417.608	71
417.817	-10.92
418.025	183.63
418.233	267.6
418.441	-15.02
418.649	3.41
418.857	62.8
419.065	222.55
419.273	1.37
419.481	44.37
419.689	99.67
419.897	23.89
420.105	23.89
420.313	148.82
420.521	206.16
420.729	263.51
420.937	15.7
421.145	-8.87
421.353	114
421.561	148.82
421.769	87.38
421.977	46.42
422.185	93.52
422.393	114
422.601	46.42
422.809	167.25
423.017	109.91
423.224	23.89
423.432	120.15
423.64	60.76
423.848	150.87
424.056	23.89
424.263	187.73
424.471	54.61
424.679	185.68
424.887	-8.87
425.094	163.15
425.302	122.2
425.51	91.48
425.718	56.66
425.925	83.28
426.133	54.61
426.341	130.39
426.548	54.61
426.756	107.86
426.964	101.72
427.171	52.56
427.379	77.14
427.586	60.76
427.794	136.53
428.001	64.85
428.209	97.62
428.417	177.49
428.624	163.15
428.832	118.1
429.039	154.96
429.247	126.29
429.454	138.58
429.662	206.16
429.869	195.92
430.076	191.83
430.284	107.86
430.491	204.11
430.699	165.2
430.906	228.69
431.114	171.35
431.321	150.87
431.528	83.28
431.736	165.2
431.943	134.48
432.15	132.44
432.358	232.79
432.565	228.69
432.772	25.94
432.979	255.31
433.187	157.01
433.394	212.31
433.601	116.05
433.808	236.88
434.016	253.27
434.223	273.75
434.43	247.12
434.637	286.03
434.844	238.93
435.052	247.12
435.259	265.55
435.466	341.33
435.673	337.23
435.88	224.59
436.087	365.9
436.294	300.37
436.501	417.1
436.708	273.75
436.915	443.73
437.122	398.67
437.329	224.59
437.537	335.18
437.743	466.25
437.95	521.55
438.157	421.2
438.364	427.34
438.571	496.97
438.778	474.45
438.985	507.21
439.192	505.17
439.399	494.93
439.606	499.02
439.813	482.64
440.02	669
440.227	675.15
440.433	656.72
440.64	546.13
440.847	533.84
441.054	726.35
441.261	781.64
441.467	722.25
441.674	595.28
441.881	791.88
442.088	771.4
442.294	830.79
442.501	900.42
442.708	812.36
442.914	773.45
443.121	982.34
443.328	925
443.534	996.68
443.741	1013.06
443.948	994.63
444.154	1082.69
444.361	1221.95
444.568	1115.46
444.774	1082.69
444.981	1105.22
445.187	1262.91
445.394	1344.83
445.6	1350.98
445.807	1508.67
446.013	1422.66
446.22	1332.55
446.426	1418.56
446.633	1635.64
446.839	1893.69
447.046	1514.81
447.252	1738.04
447.459	1795.39
447.665	1754.43
447.871	1942.84
448.078	2159.92
448.284	2067.77
448.491	2196.79
448.697	2266.42
448.903	2366.77
449.11	2458.93
449.316	2370.87
449.522	2577.71
449.728	2694.44
449.935	2766.12
450.141	2716.97
450.347	2895.15
450.553	2909.48
450.76	2936.1
450.966	3249.44
451.172	3239.2
451.378	3386.66
451.584	3497.25
451.791	3779.87
451.997	3740.96
452.203	3990.81
452.409	4085.01
452.615	4275.48
452.821	4193.56
453.027	4257.04
453.233	4723.98
453.44	4498.7
453.646	4875.53
453.852	5141.77
454.058	5467.39
454.264	5487.87
454.47	5829.88
454.676	5604.61
454.882	6292.73
455.088	6006.01
455.294	6368.5
455.5	6784.24
455.705	7195.88
455.911	7159.02
456.117	7396.58
456.323	7546.08
456.529	7535.84
456.735	8174.81
456.941	8455.38
457.147	8848.59
457.352	8979.66
457.558	9258.18
457.764	9741.5
457.97	10116.28
458.176	10650.8
458.381	10917.04
458.587	11054.25
458.793	11918.5
458.999	11836.58
459.204	13204.62
459.41	13614.21
459.616	13462.66
459.821	14564.47
460.027	15137.9
460.233	15389.8
460.438	15752.29
460.644	16579.67
460.85	16663.64
461.055	17402.96
461.261	18230.34
461.466	18037.83
461.672	17884.23
461.878	20323.36
462.083	20057.12
462.289	20575.26
462.494	21339.15
462.7	21240.85
462.905	21847.05
463.111	23010.29
463.316	24787.93
463.522	25136.09
463.727	26149.83
463.932	26825.66
464.138	27626.42
464.343	28996.51
464.549	29213.59
464.754	31236.98
464.959	31689.59
465.165	32289.64
465.37	32021.36
465.575	32312.17
465.781	34306.89
465.986	35265.34
466.191	34628.42
466.397	35224.38
466.602	34376.52
466.807	36322.09
467.012	36696.87
467.218	37507.86
467.423	37335.84
467.628	38384.4
467.833	40364.78
468.038	39758.58
468.244	39191.3
468.449	41075.43
468.654	40483.56
468.859	40131.31
469.064	40463.08
