Data from USB4F104151__36__11-26-27-093.txt Node

Date: Wed Feb 26 11:26:27 EST 2025
User: louis
Spectrometer: USB4F10415
Trigger mode: 4
Integration Time (sec): 1.000000E-1
Scans to average: 1
Electric dark correction enabled: true
Nonlinearity correction enabled: false
Boxcar width: 0
XAxis mode: Wavelengths
Number of Pixels in Spectrum: 3648
>>>>>Begin Spectral Data<<<<<
178.204	-321.19
178.424	-321.19
178.644	-321.19
178.864	-384.68
179.084	-351.91
179.304	72.02
179.524	29.01
179.744	29.01
179.964	20.82
180.184	16.73
180.404	-30.38
180.624	18.77
180.844	-77.48
181.064	-89.77
181.283	-16.04
181.503	-34.47
181.723	61.78
181.943	-106.15
182.163	233.81
182.383	-50.86
182.602	100.69
182.822	235.86
183.042	72.02
183.262	-30.38
183.482	24.92
183.701	18.77
183.921	96.6
184.141	-11.95
184.361	0.34
184.58	65.88
184.8	57.68
185.02	14.68
185.239	96.6
185.459	164.18
185.679	180.56
185.898	-110.25
186.118	22.87
186.338	92.5
186.557	127.32
186.777	-46.76
186.997	14.68
187.216	92.5
187.436	254.29
187.655	55.64
187.875	196.95
188.095	49.49
188.314	178.51
188.534	170.32
188.753	-9.9
188.973	147.8
189.192	174.42
189.412	78.16
189.631	125.27
189.851	131.41
190.07	137.56
190.29	-1.71
190.509	26.96
190.729	115.03
190.948	139.6
191.168	295.25
191.387	82.26
191.607	-5.8
191.826	121.17
192.045	31.06
192.265	-57
192.484	39.25
192.704	61.78
192.923	-59.05
193.142	141.65
193.362	94.55
193.581	225.62
193.8	74.07
194.02	12.63
194.239	57.68
194.458	86.36
194.678	65.88
194.897	-7.85
195.116	63.83
195.335	84.31
195.555	80.21
195.774	35.16
195.993	137.56
196.212	51.54
196.432	18.77
196.651	12.63
196.87	90.45
197.089	280.91
197.308	86.36
197.528	102.74
197.747	-52.91
197.966	57.68
198.185	76.12
198.404	-57
198.623	160.08
198.842	119.12
199.062	88.4
199.281	84.31
199.5	90.45
199.719	121.17
199.938	37.2
200.157	72.02
200.376	149.84
200.595	139.6
200.814	61.78
201.033	-73.39
201.252	201.04
201.471	29.01
201.69	24.92
201.909	0.34
202.128	104.79
202.347	129.36
202.566	43.35
202.785	-30.38
203.004	16.73
203.223	325.97
203.442	84.31
203.661	-46.76
203.879	49.49
204.098	104.79
204.317	-40.62
204.536	121.17
204.755	47.44
204.974	84.31
205.193	72.02
205.411	112.98
205.63	57.68
205.849	133.46
206.068	51.54
206.287	-32.43
206.505	84.31
206.724	110.93
206.943	14.68
207.162	-38.57
207.381	117.08
207.599	20.82
207.818	35.16
208.037	-5.8
208.255	39.25
208.474	63.83
208.693	106.84
208.911	4.44
209.13	88.4
209.349	80.21
209.567	31.06
209.786	135.51
210.005	180.56
210.223	49.49
210.442	-130.73
210.661	-7.85
210.879	67.92
211.098	49.49
211.316	110.93
211.535	-13.99
211.753	-32.43
211.972	82.26
212.191	-67.24
212.409	31.06
212.628	63.83
212.846	84.31
213.065	94.55
213.283	135.51
213.502	102.74
213.72	84.31
213.938	51.54
214.157	2.39
214.375	53.59
214.594	39.25
214.812	12.63
215.031	-24.23
215.249	47.44
215.467	67.92
215.686	29.01
215.904	80.21
216.122	102.74
216.341	115.03
216.559	-13.99
216.778	104.79
216.996	158.03
217.214	84.31
217.432	-57
217.651	43.35
217.869	72.02
218.087	65.88
218.306	-108.2
218.524	129.36
218.742	-16.04
218.96	123.22
219.179	84.31
219.397	90.45
219.615	239.95
219.833	117.08
220.051	24.92
220.27	92.5
220.488	88.4
220.706	115.03
220.924	-18.09
221.142	-69.29
221.36	51.54
221.578	61.78
221.796	65.88
222.015	-42.67
222.233	112.98
222.451	178.51
222.669	-20.14
222.887	110.93
223.105	49.49
223.323	106.84
223.541	119.12
223.759	63.83
223.977	6.49
224.195	170.32
224.413	158.03
224.631	53.59
224.849	35.16
225.067	219.47
225.285	59.73
225.503	-30.38
225.721	-73.39
225.939	39.25
226.157	115.03
226.375	198.99
226.592	69.97
226.81	86.36
227.028	145.75
227.246	110.93
227.464	69.97
227.682	39.25
227.9	-28.33
228.117	76.12
228.335	106.84
228.553	57.68
228.771	33.11
228.989	29.01
229.206	123.22
229.424	22.87
229.642	-3.75
229.86	-34.47
230.077	143.7
230.295	102.74
230.513	100.69
230.731	74.07
230.948	121.17
231.166	176.47
231.384	0.34
231.601	94.55
231.819	170.32
232.037	-20.14
232.254	0.34
232.472	69.97
232.689	14.68
232.907	135.51
233.125	41.3
233.342	24.92
233.56	33.11
233.777	86.36
233.995	0.34
234.213	121.17
234.43	147.8
234.648	41.3
234.865	29.01
235.083	61.78
235.3	125.27
235.518	186.71
235.735	98.64
235.953	147.8
236.17	67.92
236.388	10.58
236.605	33.11
236.822	172.37
237.04	123.22
237.257	6.49
237.475	-9.9
237.692	37.2
237.909	90.45
238.127	47.44
238.344	39.25
238.562	20.82
238.779	-11.95
238.996	-65.19
239.214	22.87
239.431	147.8
239.648	92.5
239.865	98.64
240.083	125.27
240.3	-30.38
240.517	12.63
240.735	47.44
240.952	90.45
241.169	63.83
241.386	59.73
241.603	26.96
241.821	-52.91
242.038	96.6
242.255	160.08
242.472	-22.19
242.689	121.17
242.907	92.5
243.124	14.68
243.341	-11.95
243.558	-52.91
243.775	-9.9
243.992	-73.39
244.209	115.03
244.426	201.04
244.643	55.64
244.86	41.3
245.078	184.66
245.295	65.88
245.512	-13.99
245.729	86.36
245.946	98.64
246.163	-11.95
246.38	22.87
246.597	63.83
246.814	145.75
247.031	29.01
247.248	-18.09
247.464	131.41
247.681	155.99
247.898	47.44
248.115	131.41
248.332	18.77
248.549	117.08
248.766	192.85
248.983	123.22
249.2	24.92
249.417	198.99
249.633	45.4
249.85	43.35
250.067	72.02
250.284	-13.99
250.501	104.79
250.717	65.88
250.934	0.34
251.151	49.49
251.368	-16.04
251.585	102.74
251.801	65.88
252.018	-32.43
252.235	121.17
252.451	-28.33
252.668	65.88
252.885	78.16
253.102	47.44
253.318	35.16
253.535	0.34
253.752	-48.81
253.968	16.73
254.185	-97.96
254.401	14.68
254.618	98.64
254.835	6.49
255.051	184.66
255.268	61.78
255.484	129.36
255.701	10.58
255.917	51.54
256.134	-24.23
256.351	45.4
256.567	-65.19
256.784	61.78
257	-50.86
257.217	86.36
257.433	155.99
257.65	117.08
257.866	86.36
258.082	-13.99
258.299	53.59
258.515	26.96
258.732	2.39
258.948	12.63
259.165	41.3
259.381	31.06
259.597	80.21
259.814	78.16
260.03	24.92
260.246	106.84
260.463	108.88
260.679	119.12
260.895	92.5
261.112	10.58
261.328	49.49
261.544	31.06
261.761	170.32
261.977	-13.99
262.193	-50.86
262.409	153.94
262.626	63.83
262.842	61.78
263.058	-34.47
263.274	82.26
263.49	55.64
263.707	74.07
263.923	80.21
264.139	-30.38
264.355	82.26
264.571	121.17
264.787	102.74
265.004	137.56
265.22	72.02
265.436	-40.62
265.652	84.31
265.868	59.73
266.084	6.49
266.3	61.78
266.516	-1.71
266.732	90.45
266.948	55.64
267.164	29.01
267.38	22.87
267.596	106.84
267.812	229.71
268.028	4.44
268.244	4.44
268.46	119.12
268.676	51.54
268.892	-18.09
269.108	-57
269.324	-42.67
269.54	0.34
269.756	137.56
269.972	-71.34
270.188	2.39
270.403	0.34
270.619	2.39
270.835	90.45
271.051	-16.04
271.267	-38.57
271.483	65.88
271.698	88.4
271.914	121.17
272.13	121.17
272.346	108.88
272.562	-9.9
272.777	96.6
272.993	-28.33
273.209	45.4
273.425	47.44
273.64	29.01
273.856	102.74
274.072	4.44
274.287	39.25
274.503	100.69
274.719	100.69
274.934	-32.43
275.15	-83.63
275.366	-5.8
275.581	-40.62
275.797	129.36
276.012	145.75
276.228	-16.04
276.444	158.03
276.659	149.84
276.875	-75.43
277.09	31.06
277.306	-1.71
277.521	137.56
277.737	20.82
277.952	51.54
278.168	65.88
278.383	86.36
278.599	186.71
278.814	123.22
279.03	24.92
279.245	201.04
279.461	18.77
279.676	123.22
279.892	6.49
280.107	-50.86
280.322	2.39
280.538	121.17
280.753	65.88
280.969	51.54
281.184	35.16
281.399	155.99
281.615	143.7
281.83	100.69
282.045	6.49
282.26	-44.71
282.476	41.3
282.691	78.16
282.906	65.88
283.122	112.98
283.337	-69.29
283.552	102.74
283.767	29.01
283.983	135.51
284.198	20.82
284.413	121.17
284.628	-81.58
284.843	45.4
285.058	129.36
285.274	35.16
285.489	-85.67
285.704	119.12
285.919	-40.62
286.134	29.01
286.349	41.3
286.564	-83.63
286.779	108.88
286.995	53.59
287.21	-54.95
287.425	115.03
287.64	10.58
287.855	108.88
288.07	-22.19
288.285	76.12
288.5	80.21
288.715	176.47
288.93	63.83
289.145	-42.67
289.36	92.5
289.575	69.97
289.79	246.1
290.004	-50.86
290.219	45.4
290.434	-16.04
290.649	14.68
290.864	59.73
291.079	6.49
291.294	90.45
291.509	57.68
291.724	61.78
291.938	20.82
292.153	51.54
292.368	74.07
292.583	20.82
292.798	84.31
293.012	39.25
293.227	14.68
293.442	51.54
293.657	121.17
293.871	125.27
294.086	125.27
294.301	194.9
294.516	117.08
294.73	53.59
294.945	-67.24
295.16	49.49
295.374	131.41
295.589	16.73
295.804	0.34
296.018	-9.9
296.233	137.56
296.447	160.08
296.662	-57
296.877	131.41
297.091	67.92
297.306	72.02
297.52	65.88
297.735	112.98
297.949	53.59
298.164	88.4
298.378	31.06
298.593	-83.63
298.807	-16.04
299.022	26.96
299.236	184.66
299.451	14.68
299.665	-5.8
299.88	47.44
300.094	86.36
300.309	121.17
300.523	76.12
300.737	-9.9
300.952	16.73
301.166	80.21
301.381	-36.52
301.595	26.96
301.809	33.11
302.024	-50.86
302.238	35.16
302.452	108.88
302.667	69.97
302.881	205.14
303.095	104.79
303.309	55.64
303.524	-30.38
303.738	78.16
303.952	22.87
304.166	80.21
304.381	-134.82
304.595	223.57
304.809	39.25
305.023	92.5
305.237	29.01
305.452	69.97
305.666	76.12
305.88	143.7
306.094	141.65
306.308	137.56
306.522	53.59
306.736	2.39
306.95	141.65
307.164	47.44
307.379	41.3
307.593	112.98
307.807	190.8
308.021	121.17
308.235	26.96
308.449	-95.91
308.663	63.83
308.877	160.08
309.091	37.2
309.305	88.4
309.519	-81.58
309.733	108.88
309.947	-57
310.161	90.45
310.374	125.27
310.588	47.44
310.802	-57
311.016	-18.09
311.23	39.25
311.444	-26.28
311.658	22.87
311.872	145.75
312.085	117.08
312.299	194.9
312.513	209.23
312.727	57.68
312.941	22.87
313.154	-1.71
313.368	26.96
313.582	55.64
313.796	82.26
314.009	63.83
314.223	168.27
314.437	74.07
314.651	86.36
314.864	-48.81
315.078	12.63
315.292	-9.9
315.505	10.58
315.719	149.84
315.933	178.51
316.146	10.58
316.36	-61.1
316.573	151.89
316.787	180.56
317.001	49.49
317.214	-30.38
317.428	80.21
317.641	-11.95
317.855	31.06
318.068	98.64
318.282	117.08
318.495	164.18
318.709	69.97
318.922	69.97
319.136	127.32
319.349	186.71
319.563	29.01
319.776	125.27
319.99	-97.96
320.203	119.12
320.417	53.59
320.63	63.83
320.843	98.64
321.057	24.92
321.27	24.92
321.483	106.84
321.697	131.41
321.91	41.3
322.124	53.59
322.337	123.22
322.55	-59.05
322.763	69.97
322.977	63.83
323.19	47.44
323.403	-48.81
323.617	45.4
323.83	115.03
324.043	-16.04
324.256	49.49
324.469	31.06
324.683	149.84
324.896	-7.85
325.109	37.2
325.322	-24.23
325.535	106.84
325.748	123.22
325.962	-13.99
326.175	110.93
326.388	104.79
326.601	160.08
326.814	59.73
327.027	84.31
327.24	194.9
327.453	-5.8
327.666	86.36
327.879	108.88
328.092	131.41
328.305	45.4
328.518	-7.85
328.731	72.02
328.944	-13.99
329.157	63.83
329.37	78.16
329.583	131.41
329.796	178.51
330.009	-108.2
330.222	160.08
330.435	69.97
330.648	86.36
330.861	43.35
331.073	67.92
331.286	108.88
331.499	61.78
331.712	-22.19
331.925	90.45
332.138	33.11
332.35	69.97
332.563	72.02
332.776	98.64
332.989	10.58
333.202	41.3
333.414	92.5
333.627	24.92
333.84	18.77
334.053	78.16
334.265	-1.71
334.478	-26.28
334.691	8.53
334.903	55.64
335.116	-9.9
335.329	121.17
335.541	145.75
335.754	170.32
335.966	82.26
336.179	63.83
336.392	24.92
336.604	41.3
336.817	162.13
337.029	57.68
337.242	8.53
337.454	43.35
337.667	49.49
337.88	125.27
338.092	106.84
338.305	135.51
338.517	16.73
338.729	82.26
338.942	139.6
339.154	20.82
339.367	37.2
339.579	74.07
339.792	20.82
340.004	194.9
340.217	22.87
340.429	88.4
340.641	6.49
340.854	22.87
341.066	-11.95
341.278	123.22
341.491	201.04
341.703	108.88
341.915	-3.75
342.128	29.01
342.34	78.16
342.552	6.49
342.764	108.88
342.977	86.36
343.189	88.4
343.401	121.17
343.613	-50.86
343.826	35.16
344.038	-16.04
344.25	-1.71
344.462	51.54
344.674	125.27
344.886	-20.14
345.099	92.5
345.311	51.54
345.523	-5.8
345.735	-104.11
345.947	98.64
346.159	14.68
346.371	53.59
346.583	41.3
346.795	221.52
347.007	39.25
347.219	100.69
347.431	47.44
347.643	69.97
347.855	88.4
348.067	94.55
348.279	18.77
348.491	102.74
348.703	182.61
348.915	26.96
349.127	22.87
349.339	-5.8
349.551	4.44
349.763	65.88
349.975	49.49
350.187	125.27
350.399	158.03
350.61	59.73
350.822	43.35
351.034	158.03
351.246	47.44
351.458	104.79
351.669	35.16
351.881	141.65
352.093	63.83
352.305	162.13
352.517	94.55
352.728	174.42
352.94	45.4
353.152	108.88
353.363	-63.15
353.575	57.68
353.787	225.62
353.999	102.74
354.21	145.75
354.422	-7.85
354.633	80.21
354.845	43.35
355.057	67.92
355.268	98.64
355.48	106.84
355.692	-61.1
355.903	106.84
356.115	-81.58
356.326	-52.91
356.538	203.09
356.749	98.64
356.961	198.99
357.172	10.58
357.384	2.39
357.595	209.23
357.807	47.44
358.018	8.53
358.23	69.97
358.441	178.51
358.653	151.89
358.864	76.12
359.075	-3.75
359.287	53.59
359.498	96.6
359.709	78.16
359.921	-3.75
360.132	108.88
360.344	76.12
360.555	18.77
360.766	24.92
360.977	61.78
361.189	147.8
361.4	-5.8
361.611	135.51
361.823	135.51
362.034	86.36
362.245	-22.19
362.456	65.88
362.667	190.8
362.879	-38.57
363.09	115.03
363.301	158.03
363.512	92.5
363.723	-16.04
363.935	41.3
364.146	190.8
364.357	39.25
364.568	4.44
364.779	-7.85
364.99	184.66
365.201	26.96
365.412	117.08
365.623	-87.72
365.834	119.12
366.045	-20.14
366.256	51.54
366.467	127.32
366.678	-36.52
366.889	18.77
367.1	-9.9
367.311	125.27
367.522	-61.1
367.733	57.68
367.944	80.21
368.155	88.4
368.366	96.6
368.577	135.51
368.788	123.22
368.999	-7.85
369.209	57.68
369.42	252.24
369.631	274.77
369.842	108.88
370.053	53.59
370.264	86.36
370.474	41.3
370.685	100.69
370.896	63.83
371.107	190.8
371.317	57.68
371.528	51.54
371.739	121.17
371.95	84.31
372.16	104.79
372.371	-20.14
372.582	39.25
372.792	80.21
373.003	84.31
373.214	24.92
373.424	104.79
373.635	14.68
373.846	121.17
374.056	6.49
374.267	61.78
374.477	117.08
374.688	86.36
374.898	69.97
375.109	20.82
375.319	84.31
375.53	108.88
375.74	119.12
375.951	-54.95
376.161	104.79
376.372	108.88
376.582	-61.1
376.793	59.73
377.003	43.35
377.214	10.58
377.424	129.36
377.635	55.64
377.845	-1.71
378.055	164.18
378.266	-59.05
378.476	12.63
378.686	127.32
378.897	4.44
379.107	72.02
379.317	119.12
379.528	43.35
379.738	151.89
379.948	-118.44
380.158	63.83
380.369	-40.62
380.579	133.46
380.789	88.4
380.999	90.45
381.21	90.45
381.42	250.19
381.63	59.73
381.84	108.88
382.05	125.27
382.261	164.18
382.471	121.17
382.681	39.25
382.891	233.81
383.101	45.4
383.311	24.92
383.521	-48.81
383.731	201.04
383.941	123.22
384.151	63.83
384.361	26.96
384.571	41.3
384.781	86.36
384.991	219.47
385.201	160.08
385.411	174.42
385.621	94.55
385.831	78.16
386.041	84.31
386.251	20.82
386.461	108.88
386.671	45.4
386.881	104.79
387.091	-3.75
387.301	80.21
387.511	45.4
387.72	100.69
387.93	53.59
388.14	-97.96
388.35	39.25
388.56	178.51
388.769	127.32
388.979	-9.9
389.189	16.73
389.399	76.12
389.609	100.69
389.818	160.08
390.028	82.26
390.238	14.68
390.447	55.64
390.657	102.74
390.867	14.68
391.076	-151.21
391.286	86.36
391.496	39.25
391.705	6.49
391.915	155.99
392.125	76.12
392.334	49.49
392.544	151.89
392.753	-5.8
392.963	-34.47
393.172	94.55
393.382	26.96
393.591	158.03
393.801	6.49
394.01	139.6
394.22	92.5
394.429	82.26
394.639	-18.09
394.848	94.55
395.058	133.46
395.267	35.16
395.477	78.16
395.686	43.35
395.895	110.93
396.105	237.91
396.314	55.64
396.524	164.18
396.733	31.06
396.942	139.6
397.152	131.41
397.361	135.51
397.57	133.46
397.78	82.26
397.989	106.84
398.198	260.43
398.407	51.54
398.617	67.92
398.826	53.59
399.035	92.5
399.244	110.93
399.453	80.21
399.663	57.68
399.872	90.45
400.081	-3.75
400.29	160.08
400.499	-1.71
400.708	110.93
400.917	31.06
401.127	4.44
401.336	-5.8
401.545	180.56
401.754	84.31
401.963	53.59
402.172	-5.8
402.381	-71.34
402.59	108.88
402.799	69.97
403.008	209.23
403.217	102.74
403.426	104.79
403.635	12.63
403.844	16.73
404.053	39.25
404.262	98.64
404.471	78.16
404.68	104.79
404.888	61.78
405.097	61.78
405.306	82.26
405.515	100.69
405.724	37.2
405.933	133.46
406.142	22.87
406.35	178.51
406.559	100.69
406.768	65.88
406.977	217.43
407.185	121.17
407.394	63.83
407.603	-24.23
407.812	78.16
408.02	108.88
408.229	43.35
408.438	90.45
408.646	-40.62
408.855	26.96
409.064	106.84
409.272	121.17
409.481	69.97
409.69	45.4
409.898	55.64
410.107	33.11
410.315	153.94
410.524	-40.62
410.733	78.16
410.941	78.16
411.15	178.51
411.358	47.44
411.567	170.32
411.775	112.98
411.984	0.34
412.192	43.35
412.401	18.77
412.609	112.98
412.818	145.75
413.026	92.5
413.234	67.92
413.443	39.25
413.651	18.77
413.86	14.68
414.068	100.69
414.276	256.34
414.485	6.49
414.693	162.13
414.901	158.03
415.11	121.17
415.318	57.68
415.526	84.31
415.734	16.73
415.943	188.75
416.151	205.14
416.359	69.97
416.567	127.32
416.776	53.59
416.984	78.16
417.192	227.67
417.4	-38.57
417.608	65.88
417.817	-57
418.025	141.65
418.233	172.37
418.441	6.49
418.649	39.25
418.857	61.78
419.065	162.13
419.273	-9.9
419.481	78.16
419.689	96.6
419.897	4.44
420.105	22.87
420.313	151.89
420.521	196.95
420.729	153.94
420.937	2.39
421.145	14.68
421.353	149.84
421.561	170.32
421.769	117.08
421.977	37.2
422.185	110.93
422.393	104.79
422.601	100.69
422.809	55.64
423.017	39.25
423.224	104.79
423.432	153.94
423.64	127.32
423.848	98.64
424.056	4.44
424.263	127.32
424.471	20.82
424.679	180.56
424.887	-69.29
425.094	112.98
425.302	125.27
425.51	45.4
425.718	119.12
425.925	110.93
426.133	84.31
426.341	137.56
426.548	16.73
426.756	78.16
426.964	102.74
427.171	29.01
427.379	151.89
427.586	94.55
427.794	115.03
428.001	164.18
428.209	131.41
428.417	172.37
428.624	37.2
428.832	160.08
429.039	106.84
429.247	57.68
429.454	162.13
429.662	139.6
429.869	112.98
430.076	153.94
430.284	168.27
430.491	137.56
430.699	135.51
430.906	244.05
431.114	184.66
431.321	112.98
431.528	160.08
431.736	158.03
431.943	139.6
432.15	203.09
432.358	196.95
432.565	313.68
432.772	59.73
432.979	153.94
433.187	192.85
433.394	178.51
433.601	184.66
433.808	209.23
434.016	219.47
434.223	180.56
434.43	192.85
434.637	270.67
434.844	280.91
435.052	270.67
435.259	289.1
435.466	301.39
435.673	313.68
435.88	303.44
436.087	354.64
436.294	420.17
436.501	422.22
436.708	373.07
436.915	268.63
437.122	356.69
437.329	278.87
437.537	315.73
437.743	354.64
437.95	473.42
438.157	330.06
438.364	407.89
438.571	371.02
438.778	459.09
438.985	518.48
439.192	545.1
439.399	547.15
439.606	373.07
439.813	569.68
440.02	608.59
440.227	846.15
440.433	657.74
440.64	600.4
440.847	522.57
441.054	635.21
441.261	762.19
441.467	602.44
441.674	569.68
441.881	725.32
442.088	735.56
442.294	731.47
442.501	813.38
442.708	829.77
442.914	792.91
443.121	966.98
443.328	862.54
443.534	954.69
443.741	983.37
443.948	854.34
444.154	969.03
444.361	1200.45
444.568	977.22
444.774	1036.61
444.981	1159.49
445.187	1239.36
445.394	1259.84
445.6	1192.26
445.807	1349.95
446.013	1345.86
446.22	1343.81
446.426	1519.93
446.633	1653.05
446.839	1829.18
447.046	1456.45
447.252	1751.35
447.459	1689.92
447.665	1712.44
447.871	1923.38
448.078	2046.26
448.284	2076.98
448.491	2076.98
448.697	2124.08
448.903	2380.08
449.11	2267.44
449.316	2277.68
449.522	2468.14
449.728	2586.93
449.935	2691.37
450.141	2709.8
450.347	3176.74
450.553	2894.12
450.76	2969.9
450.966	3072.29
451.172	3197.22
451.378	3385.63
451.584	3379.49
451.791	3658.01
451.997	3762.46
452.203	3862.81
452.409	3973.4
452.615	4112.66
452.821	4036.89
453.027	4008.22
453.233	4688.14
453.44	4477.2
453.646	4778.25
453.852	4999.43
454.058	5046.54
454.264	5327.11
454.47	5640.45
454.676	5603.58
454.882	6168.82
455.088	5865.72
455.294	6189.3
455.5	6639.86
455.705	6641.9
455.911	6967.53
456.117	7071.98
456.323	7368.93
456.529	7475.43
456.735	8095.96
456.941	8304.85
457.147	8585.43
457.352	8677.58
457.558	9060.56
457.764	9611.46
457.97	9930.94
458.176	10414.26
458.381	10756.27
458.587	10776.75
458.793	11821.22
458.999	11415.72
459.204	13011.09
459.41	13594.76
459.616	13121.68
459.821	13789.31
460.027	14428.28
460.233	15204.46
460.438	15382.63
460.644	16404.57
460.85	16220.25
461.055	17152.08
461.261	17856.58
461.466	17313.87
461.672	17928.26
461.878	19738.66
462.083	19529.77
462.289	20238.37
462.494	20883.48
462.7	21254.16
462.905	21059.6
463.111	23101.43
463.316	24184.8
463.522	24561.63
463.727	25440.21
463.932	26326.98
464.138	27404.21
464.343	28333.99
464.549	28315.56
464.754	30449.54
464.959	31217.53
465.165	31870.83
465.37	31823.73
465.575	31895.41
465.781	33914.7
465.986	34754.37
466.191	34404.17
466.397	34924.35
466.602	33746.77
466.807	35952.43
467.012	36613.93
467.218	37345.05
467.423	37203.74
467.628	38596.36
467.833	39993.08
468.038	39210.75
