Data from USB4F104151__62__11-30-53-264.txt Node

Date: Wed Feb 26 11:30:53 EST 2025
User: louis
Spectrometer: USB4F10415
Trigger mode: 4
Integration Time (sec): 1.000000E-1
Scans to average: 1
Electric dark correction enabled: true
Nonlinearity correction enabled: false
Boxcar width: 0
XAxis mode: Wavelengths
Number of Pixels in Spectrum: 3648
>>>>>Begin Spectral Data<<<<<
178.204	-415.91
178.424	-415.91
178.644	-415.91
178.864	-393.38
179.084	-389.28
179.304	-53.42
179.524	32.6
179.744	-53.42
179.964	30.55
180.184	44.88
180.404	30.55
180.624	22.36
180.844	34.64
181.064	-69.8
181.283	-39.08
181.503	-67.75
181.723	87.89
181.943	-82.09
182.163	192.34
182.383	-53.42
182.602	98.13
182.822	190.29
183.042	114.52
183.262	-4.27
183.482	8.02
183.701	38.74
183.921	55.12
184.141	-55.47
184.361	83.8
184.58	71.51
184.8	44.88
185.02	20.31
185.239	98.13
185.459	61.27
185.679	173.91
185.898	-65.71
186.118	128.85
186.338	36.69
186.557	139.09
186.777	-32.94
186.997	42.84
187.216	5.97
187.436	182.1
187.655	65.36
187.875	104.28
188.095	36.69
188.314	122.71
188.534	73.56
188.753	14.17
188.973	210.77
189.192	141.14
189.412	79.7
189.631	1.88
189.851	83.8
190.07	100.18
190.29	-75.95
190.509	20.31
190.729	75.6
190.948	198.48
191.168	161.62
191.387	128.85
191.607	-34.99
191.826	126.8
192.045	108.37
192.265	40.79
192.484	153.43
192.704	-6.31
192.923	-2.22
193.142	178
193.362	112.47
193.581	94.04
193.8	87.89
194.02	81.75
194.239	65.36
194.458	118.61
194.678	128.85
194.897	48.98
195.116	141.14
195.335	22.36
195.555	106.32
195.774	5.97
195.993	155.47
196.212	55.12
196.432	71.51
196.651	20.31
196.87	46.93
197.089	241.49
197.308	87.89
197.528	85.84
197.747	-0.17
197.966	73.56
198.185	165.71
198.404	-57.51
198.623	161.62
198.842	94.04
199.062	81.75
199.281	91.99
199.5	38.74
199.719	104.28
199.938	141.14
200.157	128.85
200.376	151.38
200.595	153.43
200.814	69.46
201.033	22.36
201.252	163.67
201.471	85.84
201.69	89.94
201.909	61.27
202.128	67.41
202.347	71.51
202.566	28.5
202.785	-26.79
203.004	28.5
203.223	284.5
203.442	10.07
203.661	-49.32
203.879	106.32
204.098	118.61
204.317	3.93
204.536	51.03
204.755	81.75
204.974	184.15
205.193	-8.36
205.411	53.08
205.63	161.62
205.849	100.18
206.068	26.45
206.287	-32.94
206.505	141.14
206.724	59.22
206.943	51.03
207.162	73.56
207.381	104.28
207.599	46.93
207.818	73.56
208.037	14.17
208.255	22.36
208.474	102.23
208.693	40.79
208.911	14.17
209.13	38.74
209.349	44.88
209.567	34.64
209.786	126.8
210.005	155.47
210.223	87.89
210.442	-63.66
210.661	-34.99
210.879	83.8
211.098	-0.17
211.316	96.08
211.535	81.75
211.753	120.66
211.972	91.99
212.191	71.51
212.409	55.12
212.628	79.7
212.846	10.07
213.065	24.4
213.283	104.28
213.502	69.46
213.72	44.88
213.938	59.22
214.157	42.84
214.375	110.42
214.594	30.55
214.812	153.43
215.031	28.5
215.249	48.98
215.467	16.21
215.686	79.7
215.904	141.14
216.122	102.23
216.341	132.95
216.559	98.13
216.778	124.76
216.996	169.81
217.214	-106.67
217.432	-26.79
217.651	-6.31
217.869	79.7
218.087	-14.51
218.306	-0.17
218.524	98.13
218.742	8.02
218.96	73.56
219.179	65.36
219.397	110.42
219.615	190.29
219.833	59.22
220.051	1.88
220.27	106.32
220.488	102.23
220.706	40.79
220.924	28.5
221.142	-16.55
221.36	114.52
221.578	75.6
221.796	44.88
222.015	22.36
222.233	132.95
222.451	190.29
222.669	48.98
222.887	104.28
223.105	-4.27
223.323	79.7
223.541	38.74
223.759	-0.17
223.977	36.69
224.195	200.53
224.413	118.61
224.631	36.69
224.849	71.51
225.067	239.44
225.285	-8.36
225.503	-24.75
225.721	-73.9
225.939	-0.17
226.157	83.8
226.375	231.25
226.592	10.07
226.81	94.04
227.028	110.42
227.246	155.47
227.464	51.03
227.682	104.28
227.9	83.8
228.117	67.41
228.335	91.99
228.553	-16.55
228.771	87.89
228.989	79.7
229.206	153.43
229.424	48.98
229.642	22.36
229.86	-2.22
230.077	141.14
230.295	73.56
230.513	186.19
230.731	71.51
230.948	132.95
231.166	100.18
231.384	30.55
231.601	-0.17
231.819	255.83
232.037	-6.31
232.254	53.08
232.472	1.88
232.689	10.07
232.907	1.88
233.125	65.36
233.342	16.21
233.56	22.36
233.777	71.51
233.995	38.74
234.213	87.89
234.43	149.33
234.648	32.6
234.865	108.37
235.083	124.76
235.3	51.03
235.518	132.95
235.735	169.81
235.953	96.08
236.17	67.41
236.388	24.4
236.605	48.98
236.822	126.8
237.04	135
237.257	100.18
237.475	-26.79
237.692	38.74
237.909	106.32
238.127	48.98
238.344	26.45
238.562	5.97
238.779	-10.41
238.996	-55.47
239.214	16.21
239.431	104.28
239.648	73.56
239.865	200.53
240.083	46.93
240.3	-20.65
240.517	-22.7
240.735	91.99
240.952	198.48
241.169	79.7
241.386	130.9
241.603	65.36
241.821	-90.28
242.038	102.23
242.255	55.12
242.472	-51.37
242.689	65.36
242.907	85.84
243.124	63.32
243.341	40.79
243.558	16.21
243.775	-6.31
243.992	-34.99
244.209	83.8
244.426	122.71
244.643	149.33
244.86	-12.46
245.078	128.85
245.295	139.09
245.512	108.37
245.729	53.08
245.946	202.58
246.163	100.18
246.38	-55.47
246.597	12.12
246.814	137.04
247.031	18.26
247.248	36.69
247.464	116.56
247.681	94.04
247.898	171.86
248.115	100.18
248.332	-34.99
248.549	126.8
248.766	180.05
248.983	100.18
249.2	51.03
249.417	165.71
249.633	-41.13
249.85	128.85
250.067	-65.71
250.284	122.71
250.501	87.89
250.717	61.27
250.934	-47.27
251.151	5.97
251.368	12.12
251.585	24.4
251.801	24.4
252.018	-75.95
252.235	83.8
252.451	-4.27
252.668	30.55
252.885	77.65
253.102	122.71
253.318	10.07
253.535	20.31
253.752	30.55
253.968	-37.03
254.185	-59.56
254.401	55.12
254.618	128.85
254.835	12.12
255.051	116.56
255.268	104.28
255.484	104.28
255.701	24.4
255.917	81.75
256.134	32.6
256.351	87.89
256.567	-26.79
256.784	-22.7
257	-32.94
257.217	75.6
257.433	145.24
257.65	83.8
257.866	157.52
258.082	-22.7
258.299	-32.94
258.515	-20.65
258.732	44.88
258.948	-26.79
259.165	89.94
259.381	14.17
259.597	53.08
259.814	51.03
260.03	32.6
260.246	44.88
260.463	100.18
260.679	63.32
260.895	53.08
261.112	159.57
261.328	10.07
261.544	61.27
261.761	157.52
261.977	32.6
262.193	-14.51
262.409	130.9
262.626	22.36
262.842	14.17
263.058	32.6
263.274	124.76
263.49	79.7
263.707	61.27
263.923	77.65
264.139	-28.84
264.355	141.14
264.571	130.9
264.787	14.17
265.004	143.19
265.22	65.36
265.436	46.93
265.652	-22.7
265.868	36.69
266.084	5.97
266.3	42.84
266.516	34.64
266.732	67.41
266.948	75.6
267.164	-2.22
267.38	130.9
267.596	81.75
267.812	169.81
268.028	104.28
268.244	5.97
268.46	51.03
268.676	75.6
268.892	208.72
269.108	12.12
269.324	-2.22
269.54	8.02
269.756	147.28
269.972	-86.19
270.188	59.22
270.403	-61.61
270.619	26.45
270.835	173.91
271.051	32.6
271.267	44.88
271.483	-0.17
271.698	212.82
271.914	83.8
272.13	14.17
272.346	57.17
272.562	65.36
272.777	171.86
272.993	57.17
273.209	-26.79
273.425	85.84
273.64	-0.17
273.856	108.37
274.072	32.6
274.287	-30.89
274.503	126.8
274.719	153.43
274.934	5.97
275.15	-14.51
275.366	28.5
275.581	-0.17
275.797	83.8
276.012	67.41
276.228	-39.08
276.444	73.56
276.659	206.67
276.875	30.55
277.09	63.32
277.306	59.22
277.521	102.23
277.737	110.42
277.952	132.95
278.168	16.21
278.383	81.75
278.599	-18.6
278.814	73.56
279.03	40.79
279.245	106.32
279.461	104.28
279.676	139.09
279.892	34.64
280.107	-34.99
280.322	-61.61
280.538	30.55
280.753	-55.47
280.969	118.61
281.184	-4.27
281.399	161.62
281.615	89.94
281.83	81.75
282.045	-8.36
282.26	-20.65
282.476	71.51
282.691	89.94
282.906	81.75
283.122	175.95
283.337	-80.04
283.552	42.84
283.767	79.7
283.983	94.04
284.198	12.12
284.413	63.32
284.628	10.07
284.843	32.6
285.058	57.17
285.274	77.65
285.489	-18.6
285.704	120.66
285.919	-12.46
286.134	-16.55
286.349	67.41
286.564	36.69
286.779	108.37
286.995	-32.94
287.21	-20.65
287.425	157.52
287.64	36.69
287.855	32.6
288.07	51.03
288.285	149.33
288.5	114.52
288.715	100.18
288.93	8.02
289.145	40.79
289.36	114.52
289.575	71.51
289.79	128.85
290.004	24.4
290.219	175.95
290.434	-4.27
290.649	24.4
290.864	-4.27
291.079	44.88
291.294	-12.46
291.509	120.66
291.724	48.98
291.938	-4.27
292.153	106.32
292.368	34.64
292.583	104.28
292.798	141.14
293.012	61.27
293.227	83.8
293.442	65.36
293.657	94.04
293.871	98.13
294.086	118.61
294.301	153.43
294.516	165.71
294.73	59.22
294.945	-30.89
295.16	3.93
295.374	120.66
295.589	114.52
295.804	71.51
296.018	55.12
296.233	167.76
296.447	65.36
296.662	87.89
296.877	137.04
297.091	137.04
297.306	30.55
297.52	28.5
297.735	85.84
297.949	53.08
298.164	116.56
298.378	71.51
298.593	-53.42
298.807	-20.65
299.022	34.64
299.236	110.42
299.451	3.93
299.665	-28.84
299.88	26.45
300.094	104.28
300.309	14.17
300.523	145.24
300.737	-22.7
300.952	145.24
301.166	63.32
301.381	-28.84
301.595	-0.17
301.809	12.12
302.024	71.51
302.238	3.93
302.452	137.04
302.667	44.88
302.881	192.34
303.095	118.61
303.309	65.36
303.524	18.26
303.738	3.93
303.952	-16.55
304.166	98.13
304.381	-131.24
304.595	120.66
304.809	28.5
305.023	100.18
305.237	81.75
305.452	44.88
305.666	98.13
305.88	61.27
306.094	122.71
306.308	42.84
306.522	110.42
306.736	67.41
306.95	130.9
307.164	77.65
307.379	63.32
307.593	163.67
307.807	167.76
308.021	38.74
308.235	182.1
308.449	-39.08
308.663	89.94
308.877	264.02
309.091	59.22
309.305	188.24
309.519	-73.9
309.733	135
309.947	-39.08
310.161	180.05
310.374	106.32
310.588	202.58
310.802	-16.55
311.016	44.88
311.23	96.08
311.444	8.02
311.658	59.22
311.872	157.52
312.085	132.95
312.299	102.23
312.513	198.48
312.727	53.08
312.941	-57.51
313.154	120.66
313.368	51.03
313.582	32.6
313.796	-10.41
314.009	44.88
314.223	161.62
314.437	114.52
314.651	91.99
314.864	108.37
315.078	81.75
315.292	53.08
315.505	28.5
315.719	87.89
315.933	145.24
316.146	10.07
316.36	-2.22
316.573	124.76
316.787	55.12
317.001	87.89
317.214	53.08
317.428	42.84
317.641	5.97
317.855	126.8
318.068	96.08
318.282	5.97
318.495	206.67
318.709	38.74
318.922	18.26
319.136	167.76
319.349	161.62
319.563	30.55
319.776	100.18
319.99	-6.31
320.203	22.36
320.417	65.36
320.63	151.38
320.843	188.24
321.057	42.84
321.27	81.75
321.483	77.65
321.697	137.04
321.91	77.65
322.124	63.32
322.337	118.61
322.55	61.27
322.763	126.8
322.977	85.84
323.19	8.02
323.403	110.42
323.617	20.31
323.83	143.19
324.043	-32.94
324.256	89.94
324.469	-47.27
324.683	208.72
324.896	34.64
325.109	83.8
325.322	-127.14
325.535	81.75
325.748	44.88
325.962	14.17
326.175	26.45
326.388	126.8
326.601	108.37
326.814	110.42
327.027	79.7
327.24	202.58
327.453	-14.51
327.666	77.65
327.879	100.18
328.092	48.98
328.305	61.27
328.518	59.22
328.731	-61.61
328.944	57.17
329.157	81.75
329.37	-14.51
329.583	214.87
329.796	112.47
330.009	-14.51
330.222	169.81
330.435	116.56
330.648	-34.99
330.861	71.51
331.073	165.71
331.286	108.37
331.499	98.13
331.712	3.93
331.925	-6.31
332.138	63.32
332.35	153.43
332.563	-39.08
332.776	61.27
332.989	-34.99
333.202	51.03
333.414	-49.32
333.627	55.12
333.84	79.7
334.053	87.89
334.265	61.27
334.478	-32.94
334.691	83.8
334.903	100.18
335.116	69.46
335.329	32.6
335.541	87.89
335.754	169.81
335.966	28.5
336.179	57.17
336.392	55.12
336.604	24.4
336.817	79.7
337.029	91.99
337.242	87.89
337.454	75.6
337.667	83.8
337.88	169.81
338.092	83.8
338.305	96.08
338.517	65.36
338.729	153.43
338.942	214.87
339.154	-18.6
339.367	-2.22
339.579	75.6
339.792	44.88
340.004	147.28
340.217	1.88
340.429	38.74
340.641	61.27
340.854	16.21
341.066	102.23
341.278	204.63
341.491	124.76
341.703	40.79
341.915	-22.7
342.128	194.39
342.34	42.84
342.552	-32.94
342.764	141.14
342.977	10.07
343.189	87.89
343.401	42.84
343.613	16.21
343.826	96.08
344.038	-75.95
344.25	51.03
344.462	-69.8
344.674	89.94
344.886	1.88
345.099	108.37
345.311	30.55
345.523	28.5
345.735	59.22
345.947	38.74
346.159	73.56
346.371	5.97
346.583	5.97
346.795	165.71
347.007	44.88
347.219	42.84
347.431	12.12
347.643	161.62
347.855	16.21
348.067	157.52
348.279	-45.23
348.491	102.23
348.703	130.9
348.915	100.18
349.127	-51.37
349.339	32.6
349.551	-2.22
349.763	106.32
349.975	87.89
350.187	96.08
350.399	173.91
350.61	57.17
350.822	12.12
351.034	89.94
351.246	128.85
351.458	96.08
351.669	94.04
351.881	118.61
352.093	116.56
352.305	175.95
352.517	51.03
352.728	173.91
352.94	79.7
353.152	132.95
353.363	16.21
353.575	157.52
353.787	167.76
353.999	67.41
354.21	235.35
354.422	8.02
354.633	102.23
354.845	51.03
355.057	69.46
355.268	91.99
355.48	100.18
355.692	-39.08
355.903	75.6
356.115	42.84
356.326	-125.1
356.538	112.47
356.749	108.37
356.961	124.76
357.172	24.4
357.384	-28.84
357.595	259.92
357.807	28.5
358.018	-41.13
358.23	-2.22
358.441	165.71
358.653	59.22
358.864	18.26
359.075	-12.46
359.287	96.08
359.498	145.24
359.709	91.99
359.921	-4.27
360.132	51.03
360.344	71.51
360.555	22.36
360.766	53.08
360.977	77.65
361.189	206.67
361.4	116.56
361.611	194.39
361.823	120.66
362.034	65.36
362.245	-63.66
362.456	53.08
362.667	124.76
362.879	-39.08
363.09	77.65
363.301	81.75
363.512	3.93
363.723	61.27
363.935	100.18
364.146	87.89
364.357	57.17
364.568	91.99
364.779	5.97
364.99	151.38
365.201	16.21
365.412	94.04
365.623	-47.27
365.834	132.95
366.045	108.37
366.256	48.98
366.467	102.23
366.678	-28.84
366.889	-18.6
367.1	32.6
367.311	69.46
367.522	22.36
367.733	120.66
367.944	75.6
368.155	8.02
368.366	75.6
368.577	200.53
368.788	100.18
368.999	-2.22
369.209	42.84
369.42	212.82
369.631	239.44
369.842	100.18
370.053	28.5
370.264	110.42
370.474	-34.99
370.685	77.65
370.896	65.36
371.107	137.04
371.317	135
371.528	-0.17
371.739	149.33
371.95	116.56
372.16	55.12
372.371	48.98
372.582	-0.17
372.792	59.22
373.003	137.04
373.214	135
373.424	167.76
373.635	-30.89
373.846	153.43
374.056	57.17
374.267	122.71
374.477	30.55
374.688	5.97
374.898	22.36
375.109	57.17
375.319	157.52
375.53	184.15
375.74	130.9
375.951	65.36
376.161	89.94
376.372	155.47
376.582	-49.32
376.793	77.65
377.003	20.31
377.214	1.88
377.424	104.28
377.635	40.79
377.845	-4.27
378.055	180.05
378.266	-75.95
378.476	28.5
378.686	79.7
378.897	100.18
379.107	112.47
379.317	63.32
379.528	14.17
379.738	135
379.948	32.6
380.158	116.56
380.369	126.8
380.579	98.13
380.789	116.56
380.999	71.51
381.21	161.62
381.42	169.81
381.63	63.32
381.84	16.21
382.05	157.52
382.261	137.04
382.471	130.9
382.681	28.5
382.891	126.8
383.101	83.8
383.311	-53.42
383.521	67.41
383.731	141.14
383.941	149.33
384.151	65.36
384.361	-55.47
384.571	118.61
384.781	98.13
384.991	264.02
385.201	270.16
385.411	116.56
385.621	110.42
385.831	91.99
386.041	110.42
386.251	42.84
386.461	96.08
386.671	20.31
386.881	79.7
387.091	81.75
387.301	128.85
387.511	128.85
387.72	139.09
387.93	77.65
388.14	20.31
388.35	-28.84
388.56	83.8
388.769	171.86
388.979	30.55
389.189	-53.42
389.399	98.13
389.609	112.47
389.818	114.52
390.028	30.55
390.238	96.08
390.447	-6.31
390.657	42.84
390.867	42.84
391.076	-39.08
391.286	114.52
391.496	22.36
391.705	81.75
391.915	55.12
392.125	112.47
392.334	22.36
392.544	122.71
392.753	141.14
392.963	-10.41
393.172	48.98
393.382	10.07
393.591	163.67
393.801	-6.31
394.01	239.44
394.22	91.99
394.429	14.17
394.639	12.12
394.848	89.94
395.058	89.94
395.267	20.31
395.477	196.43
395.686	79.7
395.895	151.38
396.105	212.82
396.314	149.33
396.524	44.88
396.733	71.51
396.942	128.85
397.152	157.52
397.361	237.39
397.57	108.37
397.78	132.95
397.989	169.81
398.198	198.48
398.407	71.51
398.617	126.8
398.826	110.42
399.035	71.51
399.244	104.28
399.453	22.36
399.663	112.47
399.872	69.46
400.081	28.5
400.29	102.23
400.499	28.5
400.708	167.76
400.917	98.13
401.127	-67.75
401.336	34.64
401.545	194.39
401.754	126.8
401.963	69.46
402.172	24.4
402.381	8.02
402.59	24.4
402.799	34.64
403.008	137.04
403.217	94.04
403.426	28.5
403.635	-82.09
403.844	100.18
404.053	104.28
404.262	-10.41
404.471	153.43
404.68	89.94
404.888	75.6
405.097	28.5
405.306	85.84
405.515	124.76
405.724	-43.18
405.933	171.86
406.142	32.6
406.35	85.84
406.559	48.98
406.768	14.17
406.977	202.58
407.185	59.22
407.394	112.47
407.603	10.07
407.812	102.23
408.02	132.95
408.229	79.7
408.438	63.32
408.646	-12.46
408.855	69.46
409.064	169.81
409.272	71.51
409.481	79.7
409.69	22.36
409.898	12.12
410.107	114.52
410.315	81.75
410.524	94.04
410.733	48.98
410.941	46.93
411.15	124.76
411.358	155.47
411.567	141.14
411.775	30.55
411.984	102.23
412.192	132.95
412.401	20.31
412.609	192.34
412.818	165.71
413.026	91.99
413.234	18.26
413.443	155.47
413.651	55.12
413.86	89.94
414.068	141.14
414.276	229.2
414.485	38.74
414.693	139.09
414.901	196.43
415.11	22.36
415.318	96.08
415.526	98.13
415.734	120.66
415.943	96.08
416.151	153.43
416.359	98.13
416.567	20.31
416.776	75.6
416.984	79.7
417.192	214.87
417.4	38.74
417.608	102.23
417.817	18.26
418.025	104.28
418.233	173.91
418.441	63.32
418.649	16.21
418.857	132.95
419.065	132.95
419.273	42.84
419.481	98.13
419.689	77.65
419.897	-20.65
420.105	59.22
420.313	145.24
420.521	192.34
420.729	229.2
420.937	42.84
421.145	20.31
421.353	153.43
421.561	139.09
421.769	135
421.977	34.64
422.185	132.95
422.393	32.6
422.601	173.91
422.809	141.14
423.017	89.94
423.224	63.32
423.432	153.43
423.64	-2.22
423.848	171.86
424.056	24.4
424.263	143.19
424.471	77.65
424.679	139.09
424.887	71.51
425.094	83.8
425.302	128.85
425.51	79.7
425.718	96.08
425.925	75.6
426.133	81.75
426.341	229.2
426.548	184.15
426.756	-2.22
426.964	141.14
427.171	16.21
427.379	214.87
427.586	139.09
427.794	169.81
428.001	173.91
428.209	77.65
428.417	229.2
428.624	122.71
428.832	46.93
429.039	108.37
429.247	81.75
429.454	137.04
429.662	145.24
429.869	241.49
430.076	165.71
430.284	192.34
430.491	243.54
430.699	218.96
430.906	216.91
431.114	155.47
431.321	153.43
431.528	130.9
431.736	188.24
431.943	139.09
432.15	231.25
432.358	212.82
432.565	311.12
432.772	22.36
432.979	237.39
433.187	130.9
433.394	237.39
433.601	223.06
433.808	347.98
434.016	296.78
434.223	241.49
434.43	278.35
434.637	268.11
434.844	372.56
435.052	274.26
435.259	266.07
435.466	366.42
435.673	319.31
435.88	327.5
436.087	311.12
436.294	382.8
436.501	399.18
436.708	384.85
436.915	249.68
437.122	495.44
437.329	311.12
437.537	444.24
437.743	388.94
437.95	477.01
438.157	388.94
438.364	442.19
438.571	434
438.778	462.67
438.985	532.3
439.192	620.36
439.399	501.58
439.606	548.68
439.813	622.41
440.02	816.97
440.227	696.14
440.433	657.23
440.64	530.25
440.847	565.07
441.054	587.6
441.261	796.49
441.467	773.96
441.674	687.95
441.881	862.02
442.088	747.34
442.294	829.26
442.501	855.88
442.708	931.66
442.914	915.27
443.121	997.19
443.328	1034.05
443.534	1161.03
443.741	1025.86
443.948	929.61
444.154	1103.68
444.361	1355.58
444.568	1195.84
444.774	1251.14
444.981	1173.32
445.187	1390.4
445.394	1347.39
445.6	1394.5
445.807	1619.77
446.013	1466.17
446.22	1541.95
446.426	1761.08
446.633	1584.96
446.839	1894.2
447.046	1750.84
447.252	1840.95
447.459	1867.58
447.665	1838.91
447.871	2090.81
448.078	2283.31
448.284	2275.12
448.491	2273.07
448.697	2334.51
448.903	2514.73
449.11	2477.87
449.316	2561.84
449.522	2576.17
449.728	2803.5
449.935	2852.65
450.141	2932.52
450.347	3180.32
450.553	3217.19
450.76	3276.58
450.966	3540.77
451.172	3524.38
451.378	3825.43
451.584	3663.65
451.791	4075.29
451.997	4167.45
452.203	4097.81
452.409	4405.01
452.615	4491.02
452.821	4437.78
453.027	4423.44
453.233	5091.08
453.44	5021.45
453.646	5316.36
453.852	5330.69
454.058	5703.42
454.264	5842.68
454.47	6264.57
454.676	6219.51
454.882	6774.51
455.088	6475.51
455.294	6829.81
455.5	7196.39
455.705	7708.38
455.911	7884.51
456.117	7894.75
456.323	8298.2
456.529	8279.77
456.735	9029.32
456.941	9125.58
457.147	9567.94
457.352	9756.35
457.558	10174.14
457.764	10604.21
457.97	10993.33
458.176	11310.76
458.381	11886.24
458.587	12250.78
458.793	12474.01
458.999	12854.93
459.204	14210.68
459.41	14943.86
459.616	14839.41
459.821	15623.78
460.027	16232.03
460.233	16926.29
460.438	17083.98
460.644	17999.43
460.85	18488.89
461.055	19127.86
461.261	19746.34
461.466	19336.75
461.672	19893.8
461.878	21911.05
462.083	21659.15
462.289	22437.37
462.494	22875.64
462.7	23600.62
462.905	23979.5
463.111	25693.65
463.316	26674.62
463.522	27125.18
463.727	28272.04
463.932	29875.6
464.138	30274.95
464.343	31556.98
464.549	31628.66
464.754	33981.77
464.959	35228.99
465.165	35210.56
465.37	35360.06
465.575	35132.73
465.781	37109.02
465.986	38669.58
466.191	37444.89
466.397	38450.44
466.602	37461.27
466.807	39501.05
467.012	40140.02
467.218	41413.85
467.423	40787.17
467.628	42196.18
467.833	43822.26
468.038	43136.2
468.244	42427.6
