Data from USB4F104151__7__09-24-45-227.txt Node

Date: Wed Feb 26 09:24:45 EST 2025
User: louis
Spectrometer: USB4F10415
Trigger mode: 4
Integration Time (sec): 1.000000E-1
Scans to average: 1
Electric dark correction enabled: true
Nonlinearity correction enabled: false
Boxcar width: 0
XAxis mode: Wavelengths
Number of Pixels in Spectrum: 3648
>>>>>Begin Spectral Data<<<<<
178.204	-329.89
178.424	-329.89
178.644	-329.89
178.864	-366.76
179.084	-270.5
179.304	-41.13
179.524	-2.22
179.744	-41.13
179.964	83.8
180.184	-26.79
180.404	18.26
180.624	22.36
180.844	12.12
181.064	-71.85
181.283	63.32
181.503	-100.52
181.723	83.8
181.943	-110.76
182.163	139.09
182.383	-41.13
182.602	44.88
182.822	108.37
183.042	48.98
183.262	-34.99
183.482	38.74
183.701	-80.04
183.921	14.17
184.141	-53.42
184.361	69.46
184.58	-30.89
184.8	55.12
185.02	-18.6
185.239	67.41
185.459	38.74
185.679	20.31
185.898	-133.29
186.118	104.28
186.338	-53.42
186.557	-16.55
186.777	-28.84
186.997	-59.56
187.216	-26.79
187.436	157.52
187.655	71.51
187.875	20.31
188.095	5.97
188.314	120.66
188.534	79.7
188.753	-8.36
188.973	-12.46
189.192	100.18
189.412	18.26
189.631	5.97
189.851	22.36
190.07	145.24
190.29	-51.37
190.509	-8.36
190.729	-8.36
190.948	83.8
191.168	200.53
191.387	67.41
191.607	10.07
191.826	124.76
192.045	24.4
192.265	-41.13
192.484	53.08
192.704	-10.41
192.923	-43.18
193.142	132.95
193.362	69.46
193.581	137.04
193.8	51.03
194.02	38.74
194.239	-6.31
194.458	-16.55
194.678	51.03
194.897	-28.84
195.116	44.88
195.335	10.07
195.555	22.36
195.774	10.07
195.993	-18.6
196.212	14.17
196.432	-4.27
196.651	-32.94
196.87	5.97
197.089	124.76
197.308	57.17
197.528	55.12
197.747	-86.19
197.966	5.97
198.185	108.37
198.404	-73.9
198.623	91.99
198.842	-6.31
199.062	38.74
199.281	73.56
199.5	-41.13
199.719	85.84
199.938	30.55
200.157	106.32
200.376	36.69
200.595	132.95
200.814	14.17
201.033	-69.8
201.252	108.37
201.471	59.22
201.69	22.36
201.909	73.56
202.128	38.74
202.347	12.12
202.566	28.5
202.785	-80.04
203.004	-45.23
203.223	163.67
203.442	22.36
203.661	-188.58
203.879	5.97
204.098	161.62
204.317	-49.32
204.536	32.6
204.755	100.18
204.974	135
205.193	10.07
205.411	141.14
205.63	85.84
205.849	116.56
206.068	-26.79
206.287	-47.27
206.505	71.51
206.724	12.12
206.943	-12.46
207.162	5.97
207.381	46.93
207.599	-104.62
207.818	-6.31
208.037	16.21
208.255	18.26
208.474	-14.51
208.693	-18.6
208.911	-2.22
209.13	40.79
209.349	48.98
209.567	42.84
209.786	55.12
210.005	46.93
210.223	3.93
210.442	-123.05
210.661	30.55
210.879	87.89
211.098	38.74
211.316	26.45
211.535	79.7
211.753	26.45
211.972	36.69
212.191	-14.51
212.409	30.55
212.628	81.75
212.846	-114.86
213.065	38.74
213.283	135
213.502	48.98
213.72	71.51
213.938	3.93
214.157	-45.23
214.375	-26.79
214.594	87.89
214.812	61.27
215.031	-100.52
215.249	30.55
215.467	-86.19
215.686	-18.6
215.904	75.6
216.122	98.13
216.341	-2.22
216.559	53.08
216.778	42.84
216.996	44.88
217.214	-4.27
217.432	-18.6
217.651	-6.31
217.869	83.8
218.087	-14.51
218.306	22.36
218.524	16.21
218.742	32.6
218.96	65.36
219.179	48.98
219.397	40.79
219.615	137.04
219.833	94.04
220.051	-18.6
220.27	57.17
220.488	61.27
220.706	102.23
220.924	-30.89
221.142	-14.51
221.36	16.21
221.578	30.55
221.796	83.8
222.015	-10.41
222.233	20.31
222.451	151.38
222.669	12.12
222.887	83.8
223.105	-26.79
223.323	-63.66
223.541	-80.04
223.759	118.61
223.977	-10.41
224.195	79.7
224.413	67.41
224.631	-8.36
224.849	30.55
225.067	184.15
225.285	-10.41
225.503	-55.47
225.721	-112.81
225.939	30.55
226.157	38.74
226.375	132.95
226.592	-20.65
226.81	1.88
227.028	44.88
227.246	126.8
227.464	-12.46
227.682	12.12
227.9	34.64
228.117	-22.7
228.335	40.79
228.553	1.88
228.771	5.97
228.989	71.51
229.206	67.41
229.424	-43.18
229.642	24.4
229.86	-18.6
230.077	218.96
230.295	36.69
230.513	63.32
230.731	85.84
230.948	104.28
231.166	81.75
231.384	24.4
231.601	-4.27
231.819	132.95
232.037	30.55
232.254	-59.56
232.472	42.84
232.689	-34.99
232.907	-4.27
233.125	61.27
233.342	42.84
233.56	28.5
233.777	-28.84
233.995	28.5
234.213	102.23
234.43	79.7
234.648	5.97
234.865	30.55
235.083	38.74
235.3	91.99
235.518	44.88
235.735	137.04
235.953	10.07
236.17	-26.79
236.388	-24.75
236.605	38.74
236.822	38.74
237.04	153.43
237.257	30.55
237.475	-45.23
237.692	18.26
237.909	26.45
238.127	34.64
238.344	51.03
238.562	12.12
238.779	-26.79
238.996	-41.13
239.214	-16.55
239.431	55.12
239.648	-30.89
239.865	30.55
240.083	8.02
240.3	59.22
240.517	-30.89
240.735	46.93
240.952	44.88
241.169	79.7
241.386	42.84
241.603	-47.27
241.821	-43.18
242.038	30.55
242.255	178
242.472	-61.61
242.689	55.12
242.907	38.74
243.124	-20.65
243.341	-18.6
243.558	-57.51
243.775	-51.37
243.992	-75.95
244.209	44.88
244.426	36.69
244.643	36.69
244.86	-0.17
245.078	83.8
245.295	46.93
245.512	32.6
245.729	40.79
245.946	36.69
246.163	18.26
246.38	40.79
246.597	12.12
246.814	42.84
247.031	14.17
247.248	-18.6
247.464	36.69
247.681	34.64
247.898	85.84
248.115	79.7
248.332	-77.99
248.549	94.04
248.766	169.81
248.983	67.41
249.2	118.61
249.417	28.5
249.633	-55.47
249.85	55.12
250.067	8.02
250.284	-18.6
250.501	30.55
250.717	83.8
250.934	-71.85
251.151	20.31
251.368	-14.51
251.585	30.55
251.801	26.45
252.018	18.26
252.235	61.27
252.451	-86.19
252.668	-80.04
252.885	96.08
253.102	20.31
253.318	-51.37
253.535	3.93
253.752	-24.75
253.968	83.8
254.185	-123.05
254.401	38.74
254.618	1.88
254.835	-80.04
255.051	85.84
255.268	61.27
255.484	38.74
255.701	-8.36
255.917	18.26
256.134	22.36
256.351	44.88
256.567	18.26
256.784	51.03
257	-24.75
257.217	63.32
257.433	46.93
257.65	-34.99
257.866	120.66
258.082	-45.23
258.299	-32.94
258.515	3.93
258.732	-34.99
258.948	-94.38
259.165	71.51
259.381	-43.18
259.597	51.03
259.814	16.21
260.03	5.97
260.246	5.97
260.463	128.85
260.679	65.36
260.895	-10.41
261.112	53.08
261.328	-8.36
261.544	-14.51
261.761	153.43
261.977	-26.79
262.193	-86.19
262.409	28.5
262.626	114.52
262.842	-14.51
263.058	-22.7
263.274	100.18
263.49	69.46
263.707	14.17
263.923	20.31
264.139	-63.66
264.355	18.26
264.571	38.74
264.787	5.97
265.004	104.28
265.22	28.5
265.436	-39.08
265.652	46.93
265.868	14.17
266.084	-47.27
266.3	10.07
266.516	-12.46
266.732	-18.6
266.948	-43.18
267.164	-45.23
267.38	-41.13
267.596	48.98
267.812	206.67
268.028	-6.31
268.244	-43.18
268.46	-2.22
268.676	77.65
268.892	48.98
269.108	28.5
269.324	-65.71
269.54	-82.09
269.756	73.56
269.972	-116.9
270.188	20.31
270.403	-47.27
270.619	-45.23
270.835	36.69
271.051	10.07
271.267	-26.79
271.483	-20.65
271.698	81.75
271.914	-14.51
272.13	34.64
272.346	-24.75
272.562	65.36
272.777	91.99
272.993	30.55
273.209	-34.99
273.425	46.93
273.64	-53.42
273.856	114.52
274.072	-39.08
274.287	-14.51
274.503	14.17
274.719	-14.51
274.934	14.17
275.15	-37.03
275.366	-16.55
275.581	-39.08
275.797	5.97
276.012	8.02
276.228	12.12
276.444	36.69
276.659	77.65
276.875	-20.65
277.09	26.45
277.306	-22.7
277.521	26.45
277.737	-30.89
277.952	139.09
278.168	-14.51
278.383	55.12
278.599	8.02
278.814	59.22
279.03	5.97
279.245	71.51
279.461	-10.41
279.676	81.75
279.892	-6.31
280.107	48.98
280.322	-18.6
280.538	-0.17
280.753	-84.14
280.969	51.03
281.184	38.74
281.399	184.15
281.615	22.36
281.83	-51.37
282.045	-14.51
282.26	-30.89
282.476	10.07
282.691	104.28
282.906	28.5
283.122	-18.6
283.337	-94.38
283.552	14.17
283.767	22.36
283.983	55.12
284.198	-34.99
284.413	-10.41
284.628	-141.48
284.843	102.23
285.058	55.12
285.274	30.55
285.489	-57.51
285.704	106.32
285.919	18.26
286.134	28.5
286.349	-37.03
286.564	-63.66
286.779	96.08
286.995	-51.37
287.21	28.5
287.425	5.97
287.64	-8.36
287.855	-2.22
288.07	-129.19
288.285	96.08
288.5	34.64
288.715	51.03
288.93	-39.08
289.145	-39.08
289.36	57.17
289.575	12.12
289.79	61.27
290.004	61.27
290.219	51.03
290.434	-8.36
290.649	38.74
290.864	-16.55
291.079	48.98
291.294	55.12
291.509	44.88
291.724	-0.17
291.938	-22.7
292.153	-4.27
292.368	18.26
292.583	69.46
292.798	118.61
293.012	63.32
293.227	59.22
293.442	-53.42
293.657	38.74
293.871	81.75
294.086	30.55
294.301	126.8
294.516	141.14
294.73	14.17
294.945	-88.23
295.16	65.36
295.374	40.79
295.589	32.6
295.804	-59.56
296.018	77.65
296.233	124.76
296.447	-22.7
296.662	-4.27
296.877	42.84
297.091	3.93
297.306	-12.46
297.52	-39.08
297.735	81.75
297.949	87.89
298.164	1.88
298.378	8.02
298.593	-2.22
298.807	-12.46
299.022	-51.37
299.236	108.37
299.451	-71.85
299.665	-18.6
299.88	-26.79
300.094	63.32
300.309	-77.99
300.523	3.93
300.737	48.98
300.952	22.36
301.166	-28.84
301.381	-30.89
301.595	12.12
301.809	51.03
302.024	63.32
302.238	14.17
302.452	79.7
302.667	-6.31
302.881	106.32
303.095	65.36
303.309	-32.94
303.524	-10.41
303.738	14.17
303.952	-18.6
304.166	22.36
304.381	-164.01
304.595	53.08
304.809	-6.31
305.023	59.22
305.237	-14.51
305.452	-69.8
305.666	18.26
305.88	30.55
306.094	55.12
306.308	28.5
306.522	-26.79
306.736	44.88
306.95	63.32
307.164	22.36
307.379	5.97
307.593	44.88
307.807	89.94
308.021	32.6
308.235	51.03
308.449	-125.1
308.663	-86.19
308.877	132.95
309.091	-6.31
309.305	46.93
309.519	-84.14
309.733	36.69
309.947	-59.56
310.161	26.45
310.374	128.85
310.588	137.04
310.802	-2.22
311.016	-43.18
311.23	38.74
311.444	-71.85
311.658	-37.03
311.872	141.14
312.085	38.74
312.299	38.74
312.513	61.27
312.727	-67.75
312.941	12.12
313.154	53.08
313.368	1.88
313.582	26.45
313.796	40.79
314.009	5.97
314.223	91.99
314.437	77.65
314.651	40.79
314.864	12.12
315.078	-8.36
315.292	-61.61
315.505	-4.27
315.719	14.17
315.933	10.07
316.146	-55.47
316.36	3.93
316.573	46.93
316.787	-43.18
317.001	16.21
317.214	-4.27
317.428	16.21
317.641	14.17
317.855	-28.84
318.068	14.17
318.282	10.07
318.495	130.9
318.709	30.55
318.922	-6.31
319.136	135
319.349	128.85
319.563	-32.94
319.776	30.55
319.99	-80.04
320.203	53.08
320.417	5.97
320.63	67.41
320.843	83.8
321.057	24.4
321.27	-18.6
321.483	75.6
321.697	61.27
321.91	34.64
322.124	-39.08
322.337	28.5
322.55	-73.9
322.763	98.13
322.977	-49.32
323.19	-39.08
323.403	34.64
323.617	36.69
323.83	22.36
324.043	14.17
324.256	71.51
324.469	-90.28
324.683	151.38
324.896	10.07
325.109	-63.66
325.322	8.02
325.535	63.32
325.748	75.6
325.962	18.26
326.175	69.46
326.388	8.02
326.601	159.57
326.814	-20.65
327.027	87.89
327.24	30.55
327.453	-65.71
327.666	18.26
327.879	69.46
328.092	81.75
328.305	116.56
328.518	-6.31
328.731	-24.75
328.944	-24.75
329.157	-4.27
329.37	40.79
329.583	186.19
329.796	77.65
330.009	-28.84
330.222	100.18
330.435	100.18
330.648	38.74
330.861	77.65
331.073	89.94
331.286	94.04
331.499	22.36
331.712	3.93
331.925	53.08
332.138	63.32
332.35	20.31
332.563	73.56
332.776	53.08
332.989	-116.9
333.202	26.45
333.414	14.17
333.627	28.5
333.84	10.07
334.053	5.97
334.265	-18.6
334.478	36.69
334.691	-16.55
334.903	-6.31
335.116	-67.75
335.329	34.64
335.541	-0.17
335.754	65.36
335.966	-20.65
336.179	-67.75
336.392	-26.79
336.604	-10.41
336.817	79.7
337.029	-2.22
337.242	-12.46
337.454	83.8
337.667	-10.41
337.88	67.41
338.092	-30.89
338.305	169.81
338.517	5.97
338.729	22.36
338.942	100.18
339.154	-8.36
339.367	5.97
339.579	79.7
339.792	-51.37
340.004	108.37
340.217	-30.89
340.429	67.41
340.641	-32.94
340.854	-8.36
341.066	14.17
341.278	137.04
341.491	130.9
341.703	46.93
341.915	-112.81
342.128	63.32
342.34	-30.89
342.552	8.02
342.764	12.12
342.977	28.5
343.189	69.46
343.401	-4.27
343.613	-59.56
343.826	34.64
344.038	5.97
344.25	8.02
344.462	-18.6
344.674	-16.55
344.886	22.36
345.099	-4.27
345.311	63.32
345.523	-57.51
345.735	-96.43
345.947	10.07
346.159	-65.71
346.371	20.31
346.583	-10.41
346.795	141.14
347.007	85.84
347.219	59.22
347.431	44.88
347.643	137.04
347.855	-86.19
348.067	161.62
348.279	-34.99
348.491	-24.75
348.703	108.37
348.915	-55.47
349.127	1.88
349.339	-51.37
349.551	-69.8
349.763	83.8
349.975	24.4
350.187	81.75
350.399	106.32
350.61	24.4
350.822	-86.19
351.034	-61.61
351.246	14.17
351.458	14.17
351.669	79.7
351.881	141.14
352.093	122.71
352.305	104.28
352.517	-49.32
352.728	137.04
352.94	-2.22
353.152	75.6
353.363	-12.46
353.575	28.5
353.787	132.95
353.999	104.28
354.21	198.48
354.422	32.6
354.633	-14.51
354.845	48.98
355.057	18.26
355.268	20.31
355.48	69.46
355.692	-151.72
355.903	-22.7
356.115	-73.9
356.326	-143.53
356.538	104.28
356.749	34.64
356.961	44.88
357.172	46.93
357.384	3.93
357.595	89.94
357.807	1.88
358.018	-20.65
358.23	10.07
358.441	112.47
358.653	28.5
358.864	44.88
359.075	32.6
359.287	22.36
359.498	65.36
359.709	24.4
359.921	3.93
360.132	44.88
360.344	-18.6
360.555	20.31
360.766	-28.84
360.977	38.74
361.189	-20.65
361.4	20.31
361.611	87.89
361.823	40.79
362.034	-45.23
362.245	-137.38
362.456	-20.65
362.667	87.89
362.879	-34.99
363.09	75.6
363.301	-34.99
363.512	28.5
363.723	-84.14
363.935	-4.27
364.146	112.47
364.357	-47.27
364.568	32.6
364.779	-55.47
364.99	94.04
365.201	-67.75
365.412	112.47
365.623	-88.23
365.834	-10.41
366.045	73.56
366.256	87.89
366.467	77.65
366.678	61.27
366.889	-39.08
367.1	-73.9
367.311	94.04
367.522	-59.56
367.733	63.32
367.944	106.32
368.155	-12.46
368.366	10.07
368.577	106.32
368.788	55.12
368.999	-96.43
369.209	-6.31
369.42	87.89
369.631	190.29
369.842	75.6
370.053	73.56
370.264	55.12
370.474	-92.33
370.685	30.55
370.896	46.93
371.107	143.19
371.317	94.04
371.528	-22.7
371.739	94.04
371.95	79.7
372.16	110.42
372.371	-37.03
372.582	-67.75
372.792	-34.99
373.003	34.64
373.214	44.88
373.424	42.84
373.635	-28.84
373.846	59.22
374.056	1.88
374.267	-2.22
374.477	-30.89
374.688	1.88
374.898	89.94
375.109	85.84
375.319	18.26
375.53	83.8
375.74	-18.6
375.951	46.93
376.161	14.17
376.372	79.7
376.582	-6.31
376.793	75.6
377.003	67.41
377.214	-14.51
377.424	71.51
377.635	42.84
377.845	-57.51
378.055	75.6
378.266	-63.66
378.476	-43.18
378.686	-30.89
378.897	110.42
379.107	79.7
379.317	-51.37
379.528	51.03
379.738	28.5
379.948	-10.41
380.158	51.03
380.369	5.97
380.579	34.64
380.789	79.7
380.999	-20.65
381.21	75.6
381.42	163.67
381.63	-4.27
381.84	120.66
382.05	30.55
382.261	118.61
382.471	-10.41
382.681	-12.46
382.891	87.89
383.101	83.8
383.311	-47.27
383.521	-102.57
383.731	12.12
383.941	59.22
384.151	143.19
384.361	-0.17
384.571	-77.99
384.781	46.93
384.991	126.8
385.201	98.13
385.411	5.97
385.621	120.66
385.831	53.08
386.041	38.74
386.251	-69.8
386.461	79.7
386.671	28.5
386.881	10.07
387.091	5.97
387.301	46.93
387.511	-18.6
387.72	81.75
387.93	42.84
388.14	1.88
388.35	-24.75
388.56	67.41
388.769	120.66
388.979	-10.41
389.189	-10.41
389.399	30.55
389.609	26.45
389.818	153.43
390.028	32.6
390.238	94.04
390.447	-26.79
390.657	-2.22
390.867	-2.22
391.076	-39.08
391.286	36.69
391.496	18.26
391.705	10.07
391.915	159.57
392.125	151.38
392.334	36.69
392.544	104.28
392.753	38.74
392.963	-51.37
393.172	10.07
393.382	-10.41
393.591	165.71
393.801	-0.17
394.01	67.41
394.22	46.93
394.429	55.12
394.639	128.85
394.848	-22.7
395.058	53.08
395.267	3.93
395.477	53.08
395.686	124.76
395.895	110.42
396.105	169.81
396.314	-51.37
396.524	18.26
396.733	-51.37
396.942	67.41
397.152	59.22
397.361	128.85
397.57	12.12
397.78	98.13
397.989	137.04
398.198	145.24
398.407	59.22
398.617	65.36
398.826	-55.47
399.035	16.21
399.244	14.17
399.453	46.93
399.663	5.97
399.872	30.55
400.081	-45.23
400.29	51.03
400.499	-45.23
400.708	104.28
400.917	-37.03
401.127	3.93
401.336	42.84
401.545	167.76
401.754	128.85
401.963	14.17
402.172	42.84
402.381	-12.46
402.59	26.45
402.799	73.56
403.008	137.04
403.217	30.55
403.426	36.69
403.635	14.17
403.844	10.07
404.053	24.4
404.262	40.79
404.471	132.95
404.68	59.22
404.888	5.97
405.097	3.93
405.306	44.88
405.515	96.08
405.724	18.26
405.933	55.12
406.142	34.64
406.35	28.5
406.559	-14.51
406.768	12.12
406.977	149.33
407.185	42.84
407.394	-0.17
407.603	14.17
407.812	61.27
408.02	106.32
408.229	-63.66
408.438	-2.22
408.646	14.17
408.855	-4.27
409.064	-10.41
409.272	46.93
409.481	5.97
409.69	36.69
409.898	-22.7
410.107	10.07
410.315	87.89
410.524	46.93
410.733	22.36
410.941	34.64
411.15	26.45
411.358	65.36
411.567	120.66
411.775	-51.37
411.984	22.36
412.192	122.71
412.401	-45.23
412.609	165.71
412.818	87.89
413.026	-26.79
413.234	3.93
413.443	71.51
413.651	-20.65
413.86	63.32
414.068	98.13
414.276	178
414.485	3.93
414.693	149.33
414.901	186.19
415.11	22.36
415.318	34.64
415.526	10.07
415.734	10.07
415.943	-10.41
416.151	116.56
416.359	32.6
416.567	26.45
416.776	120.66
416.984	38.74
417.192	145.24
417.4	24.4
417.608	24.4
417.817	-45.23
418.025	83.8
418.233	122.71
418.441	-55.47
418.649	-24.75
418.857	75.6
419.065	157.52
419.273	-2.22
419.481	14.17
419.689	-51.37
419.897	-10.41
420.105	-86.19
420.313	112.47
420.521	75.6
420.729	120.66
420.937	-6.31
421.145	-18.6
421.353	96.08
421.561	91.99
421.769	-57.51
421.977	26.45
422.185	124.76
422.393	34.64
422.601	137.04
422.809	67.41
423.017	71.51
423.224	-30.89
423.432	32.6
423.64	-24.75
423.848	100.18
424.056	40.79
424.263	79.7
424.471	26.45
424.679	130.9
424.887	-12.46
425.094	96.08
425.302	53.08
425.51	8.02
425.718	110.42
425.925	36.69
426.133	53.08
426.341	182.1
426.548	-2.22
426.756	96.08
426.964	8.02
427.171	1.88
427.379	104.28
427.586	22.36
427.794	128.85
428.001	128.85
428.209	173.91
428.417	114.52
428.624	89.94
428.832	87.89
429.039	38.74
429.247	147.28
429.454	114.52
429.662	135
429.869	112.47
430.076	143.19
430.284	98.13
430.491	79.7
430.699	206.67
430.906	87.89
431.114	108.37
431.321	85.84
431.528	132.95
431.736	69.46
431.943	67.41
432.15	126.8
432.358	116.56
432.565	155.47
432.772	79.7
432.979	229.2
433.187	79.7
433.394	161.62
433.601	206.67
433.808	274.26
434.016	153.43
434.223	126.8
434.43	147.28
434.637	145.24
434.844	298.83
435.052	247.63
435.259	223.06
435.466	311.12
435.673	184.15
435.88	337.74
436.087	296.78
436.294	327.5
436.501	282.45
436.708	239.44
436.915	284.5
437.122	333.65
437.329	259.92
437.537	274.26
437.743	294.74
437.95	399.18
438.157	415.57
438.364	321.36
438.571	462.67
438.778	423.76
438.985	456.53
439.192	436.05
439.399	411.47
439.606	415.57
439.813	423.76
440.02	552.78
440.227	575.31
440.433	522.06
440.64	491.34
440.847	493.39
441.054	511.82
441.261	724.81
441.467	591.69
441.674	610.12
441.881	776.01
442.088	620.36
442.294	733
442.501	759.63
442.708	821.06
442.914	796.49
443.121	714.57
443.328	864.07
443.534	919.37
443.741	886.6
443.948	835.4
444.154	966.47
444.361	1146.69
444.568	954.18
444.774	1050.44
444.981	1011.53
445.187	1230.66
445.394	1072.96
445.6	1165.12
445.807	1341.25
446.013	1281.86
446.22	1216.32
446.426	1324.87
446.633	1431.36
446.839	1601.34
447.046	1439.55
447.252	1627.96
447.459	1640.25
447.665	1580.86
447.871	1773.37
448.078	1967.93
448.284	1914.68
448.491	2094.9
448.697	2166.58
448.903	2225.97
449.11	2275.12
449.316	2129.72
449.522	2416.43
449.728	2443.06
449.935	2615.09
450.141	2553.65
450.347	2811.69
450.553	2639.66
450.76	2785.07
450.966	3133.22
451.172	2983.72
451.378	3180.32
451.584	3254.05
451.791	3434.27
451.997	3354.4
452.203	3505.95
452.409	3667.74
452.615	3987.22
452.821	3884.83
453.027	3962.65
453.233	4536.08
453.44	4400.91
453.646	4552.46
453.852	4769.55
454.058	5011.21
454.264	4984.59
454.47	5355.27
454.676	5392.13
454.882	5945.08
455.088	5545.73
455.294	5949.18
455.5	6301.43
455.705	6776.56
455.911	6567.67
456.117	6971.11
456.323	7048.94
456.529	7266.02
456.735	7800.54
456.941	7948
457.147	8279.77
457.352	8373.97
457.558	8783.57
457.764	9244.36
457.97	9580.23
458.176	9930.43
458.381	10469.05
458.587	10636.98
458.793	10833.58
458.999	10983.09
459.204	12590.74
459.41	13108.88
459.616	12687
459.821	13448.84
460.027	14141.05
460.233	14710.39
460.438	14587.51
460.644	15717.99
460.85	15847.01
461.055	16316
461.261	17256.01
461.466	16809.56
461.672	17225.29
461.878	19146.29
462.083	18871.86
462.289	19265.07
462.494	20114.98
462.7	20479.52
462.905	20567.58
463.111	22210.05
463.316	23487.98
463.522	23617
463.727	24827.35
463.932	25312.72
464.138	26484.16
464.343	27747.76
464.549	27583.92
464.754	29336.98
464.959	30117.26
465.165	30729.6
465.37	30512.52
465.575	30535.04
465.781	32335.21
465.986	33666.39
466.191	32955.74
466.397	33287.51
466.602	32621.92
466.807	34481.48
467.012	34850.11
467.218	35433.78
467.423	35579.19
467.628	36812.07
467.833	38550.79
468.038	37756.18
468.244	37014.82
468.449	39603.45
468.654	38311.18
468.859	38178.06
469.064	38165.77
469.269	37229.85
