Data from USB4F104151__96__10-35-25-328.txt Node

Date: Wed Feb 26 10:35:25 EST 2025
User: louis
Spectrometer: USB4F10415
Trigger mode: 4
Integration Time (sec): 1.000000E-1
Scans to average: 1
Electric dark correction enabled: true
Nonlinearity correction enabled: false
Boxcar width: 0
XAxis mode: Wavelengths
Number of Pixels in Spectrum: 3648
>>>>>Begin Spectral Data<<<<<
178.204	-439.63
178.424	-439.63
178.644	-439.63
178.864	-384.34
179.084	-468.3
179.304	-32.08
179.524	-25.94
179.744	17.07
179.964	23.21
180.184	35.5
180.404	86.7
180.624	-23.89
180.844	-73.04
181.064	2.73
181.283	-9.56
181.503	-60.76
181.723	60.07
181.943	-122.2
182.163	123.56
182.383	-27.99
182.602	90.79
182.822	84.65
183.042	45.74
183.262	-75.09
183.482	-21.84
183.701	-3.41
183.921	25.26
184.141	-44.37
184.361	62.12
184.58	21.16
184.8	-1.37
185.02	-103.76
185.239	88.75
185.459	43.69
185.679	139.94
185.898	-79.19
186.118	49.83
186.338	25.26
186.557	154.28
186.777	-19.8
186.997	-66.9
187.216	25.26
187.436	150.18
187.655	49.83
187.875	127.66
188.095	43.69
188.314	156.33
188.534	49.83
188.753	15.02
188.973	105.13
189.192	119.46
189.412	25.26
189.631	45.74
189.851	35.5
190.07	115.37
190.29	-87.38
190.509	15.02
190.729	-38.23
190.948	137.9
191.168	256.68
191.387	68.27
191.607	55.98
191.826	37.55
192.045	17.07
192.265	47.79
192.484	58.03
192.704	23.21
192.923	-83.28
193.142	84.65
193.362	127.66
193.581	146.09
193.8	88.75
194.02	58.03
194.239	31.4
194.458	51.88
194.678	-7.51
194.897	-17.75
195.116	33.45
195.335	47.79
195.555	64.17
195.774	-32.08
195.993	180.9
196.212	29.35
196.432	-44.37
196.651	-44.37
196.87	-48.47
197.089	221.86
197.308	72.36
197.528	105.13
197.747	-56.66
197.966	-3.41
198.185	150.18
198.404	-91.48
198.623	94.89
198.842	15.02
199.062	103.08
199.281	66.22
199.5	23.21
199.719	53.93
199.938	21.16
200.157	86.7
200.376	203.43
200.595	76.46
200.814	60.07
201.033	-71
201.252	201.38
201.471	-7.51
201.69	21.16
201.909	8.87
202.128	84.65
202.347	33.45
202.566	-52.56
202.785	-107.86
203.004	-25.94
203.223	271.01
203.442	53.93
203.661	-58.71
203.879	-1.37
204.098	133.8
204.317	10.92
204.536	-13.65
204.755	111.27
204.974	113.32
205.193	-32.08
205.411	84.65
205.63	12.97
205.849	-3.41
206.068	-48.47
206.287	-23.89
206.505	160.42
206.724	6.83
206.943	-50.52
207.162	55.98
207.381	29.35
207.599	25.26
207.818	39.59
208.037	-25.94
208.255	33.45
208.474	-87.38
208.693	94.89
208.911	-21.84
209.13	49.83
209.349	35.5
209.567	107.18
209.786	31.4
210.005	90.79
210.223	88.75
210.442	-19.8
210.661	-5.46
210.879	21.16
211.098	33.45
211.316	21.16
211.535	6.83
211.753	43.69
211.972	152.23
212.191	-9.56
212.409	-15.7
212.628	94.89
212.846	-5.46
213.065	10.92
213.283	68.27
213.502	35.5
213.72	-34.13
213.938	58.03
214.157	-42.32
214.375	62.12
214.594	78.51
214.812	82.6
215.031	37.55
215.249	41.64
215.467	60.07
215.686	88.75
215.904	21.16
216.122	60.07
216.341	166.57
216.559	94.89
216.778	21.16
216.996	111.27
217.214	31.4
217.432	76.46
217.651	-34.13
217.869	-66.9
218.087	31.4
218.306	-11.61
218.524	10.92
218.742	8.87
218.96	19.11
219.179	-7.51
219.397	-15.7
219.615	162.47
219.833	62.12
220.051	-21.84
220.27	70.31
220.488	82.6
220.706	45.74
220.924	29.35
221.142	-73.04
221.36	39.59
221.578	70.31
221.796	8.87
222.015	8.87
222.233	15.02
222.451	191.14
222.669	-3.41
222.887	53.93
223.105	-56.66
223.323	43.69
223.541	-38.23
223.759	43.69
223.977	101.03
224.195	170.66
224.413	68.27
224.631	25.26
224.849	121.51
225.067	131.75
225.285	33.45
225.503	-27.99
225.721	-103.76
225.939	47.79
226.157	84.65
226.375	240.3
226.592	-19.8
226.81	27.31
227.028	78.51
227.246	127.66
227.464	94.89
227.682	41.64
227.9	141.99
228.117	58.03
228.335	80.55
228.553	35.5
228.771	21.16
228.989	23.21
229.206	101.03
229.424	12.97
229.642	-7.51
229.86	-66.9
230.077	168.62
230.295	-11.61
230.513	123.56
230.731	127.66
230.948	185
231.166	109.23
231.384	45.74
231.601	-58.71
231.819	144.04
232.037	-21.84
232.254	8.87
232.472	72.36
232.689	-38.23
232.907	115.37
233.125	2.73
233.342	-64.85
233.56	2.73
233.777	2.73
233.995	-52.56
234.213	105.13
234.43	101.03
234.648	19.11
234.865	-3.41
235.083	47.79
235.3	2.73
235.518	88.75
235.735	96.94
235.953	90.79
236.17	23.21
236.388	66.22
236.605	23.21
236.822	35.5
237.04	82.6
237.257	86.7
237.475	-42.32
237.692	-21.84
237.909	101.03
238.127	-36.18
238.344	72.36
238.562	35.5
238.779	-40.28
238.996	-50.52
239.214	35.5
239.431	64.17
239.648	-19.8
239.865	33.45
240.083	19.11
240.3	-71
240.517	55.98
240.735	-25.94
240.952	45.74
241.169	-7.51
241.386	62.12
241.603	92.84
241.821	70.31
242.038	117.42
242.255	84.65
242.472	-19.8
242.689	29.35
242.907	154.28
243.124	-54.61
243.341	66.22
243.558	-48.47
243.775	-13.65
243.992	-9.56
244.209	86.7
244.426	96.94
244.643	23.21
244.86	12.97
245.078	101.03
245.295	25.26
245.512	35.5
245.729	-1.37
245.946	86.7
246.163	58.03
246.38	-1.37
246.597	8.87
246.814	74.41
247.031	35.5
247.248	39.59
247.464	49.83
247.681	17.07
247.898	45.74
248.115	74.41
248.332	-32.08
248.549	94.89
248.766	150.18
248.983	-30.04
249.2	45.74
249.417	72.36
249.633	90.79
249.85	43.69
250.067	-3.41
250.284	41.64
250.501	45.74
250.717	131.75
250.934	12.97
251.151	37.55
251.368	55.98
251.585	0.68
251.801	15.02
252.018	-120.15
252.235	101.03
252.451	-11.61
252.668	-23.89
252.885	86.7
253.102	62.12
253.318	55.98
253.535	21.16
253.752	49.83
253.968	-25.94
254.185	8.87
254.401	86.7
254.618	55.98
254.835	6.83
255.051	90.79
255.268	51.88
255.484	-7.51
255.701	43.69
255.917	78.51
256.134	-66.9
256.351	12.97
256.567	-32.08
256.784	-48.47
257	-52.56
257.217	80.55
257.433	84.65
257.65	62.12
257.866	96.94
258.082	-85.33
258.299	6.83
258.515	88.75
258.732	-46.42
258.948	101.03
259.165	111.27
259.381	8.87
259.597	80.55
259.814	17.07
260.03	-46.42
260.246	43.69
260.463	76.46
260.679	125.61
260.895	31.4
261.112	58.03
261.328	19.11
261.544	8.87
261.761	109.23
261.977	-15.7
262.193	-71
262.409	84.65
262.626	35.5
262.842	49.83
263.058	35.5
263.274	123.56
263.49	45.74
263.707	49.83
263.923	107.18
264.139	-52.56
264.355	55.98
264.571	119.46
264.787	53.93
265.004	133.8
265.22	8.87
265.436	47.79
265.652	-38.23
265.868	68.27
266.084	-40.28
266.3	88.75
266.516	-27.99
266.732	86.7
266.948	12.97
267.164	-5.46
267.38	53.93
267.596	-19.8
267.812	170.66
268.028	23.21
268.244	-9.56
268.46	27.31
268.676	17.07
268.892	80.55
269.108	-46.42
269.324	-42.32
269.54	-54.61
269.756	68.27
269.972	21.16
270.188	-7.51
270.403	-81.24
270.619	-32.08
270.835	47.79
271.051	-3.41
271.267	-75.09
271.483	-17.75
271.698	51.88
271.914	62.12
272.13	2.73
272.346	0.68
272.562	-27.99
272.777	154.28
272.993	-11.61
273.209	2.73
273.425	45.74
273.64	-56.66
273.856	168.62
274.072	-9.56
274.287	-44.37
274.503	107.18
274.719	113.32
274.934	-71
275.15	-38.23
275.366	41.64
275.581	-3.41
275.797	47.79
276.012	-3.41
276.228	-13.65
276.444	19.11
276.659	146.09
276.875	25.26
277.09	-13.65
277.306	-13.65
277.521	-9.56
277.737	37.55
277.952	76.46
278.168	-46.42
278.383	6.83
278.599	86.7
278.814	117.42
279.03	15.02
279.245	98.99
279.461	31.4
279.676	47.79
279.892	-21.84
280.107	-21.84
280.322	-54.61
280.538	84.65
280.753	-7.51
280.969	90.79
281.184	60.07
281.399	96.94
281.615	-5.46
281.83	27.31
282.045	-64.85
282.26	-40.28
282.476	109.23
282.691	74.41
282.906	98.99
283.122	-42.32
283.337	-56.66
283.552	25.26
283.767	-34.13
283.983	74.41
284.198	10.92
284.413	68.27
284.628	-64.85
284.843	64.17
285.058	39.59
285.274	-1.37
285.489	0.68
285.704	31.4
285.919	-9.56
286.134	-1.37
286.349	4.78
286.564	-1.37
286.779	98.99
286.995	41.64
287.21	-62.8
287.425	98.99
287.64	-17.75
287.855	76.46
288.07	-68.95
288.285	58.03
288.5	131.75
288.715	64.17
288.93	6.83
289.145	43.69
289.36	37.55
289.575	0.68
289.79	98.99
290.004	47.79
290.219	107.18
290.434	-9.56
290.649	29.35
290.864	17.07
291.079	17.07
291.294	29.35
291.509	-13.65
291.724	58.03
291.938	-23.89
292.153	39.59
292.368	66.22
292.583	41.64
292.798	64.17
293.012	39.59
293.227	21.16
293.442	-101.72
293.657	94.89
293.871	17.07
294.086	53.93
294.301	154.28
294.516	131.75
294.73	-3.41
294.945	-7.51
295.16	58.03
295.374	129.7
295.589	119.46
295.804	-42.32
296.018	35.5
296.233	144.04
296.447	68.27
296.662	-19.8
296.877	117.42
297.091	8.87
297.306	-9.56
297.52	-19.8
297.735	37.55
297.949	4.78
298.164	58.03
298.378	27.31
298.593	-48.47
298.807	2.73
299.022	49.83
299.236	139.94
299.451	-34.13
299.665	-3.41
299.88	-40.28
300.094	94.89
300.309	35.5
300.523	64.17
300.737	47.79
300.952	51.88
301.166	62.12
301.381	-27.99
301.595	-52.56
301.809	17.07
302.024	-15.7
302.238	-25.94
302.452	162.47
302.667	19.11
302.881	137.9
303.095	86.7
303.309	86.7
303.524	-97.62
303.738	-64.85
303.952	-27.99
304.166	55.98
304.381	-152.91
304.595	113.32
304.809	-19.8
305.023	29.35
305.237	-30.04
305.452	6.83
305.666	41.64
305.88	119.46
306.094	58.03
306.308	86.7
306.522	68.27
306.736	80.55
306.95	62.12
307.164	-19.8
307.379	12.97
307.593	205.48
307.807	76.46
308.021	96.94
308.235	103.08
308.449	-93.52
308.663	-3.41
308.877	236.2
309.091	31.4
309.305	53.93
309.519	-193.87
309.733	86.7
309.947	-66.9
310.161	60.07
310.374	107.18
310.588	115.37
310.802	-52.56
311.016	25.26
311.23	109.23
311.444	-36.18
311.658	41.64
311.872	47.79
312.085	62.12
312.299	121.51
312.513	223.91
312.727	53.93
312.941	-83.28
313.154	82.6
313.368	62.12
313.582	2.73
313.796	-32.08
314.009	25.26
314.223	113.32
314.437	-11.61
314.651	88.75
314.864	-23.89
315.078	15.02
315.292	-7.51
315.505	2.73
315.719	10.92
315.933	37.55
316.146	-58.71
316.36	-9.56
316.573	131.75
316.787	133.8
317.001	111.27
317.214	17.07
317.428	21.16
317.641	-54.61
317.855	-50.52
318.068	33.45
318.282	66.22
318.495	205.48
318.709	37.55
318.922	-1.37
319.136	109.23
319.349	154.28
319.563	12.97
319.776	86.7
319.99	-77.14
320.203	139.94
320.417	41.64
320.63	6.83
320.843	207.53
321.057	8.87
321.27	27.31
321.483	117.42
321.697	158.38
321.91	74.41
322.124	19.11
322.337	70.31
322.55	-13.65
322.763	31.4
322.977	19.11
323.19	51.88
323.403	2.73
323.617	76.46
323.83	33.45
324.043	-1.37
324.256	41.64
324.469	-95.57
324.683	19.11
324.896	-25.94
325.109	-1.37
325.322	-23.89
325.535	66.22
325.748	21.16
325.962	-50.52
326.175	51.88
326.388	31.4
326.601	72.36
326.814	60.07
327.027	80.55
327.24	162.47
327.453	-111.96
327.666	74.41
327.879	127.66
328.092	137.9
328.305	49.83
328.518	-1.37
328.731	-15.7
328.944	41.64
329.157	2.73
329.37	-27.99
329.583	131.75
329.796	146.09
330.009	-13.65
330.222	96.94
330.435	68.27
330.648	53.93
330.861	80.55
331.073	35.5
331.286	133.8
331.499	17.07
331.712	-1.37
331.925	-11.61
332.138	-5.46
332.35	154.28
332.563	-66.9
332.776	129.7
332.989	33.45
333.202	8.87
333.414	64.17
333.627	29.35
333.84	64.17
334.053	8.87
334.265	72.36
334.478	-77.14
334.691	37.55
334.903	2.73
335.116	-44.37
335.329	23.21
335.541	62.12
335.754	119.46
335.966	-25.94
336.179	27.31
336.392	-7.51
336.604	27.31
336.817	35.5
337.029	51.88
337.242	15.02
337.454	33.45
337.667	-38.23
337.88	125.61
338.092	80.55
338.305	12.97
338.517	8.87
338.729	115.37
338.942	84.65
339.154	-103.76
339.367	62.12
339.579	43.69
339.792	-5.46
340.004	39.59
340.217	39.59
340.429	47.79
340.641	-11.61
340.854	-42.32
341.066	8.87
341.278	107.18
341.491	160.42
341.703	90.79
341.915	-42.32
342.128	53.93
342.34	62.12
342.552	-13.65
342.764	15.02
342.977	4.78
343.189	66.22
343.401	27.31
343.613	-23.89
343.826	49.83
344.038	-13.65
344.25	43.69
344.462	-40.28
344.674	-15.7
344.886	37.55
345.099	-23.89
345.311	101.03
345.523	21.16
345.735	-91.48
345.947	131.75
346.159	58.03
346.371	31.4
346.583	-32.08
346.795	199.34
347.007	-44.37
347.219	92.84
347.431	35.5
347.643	170.66
347.855	-50.52
348.067	31.4
348.279	-54.61
348.491	98.99
348.703	33.45
348.915	25.26
349.127	-19.8
349.339	-32.08
349.551	51.88
349.763	66.22
349.975	80.55
350.187	78.51
350.399	107.18
350.61	-5.46
350.822	0.68
351.034	53.93
351.246	111.27
351.458	76.46
351.669	31.4
351.881	103.08
352.093	148.14
352.305	72.36
352.517	29.35
352.728	150.18
352.94	31.4
353.152	92.84
353.363	-27.99
353.575	150.18
353.787	135.85
353.999	105.13
354.21	152.23
354.422	4.78
354.633	-32.08
354.845	-38.23
355.057	10.92
355.268	51.88
355.48	103.08
355.692	-52.56
355.903	74.41
356.115	19.11
356.326	-27.99
356.538	141.99
356.749	68.27
356.961	160.42
357.172	82.6
357.384	-17.75
357.595	244.39
357.807	82.6
358.018	-60.76
358.23	84.65
358.441	113.32
358.653	98.99
358.864	15.02
359.075	-27.99
359.287	31.4
359.498	-17.75
359.709	25.26
359.921	-15.7
360.132	70.31
360.344	-23.89
360.555	-38.23
360.766	10.92
360.977	117.42
361.189	82.6
361.4	-11.61
361.611	101.03
361.823	45.74
362.034	35.5
362.245	-71
362.456	-46.42
362.667	45.74
362.879	10.92
363.09	109.23
363.301	90.79
363.512	-54.61
363.723	2.73
363.935	-3.41
364.146	72.36
364.357	-9.56
364.568	84.65
364.779	-54.61
364.99	178.86
365.201	-13.65
365.412	107.18
365.623	-130.39
365.834	45.74
366.045	-13.65
366.256	43.69
366.467	60.07
366.678	2.73
366.889	53.93
367.1	35.5
367.311	58.03
367.522	-13.65
367.733	0.68
367.944	15.02
368.155	43.69
368.366	58.03
368.577	125.61
368.788	109.23
368.999	-85.33
369.209	-1.37
369.42	178.86
369.631	244.39
369.842	41.64
370.053	82.6
370.264	154.28
370.474	4.78
370.685	45.74
370.896	6.83
371.107	45.74
371.317	-7.51
371.528	-19.8
371.739	133.8
371.95	78.51
372.16	72.36
372.371	-38.23
372.582	-15.7
372.792	86.7
373.003	127.66
373.214	55.98
373.424	19.11
373.635	-21.84
373.846	82.6
374.056	37.55
374.267	49.83
374.477	58.03
374.688	35.5
374.898	33.45
375.109	53.93
375.319	80.55
375.53	156.33
375.74	98.99
375.951	-30.04
376.161	115.37
376.372	127.66
376.582	37.55
376.793	64.17
377.003	19.11
377.214	-40.28
377.424	53.93
377.635	4.78
377.845	15.02
378.055	115.37
378.266	-62.8
378.476	-52.56
378.686	-60.76
378.897	10.92
379.107	70.31
379.317	39.59
379.528	74.41
379.738	62.12
379.948	-95.57
380.158	148.14
380.369	45.74
380.579	49.83
380.789	39.59
380.999	103.08
381.21	119.46
381.42	133.8
381.63	-3.41
381.84	39.59
382.05	21.16
382.261	115.37
382.471	92.84
382.681	-77.14
382.891	111.27
383.101	103.08
383.311	-19.8
383.521	-38.23
383.731	82.6
383.941	76.46
384.151	31.4
384.361	-11.61
384.571	84.65
384.781	-11.61
384.991	187.05
385.201	205.48
385.411	74.41
385.621	78.51
385.831	68.27
386.041	-19.8
386.251	-36.18
386.461	115.37
386.671	31.4
386.881	72.36
387.091	27.31
387.301	84.65
387.511	62.12
387.72	74.41
387.93	121.51
388.14	-68.95
388.35	-9.56
388.56	125.61
388.769	107.18
388.979	4.78
389.189	-19.8
389.399	117.42
389.609	129.7
389.818	152.23
390.028	31.4
390.238	60.07
390.447	-34.13
390.657	60.07
390.867	-73.04
391.076	-38.23
391.286	12.97
391.496	-25.94
391.705	78.51
391.915	72.36
392.125	82.6
392.334	53.93
392.544	115.37
392.753	66.22
392.963	43.69
393.172	58.03
393.382	-40.28
393.591	189.1
393.801	23.21
394.01	146.09
394.22	92.84
394.429	-30.04
394.639	31.4
394.848	27.31
395.058	96.94
395.267	23.21
395.477	4.78
395.686	96.94
395.895	131.75
396.105	197.29
396.314	66.22
396.524	49.83
396.733	-32.08
396.942	119.46
397.152	74.41
397.361	82.6
397.57	111.27
397.78	82.6
397.989	176.81
398.198	141.99
398.407	47.79
398.617	41.64
398.826	2.73
399.035	-7.51
399.244	121.51
399.453	-21.84
399.663	92.84
399.872	62.12
400.081	-46.42
400.29	90.79
400.499	-36.18
400.708	43.69
400.917	-1.37
401.127	-48.47
401.336	0.68
401.545	180.9
401.754	76.46
401.963	105.13
402.172	8.87
402.381	-60.76
402.59	23.21
402.799	68.27
403.008	123.56
403.217	70.31
403.426	64.17
403.635	-58.71
403.844	23.21
404.053	-13.65
404.262	-13.65
404.471	185
404.68	113.32
404.888	33.45
405.097	-44.37
405.306	105.13
405.515	90.79
405.724	-52.56
405.933	15.02
406.142	96.94
406.35	152.23
406.559	-15.7
406.768	25.26
406.977	131.75
407.185	80.55
407.394	88.75
407.603	12.97
407.812	62.12
408.02	80.55
408.229	49.83
408.438	111.27
408.646	-52.56
408.855	82.6
409.064	37.55
409.272	86.7
409.481	70.31
409.69	2.73
409.898	-54.61
410.107	-75.09
410.315	94.89
410.524	68.27
410.733	-27.99
410.941	58.03
411.15	88.75
411.358	94.89
411.567	199.34
411.775	53.93
411.984	10.92
412.192	78.51
412.401	-27.99
412.609	137.9
412.818	109.23
413.026	101.03
413.234	15.02
413.443	55.98
413.651	19.11
413.86	49.83
414.068	113.32
414.276	133.8
414.485	21.16
414.693	117.42
414.901	189.1
415.11	-17.75
415.318	113.32
415.526	35.5
415.734	139.94
415.943	35.5
416.151	238.25
416.359	92.84
416.567	45.74
416.776	127.66
416.984	25.26
417.192	182.95
417.4	-21.84
417.608	29.35
417.817	35.5
418.025	146.09
418.233	205.48
418.441	4.78
418.649	-48.47
418.857	96.94
419.065	70.31
419.273	0.68
419.481	0.68
419.689	29.35
419.897	29.35
420.105	-85.33
420.313	70.31
420.521	123.56
420.729	37.55
420.937	-23.89
421.145	-19.8
421.353	144.04
421.561	123.56
421.769	111.27
421.977	78.51
422.185	101.03
422.393	80.55
422.601	98.99
422.809	82.6
423.017	105.13
423.224	31.4
423.432	168.62
423.64	53.93
423.848	141.99
424.056	-25.94
424.263	88.75
424.471	31.4
424.679	166.57
424.887	35.5
425.094	141.99
425.302	123.56
425.51	6.83
425.718	25.26
425.925	47.79
426.133	21.16
426.341	289.45
426.548	6.83
426.756	43.69
426.964	127.66
427.171	68.27
427.379	101.03
427.586	43.69
427.794	53.93
428.001	170.66
428.209	129.7
428.417	137.9
428.624	74.41
428.832	107.18
429.039	131.75
429.247	35.5
429.454	137.9
429.662	160.42
429.869	113.32
430.076	148.14
430.284	148.14
430.491	172.71
430.699	150.18
430.906	193.19
431.114	84.65
431.321	172.71
431.528	129.7
431.736	197.29
431.943	187.05
432.15	215.72
432.358	146.09
432.565	291.49
432.772	60.07
432.979	160.42
433.187	139.94
433.394	228.01
433.601	164.52
433.808	193.19
434.016	248.49
434.223	228.01
434.43	158.38
434.637	244.39
434.844	256.68
435.052	260.77
435.259	262.82
435.466	316.07
435.673	201.38
435.88	236.2
436.087	357.03
436.294	287.4
436.501	406.18
436.708	285.35
436.915	287.4
437.122	338.6
437.329	316.07
437.537	295.59
437.743	359.08
437.95	479.91
438.157	481.96
438.364	424.61
438.571	383.65
438.778	369.32
438.985	484
439.192	510.63
439.399	510.63
439.606	453.28
439.813	539.3
440.02	674.46
440.227	621.22
440.433	502.44
440.64	627.36
440.847	557.73
441.054	615.07
441.261	733.86
441.467	619.17
441.674	637.6
441.881	707.23
442.088	645.79
442.294	680.61
442.501	815.77
442.708	803.49
442.914	821.92
443.121	934.56
443.328	862.88
443.534	993.95
443.741	977.56
443.948	877.21
444.154	1016.48
444.361	1137.31
444.568	1151.64
444.774	1219.22
444.981	1002.14
445.187	1192.6
445.394	1305.24
445.6	1190.55
445.807	1264.28
446.013	1342.1
446.22	1376.92
446.426	1487.51
446.633	1575.57
446.839	1825.42
447.046	1491.6
447.252	1759.89
447.459	1794.7
447.665	1737.36
447.871	1954.44
448.078	2194.06
448.284	1989.26
448.491	2079.37
448.697	2372.23
448.903	2300.55
449.11	2386.57
449.316	2210.44
449.522	2697.86
449.728	2654.85
449.935	2704
450.141	2654.85
450.347	2925.18
450.553	2892.41
450.76	2964.09
450.966	3035.77
451.172	3383.93
451.378	3349.11
451.584	3564.15
451.791	3703.41
451.997	3756.66
452.203	3828.34
452.409	4067.95
452.615	4223.59
452.821	4070
453.027	4268.65
453.233	4653.67
453.44	4670.05
453.646	4858.46
453.852	4858.46
454.058	5065.31
454.264	5241.43
454.47	5712.47
454.676	5683.8
454.882	6300.23
455.088	5765.71
455.294	6234.7
455.5	6707.78
455.705	7017.02
455.911	7051.84
456.117	7201.34
456.323	7443
456.529	7692.85
456.735	8155.69
456.941	8348.2
457.147	8659.49
457.352	9083.42
457.558	9259.55
457.764	9851.41
457.97	10105.36
458.176	10598.92
458.381	11102.72
458.587	11254.27
458.793	11805.17
458.999	11497.98
459.204	13169.12
459.41	13361.63
459.616	13062.63
459.821	14291.41
460.027	14911.94
460.233	15532.48
460.438	15534.53
460.644	16445.87
460.85	16611.76
461.055	17310.11
461.261	17934.74
461.466	17858.97
461.672	18010.52
461.878	20308.34
462.083	19827.07
462.289	20169.08
462.494	21072.23
462.7	21260.65
462.905	21711.2
463.111	23322.95
463.316	24285.5
463.522	24723.76
463.727	25932.06
463.932	26751.25
464.138	27568.39
464.343	28627.19
464.549	28678.39
464.754	30832.85
464.959	31396.04
465.165	32155.84
465.37	32028.87
465.575	32188.61
465.781	34015.4
465.986	34932.89
466.191	34472.09
466.397	34834.58
466.602	33933.48
466.807	35858.57
467.012	36622.46
467.218	36864.12
467.423	37302.39
467.628	38299.75
467.833	39884.87
468.038	39628.88
468.244	38977.62
468.449	41107.51
468.654	40200.26
468.859	39868.49
469.064	39790.67
469.269	38813.79
