Data from USB4F104151__12__10-23-08-449.txt Node

Date: Wed Feb 26 10:23:08 EST 2025
User: louis
Spectrometer: USB4F10415
Trigger mode: 4
Integration Time (sec): 1.000000E-1
Scans to average: 1
Electric dark correction enabled: true
Nonlinearity correction enabled: false
Boxcar width: 0
XAxis mode: Wavelengths
Number of Pixels in Spectrum: 3648
>>>>>Begin Spectral Data<<<<<
178.204	-383.99
178.424	-383.99
178.644	-383.99
178.864	-377.85
179.084	-359.42
179.304	11.26
179.524	39.94
179.744	1.02
179.964	76.8
180.184	15.36
180.404	60.42
180.624	-74.75
180.844	3.07
181.064	-78.85
181.283	-39.94
181.503	-41.98
181.723	27.65
181.943	-142.33
182.163	152.57
182.383	39.94
182.602	-1.02
182.822	66.56
183.042	37.89
183.262	-29.7
183.482	13.31
183.701	-9.22
183.921	64.51
184.141	-117.76
184.361	72.7
184.58	95.23
184.8	115.71
185.02	44.03
185.239	109.57
185.459	25.6
185.679	132.09
185.898	-52.22
186.118	70.65
186.338	74.75
186.557	87.04
186.777	-107.52
186.997	-11.26
187.216	35.84
187.436	205.82
187.655	70.65
187.875	121.85
188.095	-41.98
188.314	214.01
188.534	199.68
188.753	17.41
188.973	93.18
189.192	209.92
189.412	93.18
189.631	-9.22
189.851	84.99
190.07	132.09
190.29	-48.13
190.509	46.08
190.729	54.27
190.948	181.25
191.168	234.49
191.387	130.05
191.607	31.74
191.826	50.18
192.045	68.61
192.265	9.22
192.484	125.95
192.704	23.55
192.923	-97.28
193.142	222.2
193.362	142.33
193.581	134.14
193.8	91.13
194.02	177.15
194.239	-80.89
194.458	125.95
194.678	27.65
194.897	50.18
195.116	37.89
195.335	21.5
195.555	66.56
195.774	44.03
195.993	80.89
196.212	-9.22
196.432	-101.37
196.651	-27.65
196.87	87.04
197.089	238.59
197.308	11.26
197.528	119.81
197.747	9.22
197.966	89.09
198.185	150.53
198.404	-7.17
198.623	156.67
198.842	152.57
199.062	113.66
199.281	66.56
199.5	-1.02
199.719	105.47
199.938	7.17
200.157	-9.22
200.376	97.28
200.595	152.57
200.814	78.85
201.033	-44.03
201.252	177.15
201.471	84.99
201.69	27.65
201.909	-31.74
202.128	156.67
202.347	87.04
202.566	-3.07
202.785	-54.27
203.004	-44.03
203.223	261.12
203.442	41.98
203.661	-91.13
203.879	74.75
204.098	103.42
204.317	109.57
204.536	66.56
204.755	25.6
204.974	89.09
205.193	1.02
205.411	82.94
205.63	93.18
205.849	119.81
206.068	-27.65
206.287	27.65
206.505	115.71
206.724	72.7
206.943	9.22
207.162	54.27
207.381	80.89
207.599	5.12
207.818	62.46
208.037	29.7
208.255	7.17
208.474	50.18
208.693	130.05
208.911	93.18
209.13	128
209.349	160.77
209.567	50.18
209.786	78.85
210.005	101.37
210.223	37.89
210.442	-7.17
210.661	82.94
210.879	177.15
211.098	72.7
211.316	-11.26
211.535	44.03
211.753	19.46
211.972	41.98
212.191	48.13
212.409	60.42
212.628	140.29
212.846	1.02
213.065	56.32
213.283	109.57
213.502	60.42
213.72	84.99
213.938	-35.84
214.157	21.5
214.375	58.37
214.594	-21.5
214.812	62.46
215.031	58.37
215.249	-9.22
215.467	89.09
215.686	-48.13
215.904	64.51
216.122	48.13
216.341	95.23
216.559	17.41
216.778	138.24
216.996	113.66
217.214	41.98
217.432	5.12
217.651	-150.53
217.869	1.02
218.087	52.22
218.306	68.61
218.524	39.94
218.742	50.18
218.96	109.57
219.179	-27.65
219.397	23.55
219.615	234.49
219.833	166.91
220.051	-1.02
220.27	128
220.488	177.15
220.706	56.32
220.924	29.7
221.142	-84.99
221.36	107.52
221.578	117.76
221.796	25.6
222.015	76.8
222.233	99.33
222.451	134.14
222.669	-39.94
222.887	109.57
223.105	15.36
223.323	-21.5
223.541	-111.61
223.759	52.22
223.977	80.89
224.195	142.33
224.413	58.37
224.631	11.26
224.849	-5.12
225.067	238.59
225.285	-29.7
225.503	17.41
225.721	-80.89
225.939	60.42
226.157	21.5
226.375	195.58
226.592	7.17
226.81	111.61
227.028	76.8
227.246	187.39
227.464	107.52
227.682	134.14
227.9	31.74
228.117	25.6
228.335	54.27
228.553	48.13
228.771	15.36
228.989	91.13
229.206	41.98
229.424	33.79
229.642	-21.5
229.86	-144.38
230.077	62.46
230.295	95.23
230.513	125.95
230.731	-17.41
230.948	103.42
231.166	177.15
231.384	117.76
231.601	39.94
231.819	164.86
232.037	44.03
232.254	-17.41
232.472	21.5
232.689	-17.41
232.907	152.57
233.125	44.03
233.342	-91.13
233.56	-29.7
233.777	-44.03
233.995	11.26
234.213	130.05
234.43	82.94
234.648	54.27
234.865	-29.7
235.083	105.47
235.3	76.8
235.518	62.46
235.735	152.57
235.953	66.56
236.17	56.32
236.388	60.42
236.605	23.55
236.822	80.89
237.04	164.86
237.257	70.65
237.475	-21.5
237.692	76.8
237.909	60.42
238.127	48.13
238.344	27.65
238.562	80.89
238.779	-56.32
238.996	-62.46
239.214	7.17
239.431	68.61
239.648	-3.07
239.865	146.43
240.083	89.09
240.3	9.22
240.517	1.02
240.735	101.37
240.952	60.42
241.169	21.5
241.386	109.57
241.603	27.65
241.821	-35.84
242.038	70.65
242.255	105.47
242.472	-11.26
242.689	11.26
242.907	171.01
243.124	105.47
243.341	44.03
243.558	-15.36
243.775	1.02
243.992	15.36
244.209	68.61
244.426	211.96
244.643	48.13
244.86	35.84
245.078	64.51
245.295	74.75
245.512	1.02
245.729	-3.07
245.946	103.42
246.163	72.7
246.38	-80.89
246.597	33.79
246.814	60.42
247.031	15.36
247.248	31.74
247.464	66.56
247.681	-9.22
247.898	56.32
248.115	70.65
248.332	-39.94
248.549	109.57
248.766	177.15
248.983	-3.07
249.2	109.57
249.417	113.66
249.633	13.31
249.85	84.99
250.067	1.02
250.284	95.23
250.501	5.12
250.717	23.55
250.934	15.36
251.151	48.13
251.368	97.28
251.585	76.8
251.801	66.56
252.018	21.5
252.235	160.77
252.451	-72.7
252.668	3.07
252.885	140.29
253.102	-3.07
253.318	21.5
253.535	80.89
253.752	-11.26
253.968	-54.27
254.185	-21.5
254.401	66.56
254.618	39.94
254.835	68.61
255.051	144.38
255.268	54.27
255.484	62.46
255.701	3.07
255.917	25.6
256.134	19.46
256.351	-11.26
256.567	-41.98
256.784	44.03
257	-19.46
257.217	23.55
257.433	125.95
257.65	109.57
257.866	136.19
258.082	-66.56
258.299	21.5
258.515	103.42
258.732	-89.09
258.948	27.65
259.165	72.7
259.381	-44.03
259.597	29.7
259.814	91.13
260.03	35.84
260.246	60.42
260.463	78.85
260.679	62.46
260.895	54.27
261.112	33.79
261.328	11.26
261.544	-25.6
261.761	142.33
261.977	-5.12
262.193	-115.71
262.409	150.53
262.626	15.36
262.842	31.74
263.058	13.31
263.274	119.81
263.49	74.75
263.707	54.27
263.923	48.13
264.139	-35.84
264.355	35.84
264.571	27.65
264.787	109.57
265.004	87.04
265.22	5.12
265.436	-7.17
265.652	9.22
265.868	5.12
266.084	15.36
266.3	97.28
266.516	-9.22
266.732	44.03
266.948	15.36
267.164	-1.02
267.38	52.22
267.596	70.65
267.812	177.15
268.028	72.7
268.244	31.74
268.46	9.22
268.676	-5.12
268.892	107.52
269.108	46.08
269.324	-35.84
269.54	-52.22
269.756	101.37
269.972	-37.89
270.188	-11.26
270.403	-13.31
270.619	7.17
270.835	56.32
271.051	93.18
271.267	23.55
271.483	-35.84
271.698	113.66
271.914	5.12
272.13	46.08
272.346	66.56
272.562	142.33
272.777	111.61
272.993	9.22
273.209	11.26
273.425	82.94
273.64	-11.26
273.856	148.48
274.072	9.22
274.287	3.07
274.503	41.98
274.719	76.8
274.934	-9.22
275.15	-37.89
275.366	9.22
275.581	-39.94
275.797	70.65
276.012	-37.89
276.228	-60.42
276.444	56.32
276.659	142.33
276.875	-48.13
277.09	48.13
277.306	-25.6
277.521	134.14
277.737	109.57
277.952	74.75
278.168	-19.46
278.383	84.99
278.599	72.7
278.814	82.94
279.03	35.84
279.245	154.62
279.461	27.65
279.676	164.86
279.892	-27.65
280.107	-35.84
280.322	-33.79
280.538	62.46
280.753	17.41
280.969	74.75
281.184	31.74
281.399	197.63
281.615	17.41
281.83	117.76
282.045	-91.13
282.26	-3.07
282.476	171.01
282.691	56.32
282.906	93.18
283.122	78.85
283.337	-11.26
283.552	68.61
283.767	7.17
283.983	150.53
284.198	-48.13
284.413	95.23
284.628	-80.89
284.843	74.75
285.058	105.47
285.274	-31.74
285.489	-72.7
285.704	128
285.919	-48.13
286.134	13.31
286.349	80.89
286.564	74.75
286.779	119.81
286.995	46.08
287.21	-72.7
287.425	1.02
287.64	46.08
287.855	7.17
288.07	-1.02
288.285	144.38
288.5	132.09
288.715	128
288.93	11.26
289.145	29.7
289.36	125.95
289.575	-68.61
289.79	177.15
290.004	-13.31
290.219	64.51
290.434	-15.36
290.649	-72.7
290.864	50.18
291.079	46.08
291.294	31.74
291.509	15.36
291.724	41.98
291.938	-27.65
292.153	33.79
292.368	3.07
292.583	7.17
292.798	89.09
293.012	66.56
293.227	-21.5
293.442	72.7
293.657	91.13
293.871	50.18
294.086	68.61
294.301	128
294.516	181.25
294.73	54.27
294.945	-56.32
295.16	-31.74
295.374	109.57
295.589	138.24
295.804	-74.75
296.018	19.46
296.233	82.94
296.447	66.56
296.662	74.75
296.877	115.71
297.091	82.94
297.306	62.46
297.52	33.79
297.735	91.13
297.949	62.46
298.164	-11.26
298.378	101.37
298.593	1.02
298.807	-68.61
299.022	-7.17
299.236	15.36
299.451	56.32
299.665	68.61
299.88	-5.12
300.094	50.18
300.309	29.7
300.523	99.33
300.737	21.5
300.952	39.94
301.166	23.55
301.381	-7.17
301.595	31.74
301.809	60.42
302.024	11.26
302.238	-1.02
302.452	66.56
302.667	39.94
302.881	154.62
303.095	72.7
303.309	78.85
303.524	-31.74
303.738	41.98
303.952	31.74
304.166	72.7
304.381	-150.53
304.595	156.67
304.809	44.03
305.023	54.27
305.237	27.65
305.452	-87.04
305.666	56.32
305.88	39.94
306.094	179.2
306.308	152.57
306.522	103.42
306.736	70.65
306.95	121.85
307.164	-5.12
307.379	-17.41
307.593	89.09
307.807	117.76
308.021	39.94
308.235	74.75
308.449	-64.51
308.663	-3.07
308.877	209.92
309.091	56.32
309.305	-7.17
309.519	-76.8
309.733	80.89
309.947	-101.37
310.161	99.33
310.374	93.18
310.588	68.61
310.802	-74.75
311.016	9.22
311.23	123.9
311.444	31.74
311.658	70.65
311.872	148.48
312.085	189.44
312.299	195.58
312.513	99.33
312.727	-13.31
312.941	-25.6
313.154	89.09
313.368	87.04
313.582	-27.65
313.796	62.46
314.009	48.13
314.223	93.18
314.437	25.6
314.651	84.99
314.864	-15.36
315.078	58.37
315.292	-48.13
315.505	-5.12
315.719	91.13
315.933	130.05
316.146	21.5
316.36	-39.94
316.573	72.7
316.787	52.22
317.001	27.65
317.214	52.22
317.428	33.79
317.641	-9.22
317.855	25.6
318.068	35.84
318.282	-1.02
318.495	41.98
318.709	37.89
318.922	17.41
319.136	119.81
319.349	128
319.563	-7.17
319.776	64.51
319.99	-68.61
320.203	115.71
320.417	76.8
320.63	99.33
320.843	228.35
321.057	101.37
321.27	-33.79
321.483	103.42
321.697	95.23
321.91	31.74
322.124	39.94
322.337	136.19
322.55	58.37
322.763	82.94
322.977	35.84
323.19	68.61
323.403	91.13
323.617	111.61
323.83	80.89
324.043	62.46
324.256	111.61
324.469	-5.12
324.683	152.57
324.896	84.99
325.109	-11.26
325.322	13.31
325.535	52.22
325.748	54.27
325.962	54.27
326.175	50.18
326.388	27.65
326.601	103.42
326.814	66.56
327.027	33.79
327.24	128
327.453	-111.61
327.666	44.03
327.879	130.05
328.092	128
328.305	50.18
328.518	-7.17
328.731	48.13
328.944	68.61
329.157	1.02
329.37	7.17
329.583	162.81
329.796	117.76
330.009	-115.71
330.222	46.08
330.435	117.76
330.648	58.37
330.861	35.84
331.073	113.66
331.286	115.71
331.499	27.65
331.712	1.02
331.925	19.46
332.138	33.79
332.35	121.85
332.563	44.03
332.776	132.09
332.989	-50.18
333.202	-3.07
333.414	41.98
333.627	31.74
333.84	-3.07
334.053	103.42
334.265	39.94
334.478	37.89
334.691	41.98
334.903	23.55
335.116	-54.27
335.329	1.02
335.541	50.18
335.754	121.85
335.966	72.7
336.179	64.51
336.392	95.23
336.604	50.18
336.817	140.29
337.029	58.37
337.242	84.99
337.454	52.22
337.667	-46.08
337.88	164.86
338.092	39.94
338.305	123.9
338.517	33.79
338.729	46.08
338.942	158.72
339.154	-37.89
339.367	-46.08
339.579	99.33
339.792	-50.18
340.004	130.05
340.217	54.27
340.429	46.08
340.641	-37.89
340.854	-41.98
341.066	-11.26
341.278	181.25
341.491	138.24
341.703	17.41
341.915	-15.36
342.128	117.76
342.34	101.37
342.552	-54.27
342.764	31.74
342.977	-44.03
343.189	101.37
343.401	78.85
343.613	-44.03
343.826	91.13
344.038	-56.32
344.25	132.09
344.462	27.65
344.674	19.46
344.886	33.79
345.099	72.7
345.311	93.18
345.523	70.65
345.735	-27.65
345.947	-31.74
346.159	113.66
346.371	113.66
346.583	-33.79
346.795	185.34
347.007	-1.02
347.219	74.75
347.431	62.46
347.643	197.63
347.855	56.32
348.067	87.04
348.279	-9.22
348.491	78.85
348.703	52.22
348.915	-33.79
349.127	-15.36
349.339	56.32
349.551	50.18
349.763	144.38
349.975	37.89
350.187	117.76
350.399	207.87
350.61	56.32
350.822	-50.18
351.034	52.22
351.246	35.84
351.458	60.42
351.669	50.18
351.881	144.38
352.093	84.99
352.305	152.57
352.517	95.23
352.728	146.43
352.94	37.89
353.152	119.81
353.363	-46.08
353.575	89.09
353.787	142.33
353.999	99.33
354.21	128
354.422	48.13
354.633	1.02
354.845	52.22
355.057	125.95
355.268	13.31
355.48	125.95
355.692	-15.36
355.903	-35.84
356.115	-23.55
356.326	-1.02
356.538	138.24
356.749	66.56
356.961	125.95
357.172	41.98
357.384	-27.65
357.595	283.64
357.807	-19.46
358.018	-52.22
358.23	93.18
358.441	183.29
358.653	11.26
358.864	76.8
359.075	7.17
359.287	68.61
359.498	87.04
359.709	62.46
359.921	17.41
360.132	29.7
360.344	27.65
360.555	9.22
360.766	21.5
360.977	5.12
361.189	125.95
361.4	5.12
361.611	50.18
361.823	44.03
362.034	35.84
362.245	-52.22
362.456	87.04
362.667	62.46
362.879	48.13
363.09	46.08
363.301	105.47
363.512	48.13
363.723	15.36
363.935	15.36
364.146	105.47
364.357	54.27
364.568	60.42
364.779	-41.98
364.99	84.99
365.201	-1.02
365.412	101.37
365.623	-60.42
365.834	31.74
366.045	-11.26
366.256	35.84
366.467	158.72
366.678	-82.94
366.889	15.36
367.1	-64.51
367.311	93.18
367.522	39.94
367.733	113.66
367.944	74.75
368.155	-39.94
368.366	74.75
368.577	117.76
368.788	82.94
368.999	-91.13
369.209	218.11
369.42	191.49
369.631	181.25
369.842	115.71
370.053	21.5
370.264	66.56
370.474	-76.8
370.685	7.17
370.896	19.46
371.107	146.43
371.317	113.66
371.528	25.6
371.739	195.58
371.95	46.08
372.16	41.98
372.371	-103.42
372.582	35.84
372.792	60.42
373.003	9.22
373.214	37.89
373.424	56.32
373.635	-9.22
373.846	123.9
374.056	142.33
374.267	64.51
374.477	46.08
374.688	-23.55
374.898	48.13
375.109	70.65
375.319	72.7
375.53	125.95
375.74	97.28
375.951	31.74
376.161	128
376.372	109.57
376.582	31.74
376.793	17.41
377.003	-29.7
377.214	-62.46
377.424	119.81
377.635	82.94
377.845	-5.12
378.055	68.61
378.266	-39.94
378.476	21.5
378.686	66.56
378.897	56.32
379.107	64.51
379.317	44.03
379.528	21.5
379.738	128
379.948	-52.22
380.158	74.75
380.369	23.55
380.579	78.85
380.789	-15.36
380.999	58.37
381.21	87.04
381.42	117.76
381.63	-5.12
381.84	162.81
382.05	11.26
382.261	78.85
382.471	152.57
382.681	44.03
382.891	166.91
383.101	37.89
383.311	-82.94
383.521	54.27
383.731	78.85
383.941	171.01
384.151	70.65
384.361	-9.22
384.571	17.41
384.781	66.56
384.991	128
385.201	91.13
385.411	103.42
385.621	105.47
385.831	109.57
386.041	95.23
386.251	7.17
386.461	154.62
386.671	35.84
386.881	99.33
387.091	13.31
387.301	148.48
387.511	-17.41
387.72	48.13
387.93	101.37
388.14	-74.75
388.35	64.51
388.56	162.81
388.769	117.76
388.979	39.94
389.189	9.22
389.399	68.61
389.609	103.42
389.818	62.46
390.028	25.6
390.238	115.71
390.447	-11.26
390.657	5.12
390.867	-1.02
391.076	-23.55
391.286	5.12
391.496	-9.22
391.705	46.08
391.915	173.05
392.125	74.75
392.334	89.09
392.544	205.82
392.753	-1.02
392.963	-15.36
393.172	23.55
393.382	9.22
393.591	189.44
393.801	95.23
394.01	130.05
394.22	142.33
394.429	62.46
394.639	66.56
394.848	46.08
395.058	58.37
395.267	15.36
395.477	84.99
395.686	97.28
395.895	254.97
396.105	199.68
396.314	115.71
396.524	-7.17
396.733	64.51
396.942	66.56
397.152	33.79
397.361	103.42
397.57	50.18
397.78	46.08
397.989	78.85
398.198	226.3
398.407	37.89
398.617	25.6
398.826	62.46
399.035	9.22
399.244	134.14
399.453	19.46
399.663	19.46
399.872	15.36
400.081	-35.84
400.29	62.46
400.499	17.41
400.708	123.9
400.917	52.22
401.127	-41.98
401.336	3.07
401.545	185.34
401.754	54.27
401.963	76.8
402.172	19.46
402.381	-64.51
402.59	33.79
402.799	39.94
403.008	150.53
403.217	-23.55
403.426	74.75
403.635	-68.61
403.844	15.36
404.053	93.18
404.262	-9.22
404.471	250.88
404.68	56.32
404.888	-25.6
405.097	25.6
405.306	-15.36
405.515	119.81
405.724	11.26
405.933	74.75
406.142	119.81
406.35	76.8
406.559	-11.26
406.768	105.47
406.977	72.7
407.185	105.47
407.394	23.55
407.603	-27.65
407.812	111.61
408.02	103.42
408.229	66.56
408.438	109.57
408.646	17.41
408.855	-9.22
409.064	58.37
409.272	72.7
409.481	103.42
409.69	-62.46
409.898	-72.7
410.107	89.09
410.315	156.67
410.524	25.6
410.733	-50.18
410.941	101.37
411.15	70.65
411.358	138.24
411.567	191.49
411.775	68.61
411.984	41.98
412.192	158.72
412.401	19.46
412.609	193.53
412.818	70.65
413.026	74.75
413.234	46.08
413.443	11.26
413.651	-7.17
413.86	91.13
414.068	187.39
414.276	158.72
414.485	64.51
414.693	177.15
414.901	166.91
415.11	101.37
415.318	80.89
415.526	5.12
415.734	105.47
415.943	7.17
416.151	39.94
416.359	35.84
416.567	95.23
416.776	41.98
416.984	150.53
417.192	164.86
417.4	19.46
417.608	39.94
417.817	13.31
418.025	119.81
418.233	146.43
418.441	-56.32
418.649	17.41
418.857	64.51
419.065	107.52
419.273	-5.12
419.481	-15.36
419.689	-5.12
419.897	-44.03
420.105	-95.23
420.313	37.89
420.521	168.96
420.729	144.38
420.937	78.85
421.145	37.89
421.353	154.62
421.561	150.53
421.769	109.57
421.977	31.74
422.185	191.49
422.393	33.79
422.601	144.38
422.809	113.66
423.017	-1.02
423.224	74.75
423.432	168.96
423.64	87.04
423.848	115.71
424.056	-76.8
424.263	179.2
424.471	-1.02
424.679	95.23
424.887	27.65
425.094	160.77
425.302	84.99
425.51	-9.22
425.718	162.81
425.925	37.89
426.133	68.61
426.341	289.79
426.548	89.09
426.756	15.36
426.964	140.29
427.171	35.84
427.379	54.27
427.586	95.23
427.794	93.18
428.001	263.16
428.209	146.43
428.417	199.68
428.624	142.33
428.832	154.62
429.039	113.66
429.247	62.46
429.454	148.48
429.662	164.86
429.869	132.09
430.076	150.53
430.284	105.47
430.491	154.62
430.699	168.96
430.906	171.01
431.114	140.29
431.321	132.09
431.528	93.18
431.736	101.37
431.943	158.72
432.15	132.09
432.358	64.51
432.565	242.68
432.772	7.17
432.979	220.16
433.187	152.57
433.394	261.12
433.601	54.27
433.808	146.43
434.016	177.15
434.223	236.54
434.43	220.16
434.637	242.68
434.844	203.77
435.052	171.01
435.259	238.59
435.466	281.6
435.673	234.49
435.88	242.68
436.087	285.69
436.294	334.84
436.501	252.92
436.708	252.92
436.915	302.08
437.122	404.47
437.329	300.03
437.537	279.55
437.743	310.27
437.95	386.04
438.157	291.84
438.364	312.32
438.571	351.23
438.778	351.23
438.985	351.23
439.192	463.86
439.399	392.19
439.606	445.43
439.813	541.69
440.02	656.37
440.227	531.45
440.433	611.32
440.64	519.16
440.847	467.96
441.054	470.01
441.261	687.09
441.467	521.21
441.674	560.12
441.881	627.7
442.088	662.52
442.294	629.75
442.501	654.33
442.708	748.53
442.914	721.91
443.121	867.31
443.328	766.96
443.534	908.27
443.741	805.88
443.948	844.79
444.154	834.55
444.361	1072.11
444.568	945.14
444.774	1031.15
444.981	867.31
445.187	1168.37
445.394	1041.39
445.6	998.38
445.807	1283.05
446.013	1276.91
446.22	1135.6
446.426	1238
446.633	1508.33
446.839	1496.04
447.046	1385.45
447.252	1518.57
447.459	1450.99
447.665	1453.03
447.871	1723.37
448.078	1793
448.284	1725.41
448.491	1879.01
448.697	1926.11
448.903	2014.18
449.11	2012.13
449.316	1872.87
449.522	2104.29
449.728	2348
449.935	2311.13
450.141	2296.8
450.347	2642.9
450.553	2542.55
450.76	2487.26
450.966	2776.02
451.172	2808.79
451.378	2868.18
451.584	2976.72
451.791	3126.22
451.997	3167.18
452.203	3245.01
452.409	3527.63
452.615	3615.69
452.821	3511.24
453.027	3501
453.233	4047.81
453.44	3855.3
453.646	4107.2
453.852	4279.23
454.058	4373.44
454.264	4561.85
454.47	4735.93
454.676	4780.98
454.882	5202.86
455.088	5049.27
455.294	5223.34
455.5	5520.3
455.705	5882.79
455.911	6001.57
456.117	6089.64
456.323	6431.65
456.529	6292.38
456.735	6978.45
456.941	7220.11
457.147	7318.42
457.352	7558.03
457.558	7807.88
457.764	8299.39
457.97	8409.98
458.176	8862.58
458.381	9266.03
458.587	9417.58
458.793	9872.23
458.999	10154.85
459.204	11234.13
459.41	11469.65
459.616	11553.62
459.821	11959.11
460.027	12430.15
460.233	13087.54
460.438	13232.95
460.644	13939.5
460.85	14111.53
461.055	14687.01
461.261	15487.76
461.466	14891.8
461.672	15328.02
461.878	16886.53
462.083	16935.68
462.289	17277.69
462.494	17867.5
462.7	18211.56
462.905	18455.27
463.111	19682
463.316	21125.82
463.522	21048
463.727	21590.71
463.932	22471.34
464.138	23435.93
464.343	24642.18
464.549	24488.59
464.754	26376.81
464.959	26944.1
465.165	27261.54
465.37	27343.45
465.575	27234.91
465.781	29299.26
465.986	30030.39
466.191	29663.8
466.397	29874.74
466.602	29303.36
466.807	30859.82
467.012	31408.67
467.218	31935
467.423	31803.93
467.628	32877.07
467.833	34765.29
468.038	33708.54
468.244	33198.6
468.449	35039.72
468.654	34116.09
468.859	34163.19
469.064	34544.11
