Data from USB4F104151__48__12-23-57-515.txt Node

Date: Fri Mar 14 12:23:57 EDT 2025
User: louis
Spectrometer: USB4F10415
Trigger mode: 4
Integration Time (sec): 3.500000E-2
Scans to average: 1
Electric dark correction enabled: true
Nonlinearity correction enabled: false
Boxcar width: 0
XAxis mode: Wavelengths
Number of Pixels in Spectrum: 3648
>>>>>Begin Spectral Data<<<<<
178.204	-184.66
178.424	-184.66
178.644	-184.66
178.864	-178.51
179.084	-139.6
179.304	-2.39
179.524	-0.34
179.744	-4.44
179.964	18.09
180.184	40.62
180.404	-20.82
180.624	-80.21
180.844	26.28
181.064	20.14
181.283	32.43
181.503	-43.35
181.723	13.99
181.943	-39.25
182.163	57
182.383	-12.63
182.602	-16.73
182.822	61.1
183.042	38.57
183.262	-22.87
183.482	57
183.701	-22.87
183.921	-41.3
184.141	11.95
184.361	61.1
184.58	52.91
184.8	54.95
185.02	-10.58
185.239	112.3
185.459	-29.01
185.679	20.14
185.898	-55.64
186.118	28.33
186.338	28.33
186.557	65.19
186.777	36.52
186.997	18.09
187.216	-39.25
187.436	18.09
187.655	65.19
187.875	11.95
188.095	63.15
188.314	67.24
188.534	46.76
188.753	73.39
188.973	11.95
189.192	75.43
189.412	116.39
189.631	-8.53
189.851	40.62
190.07	28.33
190.29	-29.01
190.509	52.91
190.729	34.47
190.948	71.34
191.168	97.96
191.387	73.39
191.607	-43.35
191.826	85.67
192.045	57
192.265	28.33
192.484	95.91
192.704	-14.68
192.923	16.04
193.142	75.43
193.362	102.06
193.581	81.58
193.8	28.33
194.02	112.3
194.239	28.33
194.458	81.58
194.678	44.71
194.897	85.67
195.116	-6.49
195.335	7.85
195.555	69.29
195.774	-14.68
195.993	54.95
196.212	-0.34
196.432	-39.25
196.651	48.81
196.87	7.85
197.089	48.81
197.308	42.67
197.528	52.91
197.747	-16.73
197.966	59.05
198.185	32.43
198.404	28.33
198.623	22.19
198.842	69.29
199.062	67.24
199.281	65.19
199.5	1.71
199.719	65.19
199.938	44.71
200.157	73.39
200.376	85.67
200.595	87.72
200.814	54.95
201.033	18.09
201.252	38.57
201.471	87.72
201.69	54.95
201.909	-4.44
202.128	100.01
202.347	-41.3
202.566	44.71
202.785	-39.25
203.004	24.23
203.223	106.15
203.442	-4.44
203.661	16.04
203.879	38.57
204.098	40.62
204.317	7.85
204.536	87.72
204.755	42.67
204.974	-55.64
205.193	-26.96
205.411	118.44
205.63	112.3
205.849	50.86
206.068	116.39
206.287	1.71
206.505	-2.39
206.724	18.09
206.943	57
207.162	13.99
207.381	91.82
207.599	20.14
207.818	30.38
208.037	-6.49
208.255	24.23
208.474	34.47
208.693	52.91
208.911	50.86
209.13	26.28
209.349	30.38
209.567	48.81
209.786	36.52
210.005	108.2
210.223	73.39
210.442	36.52
210.661	57
210.879	16.04
211.098	40.62
211.316	52.91
211.535	3.75
211.753	34.47
211.972	30.38
212.191	28.33
212.409	50.86
212.628	71.34
212.846	-29.01
213.065	81.58
213.283	-0.34
213.502	-12.63
213.72	122.54
213.938	40.62
214.157	16.04
214.375	38.57
214.594	59.05
214.812	28.33
215.031	-12.63
215.249	9.9
215.467	102.06
215.686	-2.39
215.904	30.38
216.122	-22.87
216.341	61.1
216.559	110.25
216.778	9.9
216.996	61.1
217.214	32.43
217.432	40.62
217.651	87.72
217.869	54.95
218.087	40.62
218.306	-14.68
218.524	87.72
218.742	81.58
218.96	-10.58
219.179	24.23
219.397	7.85
219.615	91.82
219.833	28.33
220.051	48.81
220.27	108.2
220.488	75.43
220.706	24.23
220.924	22.19
221.142	3.75
221.36	30.38
221.578	57
221.796	-22.87
222.015	28.33
222.233	16.04
222.451	-4.44
222.669	18.09
222.887	20.14
223.105	9.9
223.323	5.8
223.541	28.33
223.759	9.9
223.977	40.62
224.195	100.01
224.413	26.28
224.631	50.86
224.849	110.25
225.067	40.62
225.285	11.95
225.503	81.58
225.721	13.99
225.939	85.67
226.157	85.67
226.375	145.06
226.592	-18.77
226.81	77.48
227.028	69.29
227.246	26.28
227.464	13.99
227.682	52.91
227.9	30.38
228.117	71.34
228.335	102.06
228.553	-45.4
228.771	44.71
228.989	59.05
229.206	44.71
229.424	-24.92
229.642	16.04
229.86	95.91
230.077	44.71
230.295	9.9
230.513	38.57
230.731	26.28
230.948	1.71
231.166	81.58
231.384	-6.49
231.601	100.01
231.819	46.76
232.037	36.52
232.254	46.76
232.472	65.19
232.689	-125.27
232.907	18.09
233.125	-20.82
233.342	-33.11
233.56	18.09
233.777	-12.63
233.995	30.38
234.213	69.29
234.43	65.19
234.648	-24.92
234.865	-0.34
235.083	13.99
235.3	40.62
235.518	3.75
235.735	116.39
235.953	1.71
236.17	81.58
236.388	28.33
236.605	48.81
236.822	65.19
237.04	85.67
237.257	81.58
237.475	11.95
237.692	-49.49
237.909	5.8
238.127	22.19
238.344	11.95
238.562	7.85
238.779	104.11
238.996	50.86
239.214	18.09
239.431	26.28
239.648	-2.39
239.865	11.95
240.083	22.19
240.3	79.53
240.517	42.67
240.735	-2.39
240.952	34.47
241.169	73.39
241.386	32.43
241.603	-45.4
241.821	40.62
242.038	13.99
242.255	50.86
242.472	61.1
242.689	44.71
242.907	36.52
243.124	106.15
243.341	77.48
243.558	-10.58
243.775	13.99
243.992	57
244.209	38.57
244.426	79.53
244.643	77.48
244.86	34.47
245.078	91.82
245.295	57
245.512	83.63
245.729	9.9
245.946	36.52
246.163	87.72
246.38	-4.44
246.597	9.9
246.814	36.52
247.031	24.23
247.248	-18.77
247.464	38.57
247.681	30.38
247.898	118.44
248.115	93.87
248.332	-0.34
248.549	138.92
248.766	104.11
248.983	100.01
249.2	18.09
249.417	108.2
249.633	1.71
249.85	114.34
250.067	32.43
250.284	69.29
250.501	57
250.717	71.34
250.934	20.14
251.151	13.99
251.368	3.75
251.585	69.29
251.801	22.19
252.018	-20.82
252.235	108.2
252.451	-41.3
252.668	-10.58
252.885	67.24
253.102	-8.53
253.318	7.85
253.535	34.47
253.752	22.19
253.968	28.33
254.185	-0.34
254.401	-4.44
254.618	71.34
254.835	65.19
255.051	65.19
255.268	38.57
255.484	61.1
255.701	91.82
255.917	52.91
256.134	-29.01
256.351	-4.44
256.567	-24.92
256.784	36.52
257	38.57
257.217	118.44
257.433	-6.49
257.65	87.72
257.866	46.76
258.082	52.91
258.299	24.23
258.515	13.99
258.732	-14.68
258.948	79.53
259.165	13.99
259.381	44.71
259.597	-0.34
259.814	44.71
260.03	-0.34
260.246	20.14
260.463	26.28
260.679	95.91
260.895	18.09
261.112	28.33
261.328	-10.58
261.544	34.47
261.761	100.01
261.977	26.28
262.193	9.9
262.409	73.39
262.626	-20.82
262.842	32.43
263.058	-26.96
263.274	13.99
263.49	67.24
263.707	54.95
263.923	106.15
264.139	9.9
264.355	18.09
264.571	108.2
264.787	71.34
265.004	20.14
265.22	65.19
265.436	11.95
265.652	11.95
265.868	89.77
266.084	5.8
266.3	36.52
266.516	-20.82
266.732	65.19
266.948	40.62
267.164	108.2
267.38	73.39
267.596	26.28
267.812	145.06
268.028	93.87
268.244	-24.92
268.46	-31.06
268.676	42.67
268.892	130.73
269.108	28.33
269.324	22.19
269.54	1.71
269.756	104.11
269.972	42.67
270.188	71.34
270.403	-14.68
270.619	26.28
270.835	32.43
271.051	30.38
271.267	30.38
271.483	40.62
271.698	34.47
271.914	-22.87
272.13	63.15
272.346	79.53
272.562	67.24
272.777	48.81
272.993	54.95
273.209	18.09
273.425	-2.39
273.64	26.28
273.856	77.48
274.072	36.52
274.287	59.05
274.503	50.86
274.719	67.24
274.934	42.67
275.15	28.33
275.366	61.1
275.581	-14.68
275.797	59.05
276.012	42.67
276.228	13.99
276.444	-10.58
276.659	91.82
276.875	-6.49
277.09	67.24
277.306	91.82
277.521	100.01
277.737	32.43
277.952	32.43
278.168	114.34
278.383	-10.58
278.599	57
278.814	22.19
279.03	7.85
279.245	128.68
279.461	-4.44
279.676	149.16
279.892	5.8
280.107	102.06
280.322	-6.49
280.538	65.19
280.753	22.19
280.969	100.01
281.184	24.23
281.399	46.76
281.615	79.53
281.83	26.28
282.045	5.8
282.26	-37.2
282.476	9.9
282.691	28.33
282.906	11.95
283.122	67.24
283.337	-39.25
283.552	61.1
283.767	20.14
283.983	120.49
284.198	9.9
284.413	75.43
284.628	20.14
284.843	71.34
285.058	46.76
285.274	22.19
285.489	69.29
285.704	97.96
285.919	-51.54
286.134	97.96
286.349	63.15
286.564	7.85
286.779	75.43
286.995	61.1
287.21	44.71
287.425	89.77
287.64	20.14
287.855	-37.2
288.07	-29.01
288.285	169.64
288.5	104.11
288.715	16.04
288.93	-18.77
289.145	9.9
289.36	-12.63
289.575	32.43
289.79	95.91
290.004	9.9
290.219	50.86
290.434	48.81
290.649	48.81
290.864	-8.53
291.079	30.38
291.294	71.34
291.509	11.95
291.724	26.28
291.938	-4.44
292.153	3.75
292.368	36.52
292.583	54.95
292.798	130.73
293.012	73.39
293.227	40.62
293.442	-31.06
293.657	11.95
293.871	61.1
294.086	42.67
294.301	69.29
294.516	67.24
294.73	-6.49
294.945	-14.68
295.16	116.39
295.374	100.01
295.589	108.2
295.804	83.63
296.018	132.78
296.233	104.11
296.447	77.48
296.662	-20.82
296.877	73.39
297.091	65.19
297.306	52.91
297.52	-12.63
297.735	13.99
297.949	30.38
298.164	79.53
298.378	26.28
298.593	3.75
298.807	22.19
299.022	38.57
299.236	147.11
299.451	73.39
299.665	-2.39
299.88	38.57
300.094	57
300.309	32.43
300.523	18.09
300.737	77.48
300.952	44.71
301.166	44.71
301.381	-31.06
301.595	42.67
301.809	5.8
302.024	28.33
302.238	-31.06
302.452	22.19
302.667	-4.44
302.881	145.06
303.095	73.39
303.309	95.91
303.524	28.33
303.738	-37.2
303.952	24.23
304.166	46.76
304.381	57
304.595	83.63
304.809	32.43
305.023	30.38
305.237	7.85
305.452	67.24
305.666	32.43
305.88	73.39
306.094	89.77
306.308	67.24
306.522	69.29
306.736	57
306.95	54.95
307.164	-16.73
307.379	-12.63
307.593	77.48
307.807	-10.58
308.021	40.62
308.235	77.48
308.449	-2.39
308.663	-49.49
308.877	93.87
309.091	65.19
309.305	-2.39
309.519	-43.35
309.733	36.52
309.947	52.91
310.161	1.71
310.374	97.96
310.588	79.53
310.802	-18.77
311.016	59.05
311.23	36.52
311.444	132.78
311.658	67.24
311.872	71.34
312.085	108.2
312.299	18.09
312.513	44.71
312.727	59.05
312.941	1.71
313.154	-37.2
313.368	110.25
313.582	89.77
313.796	85.67
314.009	26.28
314.223	61.1
314.437	57
314.651	11.95
314.864	32.43
315.078	77.48
315.292	22.19
315.505	30.38
315.719	28.33
315.933	40.62
316.146	93.87
316.36	-8.53
316.573	69.29
316.787	83.63
317.001	63.15
317.214	11.95
317.428	18.09
317.641	36.52
317.855	-12.63
318.068	93.87
318.282	77.48
318.495	42.67
318.709	50.86
318.922	-8.53
319.136	114.34
319.349	83.63
319.563	97.96
319.776	128.68
319.99	-43.35
320.203	81.58
320.417	-24.92
320.63	73.39
320.843	71.34
321.057	5.8
321.27	38.57
321.483	102.06
321.697	130.73
321.91	-37.2
322.124	95.91
322.337	83.63
322.55	54.95
322.763	28.33
322.977	85.67
323.19	-20.82
323.403	-6.49
323.617	91.82
323.83	42.67
324.043	28.33
324.256	34.47
324.469	38.57
324.683	87.72
324.896	48.81
325.109	81.58
325.322	-10.58
325.535	81.58
325.748	65.19
325.962	73.39
326.175	165.54
326.388	32.43
326.601	81.58
326.814	36.52
327.027	85.67
327.24	122.54
327.453	-55.64
327.666	87.72
327.879	65.19
328.092	44.71
328.305	32.43
328.518	79.53
328.731	9.9
328.944	134.82
329.157	22.19
329.37	5.8
329.583	65.19
329.796	24.23
330.009	1.71
330.222	71.34
330.435	38.57
330.648	63.15
330.861	132.78
331.073	54.95
331.286	5.8
331.499	75.43
331.712	18.09
331.925	89.77
332.138	75.43
332.35	1.71
332.563	11.95
332.776	28.33
332.989	24.23
333.202	61.1
333.414	26.28
333.627	69.29
333.84	30.38
334.053	38.57
334.265	79.53
334.478	69.29
334.691	32.43
334.903	20.14
335.116	26.28
335.329	16.04
335.541	186.02
335.754	30.38
335.966	50.86
336.179	13.99
336.392	34.47
336.604	71.34
336.817	65.19
337.029	122.54
337.242	11.95
337.454	77.48
337.667	9.9
337.88	63.15
338.092	83.63
338.305	75.43
338.517	9.9
338.729	54.95
338.942	48.81
339.154	-20.82
339.367	-14.68
339.579	9.9
339.792	-24.92
340.004	63.15
340.217	95.91
340.429	71.34
340.641	38.57
340.854	32.43
341.066	20.14
341.278	106.15
341.491	63.15
341.703	26.28
341.915	22.19
342.128	102.06
342.34	63.15
342.552	50.86
342.764	-26.96
342.977	13.99
343.189	42.67
343.401	79.53
343.613	-47.44
343.826	26.28
344.038	16.04
344.25	59.05
344.462	34.47
344.674	34.47
344.886	69.29
345.099	32.43
345.311	73.39
345.523	91.82
345.735	24.23
345.947	34.47
346.159	63.15
346.371	40.62
346.583	48.81
346.795	104.11
347.007	-2.39
347.219	63.15
347.431	26.28
347.643	83.63
347.855	3.75
348.067	104.11
348.279	-12.63
348.491	16.04
348.703	73.39
348.915	26.28
349.127	-10.58
349.339	59.05
349.551	89.77
349.763	100.01
349.975	54.95
350.187	40.62
350.399	71.34
350.61	71.34
350.822	-31.06
351.034	22.19
351.246	28.33
351.458	20.14
351.669	48.81
351.881	89.77
352.093	71.34
352.305	114.34
352.517	102.06
352.728	128.68
352.94	36.52
353.152	61.1
353.363	22.19
353.575	83.63
353.787	171.69
353.999	73.39
354.21	69.29
354.422	7.85
354.633	79.53
354.845	87.72
355.057	81.58
355.268	34.47
355.48	118.44
355.692	112.3
355.903	61.1
356.115	36.52
356.326	32.43
356.538	108.2
356.749	97.96
356.961	116.39
357.172	42.67
357.384	-35.16
357.595	196.26
357.807	-2.39
358.018	-18.77
358.23	89.77
358.441	106.15
358.653	83.63
358.864	118.44
359.075	48.81
359.287	30.38
359.498	151.21
359.709	-14.68
359.921	95.91
360.132	38.57
360.344	73.39
360.555	38.57
360.766	100.01
360.977	97.96
361.189	122.54
361.4	44.71
361.611	73.39
361.823	32.43
362.034	9.9
362.245	-2.39
362.456	57
362.667	63.15
362.879	73.39
363.09	57
363.301	110.25
363.512	16.04
363.723	16.04
363.935	22.19
364.146	34.47
364.357	30.38
364.568	44.71
364.779	61.1
364.99	149.16
365.201	34.47
365.412	87.72
365.623	5.8
365.834	83.63
366.045	89.77
366.256	59.05
366.467	71.34
366.678	63.15
366.889	85.67
367.1	34.47
367.311	30.38
367.522	59.05
367.733	153.26
367.944	93.87
368.155	30.38
368.366	69.29
368.577	100.01
368.788	63.15
368.999	61.1
369.209	11.95
369.42	108.2
369.631	179.88
369.842	120.49
370.053	38.57
370.264	24.23
370.474	63.15
370.685	122.54
370.896	63.15
371.107	204.46
371.317	48.81
371.528	48.81
371.739	42.67
371.95	24.23
372.16	104.11
372.371	40.62
372.582	91.82
372.792	65.19
373.003	106.15
373.214	73.39
373.424	42.67
373.635	102.06
373.846	97.96
374.056	9.9
374.267	26.28
374.477	75.43
374.688	-22.87
374.898	42.67
375.109	85.67
375.319	48.81
375.53	81.58
375.74	44.71
375.951	30.38
376.161	46.76
376.372	85.67
376.582	54.95
376.793	136.87
377.003	48.81
377.214	7.85
377.424	63.15
377.635	42.67
377.845	104.11
378.055	122.54
378.266	65.19
378.476	26.28
378.686	38.57
378.897	50.86
379.107	126.63
379.317	132.78
379.528	50.86
379.738	89.77
379.948	38.57
380.158	118.44
380.369	114.34
380.579	18.09
380.789	7.85
380.999	50.86
381.21	163.5
381.42	63.15
381.63	134.82
381.84	71.34
382.05	71.34
382.261	114.34
382.471	97.96
382.681	48.81
382.891	79.53
383.101	77.48
383.311	-59.73
383.521	73.39
383.731	28.33
383.941	126.63
384.151	44.71
384.361	50.86
384.571	59.05
384.781	89.77
384.991	169.64
385.201	102.06
385.411	61.1
385.621	57
385.831	59.05
386.041	63.15
386.251	26.28
386.461	122.54
386.671	112.3
386.881	95.91
387.091	20.14
387.301	65.19
387.511	102.06
387.72	59.05
387.93	116.39
388.14	63.15
388.35	79.53
388.56	108.2
388.769	116.39
388.979	61.1
389.189	34.47
389.399	118.44
389.609	91.82
389.818	126.63
390.028	54.95
390.238	169.64
390.447	61.1
390.657	95.91
390.867	87.72
391.076	48.81
391.286	106.15
391.496	122.54
391.705	22.19
391.915	112.3
392.125	153.26
392.334	20.14
392.544	120.49
392.753	85.67
392.963	-16.73
393.172	36.52
393.382	24.23
393.591	143.02
393.801	134.82
394.01	130.73
394.22	71.34
394.429	1.71
394.639	102.06
394.848	132.78
395.058	97.96
395.267	97.96
395.477	102.06
395.686	75.43
395.895	179.88
396.105	136.87
396.314	95.91
396.524	106.15
396.733	134.82
396.942	138.92
397.152	136.87
397.361	75.43
397.57	149.16
397.78	110.25
397.989	163.5
398.198	220.84
398.407	112.3
398.617	81.58
398.826	95.91
399.035	138.92
399.244	44.71
399.453	132.78
399.663	153.26
399.872	190.12
400.081	97.96
400.29	102.06
400.499	95.91
400.708	175.78
400.917	198.31
401.127	163.5
401.336	69.29
401.545	235.18
401.754	132.78
401.963	79.53
402.172	116.39
402.381	120.49
402.59	177.83
402.799	169.64
403.008	190.12
403.217	147.11
403.426	224.94
403.635	104.11
403.844	165.54
404.053	140.97
404.262	222.89
404.471	231.08
404.68	151.21
404.888	155.3
405.097	190.12
405.306	134.82
405.515	284.33
405.724	208.55
405.933	190.12
406.142	190.12
406.35	179.88
406.559	243.37
406.768	169.64
406.977	204.46
407.185	284.33
407.394	218.79
407.603	188.07
407.812	167.59
408.02	280.23
408.229	245.41
408.438	286.37
408.646	337.57
408.855	315.05
409.064	325.29
409.272	276.13
409.481	276.13
409.69	415.4
409.898	249.51
410.107	431.78
410.315	419.49
410.524	341.67
410.733	366.25
410.941	454.31
411.15	411.3
411.358	421.54
411.567	462.5
411.775	519.84
411.984	462.5
412.192	495.27
412.401	632.48
412.609	532.13
412.818	566.95
413.026	667.3
413.234	530.08
413.443	689.82
413.651	630.43
413.86	708.26
414.068	747.17
414.276	747.17
414.485	718.5
414.693	790.17
414.901	988.83
415.11	853.66
415.318	841.37
415.526	868
415.734	958.11
415.943	1033.88
416.151	1017.5
416.359	958.11
416.567	1011.36
416.776	1097.37
416.984	1238.68
417.192	1220.25
417.4	1316.5
417.608	1212.06
417.817	1224.34
418.025	1373.85
418.233	1394.33
418.441	1336.98
418.649	1513.11
418.857	1623.7
419.065	1742.48
419.273	1730.19
419.481	1693.33
419.689	1754.77
419.897	1808.02
420.105	1932.94
420.313	1894.03
420.521	2031.24
420.729	2006.67
420.937	2115.21
421.145	2166.41
421.353	2258.57
421.561	2350.73
421.769	2356.87
421.977	2489.99
422.185	2563.72
422.393	2737.79
422.601	2858.62
422.809	2938.49
423.017	2913.92
423.224	3065.47
423.432	3176.06
423.64	3139.19
423.848	3542.64
424.056	3264.12
424.263	3606.13
424.471	3597.94
424.679	3681.91
424.887	3946.09
425.094	3901.04
425.302	3982.96
425.51	4195.95
425.718	4286.06
425.925	4329.06
426.133	4460.13
426.341	4746.85
426.548	4916.83
426.756	4949.6
426.964	5023.33
427.171	5197.4
427.379	5480.02
427.586	5475.93
427.794	5607
428.001	5973.58
428.209	6194.76
428.417	6372.94
428.624	6485.58
428.832	6710.85
429.039	6452.81
429.247	6608.45
429.454	7169.6
429.662	7710.26
429.869	7116.35
430.076	7446.07
430.284	7323.19
430.491	7775.8
430.699	8142.38
430.906	8279.6
431.114	8220.21
431.321	8650.28
431.528	8769.06
431.736	9291.29
431.943	9678.36
432.15	9373.21
432.358	9510.43
432.565	10307.09
432.772	10153.49
432.979	10655.24
433.187	10802.69
433.394	10745.35
433.601	11415.04
433.808	11546.11
434.016	11503.1
434.223	11894.26
434.43	12570.09
434.637	12666.35
434.844	13315.55
435.052	13563.36
435.259	13336.03
435.466	13878.74
435.673	13635.03
435.88	14347.73
436.087	15070.66
436.294	15300.03
436.501	14800.33
436.708	15107.52
436.915	15709.63
437.122	16410.03
437.329	16227.76
437.537	16922.02
437.743	17110.44
437.95	16905.64
438.157	17948.06
438.364	18535.82
438.571	18458
438.778	18517.39
438.985	20145.53
439.192	19127.69
439.399	20082.04
439.606	19582.34
439.813	20968.81
440.02	21910.88
440.227	21673.31
440.433	21538.15
440.64	22152.54
440.847	21869.92
441.054	22627.67
441.261	24157.5
441.467	23964.99
441.674	24130.87
441.881	25064.75
442.088	25275.69
442.294	25003.31
442.501	25265.45
442.708	25849.12
442.914	26914.06
443.121	28177.66
443.328	27616.52
443.534	29177.07
443.741	28566.77
443.948	28312.83
444.154	30129.37
444.361	30170.33
444.568	30209.25
444.774	30330.08
444.981	30940.37
445.187	31614.15
445.394	32928.95
445.6	32019.65
445.807	35669.13
446.013	33920.17
446.22	34880.66
446.426	35978.37
446.633	36297.86
446.839	37602.41
447.046	35859.59
447.252	38059.11
447.459	37772.39
447.665	38036.58
447.871	39717.96
448.078	41350.2
448.284	39171.16
448.491	40139.85
448.697	41833.52
448.903	42171.43
449.11	42818.59
449.316	41583.66
449.522	42664.99
449.728	43895.82
449.935	44133.39
450.141	44581.89
450.347	44641.28
450.553	43834.38
450.76	44381.19
450.966	46021.61
451.172	45222.9
451.378	46242.79
451.584	45515.76
451.791	46185.45
451.997	45925.36
452.203	46969.82
452.409	46894.05
452.615	47084.51
452.821	44905.47
453.027	44819.45
453.233	47254.49
453.44	45622.26
453.646	45708.27
453.852	46015.47
454.058	46603.24
454.264	45091.83
454.47	46400.49
454.676	44506.12
454.882	46031.85
455.088	42460.19
455.294	43050.01
455.5	43691.02
455.705	44434.44
455.911	41983.02
456.117	41526.32
456.323	41004.09
456.529	38749.28
456.735	40506.43
456.941	39416.91
457.147	38964.31
457.352	37727.34
457.558	36983.93
457.764	37547.12
457.97	36648.06
458.176	35687.56
458.381	35687.56
458.587	33813.67
458.793	33883.3
458.999	32019.65
459.204	34673.82
459.41	33320.11
459.616	31468.75
459.821	31333.58
460.027	31345.87
460.233	30602.46
460.438	28953.84
460.644	29365.48
460.85	27970.82
461.055	27823.36
461.261	27825.41
461.466	25699.62
461.672	24972.59
461.878	26717.46
462.083	24769.84
462.289	23958.85
462.494	24309.05
462.7	22799.69
462.905	22203.74
463.111	23035.21
463.316	23252.3
463.522	22623.57
463.727	22635.86
463.932	22705.49
464.138	22545.75
464.343	22414.68
464.549	21947.74
464.754	22654.29
464.959	22541.65
465.165	22191.45
465.37	21079.4
465.575	20938.09
465.781	21579.11
465.986	21589.35
466.191	21146.98
466.397	20493.68
466.602	19737.98
466.807	20282.74
467.012	20180.34
