Data from USB4F104151__20__12-23-31-862.txt Node

Date: Fri Mar 14 12:23:31 EDT 2025
User: louis
Spectrometer: USB4F10415
Trigger mode: 4
Integration Time (sec): 3.500000E-2
Scans to average: 1
Electric dark correction enabled: true
Nonlinearity correction enabled: false
Boxcar width: 0
XAxis mode: Wavelengths
Number of Pixels in Spectrum: 3648
>>>>>Begin Spectral Data<<<<<
178.204	-200.36
178.424	-200.36
178.644	-200.36
178.864	-202.41
179.084	-175.78
179.304	33.11
179.524	-9.9
179.744	41.3
179.964	4.44
180.184	-85.67
180.404	10.58
180.624	61.78
180.844	20.82
181.064	-48.81
181.283	-24.23
181.503	-42.67
181.723	39.25
181.943	-32.43
182.163	22.87
182.383	-34.47
182.602	-26.28
182.822	55.64
183.042	-50.86
183.262	-38.57
183.482	18.77
183.701	22.87
183.921	59.73
184.141	-13.99
184.361	139.6
184.58	-13.99
184.8	29.01
185.02	-3.75
185.239	94.55
185.459	-59.05
185.679	82.26
185.898	-22.19
186.118	-20.14
186.338	22.87
186.557	61.78
186.777	-22.19
186.997	-28.33
187.216	-57
187.436	8.53
187.655	-11.95
187.875	90.45
188.095	0.34
188.314	29.01
188.534	63.83
188.753	-48.81
188.973	51.54
189.192	53.59
189.412	-11.95
189.631	47.44
189.851	18.77
190.07	-32.43
190.29	-7.85
190.509	53.59
190.729	57.68
190.948	4.44
191.168	78.16
191.387	65.88
191.607	-5.8
191.826	-9.9
192.045	16.73
192.265	-13.99
192.484	59.73
192.704	26.96
192.923	-30.38
193.142	35.16
193.362	22.87
193.581	57.68
193.8	69.97
194.02	16.73
194.239	31.06
194.458	0.34
194.678	-44.71
194.897	22.87
195.116	49.49
195.335	92.5
195.555	29.01
195.774	-22.19
195.993	61.78
196.212	-16.04
196.432	-1.71
196.651	-30.38
196.87	82.26
197.089	162.13
197.308	51.54
197.528	43.35
197.747	-30.38
197.966	35.16
198.185	51.54
198.404	-11.95
198.623	10.58
198.842	-9.9
199.062	20.82
199.281	102.74
199.5	57.68
199.719	-11.95
199.938	80.21
200.157	22.87
200.376	41.3
200.595	110.93
200.814	-9.9
201.033	6.49
201.252	84.31
201.471	90.45
201.69	96.6
201.909	35.16
202.128	-20.14
202.347	41.3
202.566	-22.19
202.785	18.77
203.004	-36.52
203.223	51.54
203.442	39.25
203.661	69.97
203.879	20.82
204.098	47.44
204.317	-50.86
204.536	53.59
204.755	0.34
204.974	29.01
205.193	37.2
205.411	106.84
205.63	-79.53
205.849	59.73
206.068	-38.57
206.287	12.63
206.505	104.79
206.724	20.82
206.943	16.73
207.162	-73.39
207.381	69.97
207.599	4.44
207.818	84.31
208.037	-1.71
208.255	-20.14
208.474	16.73
208.693	67.92
208.911	20.82
209.13	37.2
209.349	-13.99
209.567	14.68
209.786	90.45
210.005	33.11
210.223	41.3
210.442	-24.23
210.661	45.4
210.879	-16.04
211.098	53.59
211.316	108.88
211.535	6.49
211.753	8.53
211.972	80.21
212.191	-24.23
212.409	20.82
212.628	33.11
212.846	20.82
213.065	67.92
213.283	47.44
213.502	-50.86
213.72	8.53
213.938	-50.86
214.157	-46.76
214.375	22.87
214.594	0.34
214.812	-61.1
215.031	49.49
215.249	51.54
215.467	-18.09
215.686	16.73
215.904	117.08
216.122	-13.99
216.341	37.2
216.559	16.73
216.778	35.16
216.996	0.34
217.214	55.64
217.432	-7.85
217.651	-77.48
217.869	22.87
218.087	-7.85
218.306	26.96
218.524	53.59
218.742	12.63
218.96	29.01
219.179	-18.09
219.397	-65.19
219.615	74.07
219.833	18.77
220.051	-63.15
220.27	55.64
220.488	53.59
220.706	26.96
220.924	86.36
221.142	-26.28
221.36	59.73
221.578	-34.47
221.796	24.92
222.015	12.63
222.233	49.49
222.451	72.02
222.669	26.96
222.887	41.3
223.105	-5.8
223.323	94.55
223.541	-30.38
223.759	53.59
223.977	14.68
224.195	39.25
224.413	4.44
224.631	8.53
224.849	26.96
225.067	61.78
225.285	-13.99
225.503	-26.28
225.721	-16.04
225.939	-32.43
226.157	16.73
226.375	63.83
226.592	16.73
226.81	53.59
227.028	63.83
227.246	92.5
227.464	-32.43
227.682	26.96
227.9	-22.19
228.117	-34.47
228.335	29.01
228.553	-13.99
228.771	-7.85
228.989	39.25
229.206	-26.28
229.424	-11.95
229.642	18.77
229.86	14.68
230.077	18.77
230.295	-26.28
230.513	-7.85
230.731	112.98
230.948	96.6
231.166	80.21
231.384	-30.38
231.601	20.82
231.819	96.6
232.037	22.87
232.254	-7.85
232.472	61.78
232.689	-59.05
232.907	57.68
233.125	-63.15
233.342	-77.48
233.56	-85.67
233.777	6.49
233.995	-16.04
234.213	20.82
234.43	31.06
234.648	47.44
234.865	41.3
235.083	119.12
235.3	-9.9
235.518	47.44
235.735	47.44
235.953	2.39
236.17	-54.95
236.388	59.73
236.605	-57
236.822	94.55
237.04	74.07
237.257	49.49
237.475	12.63
237.692	55.64
237.909	47.44
238.127	-9.9
238.344	94.55
238.562	78.16
238.779	51.54
238.996	-46.76
239.214	12.63
239.431	8.53
239.648	-7.85
239.865	106.84
240.083	29.01
240.3	65.88
240.517	-34.47
240.735	10.58
240.952	37.2
241.169	110.93
241.386	55.64
241.603	59.73
241.821	-67.24
242.038	20.82
242.255	63.83
242.472	-36.52
242.689	69.97
242.907	37.2
243.124	6.49
243.341	29.01
243.558	-65.19
243.775	55.64
243.992	8.53
244.209	74.07
244.426	112.98
244.643	-13.99
244.86	65.88
245.078	37.2
245.295	-16.04
245.512	-32.43
245.729	8.53
245.946	18.77
246.163	53.59
246.38	51.54
246.597	41.3
246.814	0.34
247.031	-16.04
247.248	43.35
247.464	29.01
247.681	14.68
247.898	63.83
248.115	-3.75
248.332	47.44
248.549	76.12
248.766	78.16
248.983	14.68
249.2	82.26
249.417	102.74
249.633	49.49
249.85	43.35
250.067	6.49
250.284	16.73
250.501	45.4
250.717	88.4
250.934	49.49
251.151	14.68
251.368	18.77
251.585	-7.85
251.801	-13.99
252.018	8.53
252.235	31.06
252.451	-42.67
252.668	10.58
252.885	14.68
253.102	104.79
253.318	14.68
253.535	-20.14
253.752	4.44
253.968	84.31
254.185	14.68
254.401	-5.8
254.618	51.54
254.835	-50.86
255.051	51.54
255.268	47.44
255.484	6.49
255.701	2.39
255.917	96.6
256.134	-71.34
256.351	24.92
256.567	-40.62
256.784	6.49
257	-26.28
257.217	63.83
257.433	-16.04
257.65	41.3
257.866	92.5
258.082	-93.87
258.299	6.49
258.515	-63.15
258.732	33.11
258.948	-63.15
259.165	51.54
259.381	31.06
259.597	39.25
259.814	-40.62
260.03	24.92
260.246	55.64
260.463	-42.67
260.679	51.54
260.895	-36.52
261.112	43.35
261.328	-7.85
261.544	-26.28
261.761	69.97
261.977	35.16
262.193	45.4
262.409	51.54
262.626	53.59
262.842	-11.95
263.058	14.68
263.274	24.92
263.49	8.53
263.707	49.49
263.923	-13.99
264.139	31.06
264.355	59.73
264.571	72.02
264.787	31.06
265.004	2.39
265.22	53.59
265.436	33.11
265.652	35.16
265.868	37.2
266.084	16.73
266.3	61.78
266.516	-24.23
266.732	22.87
266.948	10.58
267.164	45.4
267.38	14.68
267.596	12.63
267.812	33.11
268.028	29.01
268.244	-36.52
268.46	-1.71
268.676	-40.62
268.892	22.87
269.108	39.25
269.324	82.26
269.54	-13.99
269.756	53.59
269.972	4.44
270.188	76.12
270.403	20.82
270.619	24.92
270.835	22.87
271.051	-13.99
271.267	59.73
271.483	-20.14
271.698	10.58
271.914	0.34
272.13	-30.38
272.346	43.35
272.562	-42.67
272.777	86.36
272.993	-28.33
273.209	-40.62
273.425	2.39
273.64	-61.1
273.856	45.4
274.072	49.49
274.287	12.63
274.503	49.49
274.719	-20.14
274.934	-26.28
275.15	-28.33
275.366	-36.52
275.581	20.82
275.797	4.44
276.012	-52.91
276.228	-13.99
276.444	0.34
276.659	90.45
276.875	-7.85
277.09	69.97
277.306	0.34
277.521	18.77
277.737	-22.19
277.952	61.78
278.168	-13.99
278.383	-48.81
278.599	59.73
278.814	82.26
279.03	90.45
279.245	31.06
279.461	-34.47
279.676	51.54
279.892	98.64
280.107	-36.52
280.322	8.53
280.538	22.87
280.753	39.25
280.969	-7.85
281.184	-11.95
281.399	135.51
281.615	-24.23
281.83	74.07
282.045	-79.53
282.26	-57
282.476	-5.8
282.691	147.8
282.906	6.49
283.122	84.31
283.337	-50.86
283.552	39.25
283.767	65.88
283.983	88.4
284.198	0.34
284.413	4.44
284.628	92.5
284.843	106.84
285.058	6.49
285.274	74.07
285.489	67.92
285.704	16.73
285.919	-5.8
286.134	-7.85
286.349	61.78
286.564	35.16
286.779	10.58
286.995	26.96
287.21	49.49
287.425	55.64
287.64	-22.19
287.855	47.44
288.07	-24.23
288.285	53.59
288.5	61.78
288.715	37.2
288.93	57.68
289.145	-5.8
289.36	86.36
289.575	55.64
289.79	135.51
290.004	-30.38
290.219	8.53
290.434	0.34
290.649	-20.14
290.864	20.82
291.079	-5.8
291.294	-18.09
291.509	78.16
291.724	22.87
291.938	16.73
292.153	67.92
292.368	-9.9
292.583	26.96
292.798	-11.95
293.012	14.68
293.227	8.53
293.442	14.68
293.657	37.2
293.871	59.73
294.086	-67.24
294.301	94.55
294.516	51.54
294.73	80.21
294.945	2.39
295.16	20.82
295.374	86.36
295.589	57.68
295.804	-48.81
296.018	-18.09
296.233	-16.04
296.447	102.74
296.662	-26.28
296.877	137.56
297.091	18.77
297.306	-1.71
297.52	-16.04
297.735	33.11
297.949	67.92
298.164	72.02
298.378	6.49
298.593	65.88
298.807	18.77
299.022	47.44
299.236	86.36
299.451	12.63
299.665	-26.28
299.88	24.92
300.094	-5.8
300.309	6.49
300.523	-46.76
300.737	-34.47
300.952	18.77
301.166	47.44
301.381	20.82
301.595	12.63
301.809	31.06
302.024	-22.19
302.238	-52.91
302.452	14.68
302.667	0.34
302.881	82.26
303.095	76.12
303.309	61.78
303.524	-44.71
303.738	-20.14
303.952	12.63
304.166	59.73
304.381	-81.58
304.595	61.78
304.809	-16.04
305.023	35.16
305.237	-20.14
305.452	-22.19
305.666	53.59
305.88	151.89
306.094	-3.75
306.308	-69.29
306.522	18.77
306.736	43.35
306.95	20.82
307.164	78.16
307.379	37.2
307.593	53.59
307.807	33.11
308.021	4.44
308.235	33.11
308.449	37.2
308.663	14.68
308.877	59.73
309.091	18.77
309.305	69.97
309.519	-16.04
309.733	-22.19
309.947	6.49
310.161	69.97
310.374	12.63
310.588	16.73
310.802	16.73
311.016	16.73
311.23	115.03
311.444	47.44
311.658	-16.04
311.872	18.77
312.085	39.25
312.299	26.96
312.513	80.21
312.727	59.73
312.941	4.44
313.154	43.35
313.368	67.92
313.582	10.58
313.796	49.49
314.009	53.59
314.223	115.03
314.437	69.97
314.651	90.45
314.864	-11.95
315.078	47.44
315.292	-11.95
315.505	18.77
315.719	18.77
315.933	29.01
316.146	-42.67
316.36	55.64
316.573	59.73
316.787	59.73
317.001	22.87
317.214	-5.8
317.428	47.44
317.641	-52.91
317.855	-20.14
318.068	10.58
318.282	47.44
318.495	72.02
318.709	61.78
318.922	-28.33
319.136	115.03
319.349	31.06
319.563	98.64
319.776	41.3
319.99	-24.23
320.203	-3.75
320.417	45.4
320.63	94.55
320.843	14.68
321.057	-9.9
321.27	8.53
321.483	24.92
321.697	63.83
321.91	43.35
322.124	69.97
322.337	33.11
322.55	24.92
322.763	98.64
322.977	6.49
323.19	43.35
323.403	-20.14
323.617	92.5
323.83	39.25
324.043	6.49
324.256	20.82
324.469	51.54
324.683	4.44
324.896	-13.99
325.109	41.3
325.322	-71.34
325.535	53.59
325.748	80.21
325.962	0.34
326.175	76.12
326.388	33.11
326.601	61.78
326.814	18.77
327.027	-26.28
327.24	117.08
327.453	-59.05
327.666	26.96
327.879	47.44
328.092	61.78
328.305	43.35
328.518	20.82
328.731	20.82
328.944	37.2
329.157	43.35
329.37	-50.86
329.583	10.58
329.796	49.49
330.009	-42.67
330.222	65.88
330.435	53.59
330.648	22.87
330.861	-11.95
331.073	8.53
331.286	61.78
331.499	26.96
331.712	-65.19
331.925	59.73
332.138	10.58
332.35	45.4
332.563	37.2
332.776	14.68
332.989	0.34
333.202	4.44
333.414	-7.85
333.627	69.97
333.84	57.68
334.053	55.64
334.265	18.77
334.478	24.92
334.691	2.39
334.903	39.25
335.116	-1.71
335.329	10.58
335.541	-13.99
335.754	57.68
335.966	-5.8
336.179	80.21
336.392	69.97
336.604	-5.8
336.817	31.06
337.029	96.6
337.242	-5.8
337.454	12.63
337.667	22.87
337.88	31.06
338.092	88.4
338.305	90.45
338.517	-11.95
338.729	-79.53
338.942	112.98
339.154	31.06
339.367	31.06
339.579	72.02
339.792	24.92
340.004	39.25
340.217	-16.04
340.429	37.2
340.641	-24.23
340.854	43.35
341.066	121.17
341.278	14.68
341.491	78.16
341.703	22.87
341.915	-16.04
342.128	37.2
342.34	31.06
342.552	26.96
342.764	88.4
342.977	51.54
343.189	29.01
343.401	10.58
343.613	-42.67
343.826	14.68
344.038	-22.19
344.25	43.35
344.462	0.34
344.674	20.82
344.886	-54.95
345.099	31.06
345.311	33.11
345.523	53.59
345.735	41.3
345.947	-9.9
346.159	14.68
346.371	55.64
346.583	29.01
346.795	39.25
347.007	49.49
347.219	49.49
347.431	-28.33
347.643	57.68
347.855	47.44
348.067	53.59
348.279	57.68
348.491	129.36
348.703	-18.09
348.915	78.16
349.127	47.44
349.339	63.83
349.551	-44.71
349.763	6.49
349.975	88.4
350.187	47.44
350.399	82.26
350.61	24.92
350.822	-59.05
351.034	6.49
351.246	6.49
351.458	43.35
351.669	2.39
351.881	96.6
352.093	18.77
352.305	121.17
352.517	10.58
352.728	43.35
352.94	26.96
353.152	12.63
353.363	-9.9
353.575	-42.67
353.787	76.12
353.999	51.54
354.21	35.16
354.422	-61.1
354.633	86.36
354.845	-18.09
355.057	37.2
355.268	-7.85
355.48	29.01
355.692	-57
355.903	2.39
356.115	-22.19
356.326	16.73
356.538	43.35
356.749	96.6
356.961	110.93
357.172	80.21
357.384	-77.48
357.595	166.23
357.807	20.82
358.018	12.63
358.23	80.21
358.441	112.98
358.653	41.3
358.864	-30.38
359.075	-38.57
359.287	86.36
359.498	0.34
359.709	-1.71
359.921	51.54
360.132	24.92
360.344	43.35
360.555	67.92
360.766	43.35
360.977	-18.09
361.189	-3.75
361.4	20.82
361.611	51.54
361.823	63.83
362.034	4.44
362.245	-1.71
362.456	26.96
362.667	41.3
362.879	-18.09
363.09	-5.8
363.301	115.03
363.512	18.77
363.723	-22.19
363.935	55.64
364.146	57.68
364.357	59.73
364.568	-13.99
364.779	18.77
364.99	14.68
365.201	33.11
365.412	96.6
365.623	2.39
365.834	43.35
366.045	6.49
366.256	86.36
366.467	20.82
366.678	31.06
366.889	10.58
367.1	82.26
367.311	78.16
367.522	-30.38
367.733	78.16
367.944	22.87
368.155	18.77
368.366	41.3
368.577	57.68
368.788	47.44
368.999	-20.14
369.209	61.78
369.42	117.08
369.631	121.17
369.842	72.02
370.053	26.96
370.264	-13.99
370.474	39.25
370.685	20.82
370.896	45.4
371.107	117.08
371.317	63.83
371.528	63.83
371.739	84.31
371.95	24.92
372.16	88.4
372.371	-57
372.582	-20.14
372.792	61.78
373.003	76.12
373.214	78.16
373.424	26.96
373.635	-26.28
373.846	86.36
374.056	-16.04
374.267	22.87
374.477	16.73
374.688	-16.04
374.898	26.96
375.109	98.64
375.319	51.54
375.53	84.31
375.74	102.74
375.951	31.06
376.161	47.44
376.372	160.08
376.582	63.83
376.793	45.4
377.003	24.92
377.214	8.53
377.424	86.36
377.635	-52.91
377.845	18.77
378.055	39.25
378.266	-32.43
378.476	-34.47
378.686	29.01
378.897	12.63
379.107	-24.23
379.317	22.87
379.528	-22.19
379.738	88.4
379.948	45.4
380.158	69.97
380.369	0.34
380.579	14.68
380.789	4.44
380.999	72.02
381.21	90.45
381.42	69.97
381.63	92.5
381.84	57.68
382.05	26.96
382.261	20.82
382.471	49.49
382.681	22.87
382.891	49.49
383.101	102.74
383.311	41.3
383.521	4.44
383.731	108.88
383.941	131.41
384.151	76.12
384.361	84.31
384.571	31.06
384.781	96.6
384.991	123.22
385.201	80.21
385.411	76.12
385.621	45.4
385.831	45.4
386.041	-9.9
386.251	-81.58
386.461	88.4
386.671	20.82
386.881	82.26
387.091	110.93
387.301	84.31
387.511	53.59
387.72	61.78
387.93	106.84
388.14	-1.71
388.35	-28.33
388.56	102.74
388.769	115.03
388.979	96.6
389.189	90.45
389.399	-13.99
389.609	35.16
389.818	61.78
390.028	20.82
390.238	65.88
390.447	-20.14
390.657	22.87
390.867	43.35
391.076	-42.67
391.286	47.44
391.496	-5.8
391.705	55.64
391.915	104.79
392.125	41.3
392.334	47.44
392.544	98.64
392.753	37.2
392.963	31.06
393.172	76.12
393.382	-16.04
393.591	133.46
393.801	-22.19
394.01	119.12
394.22	102.74
394.429	-26.28
394.639	88.4
394.848	127.32
395.058	61.78
395.267	69.97
395.477	78.16
395.686	110.93
395.895	106.84
396.105	160.08
396.314	72.02
396.524	37.2
396.733	55.64
396.942	78.16
397.152	129.36
397.361	63.83
397.57	98.64
397.78	94.55
397.989	131.41
398.198	104.79
398.407	8.53
398.617	65.88
398.826	96.6
399.035	106.84
399.244	49.49
399.453	35.16
399.663	41.3
399.872	80.21
400.081	121.17
400.29	155.99
400.499	51.54
400.708	141.65
400.917	88.4
401.127	82.26
401.336	78.16
401.545	121.17
401.754	117.08
401.963	143.7
402.172	80.21
402.381	26.96
402.59	59.73
402.799	65.88
403.008	90.45
403.217	102.74
403.426	141.65
403.635	29.01
403.844	84.31
404.053	168.27
404.262	117.08
404.471	170.32
404.68	104.79
404.888	98.64
405.097	137.56
405.306	162.13
405.515	65.88
405.724	63.83
405.933	174.42
406.142	86.36
406.35	88.4
406.559	121.17
406.768	137.56
406.977	149.84
407.185	90.45
407.394	178.51
407.603	139.6
407.812	125.27
408.02	256.34
408.229	215.38
408.438	153.94
408.646	164.18
408.855	182.61
409.064	227.67
409.272	192.85
409.481	196.95
409.69	170.32
409.898	174.42
410.107	252.24
410.315	262.48
410.524	196.95
410.733	250.19
410.941	301.39
411.15	287.06
411.358	328.02
411.567	334.16
411.775	366.93
411.984	366.93
412.192	346.45
412.401	289.1
412.609	379.22
412.818	379.22
413.026	387.41
413.234	371.02
413.443	356.69
413.651	399.7
413.86	381.26
414.068	514.38
414.276	500.05
414.485	561.48
414.693	448.85
414.901	538.96
415.11	565.58
415.318	446.8
415.526	514.38
415.734	600.4
415.943	553.29
416.151	696.65
416.359	602.44
416.567	661.84
416.776	637.26
416.984	690.51
417.192	739.66
417.4	751.95
417.608	749.9
417.817	774.47
418.025	854.34
418.233	911.69
418.441	823.62
418.649	907.59
418.857	913.74
419.065	1007.94
419.273	903.5
419.481	979.27
419.689	1139.01
419.897	1136.96
420.105	1044.81
420.313	1188.16
420.521	1145.16
420.729	1171.78
420.937	1268.03
421.145	1397.06
421.353	1390.91
421.561	1546.56
421.769	1501.5
421.977	1597.76
422.185	1550.65
422.393	1642.81
422.601	1777.98
422.809	1685.82
423.017	1847.61
423.224	1794.36
423.432	1939.77
423.64	1950.01
423.848	2181.43
424.056	2044.21
424.263	2255.15
424.471	2054.45
424.679	2152.76
424.887	2294.07
425.094	2380.08
425.302	2328.88
425.51	2335.03
425.718	2525.49
425.925	2494.77
426.133	2650.41
426.341	2804.01
426.548	2988.33
426.756	2933.03
426.964	2900.27
427.171	3131.69
427.379	3266.85
427.586	3301.67
427.794	3381.54
428.001	3545.38
428.209	3703.07
428.417	3756.32
428.624	3944.73
428.832	3938.59
429.039	3952.92
429.247	3830.04
429.454	4327.7
429.662	4610.32
429.869	4184.34
430.076	4696.33
430.284	4548.88
430.491	4735.25
430.699	5091.59
430.906	4968.71
431.114	4919.56
431.321	5093.64
431.528	5257.48
431.736	5685.5
431.943	5935.35
432.15	5880.06
432.358	5851.39
432.565	6004.99
432.772	5898.49
432.979	6369.52
433.187	6547.7
433.394	6582.51
433.601	6858.99
433.808	6826.22
434.016	7020.78
434.223	7215.34
434.43	7653.6
434.637	7604.45
434.844	8007.9
435.052	8171.74
435.259	8098.01
435.466	8196.31
435.673	8210.65
435.88	8616.15
436.087	9103.56
436.294	8939.72
436.501	8792.27
436.708	9029.84
436.915	9291.98
437.122	9597.12
437.329	9771.2
437.537	10201.27
437.743	10299.58
437.95	10199.23
438.157	10606.77
438.364	11006.13
438.571	11079.85
438.778	11192.49
438.985	12216.47
439.192	11739.3
439.399	11944.1
439.606	11853.98
439.813	12386.46
440.02	13260.94
440.227	12994.7
440.433	12695.7
440.64	13359.24
440.847	13078.67
441.054	13598.85
441.261	14379.13
441.467	13973.63
441.674	14747.76
441.881	14991.47
442.088	15050.86
442.294	14966.9
442.501	15325.29
442.708	15718.5
442.914	16109.66
443.121	17182.8
443.328	16568.41
443.534	17768.52
443.741	17016.91
443.948	17059.92
444.154	18094.15
444.361	18217.02
444.568	18384.96
444.774	18108.48
444.981	18649.14
445.187	18894.9
445.394	19777.58
445.6	19484.72
445.807	21231.63
446.013	20766.74
446.22	20940.82
446.426	21424.14
446.633	22022.15
446.839	22933.5
447.046	21768.2
447.252	22872.06
447.459	22968.31
447.665	23128.05
447.871	24096.74
448.078	25049.05
448.284	23795.69
448.491	24532.96
448.697	25282.52
448.903	25921.48
449.11	26204.1
449.316	25356.24
449.522	26163.14
449.728	26337.22
449.935	26744.77
450.141	26875.84
450.347	27414.45
450.553	26558.4
450.76	27228.09
450.966	27752.37
451.172	27596.72
451.378	28604.32
451.584	27682.73
451.791	28493.73
451.997	28059.56
452.203	28647.33
452.409	28438.44
452.615	28409.76
452.821	27592.62
453.027	27195.32
453.233	28661.66
453.44	27406.26
453.646	28059.56
453.852	27623.34
454.058	28628.9
454.264	27226.04
454.47	28061.61
454.676	27172.79
454.882	28174.25
455.088	25712.59
455.294	26443.71
455.5	26517.44
455.705	26935.23
455.911	25540.56
456.117	25628.62
456.323	25169.88
456.529	23547.89
456.735	24530.91
456.941	24317.92
457.147	23580.65
457.352	22765.56
457.558	22468.61
457.764	22829.05
457.97	22294.53
458.176	21803.02
458.381	21891.08
458.587	20635.67
458.793	20654.11
458.999	19613.74
459.204	20971.54
459.41	20662.3
459.616	19107.89
459.821	18978.87
460.027	18866.23
460.233	18325.57
460.438	17762.37
460.644	17846.34
460.85	17072.21
461.055	16912.47
461.261	16887.89
461.466	15403.11
461.672	14927.99
461.878	16126.05
462.083	15061.1
462.289	14647.41
462.494	14569.59
462.7	13889.67
462.905	13592.71
463.111	14213.24
463.316	14272.64
463.522	13848.71
463.727	13826.18
463.932	13873.28
464.138	13443.21
464.343	13838.47
464.549	13258.89
464.754	13738.12
464.959	13682.82
465.165	13383.82
465.37	13047.95
465.575	12636.31
465.781	13271.18
465.986	13410.44
466.191	12603.54
466.397	12443.8
466.602	11841.7
466.807	12130.46
467.012	12363.93
467.218	12234.91
467.423	12353.69
