Data from USB4F104151__46__12-23-56-814.txt Node

Date: Fri Mar 14 12:23:56 EDT 2025
User: louis
Spectrometer: USB4F10415
Trigger mode: 4
Integration Time (sec): 3.500000E-2
Scans to average: 1
Electric dark correction enabled: true
Nonlinearity correction enabled: false
Boxcar width: 0
XAxis mode: Wavelengths
Number of Pixels in Spectrum: 3648
>>>>>Begin Spectral Data<<<<<
178.204	-133.29
178.424	-133.29
178.644	-133.29
178.864	-147.62
179.084	-86.19
179.304	-51.37
179.524	16.21
179.744	42.84
179.964	42.84
180.184	-28.84
180.404	-41.13
180.624	28.5
180.844	83.8
181.064	-53.42
181.283	-75.95
181.503	-2.22
181.723	38.74
181.943	16.21
182.163	122.71
182.383	-59.56
182.602	96.08
182.822	26.45
183.042	69.46
183.262	63.32
183.482	10.07
183.701	87.89
183.921	20.31
184.141	24.4
184.361	-14.51
184.58	75.6
184.8	98.13
185.02	53.08
185.239	89.94
185.459	44.88
185.679	149.33
185.898	20.31
186.118	30.55
186.338	77.65
186.557	10.07
186.777	5.97
186.997	42.84
187.216	81.75
187.436	67.41
187.655	5.97
187.875	135
188.095	-6.31
188.314	108.37
188.534	53.08
188.753	-6.31
188.973	-0.17
189.192	112.47
189.412	75.6
189.631	16.21
189.851	8.02
190.07	83.8
190.29	-2.22
190.509	34.64
190.729	61.27
190.948	36.69
191.168	184.15
191.387	137.04
191.607	16.21
191.826	57.17
192.045	67.41
192.265	16.21
192.484	81.75
192.704	67.41
192.923	26.45
193.142	163.67
193.362	16.21
193.581	139.09
193.8	69.46
194.02	16.21
194.239	96.08
194.458	1.88
194.678	28.5
194.897	16.21
195.116	53.08
195.335	14.17
195.555	106.32
195.774	22.36
195.993	48.98
196.212	98.13
196.432	12.12
196.651	5.97
196.87	-28.84
197.089	151.38
197.308	124.76
197.528	94.04
197.747	32.6
197.966	53.08
198.185	53.08
198.404	3.93
198.623	53.08
198.842	14.17
199.062	89.94
199.281	65.36
199.5	91.99
199.719	28.5
199.938	46.93
200.157	87.89
200.376	14.17
200.595	10.07
200.814	3.93
201.033	-10.41
201.252	122.71
201.471	-2.22
201.69	75.6
201.909	48.98
202.128	-18.6
202.347	61.27
202.566	53.08
202.785	-12.46
203.004	3.93
203.223	73.56
203.442	77.65
203.661	12.12
203.879	53.08
204.098	61.27
204.317	-22.7
204.536	112.47
204.755	14.17
204.974	55.12
205.193	44.88
205.411	87.89
205.63	120.66
205.849	98.13
206.068	106.32
206.287	-24.75
206.505	38.74
206.724	30.55
206.943	28.5
207.162	-26.79
207.381	38.74
207.599	3.93
207.818	53.08
208.037	96.08
208.255	96.08
208.474	96.08
208.693	12.12
208.911	38.74
209.13	65.36
209.349	79.7
209.567	53.08
209.786	24.4
210.005	38.74
210.223	22.36
210.442	-2.22
210.661	116.56
210.879	69.46
211.098	51.03
211.316	55.12
211.535	65.36
211.753	10.07
211.972	20.31
212.191	116.56
212.409	83.8
212.628	108.37
212.846	18.26
213.065	98.13
213.283	106.32
213.502	26.45
213.72	98.13
213.938	96.08
214.157	38.74
214.375	59.22
214.594	57.17
214.812	87.89
215.031	24.4
215.249	22.36
215.467	36.69
215.686	8.02
215.904	147.28
216.122	-6.31
216.341	79.7
216.559	110.42
216.778	106.32
216.996	130.9
217.214	16.21
217.432	-20.65
217.651	32.6
217.869	24.4
218.087	71.51
218.306	-8.36
218.524	20.31
218.742	98.13
218.96	-16.55
219.179	16.21
219.397	91.99
219.615	200.53
219.833	124.76
220.051	81.75
220.27	77.65
220.488	40.79
220.706	79.7
220.924	51.03
221.142	28.5
221.36	57.17
221.578	89.94
221.796	128.85
222.015	104.28
222.233	104.28
222.451	85.84
222.669	-24.75
222.887	87.89
223.105	53.08
223.323	12.12
223.541	20.31
223.759	20.31
223.977	1.88
224.195	42.84
224.413	104.28
224.631	48.98
224.849	63.32
225.067	108.37
225.285	3.93
225.503	32.6
225.721	-32.94
225.939	40.79
226.157	75.6
226.375	141.14
226.592	14.17
226.81	51.03
227.028	63.32
227.246	79.7
227.464	22.36
227.682	75.6
227.9	87.89
228.117	59.22
228.335	65.36
228.553	40.79
228.771	67.41
228.989	-8.36
229.206	65.36
229.424	-10.41
229.642	55.12
229.86	-47.27
230.077	94.04
230.295	116.56
230.513	40.79
230.731	73.56
230.948	139.09
231.166	124.76
231.384	83.8
231.601	-18.6
231.819	94.04
232.037	30.55
232.254	-10.41
232.472	71.51
232.689	-4.27
232.907	53.08
233.125	69.46
233.342	32.6
233.56	-63.66
233.777	63.32
233.995	-20.65
234.213	161.62
234.43	51.03
234.648	128.85
234.865	28.5
235.083	87.89
235.3	46.93
235.518	32.6
235.735	89.94
235.953	94.04
236.17	69.46
236.388	28.5
236.605	67.41
236.822	116.56
237.04	61.27
237.257	-30.89
237.475	14.17
237.692	14.17
237.909	67.41
238.127	14.17
238.344	137.04
238.562	98.13
238.779	14.17
238.996	55.12
239.214	61.27
239.431	114.52
239.648	44.88
239.865	44.88
240.083	108.37
240.3	30.55
240.517	69.46
240.735	57.17
240.952	71.51
241.169	57.17
241.386	61.27
241.603	3.93
241.821	79.7
242.038	81.75
242.255	102.23
242.472	-24.75
242.689	100.18
242.907	112.47
243.124	-30.89
243.341	55.12
243.558	30.55
243.775	71.51
243.992	36.69
244.209	14.17
244.426	85.84
244.643	-6.31
244.86	51.03
245.078	63.32
245.295	108.37
245.512	83.8
245.729	48.98
245.946	38.74
246.163	-14.51
246.38	40.79
246.597	34.64
246.814	48.98
247.031	89.94
247.248	87.89
247.464	51.03
247.681	57.17
247.898	135
248.115	-0.17
248.332	16.21
248.549	87.89
248.766	143.19
248.983	18.26
249.2	59.22
249.417	65.36
249.633	-6.31
249.85	65.36
250.067	61.27
250.284	24.4
250.501	108.37
250.717	106.32
250.934	-32.94
251.151	89.94
251.368	46.93
251.585	48.98
251.801	77.65
252.018	-4.27
252.235	94.04
252.451	10.07
252.668	44.88
252.885	87.89
253.102	36.69
253.318	79.7
253.535	28.5
253.752	28.5
253.968	26.45
254.185	-20.65
254.401	81.75
254.618	42.84
254.835	98.13
255.051	118.61
255.268	26.45
255.484	65.36
255.701	40.79
255.917	77.65
256.134	61.27
256.351	24.4
256.567	-22.7
256.784	61.27
257	32.6
257.217	-47.27
257.433	20.31
257.65	36.69
257.866	-37.03
258.082	-20.65
258.299	30.55
258.515	63.32
258.732	65.36
258.948	38.74
259.165	-8.36
259.381	65.36
259.597	16.21
259.814	100.18
260.03	75.6
260.246	14.17
260.463	65.36
260.679	59.22
260.895	79.7
261.112	-0.17
261.328	28.5
261.544	79.7
261.761	130.9
261.977	85.84
262.193	57.17
262.409	1.88
262.626	81.75
262.842	89.94
263.058	8.02
263.274	5.97
263.49	69.46
263.707	153.43
263.923	94.04
264.139	-28.84
264.355	77.65
264.571	137.04
264.787	-4.27
265.004	79.7
265.22	91.99
265.436	14.17
265.652	81.75
265.868	75.6
266.084	57.17
266.3	36.69
266.516	3.93
266.732	48.98
266.948	51.03
267.164	118.61
267.38	18.26
267.596	10.07
267.812	165.71
268.028	22.36
268.244	32.6
268.46	87.89
268.676	130.9
268.892	59.22
269.108	8.02
269.324	59.22
269.54	-39.08
269.756	143.19
269.972	-37.03
270.188	57.17
270.403	42.84
270.619	85.84
270.835	30.55
271.051	83.8
271.267	32.6
271.483	106.32
271.698	42.84
271.914	106.32
272.13	36.69
272.346	26.45
272.562	110.42
272.777	53.08
272.993	34.64
273.209	40.79
273.425	26.45
273.64	12.12
273.856	143.19
274.072	89.94
274.287	55.12
274.503	63.32
274.719	94.04
274.934	34.64
275.15	12.12
275.366	57.17
275.581	10.07
275.797	40.79
276.012	-18.6
276.228	94.04
276.444	51.03
276.659	126.8
276.875	-73.9
277.09	-30.89
277.306	57.17
277.521	112.47
277.737	44.88
277.952	-2.22
278.168	59.22
278.383	51.03
278.599	16.21
278.814	55.12
279.03	69.46
279.245	53.08
279.461	3.93
279.676	59.22
279.892	57.17
280.107	40.79
280.322	30.55
280.538	112.47
280.753	26.45
280.969	149.33
281.184	-34.99
281.399	69.46
281.615	57.17
281.83	-0.17
282.045	69.46
282.26	102.23
282.476	46.93
282.691	16.21
282.906	46.93
283.122	73.56
283.337	1.88
283.552	165.71
283.767	100.18
283.983	89.94
284.198	38.74
284.413	151.38
284.628	59.22
284.843	20.31
285.058	30.55
285.274	53.08
285.489	71.51
285.704	81.75
285.919	108.37
286.134	114.52
286.349	96.08
286.564	42.84
286.779	48.98
286.995	73.56
287.21	20.31
287.425	53.08
287.64	28.5
287.855	53.08
288.07	-14.51
288.285	24.4
288.5	69.46
288.715	98.13
288.93	61.27
289.145	51.03
289.36	26.45
289.575	38.74
289.79	-6.31
290.004	63.32
290.219	71.51
290.434	40.79
290.649	67.41
290.864	55.12
291.079	55.12
291.294	143.19
291.509	73.56
291.724	48.98
291.938	38.74
292.153	67.41
292.368	73.56
292.583	61.27
292.798	104.28
293.012	14.17
293.227	67.41
293.442	38.74
293.657	65.36
293.871	53.08
294.086	116.56
294.301	55.12
294.516	59.22
294.73	65.36
294.945	59.22
295.16	34.64
295.374	100.18
295.589	130.9
295.804	46.93
296.018	67.41
296.233	77.65
296.447	98.13
296.662	20.31
296.877	143.19
297.091	65.36
297.306	59.22
297.52	-18.6
297.735	98.13
297.949	94.04
298.164	149.33
298.378	106.32
298.593	71.51
298.807	28.5
299.022	20.31
299.236	102.23
299.451	89.94
299.665	65.36
299.88	26.45
300.094	81.75
300.309	114.52
300.523	147.28
300.737	36.69
300.952	135
301.166	57.17
301.381	24.4
301.595	26.45
301.809	57.17
302.024	28.5
302.238	32.6
302.452	128.85
302.667	42.84
302.881	30.55
303.095	24.4
303.309	-8.36
303.524	-30.89
303.738	55.12
303.952	61.27
304.166	89.94
304.381	61.27
304.595	128.85
304.809	106.32
305.023	67.41
305.237	63.32
305.452	55.12
305.666	69.46
305.88	135
306.094	87.89
306.308	89.94
306.522	38.74
306.736	63.32
306.95	81.75
307.164	98.13
307.379	42.84
307.593	44.88
307.807	126.8
308.021	83.8
308.235	24.4
308.449	18.26
308.663	36.69
308.877	126.8
309.091	73.56
309.305	22.36
309.519	87.89
309.733	128.85
309.947	-28.84
310.161	100.18
310.374	87.89
310.588	100.18
310.802	-32.94
311.016	18.26
311.23	73.56
311.444	94.04
311.658	124.76
311.872	91.99
312.085	94.04
312.299	112.47
312.513	100.18
312.727	79.7
312.941	30.55
313.154	36.69
313.368	110.42
313.582	16.21
313.796	87.89
314.009	71.51
314.223	55.12
314.437	112.47
314.651	79.7
314.864	83.8
315.078	75.6
315.292	26.45
315.505	10.07
315.719	46.93
315.933	124.76
316.146	106.32
316.36	89.94
316.573	145.24
316.787	110.42
317.001	34.64
317.214	5.97
317.428	63.32
317.641	77.65
317.855	116.56
318.068	-20.65
318.282	46.93
318.495	91.99
318.709	124.76
318.922	38.74
319.136	114.52
319.349	83.8
319.563	110.42
319.776	24.4
319.99	26.45
320.203	81.75
320.417	106.32
320.63	32.6
320.843	141.14
321.057	87.89
321.27	10.07
321.483	67.41
321.697	106.32
321.91	71.51
322.124	94.04
322.337	63.32
322.55	32.6
322.763	96.08
322.977	24.4
323.19	57.17
323.403	71.51
323.617	1.88
323.83	149.33
324.043	48.98
324.256	8.02
324.469	12.12
324.683	182.1
324.896	96.08
325.109	102.23
325.322	12.12
325.535	96.08
325.748	116.56
325.962	53.08
326.175	87.89
326.388	22.36
326.601	53.08
326.814	81.75
327.027	81.75
327.24	67.41
327.453	-22.7
327.666	114.52
327.879	46.93
328.092	30.55
328.305	120.66
328.518	32.6
328.731	85.84
328.944	53.08
329.157	57.17
329.37	36.69
329.583	167.76
329.796	67.41
330.009	8.02
330.222	128.85
330.435	28.5
330.648	73.56
330.861	67.41
331.073	110.42
331.286	42.84
331.499	65.36
331.712	73.56
331.925	108.37
332.138	83.8
332.35	116.56
332.563	63.32
332.776	91.99
332.989	3.93
333.202	145.24
333.414	46.93
333.627	22.36
333.84	67.41
334.053	135
334.265	87.89
334.478	-39.08
334.691	75.6
334.903	46.93
335.116	55.12
335.329	44.88
335.541	44.88
335.754	116.56
335.966	65.36
336.179	48.98
336.392	-14.51
336.604	34.64
336.817	26.45
337.029	153.43
337.242	71.51
337.454	87.89
337.667	-8.36
337.88	132.95
338.092	85.84
338.305	61.27
338.517	30.55
338.729	89.94
338.942	61.27
339.154	51.03
339.367	20.31
339.579	51.03
339.792	81.75
340.004	104.28
340.217	-14.51
340.429	104.28
340.641	24.4
340.854	32.6
341.066	79.7
341.278	73.56
341.491	124.76
341.703	8.02
341.915	77.65
342.128	69.46
342.34	36.69
342.552	-39.08
342.764	57.17
342.977	40.79
343.189	48.98
343.401	110.42
343.613	44.88
343.826	26.45
344.038	-26.79
344.25	51.03
344.462	12.12
344.674	120.66
344.886	108.37
345.099	141.14
345.311	57.17
345.523	38.74
345.735	-2.22
345.947	57.17
346.159	61.27
346.371	116.56
346.583	63.32
346.795	118.61
347.007	14.17
347.219	135
347.431	24.4
347.643	100.18
347.855	44.88
348.067	104.28
348.279	20.31
348.491	44.88
348.703	135
348.915	75.6
349.127	71.51
349.339	28.5
349.551	26.45
349.763	87.89
349.975	55.12
350.187	73.56
350.399	81.75
350.61	87.89
350.822	61.27
351.034	34.64
351.246	83.8
351.458	110.42
351.669	100.18
351.881	46.93
352.093	73.56
352.305	61.27
352.517	182.1
352.728	81.75
352.94	24.4
353.152	104.28
353.363	53.08
353.575	87.89
353.787	67.41
353.999	65.36
354.21	112.47
354.422	8.02
354.633	38.74
354.845	91.99
355.057	53.08
355.268	57.17
355.48	110.42
355.692	69.46
355.903	32.6
356.115	-32.94
356.326	77.65
356.538	89.94
356.749	83.8
356.961	139.09
357.172	14.17
357.384	104.28
357.595	167.76
357.807	-6.31
358.018	18.26
358.23	94.04
358.441	194.39
358.653	120.66
358.864	20.31
359.075	46.93
359.287	89.94
359.498	186.19
359.709	71.51
359.921	53.08
360.132	63.32
360.344	63.32
360.555	77.65
360.766	65.36
360.977	57.17
361.189	112.47
361.4	106.32
361.611	108.37
361.823	75.6
362.034	94.04
362.245	114.52
362.456	-14.51
362.667	-8.36
362.879	73.56
363.09	159.57
363.301	36.69
363.512	81.75
363.723	55.12
363.935	87.89
364.146	163.67
364.357	40.79
364.568	96.08
364.779	57.17
364.99	112.47
365.201	44.88
365.412	61.27
365.623	75.6
365.834	110.42
366.045	126.8
366.256	87.89
366.467	38.74
366.678	116.56
366.889	73.56
367.1	118.61
367.311	22.36
367.522	94.04
367.733	104.28
367.944	53.08
368.155	130.9
368.366	71.51
368.577	85.84
368.788	51.03
368.999	22.36
369.209	75.6
369.42	61.27
369.631	116.56
369.842	73.56
370.053	16.21
370.264	130.9
370.474	87.89
370.685	34.64
370.896	63.32
371.107	137.04
371.317	165.71
371.528	120.66
371.739	85.84
371.95	143.19
372.16	165.71
372.371	28.5
372.582	79.7
372.792	87.89
373.003	55.12
373.214	63.32
373.424	38.74
373.635	10.07
373.846	139.09
374.056	61.27
374.267	89.94
374.477	61.27
374.688	63.32
374.898	55.12
375.109	53.08
375.319	71.51
375.53	57.17
375.74	77.65
375.951	128.85
376.161	79.7
376.372	77.65
376.582	108.37
376.793	98.13
377.003	48.98
377.214	96.08
377.424	159.57
377.635	167.76
377.845	51.03
378.055	165.71
378.266	53.08
378.476	3.93
378.686	173.91
378.897	135
379.107	98.13
379.317	114.52
379.528	91.99
379.738	153.43
379.948	30.55
380.158	161.62
380.369	59.22
380.579	87.89
380.789	106.32
380.999	94.04
381.21	75.6
381.42	145.24
381.63	79.7
381.84	104.28
382.05	255.83
382.261	96.08
382.471	180.05
382.681	104.28
382.891	145.24
383.101	24.4
383.311	38.74
383.521	32.6
383.731	-0.17
383.941	151.38
384.151	28.5
384.361	114.52
384.571	126.8
384.781	-8.36
384.991	126.8
385.201	169.81
385.411	81.75
385.621	141.14
385.831	73.56
386.041	132.95
386.251	55.12
386.461	114.52
386.671	104.28
386.881	104.28
387.091	73.56
387.301	114.52
387.511	32.6
387.72	73.56
387.93	102.23
388.14	87.89
388.35	98.13
388.56	139.09
388.769	137.04
388.979	69.46
389.189	40.79
389.399	42.84
389.609	81.75
389.818	100.18
390.028	89.94
390.238	53.08
390.447	67.41
390.657	137.04
390.867	-8.36
391.076	137.04
391.286	112.47
391.496	145.24
391.705	59.22
391.915	112.47
392.125	128.85
392.334	42.84
392.544	184.15
392.753	135
392.963	102.23
393.172	112.47
393.382	149.33
393.591	194.39
393.801	63.32
394.01	161.62
394.22	116.56
394.429	57.17
394.639	22.36
394.848	118.61
395.058	81.75
395.267	118.61
395.477	130.9
395.686	149.33
395.895	216.91
396.105	110.42
396.314	161.62
396.524	118.61
396.733	71.51
396.942	223.06
397.152	104.28
397.361	165.71
397.57	178
397.78	147.28
397.989	75.6
398.198	188.24
398.407	161.62
398.617	161.62
398.826	137.04
399.035	151.38
399.244	141.14
399.453	130.9
399.663	94.04
399.872	272.21
400.081	89.94
400.29	141.14
400.499	126.8
400.708	157.52
400.917	83.8
401.127	194.39
401.336	126.8
401.545	286.54
401.754	200.53
401.963	175.95
402.172	165.71
402.381	171.86
402.59	137.04
402.799	218.96
403.008	153.43
403.217	210.77
403.426	229.2
403.635	182.1
403.844	251.73
404.053	186.19
404.262	165.71
404.471	261.97
404.68	233.3
404.888	229.2
405.097	200.53
405.306	218.96
405.515	159.57
405.724	208.72
405.933	202.58
406.142	171.86
406.35	229.2
406.559	190.29
406.768	276.31
406.977	243.54
407.185	296.78
407.394	309.07
407.603	257.87
407.812	339.79
408.02	341.84
408.229	292.69
408.438	302.93
408.646	325.46
408.855	393.04
409.064	366.42
409.272	337.74
409.481	378.7
409.69	431.95
409.898	327.5
410.107	397.14
410.315	397.14
410.524	425.81
410.733	481.1
410.941	468.81
411.15	466.77
411.358	569.16
411.567	548.68
411.775	573.26
411.984	513.87
412.192	546.64
412.401	554.83
412.609	677.71
412.818	597.84
413.026	667.47
413.234	659.28
413.443	610.12
413.651	661.32
413.86	708.43
414.068	747.34
414.276	753.48
414.485	739.15
414.693	778.06
414.901	878.41
415.11	982.85
415.318	880.46
415.526	862.02
415.734	962.37
415.943	937.8
416.151	1089.35
416.359	993.09
416.567	1158.98
416.776	1165.12
416.984	1265.47
417.192	1285.95
417.4	1285.95
417.608	1179.46
417.817	1218.37
418.025	1376.06
418.233	1431.36
418.441	1435.46
418.649	1509.18
418.857	1578.81
419.065	1627.96
419.273	1580.86
419.481	1736.51
419.689	1855.29
419.897	1763.13
420.105	1769.27
420.313	1980.22
420.521	1974.07
420.729	1978.17
420.937	2156.34
421.145	2281.27
421.353	2410.29
421.561	2414.38
421.769	2449.2
421.977	2498.35
422.185	2565.93
422.393	2803.5
422.601	2791.21
422.809	2918.18
423.017	2944.81
423.224	2920.23
423.432	3301.15
423.64	3252
423.848	3430.18
424.056	3344.16
424.263	3620.64
424.471	3624.73
424.679	3622.69
424.887	3888.92
425.094	4069.14
425.302	4058.9
425.51	4140.82
425.718	4423.44
425.925	4364.05
426.133	4462.35
426.341	4654.86
426.548	4947.72
426.756	5009.16
426.964	5062.41
427.171	5250.82
427.379	5469.95
427.586	5570.3
427.794	5603.07
428.001	6051.58
428.209	6319.86
428.417	6256.37
428.624	6592.24
428.832	6596.34
429.039	6590.19
429.247	6309.62
429.454	7155.43
429.662	7585.51
429.869	7317.22
430.076	7636.7
430.284	7399.14
430.491	7765.73
430.699	8179.42
430.906	8308.44
431.114	8285.91
431.321	8576.72
431.528	8820.43
431.736	9258.7
431.943	9649.86
432.15	9465.54
432.358	9494.21
432.565	10178.23
432.772	9950.91
432.979	10575.54
433.187	10792.62
433.394	10962.61
433.601	11554.47
433.808	11650.72
434.016	11542.18
434.223	12228.25
434.43	12736.15
434.637	12572.31
434.844	13348.49
435.052	13672.07
435.259	13645.45
435.466	13483.66
435.673	13665.92
435.88	14347.9
436.087	15220.33
436.294	15187.57
436.501	14620.28
436.708	14978.67
436.915	15490.66
437.122	16516.7
437.329	16326.24
437.537	16778.84
437.743	17151.57
437.95	16766.55
438.157	17806.92
438.364	18409.02
438.571	18492.99
438.778	18654.78
438.985	20364.83
439.192	19492.4
439.399	19961.38
439.606	19541.55
439.813	20989.46
440.02	22261.25
440.227	21681.67
440.433	21114.39
440.64	22017.54
440.847	21886.47
441.054	22601.21
441.261	23877.1
441.467	23791.08
441.674	24184.29
441.881	24925.66
442.088	25167.32
442.294	24939.99
442.501	25374.16
442.708	25855.43
442.914	27053.5
443.121	28093.86
443.328	27184.57
443.534	29437.33
443.741	28593.57
443.948	28143.02
444.154	30190.98
444.361	30008.72
444.568	30266.76
444.774	30233.99
444.981	30637.44
445.187	31640.95
445.394	32855.39
445.6	32392.55
445.807	35691.83
446.013	33647.96
446.22	34493.77
446.426	35855.67
446.633	36169.01
446.839	37451.03
447.046	35927.35
447.252	37920.02
447.459	38122.77
447.665	38065.42
447.871	39636.22
448.078	41145.57
448.284	39066.88
448.491	40365.29
448.697	41700.57
448.903	42419.41
449.11	42513.61
449.316	41835.73
449.522	42884.29
449.728	43904.18
449.935	44149.94
450.141	44002.49
450.347	45120.68
450.553	43283.65
450.76	44139.7
450.966	45491.36
451.172	45368.48
451.378	46292.11
451.584	45186.21
451.791	46322.83
451.997	46558.35
452.203	46589.07
452.409	46953.61
452.615	46683.28
452.821	45126.82
453.027	44815.53
453.233	47291.52
453.44	45536.41
453.646	45560.99
453.852	46050.45
454.058	46263.44
454.264	44778.67
454.47	46038.17
454.676	44768.43
454.882	46017.69
455.088	42632.39
455.294	42849.48
455.5	43527.36
455.705	43926.71
455.911	42376.4
456.117	41610.46
456.323	41237.73
456.529	38587.66
456.735	40793.32
456.941	39613.69
457.147	38573.32
457.352	37455.13
457.558	37369.12
457.764	37233.95
457.97	36627.75
458.176	35661.11
458.381	35872.05
458.587	34461
458.793	34264.39
458.999	32396.65
459.204	34739.52
459.41	33719.63
459.616	31001.98
459.821	31487.35
460.027	31208.83
460.233	30190.98
460.438	28874.14
460.644	29791.63
460.85	28034.47
461.055	27391.41
461.261	27829.68
461.466	25378.26
461.672	24608.22
461.878	26373.57
462.083	24634.85
462.289	24389.09
462.494	24163.81
462.7	23033.33
462.905	22410.75
463.111	22998.52
463.316	23182.84
463.522	22672.89
463.727	22769.15
463.932	22865.4
464.138	22611.45
464.343	22480.38
464.549	21765.64
464.754	22474.24
464.959	22605.31
465.165	22132.23
465.37	20960.79
465.575	20887.06
465.781	21437.97
465.986	21765.64
466.191	21030.42
