Data from USB4F104151__79__12-24-25-790.txt Node

Date: Fri Mar 14 12:24:25 EDT 2025
User: louis
Spectrometer: USB4F10415
Trigger mode: 4
Integration Time (sec): 3.500000E-2
Scans to average: 1
Electric dark correction enabled: true
Nonlinearity correction enabled: false
Boxcar width: 0
XAxis mode: Wavelengths
Number of Pixels in Spectrum: 3648
>>>>>Begin Spectral Data<<<<<
178.204	-96.77
178.424	-96.77
178.644	-96.77
178.864	-129.53
179.084	-61.95
179.304	-16.9
179.524	-16.9
179.744	-41.47
179.964	62.98
180.184	-25.09
180.404	22.02
180.624	-20.99
180.844	24.06
181.064	-107.01
181.283	28.16
181.503	19.97
181.723	71.17
181.943	-29.18
182.163	116.22
182.383	-20.99
182.602	79.36
182.822	22.02
183.042	-6.66
183.262	5.63
183.482	30.21
183.701	42.5
183.921	36.35
184.141	-20.99
184.361	79.36
184.58	19.97
184.8	50.69
185.02	22.02
185.239	81.41
185.459	116.22
185.679	50.69
185.898	5.63
186.118	-27.14
186.338	1.54
186.557	34.3
186.777	9.73
186.997	-4.61
187.216	-27.14
187.436	60.93
187.655	-18.94
187.875	46.59
188.095	-14.85
188.314	54.78
188.534	24.06
188.753	77.31
188.973	54.78
189.192	54.78
189.412	77.31
189.631	34.3
189.851	71.17
190.07	19.97
190.29	42.5
190.509	46.59
190.729	-20.99
190.948	44.54
191.168	110.08
191.387	65.02
191.607	30.21
191.826	46.59
192.045	-25.09
192.265	-31.23
192.484	114.17
192.704	32.26
192.923	30.21
193.142	99.84
193.362	24.06
193.581	42.5
193.8	105.98
194.02	26.11
194.239	-18.94
194.458	15.87
194.678	38.4
194.897	87.55
195.116	60.93
195.335	26.11
195.555	103.93
195.774	58.88
195.993	-4.61
196.212	58.88
196.432	26.11
196.651	83.45
196.87	40.45
197.089	116.22
197.308	118.27
197.528	26.11
197.747	54.78
197.966	58.88
198.185	24.06
198.404	56.83
198.623	65.02
198.842	75.26
199.062	93.69
199.281	144.89
199.5	-25.09
199.719	48.64
199.938	-4.61
200.157	19.97
200.376	101.89
200.595	36.35
200.814	65.02
201.033	15.87
201.252	65.02
201.471	-10.75
201.69	32.26
201.909	60.93
202.128	-10.75
202.347	65.02
202.566	34.3
202.785	-37.38
203.004	30.21
203.223	128.51
203.442	7.68
203.661	-8.7
203.879	-25.09
204.098	157.18
204.317	-12.8
204.536	28.16
204.755	50.69
204.974	83.45
205.193	140.8
205.411	65.02
205.63	77.31
205.849	46.59
206.068	-27.14
206.287	13.82
206.505	48.64
206.724	-6.66
206.943	50.69
207.162	-0.51
207.381	24.06
207.599	71.17
207.818	114.17
208.037	52.74
208.255	-68.09
208.474	60.93
208.693	77.31
208.911	99.84
209.13	91.65
209.349	-20.99
209.567	44.54
209.786	44.54
210.005	93.69
210.223	22.02
210.442	56.83
210.661	26.11
210.879	-25.09
211.098	28.16
211.316	17.92
211.535	140.8
211.753	56.83
211.972	114.17
212.191	81.41
212.409	7.68
212.628	91.65
212.846	24.06
213.065	122.37
213.283	67.07
213.502	-10.75
213.72	40.45
213.938	62.98
214.157	38.4
214.375	-2.56
214.594	32.26
214.812	130.56
215.031	46.59
215.249	-14.85
215.467	13.82
215.686	15.87
215.904	40.45
216.122	11.78
216.341	73.21
216.559	3.58
216.778	1.54
216.996	79.36
217.214	-0.51
217.432	108.03
217.651	-10.75
217.869	-2.56
218.087	-16.9
218.306	-23.04
218.524	50.69
218.742	22.02
218.96	65.02
219.179	15.87
219.397	60.93
219.615	126.46
219.833	58.88
220.051	-20.99
220.27	89.6
220.488	-29.18
220.706	89.6
220.924	65.02
221.142	120.32
221.36	89.6
221.578	30.21
221.796	40.45
222.015	105.98
222.233	28.16
222.451	71.17
222.669	-12.8
222.887	91.65
223.105	11.78
223.323	11.78
223.541	-2.56
223.759	50.69
223.977	120.32
224.195	110.08
224.413	122.37
224.631	38.4
224.849	-23.04
225.067	52.74
225.285	42.5
225.503	42.5
225.721	-10.75
225.939	22.02
226.157	-14.85
226.375	34.3
226.592	58.88
226.81	116.22
227.028	105.98
227.246	87.55
227.464	30.21
227.682	71.17
227.9	-33.28
228.117	26.11
228.335	62.98
228.553	54.78
228.771	32.26
228.989	36.35
229.206	13.82
229.424	62.98
229.642	44.54
229.86	17.92
230.077	-29.18
230.295	48.64
230.513	67.07
230.731	13.82
230.948	101.89
231.166	132.61
231.384	24.06
231.601	1.54
231.819	71.17
232.037	5.63
232.254	-35.33
232.472	89.6
232.689	17.92
232.907	124.41
233.125	52.74
233.342	-6.66
233.56	-41.47
233.777	13.82
233.995	93.69
234.213	159.23
234.43	73.21
234.648	97.79
234.865	67.07
235.083	60.93
235.3	34.3
235.518	146.94
235.735	44.54
235.953	40.45
236.17	26.11
236.388	-25.09
236.605	44.54
236.822	28.16
237.04	7.68
237.257	7.68
237.475	32.26
237.692	65.02
237.909	-10.75
238.127	81.41
238.344	-12.8
238.562	9.73
238.779	-37.38
238.996	-25.09
239.214	-14.85
239.431	73.21
239.648	32.26
239.865	69.12
240.083	136.7
240.3	3.58
240.517	40.45
240.735	36.35
240.952	91.65
241.169	77.31
241.386	36.35
241.603	54.78
241.821	1.54
242.038	52.74
242.255	52.74
242.472	1.54
242.689	62.98
242.907	83.45
243.124	50.69
243.341	79.36
243.558	-2.56
243.775	-74.24
243.992	44.54
244.209	36.35
244.426	99.84
244.643	60.93
244.86	32.26
245.078	67.07
245.295	89.6
245.512	38.4
245.729	-23.04
245.946	28.16
246.163	-2.56
246.38	46.59
246.597	30.21
246.814	42.5
247.031	3.58
247.248	69.12
247.464	112.13
247.681	40.45
247.898	93.69
248.115	52.74
248.332	69.12
248.549	15.87
248.766	93.69
248.983	42.5
249.2	11.78
249.417	103.93
249.633	7.68
249.85	48.64
250.067	26.11
250.284	54.78
250.501	83.45
250.717	91.65
250.934	46.59
251.151	95.74
251.368	-12.8
251.585	87.55
251.801	30.21
252.018	26.11
252.235	126.46
252.451	9.73
252.668	-10.75
252.885	13.82
253.102	87.55
253.318	-47.62
253.535	-55.81
253.752	9.73
253.968	46.59
254.185	1.54
254.401	24.06
254.618	40.45
254.835	56.83
255.051	112.13
255.268	114.17
255.484	9.73
255.701	65.02
255.917	48.64
256.134	89.6
256.351	-6.66
256.567	24.06
256.784	73.21
257	-49.66
257.217	71.17
257.433	46.59
257.65	30.21
257.866	50.69
258.082	19.97
258.299	-8.7
258.515	17.92
258.732	26.11
258.948	89.6
259.165	91.65
259.381	34.3
259.597	3.58
259.814	65.02
260.03	-14.85
260.246	17.92
260.463	17.92
260.679	136.7
260.895	5.63
261.112	22.02
261.328	9.73
261.544	26.11
261.761	134.65
261.977	-4.61
262.193	-70.14
262.409	13.82
262.626	118.27
262.842	75.26
263.058	89.6
263.274	50.69
263.49	34.3
263.707	85.5
263.923	44.54
264.139	34.3
264.355	36.35
264.571	91.65
264.787	15.87
265.004	99.84
265.22	34.3
265.436	79.36
265.652	-8.7
265.868	120.32
266.084	-0.51
266.3	73.21
266.516	42.5
266.732	69.12
266.948	52.74
267.164	77.31
267.38	114.17
267.596	42.5
267.812	56.83
268.028	87.55
268.244	3.58
268.46	32.26
268.676	30.21
268.892	48.64
269.108	13.82
269.324	-23.04
269.54	15.87
269.756	62.98
269.972	71.17
270.188	-16.9
270.403	32.26
270.619	9.73
270.835	-25.09
271.051	44.54
271.267	1.54
271.483	36.35
271.698	85.5
271.914	-37.38
272.13	48.64
272.346	24.06
272.562	19.97
272.777	58.88
272.993	-41.47
273.209	103.93
273.425	24.06
273.64	19.97
273.856	-6.66
274.072	38.4
274.287	69.12
274.503	95.74
274.719	99.84
274.934	22.02
275.15	9.73
275.366	34.3
275.581	46.59
275.797	-47.62
276.012	26.11
276.228	3.58
276.444	103.93
276.659	95.74
276.875	13.82
277.09	99.84
277.306	50.69
277.521	134.65
277.737	22.02
277.952	50.69
278.168	48.64
278.383	32.26
278.599	-35.33
278.814	22.02
279.03	-0.51
279.245	103.93
279.461	19.97
279.676	69.12
279.892	-16.9
280.107	36.35
280.322	3.58
280.538	54.78
280.753	11.78
280.969	-14.85
281.184	103.93
281.399	126.46
281.615	54.78
281.83	22.02
282.045	34.3
282.26	-6.66
282.476	26.11
282.691	71.17
282.906	79.36
283.122	22.02
283.337	-10.75
283.552	34.3
283.767	7.68
283.983	30.21
284.198	87.55
284.413	42.5
284.628	-10.75
284.843	5.63
285.058	17.92
285.274	9.73
285.489	40.45
285.704	116.22
285.919	93.69
286.134	-18.94
286.349	36.35
286.564	36.35
286.779	-18.94
286.995	32.26
287.21	24.06
287.425	60.93
287.64	-12.8
287.855	58.88
288.07	-4.61
288.285	58.88
288.5	48.64
288.715	26.11
288.93	36.35
289.145	-31.23
289.36	146.94
289.575	3.58
289.79	85.5
290.004	30.21
290.219	56.83
290.434	7.68
290.649	-10.75
290.864	60.93
291.079	24.06
291.294	44.54
291.509	151.04
291.724	58.88
291.938	71.17
292.153	-14.85
292.368	95.74
292.583	22.02
292.798	34.3
293.012	-16.9
293.227	-66.05
293.442	99.84
293.657	24.06
293.871	73.21
294.086	-45.57
294.301	62.98
294.516	79.36
294.73	15.87
294.945	11.78
295.16	7.68
295.374	99.84
295.589	-43.52
295.804	46.59
296.018	50.69
296.233	69.12
296.447	60.93
296.662	-20.99
296.877	-6.66
297.091	54.78
297.306	81.41
297.52	67.07
297.735	65.02
297.949	17.92
298.164	28.16
298.378	-20.99
298.593	50.69
298.807	9.73
299.022	65.02
299.236	65.02
299.451	65.02
299.665	67.07
299.88	30.21
300.094	32.26
300.309	60.93
300.523	32.26
300.737	36.35
300.952	75.26
301.166	89.6
301.381	19.97
301.595	65.02
301.809	13.82
302.024	67.07
302.238	24.06
302.452	83.45
302.667	67.07
302.881	103.93
303.095	71.17
303.309	105.98
303.524	-47.62
303.738	-10.75
303.952	40.45
304.166	67.07
304.381	5.63
304.595	-33.28
304.809	-23.04
305.023	22.02
305.237	-37.38
305.452	-0.51
305.666	-8.7
305.88	101.89
306.094	58.88
306.308	62.98
306.522	48.64
306.736	30.21
306.95	71.17
307.164	52.74
307.379	11.78
307.593	103.93
307.807	44.54
308.021	38.4
308.235	24.06
308.449	-4.61
308.663	-0.51
308.877	138.75
309.091	3.58
309.305	56.83
309.519	-8.7
309.733	67.07
309.947	15.87
310.161	30.21
310.374	114.17
310.588	28.16
310.802	-12.8
311.016	11.78
311.23	77.31
311.444	44.54
311.658	13.82
311.872	71.17
312.085	52.74
312.299	40.45
312.513	112.13
312.727	28.16
312.941	52.74
313.154	73.21
313.368	-6.66
313.582	1.54
313.796	112.13
314.009	128.51
314.223	67.07
314.437	22.02
314.651	95.74
314.864	-49.66
315.078	32.26
315.292	-16.9
315.505	52.74
315.719	77.31
315.933	46.59
316.146	56.83
316.36	65.02
316.573	97.79
316.787	62.98
317.001	26.11
317.214	-2.56
317.428	69.12
317.641	5.63
317.855	75.26
318.068	138.75
318.282	75.26
318.495	50.69
318.709	26.11
318.922	67.07
319.136	58.88
319.349	91.65
319.563	62.98
319.776	77.31
319.99	79.36
320.203	38.4
320.417	13.82
320.63	83.45
320.843	17.92
321.057	85.5
321.27	13.82
321.483	134.65
321.697	81.41
321.91	79.36
322.124	13.82
322.337	28.16
322.55	24.06
322.763	65.02
322.977	73.21
323.19	34.3
323.403	83.45
323.617	54.78
323.83	79.36
324.043	108.03
324.256	54.78
324.469	-43.52
324.683	79.36
324.896	30.21
325.109	46.59
325.322	-61.95
325.535	163.33
325.748	48.64
325.962	60.93
326.175	13.82
326.388	48.64
326.601	95.74
326.814	50.69
327.027	65.02
327.24	108.03
327.453	13.82
327.666	56.83
327.879	108.03
328.092	134.65
328.305	56.83
328.518	50.69
328.731	42.5
328.944	99.84
329.157	38.4
329.37	22.02
329.583	112.13
329.796	58.88
330.009	24.06
330.222	44.54
330.435	75.26
330.648	32.26
330.861	62.98
331.073	75.26
331.286	93.69
331.499	-4.61
331.712	67.07
331.925	81.41
332.138	69.12
332.35	87.55
332.563	5.63
332.776	120.32
332.989	91.65
333.202	112.13
333.414	142.85
333.627	7.68
333.84	-20.99
334.053	38.4
334.265	7.68
334.478	54.78
334.691	85.5
334.903	24.06
335.116	38.4
335.329	38.4
335.541	73.21
335.754	120.32
335.966	30.21
336.179	9.73
336.392	46.59
336.604	97.79
336.817	1.54
337.029	-2.56
337.242	44.54
337.454	46.59
337.667	5.63
337.88	40.45
338.092	36.35
338.305	-35.33
338.517	15.87
338.729	91.65
338.942	77.31
339.154	36.35
339.367	48.64
339.579	32.26
339.792	19.97
340.004	77.31
340.217	50.69
340.429	79.36
340.641	5.63
340.854	-2.56
341.066	42.5
341.278	46.59
341.491	26.11
341.703	48.64
341.915	-27.14
342.128	69.12
342.34	73.21
342.552	44.54
342.764	42.5
342.977	58.88
343.189	9.73
343.401	46.59
343.613	54.78
343.826	73.21
344.038	34.3
344.25	93.69
344.462	-10.75
344.674	60.93
344.886	40.45
345.099	26.11
345.311	54.78
345.523	26.11
345.735	-2.56
345.947	71.17
346.159	56.83
346.371	36.35
346.583	77.31
346.795	95.74
347.007	52.74
347.219	114.17
347.431	40.45
347.643	120.32
347.855	120.32
348.067	118.27
348.279	-8.7
348.491	1.54
348.703	-53.76
348.915	48.64
349.127	73.21
349.339	-0.51
349.551	28.16
349.763	-20.99
349.975	-12.8
350.187	91.65
350.399	108.03
350.61	58.88
350.822	26.11
351.034	83.45
351.246	15.87
351.458	83.45
351.669	75.26
351.881	110.08
352.093	85.5
352.305	126.46
352.517	75.26
352.728	120.32
352.94	36.35
353.152	44.54
353.363	26.11
353.575	62.98
353.787	134.65
353.999	79.36
354.21	91.65
354.422	50.69
354.633	36.35
354.845	79.36
355.057	95.74
355.268	32.26
355.48	42.5
355.692	-14.85
355.903	5.63
356.115	91.65
356.326	30.21
356.538	58.88
356.749	71.17
356.961	91.65
357.172	24.06
357.384	69.12
357.595	75.26
357.807	28.16
358.018	52.74
358.23	56.83
358.441	101.89
358.653	114.17
358.864	79.36
359.075	83.45
359.287	-6.66
359.498	91.65
359.709	48.64
359.921	40.45
360.132	91.65
360.344	22.02
360.555	183.81
360.766	62.98
360.977	24.06
361.189	99.84
361.4	-14.85
361.611	9.73
361.823	91.65
362.034	73.21
362.245	34.3
362.456	30.21
362.667	124.41
362.879	87.55
363.09	79.36
363.301	67.07
363.512	62.98
363.723	58.88
363.935	11.78
364.146	40.45
364.357	77.31
364.568	48.64
364.779	7.68
364.99	32.26
365.201	7.68
365.412	101.89
365.623	40.45
365.834	48.64
366.045	71.17
366.256	112.13
366.467	71.17
366.678	30.21
366.889	89.6
367.1	56.83
367.311	69.12
367.522	46.59
367.733	5.63
367.944	67.07
368.155	93.69
368.366	99.84
368.577	65.02
368.788	67.07
368.999	11.78
369.209	34.3
369.42	89.6
369.631	118.27
369.842	108.03
370.053	42.5
370.264	54.78
370.474	71.17
370.685	77.31
370.896	87.55
371.107	108.03
371.317	87.55
371.528	40.45
371.739	85.5
371.95	77.31
372.16	40.45
372.371	50.69
372.582	11.78
372.792	67.07
373.003	38.4
373.214	-12.8
373.424	65.02
373.635	42.5
373.846	95.74
374.056	62.98
374.267	54.78
374.477	81.41
374.688	30.21
374.898	34.3
375.109	79.36
375.319	44.54
375.53	112.13
375.74	83.45
375.951	19.97
376.161	79.36
376.372	103.93
376.582	36.35
376.793	148.99
377.003	17.92
377.214	128.51
377.424	69.12
377.635	44.54
377.845	5.63
378.055	73.21
378.266	3.58
378.476	91.65
378.686	-0.51
378.897	60.93
379.107	148.99
379.317	22.02
379.528	126.46
379.738	75.26
379.948	19.97
380.158	79.36
380.369	110.08
380.579	163.33
380.789	50.69
380.999	124.41
381.21	-49.66
381.42	157.18
381.63	-0.51
381.84	54.78
382.05	24.06
382.261	93.69
382.471	44.54
382.681	30.21
382.891	120.32
383.101	50.69
383.311	38.4
383.521	65.02
383.731	26.11
383.941	71.17
384.151	87.55
384.361	-66.05
384.571	48.64
384.781	-16.9
384.991	75.26
385.201	132.61
385.411	36.35
385.621	77.31
385.831	101.89
386.041	15.87
386.251	60.93
386.461	97.79
386.671	65.02
386.881	144.89
387.091	30.21
387.301	97.79
387.511	71.17
387.72	32.26
387.93	52.74
388.14	22.02
388.35	36.35
388.56	71.17
388.769	148.99
388.979	71.17
389.189	15.87
389.399	28.16
389.609	62.98
389.818	48.64
390.028	-4.61
390.238	9.73
390.447	89.6
390.657	77.31
390.867	46.59
391.076	-41.47
391.286	101.89
391.496	56.83
391.705	85.5
391.915	91.65
392.125	101.89
392.334	28.16
392.544	116.22
392.753	120.32
392.963	9.73
393.172	103.93
393.382	36.35
393.591	79.36
393.801	-25.09
394.01	142.85
394.22	124.41
394.429	136.7
394.639	126.46
394.848	101.89
395.058	36.35
395.267	56.83
395.477	50.69
395.686	136.7
395.895	151.04
396.105	222.72
396.314	101.89
396.524	103.93
396.733	130.56
396.942	81.41
397.152	99.84
397.361	132.61
397.57	81.41
397.78	128.51
397.989	124.41
398.198	159.23
398.407	79.36
398.617	42.5
398.826	38.4
399.035	46.59
399.244	151.04
399.453	112.13
399.663	163.33
399.872	220.67
400.081	124.41
400.29	118.27
400.499	44.54
400.708	62.98
400.917	132.61
401.127	44.54
401.336	151.04
401.545	169.47
401.754	32.26
401.963	177.66
402.172	134.65
402.381	97.79
402.59	38.4
402.799	122.37
403.008	75.26
403.217	118.27
403.426	103.93
403.635	118.27
403.844	95.74
404.053	151.04
404.262	153.09
404.471	245.24
404.68	146.94
404.888	122.37
405.097	140.8
405.306	165.37
405.515	177.66
405.724	103.93
405.933	140.8
406.142	116.22
406.35	218.62
406.559	163.33
406.768	177.66
406.977	187.9
407.185	222.72
407.394	134.65
407.603	155.13
407.812	228.86
408.02	228.86
408.229	218.62
408.438	151.04
408.646	247.29
408.855	204.28
409.064	235
409.272	204.28
409.481	302.59
409.69	204.28
409.898	232.96
410.107	280.06
410.315	310.78
410.524	300.54
410.733	237.05
410.941	261.63
411.15	376.31
411.358	357.88
411.567	361.98
411.775	286.2
411.984	316.92
412.192	333.31
412.401	370.17
412.609	445.95
412.818	415.23
413.026	474.62
413.234	427.51
413.443	435.71
413.651	394.75
413.86	466.42
414.068	550.39
414.276	585.21
414.485	474.62
414.693	577.02
414.901	648.69
415.11	611.83
415.318	665.08
415.526	599.54
415.734	718.33
415.943	689.65
416.151	663.03
416.359	638.45
416.567	736.76
416.776	828.92
416.984	767.48
417.192	861.68
417.4	878.07
417.608	787.96
417.817	826.87
418.025	904.69
418.233	867.83
418.441	927.22
418.649	1000.94
418.857	949.75
419.065	1164.78
419.273	1046
419.481	1117.68
419.689	1158.64
419.897	1279.47
420.105	1265.13
420.313	1273.32
420.521	1428.97
420.729	1396.2
420.937	1478.12
421.145	1398.25
421.353	1582.57
421.561	1541.61
421.769	1637.86
421.977	1711.59
422.185	1666.53
422.393	1906.15
422.601	1996.26
422.809	2002.4
423.017	1871.33
423.224	2006.5
423.432	2047.46
423.64	2104.8
423.848	2170.33
424.056	2170.33
424.263	2373.08
424.471	2332.12
424.679	2467.29
424.887	2528.73
425.094	2624.98
425.302	2627.03
425.51	2708.95
425.718	2776.53
425.925	2825.68
426.133	2940.37
426.341	3143.12
426.548	3255.76
426.756	3352.01
426.964	3134.93
427.171	3435.98
427.379	3579.34
427.586	3565
427.794	3673.54
428.001	3872.2
428.209	4261.31
428.417	3962.31
428.624	4373.95
428.832	4498.88
429.039	4330.94
429.247	4173.25
429.454	4595.13
429.662	5025.2
429.869	4623.8
430.076	4992.44
430.284	4867.51
430.491	5117.36
430.699	5332.4
430.906	5207.47
431.114	5442.99
431.321	5668.27
431.528	5635.5
431.736	6127.01
431.943	6383.01
432.15	6264.22
432.358	6264.22
432.565	6542.75
432.772	6528.41
432.979	7087.51
433.187	7103.89
433.394	7097.75
433.601	7572.88
433.808	7609.74
434.016	7564.68
434.223	7906.7
434.43	8308.1
434.637	8211.84
434.844	8854.9
435.052	8871.29
435.259	8844.67
435.466	9102.71
435.673	8811.9
435.88	9520.49
436.087	10022.25
436.294	9860.46
436.501	9749.87
436.708	9917.8
436.915	10257.76
437.122	10804.57
437.329	10612.06
437.537	10992.98
437.743	11457.87
437.95	11208.02
438.157	11666.77
438.364	12070.22
438.571	12143.94
438.778	12027.21
438.985	13425.97
439.192	12870.97
439.399	13260.09
439.606	12803.39
439.813	13575.47
440.02	14404.9
440.227	14138.66
440.433	14083.37
440.64	14685.47
440.847	14495.01
441.054	14837.02
441.261	15566.1
441.467	15639.83
441.674	16098.57
441.881	16473.35
442.088	16499.97
442.294	16628.99
442.501	17038.59
442.708	17212.67
442.914	17634.55
443.121	18666.72
443.328	18035.95
443.534	18996.45
443.741	18625.76
443.948	18310.38
444.154	19893.46
444.361	19715.28
444.568	19811.54
444.774	19862.74
444.981	20251.85
445.187	20841.67
445.394	21476.54
445.6	21064.89
445.807	23227.55
446.013	22377.64
446.22	22842.53
446.426	23698.58
446.633	23784.6
446.839	24996.99
447.046	23614.62
447.252	25150.59
447.459	25017.47
447.665	25076.87
447.871	26096.75
448.078	27434.08
448.284	25846.9
448.491	26256.5
448.697	27552.86
448.903	28179.54
449.11	28275.79
449.316	27954.26
449.522	28261.46
449.728	29152.32
449.935	29355.07
450.141	29092.93
450.347	30010.42
450.553	28974.15
450.76	29066.31
450.966	30544.94
451.172	29828.15
451.378	30616.62
451.584	30055.48
451.791	30819.37
451.997	30905.38
452.203	31323.17
452.409	31626.27
452.615	31030.31
452.821	30008.37
453.027	29637.69
453.233	31409.18
453.44	30225.46
453.646	30282.8
453.852	30442.54
454.058	31278.11
454.264	29948.98
454.47	30669.87
454.676	29811.77
454.882	30733.36
455.088	28300.37
455.294	28863.56
455.5	29197.38
455.705	29318.21
455.911	28079.19
456.117	27870.29
456.323	27452.51
456.529	25906.29
456.735	27118.69
456.941	26397.81
457.147	25939.06
457.352	25103.49
457.558	24628.36
457.764	24786.05
457.97	24423.56
458.176	23653.53
458.381	23784.6
458.587	22598.82
458.793	22445.23
458.999	21673.14
459.204	22951.07
459.41	22312.11
459.616	21021.89
459.821	20700.36
460.027	20790.47
460.233	20747.46
460.438	19496.15
460.644	19723.48
460.85	18398.44
461.055	18386.15
461.261	18312.42
461.466	16850.17
461.672	16606.47
461.878	17683.7
462.083	16661.76
462.289	16106.76
462.494	16153.87
462.7	15365.4
462.905	14847.26
463.111	15365.4
463.316	15224.09
463.522	15349.01
463.727	15099.16
463.932	15084.83
464.138	14667.04
464.343	15109.4
464.549	14701.86
464.754	15152.41
464.959	15011.1
465.165	14847.26
465.37	14017.83
465.575	13751.6
465.781	14413.09
465.986	14398.76
466.191	14144.81
466.397	13851.95
466.602	13036.86
466.807	13475.12
467.012	13540.66
467.218	13442.35
