Data from USB4F104151__52__12-24-01-538.txt Node

Date: Fri Mar 14 12:24:01 EDT 2025
User: louis
Spectrometer: USB4F10415
Trigger mode: 4
Integration Time (sec): 3.500000E-2
Scans to average: 1
Electric dark correction enabled: true
Nonlinearity correction enabled: false
Boxcar width: 0
XAxis mode: Wavelengths
Number of Pixels in Spectrum: 3648
>>>>>Begin Spectral Data<<<<<
178.204	-132.61
178.424	-132.61
178.644	-132.61
178.864	-151.04
179.084	-101.89
179.304	2.56
179.524	-34.3
179.744	-40.45
179.964	35.33
180.184	6.66
180.404	33.28
180.624	-15.87
180.844	20.99
181.064	-30.21
181.283	20.99
181.503	-52.74
181.723	53.76
181.943	-36.35
182.163	64
182.383	59.9
182.602	45.57
182.822	68.09
183.042	102.91
183.262	6.66
183.482	20.99
183.701	64
183.921	72.19
184.141	37.38
184.361	25.09
184.58	78.33
184.8	14.85
185.02	8.7
185.239	51.71
185.459	49.66
185.679	68.09
185.898	6.66
186.118	96.77
186.338	78.33
186.557	41.47
186.777	0.51
186.997	94.72
187.216	88.57
187.436	96.77
187.655	43.52
187.875	61.95
188.095	-3.58
188.314	102.91
188.534	113.15
188.753	72.19
188.973	6.66
189.192	88.57
189.412	72.19
189.631	51.71
189.851	78.33
190.07	43.52
190.29	-48.64
190.509	41.47
190.729	-1.54
190.948	96.77
191.168	111.1
191.387	37.38
191.607	27.14
191.826	47.62
192.045	6.66
192.265	-44.54
192.484	23.04
192.704	66.05
192.923	-42.5
193.142	49.66
193.362	154.11
193.581	150.01
193.8	18.94
194.02	55.81
194.239	-17.92
194.458	111.1
194.678	-52.74
194.897	57.86
195.116	4.61
195.335	45.57
195.555	-1.54
195.774	4.61
195.993	66.05
196.212	-50.69
196.432	45.57
196.651	-1.54
196.87	37.38
197.089	31.23
197.308	49.66
197.528	31.23
197.747	-30.21
197.966	43.52
198.185	92.67
198.404	-13.82
198.623	127.49
198.842	82.43
199.062	49.66
199.281	33.28
199.5	12.8
199.719	66.05
199.938	57.86
200.157	57.86
200.376	92.67
200.595	43.52
200.814	68.09
201.033	51.71
201.252	45.57
201.471	31.23
201.69	10.75
201.909	10.75
202.128	6.66
202.347	47.62
202.566	37.38
202.785	8.7
203.004	-7.68
203.223	162.3
203.442	33.28
203.661	61.95
203.879	82.43
204.098	115.2
204.317	20.99
204.536	33.28
204.755	115.2
204.974	-3.58
205.193	102.91
205.411	115.2
205.63	49.66
205.849	49.66
206.068	6.66
206.287	61.95
206.505	53.76
206.724	10.75
206.943	-30.21
207.162	35.33
207.381	35.33
207.599	59.9
207.818	92.67
208.037	25.09
208.255	-34.3
208.474	70.14
208.693	-32.26
208.911	-30.21
209.13	107.01
209.349	61.95
209.567	111.1
209.786	29.18
210.005	55.81
210.223	23.04
210.442	-15.87
210.661	47.62
210.879	27.14
211.098	90.62
211.316	49.66
211.535	43.52
211.753	55.81
211.972	107.01
212.191	2.56
212.409	20.99
212.628	88.57
212.846	31.23
213.065	10.75
213.283	33.28
213.502	16.9
213.72	-7.68
213.938	98.81
214.157	37.38
214.375	37.38
214.594	14.85
214.812	66.05
215.031	-15.87
215.249	86.53
215.467	55.81
215.686	45.57
215.904	64
216.122	61.95
216.341	57.86
216.559	94.72
216.778	68.09
216.996	94.72
217.214	8.7
217.432	12.8
217.651	-7.68
217.869	16.9
218.087	53.76
218.306	59.9
218.524	72.19
218.742	33.28
218.96	61.95
219.179	39.42
219.397	10.75
219.615	160.25
219.833	115.2
220.051	10.75
220.27	68.09
220.488	78.33
220.706	18.94
220.924	29.18
221.142	20.99
221.36	86.53
221.578	113.15
221.796	-1.54
222.015	45.57
222.233	-11.78
222.451	100.86
222.669	-15.87
222.887	156.16
223.105	6.66
223.323	31.23
223.541	18.94
223.759	-1.54
223.977	45.57
224.195	68.09
224.413	70.14
224.631	115.2
224.849	84.48
225.067	80.38
225.285	-48.64
225.503	27.14
225.721	-26.11
225.939	92.67
226.157	16.9
226.375	190.97
226.592	2.56
226.81	68.09
227.028	74.24
227.246	68.09
227.464	25.09
227.682	123.39
227.9	53.76
228.117	104.96
228.335	131.58
228.553	-13.82
228.771	74.24
228.989	-65.02
229.206	12.8
229.424	43.52
229.642	117.25
229.86	-42.5
230.077	152.06
230.295	33.28
230.513	84.48
230.731	86.53
230.948	80.38
231.166	121.34
231.384	61.95
231.601	0.51
231.819	39.42
232.037	18.94
232.254	18.94
232.472	18.94
232.689	33.28
232.907	109.05
233.125	33.28
233.342	27.14
233.56	0.51
233.777	23.04
233.995	33.28
234.213	109.05
234.43	51.71
234.648	16.9
234.865	111.1
235.083	43.52
235.3	43.52
235.518	-28.16
235.735	-1.54
235.953	74.24
236.17	104.96
236.388	4.61
236.605	-11.78
236.822	74.24
237.04	45.57
237.257	31.23
237.475	35.33
237.692	49.66
237.909	57.86
238.127	100.86
238.344	121.34
238.562	88.57
238.779	-7.68
238.996	-7.68
239.214	29.18
239.431	55.81
239.648	-24.06
239.865	55.81
240.083	-42.5
240.3	4.61
240.517	-30.21
240.735	-1.54
240.952	109.05
241.169	74.24
241.386	-13.82
241.603	64
241.821	51.71
242.038	41.47
242.255	59.9
242.472	41.47
242.689	86.53
242.907	84.48
243.124	88.57
243.341	66.05
243.558	-11.78
243.775	-24.06
243.992	6.66
244.209	59.9
244.426	96.77
244.643	29.18
244.86	33.28
245.078	31.23
245.295	12.8
245.512	35.33
245.729	27.14
245.946	64
246.163	-22.02
246.38	29.18
246.597	-11.78
246.814	92.67
247.031	18.94
247.248	68.09
247.464	90.62
247.681	61.95
247.898	129.53
248.115	92.67
248.332	78.33
248.549	14.85
248.766	156.16
248.983	39.42
249.2	117.25
249.417	-13.82
249.633	8.7
249.85	78.33
250.067	80.38
250.284	27.14
250.501	84.48
250.717	90.62
250.934	-73.21
251.151	37.38
251.368	51.71
251.585	76.29
251.801	43.52
252.018	20.99
252.235	88.57
252.451	74.24
252.668	127.49
252.885	25.09
253.102	8.7
253.318	55.81
253.535	-1.54
253.752	-19.97
253.968	10.75
254.185	35.33
254.401	49.66
254.618	45.57
254.835	27.14
255.051	131.58
255.268	92.67
255.484	31.23
255.701	39.42
255.917	84.48
256.134	-36.35
256.351	61.95
256.567	18.94
256.784	111.1
257	-9.73
257.217	55.81
257.433	86.53
257.65	76.29
257.866	23.04
258.082	53.76
258.299	25.09
258.515	-7.68
258.732	33.28
258.948	39.42
259.165	61.95
259.381	-7.68
259.597	-22.02
259.814	107.01
260.03	14.85
260.246	72.19
260.463	8.7
260.679	41.47
260.895	18.94
261.112	100.86
261.328	-19.97
261.544	8.7
261.761	78.33
261.977	35.33
262.193	-11.78
262.409	100.86
262.626	55.81
262.842	68.09
263.058	-17.92
263.274	86.53
263.49	45.57
263.707	51.71
263.923	14.85
264.139	-50.69
264.355	49.66
264.571	102.91
264.787	66.05
265.004	127.49
265.22	76.29
265.436	64
265.652	8.7
265.868	133.63
266.084	-7.68
266.3	72.19
266.516	-5.63
266.732	49.66
266.948	90.62
267.164	29.18
267.38	94.72
267.596	92.67
267.812	141.82
268.028	18.94
268.244	-38.4
268.46	29.18
268.676	12.8
268.892	66.05
269.108	23.04
269.324	-3.58
269.54	-5.63
269.756	100.86
269.972	-9.73
270.188	43.52
270.403	78.33
270.619	-44.54
270.835	78.33
271.051	84.48
271.267	23.04
271.483	53.76
271.698	-3.58
271.914	111.1
272.13	31.23
272.346	31.23
272.562	-22.02
272.777	115.2
272.993	23.04
273.209	29.18
273.425	37.38
273.64	10.75
273.856	57.86
274.072	41.47
274.287	61.95
274.503	80.38
274.719	96.77
274.934	20.99
275.15	39.42
275.366	68.09
275.581	66.05
275.797	55.81
276.012	66.05
276.228	92.67
276.444	27.14
276.659	154.11
276.875	37.38
277.09	51.71
277.306	-11.78
277.521	92.67
277.737	41.47
277.952	86.53
278.168	72.19
278.383	2.56
278.599	53.76
278.814	102.91
279.03	86.53
279.245	80.38
279.461	64
279.676	25.09
279.892	23.04
280.107	0.51
280.322	43.52
280.538	64
280.753	29.18
280.969	123.39
281.184	41.47
281.399	107.01
281.615	-9.73
281.83	14.85
282.045	37.38
282.26	57.86
282.476	39.42
282.691	23.04
282.906	55.81
283.122	23.04
283.337	68.09
283.552	78.33
283.767	12.8
283.983	49.66
284.198	33.28
284.413	76.29
284.628	20.99
284.843	117.25
285.058	35.33
285.274	80.38
285.489	43.52
285.704	78.33
285.919	-13.82
286.134	-5.63
286.349	51.71
286.564	31.23
286.779	59.9
286.995	70.14
287.21	33.28
287.425	117.25
287.64	27.14
287.855	76.29
288.07	-32.26
288.285	72.19
288.5	92.67
288.715	72.19
288.93	29.18
289.145	66.05
289.36	78.33
289.575	129.53
289.79	14.85
290.004	45.57
290.219	147.97
290.434	59.9
290.649	8.7
290.864	-44.54
291.079	23.04
291.294	64
291.509	74.24
291.724	25.09
291.938	92.67
292.153	31.23
292.368	4.61
292.583	64
292.798	104.96
293.012	61.95
293.227	92.67
293.442	10.75
293.657	94.72
293.871	66.05
294.086	70.14
294.301	147.97
294.516	109.05
294.73	6.66
294.945	-7.68
295.16	53.76
295.374	82.43
295.589	51.71
295.804	86.53
296.018	78.33
296.233	107.01
296.447	25.09
296.662	-7.68
296.877	66.05
297.091	39.42
297.306	27.14
297.52	47.62
297.735	94.72
297.949	51.71
298.164	59.9
298.378	88.57
298.593	82.43
298.807	-13.82
299.022	121.34
299.236	37.38
299.451	47.62
299.665	12.8
299.88	-7.68
300.094	76.29
300.309	80.38
300.523	57.86
300.737	-11.78
300.952	-34.3
301.166	-3.58
301.381	23.04
301.595	78.33
301.809	-9.73
302.024	43.52
302.238	86.53
302.452	47.62
302.667	70.14
302.881	8.7
303.095	88.57
303.309	16.9
303.524	82.43
303.738	33.28
303.952	6.66
304.166	88.57
304.381	-34.3
304.595	102.91
304.809	84.48
305.023	45.57
305.237	-56.83
305.452	100.86
305.666	61.95
305.88	70.14
306.094	107.01
306.308	94.72
306.522	111.1
306.736	111.1
306.95	29.18
307.164	94.72
307.379	6.66
307.593	78.33
307.807	100.86
308.021	88.57
308.235	88.57
308.449	-17.92
308.663	86.53
308.877	115.2
309.091	29.18
309.305	96.77
309.519	-69.12
309.733	86.53
309.947	41.47
310.161	45.57
310.374	61.95
310.588	104.96
310.802	2.56
311.016	43.52
311.23	66.05
311.444	78.33
311.658	107.01
311.872	4.61
312.085	45.57
312.299	86.53
312.513	139.77
312.727	51.71
312.941	-30.21
313.154	59.9
313.368	53.76
313.582	53.76
313.796	47.62
314.009	88.57
314.223	55.81
314.437	72.19
314.651	39.42
314.864	-15.87
315.078	2.56
315.292	-13.82
315.505	-58.88
315.719	8.7
315.933	152.06
316.146	51.71
316.36	39.42
316.573	74.24
316.787	109.05
317.001	98.81
317.214	-24.06
317.428	25.09
317.641	2.56
317.855	86.53
318.068	49.66
318.282	49.66
318.495	59.9
318.709	94.72
318.922	66.05
319.136	162.3
319.349	47.62
319.563	82.43
319.776	39.42
319.99	23.04
320.203	66.05
320.417	70.14
320.63	53.76
320.843	82.43
321.057	59.9
321.27	121.34
321.483	16.9
321.697	111.1
321.91	94.72
322.124	88.57
322.337	98.81
322.55	35.33
322.763	0.51
322.977	-1.54
323.19	8.7
323.403	86.53
323.617	16.9
323.83	47.62
324.043	-3.58
324.256	53.76
324.469	16.9
324.683	80.38
324.896	57.86
325.109	90.62
325.322	-13.82
325.535	49.66
325.748	41.47
325.962	78.33
326.175	-11.78
326.388	45.57
326.601	111.1
326.814	76.29
327.027	82.43
327.24	119.29
327.453	-3.58
327.666	-15.87
327.879	27.14
328.092	10.75
328.305	94.72
328.518	18.94
328.731	86.53
328.944	51.71
329.157	51.71
329.37	57.86
329.583	129.53
329.796	113.15
330.009	2.56
330.222	170.49
330.435	76.29
330.648	74.24
330.861	25.09
331.073	90.62
331.286	-3.58
331.499	45.57
331.712	45.57
331.925	100.86
332.138	100.86
332.35	131.58
332.563	53.76
332.776	131.58
332.989	78.33
333.202	96.77
333.414	37.38
333.627	33.28
333.84	29.18
334.053	-5.63
334.265	18.94
334.478	-36.35
334.691	57.86
334.903	16.9
335.116	8.7
335.329	45.57
335.541	64
335.754	90.62
335.966	20.99
336.179	94.72
336.392	61.95
336.604	25.09
336.817	51.71
337.029	102.91
337.242	41.47
337.454	170.49
337.667	68.09
337.88	141.82
338.092	33.28
338.305	53.76
338.517	39.42
338.729	88.57
338.942	72.19
339.154	-40.45
339.367	49.66
339.579	33.28
339.792	23.04
340.004	61.95
340.217	-26.11
340.429	12.8
340.641	70.14
340.854	-11.78
341.066	51.71
341.278	125.44
341.491	166.4
341.703	23.04
341.915	47.62
342.128	150.01
342.34	64
342.552	18.94
342.764	80.38
342.977	121.34
343.189	98.81
343.401	72.19
343.613	4.61
343.826	29.18
344.038	-19.97
344.25	45.57
344.462	82.43
344.674	102.91
344.886	27.14
345.099	78.33
345.311	-5.63
345.523	8.7
345.735	37.38
345.947	115.2
346.159	66.05
346.371	37.38
346.583	88.57
346.795	96.77
347.007	66.05
347.219	84.48
347.431	12.8
347.643	96.77
347.855	94.72
348.067	64
348.279	2.56
348.491	121.34
348.703	76.29
348.915	10.75
349.127	8.7
349.339	47.62
349.551	74.24
349.763	70.14
349.975	115.2
350.187	4.61
350.399	25.09
350.61	31.23
350.822	53.76
351.034	68.09
351.246	98.81
351.458	70.14
351.669	49.66
351.881	104.96
352.093	96.77
352.305	129.53
352.517	47.62
352.728	100.86
352.94	72.19
353.152	-22.02
353.363	16.9
353.575	49.66
353.787	86.53
353.999	55.81
354.21	154.11
354.422	57.86
354.633	64
354.845	51.71
355.057	-17.92
355.268	64
355.48	111.1
355.692	6.66
355.903	29.18
356.115	-19.97
356.326	-11.78
356.538	59.9
356.749	84.48
356.961	107.01
357.172	25.09
357.384	53.76
357.595	180.73
357.807	6.66
358.018	4.61
358.23	86.53
358.441	100.86
358.653	82.43
358.864	23.04
359.075	25.09
359.287	66.05
359.498	109.05
359.709	72.19
359.921	53.76
360.132	127.49
360.344	64
360.555	29.18
360.766	104.96
360.977	16.9
361.189	129.53
361.4	27.14
361.611	90.62
361.823	76.29
362.034	12.8
362.245	18.94
362.456	66.05
362.667	88.57
362.879	-71.17
363.09	123.39
363.301	70.14
363.512	68.09
363.723	59.9
363.935	-5.63
364.146	27.14
364.357	57.86
364.568	92.67
364.779	18.94
364.99	72.19
365.201	90.62
365.412	166.4
365.623	-15.87
365.834	117.25
366.045	35.33
366.256	72.19
366.467	86.53
366.678	-19.97
366.889	107.01
367.1	111.1
367.311	70.14
367.522	8.7
367.733	43.52
367.944	49.66
368.155	76.29
368.366	68.09
368.577	115.2
368.788	90.62
368.999	47.62
369.209	64
369.42	129.53
369.631	104.96
369.842	109.05
370.053	90.62
370.264	133.63
370.474	51.71
370.685	29.18
370.896	2.56
371.107	14.85
371.317	47.62
371.528	41.47
371.739	147.97
371.95	100.86
372.16	90.62
372.371	-9.73
372.582	25.09
372.792	82.43
373.003	98.81
373.214	111.1
373.424	152.06
373.635	121.34
373.846	35.33
374.056	55.81
374.267	72.19
374.477	-60.93
374.688	100.86
374.898	100.86
375.109	145.92
375.319	55.81
375.53	64
375.74	70.14
375.951	98.81
376.161	111.1
376.372	74.24
376.582	47.62
376.793	10.75
377.003	47.62
377.214	18.94
377.424	39.42
377.635	16.9
377.845	82.43
378.055	150.01
378.266	47.62
378.476	29.18
378.686	68.09
378.897	129.53
379.107	76.29
379.317	111.1
379.528	90.62
379.738	98.81
379.948	-52.74
380.158	129.53
380.369	66.05
380.579	33.28
380.789	72.19
380.999	41.47
381.21	59.9
381.42	121.34
381.63	47.62
381.84	121.34
382.05	96.77
382.261	109.05
382.471	107.01
382.681	55.81
382.891	121.34
383.101	119.29
383.311	51.71
383.521	10.75
383.731	109.05
383.941	145.92
384.151	92.67
384.361	0.51
384.571	102.91
384.781	139.77
384.991	143.87
385.201	90.62
385.411	129.53
385.621	80.38
385.831	66.05
386.041	90.62
386.251	123.39
386.461	107.01
386.671	82.43
386.881	109.05
387.091	107.01
387.301	59.9
387.511	53.76
387.72	145.92
387.93	78.33
388.14	31.23
388.35	131.58
388.56	119.29
388.769	154.11
388.979	23.04
389.189	25.09
389.399	158.21
389.609	68.09
389.818	115.2
390.028	51.71
390.238	64
390.447	47.62
390.657	109.05
390.867	33.28
391.076	96.77
391.286	92.67
391.496	76.29
391.705	119.29
391.915	141.82
392.125	88.57
392.334	57.86
392.544	92.67
392.753	88.57
392.963	23.04
393.172	123.39
393.382	80.38
393.591	180.73
393.801	78.33
394.01	94.72
394.22	129.53
394.429	59.9
394.639	170.49
394.848	156.16
395.058	113.15
395.267	76.29
395.477	25.09
395.686	121.34
395.895	160.25
396.105	152.06
396.314	74.24
396.524	125.44
396.733	39.42
396.942	168.45
397.152	211.45
397.361	182.78
397.57	164.35
397.78	178.69
397.989	139.77
398.198	248.32
398.407	96.77
398.617	90.62
398.826	88.57
399.035	176.64
399.244	186.88
399.453	162.3
399.663	127.49
399.872	215.55
400.081	141.82
400.29	186.88
400.499	125.44
400.708	182.78
400.917	109.05
401.127	158.21
401.336	70.14
401.545	213.5
401.754	184.83
401.963	137.73
402.172	111.1
402.381	53.76
402.59	180.73
402.799	100.86
403.008	197.12
403.217	139.77
403.426	207.36
403.635	211.45
403.844	154.11
404.053	227.84
404.262	160.25
404.471	225.79
404.68	248.32
404.888	164.35
405.097	250.36
405.306	236.03
405.515	356.86
405.724	244.22
405.933	197.12
406.142	244.22
406.35	268.8
406.559	236.03
406.768	225.79
406.977	307.71
407.185	270.84
407.394	305.66
407.603	227.84
407.812	305.66
408.02	340.47
408.229	350.71
408.438	326.14
408.646	301.56
408.855	311.8
409.064	313.85
409.272	387.58
409.481	465.4
409.69	307.71
409.898	449.02
410.107	451.07
410.315	414.2
410.524	438.78
410.733	489.98
410.941	453.11
411.15	526.84
411.358	647.67
411.567	569.85
411.775	543.22
411.984	528.89
412.192	598.52
412.401	547.32
412.609	686.58
412.818	651.77
413.026	756.21
413.234	645.62
413.443	723.44
413.651	682.49
413.86	756.21
414.068	829.94
414.276	819.7
414.485	846.32
414.693	797.17
414.901	1024.5
415.11	997.87
415.318	942.58
415.526	1038.83
415.734	1063.41
415.943	1096.18
416.151	1094.13
416.359	1034.74
416.567	1184.24
416.776	1276.4
416.984	1315.31
417.192	1438.19
417.4	1354.22
417.608	1366.51
417.817	1378.79
418.025	1427.95
418.233	1665.51
418.441	1479.15
418.649	1636.84
418.857	1710.57
419.065	1907.17
419.273	1751.53
419.481	1974.75
419.689	1937.89
419.897	2130.4
420.105	2101.73
420.313	2161.12
420.521	2240.99
420.729	2255.33
420.937	2273.76
421.145	2380.25
421.353	2628.06
421.561	2687.45
421.769	2806.23
421.977	2818.52
422.185	2871.76
422.393	2939.35
422.601	3295.69
422.809	3133.9
423.017	3162.58
423.224	3441.1
423.432	3475.91
423.64	3365.32
423.848	3695.05
424.056	3625.42
424.263	3742.15
424.471	3983.81
424.679	4057.54
424.887	4344.25
425.094	4313.53
425.302	4370.88
425.51	4663.74
425.718	4716.98
425.925	4817.33
426.133	5032.37
426.341	5286.32
426.548	5444.01
426.756	5476.78
426.964	5530.03
427.171	5777.83
427.379	5806.5
427.586	6267.3
427.794	6349.22
428.001	6601.12
428.209	6785.43
428.417	6801.82
428.624	7213.46
428.832	7373.2
429.039	7219.6
429.247	7270.8
429.454	7811.46
429.662	8311.17
429.869	7907.72
430.076	8470.91
430.284	8130.95
430.491	8585.6
430.699	9120.12
430.906	9083.25
431.114	9146.74
431.321	9484.66
431.528	9617.77
431.736	10389.86
431.943	10934.62
432.15	10531.17
432.358	10504.54
432.565	11161.94
432.772	11198.81
432.979	11893.07
433.187	12157.25
433.394	12245.32
433.601	13035.83
433.808	12964.15
434.016	12712.25
434.223	13623.6
434.43	14131.5
434.637	14018.86
434.844	14762.27
435.052	15012.12
435.259	15057.18
435.466	15053.08
435.673	15137.05
435.88	16144.65
436.087	16558.34
436.294	16836.86
436.501	16488.71
436.708	16730.37
436.915	17314.04
437.122	17950.96
437.329	18176.23
437.537	18684.13
437.743	18960.61
437.95	18899.17
438.157	19902.67
438.364	20435.14
438.571	20531.4
438.778	20447.43
438.985	22395.05
439.192	21596.34
439.399	22411.43
439.606	21790.9
439.813	23130.27
440.02	24197.26
440.227	23832.72
440.433	23693.46
440.64	24529.03
440.847	24293.52
441.054	25106.56
441.261	26499.18
441.467	25895.03
441.674	26876.01
441.881	27949.14
442.088	27873.37
442.294	27461.72
442.501	28270.67
442.708	28987.46
442.914	29792.31
443.121	31107.11
443.328	30154.8
443.534	32682
443.741	31615.01
443.948	30912.55
444.154	33630.21
444.361	33613.82
444.568	33501.18
444.774	33540.1
444.981	34205.69
445.187	34928.62
445.394	36141.02
445.6	35977.18
445.807	39464.87
446.013	37550.02
446.22	38514.61
446.426	40042.4
446.633	40261.53
446.839	41383.82
447.046	39874.46
447.252	42030.97
447.459	41940.86
447.665	42002.3
447.871	43900.77
448.078	45412.17
448.284	43399.02
448.491	44373.85
448.697	45954.88
448.903	47204.14
449.11	47570.73
449.316	46288.7
449.522	47054.64
449.728	48367.39
449.935	48914.2
450.141	48854.81
450.347	49843.98
450.553	48301.85
450.76	48828.18
450.966	50697.98
451.172	49870.6
451.378	51289.84
451.584	50312.96
451.791	51205.87
451.997	51209.97
452.203	51734.25
452.409	52141.8
452.615	51582.7
452.821	49596.17
453.027	49145.62
453.233	51879.66
453.44	50009.86
453.646	50292.48
453.852	50487.04
454.058	51437.3
454.264	49848.07
454.47	50759.42
454.676	49395.47
454.882	50867.96
455.088	46985.01
455.294	47652.65
455.5	48107.3
455.705	48744.22
455.911	47306.54
456.117	45907.78
456.323	45479.75
456.529	42981.23
456.735	45041.49
456.941	43818.85
457.147	42854.26
457.352	41748.35
457.558	40880.02
457.764	41351.05
457.97	40429.46
458.176	39727.01
458.381	39471.01
458.587	37636.03
458.793	37808.06
458.999	35633.12
459.204	38256.57
459.41	37232.58
459.616	34646
459.821	34826.22
460.027	34682.86
460.233	33677.31
460.438	32149.53
460.644	32743.44
460.85	31453.22
461.055	30586.93
461.261	30601.26
461.466	28325.97
461.672	27560.03
461.878	29444.16
462.083	27404.38
462.289	26908.77
462.494	26691.69
462.7	25579.64
462.905	24801.41
463.111	25342.08
463.316	25669.75
463.522	25104.51
463.727	25389.18
463.932	25221.25
464.138	25090.18
464.343	25032.83
464.549	24219.79
464.754	25079.94
464.959	24694.92
465.165	24735.88
465.37	23449.75
465.575	23210.14
465.781	24000.66
465.986	24154.26
466.191	23437.47
466.397	22829.22
466.602	21674.17
466.807	22419.63
467.012	22970.53
