Data from USB4F104151__68__12-24-14-277.txt Node

Date: Fri Mar 14 12:24:14 EDT 2025
User: louis
Spectrometer: USB4F10415
Trigger mode: 4
Integration Time (sec): 3.500000E-2
Scans to average: 1
Electric dark correction enabled: true
Nonlinearity correction enabled: false
Boxcar width: 0
XAxis mode: Wavelengths
Number of Pixels in Spectrum: 3648
>>>>>Begin Spectral Data<<<<<
178.204	-84.99
178.424	-84.99
178.644	-84.99
178.864	-214.01
179.084	-78.85
179.304	19.46
179.524	-54.27
179.744	-29.7
179.964	23.55
180.184	-25.6
180.404	21.5
180.624	13.31
180.844	21.5
181.064	-64.51
181.283	-13.31
181.503	3.07
181.723	84.99
181.943	-17.41
182.163	35.84
182.383	21.5
182.602	60.42
182.822	136.19
183.042	-11.26
183.262	-33.79
183.482	23.55
183.701	-74.75
183.921	7.17
184.141	1.02
184.361	5.12
184.58	76.8
184.8	21.5
185.02	-5.12
185.239	62.46
185.459	21.5
185.679	5.12
185.898	23.55
186.118	-21.5
186.338	3.07
186.557	37.89
186.777	-84.99
186.997	1.02
187.216	101.37
187.436	56.32
187.655	29.7
187.875	58.37
188.095	56.32
188.314	17.41
188.534	44.03
188.753	-23.55
188.973	60.42
189.192	35.84
189.412	-48.13
189.631	-23.55
189.851	56.32
190.07	35.84
190.29	48.13
190.509	27.65
190.729	-29.7
190.948	82.94
191.168	224.25
191.387	111.61
191.607	54.27
191.826	52.22
192.045	58.37
192.265	-27.65
192.484	37.89
192.704	-13.31
192.923	-52.22
193.142	105.47
193.362	41.98
193.581	13.31
193.8	21.5
194.02	-11.26
194.239	54.27
194.458	35.84
194.678	29.7
194.897	-13.31
195.116	-11.26
195.335	-5.12
195.555	7.17
195.774	52.22
195.993	33.79
196.212	9.22
196.432	44.03
196.651	5.12
196.87	5.12
197.089	140.29
197.308	13.31
197.528	54.27
197.747	9.22
197.966	1.02
198.185	52.22
198.404	23.55
198.623	29.7
198.842	9.22
199.062	66.56
199.281	15.36
199.5	9.22
199.719	17.41
199.938	84.99
200.157	48.13
200.376	-3.07
200.595	58.37
200.814	-1.02
201.033	15.36
201.252	17.41
201.471	29.7
201.69	52.22
201.909	-3.07
202.128	84.99
202.347	21.5
202.566	-5.12
202.785	-50.18
203.004	-50.18
203.223	48.13
203.442	25.6
203.661	27.65
203.879	37.89
204.098	54.27
204.317	9.22
204.536	70.65
204.755	11.26
204.974	23.55
205.193	46.08
205.411	87.04
205.63	11.26
205.849	3.07
206.068	31.74
206.287	-44.03
206.505	46.08
206.724	-11.26
206.943	-48.13
207.162	5.12
207.381	68.61
207.599	-19.46
207.818	9.22
208.037	-3.07
208.255	37.89
208.474	19.46
208.693	82.94
208.911	-25.6
209.13	82.94
209.349	5.12
209.567	-27.65
209.786	48.13
210.005	60.42
210.223	-1.02
210.442	-97.28
210.661	60.42
210.879	29.7
211.098	44.03
211.316	11.26
211.535	29.7
211.753	66.56
211.972	15.36
212.191	23.55
212.409	-33.79
212.628	15.36
212.846	-13.31
213.065	60.42
213.283	82.94
213.502	-35.84
213.72	-7.17
213.938	29.7
214.157	46.08
214.375	1.02
214.594	-44.03
214.812	-15.36
215.031	76.8
215.249	33.79
215.467	76.8
215.686	54.27
215.904	54.27
216.122	35.84
216.341	-37.89
216.559	37.89
216.778	76.8
216.996	15.36
217.214	19.46
217.432	-19.46
217.651	82.94
217.869	-35.84
218.087	35.84
218.306	-1.02
218.524	33.79
218.742	7.17
218.96	48.13
219.179	-7.17
219.397	39.94
219.615	37.89
219.833	13.31
220.051	-17.41
220.27	56.32
220.488	9.22
220.706	37.89
220.924	-87.04
221.142	-9.22
221.36	-21.5
221.578	11.26
221.796	-7.17
222.015	19.46
222.233	-37.89
222.451	87.04
222.669	37.89
222.887	93.18
223.105	-1.02
223.323	50.18
223.541	31.74
223.759	46.08
223.977	31.74
224.195	23.55
224.413	68.61
224.631	39.94
224.849	31.74
225.067	56.32
225.285	-37.89
225.503	48.13
225.721	-76.8
225.939	17.41
226.157	84.99
226.375	109.57
226.592	-15.36
226.81	62.46
227.028	35.84
227.246	39.94
227.464	29.7
227.682	64.51
227.9	21.5
228.117	19.46
228.335	23.55
228.553	-9.22
228.771	1.02
228.989	-64.51
229.206	48.13
229.424	-31.74
229.642	-27.65
229.86	-5.12
230.077	74.75
230.295	9.22
230.513	44.03
230.731	5.12
230.948	125.95
231.166	-7.17
231.384	9.22
231.601	5.12
231.819	50.18
232.037	-3.07
232.254	-19.46
232.472	13.31
232.689	-5.12
232.907	-62.46
233.125	89.09
233.342	-35.84
233.56	15.36
233.777	74.75
233.995	31.74
234.213	95.23
234.43	21.5
234.648	-17.41
234.865	107.52
235.083	37.89
235.3	-62.46
235.518	82.94
235.735	87.04
235.953	78.85
236.17	11.26
236.388	-54.27
236.605	33.79
236.822	62.46
237.04	-7.17
237.257	52.22
237.475	-46.08
237.692	70.65
237.909	3.07
238.127	66.56
238.344	-19.46
238.562	-23.55
238.779	-19.46
238.996	-25.6
239.214	52.22
239.431	37.89
239.648	33.79
239.865	21.5
240.083	39.94
240.3	128
240.517	56.32
240.735	5.12
240.952	68.61
241.169	46.08
241.386	5.12
241.603	13.31
241.821	21.5
242.038	7.17
242.255	-68.61
242.472	-7.17
242.689	58.37
242.907	39.94
243.124	-31.74
243.341	-25.6
243.558	31.74
243.775	-9.22
243.992	3.07
244.209	76.8
244.426	111.61
244.643	-21.5
244.86	21.5
245.078	25.6
245.295	-9.22
245.512	-11.26
245.729	15.36
245.946	52.22
246.163	29.7
246.38	-29.7
246.597	31.74
246.814	33.79
247.031	-27.65
247.248	80.89
247.464	52.22
247.681	1.02
247.898	-21.5
248.115	66.56
248.332	-25.6
248.549	33.79
248.766	80.89
248.983	17.41
249.2	17.41
249.417	76.8
249.633	-5.12
249.85	-15.36
250.067	9.22
250.284	27.65
250.501	-25.6
250.717	7.17
250.934	-66.56
251.151	15.36
251.368	44.03
251.585	52.22
251.801	-1.02
252.018	-15.36
252.235	-23.55
252.451	52.22
252.668	-17.41
252.885	66.56
253.102	-44.03
253.318	7.17
253.535	17.41
253.752	-15.36
253.968	33.79
254.185	-11.26
254.401	11.26
254.618	11.26
254.835	-9.22
255.051	68.61
255.268	17.41
255.484	25.6
255.701	-19.46
255.917	37.89
256.134	-3.07
256.351	46.08
256.567	74.75
256.784	66.56
257	-39.94
257.217	33.79
257.433	64.51
257.65	7.17
257.866	52.22
258.082	-76.8
258.299	37.89
258.515	13.31
258.732	-29.7
258.948	-68.61
259.165	-76.8
259.381	-41.98
259.597	89.09
259.814	5.12
260.03	68.61
260.246	68.61
260.463	56.32
260.679	33.79
260.895	15.36
261.112	58.37
261.328	9.22
261.544	-19.46
261.761	117.76
261.977	-27.65
262.193	-66.56
262.409	136.19
262.626	29.7
262.842	-7.17
263.058	23.55
263.274	9.22
263.49	31.74
263.707	48.13
263.923	54.27
264.139	66.56
264.355	-29.7
264.571	68.61
264.787	66.56
265.004	84.99
265.22	-21.5
265.436	58.37
265.652	-5.12
265.868	25.6
266.084	-1.02
266.3	-5.12
266.516	-17.41
266.732	11.26
266.948	15.36
267.164	33.79
267.38	27.65
267.596	-7.17
267.812	89.09
268.028	44.03
268.244	33.79
268.46	-17.41
268.676	-27.65
268.892	52.22
269.108	-27.65
269.324	5.12
269.54	37.89
269.756	64.51
269.972	-29.7
270.188	78.85
270.403	-52.22
270.619	9.22
270.835	31.74
271.051	7.17
271.267	-29.7
271.483	-35.84
271.698	25.6
271.914	-35.84
272.13	-7.17
272.346	-44.03
272.562	1.02
272.777	-9.22
272.993	15.36
273.209	39.94
273.425	-11.26
273.64	-33.79
273.856	-23.55
274.072	-33.79
274.287	52.22
274.503	5.12
274.719	-41.98
274.934	-31.74
275.15	-1.02
275.366	64.51
275.581	-31.74
275.797	44.03
276.012	56.32
276.228	-21.5
276.444	44.03
276.659	27.65
276.875	-7.17
277.09	35.84
277.306	29.7
277.521	48.13
277.737	-17.41
277.952	-15.36
278.168	103.42
278.383	101.37
278.599	5.12
278.814	-5.12
279.03	62.46
279.245	54.27
279.461	25.6
279.676	64.51
279.892	50.18
280.107	19.46
280.322	11.26
280.538	23.55
280.753	31.74
280.969	105.47
281.184	1.02
281.399	107.52
281.615	78.85
281.83	-58.37
282.045	-23.55
282.26	-21.5
282.476	11.26
282.691	-1.02
282.906	62.46
283.122	9.22
283.337	-21.5
283.552	50.18
283.767	37.89
283.983	23.55
284.198	21.5
284.413	-3.07
284.628	-56.32
284.843	-9.22
285.058	72.7
285.274	25.6
285.489	-21.5
285.704	21.5
285.919	-13.31
286.134	21.5
286.349	-5.12
286.564	84.99
286.779	21.5
286.995	33.79
287.21	-1.02
287.425	84.99
287.64	-3.07
287.855	9.22
288.07	-44.03
288.285	68.61
288.5	74.75
288.715	48.13
288.93	-74.75
289.145	-29.7
289.36	15.36
289.575	13.31
289.79	70.65
290.004	58.37
290.219	101.37
290.434	-41.98
290.649	9.22
290.864	27.65
291.079	17.41
291.294	23.55
291.509	35.84
291.724	31.74
291.938	58.37
292.153	3.07
292.368	-5.12
292.583	13.31
292.798	52.22
293.012	23.55
293.227	64.51
293.442	29.7
293.657	21.5
293.871	117.76
294.086	19.46
294.301	70.65
294.516	29.7
294.73	117.76
294.945	52.22
295.16	-3.07
295.374	23.55
295.589	50.18
295.804	25.6
296.018	31.74
296.233	27.65
296.447	109.57
296.662	9.22
296.877	33.79
297.091	46.08
297.306	52.22
297.52	17.41
297.735	48.13
297.949	15.36
298.164	31.74
298.378	29.7
298.593	13.31
298.807	-13.31
299.022	39.94
299.236	50.18
299.451	44.03
299.665	44.03
299.88	5.12
300.094	19.46
300.309	54.27
300.523	-11.26
300.737	1.02
300.952	50.18
301.166	39.94
301.381	-50.18
301.595	21.5
301.809	31.74
302.024	-23.55
302.238	21.5
302.452	78.85
302.667	-25.6
302.881	41.98
303.095	35.84
303.309	60.42
303.524	31.74
303.738	-44.03
303.952	-19.46
304.166	37.89
304.381	5.12
304.595	93.18
304.809	9.22
305.023	35.84
305.237	17.41
305.452	-19.46
305.666	82.94
305.88	-11.26
306.094	50.18
306.308	21.5
306.522	-9.22
306.736	11.26
306.95	44.03
307.164	-11.26
307.379	50.18
307.593	109.57
307.807	78.85
308.021	84.99
308.235	-5.12
308.449	-46.08
308.663	1.02
308.877	52.22
309.091	84.99
309.305	111.61
309.519	-29.7
309.733	107.52
309.947	27.65
310.161	82.94
310.374	-5.12
310.588	50.18
310.802	-39.94
311.016	25.6
311.23	-7.17
311.444	-60.42
311.658	50.18
311.872	117.76
312.085	7.17
312.299	72.7
312.513	23.55
312.727	84.99
312.941	11.26
313.154	76.8
313.368	58.37
313.582	56.32
313.796	76.8
314.009	-1.02
314.223	72.7
314.437	1.02
314.651	-3.07
314.864	-50.18
315.078	15.36
315.292	17.41
315.505	31.74
315.719	-19.46
315.933	31.74
316.146	37.89
316.36	15.36
316.573	87.04
316.787	76.8
317.001	58.37
317.214	17.41
317.428	-44.03
317.641	-19.46
317.855	19.46
318.068	-5.12
318.282	-17.41
318.495	89.09
318.709	44.03
318.922	-3.07
319.136	15.36
319.349	15.36
319.563	44.03
319.776	-17.41
319.99	13.31
320.203	41.98
320.417	-11.26
320.63	50.18
320.843	130.05
321.057	-33.79
321.27	-35.84
321.483	19.46
321.697	99.33
321.91	19.46
322.124	33.79
322.337	37.89
322.55	17.41
322.763	-41.98
322.977	25.6
323.19	-11.26
323.403	-3.07
323.617	-31.74
323.83	84.99
324.043	5.12
324.256	29.7
324.469	-17.41
324.683	35.84
324.896	-15.36
325.109	54.27
325.322	13.31
325.535	-5.12
325.748	17.41
325.962	56.32
326.175	72.7
326.388	101.37
326.601	78.85
326.814	80.89
327.027	35.84
327.24	64.51
327.453	-19.46
327.666	11.26
327.879	29.7
328.092	54.27
328.305	-35.84
328.518	64.51
328.731	31.74
328.944	5.12
329.157	-1.02
329.37	21.5
329.583	37.89
329.796	87.04
330.009	-60.42
330.222	-7.17
330.435	25.6
330.648	-9.22
330.861	44.03
331.073	-37.89
331.286	11.26
331.499	-37.89
331.712	-1.02
331.925	-39.94
332.138	23.55
332.35	50.18
332.563	3.07
332.776	-48.13
332.989	17.41
333.202	5.12
333.414	7.17
333.627	27.65
333.84	48.13
334.053	31.74
334.265	37.89
334.478	46.08
334.691	7.17
334.903	-11.26
335.116	-13.31
335.329	25.6
335.541	-11.26
335.754	78.85
335.966	17.41
336.179	13.31
336.392	1.02
336.604	91.13
336.817	46.08
337.029	35.84
337.242	17.41
337.454	60.42
337.667	7.17
337.88	93.18
338.092	-19.46
338.305	17.41
338.517	25.6
338.729	113.66
338.942	29.7
339.154	58.37
339.367	-44.03
339.579	13.31
339.792	-37.89
340.004	39.94
340.217	80.89
340.429	68.61
340.641	-68.61
340.854	-35.84
341.066	41.98
341.278	52.22
341.491	70.65
341.703	19.46
341.915	58.37
342.128	97.28
342.34	21.5
342.552	-7.17
342.764	-13.31
342.977	-5.12
343.189	89.09
343.401	62.46
343.613	3.07
343.826	29.7
344.038	-50.18
344.25	46.08
344.462	25.6
344.674	37.89
344.886	25.6
345.099	46.08
345.311	44.03
345.523	48.13
345.735	-33.79
345.947	70.65
346.159	-15.36
346.371	-27.65
346.583	37.89
346.795	99.33
347.007	27.65
347.219	25.6
347.431	3.07
347.643	11.26
347.855	-11.26
348.067	52.22
348.279	-1.02
348.491	50.18
348.703	25.6
348.915	35.84
349.127	56.32
349.339	89.09
349.551	19.46
349.763	11.26
349.975	19.46
350.187	74.75
350.399	80.89
350.61	80.89
350.822	25.6
351.034	29.7
351.246	17.41
351.458	80.89
351.669	58.37
351.881	48.13
352.093	87.04
352.305	56.32
352.517	50.18
352.728	44.03
352.94	70.65
353.152	50.18
353.363	-1.02
353.575	41.98
353.787	-1.02
353.999	41.98
354.21	39.94
354.422	54.27
354.633	23.55
354.845	33.79
355.057	35.84
355.268	17.41
355.48	78.85
355.692	-66.56
355.903	3.07
356.115	-44.03
356.326	17.41
356.538	44.03
356.749	29.7
356.961	84.99
357.172	142.33
357.384	-9.22
357.595	41.98
357.807	13.31
358.018	-39.94
358.23	72.7
358.441	89.09
358.653	95.23
358.864	64.51
359.075	-11.26
359.287	-31.74
359.498	41.98
359.709	-19.46
359.921	64.51
360.132	50.18
360.344	95.23
360.555	1.02
360.766	39.94
360.977	-17.41
361.189	11.26
361.4	68.61
361.611	46.08
361.823	66.56
362.034	-15.36
362.245	-21.5
362.456	56.32
362.667	111.61
362.879	1.02
363.09	25.6
363.301	-7.17
363.512	99.33
363.723	17.41
363.935	-3.07
364.146	109.57
364.357	17.41
364.568	68.61
364.779	-3.07
364.99	9.22
365.201	-37.89
365.412	56.32
365.623	-29.7
365.834	121.85
366.045	-1.02
366.256	93.18
366.467	33.79
366.678	19.46
366.889	-3.07
367.1	68.61
367.311	31.74
367.522	37.89
367.733	31.74
367.944	82.94
368.155	103.42
368.366	-29.7
368.577	-23.55
368.788	130.05
368.999	39.94
369.209	56.32
369.42	101.37
369.631	136.19
369.842	23.55
370.053	46.08
370.264	46.08
370.474	29.7
370.685	11.26
370.896	68.61
371.107	31.74
371.317	-52.22
371.528	7.17
371.739	7.17
371.95	21.5
372.16	27.65
372.371	17.41
372.582	-7.17
372.792	72.7
373.003	19.46
373.214	-23.55
373.424	97.28
373.635	56.32
373.846	64.51
374.056	44.03
374.267	91.13
374.477	99.33
374.688	-44.03
374.898	23.55
375.109	84.99
375.319	76.8
375.53	80.89
375.74	132.09
375.951	56.32
376.161	27.65
376.372	70.65
376.582	5.12
376.793	-21.5
377.003	-33.79
377.214	82.94
377.424	44.03
377.635	103.42
377.845	-82.94
378.055	-33.79
378.266	-99.33
378.476	1.02
378.686	31.74
378.897	89.09
379.107	144.38
379.317	78.85
379.528	-29.7
379.738	39.94
379.948	-58.37
380.158	101.37
380.369	39.94
380.579	15.36
380.789	72.7
380.999	76.8
381.21	125.95
381.42	50.18
381.63	-15.36
381.84	76.8
382.05	9.22
382.261	50.18
382.471	-41.98
382.681	29.7
382.891	66.56
383.101	31.74
383.311	39.94
383.521	37.89
383.731	21.5
383.941	17.41
384.151	46.08
384.361	11.26
384.571	-31.74
384.781	109.57
384.991	130.05
385.201	130.05
385.411	84.99
385.621	52.22
385.831	9.22
386.041	93.18
386.251	74.75
386.461	23.55
386.671	101.37
386.881	-17.41
387.091	46.08
387.301	11.26
387.511	-1.02
387.72	82.94
387.93	25.6
388.14	37.89
388.35	19.46
388.56	31.74
388.769	113.66
388.979	64.51
389.189	9.22
389.399	50.18
389.609	33.79
389.818	64.51
390.028	13.31
390.238	74.75
390.447	50.18
390.657	52.22
390.867	113.66
391.076	7.17
391.286	44.03
391.496	37.89
391.705	138.24
391.915	46.08
392.125	111.61
392.334	-27.65
392.544	119.81
392.753	23.55
392.963	29.7
393.172	46.08
393.382	27.65
393.591	119.81
393.801	29.7
394.01	91.13
394.22	128
394.429	125.95
394.639	107.52
394.848	132.09
395.058	13.31
395.267	121.85
395.477	74.75
395.686	74.75
395.895	72.7
396.105	125.95
396.314	84.99
396.524	66.56
396.733	115.71
396.942	89.09
397.152	76.8
397.361	138.24
397.57	84.99
397.78	91.13
397.989	97.28
398.198	207.87
398.407	113.66
398.617	78.85
398.826	84.99
399.035	115.71
399.244	48.13
399.453	97.28
399.663	7.17
399.872	93.18
400.081	78.85
400.29	113.66
400.499	76.8
400.708	117.76
400.917	113.66
401.127	1.02
401.336	130.05
401.545	168.96
401.754	117.76
401.963	105.47
402.172	87.04
402.381	136.19
402.59	132.09
402.799	41.98
403.008	103.42
403.217	101.37
403.426	60.42
403.635	35.84
403.844	115.71
404.053	117.76
404.262	72.7
404.471	177.15
404.68	109.57
404.888	136.19
405.097	84.99
405.306	144.38
405.515	121.85
405.724	109.57
405.933	109.57
406.142	162.81
406.35	138.24
406.559	179.2
406.768	132.09
406.977	160.77
407.185	156.67
407.394	148.48
407.603	41.98
407.812	226.3
408.02	209.92
408.229	191.49
408.438	205.82
408.646	226.3
408.855	293.88
409.064	248.83
409.272	222.2
409.481	250.88
409.69	201.72
409.898	230.4
410.107	230.4
410.315	297.98
410.524	226.3
410.733	332.79
410.941	291.84
411.15	277.5
411.358	326.65
411.567	377.85
411.775	377.85
411.984	398.33
412.192	369.66
412.401	424.95
412.609	404.47
412.818	424.95
413.026	416.76
413.234	480.25
413.443	439.29
413.651	447.48
413.86	549.88
414.068	519.16
414.276	586.74
414.485	578.55
414.693	635.89
414.901	652.28
415.11	678.9
415.318	560.12
415.526	717.81
415.734	721.91
415.943	689.14
416.151	771.06
416.359	758.77
416.567	766.96
416.776	699.38
416.984	816.12
417.192	846.84
417.4	938.99
417.608	914.42
417.817	932.85
418.025	977.91
418.233	1119.21
418.441	1043.44
418.649	1070.06
418.857	1143.79
419.065	1213.42
419.273	1063.92
419.481	1227.76
419.689	1272.81
419.897	1313.77
420.105	1358.83
420.313	1367.02
420.521	1455.08
420.729	1493.99
420.937	1608.68
421.145	1506.28
421.353	1657.83
421.561	1672.17
421.769	1731.56
421.977	1868.77
422.185	1858.53
422.393	1942.5
422.601	1922.02
422.809	2036.7
423.017	2153.44
423.224	2167.77
423.432	2098.14
423.64	2149.34
423.848	2290.65
424.056	2286.56
424.263	2601.94
424.471	2472.92
424.679	2587.61
424.887	2657.24
425.094	2913.24
425.302	2866.13
425.51	2823.12
425.718	3036.11
425.925	2929.62
426.133	3115.98
426.341	3257.29
426.548	3494.86
426.756	3398.6
426.964	3419.08
427.171	3742.66
427.379	3785.67
427.586	3775.43
427.794	4092.87
428.001	4031.43
428.209	4309.95
428.417	4309.95
428.624	4535.23
428.832	4576.19
429.039	4656.06
429.247	4654.01
429.454	5020.6
429.662	5329.84
429.869	4887.48
430.076	5333.93
430.284	5084.08
430.491	5434.29
430.699	5761.96
430.906	5884.84
431.114	5882.79
431.321	6089.64
431.528	6063.01
431.736	6607.77
431.943	6902.68
432.15	6679.45
432.358	6667.16
432.565	6972.31
432.772	6980.5
432.979	7449.49
433.187	7398.29
433.394	7736.2
433.601	8147.84
433.808	8061.83
434.016	8158.08
434.223	8334.21
434.43	8983.41
434.637	8782.71
434.844	9313.14
435.052	9585.52
435.259	9464.69
435.466	9399.15
435.673	9577.33
435.88	9829.23
436.087	10453.86
436.294	10457.95
436.501	10646.37
436.708	10578.78
436.915	10853.21
437.122	11567.95
437.329	11215.7
437.537	11340.63
437.743	12079.94
437.95	11623.25
438.157	12442.43
438.364	12714.81
438.571	12630.85
438.778	12663.61
438.985	14076.71
439.192	13513.52
439.399	13812.53
439.606	13556.53
439.813	14324.52
440.02	15231.77
440.227	14938.91
440.433	14986.01
440.64	15319.83
440.847	15438.61
441.054	15518.48
441.261	16753.41
441.467	16341.77
441.674	16767.74
441.881	17488.63
442.088	17298.17
442.294	17304.31
442.501	17824.5
442.708	18346.73
442.914	18830.05
443.121	19413.72
443.328	18932.45
443.534	20642.5
443.741	19894.99
443.948	19737.3
444.154	21226.17
444.361	21086.91
444.568	21158.59
444.774	21146.3
444.981	21619.38
445.187	22188.72
445.394	22983.33
445.6	22608.55
445.807	24826.5
446.013	23728.79
446.22	24009.36
446.426	25246.33
446.633	25221.76
446.839	25997.94
447.046	25162.37
447.252	26641
447.459	26503.79
447.665	26239.6
447.871	27574.88
448.078	29069.89
448.284	27634.27
448.491	28275.28
448.697	29170.24
448.903	29905.46
449.11	29739.58
449.316	29246.02
449.522	29852.22
449.728	30638.64
449.935	30982.7
450.141	30951.98
450.347	31670.81
450.553	30734.89
450.76	31205.92
450.966	32006.68
451.172	31750.68
451.378	32686.61
451.584	32051.73
451.791	32553.49
451.997	32549.39
452.203	32813.58
452.409	33296.9
452.615	33047.05
452.821	31848.99
453.027	31199.78
453.233	32938.51
453.44	31480.35
453.646	31808.03
453.852	32365.07
454.058	32752.14
454.264	31322.66
454.47	32446.99
454.676	31844.89
454.882	32565.78
455.088	29700.67
455.294	30222.9
455.5	30986.79
455.705	31261.22
455.911	29710.91
456.117	29370.94
456.323	28889.67
456.529	27245.15
456.735	28846.66
456.941	27927.13
457.147	27284.06
457.352	26622.57
457.558	26143.35
457.764	26546.79
457.97	25748.09
458.176	25059.97
458.381	25084.55
458.587	23935.63
458.793	23704.21
458.999	22504.1
459.204	24171.15
459.41	23612.06
459.616	22211.25
459.821	21836.47
460.027	21852.85
460.233	21512.89
460.438	20306.63
460.644	20589.25
460.85	19591.89
461.055	19319.51
461.261	19372.76
461.466	17982.19
461.672	17455.86
461.878	18793.19
462.083	17349.37
462.289	17167.1
462.494	16888.57
462.7	15948.56
462.905	15786.77
463.111	16108.3
463.316	16309
463.522	15946.51
463.727	15706.9
463.932	16120.59
464.138	15665.94
464.343	15870.73
464.549	15375.13
464.754	15919.89
464.959	15661.84
465.165	15721.23
465.37	15147.8
465.575	14670.62
465.781	14947.1
465.986	15235.86
466.191	14740.26
466.397	14385.96
466.602	13790
466.807	14117.67
467.012	14355.24
467.218	14164.78
467.423	14107.43
467.628	13906.73
