Data from USB4F104151__89__12-24-51-511.txt Node

Date: Fri Mar 14 12:24:51 EDT 2025
User: louis
Spectrometer: USB4F10415
Trigger mode: 4
Integration Time (sec): 3.500000E-2
Scans to average: 1
Electric dark correction enabled: true
Nonlinearity correction enabled: false
Boxcar width: 0
XAxis mode: Wavelengths
Number of Pixels in Spectrum: 3648
>>>>>Begin Spectral Data<<<<<
178.204	-150.01
178.424	-150.01
178.644	-150.01
178.864	-174.59
179.084	-107.01
179.304	-86.53
179.524	-4.61
179.744	-10.75
179.964	52.74
180.184	42.5
180.404	26.11
180.624	-8.7
180.844	1.54
181.064	-0.51
181.283	-29.18
181.503	24.06
181.723	-6.66
181.943	-57.86
182.163	9.73
182.383	-20.99
182.602	26.11
182.822	93.69
183.042	58.88
183.262	-41.47
183.482	7.68
183.701	-2.56
183.921	38.4
184.141	-49.66
184.361	44.54
184.58	-16.9
184.8	67.07
185.02	-70.14
185.239	13.82
185.459	30.21
185.679	36.35
185.898	-92.67
186.118	13.82
186.338	-4.61
186.557	65.02
186.777	-0.51
186.997	26.11
187.216	7.68
187.436	48.64
187.655	9.73
187.875	42.5
188.095	87.55
188.314	11.78
188.534	58.88
188.753	-45.57
188.973	22.02
189.192	87.55
189.412	3.58
189.631	7.68
189.851	32.26
190.07	50.69
190.29	9.73
190.509	-59.9
190.729	15.87
190.948	1.54
191.168	130.56
191.387	-2.56
191.607	15.87
191.826	69.12
192.045	9.73
192.265	26.11
192.484	-8.7
192.704	48.64
192.923	-39.42
193.142	155.13
193.362	-25.09
193.581	67.07
193.8	7.68
194.02	40.45
194.239	42.5
194.458	3.58
194.678	3.58
194.897	-4.61
195.116	32.26
195.335	-35.33
195.555	40.45
195.774	-29.18
195.993	71.17
196.212	-6.66
196.432	24.06
196.651	30.21
196.87	-57.86
197.089	122.37
197.308	60.93
197.528	73.21
197.747	15.87
197.966	38.4
198.185	157.18
198.404	-18.94
198.623	36.35
198.842	7.68
199.062	-33.28
199.281	40.45
199.5	-14.85
199.719	26.11
199.938	-2.56
200.157	58.88
200.376	54.78
200.595	62.98
200.814	3.58
201.033	7.68
201.252	11.78
201.471	101.89
201.69	34.3
201.909	36.35
202.128	58.88
202.347	5.63
202.566	62.98
202.785	26.11
203.004	-8.7
203.223	108.03
203.442	38.4
203.661	13.82
203.879	67.07
204.098	81.41
204.317	-104.96
204.536	1.54
204.755	19.97
204.974	9.73
205.193	42.5
205.411	48.64
205.63	81.41
205.849	42.5
206.068	-29.18
206.287	60.93
206.505	1.54
206.724	42.5
206.943	-8.7
207.162	-4.61
207.381	-25.09
207.599	73.21
207.818	79.36
208.037	-12.8
208.255	11.78
208.474	15.87
208.693	73.21
208.911	69.12
209.13	15.87
209.349	50.69
209.567	22.02
209.786	40.45
210.005	28.16
210.223	40.45
210.442	7.68
210.661	-27.14
210.879	62.98
211.098	36.35
211.316	-6.66
211.535	50.69
211.753	28.16
211.972	60.93
212.191	13.82
212.409	28.16
212.628	22.02
212.846	-25.09
213.065	-10.75
213.283	87.55
213.502	7.68
213.72	5.63
213.938	19.97
214.157	-14.85
214.375	28.16
214.594	11.78
214.812	-29.18
215.031	-78.33
215.249	-4.61
215.467	-25.09
215.686	9.73
215.904	52.74
216.122	-20.99
216.341	105.98
216.559	24.06
216.778	69.12
216.996	36.35
217.214	81.41
217.432	42.5
217.651	-8.7
217.869	71.17
218.087	11.78
218.306	-23.04
218.524	-6.66
218.742	-57.86
218.96	7.68
219.179	-29.18
219.397	-8.7
219.615	58.88
219.833	112.13
220.051	-16.9
220.27	62.98
220.488	24.06
220.706	48.64
220.924	-8.7
221.142	9.73
221.36	65.02
221.578	-16.9
221.796	7.68
222.015	7.68
222.233	26.11
222.451	19.97
222.669	-4.61
222.887	-49.66
223.105	-45.57
223.323	34.3
223.541	-35.33
223.759	22.02
223.977	1.54
224.195	52.74
224.413	-2.56
224.631	-12.8
224.849	40.45
225.067	128.51
225.285	17.92
225.503	15.87
225.721	-80.38
225.939	42.5
226.157	13.82
226.375	77.31
226.592	54.78
226.81	22.02
227.028	11.78
227.246	79.36
227.464	-43.52
227.682	58.88
227.9	-29.18
228.117	24.06
228.335	-4.61
228.553	-33.28
228.771	77.31
228.989	69.12
229.206	11.78
229.424	44.54
229.642	-4.61
229.86	-33.28
230.077	28.16
230.295	93.69
230.513	38.4
230.731	13.82
230.948	77.31
231.166	17.92
231.384	-6.66
231.601	40.45
231.819	50.69
232.037	-35.33
232.254	-29.18
232.472	-12.8
232.689	67.07
232.907	38.4
233.125	-51.71
233.342	-45.57
233.56	3.58
233.777	-10.75
233.995	-16.9
234.213	99.84
234.43	-18.94
234.648	24.06
234.865	-33.28
235.083	11.78
235.3	46.59
235.518	40.45
235.735	56.83
235.953	11.78
236.17	-12.8
236.388	-55.81
236.605	24.06
236.822	85.5
237.04	36.35
237.257	-47.62
237.475	36.35
237.692	38.4
237.909	36.35
238.127	-45.57
238.344	79.36
238.562	-51.71
238.779	28.16
238.996	-10.75
239.214	22.02
239.431	-29.18
239.648	-10.75
239.865	9.73
240.083	7.68
240.3	36.35
240.517	24.06
240.735	75.26
240.952	56.83
241.169	-37.38
241.386	65.02
241.603	60.93
241.821	-20.99
242.038	24.06
242.255	-2.56
242.472	19.97
242.689	15.87
242.907	48.64
243.124	48.64
243.341	-14.85
243.558	-37.38
243.775	-47.62
243.992	-37.38
244.209	38.4
244.426	124.41
244.643	-14.85
244.86	24.06
245.078	5.63
245.295	44.54
245.512	87.55
245.729	-16.9
245.946	62.98
246.163	-4.61
246.38	-33.28
246.597	-16.9
246.814	30.21
247.031	-12.8
247.248	13.82
247.464	3.58
247.681	-31.23
247.898	60.93
248.115	36.35
248.332	19.97
248.549	67.07
248.766	77.31
248.983	81.41
249.2	52.74
249.417	36.35
249.633	42.5
249.85	-20.99
250.067	5.63
250.284	22.02
250.501	-51.71
250.717	7.68
250.934	-35.33
251.151	38.4
251.368	-10.75
251.585	-57.86
251.801	30.21
252.018	-8.7
252.235	75.26
252.451	-59.9
252.668	7.68
252.885	36.35
253.102	91.65
253.318	40.45
253.535	-37.38
253.752	75.26
253.968	-29.18
254.185	-35.33
254.401	65.02
254.618	91.65
254.835	-55.81
255.051	91.65
255.268	38.4
255.484	44.54
255.701	13.82
255.917	30.21
256.134	-2.56
256.351	15.87
256.567	-51.71
256.784	9.73
257	-68.09
257.217	112.13
257.433	38.4
257.65	-57.86
257.866	50.69
258.082	-78.33
258.299	44.54
258.515	32.26
258.732	-76.29
258.948	-66.05
259.165	46.59
259.381	62.98
259.597	3.58
259.814	1.54
260.03	40.45
260.246	36.35
260.463	-43.52
260.679	48.64
260.895	50.69
261.112	26.11
261.328	22.02
261.544	-18.94
261.761	91.65
261.977	17.92
262.193	-33.28
262.409	36.35
262.626	9.73
262.842	36.35
263.058	3.58
263.274	48.64
263.49	36.35
263.707	48.64
263.923	7.68
264.139	38.4
264.355	-12.8
264.571	105.98
264.787	89.6
265.004	83.45
265.22	50.69
265.436	40.45
265.652	-64
265.868	44.54
266.084	-6.66
266.3	17.92
266.516	-61.95
266.732	26.11
266.948	-107.01
267.164	-29.18
267.38	30.21
267.596	-12.8
267.812	38.4
268.028	-72.19
268.244	1.54
268.46	9.73
268.676	50.69
268.892	7.68
269.108	-2.56
269.324	-29.18
269.54	-33.28
269.756	34.3
269.972	11.78
270.188	52.74
270.403	-72.19
270.619	-18.94
270.835	-6.66
271.051	36.35
271.267	42.5
271.483	-2.56
271.698	62.98
271.914	-16.9
272.13	-47.62
272.346	24.06
272.562	26.11
272.777	48.64
272.993	-53.76
273.209	-6.66
273.425	-2.56
273.64	30.21
273.856	60.93
274.072	13.82
274.287	13.82
274.503	58.88
274.719	-47.62
274.934	34.3
275.15	-29.18
275.366	56.83
275.581	24.06
275.797	1.54
276.012	-16.9
276.228	77.31
276.444	-51.71
276.659	73.21
276.875	9.73
277.09	26.11
277.306	40.45
277.521	40.45
277.737	19.97
277.952	46.59
278.168	1.54
278.383	28.16
278.599	85.5
278.814	9.73
279.03	-8.7
279.245	36.35
279.461	-14.85
279.676	50.69
279.892	-18.94
280.107	-35.33
280.322	-8.7
280.538	52.74
280.753	7.68
280.969	30.21
281.184	89.6
281.399	58.88
281.615	7.68
281.83	19.97
282.045	11.78
282.26	11.78
282.476	-25.09
282.691	62.98
282.906	5.63
283.122	5.63
283.337	-25.09
283.552	28.16
283.767	-20.99
283.983	108.03
284.198	65.02
284.413	38.4
284.628	-8.7
284.843	-31.23
285.058	40.45
285.274	-20.99
285.489	24.06
285.704	11.78
285.919	-6.66
286.134	-4.61
286.349	9.73
286.564	71.17
286.779	75.26
286.995	-0.51
287.21	9.73
287.425	60.93
287.64	85.5
287.855	73.21
288.07	-20.99
288.285	-18.94
288.5	-57.86
288.715	50.69
288.93	-2.56
289.145	-64
289.36	48.64
289.575	28.16
289.79	48.64
290.004	-53.76
290.219	26.11
290.434	-14.85
290.649	36.35
290.864	13.82
291.079	56.83
291.294	112.13
291.509	38.4
291.724	-0.51
291.938	5.63
292.153	13.82
292.368	3.58
292.583	28.16
292.798	7.68
293.012	15.87
293.227	17.92
293.442	-14.85
293.657	42.5
293.871	93.69
294.086	32.26
294.301	52.74
294.516	15.87
294.73	54.78
294.945	9.73
295.16	26.11
295.374	5.63
295.589	99.84
295.804	-4.61
296.018	34.3
296.233	81.41
296.447	13.82
296.662	-74.24
296.877	32.26
297.091	65.02
297.306	56.83
297.52	24.06
297.735	101.89
297.949	73.21
298.164	-41.47
298.378	7.68
298.593	-4.61
298.807	-37.38
299.022	65.02
299.236	30.21
299.451	-4.61
299.665	7.68
299.88	-8.7
300.094	13.82
300.309	32.26
300.523	-16.9
300.737	13.82
300.952	-2.56
301.166	60.93
301.381	-37.38
301.595	38.4
301.809	19.97
302.024	89.6
302.238	-10.75
302.452	46.59
302.667	-25.09
302.881	132.61
303.095	40.45
303.309	11.78
303.524	-39.42
303.738	89.6
303.952	54.78
304.166	-16.9
304.381	-16.9
304.595	54.78
304.809	32.26
305.023	-2.56
305.237	5.63
305.452	3.58
305.666	17.92
305.88	99.84
306.094	93.69
306.308	67.07
306.522	81.41
306.736	62.98
306.95	-27.14
307.164	24.06
307.379	-39.42
307.593	75.26
307.807	-4.61
308.021	44.54
308.235	50.69
308.449	-49.66
308.663	81.41
308.877	89.6
309.091	7.68
309.305	118.27
309.519	-47.62
309.733	22.02
309.947	11.78
310.161	42.5
310.374	13.82
310.588	71.17
310.802	30.21
311.016	-35.33
311.23	71.17
311.444	7.68
311.658	-14.85
311.872	69.12
312.085	26.11
312.299	85.5
312.513	54.78
312.727	71.17
312.941	15.87
313.154	60.93
313.368	15.87
313.582	1.54
313.796	-8.7
314.009	-18.94
314.223	134.65
314.437	-4.61
314.651	-27.14
314.864	-31.23
315.078	-47.62
315.292	13.82
315.505	9.73
315.719	50.69
315.933	5.63
316.146	-37.38
316.36	-57.86
316.573	95.74
316.787	19.97
317.001	9.73
317.214	-2.56
317.428	9.73
317.641	50.69
317.855	-51.71
318.068	-12.8
318.282	15.87
318.495	83.45
318.709	58.88
318.922	13.82
319.136	58.88
319.349	-6.66
319.563	11.78
319.776	73.21
319.99	-31.23
320.203	62.98
320.417	-6.66
320.63	50.69
320.843	114.17
321.057	15.87
321.27	-23.04
321.483	34.3
321.697	120.32
321.91	3.58
322.124	19.97
322.337	46.59
322.55	36.35
322.763	19.97
322.977	-10.75
323.19	32.26
323.403	34.3
323.617	28.16
323.83	54.78
324.043	-23.04
324.256	44.54
324.469	-25.09
324.683	87.55
324.896	46.59
325.109	-16.9
325.322	15.87
325.535	83.45
325.748	26.11
325.962	5.63
326.175	28.16
326.388	15.87
326.601	73.21
326.814	46.59
327.027	32.26
327.24	52.74
327.453	-6.66
327.666	15.87
327.879	26.11
328.092	112.13
328.305	17.92
328.518	62.98
328.731	48.64
328.944	95.74
329.157	26.11
329.37	40.45
329.583	9.73
329.796	-33.28
330.009	7.68
330.222	26.11
330.435	11.78
330.648	19.97
330.861	13.82
331.073	71.17
331.286	79.36
331.499	65.02
331.712	19.97
331.925	81.41
332.138	-27.14
332.35	3.58
332.563	-20.99
332.776	26.11
332.989	19.97
333.202	34.3
333.414	1.54
333.627	-10.75
333.84	19.97
334.053	-35.33
334.265	-25.09
334.478	60.93
334.691	19.97
334.903	-39.42
335.116	-20.99
335.329	36.35
335.541	-4.61
335.754	73.21
335.966	3.58
336.179	-14.85
336.392	-27.14
336.604	40.45
336.817	67.07
337.029	69.12
337.242	42.5
337.454	116.22
337.667	36.35
337.88	9.73
338.092	30.21
338.305	79.36
338.517	9.73
338.729	22.02
338.942	97.79
339.154	40.45
339.367	-64
339.579	-2.56
339.792	11.78
340.004	32.26
340.217	1.54
340.429	17.92
340.641	-88.57
340.854	-0.51
341.066	32.26
341.278	13.82
341.491	40.45
341.703	83.45
341.915	1.54
342.128	77.31
342.34	95.74
342.552	-2.56
342.764	-6.66
342.977	36.35
343.189	95.74
343.401	75.26
343.613	-33.28
343.826	17.92
344.038	-35.33
344.25	15.87
344.462	-35.33
344.674	38.4
344.886	-12.8
345.099	69.12
345.311	48.64
345.523	3.58
345.735	-31.23
345.947	32.26
346.159	-53.76
346.371	26.11
346.583	9.73
346.795	157.18
347.007	30.21
347.219	-8.7
347.431	-16.9
347.643	128.51
347.855	13.82
348.067	44.54
348.279	3.58
348.491	46.59
348.703	36.35
348.915	24.06
349.127	24.06
349.339	19.97
349.551	-0.51
349.763	114.17
349.975	69.12
350.187	32.26
350.399	-2.56
350.61	-4.61
350.822	-27.14
351.034	28.16
351.246	19.97
351.458	151.04
351.669	50.69
351.881	46.59
352.093	26.11
352.305	30.21
352.517	56.83
352.728	62.98
352.94	9.73
353.152	7.68
353.363	103.93
353.575	30.21
353.787	75.26
353.999	-4.61
354.21	71.17
354.422	22.02
354.633	11.78
354.845	-20.99
355.057	17.92
355.268	71.17
355.48	34.3
355.692	19.97
355.903	81.41
356.115	42.5
356.326	22.02
356.538	13.82
356.749	42.5
356.961	79.36
357.172	36.35
357.384	7.68
357.595	95.74
357.807	-39.42
358.018	36.35
358.23	11.78
358.441	132.61
358.653	118.27
358.864	-33.28
359.075	26.11
359.287	26.11
359.498	38.4
359.709	108.03
359.921	42.5
360.132	5.63
360.344	13.82
360.555	50.69
360.766	46.59
360.977	-16.9
361.189	67.07
361.4	44.54
361.611	89.6
361.823	99.84
362.034	130.56
362.245	-59.9
362.456	-10.75
362.667	95.74
362.879	-2.56
363.09	62.98
363.301	26.11
363.512	42.5
363.723	24.06
363.935	-43.52
364.146	62.98
364.357	17.92
364.568	138.75
364.779	-31.23
364.99	52.74
365.201	32.26
365.412	77.31
365.623	5.63
365.834	17.92
366.045	-0.51
366.256	44.54
366.467	75.26
366.678	13.82
366.889	40.45
367.1	26.11
367.311	-20.99
367.522	15.87
367.733	26.11
367.944	38.4
368.155	22.02
368.366	83.45
368.577	95.74
368.788	22.02
368.999	44.54
369.209	28.16
369.42	93.69
369.631	122.37
369.842	40.45
370.053	19.97
370.264	110.08
370.474	3.58
370.685	65.02
370.896	7.68
371.107	116.22
371.317	87.55
371.528	22.02
371.739	99.84
371.95	52.74
372.16	-6.66
372.371	44.54
372.582	46.59
372.792	87.55
373.003	48.64
373.214	34.3
373.424	120.32
373.635	22.02
373.846	46.59
374.056	13.82
374.267	38.4
374.477	73.21
374.688	7.68
374.898	15.87
375.109	17.92
375.319	5.63
375.53	11.78
375.74	34.3
375.951	34.3
376.161	44.54
376.372	1.54
376.582	19.97
376.793	67.07
377.003	-20.99
377.214	-29.18
377.424	54.78
377.635	-18.94
377.845	19.97
378.055	32.26
378.266	34.3
378.476	38.4
378.686	9.73
378.897	52.74
379.107	89.6
379.317	22.02
379.528	-16.9
379.738	34.3
379.948	-23.04
380.158	34.3
380.369	67.07
380.579	26.11
380.789	46.59
380.999	19.97
381.21	81.41
381.42	112.13
381.63	-80.38
381.84	48.64
382.05	11.78
382.261	19.97
382.471	28.16
382.681	34.3
382.891	67.07
383.101	13.82
383.311	-43.52
383.521	44.54
383.731	19.97
383.941	44.54
384.151	46.59
384.361	32.26
384.571	69.12
384.781	67.07
384.991	91.65
385.201	83.45
385.411	65.02
385.621	50.69
385.831	28.16
386.041	93.69
386.251	-18.94
386.461	110.08
386.671	87.55
386.881	73.21
387.091	-6.66
387.301	60.93
387.511	-55.81
387.72	-18.94
387.93	30.21
388.14	-31.23
388.35	110.08
388.56	34.3
388.769	24.06
388.979	132.61
389.189	-43.52
389.399	5.63
389.609	105.98
389.818	44.54
390.028	77.31
390.238	48.64
390.447	-6.66
390.657	83.45
390.867	13.82
391.076	108.03
391.286	48.64
391.496	22.02
391.705	56.83
391.915	134.65
392.125	26.11
392.334	-0.51
392.544	126.46
392.753	73.21
392.963	11.78
393.172	146.94
393.382	5.63
393.591	95.74
393.801	112.13
394.01	126.46
394.22	38.4
394.429	26.11
394.639	69.12
394.848	89.6
395.058	38.4
395.267	65.02
395.477	73.21
395.686	89.6
395.895	91.65
396.105	99.84
396.314	46.59
396.524	30.21
396.733	40.45
396.942	93.69
397.152	69.12
397.361	87.55
397.57	79.36
397.78	85.5
397.989	202.24
398.198	206.33
398.407	95.74
398.617	130.56
398.826	38.4
399.035	85.5
399.244	22.02
399.453	75.26
399.663	71.17
399.872	136.7
400.081	-6.66
400.29	153.09
400.499	89.6
400.708	97.79
400.917	67.07
401.127	38.4
401.336	65.02
401.545	120.32
401.754	62.98
401.963	116.22
402.172	-8.7
402.381	44.54
402.59	69.12
402.799	38.4
403.008	114.17
403.217	116.22
403.426	108.03
403.635	56.83
403.844	155.13
404.053	60.93
404.262	128.51
404.471	189.95
404.68	175.61
404.888	105.98
405.097	73.21
405.306	128.51
405.515	146.94
405.724	79.36
405.933	157.18
406.142	93.69
406.35	83.45
406.559	157.18
406.768	144.89
406.977	146.94
407.185	224.76
407.394	124.41
407.603	116.22
407.812	151.04
408.02	153.09
408.229	132.61
408.438	175.61
408.646	153.09
408.855	148.99
409.064	294.4
409.272	173.57
409.481	140.8
409.69	239.1
409.898	148.99
410.107	226.81
410.315	232.96
410.524	290.3
410.733	388.6
410.941	247.29
411.15	271.87
411.358	298.49
411.567	294.4
411.775	280.06
411.984	355.83
412.192	302.59
412.401	353.79
412.609	396.79
412.818	433.66
413.026	337.4
413.234	267.77
413.443	415.23
413.651	347.64
413.86	431.61
414.068	470.52
414.276	466.42
414.485	445.95
414.693	550.39
414.901	611.83
415.11	443.9
415.318	486.9
415.526	568.82
415.734	652.79
415.943	581.11
416.151	683.51
416.359	636.41
416.567	769.52
416.776	749.04
416.984	796.15
417.192	775.67
417.4	648.69
417.608	720.37
417.817	808.44
418.025	837.11
418.233	962.03
418.441	849.4
418.649	894.45
418.857	978.42
419.065	941.55
419.273	992.75
419.481	1054.19
419.689	1160.69
419.897	1170.93
420.105	1285.61
420.313	1281.52
420.521	1199.6
420.729	1330.67
420.937	1310.19
421.145	1347.05
421.353	1353.2
421.561	1568.23
421.769	1437.16
421.977	1611.24
422.185	1584.62
422.393	1674.73
422.601	1850.85
422.809	1785.32
423.017	1805.8
423.224	1846.76
423.432	1910.24
423.64	1971.68
423.848	2088.42
424.056	2020.83
424.263	2244.06
424.471	2147.81
424.679	2272.73
424.887	2438.62
425.094	2444.76
425.302	2395.61
425.51	2639.32
425.718	2567.64
425.925	2741.72
426.133	2749.91
426.341	2872.79
426.548	3026.39
426.756	3018.19
426.964	3122.64
427.171	3159.5
427.379	3491.27
427.586	3409.36
427.794	3483.08
428.001	3646.92
428.209	3818.95
428.417	3638.73
428.624	4122.05
428.832	4201.92
429.039	3808.71
429.247	3921.35
429.454	4396.48
429.662	4832.69
429.869	4478.4
430.076	4728.25
430.284	4615.61
430.491	4838.84
430.699	5064.11
430.906	5053.87
431.114	5195.18
431.321	5424.56
431.528	5494.19
431.736	5698.99
431.943	6038.95
432.15	5791.14
432.358	6053.28
432.565	6372.77
432.772	6137.25
432.979	6561.18
433.187	6509.98
433.394	6649.24
433.601	7163.28
433.808	7222.67
434.016	7275.92
434.223	7333.26
434.43	7826.82
434.637	7720.33
434.844	8105.35
435.052	8240.51
435.259	8287.62
435.466	8410.5
435.673	8236.42
435.88	8684.92
436.087	9307.51
436.294	9395.57
436.501	9182.58
436.708	9198.96
436.915	9663.85
437.122	10057.06
437.329	10034.53
437.537	10399.07
437.743	10399.07
437.95	10499.42
438.157	10923.35
438.364	11461.97
438.571	11251.03
438.778	11537.74
438.985	12528.96
439.192	11967.82
439.399	12414.27
439.606	11889.99
439.813	12879.16
440.02	13604.14
440.227	13258.04
440.433	13151.54
440.64	13436.21
440.847	13368.63
441.054	14038.31
441.261	14923.04
441.467	14650.66
441.674	15125.79
441.881	15211.8
442.088	15263
442.294	15164.7
442.501	15469.84
442.708	16110.86
442.914	16657.67
443.121	17198.33
443.328	16817.41
443.534	18271.47
443.741	17657.07
443.948	17671.41
444.154	18664.68
444.361	18353.38
444.568	18672.87
444.774	18576.61
444.981	18711.78
445.187	19350.74
445.394	20548.81
445.6	20331.72
445.807	21925.04
446.013	20954.3
446.22	21214.4
446.426	21908.66
446.633	22553.77
446.839	23272.6
447.046	22334.64
447.252	23520.41
447.459	23602.33
447.665	23456.92
447.871	24482.95
448.078	25410.68
448.284	24329.36
448.491	25130.11
448.697	25672.82
448.903	26272.88
449.11	26498.16
449.316	25855.09
449.522	26514.54
449.728	27341.92
449.935	27581.53
450.141	27501.66
450.347	28034.13
450.553	27395.17
450.76	27655.26
450.966	28378.19
451.172	28253.26
451.378	28808.26
451.584	28501.07
451.791	29477.95
451.997	29025.35
452.203	29244.48
452.409	29416.51
452.615	29389.89
452.821	28593.23
453.027	27915.35
453.233	29471.81
453.44	28345.42
453.646	28746.83
453.852	28695.63
454.058	29183.04
454.264	28165.2
454.47	29058.12
454.676	28093.52
454.882	29449.28
455.088	26924.13
455.294	27159.65
455.5	27536.48
455.705	27710.55
455.911	26678.38
456.117	26516.59
456.323	25887.86
456.529	24370.32
456.735	25484.41
456.941	24970.37
457.147	24339.6
457.352	23712.92
457.558	23225.5
457.764	23737.49
457.97	22918.31
458.176	22389.93
458.381	22684.84
458.587	21214.4
458.793	21218.49
458.999	20352.2
459.204	21662.9
459.41	21025.98
459.616	19340.5
459.821	19741.91
460.027	19643.6
460.233	19301.59
460.438	18435.3
460.644	18490.6
460.85	17607.92
461.055	17347.83
461.261	17483
461.466	16073.99
461.672	15656.21
461.878	16860.41
462.083	15703.31
462.289	15355.16
462.494	15226.14
462.7	14425.38
462.905	14003.5
463.111	14595.36
463.316	14611.75
463.522	14501.15
463.727	14445.86
463.932	14191.91
464.138	14234.92
464.343	14021.93
464.549	13735.21
464.754	14286.12
464.959	13989.16
465.165	14058.79
465.37	13481.27
465.575	13120.82
465.781	13546.8
465.986	13892.91
466.191	13155.64
466.397	12864.83
466.602	12272.96
466.807	12731.71
467.012	12852.54
467.218	12707.13
467.423	12739.9
467.628	12674.37
467.833	13198.65
468.038	12741.95
