Data from USB4F104151__41__12-23-52-810.txt Node

Date: Fri Mar 14 12:23:52 EDT 2025
User: louis
Spectrometer: USB4F10415
Trigger mode: 4
Integration Time (sec): 3.500000E-2
Scans to average: 1
Electric dark correction enabled: true
Nonlinearity correction enabled: false
Boxcar width: 0
XAxis mode: Wavelengths
Number of Pixels in Spectrum: 3648
>>>>>Begin Spectral Data<<<<<
178.204	-106.67
178.424	-106.67
178.644	-106.67
178.864	-190.63
179.084	-174.25
179.304	-2.22
179.524	10.07
179.744	-37.03
179.964	16.21
180.184	-28.84
180.404	-8.36
180.624	48.98
180.844	-16.55
181.064	40.79
181.283	5.97
181.503	-84.14
181.723	55.12
181.943	-112.81
182.163	-4.27
182.383	3.93
182.602	87.89
182.822	-37.03
183.042	3.93
183.262	8.02
183.482	28.5
183.701	75.6
183.921	8.02
184.141	83.8
184.361	65.36
184.58	65.36
184.8	44.88
185.02	-41.13
185.239	40.79
185.459	-8.36
185.679	40.79
185.898	-4.27
186.118	65.36
186.338	65.36
186.557	-0.17
186.777	12.12
186.997	-22.7
187.216	-94.38
187.436	73.56
187.655	-2.22
187.875	32.6
188.095	12.12
188.314	116.56
188.534	40.79
188.753	75.6
188.973	34.64
189.192	36.69
189.412	8.02
189.631	-2.22
189.851	16.21
190.07	87.89
190.29	-59.56
190.509	18.26
190.729	-2.22
190.948	48.98
191.168	163.67
191.387	44.88
191.607	44.88
191.826	14.17
192.045	26.45
192.265	32.6
192.484	65.36
192.704	79.7
192.923	75.6
193.142	180.05
193.362	-55.47
193.581	106.32
193.8	42.84
194.02	79.7
194.239	73.56
194.458	46.93
194.678	8.02
194.897	18.26
195.116	55.12
195.335	32.6
195.555	-10.41
195.774	57.17
195.993	77.65
196.212	20.31
196.432	-6.31
196.651	26.45
196.87	-41.13
197.089	147.28
197.308	120.66
197.528	57.17
197.747	-26.79
197.966	42.84
198.185	40.79
198.404	-6.31
198.623	36.69
198.842	61.27
199.062	94.04
199.281	55.12
199.5	1.88
199.719	24.4
199.938	87.89
200.157	96.08
200.376	22.36
200.595	16.21
200.814	22.36
201.033	-43.18
201.252	-4.27
201.471	34.64
201.69	59.22
201.909	38.74
202.128	38.74
202.347	46.93
202.566	87.89
202.785	59.22
203.004	-26.79
203.223	132.95
203.442	48.98
203.661	32.6
203.879	106.32
204.098	24.4
204.317	-53.42
204.536	81.75
204.755	14.17
204.974	10.07
205.193	38.74
205.411	122.71
205.63	14.17
205.849	69.46
206.068	1.88
206.287	57.17
206.505	98.13
206.724	51.03
206.943	-14.51
207.162	-47.27
207.381	32.6
207.599	28.5
207.818	48.98
208.037	8.02
208.255	-18.6
208.474	-30.89
208.693	18.26
208.911	12.12
209.13	-0.17
209.349	51.03
209.567	28.5
209.786	55.12
210.005	79.7
210.223	1.88
210.442	18.26
210.661	36.69
210.879	12.12
211.098	3.93
211.316	61.27
211.535	20.31
211.753	-20.65
211.972	38.74
212.191	14.17
212.409	26.45
212.628	20.31
212.846	-34.99
213.065	-8.36
213.283	73.56
213.502	69.46
213.72	-2.22
213.938	61.27
214.157	-0.17
214.375	36.69
214.594	36.69
214.812	55.12
215.031	67.41
215.249	8.02
215.467	24.4
215.686	-10.41
215.904	124.76
216.122	28.5
216.341	65.36
216.559	-8.36
216.778	135
216.996	63.32
217.214	-26.79
217.432	-20.65
217.651	10.07
217.869	12.12
218.087	-77.99
218.306	22.36
218.524	46.93
218.742	53.08
218.96	55.12
219.179	14.17
219.397	61.27
219.615	42.84
219.833	-67.75
220.051	-24.75
220.27	51.03
220.488	83.8
220.706	28.5
220.924	10.07
221.142	44.88
221.36	46.93
221.578	36.69
221.796	3.93
222.015	30.55
222.233	-37.03
222.451	28.5
222.669	-18.6
222.887	100.18
223.105	14.17
223.323	42.84
223.541	-82.09
223.759	26.45
223.977	42.84
224.195	63.32
224.413	118.61
224.631	81.75
224.849	1.88
225.067	57.17
225.285	-4.27
225.503	-2.22
225.721	-2.22
225.939	-20.65
226.157	46.93
226.375	171.86
226.592	8.02
226.81	3.93
227.028	3.93
227.246	20.31
227.464	-18.6
227.682	40.79
227.9	46.93
228.117	102.23
228.335	61.27
228.553	-71.85
228.771	14.17
228.989	-10.41
229.206	14.17
229.424	28.5
229.642	-37.03
229.86	22.36
230.077	53.08
230.295	1.88
230.513	61.27
230.731	38.74
230.948	46.93
231.166	-0.17
231.384	30.55
231.601	53.08
231.819	83.8
232.037	-8.36
232.254	32.6
232.472	26.45
232.689	3.93
232.907	-41.13
233.125	32.6
233.342	30.55
233.56	26.45
233.777	22.36
233.995	8.02
234.213	48.98
234.43	51.03
234.648	28.5
234.865	-24.75
235.083	3.93
235.3	34.64
235.518	-8.36
235.735	81.75
235.953	137.04
236.17	18.26
236.388	55.12
236.605	-6.31
236.822	46.93
237.04	53.08
237.257	51.03
237.475	63.32
237.692	18.26
237.909	26.45
238.127	44.88
238.344	-26.79
238.562	-18.6
238.779	-49.32
238.996	53.08
239.214	46.93
239.431	14.17
239.648	16.21
239.865	10.07
240.083	81.75
240.3	40.79
240.517	42.84
240.735	-6.31
240.952	137.04
241.169	57.17
241.386	57.17
241.603	44.88
241.821	-47.27
242.038	-22.7
242.255	57.17
242.472	-28.84
242.689	59.22
242.907	48.98
243.124	-8.36
243.341	10.07
243.558	-24.75
243.775	-39.08
243.992	12.12
244.209	36.69
244.426	120.66
244.643	94.04
244.86	1.88
245.078	42.84
245.295	77.65
245.512	-24.75
245.729	-14.51
245.946	-16.55
246.163	67.41
246.38	67.41
246.597	-53.42
246.814	10.07
247.031	91.99
247.248	3.93
247.464	57.17
247.681	-20.65
247.898	28.5
248.115	38.74
248.332	30.55
248.549	59.22
248.766	112.47
248.983	81.75
249.2	10.07
249.417	14.17
249.633	5.97
249.85	28.5
250.067	-80.04
250.284	20.31
250.501	40.79
250.717	30.55
250.934	-16.55
251.151	40.79
251.368	83.8
251.585	63.32
251.801	38.74
252.018	-30.89
252.235	149.33
252.451	-26.79
252.668	22.36
252.885	48.98
253.102	30.55
253.318	12.12
253.535	18.26
253.752	34.64
253.968	18.26
254.185	44.88
254.401	46.93
254.618	67.41
254.835	-47.27
255.051	73.56
255.268	-18.6
255.484	-18.6
255.701	28.5
255.917	73.56
256.134	38.74
256.351	28.5
256.567	26.45
256.784	-26.79
257	-77.99
257.217	8.02
257.433	26.45
257.65	69.46
257.866	40.79
258.082	16.21
258.299	-41.13
258.515	57.17
258.732	32.6
258.948	20.31
259.165	14.17
259.381	28.5
259.597	67.41
259.814	1.88
260.03	-39.08
260.246	16.21
260.463	36.69
260.679	34.64
260.895	-14.51
261.112	69.46
261.328	28.5
261.544	16.21
261.761	81.75
261.977	30.55
262.193	-41.13
262.409	-0.17
262.626	51.03
262.842	-30.89
263.058	26.45
263.274	112.47
263.49	69.46
263.707	1.88
263.923	73.56
264.139	-43.18
264.355	36.69
264.571	3.93
264.787	69.46
265.004	65.36
265.22	24.4
265.436	63.32
265.652	46.93
265.868	16.21
266.084	-59.56
266.3	5.97
266.516	-14.51
266.732	32.6
266.948	73.56
267.164	22.36
267.38	1.88
267.596	30.55
267.812	114.52
268.028	46.93
268.244	-22.7
268.46	34.64
268.676	51.03
268.892	79.7
269.108	-43.18
269.324	-8.36
269.54	8.02
269.756	36.69
269.972	-0.17
270.188	-26.79
270.403	22.36
270.619	12.12
270.835	63.32
271.051	28.5
271.267	-32.94
271.483	-8.36
271.698	10.07
271.914	55.12
272.13	44.88
272.346	20.31
272.562	-8.36
272.777	44.88
272.993	-8.36
273.209	-8.36
273.425	75.6
273.64	-37.03
273.856	44.88
274.072	18.26
274.287	-26.79
274.503	48.98
274.719	1.88
274.934	65.36
275.15	1.88
275.366	5.97
275.581	14.17
275.797	36.69
276.012	51.03
276.228	8.02
276.444	53.08
276.659	18.26
276.875	18.26
277.09	30.55
277.306	-4.27
277.521	-12.46
277.737	-18.6
277.952	40.79
278.168	32.6
278.383	36.69
278.599	16.21
278.814	-18.6
279.03	83.8
279.245	44.88
279.461	12.12
279.676	85.84
279.892	-30.89
280.107	5.97
280.322	-8.36
280.538	3.93
280.753	-43.18
280.969	28.5
281.184	100.18
281.399	94.04
281.615	36.69
281.83	14.17
282.045	10.07
282.26	8.02
282.476	-59.56
282.691	59.22
282.906	-0.17
283.122	91.99
283.337	-34.99
283.552	69.46
283.767	42.84
283.983	59.22
284.198	5.97
284.413	32.6
284.628	12.12
284.843	-10.41
285.058	16.21
285.274	110.42
285.489	-0.17
285.704	28.5
285.919	-4.27
286.134	-39.08
286.349	108.37
286.564	10.07
286.779	28.5
286.995	12.12
287.21	63.32
287.425	57.17
287.64	3.93
287.855	55.12
288.07	5.97
288.285	87.89
288.5	75.6
288.715	20.31
288.93	55.12
289.145	10.07
289.36	12.12
289.575	-6.31
289.79	65.36
290.004	-10.41
290.219	75.6
290.434	51.03
290.649	-2.22
290.864	44.88
291.079	32.6
291.294	57.17
291.509	1.88
291.724	53.08
291.938	18.26
292.153	22.36
292.368	-20.65
292.583	38.74
292.798	1.88
293.012	63.32
293.227	61.27
293.442	-0.17
293.657	-45.23
293.871	55.12
294.086	63.32
294.301	40.79
294.516	126.8
294.73	16.21
294.945	-2.22
295.16	44.88
295.374	5.97
295.589	42.84
295.804	75.6
296.018	3.93
296.233	104.28
296.447	73.56
296.662	30.55
296.877	20.31
297.091	53.08
297.306	98.13
297.52	-4.27
297.735	42.84
297.949	55.12
298.164	73.56
298.378	44.88
298.593	16.21
298.807	14.17
299.022	-0.17
299.236	-28.84
299.451	12.12
299.665	-28.84
299.88	20.31
300.094	-16.55
300.309	36.69
300.523	51.03
300.737	-6.31
300.952	-84.14
301.166	44.88
301.381	-84.14
301.595	-4.27
301.809	98.13
302.024	-4.27
302.238	-37.03
302.452	16.21
302.667	22.36
302.881	61.27
303.095	71.51
303.309	34.64
303.524	-8.36
303.738	16.21
303.952	20.31
304.166	77.65
304.381	36.69
304.595	69.46
304.809	-2.22
305.023	67.41
305.237	-20.65
305.452	48.98
305.666	75.6
305.88	3.93
306.094	46.93
306.308	-8.36
306.522	61.27
306.736	53.08
306.95	42.84
307.164	-12.46
307.379	55.12
307.593	67.41
307.807	65.36
308.021	89.94
308.235	30.55
308.449	-41.13
308.663	67.41
308.877	77.65
309.091	20.31
309.305	83.8
309.519	-49.32
309.733	57.17
309.947	57.17
310.161	30.55
310.374	-12.46
310.588	-0.17
310.802	-26.79
311.016	22.36
311.23	-8.36
311.444	-24.75
311.658	51.03
311.872	69.46
312.085	40.79
312.299	73.56
312.513	42.84
312.727	48.98
312.941	81.75
313.154	22.36
313.368	-8.36
313.582	63.32
313.796	53.08
314.009	22.36
314.223	48.98
314.437	83.8
314.651	69.46
314.864	34.64
315.078	26.45
315.292	-10.41
315.505	-88.23
315.719	-20.65
315.933	61.27
316.146	24.4
316.36	-16.55
316.573	67.41
316.787	57.17
317.001	24.4
317.214	16.21
317.428	20.31
317.641	12.12
317.855	26.45
318.068	28.5
318.282	-12.46
318.495	81.75
318.709	96.08
318.922	32.6
319.136	65.36
319.349	-34.99
319.563	-2.22
319.776	18.26
319.99	18.26
320.203	75.6
320.417	59.22
320.63	34.64
320.843	85.84
321.057	5.97
321.27	87.89
321.483	40.79
321.697	110.42
321.91	48.98
322.124	106.32
322.337	5.97
322.55	8.02
322.763	59.22
322.977	145.24
323.19	106.32
323.403	51.03
323.617	1.88
323.83	114.52
324.043	3.93
324.256	38.74
324.469	-4.27
324.683	55.12
324.896	42.84
325.109	73.56
325.322	-10.41
325.535	106.32
325.748	55.12
325.962	8.02
326.175	59.22
326.388	5.97
326.601	32.6
326.814	44.88
327.027	14.17
327.24	87.89
327.453	-45.23
327.666	-24.75
327.879	83.8
328.092	85.84
328.305	3.93
328.518	14.17
328.731	-14.51
328.944	132.95
329.157	24.4
329.37	-8.36
329.583	89.94
329.796	100.18
330.009	-8.36
330.222	10.07
330.435	-22.7
330.648	-22.7
330.861	118.61
331.073	102.23
331.286	53.08
331.499	57.17
331.712	18.26
331.925	-43.18
332.138	24.4
332.35	30.55
332.563	30.55
332.776	57.17
332.989	-57.51
333.202	14.17
333.414	30.55
333.627	26.45
333.84	44.88
334.053	22.36
334.265	-41.13
334.478	14.17
334.691	83.8
334.903	5.97
335.116	32.6
335.329	16.21
335.541	38.74
335.754	61.27
335.966	8.02
336.179	67.41
336.392	8.02
336.604	73.56
336.817	38.74
337.029	22.36
337.242	20.31
337.454	18.26
337.667	-16.55
337.88	53.08
338.092	-30.89
338.305	22.36
338.517	10.07
338.729	24.4
338.942	18.26
339.154	3.93
339.367	1.88
339.579	71.51
339.792	-32.94
340.004	65.36
340.217	22.36
340.429	-12.46
340.641	14.17
340.854	-10.41
341.066	98.13
341.278	63.32
341.491	102.23
341.703	20.31
341.915	-14.51
342.128	51.03
342.34	-16.55
342.552	71.51
342.764	65.36
342.977	96.08
343.189	124.76
343.401	-22.7
343.613	-14.51
343.826	3.93
344.038	-0.17
344.25	53.08
344.462	34.64
344.674	42.84
344.886	-16.55
345.099	51.03
345.311	-26.79
345.523	3.93
345.735	-16.55
345.947	91.99
346.159	-104.62
346.371	63.32
346.583	3.93
346.795	112.47
347.007	32.6
347.219	-8.36
347.431	96.08
347.643	55.12
347.855	48.98
348.067	94.04
348.279	-43.18
348.491	36.69
348.703	-4.27
348.915	28.5
349.127	22.36
349.339	51.03
349.551	63.32
349.763	85.84
349.975	-4.27
350.187	65.36
350.399	114.52
350.61	44.88
350.822	48.98
351.034	102.23
351.246	16.21
351.458	-22.7
351.669	81.75
351.881	18.26
352.093	59.22
352.305	163.67
352.517	91.99
352.728	61.27
352.94	63.32
353.152	28.5
353.363	16.21
353.575	57.17
353.787	83.8
353.999	-59.56
354.21	44.88
354.422	77.65
354.633	20.31
354.845	12.12
355.057	28.5
355.268	57.17
355.48	38.74
355.692	5.97
355.903	-4.27
356.115	28.5
356.326	3.93
356.538	91.99
356.749	53.08
356.961	77.65
357.172	55.12
357.384	46.93
357.595	106.32
357.807	36.69
358.018	42.84
358.23	1.88
358.441	28.5
358.653	8.02
358.864	40.79
359.075	-24.75
359.287	-2.22
359.498	75.6
359.709	26.45
359.921	55.12
360.132	55.12
360.344	61.27
360.555	32.6
360.766	34.64
360.977	67.41
361.189	61.27
361.4	87.89
361.611	77.65
361.823	87.89
362.034	-18.6
362.245	63.32
362.456	51.03
362.667	20.31
362.879	3.93
363.09	38.74
363.301	3.93
363.512	53.08
363.723	-28.84
363.935	96.08
364.146	44.88
364.357	73.56
364.568	8.02
364.779	-34.99
364.99	69.46
365.201	-32.94
365.412	81.75
365.623	-34.99
365.834	51.03
366.045	34.64
366.256	89.94
366.467	42.84
366.678	12.12
366.889	36.69
367.1	57.17
367.311	67.41
367.522	108.37
367.733	85.84
367.944	110.42
368.155	-18.6
368.366	24.4
368.577	44.88
368.788	106.32
368.999	12.12
369.209	-18.6
369.42	112.47
369.631	124.76
369.842	89.94
370.053	-4.27
370.264	59.22
370.474	-20.65
370.685	69.46
370.896	51.03
371.107	102.23
371.317	122.71
371.528	38.74
371.739	108.37
371.95	104.28
372.16	61.27
372.371	-24.75
372.582	5.97
372.792	46.93
373.003	55.12
373.214	81.75
373.424	69.46
373.635	30.55
373.846	96.08
374.056	24.4
374.267	42.84
374.477	98.13
374.688	-18.6
374.898	87.89
375.109	3.93
375.319	71.51
375.53	116.56
375.74	10.07
375.951	55.12
376.161	28.5
376.372	83.8
376.582	48.98
376.793	59.22
377.003	10.07
377.214	57.17
377.424	59.22
377.635	69.46
377.845	12.12
378.055	40.79
378.266	5.97
378.476	-4.27
378.686	44.88
378.897	44.88
379.107	153.43
379.317	71.51
379.528	5.97
379.738	65.36
379.948	5.97
380.158	137.04
380.369	-88.23
380.579	67.41
380.789	42.84
380.999	36.69
381.21	42.84
381.42	94.04
381.63	22.36
381.84	32.6
382.05	87.89
382.261	130.9
382.471	77.65
382.681	112.47
382.891	159.57
383.101	57.17
383.311	-51.37
383.521	12.12
383.731	112.47
383.941	30.55
384.151	46.93
384.361	89.94
384.571	112.47
384.781	83.8
384.991	10.07
385.201	130.9
385.411	69.46
385.621	104.28
385.831	-34.99
386.041	-28.84
386.251	55.12
386.461	38.74
386.671	67.41
386.881	79.7
387.091	83.8
387.301	1.88
387.511	42.84
387.72	108.37
387.93	40.79
388.14	-28.84
388.35	32.6
388.56	38.74
388.769	46.93
388.979	63.32
389.189	12.12
389.399	114.52
389.609	110.42
389.818	106.32
390.028	42.84
390.238	79.7
390.447	-0.17
390.657	48.98
390.867	89.94
391.076	-43.18
391.286	46.93
391.496	147.28
391.705	42.84
391.915	67.41
392.125	165.71
392.334	10.07
392.544	118.61
392.753	1.88
392.963	77.65
393.172	61.27
393.382	75.6
393.591	81.75
393.801	87.89
394.01	135
394.22	122.71
394.429	100.18
394.639	-32.94
394.848	110.42
395.058	20.31
395.267	34.64
395.477	14.17
395.686	63.32
395.895	149.33
396.105	163.67
396.314	63.32
396.524	75.6
396.733	24.4
396.942	143.19
397.152	46.93
397.361	155.47
397.57	126.8
397.78	75.6
397.989	110.42
398.198	89.94
398.407	-8.36
398.617	167.76
398.826	147.28
399.035	110.42
399.244	53.08
399.453	63.32
399.663	112.47
399.872	85.84
400.081	71.51
400.29	94.04
400.499	67.41
400.708	102.23
400.917	180.05
401.127	83.8
401.336	94.04
401.545	249.68
401.754	96.08
401.963	143.19
402.172	153.43
402.381	96.08
402.59	87.89
402.799	69.46
403.008	218.96
403.217	112.47
403.426	165.71
403.635	44.88
403.844	73.56
404.053	67.41
404.262	85.84
404.471	196.43
404.68	69.46
404.888	159.57
405.097	118.61
405.306	102.23
405.515	128.85
405.724	184.15
405.933	202.58
406.142	161.62
406.35	202.58
406.559	175.95
406.768	155.47
406.977	188.24
407.185	202.58
407.394	210.77
407.603	132.95
407.812	221.01
408.02	223.06
408.229	98.13
408.438	208.72
408.646	212.82
408.855	225.11
409.064	229.2
409.272	173.91
409.481	249.68
409.69	196.43
409.898	251.73
410.107	268.11
410.315	278.35
410.524	327.5
410.733	366.42
410.941	315.22
411.15	380.75
411.358	294.74
411.567	423.76
411.775	288.59
411.984	374.61
412.192	409.42
412.401	393.04
412.609	390.99
412.818	474.96
413.026	462.67
413.234	481.1
413.443	477.01
413.651	477.01
413.86	501.58
414.068	530.25
414.276	628.56
414.485	532.3
414.693	687.95
414.901	655.18
415.11	601.93
415.318	665.42
415.526	610.12
415.734	657.23
415.943	749.39
416.151	759.63
416.359	794.44
416.567	800.59
416.776	845.64
416.984	857.93
417.192	907.08
417.4	972.61
417.608	792.39
417.817	964.42
418.025	980.81
418.233	1158.98
418.441	1005.38
418.649	1111.88
418.857	1204.03
419.065	1193.8
419.273	1150.79
419.481	1306.43
419.689	1306.43
419.897	1335.1
420.105	1304.39
420.313	1367.87
420.521	1505.09
420.729	1554.24
420.937	1525.57
421.145	1627.96
421.353	1830.71
421.561	1765.18
421.769	1767.23
421.977	1847.1
422.185	1947.45
422.393	1959.74
422.601	2115.38
422.809	2090.81
423.017	2199.35
423.224	2174.77
423.432	2357.04
423.64	2418.48
423.848	2455.34
424.056	2471.73
424.263	2627.37
424.471	2621.23
424.679	2637.61
424.887	2830.12
425.094	2860.84
425.302	2969.38
425.51	3049.25
425.718	3094.31
425.925	3129.13
426.133	3172.13
426.341	3366.69
426.548	3677.98
426.756	3669.79
426.964	3665.69
427.171	3882.78
427.379	4097.81
427.586	4169.49
427.794	4108.05
428.001	4308.76
428.209	4376.34
428.417	4548.37
428.624	4890.38
428.832	4882.19
429.039	4792.08
429.247	4853.52
429.454	5142.28
429.662	5758.72
429.869	5154.57
430.076	5678.85
430.284	5472
430.491	5660.41
430.699	5906.17
430.906	6057.72
431.114	6070.01
431.321	6471.41
431.528	6522.61
431.736	6741.74
431.943	7020.27
432.15	6995.69
432.358	6983.4
432.565	7487.2
432.772	7380.71
432.979	7671.52
433.187	7923.42
433.394	7988.96
433.601	8634.07
433.808	8441.56
434.016	8568.53
434.223	9019.08
434.43	9488.07
434.637	9395.91
434.844	9916.09
435.052	10100.41
435.259	9920.19
435.466	10084.03
435.673	9875.13
435.88	10688.18
436.087	10989.23
436.294	11058.86
436.501	10858.16
436.708	10888.88
436.915	11445.93
437.122	12005.02
437.329	11931.3
437.537	12142.24
437.743	12547.73
437.95	12443.29
438.157	13094.54
438.364	13680.26
438.571	13534.85
438.778	13547.14
438.985	14827.12
439.192	14182.01
439.399	14814.84
439.606	14399.1
439.813	15326.83
440.02	16150.11
440.227	15668.84
440.433	15707.75
440.64	16227.93
440.847	16199.26
441.054	16422.49
441.261	17776.2
441.467	17497.67
441.674	17897.03
441.881	18447.93
442.088	18388.54
442.294	18150.98
442.501	18859.57
442.708	19095.09
442.914	19682.86
443.121	20571.68
443.328	20004.39
443.534	21337.62
443.741	20981.27
443.948	20557.34
444.154	22212.1
444.361	22277.63
444.568	22427.14
444.774	22492.67
444.981	22304.26
445.187	23264.75
445.394	24274.4
445.6	23764.46
445.807	25863.63
446.013	24786.4
446.22	25277.91
446.426	26676.67
446.633	26842.56
446.839	27409.84
447.046	26496.45
447.252	27872.68
447.459	28034.47
447.665	27927.98
447.871	29281.69
448.078	30399.88
448.284	28734.88
448.491	29783.44
448.697	30702.98
448.903	31614.32
449.11	31464.82
449.316	30903.68
449.522	31497.59
449.728	32445.8
449.935	32472.42
450.141	32507.24
450.347	33543.51
450.553	32093.55
450.76	32544.1
450.966	33590.61
451.172	33207.64
451.378	34397.51
451.584	33680.72
451.791	33944.91
451.997	34151.76
452.203	34657.6
452.409	34776.39
452.615	34596.17
452.821	33144.16
453.027	33244.51
453.233	34770.24
453.44	33887.57
453.646	33748.31
453.852	34010.45
454.058	34628.93
454.264	33621.33
454.47	34176.33
454.676	33187.16
454.882	34508.1
455.088	31135.1
455.294	31837.55
455.5	32480.61
455.705	32494.95
455.911	31262.07
456.117	30553.48
456.323	30256.52
456.529	28786.08
456.735	29386.13
456.941	29029.79
457.147	28677.54
457.352	27911.6
457.558	27319.73
457.764	27639.22
457.97	27145.66
458.176	26445.25
458.381	26795.45
458.587	24831.45
458.793	24954.33
458.999	24141.28
459.204	25212.37
459.41	24888.79
459.616	22726.14
459.821	23141.88
460.027	22760.95
460.233	22521.34
460.438	21487.12
460.644	21667.34
460.85	20549.15
461.055	20334.11
461.261	20098.59
461.466	18751.03
461.672	18232.9
461.878	19404.33
462.083	18277.95
462.289	17825.35
462.494	17626.7
462.7	16893.52
462.905	16303.71
463.111	17208.91
463.316	17208.91
463.522	16688.73
463.727	16877.14
463.932	16678.49
464.138	16557.66
464.343	16469.59
464.549	16156.25
464.754	16393.82
464.959	16535.13
465.165	16309.85
465.37	15535.72
465.575	15496.81
465.781	15922.79
465.986	16117.34
466.191	15337.07
466.397	15081.07
466.602	14481.02
466.807	14902.9
467.012	14972.53
467.218	14863.99
467.423	14360.19
467.628	14728.82
