Data from USB4F104151__31__12-23-44-110.txt Node

Date: Fri Mar 14 12:23:44 EDT 2025
User: louis
Spectrometer: USB4F10415
Trigger mode: 4
Integration Time (sec): 3.500000E-2
Scans to average: 1
Electric dark correction enabled: true
Nonlinearity correction enabled: false
Boxcar width: 0
XAxis mode: Wavelengths
Number of Pixels in Spectrum: 3648
>>>>>Begin Spectral Data<<<<<
178.204	-139.6
178.424	-139.6
178.644	-139.6
178.864	-176.47
179.084	-106.84
179.304	-29.01
179.524	-26.96
179.744	26.28
179.964	-12.63
180.184	-8.53
180.404	-4.44
180.624	-29.01
180.844	52.91
181.064	-22.87
181.283	5.8
181.503	48.81
181.723	-0.34
181.943	-33.11
182.163	128.68
182.383	-35.16
182.602	32.43
182.822	65.19
183.042	44.71
183.262	-6.49
183.482	32.43
183.701	-18.77
183.921	38.57
184.141	36.52
184.361	95.91
184.58	24.23
184.8	30.38
185.02	11.95
185.239	71.34
185.459	44.71
185.679	32.43
185.898	-47.44
186.118	3.75
186.338	-86.36
186.557	36.52
186.777	-18.77
186.997	36.52
187.216	-49.49
187.436	48.81
187.655	18.09
187.875	40.62
188.095	-41.3
188.314	61.1
188.534	100.01
188.753	-72.02
188.973	-10.58
189.192	26.28
189.412	-4.44
189.631	65.19
189.851	-37.2
190.07	100.01
190.29	-88.4
190.509	61.1
190.729	67.24
190.948	42.67
191.168	190.12
191.387	38.57
191.607	38.57
191.826	40.62
192.045	-24.92
192.265	71.34
192.484	24.23
192.704	-8.53
192.923	-65.88
193.142	46.76
193.362	3.75
193.581	-45.4
193.8	3.75
194.02	61.1
194.239	7.85
194.458	20.14
194.678	57
194.897	-31.06
195.116	59.05
195.335	36.52
195.555	-35.16
195.774	-37.2
195.993	44.71
196.212	-26.96
196.432	-29.01
196.651	-12.63
196.87	-18.77
197.089	42.67
197.308	-29.01
197.528	46.76
197.747	-45.4
197.966	-41.3
198.185	38.57
198.404	-29.01
198.623	9.9
198.842	-14.68
199.062	38.57
199.281	42.67
199.5	-4.44
199.719	54.95
199.938	-22.87
200.157	52.91
200.376	3.75
200.595	-2.39
200.814	-16.73
201.033	71.34
201.252	26.28
201.471	28.33
201.69	75.43
201.909	32.43
202.128	-39.25
202.347	28.33
202.566	-12.63
202.785	36.52
203.004	-4.44
203.223	65.19
203.442	57
203.661	36.52
203.879	59.05
204.098	20.14
204.317	-51.54
204.536	85.67
204.755	32.43
204.974	20.14
205.193	-57.68
205.411	85.67
205.63	-8.53
205.849	1.71
206.068	61.1
206.287	38.57
206.505	48.81
206.724	-24.92
206.943	-2.39
207.162	-57.68
207.381	3.75
207.599	-10.58
207.818	46.76
208.037	9.9
208.255	-51.54
208.474	-37.2
208.693	42.67
208.911	32.43
209.13	9.9
209.349	-26.96
209.567	3.75
209.786	9.9
210.005	38.57
210.223	71.34
210.442	-39.25
210.661	69.29
210.879	42.67
211.098	40.62
211.316	81.58
211.535	32.43
211.753	16.04
211.972	22.19
212.191	44.71
212.409	-10.58
212.628	3.75
212.846	11.95
213.065	61.1
213.283	18.09
213.502	-67.92
213.72	-0.34
213.938	38.57
214.157	59.05
214.375	-2.39
214.594	-4.44
214.812	-26.96
215.031	-26.96
215.249	11.95
215.467	20.14
215.686	44.71
215.904	85.67
216.122	-33.11
216.341	9.9
216.559	3.75
216.778	11.95
216.996	67.24
217.214	30.38
217.432	-45.4
217.651	-29.01
217.869	-18.77
218.087	-47.44
218.306	16.04
218.524	67.24
218.742	34.47
218.96	-24.92
219.179	28.33
219.397	18.09
219.615	-2.39
219.833	40.62
220.051	52.91
220.27	85.67
220.488	-92.5
220.706	16.04
220.924	22.19
221.142	-16.73
221.36	32.43
221.578	1.71
221.796	75.43
222.015	61.1
222.233	48.81
222.451	69.29
222.669	36.52
222.887	20.14
223.105	16.04
223.323	44.71
223.541	-51.54
223.759	54.95
223.977	-10.58
224.195	59.05
224.413	24.23
224.631	63.15
224.849	104.11
225.067	67.24
225.285	5.8
225.503	54.95
225.721	-18.77
225.939	87.72
226.157	50.86
226.375	134.82
226.592	-6.49
226.81	16.04
227.028	34.47
227.246	40.62
227.464	30.38
227.682	16.04
227.9	7.85
228.117	85.67
228.335	50.86
228.553	-2.39
228.771	1.71
228.989	20.14
229.206	67.24
229.424	-31.06
229.642	-39.25
229.86	-45.4
230.077	24.23
230.295	54.95
230.513	79.53
230.731	44.71
230.948	28.33
231.166	65.19
231.384	9.9
231.601	32.43
231.819	165.54
232.037	-2.39
232.254	-12.63
232.472	52.91
232.689	-49.49
232.907	83.63
233.125	-22.87
233.342	-67.92
233.56	-0.34
233.777	16.04
233.995	83.63
234.213	44.71
234.43	13.99
234.648	26.28
234.865	-2.39
235.083	50.86
235.3	-41.3
235.518	102.06
235.735	40.62
235.953	32.43
236.17	83.63
236.388	-8.53
236.605	-20.82
236.822	57
237.04	44.71
237.257	20.14
237.475	3.75
237.692	38.57
237.909	11.95
238.127	20.14
238.344	-12.63
238.562	83.63
238.779	-20.82
238.996	-74.07
239.214	13.99
239.431	28.33
239.648	20.14
239.865	40.62
240.083	36.52
240.3	50.86
240.517	1.71
240.735	5.8
240.952	-16.73
241.169	18.09
241.386	153.26
241.603	20.14
241.821	-35.16
242.038	50.86
242.255	42.67
242.472	-24.92
242.689	57
242.907	-14.68
243.124	44.71
243.341	-6.49
243.558	-26.96
243.775	13.99
243.992	-61.78
244.209	81.58
244.426	71.34
244.643	69.29
244.86	-0.34
245.078	38.57
245.295	16.04
245.512	28.33
245.729	-31.06
245.946	42.67
246.163	18.09
246.38	-2.39
246.597	-8.53
246.814	87.72
247.031	1.71
247.248	1.71
247.464	-4.44
247.681	30.38
247.898	18.09
248.115	93.87
248.332	-18.77
248.549	40.62
248.766	28.33
248.983	85.67
249.2	-16.73
249.417	16.04
249.633	-6.49
249.85	-67.92
250.067	18.09
250.284	11.95
250.501	50.86
250.717	24.23
250.934	-14.68
251.151	67.24
251.368	24.23
251.585	-0.34
251.801	48.81
252.018	1.71
252.235	-20.82
252.451	-72.02
252.668	-0.34
252.885	61.1
253.102	-29.01
253.318	16.04
253.535	-8.53
253.752	16.04
253.968	30.38
254.185	-59.73
254.401	22.19
254.618	-2.39
254.835	34.47
255.051	54.95
255.268	67.24
255.484	-6.49
255.701	-0.34
255.917	-6.49
256.134	-26.96
256.351	85.67
256.567	13.99
256.784	-8.53
257	-22.87
257.217	22.19
257.433	75.43
257.65	-37.2
257.866	16.04
258.082	-4.44
258.299	-80.21
258.515	42.67
258.732	-14.68
258.948	-16.73
259.165	50.86
259.381	-18.77
259.597	18.09
259.814	3.75
260.03	11.95
260.246	-33.11
260.463	63.15
260.679	46.76
260.895	11.95
261.112	75.43
261.328	-82.26
261.544	-22.87
261.761	3.75
261.977	-2.39
262.193	-63.83
262.409	-47.44
262.626	34.47
262.842	-39.25
263.058	-61.78
263.274	52.91
263.49	-31.06
263.707	52.91
263.923	24.23
264.139	-8.53
264.355	79.53
264.571	79.53
264.787	3.75
265.004	9.9
265.22	-16.73
265.436	42.67
265.652	20.14
265.868	44.71
266.084	71.34
266.3	93.87
266.516	16.04
266.732	-8.53
266.948	20.14
267.164	16.04
267.38	18.09
267.596	36.52
267.812	61.1
268.028	16.04
268.244	-18.77
268.46	36.52
268.676	59.05
268.892	7.85
269.108	3.75
269.324	-26.96
269.54	-57.68
269.756	-12.63
269.972	11.95
270.188	11.95
270.403	-12.63
270.619	-22.87
270.835	1.71
271.051	-16.73
271.267	-8.53
271.483	28.33
271.698	26.28
271.914	18.09
272.13	28.33
272.346	-43.35
272.562	9.9
272.777	83.63
272.993	59.05
273.209	-4.44
273.425	89.77
273.64	-35.16
273.856	63.15
274.072	-53.59
274.287	5.8
274.503	75.43
274.719	57
274.934	24.23
275.15	-2.39
275.366	-16.73
275.581	26.28
275.797	-0.34
276.012	50.86
276.228	38.57
276.444	13.99
276.659	48.81
276.875	-18.77
277.09	11.95
277.306	-8.53
277.521	87.72
277.737	38.57
277.952	48.81
278.168	36.52
278.383	5.8
278.599	-29.01
278.814	130.73
279.03	5.8
279.245	38.57
279.461	61.1
279.676	93.87
279.892	-69.97
280.107	-63.83
280.322	5.8
280.538	-86.36
280.753	-14.68
280.969	-12.63
281.184	13.99
281.399	63.15
281.615	-47.44
281.83	1.71
282.045	26.28
282.26	-2.39
282.476	-10.58
282.691	-26.96
282.906	22.19
283.122	36.52
283.337	34.47
283.552	-14.68
283.767	-16.73
283.983	44.71
284.198	-31.06
284.413	73.39
284.628	-29.01
284.843	48.81
285.058	63.15
285.274	40.62
285.489	-16.73
285.704	42.67
285.919	22.19
286.134	16.04
286.349	-6.49
286.564	-22.87
286.779	59.05
286.995	46.76
287.21	-88.4
287.425	1.71
287.64	-8.53
287.855	-8.53
288.07	38.57
288.285	-0.34
288.5	11.95
288.715	44.71
288.93	-10.58
289.145	-65.88
289.36	22.19
289.575	28.33
289.79	-2.39
290.004	1.71
290.219	44.71
290.434	16.04
290.649	54.95
290.864	-6.49
291.079	9.9
291.294	61.1
291.509	22.19
291.724	7.85
291.938	-16.73
292.153	81.58
292.368	-26.96
292.583	85.67
292.798	71.34
293.012	71.34
293.227	32.43
293.442	75.43
293.657	-14.68
293.871	63.15
294.086	36.52
294.301	59.05
294.516	126.63
294.73	-4.44
294.945	30.38
295.16	50.86
295.374	81.58
295.589	7.85
295.804	-67.92
296.018	-43.35
296.233	112.3
296.447	16.04
296.662	16.04
296.877	73.39
297.091	-39.25
297.306	42.67
297.52	44.71
297.735	40.62
297.949	83.63
298.164	54.95
298.378	22.19
298.593	36.52
298.807	13.99
299.022	83.63
299.236	18.09
299.451	36.52
299.665	-72.02
299.88	75.43
300.094	-37.2
300.309	-29.01
300.523	73.39
300.737	-20.82
300.952	18.09
301.166	9.9
301.381	9.9
301.595	83.63
301.809	34.47
302.024	11.95
302.238	-35.16
302.452	57
302.667	46.76
302.881	89.77
303.095	3.75
303.309	-22.87
303.524	7.85
303.738	-31.06
303.952	46.76
304.166	93.87
304.381	-31.06
304.595	20.14
304.809	-14.68
305.023	-14.68
305.237	11.95
305.452	69.29
305.666	48.81
305.88	3.75
306.094	-53.59
306.308	5.8
306.522	20.14
306.736	54.95
306.95	34.47
307.164	-8.53
307.379	20.14
307.593	44.71
307.807	65.19
308.021	1.71
308.235	20.14
308.449	-74.07
308.663	81.58
308.877	85.67
309.091	18.09
309.305	34.47
309.519	38.57
309.733	22.19
309.947	-20.82
310.161	73.39
310.374	-35.16
310.588	81.58
310.802	-0.34
311.016	67.24
311.23	40.62
311.444	40.62
311.658	97.96
311.872	-33.11
312.085	24.23
312.299	73.39
312.513	42.67
312.727	44.71
312.941	-18.77
313.154	52.91
313.368	11.95
313.582	5.8
313.796	38.57
314.009	-69.97
314.223	34.47
314.437	67.24
314.651	40.62
314.864	-4.44
315.078	38.57
315.292	-20.82
315.505	67.24
315.719	-20.82
315.933	100.01
316.146	83.63
316.36	-35.16
316.573	106.15
316.787	71.34
317.001	-2.39
317.214	38.57
317.428	-33.11
317.641	-12.63
317.855	-35.16
318.068	-39.25
318.282	-33.11
318.495	46.76
318.709	48.81
318.922	-12.63
319.136	5.8
319.349	-6.49
319.563	67.24
319.776	69.29
319.99	-69.97
320.203	46.76
320.417	38.57
320.63	26.28
320.843	97.96
321.057	32.43
321.27	75.43
321.483	30.38
321.697	100.01
321.91	65.19
322.124	3.75
322.337	24.23
322.55	50.86
322.763	67.24
322.977	11.95
323.19	1.71
323.403	-8.53
323.617	126.63
323.83	30.38
324.043	59.05
324.256	52.91
324.469	-0.34
324.683	71.34
324.896	-53.59
325.109	-29.01
325.322	-18.77
325.535	93.87
325.748	-29.01
325.962	-22.87
326.175	95.91
326.388	30.38
326.601	9.9
326.814	34.47
327.027	63.15
327.24	34.47
327.453	-41.3
327.666	-18.77
327.879	102.06
328.092	-6.49
328.305	50.86
328.518	-82.26
328.731	40.62
328.944	81.58
329.157	34.47
329.37	-37.2
329.583	97.96
329.796	52.91
330.009	-51.54
330.222	77.48
330.435	63.15
330.648	18.09
330.861	-14.68
331.073	38.57
331.286	48.81
331.499	20.14
331.712	-16.73
331.925	-12.63
332.138	65.19
332.35	-16.73
332.563	-31.06
332.776	67.24
332.989	-4.44
333.202	34.47
333.414	-16.73
333.627	22.19
333.84	-8.53
334.053	13.99
334.265	-18.77
334.478	24.23
334.691	44.71
334.903	22.19
335.116	-12.63
335.329	-39.25
335.541	26.28
335.754	38.57
335.966	7.85
336.179	-20.82
336.392	83.63
336.604	46.76
336.817	110.25
337.029	-33.11
337.242	7.85
337.454	22.19
337.667	24.23
337.88	52.91
338.092	-20.82
338.305	20.14
338.517	7.85
338.729	-20.82
338.942	63.15
339.154	52.91
339.367	9.9
339.579	112.3
339.792	-6.49
340.004	73.39
340.217	-41.3
340.429	20.14
340.641	16.04
340.854	28.33
341.066	24.23
341.278	22.19
341.491	100.01
341.703	20.14
341.915	11.95
342.128	24.23
342.34	26.28
342.552	9.9
342.764	-41.3
342.977	-18.77
343.189	40.62
343.401	-10.58
343.613	-2.39
343.826	20.14
344.038	-37.2
344.25	9.9
344.462	9.9
344.674	18.09
344.886	44.71
345.099	-4.44
345.311	26.28
345.523	11.95
345.735	-37.2
345.947	85.67
346.159	-53.59
346.371	-41.3
346.583	87.72
346.795	114.34
347.007	32.43
347.219	26.28
347.431	-51.54
347.643	77.48
347.855	28.33
348.067	5.8
348.279	11.95
348.491	54.95
348.703	1.71
348.915	-10.58
349.127	-41.3
349.339	50.86
349.551	-33.11
349.763	63.15
349.975	30.38
350.187	32.43
350.399	69.29
350.61	-14.68
350.822	38.57
351.034	48.81
351.246	75.43
351.458	22.19
351.669	67.24
351.881	54.95
352.093	42.67
352.305	38.57
352.517	52.91
352.728	-51.54
352.94	22.19
353.152	44.71
353.363	22.19
353.575	3.75
353.787	57
353.999	-6.49
354.21	97.96
354.422	-8.53
354.633	36.52
354.845	34.47
355.057	42.67
355.268	30.38
355.48	32.43
355.692	-45.4
355.903	16.04
356.115	-39.25
356.326	-26.96
356.538	24.23
356.749	-18.77
356.961	97.96
357.172	18.09
357.384	18.09
357.595	108.2
357.807	61.1
358.018	40.62
358.23	-2.39
358.441	46.76
358.653	-8.53
358.864	26.28
359.075	-29.01
359.287	-37.2
359.498	65.19
359.709	-2.39
359.921	108.2
360.132	61.1
360.344	20.14
360.555	1.71
360.766	24.23
360.977	83.63
361.189	-8.53
361.4	-10.58
361.611	59.05
361.823	26.28
362.034	20.14
362.245	-16.73
362.456	-2.39
362.667	52.91
362.879	104.11
363.09	9.9
363.301	73.39
363.512	52.91
363.723	69.29
363.935	13.99
364.146	20.14
364.357	32.43
364.568	69.29
364.779	-31.06
364.99	50.86
365.201	9.9
365.412	40.62
365.623	-43.35
365.834	36.52
366.045	7.85
366.256	57
366.467	46.76
366.678	32.43
366.889	79.53
367.1	83.63
367.311	73.39
367.522	-43.35
367.733	67.24
367.944	79.53
368.155	-10.58
368.366	63.15
368.577	50.86
368.788	73.39
368.999	-67.92
369.209	67.24
369.42	67.24
369.631	95.91
369.842	44.71
370.053	-37.2
370.264	5.8
370.474	-29.01
370.685	1.71
370.896	57
371.107	38.57
371.317	63.15
371.528	-20.82
371.739	18.09
371.95	57
372.16	95.91
372.371	20.14
372.582	52.91
372.792	59.05
373.003	32.43
373.214	9.9
373.424	91.82
373.635	-20.82
373.846	44.71
374.056	-0.34
374.267	11.95
374.477	-24.92
374.688	-8.53
374.898	30.38
375.109	-6.49
375.319	65.19
375.53	114.34
375.74	63.15
375.951	-6.49
376.161	26.28
376.372	54.95
376.582	11.95
376.793	77.48
377.003	95.91
377.214	18.09
377.424	22.19
377.635	67.24
377.845	5.8
378.055	77.48
378.266	1.71
378.476	-45.4
378.686	151.21
378.897	13.99
379.107	11.95
379.317	67.24
379.528	50.86
379.738	-10.58
379.948	-2.39
380.158	5.8
380.369	13.99
380.579	77.48
380.789	-16.73
380.999	-26.96
381.21	3.75
381.42	40.62
381.63	5.8
381.84	116.39
382.05	75.43
382.261	112.3
382.471	44.71
382.681	-0.34
382.891	77.48
383.101	73.39
383.311	3.75
383.521	-39.25
383.731	108.2
383.941	-14.68
384.151	132.78
384.361	83.63
384.571	30.38
384.781	52.91
384.991	145.06
385.201	57
385.411	61.1
385.621	65.19
385.831	79.53
386.041	44.71
386.251	-76.12
386.461	-8.53
386.671	-12.63
386.881	110.25
387.091	52.91
387.301	36.52
387.511	52.91
387.72	122.54
387.93	34.47
388.14	-16.73
388.35	-18.77
388.56	69.29
388.769	71.34
388.979	-6.49
389.189	114.34
389.399	22.19
389.609	50.86
389.818	13.99
390.028	34.47
390.238	-8.53
390.447	24.23
390.657	61.1
390.867	9.9
391.076	38.57
391.286	40.62
391.496	79.53
391.705	28.33
391.915	108.2
392.125	48.81
392.334	110.25
392.544	77.48
392.753	93.87
392.963	11.95
393.172	18.09
393.382	-29.01
393.591	155.3
393.801	67.24
394.01	134.82
394.22	69.29
394.429	40.62
394.639	-12.63
394.848	61.1
395.058	100.01
395.267	81.58
395.477	9.9
395.686	18.09
395.895	108.2
396.105	134.82
396.314	151.21
396.524	57
396.733	36.52
396.942	57
397.152	100.01
397.361	165.54
397.57	3.75
397.78	32.43
397.989	89.77
398.198	54.95
398.407	-16.73
398.617	50.86
398.826	38.57
399.035	63.15
399.244	83.63
399.453	61.1
399.663	126.63
399.872	38.57
400.081	130.73
400.29	52.91
400.499	28.33
400.708	128.68
400.917	50.86
401.127	145.06
401.336	1.71
401.545	97.96
401.754	116.39
401.963	85.67
402.172	16.04
402.381	91.82
402.59	130.73
402.799	67.24
403.008	130.73
403.217	30.38
403.426	75.43
403.635	50.86
403.844	34.47
404.053	85.67
404.262	81.58
404.471	97.96
404.68	67.24
404.888	108.2
405.097	77.48
405.306	104.11
405.515	73.39
405.724	89.77
405.933	136.87
406.142	114.34
406.35	161.45
406.559	128.68
406.768	122.54
406.977	136.87
407.185	140.97
407.394	175.78
407.603	-10.58
407.812	116.39
408.02	132.78
408.229	114.34
408.438	126.63
408.646	143.02
408.855	206.5
409.064	177.83
409.272	183.98
409.481	222.89
409.69	206.5
409.898	169.64
410.107	235.18
410.315	208.55
410.524	249.51
410.733	282.28
410.941	243.37
411.15	378.53
411.358	190.12
411.567	261.8
411.775	229.03
411.984	345.77
412.192	310.95
412.401	282.28
412.609	366.25
412.818	372.39
413.026	296.61
413.234	325.29
413.443	306.85
413.651	362.15
413.86	345.77
414.068	421.54
414.276	474.79
414.485	495.27
414.693	435.88
414.901	552.61
415.11	476.84
415.318	413.35
415.526	452.26
415.734	554.66
415.943	597.67
416.151	616.1
416.359	595.62
416.567	489.12
416.776	528.03
416.984	712.35
417.192	788.13
417.4	657.06
417.608	704.16
417.817	749.22
418.025	851.61
418.233	822.94
418.441	788.13
418.649	900.76
418.857	929.44
419.065	947.87
419.273	894.62
419.481	954.01
419.689	1099.42
419.897	1058.46
420.105	1080.99
420.313	1158.81
420.521	1183.38
420.729	1171.1
420.937	1244.82
421.145	1279.64
421.353	1447.57
421.561	1400.47
421.769	1386.13
421.977	1572.5
422.185	1429.14
422.393	1586.83
422.601	1678.99
422.809	1640.08
423.017	1703.57
423.224	1832.59
423.432	1773.2
423.64	1902.22
423.848	1990.28
424.056	1793.68
424.263	2176.65
424.471	2158.22
424.679	2139.79
424.887	2309.77
425.094	2395.78
425.302	2313.86
425.51	2354.82
425.718	2444.93
425.925	2498.18
426.133	2471.56
426.341	2932.35
426.548	2832
426.756	2797.18
426.964	3032.7
427.171	3231.35
427.379	3104.38
427.586	3266.17
427.794	3241.59
428.001	3470.97
428.209	3595.89
428.417	3546.74
428.624	3778.16
428.832	3767.92
429.039	3624.56
429.247	3792.5
429.454	4118.12
429.662	4355.69
429.869	4257.39
430.076	4408.94
430.284	4329.06
430.491	4468.33
430.699	4673.12
430.906	4701.79
431.114	4912.74
431.321	5054.05
431.528	5043.81
431.736	5299.8
431.943	5641.81
432.15	5652.05
432.358	5494.36
432.565	5949.01
432.772	5826.13
432.979	6149.71
433.187	6266.44
433.394	6301.26
433.601	6606.41
433.808	6708.8
434.016	6770.24
434.223	6991.42
434.43	7376.44
434.637	7329.34
434.844	7704.12
435.052	7853.62
435.259	7765.56
435.466	7816.76
435.673	8058.42
435.88	8222.25
436.087	8887.84
436.294	8826.4
436.501	8676.9
436.708	8828.45
436.915	9236
437.122	9436.7
437.329	9301.53
437.537	9784.85
437.743	9817.62
437.95	10075.66
438.157	10296.85
438.364	10751.49
438.571	10665.48
438.778	10753.54
438.985	11593.21
439.192	11228.67
439.399	11650.55
439.606	11357.69
439.813	12021.24
440.02	12668.39
440.227	12629.48
440.433	12594.67
440.64	12776.94
440.847	12647.91
441.054	13200.87
441.261	13936.09
441.467	13649.37
441.674	14142.93
441.881	14622.16
442.088	14220.75
442.294	14249.43
442.501	14751.18
442.708	15324.61
442.914	15668.67
443.121	16154.04
443.328	16160.18
443.534	17145.25
443.741	16405.94
443.948	16244.15
444.154	17806.75
444.361	17292.71
444.568	17569.18
444.774	17700.25
444.981	17882.52
445.187	18396.56
445.394	18718.09
445.6	19107.21
445.807	20403.57
446.013	19905.91
446.22	19875.2
446.426	20774.25
446.633	20895.08
446.839	21706.08
447.046	21142.89
447.252	21894.49
447.459	22132.06
447.665	21917.02
447.871	23106.89
448.078	24309.05
448.284	22744.4
448.491	23661.89
448.697	24671.54
448.903	24991.02
449.11	25122.09
449.316	24427.83
449.522	24972.59
449.728	25951.52
449.935	26133.79
450.141	25969.95
450.347	26809.62
450.553	25765.15
450.76	25709.86
450.966	26744.08
451.172	26621.2
451.378	27041.04
451.584	26492.18
451.791	27354.38
451.997	27071.76
452.203	27749.64
452.409	27505.93
452.615	27593.99
452.821	26371.35
453.027	25894.18
453.233	27428.1
453.44	26426.65
453.646	26869.01
453.852	26613.01
454.058	27041.04
454.264	25871.65
454.47	27024.65
454.676	26230.04
454.882	27215.12
455.088	24788.27
455.294	24982.83
455.5	25842.98
455.705	25892.13
455.911	24864.05
456.117	24569.14
456.323	23811.39
456.529	22758.74
456.735	23764.29
456.941	22945.1
457.147	22705.49
457.352	21943.64
457.558	21618.02
457.764	21474.66
457.97	21357.92
458.176	21017.96
458.381	20907.37
458.587	20049.27
458.793	19664.25
458.999	18603.41
459.204	20145.53
459.41	19717.5
459.616	18171.29
459.821	18353.55
460.027	18142.61
460.233	17921.43
460.438	16960.94
460.644	17034.66
460.85	16352.69
461.055	16149.94
461.261	15791.55
461.466	14804.42
461.672	14427.6
461.878	15539.65
462.083	14509.52
462.289	14067.16
462.494	14071.25
462.7	13317.6
462.905	13088.23
463.111	13483.48
463.316	13686.23
463.522	13096.42
463.727	13131.23
463.932	13055.46
464.138	12983.78
464.343	13018.6
464.549	12631.53
464.754	13084.13
464.959	12926.44
465.165	12969.44
465.37	12219.89
465.575	12103.15
465.781	12641.77
465.986	12688.87
466.191	12117.49
466.397	11879.93
466.602	11224.58
466.807	11748.86
467.012	11771.38
467.218	12041.71
467.423	11609.59
467.628	11642.36
