Data from USB4F104151__21__12-23-32-246.txt Node

Date: Fri Mar 14 12:23:32 EDT 2025
User: louis
Spectrometer: USB4F10415
Trigger mode: 4
Integration Time (sec): 3.500000E-2
Scans to average: 1
Electric dark correction enabled: true
Nonlinearity correction enabled: false
Boxcar width: 0
XAxis mode: Wavelengths
Number of Pixels in Spectrum: 3648
>>>>>Begin Spectral Data<<<<<
178.204	-161.11
178.424	-161.11
178.644	-161.11
178.864	-120.15
179.084	-144.72
179.304	-36.18
179.524	-93.52
179.744	-60.76
179.964	55.98
180.184	19.11
180.404	2.73
180.624	0.68
180.844	35.5
181.064	-34.13
181.283	31.4
181.503	33.45
181.723	45.74
181.943	8.87
182.163	62.12
182.383	60.07
182.602	70.31
182.822	6.83
183.042	96.94
183.262	-23.89
183.482	25.26
183.701	101.03
183.921	78.51
184.141	21.16
184.361	47.79
184.58	8.87
184.8	78.51
185.02	-9.56
185.239	111.27
185.459	27.31
185.679	62.12
185.898	-36.18
186.118	19.11
186.338	92.84
186.557	64.17
186.777	-25.94
186.997	60.07
187.216	53.93
187.436	6.83
187.655	35.5
187.875	43.69
188.095	45.74
188.314	86.7
188.534	80.55
188.753	23.21
188.973	15.02
189.192	12.97
189.412	31.4
189.631	78.51
189.851	17.07
190.07	49.83
190.29	4.78
190.509	60.07
190.729	45.74
190.948	53.93
191.168	197.29
191.387	58.03
191.607	-58.71
191.826	92.84
192.045	-13.65
192.265	-19.8
192.484	10.92
192.704	-9.56
192.923	21.16
193.142	103.08
193.362	31.4
193.581	8.87
193.8	111.27
194.02	25.26
194.239	23.21
194.458	31.4
194.678	12.97
194.897	19.11
195.116	33.45
195.335	-44.37
195.555	62.12
195.774	49.83
195.993	109.22
196.212	64.17
196.432	2.73
196.651	47.79
196.87	53.93
197.089	82.6
197.308	-25.94
197.528	29.35
197.747	-3.41
197.966	-15.7
198.185	70.31
198.404	21.16
198.623	70.31
198.842	41.64
199.062	21.16
199.281	127.66
199.5	31.4
199.719	76.46
199.938	-27.99
200.157	62.12
200.376	17.07
200.595	101.03
200.814	96.94
201.033	55.98
201.252	109.22
201.471	-44.37
201.69	64.17
201.909	19.11
202.128	107.18
202.347	76.46
202.566	0.68
202.785	0.68
203.004	-17.75
203.223	80.55
203.442	-32.08
203.661	72.36
203.879	90.79
204.098	27.31
204.317	-107.86
204.536	27.31
204.755	66.22
204.974	-21.85
205.193	25.26
205.411	86.7
205.63	49.83
205.849	74.41
206.068	41.64
206.287	-15.7
206.505	45.74
206.724	47.79
206.943	33.45
207.162	6.83
207.381	17.07
207.599	68.27
207.818	-23.89
208.037	41.64
208.255	-11.61
208.474	17.07
208.693	109.22
208.911	33.45
209.13	21.16
209.349	68.27
209.567	72.36
209.786	76.46
210.005	84.65
210.223	-40.28
210.442	0.68
210.661	39.59
210.879	45.74
211.098	94.89
211.316	2.73
211.535	45.74
211.753	43.69
211.972	74.41
212.191	12.97
212.409	4.78
212.628	21.16
212.846	-44.37
213.065	-13.65
213.283	31.4
213.502	66.22
213.72	-36.18
213.938	-25.94
214.157	72.36
214.375	51.88
214.594	-36.18
214.812	51.88
215.031	43.69
215.249	60.07
215.467	4.78
215.686	15.02
215.904	53.93
216.122	15.02
216.341	113.32
216.559	154.28
216.778	60.07
216.996	23.21
217.214	33.45
217.432	-32.08
217.651	-38.23
217.869	43.69
218.087	82.6
218.306	-13.65
218.524	55.98
218.742	49.83
218.96	109.22
219.179	53.93
219.397	31.4
219.615	148.14
219.833	98.99
220.051	4.78
220.27	41.64
220.488	-9.56
220.706	-19.8
220.924	23.21
221.142	0.68
221.36	45.74
221.578	0.68
221.796	12.97
222.015	19.11
222.233	27.31
222.451	68.27
222.669	66.22
222.887	86.7
223.105	4.78
223.323	15.02
223.541	37.55
223.759	64.17
223.977	29.35
224.195	115.37
224.413	41.64
224.631	66.22
224.849	43.69
225.067	55.98
225.285	-15.7
225.503	29.35
225.721	-13.65
225.939	80.55
226.157	-7.51
226.375	135.85
226.592	-38.23
226.81	-15.7
227.028	84.65
227.246	115.37
227.464	21.16
227.682	58.03
227.9	92.84
228.117	-60.76
228.335	-7.51
228.553	64.17
228.771	-21.85
228.989	31.4
229.206	60.07
229.424	-23.89
229.642	74.41
229.86	2.73
230.077	31.4
230.295	45.74
230.513	76.46
230.731	23.21
230.948	90.79
231.166	76.46
231.384	0.68
231.601	47.79
231.819	121.51
232.037	35.5
232.254	-3.41
232.472	88.75
232.689	17.07
232.907	109.22
233.125	-30.04
233.342	109.22
233.56	-13.65
233.777	70.31
233.995	29.35
234.213	137.9
234.43	-3.41
234.648	-1.37
234.865	58.03
235.083	49.83
235.3	29.35
235.518	-7.51
235.735	92.84
235.953	55.98
236.17	51.88
236.388	64.17
236.605	-21.85
236.822	60.07
237.04	31.4
237.257	94.89
237.475	53.93
237.692	4.78
237.909	101.03
238.127	31.4
238.344	39.59
238.562	33.45
238.779	31.4
238.996	43.69
239.214	6.83
239.431	113.32
239.648	12.97
239.865	53.93
240.083	-17.75
240.3	113.32
240.517	45.74
240.735	92.84
240.952	117.42
241.169	88.75
241.386	29.35
241.603	37.55
241.821	19.11
242.038	74.41
242.255	98.99
242.472	33.45
242.689	53.93
242.907	35.5
243.124	70.31
243.341	72.36
243.558	-1.37
243.775	-60.76
243.992	-36.18
244.209	17.07
244.426	41.64
244.643	70.31
244.86	21.16
245.078	-13.65
245.295	12.97
245.512	12.97
245.729	-32.08
245.946	72.36
246.163	-9.56
246.38	29.35
246.597	-34.13
246.814	103.08
247.031	-17.75
247.248	72.36
247.464	66.22
247.681	31.4
247.898	88.75
248.115	45.74
248.332	-50.52
248.549	68.27
248.766	137.9
248.983	12.97
249.2	33.45
249.417	45.74
249.633	64.17
249.85	-3.41
250.067	27.31
250.284	29.35
250.501	82.6
250.717	64.17
250.934	98.99
251.151	37.55
251.368	10.92
251.585	98.99
251.801	2.73
252.018	2.73
252.235	109.22
252.451	-36.18
252.668	33.45
252.885	60.07
253.102	60.07
253.318	68.27
253.535	27.31
253.752	10.92
253.968	43.69
254.185	-27.99
254.401	25.26
254.618	123.56
254.835	6.83
255.051	109.22
255.268	94.89
255.484	125.61
255.701	33.45
255.917	53.93
256.134	27.31
256.351	25.26
256.567	-56.66
256.784	66.22
257	4.78
257.217	51.88
257.433	76.46
257.65	25.26
257.866	27.31
258.082	51.88
258.299	29.35
258.515	49.83
258.732	90.79
258.948	62.12
259.165	33.45
259.381	0.68
259.597	84.65
259.814	29.35
260.03	37.55
260.246	96.94
260.463	109.22
260.679	39.59
260.895	103.08
261.112	35.5
261.328	-7.51
261.544	8.87
261.761	103.08
261.977	17.07
262.193	55.98
262.409	45.74
262.626	15.02
262.842	101.03
263.058	-21.85
263.274	33.45
263.49	15.02
263.707	51.88
263.923	23.21
264.139	39.59
264.355	53.93
264.571	49.83
264.787	125.61
265.004	0.68
265.22	37.55
265.436	49.83
265.652	6.83
265.868	66.22
266.084	74.41
266.3	-66.9
266.516	-13.65
266.732	105.13
266.948	39.59
267.164	-30.04
267.38	15.02
267.596	84.65
267.812	51.88
268.028	98.99
268.244	-11.61
268.46	-19.8
268.676	19.11
268.892	6.83
269.108	66.22
269.324	-13.65
269.54	55.98
269.756	62.12
269.972	15.02
270.188	23.21
270.403	6.83
270.619	39.59
270.835	19.11
271.051	17.07
271.267	29.35
271.483	60.07
271.698	88.75
271.914	78.51
272.13	21.16
272.346	-21.85
272.562	-3.41
272.777	8.87
272.993	-32.08
273.209	66.22
273.425	84.65
273.64	15.02
273.856	86.7
274.072	15.02
274.287	39.59
274.503	62.12
274.719	-9.56
274.934	2.73
275.15	43.69
275.366	47.79
275.581	-34.13
275.797	0.68
276.012	23.21
276.228	10.92
276.444	27.31
276.659	82.6
276.875	68.27
277.09	92.84
277.306	51.88
277.521	70.31
277.737	-11.61
277.952	17.07
278.168	-48.47
278.383	74.41
278.599	23.21
278.814	37.55
279.03	43.69
279.245	55.98
279.461	39.59
279.676	55.98
279.892	-32.08
280.107	0.68
280.322	-3.41
280.538	90.79
280.753	-30.04
280.969	47.79
281.184	-11.61
281.399	62.12
281.615	-13.65
281.83	-5.46
282.045	-9.56
282.26	-9.56
282.476	43.69
282.691	25.26
282.906	8.87
283.122	101.03
283.337	39.59
283.552	58.03
283.767	37.55
283.983	72.36
284.198	23.21
284.413	37.55
284.628	31.4
284.843	53.93
285.058	74.41
285.274	37.55
285.489	15.02
285.704	78.51
285.919	19.11
286.134	-9.56
286.349	53.93
286.564	6.83
286.779	51.88
286.995	58.03
287.21	10.92
287.425	72.36
287.64	62.12
287.855	6.83
288.07	-13.65
288.285	127.66
288.5	70.31
288.715	121.51
288.93	80.55
289.145	49.83
289.36	51.88
289.575	60.07
289.79	127.66
290.004	29.35
290.219	51.88
290.434	62.12
290.649	68.27
290.864	41.64
291.079	66.22
291.294	-7.51
291.509	25.26
291.724	82.6
291.938	10.92
292.153	33.45
292.368	-17.75
292.583	64.17
292.798	45.74
293.012	90.79
293.227	12.97
293.442	66.22
293.657	62.12
293.871	45.74
294.086	127.66
294.301	82.6
294.516	105.13
294.73	101.03
294.945	21.16
295.16	60.07
295.374	6.83
295.589	66.22
295.804	-46.42
296.018	41.64
296.233	103.08
296.447	55.98
296.662	-17.75
296.877	-3.41
297.091	109.22
297.306	105.13
297.52	-40.28
297.735	29.35
297.949	66.22
298.164	76.46
298.378	66.22
298.593	45.74
298.807	80.55
299.022	37.55
299.236	92.84
299.451	25.26
299.665	25.26
299.88	17.07
300.094	55.98
300.309	23.21
300.523	62.12
300.737	31.4
300.952	66.22
301.166	19.11
301.381	4.78
301.595	17.07
301.809	64.17
302.024	43.69
302.238	37.55
302.452	94.89
302.667	78.51
302.881	49.83
303.095	88.75
303.309	62.12
303.524	17.07
303.738	74.41
303.952	-3.41
304.166	86.7
304.381	-75.09
304.595	80.55
304.809	12.97
305.023	39.59
305.237	43.69
305.452	2.73
305.666	94.89
305.88	144.04
306.094	76.46
306.308	-1.37
306.522	103.08
306.736	55.98
306.95	101.03
307.164	-25.94
307.379	12.97
307.593	70.31
307.807	-23.89
308.021	131.75
308.235	43.69
308.449	-60.76
308.663	55.98
308.877	123.56
309.091	21.16
309.305	37.55
309.519	2.73
309.733	29.35
309.947	6.83
310.161	62.12
310.374	10.92
310.588	103.08
310.802	-54.61
311.016	37.55
311.23	27.31
311.444	45.74
311.658	33.45
311.872	-9.56
312.085	-13.65
312.299	23.21
312.513	62.12
312.727	49.83
312.941	15.02
313.154	101.03
313.368	21.16
313.582	19.11
313.796	64.17
314.009	72.36
314.223	84.65
314.437	88.75
314.651	64.17
314.864	21.16
315.078	37.55
315.292	35.5
315.505	80.55
315.719	84.65
315.933	23.21
316.146	4.78
316.36	64.17
316.573	117.42
316.787	105.13
317.001	76.46
317.214	23.21
317.428	92.84
317.641	-19.8
317.855	35.5
318.068	23.21
318.282	72.36
318.495	131.75
318.709	25.26
318.922	31.4
319.136	66.22
319.349	88.75
319.563	29.35
319.776	55.98
319.99	10.92
320.203	113.32
320.417	2.73
320.63	125.61
320.843	78.51
321.057	31.4
321.27	58.03
321.483	154.28
321.697	51.88
321.91	109.22
322.124	62.12
322.337	78.51
322.55	70.31
322.763	105.13
322.977	94.89
323.19	39.59
323.403	29.35
323.617	72.36
323.83	45.74
324.043	53.93
324.256	-27.99
324.469	6.83
324.683	121.51
324.896	-46.42
325.109	-44.37
325.322	-36.18
325.535	53.93
325.748	37.55
325.962	60.07
326.175	19.11
326.388	51.88
326.601	10.92
326.814	-9.56
327.027	12.97
327.24	62.12
327.453	35.5
327.666	60.07
327.879	98.99
328.092	55.98
328.305	43.69
328.518	92.84
328.731	-17.75
328.944	68.27
329.157	53.93
329.37	55.98
329.583	68.27
329.796	119.46
330.009	47.79
330.222	12.97
330.435	74.41
330.648	37.55
330.861	94.89
331.073	111.27
331.286	43.69
331.499	88.75
331.712	53.93
331.925	39.59
332.138	84.65
332.35	84.65
332.563	84.65
332.776	6.83
332.989	21.16
333.202	41.64
333.414	-3.41
333.627	49.83
333.84	-3.41
334.053	125.61
334.265	-5.46
334.478	58.03
334.691	17.07
334.903	19.11
335.116	-30.04
335.329	80.55
335.541	6.83
335.754	37.55
335.966	66.22
336.179	78.51
336.392	29.35
336.604	-3.41
336.817	125.61
337.029	-27.99
337.242	23.21
337.454	96.94
337.667	111.27
337.88	125.61
338.092	-25.94
338.305	25.26
338.517	55.98
338.729	90.79
338.942	74.41
339.154	10.92
339.367	-9.56
339.579	90.79
339.792	60.07
340.004	88.75
340.217	47.79
340.429	4.78
340.641	39.59
340.854	72.36
341.066	-11.61
341.278	113.32
341.491	88.75
341.703	43.69
341.915	-21.85
342.128	94.89
342.34	68.27
342.552	39.59
342.764	6.83
342.977	4.78
343.189	15.02
343.401	8.87
343.613	-3.41
343.826	76.46
344.038	80.55
344.25	41.64
344.462	31.4
344.674	45.74
344.886	17.07
345.099	21.16
345.311	70.31
345.523	12.97
345.735	49.83
345.947	96.94
346.159	47.79
346.371	4.78
346.583	6.83
346.795	109.22
347.007	98.99
347.219	19.11
347.431	0.68
347.643	35.5
347.855	70.31
348.067	105.13
348.279	-42.32
348.491	84.65
348.703	68.27
348.915	-3.41
349.127	10.92
349.339	68.27
349.551	17.07
349.763	66.22
349.975	66.22
350.187	37.55
350.399	17.07
350.61	103.08
350.822	-27.99
351.034	49.83
351.246	45.74
351.458	6.83
351.669	86.7
351.881	144.04
352.093	150.18
352.305	33.45
352.517	74.41
352.728	137.9
352.94	68.27
353.152	43.69
353.363	6.83
353.575	78.51
353.787	101.03
353.999	60.07
354.21	80.55
354.422	12.97
354.633	-7.51
354.845	41.64
355.057	68.27
355.268	2.73
355.48	92.84
355.692	6.83
355.903	92.84
356.115	12.97
356.326	10.92
356.538	127.66
356.749	15.02
356.961	127.66
357.172	-3.41
357.384	62.12
357.595	139.94
357.807	76.46
358.018	47.79
358.23	47.79
358.441	101.03
358.653	80.55
358.864	123.56
359.075	55.98
359.287	37.55
359.498	72.36
359.709	64.17
359.921	64.17
360.132	101.03
360.344	-1.37
360.555	55.98
360.766	23.21
360.977	55.98
361.189	27.31
361.4	17.07
361.611	-1.37
361.823	53.93
362.034	41.64
362.245	8.87
362.456	33.45
362.667	35.5
362.879	21.16
363.09	51.88
363.301	113.32
363.512	-3.41
363.723	31.4
363.935	-23.89
364.146	43.69
364.357	88.75
364.568	39.59
364.779	45.74
364.99	98.99
365.201	23.21
365.412	45.74
365.623	23.21
365.834	37.55
366.045	-3.41
366.256	55.98
366.467	23.21
366.678	35.5
366.889	72.36
367.1	10.92
367.311	94.89
367.522	51.88
367.733	25.26
367.944	35.5
368.155	49.83
368.366	86.7
368.577	62.12
368.788	64.17
368.999	115.37
369.209	17.07
369.42	109.22
369.631	88.75
369.842	66.22
370.053	101.03
370.264	49.83
370.474	33.45
370.685	49.83
370.896	76.46
371.107	27.31
371.317	105.13
371.528	4.78
371.739	78.51
371.95	64.17
372.16	105.13
372.371	15.02
372.582	62.12
372.792	62.12
373.003	64.17
373.214	55.98
373.424	62.12
373.635	35.5
373.846	86.7
374.056	0.68
374.267	23.21
374.477	37.55
374.688	47.79
374.898	21.16
375.109	55.98
375.319	105.13
375.53	111.27
375.74	113.32
375.951	80.55
376.161	78.51
376.372	37.55
376.582	39.59
376.793	68.27
377.003	58.03
377.214	-23.89
377.424	76.46
377.635	90.79
377.845	6.83
378.055	82.6
378.266	-5.46
378.476	51.88
378.686	90.79
378.897	29.35
379.107	84.65
379.317	68.27
379.528	-42.32
379.738	35.5
379.948	27.31
380.158	135.85
380.369	29.35
380.579	74.41
380.789	78.51
380.999	115.37
381.21	39.59
381.42	111.27
381.63	60.07
381.84	47.79
382.05	17.07
382.261	111.27
382.471	127.66
382.681	33.45
382.891	31.4
383.101	33.45
383.311	27.31
383.521	35.5
383.731	66.22
383.941	88.75
384.151	33.45
384.361	41.64
384.571	64.17
384.781	107.18
384.991	131.75
385.201	160.42
385.411	127.66
385.621	35.5
385.831	82.6
386.041	41.64
386.251	-11.61
386.461	84.65
386.671	70.31
386.881	74.41
387.091	58.03
387.301	55.98
387.511	51.88
387.72	21.16
387.93	66.22
388.14	60.07
388.35	78.51
388.56	68.27
388.769	51.88
388.979	80.55
389.189	23.21
389.399	66.22
389.609	68.27
389.818	58.03
390.028	55.98
390.238	103.08
390.447	62.12
390.657	80.55
390.867	-5.46
391.076	19.11
391.286	45.74
391.496	29.35
391.705	21.16
391.915	84.65
392.125	107.18
392.334	45.74
392.544	141.99
392.753	141.99
392.963	6.83
393.172	62.12
393.382	45.74
393.591	125.61
393.801	43.69
394.01	205.48
394.22	70.31
394.429	113.32
394.639	60.07
394.848	170.66
395.058	121.51
395.267	103.08
395.477	6.83
395.686	68.27
395.895	103.08
396.105	121.51
396.314	31.4
396.524	103.08
396.733	127.66
396.942	88.75
397.152	51.88
397.361	150.18
397.57	103.08
397.78	41.64
397.989	164.52
398.198	144.04
398.407	117.42
398.617	53.93
398.826	105.13
399.035	86.7
399.244	109.22
399.453	96.94
399.663	84.65
399.872	76.46
400.081	49.83
400.29	205.48
400.499	43.69
400.708	115.37
400.917	94.89
401.127	86.7
401.336	172.71
401.545	137.9
401.754	90.79
401.963	152.23
402.172	64.17
402.381	137.9
402.59	160.42
402.799	162.47
403.008	197.29
403.217	105.13
403.426	121.51
403.635	119.46
403.844	166.57
404.053	92.84
404.262	62.12
404.471	129.7
404.68	101.03
404.888	117.42
405.097	66.22
405.306	133.8
405.515	98.99
405.724	92.84
405.933	154.28
406.142	160.42
406.35	113.32
406.559	154.28
406.768	141.99
406.977	180.9
407.185	230.06
407.394	236.2
407.603	141.99
407.812	180.9
408.02	197.29
408.229	166.57
408.438	164.52
408.646	166.57
408.855	197.29
409.064	219.82
409.272	176.81
409.481	277.16
409.69	230.06
409.898	266.92
410.107	209.58
410.315	268.97
410.524	211.62
410.733	234.15
410.941	318.12
411.15	285.35
411.358	309.93
411.567	361.13
411.775	246.44
411.984	324.26
412.192	346.79
412.401	332.45
412.609	330.41
412.818	385.7
413.026	383.65
413.234	414.37
413.443	500.39
413.651	428.71
413.86	416.42
414.068	504.48
414.276	602.79
414.485	465.57
414.693	463.52
414.901	492.2
415.11	545.44
415.318	430.76
415.526	553.63
415.734	588.45
415.943	621.22
416.151	619.17
416.359	610.98
416.567	686.75
416.776	715.42
416.984	742.05
417.192	744.1
417.4	721.57
417.608	750.24
417.817	723.62
418.025	854.69
418.233	969.37
418.441	879.26
418.649	809.63
418.857	1016.48
419.065	1016.48
419.273	1043.1
419.481	1053.34
419.689	1057.43
419.897	1073.82
420.105	1155.74
420.313	1233.56
420.521	1262.23
420.729	1247.9
420.937	1225.37
421.145	1274.52
421.353	1454.74
421.561	1450.64
421.769	1516.18
421.977	1561.23
422.185	1530.52
422.393	1645.2
422.601	1768.08
422.809	1677.97
423.017	1757.84
423.224	1856.14
423.432	1860.24
423.64	1938.06
423.848	2173.58
424.056	1993.36
424.263	2214.54
424.471	2093.71
424.679	2304.65
424.887	2157.19
425.094	2454.15
425.302	2366.09
425.51	2628.23
425.718	2591.36
425.925	2603.65
426.133	2798.21
426.341	2777.73
426.548	2884.22
426.756	2978.43
426.964	3064.44
427.171	3213.95
427.379	3222.14
427.586	3359.35
427.794	3437.17
428.001	3590.77
428.209	3715.7
428.417	3705.46
428.624	3963.5
428.832	3949.17
429.039	3947.12
429.247	3848.82
429.454	4248.17
429.662	4475.49
429.869	4289.13
430.076	4594.28
430.284	4522.6
430.491	4682.34
430.699	4977.25
430.906	4932.19
431.114	5063.26
431.321	5347.93
431.528	5280.35
431.736	5700.18
431.943	5796.43
432.15	5810.77
432.358	5864.02
432.565	6046.29
432.772	6066.77
432.979	6423.11
433.187	6470.22
433.394	6386.25
433.601	6933.06
433.808	7021.12
434.016	7025.22
434.223	7264.83
434.43	7676.47
434.637	7412.28
434.844	7907.89
435.052	8170.03
435.259	8034.86
435.466	8180.27
435.673	8118.83
435.88	8847.91
436.087	9171.49
436.294	9120.29
436.501	8716.84
436.708	8997.41
436.915	9269.79
437.122	9824.79
437.329	9828.88
437.537	10121.74
437.743	10400.27
437.95	10154.51
438.157	10891.78
438.364	11082.24
438.571	10979.84
438.778	11143.68
438.985	11975.16
439.192	11575.8
439.399	12044.79
439.606	11764.22
439.813	12548.59
440.02	13267.42
440.227	12857.83
440.433	12765.67
440.64	13181.41
440.847	13255.14
441.054	13595.1
441.261	14678.47
441.467	14242.26
441.674	14649.8
441.881	15098.31
442.088	15079.88
442.294	14739.91
442.501	15372.74
442.708	15555.01
442.914	16083.38
443.121	17039.78
443.328	16511.41
443.534	17717.66
443.741	17267.11
443.948	16865.71
444.154	18508.18
444.361	17942.94
444.568	18106.77
444.774	18284.95
444.981	18567.57
445.187	18989.45
445.394	19798.4
445.6	19644.8
445.807	21352.8
446.013	20433.27
446.22	20873.58
446.426	21899.61
446.633	22002.01
446.839	22679.89
447.046	21660
447.252	22882.64
447.459	23175.5
447.665	22849.87
447.871	23722.3
448.078	24901.93
448.284	23869.76
448.491	24766.77
448.697	25626.92
448.903	25753.89
449.11	25563.43
449.316	25450.79
449.522	25913.63
449.728	26806.55
449.935	27060.49
450.141	26698
450.347	27365.64
450.553	26734.87
450.76	26997.01
450.966	27908.35
451.172	27681.03
451.378	28180.73
451.584	27484.42
451.791	28446.97
451.997	28256.51
452.203	28770.55
452.409	28803.32
452.615	28250.36
452.821	27445.51
453.027	27398.41
453.233	28311.8
453.44	27332.87
453.646	27820.29
453.852	27934.98
454.058	28430.58
454.264	27312.39
454.47	28260.6
454.676	27283.72
454.882	28471.54
455.088	25665.83
455.294	26108.19
455.5	26417.43
455.705	26925.33
455.911	25858.34
456.117	25420.07
456.323	24840.5
456.529	23697.73
456.735	24830.26
456.941	23888.19
457.147	23511.36
457.352	22806.86
457.558	22714.7
457.764	22772.05
457.97	22462.8
458.176	21725.54
458.381	21641.57
458.587	20736.37
458.793	20709.74
458.999	19667.33
459.204	20984.17
459.41	20279.67
459.616	18882.95
459.821	19143.05
460.027	19102.09
460.233	18885
460.438	17637.79
460.644	17992.09
460.85	17035.69
461.055	16773.55
461.261	16978.34
461.466	15634.88
461.672	15200.71
461.878	16087.48
462.083	14774.73
462.289	14803.4
462.494	14533.07
462.7	14111.19
462.905	13640.15
463.111	14324.18
463.316	14246.35
463.522	13898.2
463.727	13806.04
463.932	13986.26
464.138	13734.36
464.343	13771.22
464.549	13304.29
464.754	14055.89
464.959	13537.76
465.165	13482.46
465.37	12892.65
465.575	12597.74
465.781	12929.51
465.986	13136.35
466.191	12786.15
466.397	12509.68
466.602	11731.45
466.807	12288.5
467.012	12227.06
467.218	12315.12
