Data from USB4F104151__14__12-23-24-093.txt Node

Date: Fri Mar 14 12:23:24 EDT 2025
User: louis
Spectrometer: USB4F10415
Trigger mode: 4
Integration Time (sec): 3.500000E-2
Scans to average: 1
Electric dark correction enabled: true
Nonlinearity correction enabled: false
Boxcar width: 0
XAxis mode: Wavelengths
Number of Pixels in Spectrum: 3648
>>>>>Begin Spectral Data<<<<<
178.204	-142.68
178.424	-142.68
178.644	-142.68
178.864	-93.52
179.084	-111.96
179.304	-7.51
179.524	21.16
179.744	51.88
179.964	-17.75
180.184	4.78
180.404	8.87
180.624	4.78
180.844	23.21
181.064	-42.32
181.283	53.93
181.503	-27.99
181.723	-73.04
181.943	-5.46
182.163	10.92
182.383	53.93
182.602	131.75
182.822	101.03
183.042	66.22
183.262	-25.94
183.482	-38.23
183.701	31.4
183.921	10.92
184.141	-103.76
184.361	103.08
184.58	-56.66
184.8	31.4
185.02	15.02
185.239	115.37
185.459	2.73
185.679	39.59
185.898	-50.52
186.118	76.46
186.338	29.35
186.557	53.93
186.777	-54.61
186.997	21.16
187.216	-25.94
187.436	86.7
187.655	2.73
187.875	144.04
188.095	10.92
188.314	101.03
188.534	119.46
188.753	23.21
188.973	15.02
189.192	51.88
189.412	10.92
189.631	45.74
189.851	49.83
190.07	72.36
190.29	41.64
190.509	6.83
190.729	27.31
190.948	47.79
191.168	209.58
191.387	41.64
191.607	35.5
191.826	8.87
192.045	64.17
192.265	68.27
192.484	103.08
192.704	78.51
192.923	-11.61
193.142	141.99
193.362	41.64
193.581	137.9
193.8	35.5
194.02	35.5
194.239	70.31
194.458	88.75
194.678	4.78
194.897	41.64
195.116	0.68
195.335	-1.37
195.555	76.46
195.774	25.26
195.993	76.46
196.212	47.79
196.432	47.79
196.651	68.27
196.87	41.64
197.089	41.64
197.308	53.93
197.528	74.41
197.747	23.21
197.966	2.73
198.185	84.65
198.404	29.35
198.623	96.94
198.842	162.47
199.062	96.94
199.281	125.61
199.5	92.84
199.719	12.97
199.938	88.75
200.157	78.51
200.376	113.32
200.595	60.07
200.814	-9.56
201.033	-32.08
201.252	70.31
201.471	103.08
201.69	29.35
201.909	76.46
202.128	53.93
202.347	117.42
202.566	-1.37
202.785	-87.38
203.004	35.5
203.223	158.38
203.442	86.7
203.661	41.64
203.879	60.07
204.098	43.69
204.317	45.74
204.536	31.4
204.755	64.17
204.974	115.37
205.193	88.75
205.411	64.17
205.63	84.65
205.849	55.98
206.068	78.51
206.287	31.4
206.505	45.74
206.724	53.93
206.943	49.83
207.162	-11.61
207.381	37.55
207.599	29.35
207.818	43.69
208.037	-48.47
208.255	17.07
208.474	25.26
208.693	10.92
208.911	51.88
209.13	51.88
209.349	90.79
209.567	133.8
209.786	105.13
210.005	70.31
210.223	33.45
210.442	64.17
210.661	86.7
210.879	15.02
211.098	31.4
211.316	29.35
211.535	68.27
211.753	27.31
211.972	80.55
212.191	10.92
212.409	-1.37
212.628	125.61
212.846	58.03
213.065	117.42
213.283	178.86
213.502	51.88
213.72	66.22
213.938	-54.61
214.157	41.64
214.375	103.08
214.594	-23.89
214.812	27.31
215.031	64.17
215.249	19.11
215.467	119.46
215.686	82.6
215.904	15.02
216.122	90.79
216.341	37.55
216.559	29.35
216.778	68.27
216.996	-9.56
217.214	66.22
217.432	66.22
217.651	41.64
217.869	12.97
218.087	0.68
218.306	62.12
218.524	25.26
218.742	19.11
218.96	86.7
219.179	51.88
219.397	70.31
219.615	86.7
219.833	115.37
220.051	43.69
220.27	37.55
220.488	74.41
220.706	62.12
220.924	55.98
221.142	62.12
221.36	127.66
221.578	25.26
221.796	-13.65
222.015	47.79
222.233	31.4
222.451	76.46
222.669	-42.32
222.887	74.41
223.105	53.93
223.323	53.93
223.541	64.17
223.759	-13.65
223.977	-3.41
224.195	55.98
224.413	60.07
224.631	94.89
224.849	74.41
225.067	51.88
225.285	-13.65
225.503	39.59
225.721	-38.23
225.939	43.69
226.157	72.36
226.375	131.75
226.592	47.79
226.81	-13.65
227.028	55.98
227.246	43.69
227.464	51.88
227.682	90.79
227.9	29.35
228.117	72.36
228.335	25.26
228.553	111.27
228.771	90.79
228.989	80.55
229.206	51.88
229.424	47.79
229.642	37.55
229.86	17.07
230.077	39.59
230.295	70.31
230.513	88.75
230.731	117.42
230.948	0.68
231.166	92.84
231.384	-17.75
231.601	29.35
231.819	39.59
232.037	33.45
232.254	49.83
232.472	90.79
232.689	76.46
232.907	15.02
233.125	10.92
233.342	37.55
233.56	-9.56
233.777	35.5
233.995	135.85
234.213	68.27
234.43	82.6
234.648	-50.52
234.865	88.75
235.083	37.55
235.3	68.27
235.518	86.7
235.735	121.51
235.953	103.08
236.17	55.98
236.388	2.73
236.605	51.88
236.822	62.12
237.04	37.55
237.257	96.94
237.475	-13.65
237.692	88.75
237.909	23.21
238.127	37.55
238.344	37.55
238.562	33.45
238.779	35.5
238.996	41.64
239.214	62.12
239.431	115.37
239.648	-11.61
239.865	133.8
240.083	62.12
240.3	37.55
240.517	-21.85
240.735	78.51
240.952	66.22
241.169	72.36
241.386	80.55
241.603	8.87
241.821	-13.65
242.038	37.55
242.255	35.5
242.472	27.31
242.689	55.98
242.907	53.93
243.124	53.93
243.341	29.35
243.558	-52.56
243.775	51.88
243.992	15.02
244.209	92.84
244.426	146.09
244.643	25.26
244.86	19.11
245.078	74.41
245.295	152.23
245.512	60.07
245.729	84.65
245.946	-3.41
246.163	49.83
246.38	29.35
246.597	6.83
246.814	90.79
247.031	19.11
247.248	62.12
247.464	35.5
247.681	2.73
247.898	90.79
248.115	139.94
248.332	35.5
248.549	135.85
248.766	92.84
248.983	123.56
249.2	115.37
249.417	31.4
249.633	107.18
249.85	2.73
250.067	64.17
250.284	8.87
250.501	90.79
250.717	86.7
250.934	10.92
251.151	60.07
251.368	25.26
251.585	43.69
251.801	74.41
252.018	35.5
252.235	35.5
252.451	29.35
252.668	47.79
252.885	80.55
253.102	90.79
253.318	68.27
253.535	86.7
253.752	29.35
253.968	23.21
254.185	35.5
254.401	41.64
254.618	29.35
254.835	10.92
255.051	139.94
255.268	-34.13
255.484	92.84
255.701	51.88
255.917	92.84
256.134	-25.94
256.351	41.64
256.567	2.73
256.784	64.17
257	-34.13
257.217	31.4
257.433	125.61
257.65	25.26
257.866	86.7
258.082	43.69
258.299	53.93
258.515	98.99
258.732	23.21
258.948	27.31
259.165	123.56
259.381	4.78
259.597	68.27
259.814	19.11
260.03	33.45
260.246	-54.61
260.463	33.45
260.679	31.4
260.895	29.35
261.112	-3.41
261.328	47.79
261.544	33.45
261.761	72.36
261.977	39.59
262.193	53.93
262.409	17.07
262.626	68.27
262.842	35.5
263.058	25.26
263.274	90.79
263.49	-56.66
263.707	113.32
263.923	60.07
264.139	43.69
264.355	60.07
264.571	80.55
264.787	25.26
265.004	146.09
265.22	-19.8
265.436	66.22
265.652	-19.8
265.868	86.7
266.084	78.51
266.3	-19.8
266.516	-1.37
266.732	58.03
266.948	-7.51
267.164	47.79
267.38	55.98
267.596	96.94
267.812	92.84
268.028	47.79
268.244	66.22
268.46	37.55
268.676	-42.32
268.892	70.31
269.108	-34.13
269.324	-17.75
269.54	4.78
269.756	82.6
269.972	-95.57
270.188	35.5
270.403	-38.23
270.619	76.46
270.835	-1.37
271.051	47.79
271.267	8.87
271.483	4.78
271.698	80.55
271.914	-7.51
272.13	58.03
272.346	101.03
272.562	66.22
272.777	107.18
272.993	31.4
273.209	39.59
273.425	90.79
273.64	76.46
273.856	51.88
274.072	49.83
274.287	43.69
274.503	78.51
274.719	25.26
274.934	90.79
275.15	90.79
275.366	53.93
275.581	21.16
275.797	27.31
276.012	78.51
276.228	84.65
276.444	12.97
276.659	64.17
276.875	-25.94
277.09	23.21
277.306	37.55
277.521	88.75
277.737	53.93
277.952	-5.46
278.168	60.07
278.383	78.51
278.599	21.16
278.814	15.02
279.03	98.99
279.245	80.55
279.461	49.83
279.676	144.04
279.892	58.03
280.107	53.93
280.322	-5.46
280.538	62.12
280.753	25.26
280.969	58.03
281.184	37.55
281.399	90.79
281.615	125.61
281.83	27.31
282.045	-1.37
282.26	90.79
282.476	33.45
282.691	94.89
282.906	53.93
283.122	82.6
283.337	68.27
283.552	96.94
283.767	23.21
283.983	41.64
284.198	111.27
284.413	86.7
284.628	23.21
284.843	45.74
285.058	111.27
285.274	101.03
285.489	19.11
285.704	117.42
285.919	39.59
286.134	23.21
286.349	70.31
286.564	68.27
286.779	103.08
286.995	76.46
287.21	-1.37
287.425	0.68
287.64	62.12
287.855	129.7
288.07	68.27
288.285	66.22
288.5	86.7
288.715	98.99
288.93	109.22
289.145	64.17
289.36	39.59
289.575	101.03
289.79	96.94
290.004	-36.18
290.219	70.31
290.434	15.02
290.649	39.59
290.864	86.7
291.079	62.12
291.294	35.5
291.509	76.46
291.724	33.45
291.938	31.4
292.153	88.75
292.368	29.35
292.583	23.21
292.798	51.88
293.012	-25.94
293.227	53.93
293.442	96.94
293.657	90.79
293.871	72.36
294.086	15.02
294.301	35.5
294.516	121.51
294.73	107.18
294.945	51.88
295.16	17.07
295.374	58.03
295.589	49.83
295.804	47.79
296.018	94.89
296.233	86.7
296.447	53.93
296.662	109.22
296.877	55.98
297.091	37.55
297.306	78.51
297.52	21.16
297.735	96.94
297.949	96.94
298.164	25.26
298.378	-5.46
298.593	82.6
298.807	47.79
299.022	39.59
299.236	74.41
299.451	58.03
299.665	8.87
299.88	70.31
300.094	60.07
300.309	76.46
300.523	12.97
300.737	78.51
300.952	-3.41
301.166	70.31
301.381	-46.42
301.595	92.84
301.809	72.36
302.024	55.98
302.238	74.41
302.452	119.46
302.667	27.31
302.881	39.59
303.095	47.79
303.309	43.69
303.524	-5.46
303.738	117.42
303.952	78.51
304.166	84.65
304.381	2.73
304.595	70.31
304.809	64.17
305.023	15.02
305.237	23.21
305.452	-36.18
305.666	39.59
305.88	66.22
306.094	88.75
306.308	21.16
306.522	92.84
306.736	35.5
306.95	68.27
307.164	-13.65
307.379	66.22
307.593	88.75
307.807	70.31
308.021	53.93
308.235	27.31
308.449	45.74
308.663	64.17
308.877	84.65
309.091	39.59
309.305	23.21
309.519	6.83
309.733	101.03
309.947	-46.42
310.161	2.73
310.374	43.69
310.588	137.9
310.802	8.87
311.016	23.21
311.23	15.02
311.444	76.46
311.658	39.59
311.872	137.9
312.085	25.26
312.299	131.75
312.513	105.13
312.727	58.03
312.941	-5.46
313.154	27.31
313.368	31.4
313.582	19.11
313.796	49.83
314.009	-7.51
314.223	-19.8
314.437	31.4
314.651	111.27
314.864	47.79
315.078	2.73
315.292	-27.99
315.505	0.68
315.719	74.41
315.933	111.27
316.146	41.64
316.36	-5.46
316.573	90.79
316.787	62.12
317.001	78.51
317.214	43.69
317.428	51.88
317.641	49.83
317.855	8.87
318.068	131.75
318.282	39.59
318.495	72.36
318.709	72.36
318.922	92.84
319.136	62.12
319.349	84.65
319.563	23.21
319.776	8.87
319.99	-1.37
320.203	101.03
320.417	49.83
320.63	31.4
320.843	35.5
321.057	12.97
321.27	68.27
321.483	35.5
321.697	90.79
321.91	53.93
322.124	90.79
322.337	68.27
322.55	-1.37
322.763	62.12
322.977	66.22
323.19	39.59
323.403	64.17
323.617	10.92
323.83	162.47
324.043	29.35
324.256	86.7
324.469	4.78
324.683	107.18
324.896	82.6
325.109	94.89
325.322	53.93
325.535	58.03
325.748	90.79
325.962	121.51
326.175	146.09
326.388	43.69
326.601	43.69
326.814	66.22
327.027	64.17
327.24	121.51
327.453	8.87
327.666	8.87
327.879	19.11
328.092	68.27
328.305	62.12
328.518	94.89
328.731	72.36
328.944	58.03
329.157	66.22
329.37	-32.08
329.583	109.22
329.796	119.46
330.009	-30.04
330.222	29.35
330.435	-17.75
330.648	90.79
330.861	58.03
331.073	39.59
331.286	131.75
331.499	51.88
331.712	37.55
331.925	88.75
332.138	55.98
332.35	21.16
332.563	-46.42
332.776	101.03
332.989	64.17
333.202	27.31
333.414	41.64
333.627	41.64
333.84	84.65
334.053	74.41
334.265	0.68
334.478	15.02
334.691	43.69
334.903	82.6
335.116	33.45
335.329	58.03
335.541	92.84
335.754	109.22
335.966	23.21
336.179	2.73
336.392	55.98
336.604	47.79
336.817	80.55
337.029	62.12
337.242	17.07
337.454	84.65
337.667	19.11
337.88	72.36
338.092	68.27
338.305	8.87
338.517	6.83
338.729	72.36
338.942	60.07
339.154	74.41
339.367	31.4
339.579	115.37
339.792	55.98
340.004	64.17
340.217	43.69
340.429	47.79
340.641	53.93
340.854	23.21
341.066	66.22
341.278	101.03
341.491	66.22
341.703	37.55
341.915	37.55
342.128	72.36
342.34	39.59
342.552	90.79
342.764	88.75
342.977	45.74
343.189	119.46
343.401	55.98
343.613	8.87
343.826	94.89
344.038	-3.41
344.25	76.46
344.462	23.21
344.674	0.68
344.886	68.27
345.099	12.97
345.311	37.55
345.523	23.21
345.735	-19.8
345.947	80.55
346.159	25.26
346.371	64.17
346.583	45.74
346.795	74.41
347.007	82.6
347.219	58.03
347.431	78.51
347.643	92.84
347.855	74.41
348.067	17.07
348.279	-30.04
348.491	115.37
348.703	152.23
348.915	27.31
349.127	10.92
349.339	43.69
349.551	6.83
349.763	64.17
349.975	49.83
350.187	101.03
350.399	137.9
350.61	172.71
350.822	64.17
351.034	43.69
351.246	62.12
351.458	109.22
351.669	55.98
351.881	129.7
352.093	185
352.305	6.83
352.517	74.41
352.728	66.22
352.94	115.37
353.152	62.12
353.363	17.07
353.575	82.6
353.787	103.08
353.999	70.31
354.21	41.64
354.422	58.03
354.633	62.12
354.845	47.79
355.057	98.99
355.268	92.84
355.48	148.14
355.692	68.27
355.903	53.93
356.115	64.17
356.326	-38.23
356.538	90.79
356.749	49.83
356.961	98.99
357.172	19.11
357.384	-5.46
357.595	170.66
357.807	17.07
358.018	70.31
358.23	15.02
358.441	119.46
358.653	47.79
358.864	84.65
359.075	58.03
359.287	53.93
359.498	96.94
359.709	111.27
359.921	49.83
360.132	15.02
360.344	72.36
360.555	29.35
360.766	47.79
360.977	101.03
361.189	78.51
361.4	80.55
361.611	88.75
361.823	129.7
362.034	70.31
362.245	19.11
362.456	41.64
362.667	111.27
362.879	72.36
363.09	51.88
363.301	90.79
363.512	70.31
363.723	72.36
363.935	-3.41
364.146	58.03
364.357	33.45
364.568	94.89
364.779	-25.94
364.99	82.6
365.201	90.79
365.412	98.99
365.623	74.41
365.834	62.12
366.045	51.88
366.256	113.32
366.467	115.37
366.678	76.46
366.889	129.7
367.1	33.45
367.311	78.51
367.522	49.83
367.733	109.22
367.944	72.36
368.155	-36.18
368.366	47.79
368.577	43.69
368.788	6.83
368.999	39.59
369.209	84.65
369.42	111.27
369.631	70.31
369.842	80.55
370.053	25.26
370.264	127.66
370.474	41.64
370.685	70.31
370.896	29.35
371.107	68.27
371.317	137.9
371.528	51.88
371.739	107.18
371.95	154.28
372.16	117.42
372.371	6.83
372.582	66.22
372.792	47.79
373.003	72.36
373.214	29.35
373.424	58.03
373.635	35.5
373.846	90.79
374.056	4.78
374.267	29.35
374.477	72.36
374.688	43.69
374.898	49.83
375.109	58.03
375.319	70.31
375.53	174.76
375.74	68.27
375.951	64.17
376.161	-38.23
376.372	41.64
376.582	8.87
376.793	82.6
377.003	49.83
377.214	51.88
377.424	84.65
377.635	17.07
377.845	127.66
378.055	92.84
378.266	-9.56
378.476	74.41
378.686	80.55
378.897	107.18
379.107	53.93
379.317	45.74
379.528	0.68
379.738	70.31
379.948	29.35
380.158	160.42
380.369	53.93
380.579	72.36
380.789	37.55
380.999	137.9
381.21	103.08
381.42	72.36
381.63	62.12
381.84	80.55
382.05	88.75
382.261	78.51
382.471	154.28
382.681	35.5
382.891	96.94
383.101	43.69
383.311	41.64
383.521	53.93
383.731	148.14
383.941	66.22
384.151	41.64
384.361	129.7
384.571	92.84
384.781	119.46
384.991	127.66
385.201	107.18
385.411	92.84
385.621	74.41
385.831	101.03
386.041	88.75
386.251	49.83
386.461	176.81
386.671	47.79
386.881	92.84
387.091	25.26
387.301	60.07
387.511	58.03
387.72	88.75
387.93	68.27
388.14	80.55
388.35	55.98
388.56	23.21
388.769	170.66
388.979	88.75
389.189	150.18
389.399	62.12
389.609	47.79
389.818	94.89
390.028	8.87
390.238	47.79
390.447	53.93
390.657	15.02
390.867	76.46
391.076	8.87
391.286	115.37
391.496	168.62
391.705	53.93
391.915	76.46
392.125	119.46
392.334	113.32
392.544	82.6
392.753	160.42
392.963	6.83
393.172	141.99
393.382	160.42
393.591	92.84
393.801	172.71
394.01	111.27
394.22	23.21
394.429	41.64
394.639	109.22
394.848	201.38
395.058	129.7
395.267	76.46
395.477	21.16
395.686	144.04
395.895	144.04
396.105	119.46
396.314	58.03
396.524	72.36
396.733	74.41
396.942	111.27
397.152	53.93
397.361	121.51
397.57	53.93
397.78	115.37
397.989	115.37
398.198	137.9
398.407	121.51
398.617	123.56
398.826	146.09
399.035	133.8
399.244	180.9
399.453	64.17
399.663	64.17
399.872	78.51
400.081	156.33
400.29	90.79
400.499	66.22
400.708	185
400.917	98.99
401.127	146.09
401.336	101.03
401.545	197.29
401.754	176.81
401.963	133.8
402.172	113.32
402.381	113.32
402.59	84.65
402.799	82.6
403.008	141.99
403.217	121.51
403.426	162.47
403.635	115.37
403.844	141.99
404.053	107.18
404.262	182.95
404.471	154.28
404.68	162.47
404.888	125.61
405.097	94.89
405.306	88.75
405.515	178.86
405.724	119.46
405.933	150.18
406.142	191.14
406.35	148.14
406.559	168.62
406.768	182.95
406.977	168.62
407.185	176.81
407.394	160.42
407.603	154.28
407.812	221.86
408.02	232.1
408.229	254.63
408.438	221.86
408.646	248.49
408.855	193.19
409.064	189.1
409.272	277.16
409.481	271.01
409.69	260.77
409.898	178.86
410.107	295.59
410.315	328.36
410.524	279.21
410.733	213.67
410.941	295.59
411.15	387.75
411.358	297.64
411.567	266.92
411.775	277.16
411.984	408.23
412.192	441
412.401	361.13
412.609	391.84
412.818	363.17
413.026	469.67
413.234	348.84
413.443	453.28
413.651	393.89
413.86	498.34
414.068	510.63
414.276	512.67
414.485	502.43
414.693	565.92
414.901	576.16
415.11	494.24
415.318	537.25
415.526	565.92
415.734	660.13
415.943	617.12
416.151	707.23
416.359	690.85
416.567	735.9
416.776	680.61
416.984	748.19
417.192	799.39
417.4	758.43
417.608	789.15
417.817	787.1
418.025	748.19
418.233	989.85
418.441	950.94
418.649	971.42
418.857	977.56
419.065	1100.44
419.273	1012.38
419.481	1118.87
419.689	1206.94
419.897	1217.18
420.105	1174.17
420.313	1329.81
420.521	1385.11
420.729	1358.49
420.937	1399.45
421.145	1362.58
421.353	1479.32
421.561	1555.09
421.769	1460.88
421.977	1559.19
422.185	1594
422.393	1569.43
422.601	1821.33
422.809	1817.23
423.017	1923.73
423.224	1837.71
423.432	1893.01
423.64	2138.76
423.848	2153.1
424.056	1987.21
424.263	2275.98
424.471	2253.45
424.679	2253.45
424.887	2501.25
425.094	2552.45
425.302	2613.89
425.51	2691.71
425.718	2802.3
425.925	2710.15
426.133	2779.78
426.341	2994.81
426.548	3086.97
426.756	3093.12
426.964	3166.84
427.171	3263.1
427.379	3435.13
427.586	3420.79
427.794	3629.68
428.001	3797.62
428.209	3814
428.417	3826.29
428.624	4307.56
428.832	4043.37
429.039	4067.95
429.247	4055.66
429.454	4432.49
429.662	4850.27
429.869	4422.25
430.076	4921.95
430.284	4764.26
430.491	4792.93
430.699	5204.57
430.906	5132.89
431.114	5214.81
431.321	5470.81
431.528	5489.24
431.736	5778
431.943	6044.24
432.15	6031.95
432.358	6105.68
432.565	6318.67
432.772	6459.98
432.979	6836.8
433.187	6853.19
433.394	6883.91
433.601	7320.12
433.808	7377.47
434.016	7498.3
434.223	7541.3
434.43	8045.1
434.637	8049.2
434.844	8389.16
435.052	8587.82
435.259	8606.25
435.466	8446.51
435.673	8624.68
435.88	9177.63
436.087	9574.94
436.294	9380.38
436.501	9353.76
436.708	9359.9
436.915	9898.52
437.122	10390.03
437.329	10179.09
437.537	10504.71
437.743	10863.11
437.95	10773
438.157	11225.6
438.364	11616.76
438.571	11708.92
438.778	11915.76
438.985	12624.36
439.192	12481
439.399	12603.88
439.606	12259.82
439.813	13124.07
440.02	13842.9
440.227	13648.35
440.433	13691.35
440.64	13849.05
440.847	14080.47
441.054	14377.42
441.261	15206.85
441.467	14930.37
441.674	15198.66
441.881	15780.28
442.088	15894.97
442.294	15733.18
442.501	16296.37
442.708	16460.21
442.914	17314.21
443.121	17949.08
443.328	17369.51
443.534	18755.98
443.741	18094.49
443.948	17754.52
444.154	19284.36
444.361	19149.19
444.568	19380.61
444.774	19569.02
444.981	19321.22
445.187	19827.07
445.394	20865.39
445.6	20765.04
445.807	22454.61
446.013	21463.4
446.22	22266.2
446.426	23075.15
446.633	23005.52
446.839	23728.45
447.046	22860.11
447.252	24164.67
447.459	24142.14
447.665	24179
447.871	25178.41
448.078	26390.81
448.284	25098.54
448.491	25844
448.697	26700.05
448.903	26923.28
449.11	27369.74
449.316	26824.98
449.522	27347.21
449.728	28080.38
449.935	28201.21
450.141	28254.46
450.347	28551.42
450.553	27980.03
450.76	28563.7
450.966	29456.62
451.172	28885.23
451.378	29706.47
451.584	29251.82
451.791	29903.07
451.997	29354.22
452.203	30097.63
452.409	30206.17
452.615	30275.8
452.821	28920.05
453.027	28606.71
453.233	30353.63
453.44	28940.53
453.646	29382.89
453.852	29456.62
454.058	30001.38
454.264	28856.56
454.47	29534.44
454.676	28551.42
454.882	29522.15
455.088	26997.01
455.294	27441.42
455.5	27621.64
455.705	28205.31
455.911	27134.22
456.117	26474.77
456.323	26315.03
456.529	25188.65
456.735	26022.17
456.941	25329.96
457.147	24680.75
457.352	24072.51
457.558	23681.35
457.764	23873.85
457.97	23300.42
458.176	22559.06
458.381	22899.02
458.587	21694.82
458.793	21899.61
458.999	20472.18
459.204	21856.61
459.41	21635.42
459.616	20332.92
459.821	19913.08
460.027	19841.4
460.233	19501.44
460.438	18563.47
460.644	18665.87
460.85	17744.28
461.055	17602.97
461.261	17428.9
461.466	16218.55
461.672	15897.02
461.878	16761.26
462.083	15931.83
462.289	15335.87
462.494	15167.94
462.7	14580.17
462.905	14205.39
463.111	15059.4
463.316	14903.75
463.522	14504.4
463.727	14588.36
463.932	14502.35
464.138	14338.51
464.343	14287.31
464.549	13918.68
464.754	14324.18
464.959	14193.11
465.165	14330.32
465.37	13623.77
465.575	13322.72
465.781	13769.18
465.986	13795.8
466.191	13251.04
466.397	13056.48
466.602	12487.15
466.807	12956.13
467.012	12943.85
467.218	12884.45
467.423	12640.75
