Data from USB4F104151__51__12-24-01-153.txt Node

Date: Fri Mar 14 12:24:01 EDT 2025
User: louis
Spectrometer: USB4F10415
Trigger mode: 4
Integration Time (sec): 3.500000E-2
Scans to average: 1
Electric dark correction enabled: true
Nonlinearity correction enabled: false
Boxcar width: 0
XAxis mode: Wavelengths
Number of Pixels in Spectrum: 3648
>>>>>Begin Spectral Data<<<<<
178.204	-131.07
178.424	-131.07
178.644	-131.07
178.864	-243.71
179.084	-186.37
179.304	-6.14
179.524	8.19
179.744	-73.73
179.964	-24.58
180.184	-57.34
180.404	49.15
180.624	57.34
180.844	34.82
181.064	-59.39
181.283	55.3
181.503	-2.05
181.723	18.43
181.943	-32.77
182.163	51.2
182.383	-28.67
182.602	-34.82
182.822	24.58
183.042	-4.1
183.262	-8.19
183.482	47.1
183.701	24.58
183.921	-63.49
184.141	-12.29
184.361	40.96
184.58	22.53
184.8	16.38
185.02	49.15
185.239	63.49
185.459	36.86
185.679	-6.14
185.898	20.48
186.118	30.72
186.338	28.67
186.557	-18.43
186.777	36.86
186.997	47.1
187.216	-34.82
187.436	34.82
187.655	4.1
187.875	77.82
188.095	-30.72
188.314	59.39
188.534	59.39
188.753	24.58
188.973	63.49
189.192	88.06
189.412	28.67
189.631	55.3
189.851	2.05
190.07	100.35
190.29	12.29
190.509	-28.67
190.729	-73.73
190.948	-16.38
191.168	143.36
191.387	63.49
191.607	16.38
191.826	-40.96
192.045	51.2
192.265	-2.05
192.484	28.67
192.704	61.44
192.923	-53.25
193.142	153.6
193.362	-18.43
193.581	114.69
193.8	18.43
194.02	55.3
194.239	67.58
194.458	-16.38
194.678	24.58
194.897	55.3
195.116	4.1
195.335	36.86
195.555	-40.96
195.774	-12.29
195.993	24.58
196.212	18.43
196.432	-45.06
196.651	-8.19
196.87	18.43
197.089	90.11
197.308	12.29
197.528	69.63
197.747	-43.01
197.966	59.39
198.185	90.11
198.404	61.44
198.623	43.01
198.842	57.34
199.062	26.62
199.281	77.82
199.5	-16.38
199.719	59.39
199.938	67.58
200.157	38.91
200.376	20.48
200.595	90.11
200.814	79.87
201.033	-8.19
201.252	18.43
201.471	40.96
201.69	77.82
201.909	-6.14
202.128	36.86
202.347	75.77
202.566	38.91
202.785	-26.62
203.004	-26.62
203.223	26.62
203.442	43.01
203.661	-6.14
203.879	61.44
204.098	2.05
204.317	-79.87
204.536	110.59
204.755	67.58
204.974	10.24
205.193	61.44
205.411	71.68
205.63	-20.48
205.849	18.43
206.068	-12.29
206.287	-30.72
206.505	67.58
206.724	49.15
206.943	28.67
207.162	-20.48
207.381	67.58
207.599	-57.34
207.818	0
208.037	38.91
208.255	-57.34
208.474	49.15
208.693	75.77
208.911	45.06
209.13	38.91
209.349	-30.72
209.567	12.29
209.786	108.54
210.005	36.86
210.223	26.62
210.442	-57.34
210.661	4.1
210.879	40.96
211.098	-4.1
211.316	-69.63
211.535	67.58
211.753	53.25
211.972	32.77
212.191	0
212.409	63.49
212.628	20.48
212.846	24.58
213.065	100.35
213.283	47.1
213.502	55.3
213.72	4.1
213.938	40.96
214.157	47.1
214.375	34.82
214.594	28.67
214.812	92.16
215.031	8.19
215.249	-22.53
215.467	-6.14
215.686	116.73
215.904	65.54
216.122	83.97
216.341	18.43
216.559	24.58
216.778	2.05
216.996	120.83
217.214	-40.96
217.432	-36.86
217.651	47.1
217.869	-22.53
218.087	28.67
218.306	59.39
218.524	34.82
218.742	30.72
218.96	10.24
219.179	-43.01
219.397	-24.58
219.615	118.78
219.833	-8.19
220.051	-34.82
220.27	73.73
220.488	-8.19
220.706	-47.1
220.924	-36.86
221.142	92.16
221.36	59.39
221.578	51.2
221.796	59.39
222.015	47.1
222.233	-47.1
222.451	32.77
222.669	-12.29
222.887	116.73
223.105	-12.29
223.323	6.14
223.541	-30.72
223.759	-8.19
223.977	-24.58
224.195	137.21
224.413	28.67
224.631	55.3
224.849	-12.29
225.067	-6.14
225.285	49.15
225.503	75.77
225.721	-18.43
225.939	-6.14
226.157	38.91
226.375	118.78
226.592	36.86
226.81	-8.19
227.028	38.91
227.246	83.97
227.464	45.06
227.682	26.62
227.9	20.48
228.117	81.92
228.335	-12.29
228.553	10.24
228.771	32.77
228.989	51.2
229.206	-26.62
229.424	-26.62
229.642	-28.67
229.86	24.58
230.077	24.58
230.295	10.24
230.513	22.53
230.731	43.01
230.948	59.39
231.166	73.73
231.384	69.63
231.601	32.77
231.819	18.43
232.037	4.1
232.254	-55.3
232.472	-6.14
232.689	32.77
232.907	59.39
233.125	100.35
233.342	2.05
233.56	-28.67
233.777	-4.1
233.995	6.14
234.213	55.3
234.43	-24.58
234.648	-18.43
234.865	47.1
235.083	-43.01
235.3	14.34
235.518	14.34
235.735	77.82
235.953	61.44
236.17	14.34
236.388	51.2
236.605	43.01
236.822	165.89
237.04	55.3
237.257	8.19
237.475	4.1
237.692	4.1
237.909	45.06
238.127	10.24
238.344	0
238.562	55.3
238.779	-30.72
238.996	22.53
239.214	20.48
239.431	55.3
239.648	-18.43
239.865	120.83
240.083	71.68
240.3	12.29
240.517	8.19
240.735	-20.48
240.952	53.25
241.169	18.43
241.386	24.58
241.603	-40.96
241.821	-12.29
242.038	71.68
242.255	63.49
242.472	-12.29
242.689	12.29
242.907	49.15
243.124	73.73
243.341	-43.01
243.558	-79.87
243.775	34.82
243.992	-63.49
244.209	59.39
244.426	86.01
244.643	26.62
244.86	55.3
245.078	-18.43
245.295	36.86
245.512	12.29
245.729	-65.53
245.946	47.1
246.163	4.1
246.38	59.39
246.597	-18.43
246.814	36.86
247.031	12.29
247.248	43.01
247.464	67.58
247.681	-20.48
247.898	4.1
248.115	77.82
248.332	12.29
248.549	63.49
248.766	45.06
248.983	51.2
249.2	55.3
249.417	88.06
249.633	49.15
249.85	45.06
250.067	6.14
250.284	-12.29
250.501	77.82
250.717	114.69
250.934	-10.24
251.151	-30.72
251.368	-49.15
251.585	40.96
251.801	-6.14
252.018	-36.86
252.235	104.45
252.451	-14.34
252.668	24.58
252.885	83.97
253.102	-32.77
253.318	55.3
253.535	-30.72
253.752	32.77
253.968	-14.34
254.185	-14.34
254.401	16.38
254.618	77.82
254.835	43.01
255.051	116.73
255.268	49.15
255.484	24.58
255.701	24.58
255.917	61.44
256.134	32.77
256.351	38.91
256.567	24.58
256.784	32.77
257	47.1
257.217	-2.05
257.433	51.2
257.65	-12.29
257.866	63.49
258.082	-32.77
258.299	57.34
258.515	30.72
258.732	24.58
258.948	67.58
259.165	53.25
259.381	67.58
259.597	38.91
259.814	-16.38
260.03	-6.14
260.246	-22.53
260.463	22.53
260.679	57.34
260.895	-14.34
261.112	110.59
261.328	-14.34
261.544	4.1
261.761	114.69
261.977	-6.14
262.193	-63.49
262.409	83.97
262.626	4.1
262.842	81.92
263.058	-6.14
263.274	32.77
263.49	36.86
263.707	16.38
263.923	75.77
264.139	-22.53
264.355	-30.72
264.571	83.97
264.787	-28.67
265.004	30.72
265.22	45.06
265.436	28.67
265.652	30.72
265.868	43.01
266.084	40.96
266.3	34.82
266.516	20.48
266.732	22.53
266.948	30.72
267.164	2.05
267.38	40.96
267.596	-6.14
267.812	122.88
268.028	75.77
268.244	55.3
268.46	36.86
268.676	45.06
268.892	0
269.108	-59.39
269.324	-47.1
269.54	0
269.756	-8.19
269.972	8.19
270.188	67.58
270.403	-14.34
270.619	18.43
270.835	77.82
271.051	43.01
271.267	57.34
271.483	-2.05
271.698	47.1
271.914	-28.67
272.13	40.96
272.346	55.3
272.562	8.19
272.777	28.67
272.993	49.15
273.209	6.14
273.425	57.34
273.64	10.24
273.856	71.68
274.072	8.19
274.287	-43.01
274.503	32.77
274.719	22.53
274.934	22.53
275.15	-6.14
275.366	22.53
275.581	-75.77
275.797	34.82
276.012	96.25
276.228	28.67
276.444	28.67
276.659	79.87
276.875	34.82
277.09	73.73
277.306	-2.05
277.521	47.1
277.737	51.2
277.952	47.1
278.168	6.14
278.383	40.96
278.599	57.34
278.814	32.77
279.03	79.87
279.245	18.43
279.461	100.35
279.676	77.82
279.892	-40.96
280.107	-20.48
280.322	43.01
280.538	63.49
280.753	71.68
280.969	12.29
281.184	14.34
281.399	32.77
281.615	8.19
281.83	32.77
282.045	14.34
282.26	28.67
282.476	49.15
282.691	10.24
282.906	69.63
283.122	38.91
283.337	-71.68
283.552	38.91
283.767	22.53
283.983	34.82
284.198	-22.53
284.413	65.54
284.628	-10.24
284.843	-2.05
285.058	20.48
285.274	-4.1
285.489	45.06
285.704	26.62
285.919	22.53
286.134	-55.3
286.349	-28.67
286.564	14.34
286.779	28.67
286.995	8.19
287.21	36.86
287.425	26.62
287.64	-34.82
287.855	47.1
288.07	6.14
288.285	57.34
288.5	61.44
288.715	32.77
288.93	-61.44
289.145	18.43
289.36	88.06
289.575	36.86
289.79	57.34
290.004	26.62
290.219	94.21
290.434	38.91
290.649	14.34
290.864	-10.24
291.079	100.35
291.294	38.91
291.509	30.72
291.724	16.38
291.938	24.58
292.153	38.91
292.368	36.86
292.583	24.58
292.798	96.25
293.012	32.77
293.227	73.73
293.442	-34.82
293.657	79.87
293.871	34.82
294.086	-38.91
294.301	55.3
294.516	0
294.73	51.2
294.945	-14.34
295.16	-24.58
295.374	96.25
295.589	133.12
295.804	45.06
296.018	57.34
296.233	14.34
296.447	92.16
296.662	12.29
296.877	83.97
297.091	102.4
297.306	32.77
297.52	32.77
297.735	90.11
297.949	61.44
298.164	71.68
298.378	16.38
298.593	-22.53
298.807	-4.1
299.022	49.15
299.236	49.15
299.451	49.15
299.665	22.53
299.88	26.62
300.094	32.77
300.309	10.24
300.523	81.92
300.737	-8.19
300.952	75.77
301.166	-30.72
301.381	38.91
301.595	90.11
301.809	40.96
302.024	0
302.238	40.96
302.452	69.63
302.667	8.19
302.881	36.86
303.095	77.82
303.309	16.38
303.524	4.1
303.738	14.34
303.952	63.49
304.166	45.06
304.381	36.86
304.595	137.21
304.809	61.44
305.023	2.05
305.237	20.48
305.452	30.72
305.666	71.68
305.88	71.68
306.094	83.97
306.308	34.82
306.522	69.63
306.736	-4.1
306.95	45.06
307.164	8.19
307.379	55.3
307.593	108.54
307.807	67.58
308.021	28.67
308.235	40.96
308.449	38.91
308.663	-30.72
308.877	69.63
309.091	24.58
309.305	51.2
309.519	-36.86
309.733	104.45
309.947	22.53
310.161	96.25
310.374	81.92
310.588	116.73
310.802	-67.58
311.016	73.73
311.23	59.39
311.444	38.91
311.658	69.63
311.872	108.54
312.085	51.2
312.299	-2.05
312.513	57.34
312.727	65.54
312.941	34.82
313.154	81.92
313.368	57.34
313.582	-8.19
313.796	10.24
314.009	49.15
314.223	-14.34
314.437	40.96
314.651	18.43
314.864	6.14
315.078	51.2
315.292	-30.72
315.505	-8.19
315.719	83.97
315.933	51.2
316.146	45.06
316.36	-24.58
316.573	61.44
316.787	-8.19
317.001	30.72
317.214	53.25
317.428	81.92
317.641	-8.19
317.855	55.3
318.068	-36.86
318.282	26.62
318.495	55.3
318.709	-8.19
318.922	4.1
319.136	98.3
319.349	-10.24
319.563	45.06
319.776	104.45
319.99	-18.43
320.203	26.62
320.417	57.34
320.63	116.73
320.843	90.11
321.057	30.72
321.27	-34.82
321.483	86.01
321.697	102.4
321.91	116.73
322.124	86.01
322.337	61.44
322.55	32.77
322.763	36.86
322.977	114.69
323.19	4.1
323.403	47.1
323.617	32.77
323.83	30.72
324.043	12.29
324.256	-57.34
324.469	14.34
324.683	43.01
324.896	32.77
325.109	59.39
325.322	-6.14
325.535	92.16
325.748	18.43
325.962	38.91
326.175	92.16
326.388	88.06
326.601	26.62
326.814	98.3
327.027	20.48
327.24	71.68
327.453	-22.53
327.666	-24.58
327.879	139.26
328.092	-28.67
328.305	43.01
328.518	30.72
328.731	-20.48
328.944	51.2
329.157	43.01
329.37	102.4
329.583	165.89
329.796	104.45
330.009	6.14
330.222	81.92
330.435	88.06
330.648	-14.34
330.861	14.34
331.073	73.73
331.286	81.92
331.499	2.05
331.712	22.53
331.925	57.34
332.138	28.67
332.35	122.88
332.563	10.24
332.776	153.6
332.989	26.62
333.202	47.1
333.414	22.53
333.627	2.05
333.84	34.82
334.053	30.72
334.265	-4.1
334.478	-2.05
334.691	-40.96
334.903	51.2
335.116	-32.77
335.329	4.1
335.541	83.97
335.754	110.59
335.966	10.24
336.179	65.54
336.392	53.25
336.604	61.44
336.817	92.16
337.029	71.68
337.242	96.25
337.454	49.15
337.667	26.62
337.88	77.82
338.092	-6.14
338.305	83.97
338.517	59.39
338.729	49.15
338.942	104.45
339.154	47.1
339.367	20.48
339.579	55.3
339.792	-10.24
340.004	34.82
340.217	30.72
340.429	26.62
340.641	57.34
340.854	137.21
341.066	-14.34
341.278	-8.19
341.491	45.06
341.703	59.39
341.915	36.86
342.128	18.43
342.34	47.1
342.552	92.16
342.764	14.34
342.977	28.67
343.189	67.58
343.401	79.87
343.613	47.1
343.826	118.78
344.038	94.21
344.25	32.77
344.462	26.62
344.674	131.07
344.886	88.06
345.099	20.48
345.311	10.24
345.523	38.91
345.735	-32.77
345.947	30.72
346.159	26.62
346.371	26.62
346.583	-20.48
346.795	124.93
347.007	106.49
347.219	-4.1
347.431	77.82
347.643	100.35
347.855	67.58
348.067	57.34
348.279	-20.48
348.491	73.73
348.703	47.1
348.915	30.72
349.127	96.25
349.339	24.58
349.551	61.44
349.763	69.63
349.975	20.48
350.187	108.54
350.399	102.4
350.61	67.58
350.822	122.88
351.034	106.49
351.246	131.07
351.458	40.96
351.669	20.48
351.881	98.3
352.093	77.82
352.305	102.4
352.517	49.15
352.728	155.65
352.94	73.73
353.152	-22.53
353.363	0
353.575	53.25
353.787	94.21
353.999	51.2
354.21	145.41
354.422	18.43
354.633	61.44
354.845	71.68
355.057	73.73
355.268	96.25
355.48	55.3
355.692	14.34
355.903	73.73
356.115	0
356.326	26.62
356.538	120.83
356.749	96.25
356.961	92.16
357.172	69.63
357.384	16.38
357.595	53.25
357.807	55.3
358.018	71.68
358.23	32.77
358.441	102.4
358.653	83.97
358.864	73.73
359.075	14.34
359.287	98.3
359.498	22.53
359.709	0
359.921	12.29
360.132	16.38
360.344	-12.29
360.555	28.67
360.766	-65.53
360.977	49.15
361.189	90.11
361.4	45.06
361.611	112.64
361.823	112.64
362.034	94.21
362.245	47.1
362.456	45.06
362.667	63.49
362.879	49.15
363.09	63.49
363.301	43.01
363.512	63.49
363.723	-32.77
363.935	67.58
364.146	92.16
364.357	43.01
364.568	116.73
364.779	-26.62
364.99	83.97
365.201	10.24
365.412	47.1
365.623	55.3
365.834	53.25
366.045	43.01
366.256	34.82
366.467	77.82
366.678	88.06
366.889	28.67
367.1	38.91
367.311	112.64
367.522	59.39
367.733	36.86
367.944	57.34
368.155	38.91
368.366	83.97
368.577	77.82
368.788	63.49
368.999	69.63
369.209	-14.34
369.42	126.97
369.631	163.84
369.842	0
370.053	75.77
370.264	14.34
370.474	81.92
370.685	86.01
370.896	-30.72
371.107	45.06
371.317	40.96
371.528	6.14
371.739	69.63
371.95	18.43
372.16	100.35
372.371	-8.19
372.582	18.43
372.792	73.73
373.003	88.06
373.214	73.73
373.424	63.49
373.635	32.77
373.846	96.25
374.056	110.59
374.267	49.15
374.477	57.34
374.688	149.5
374.898	116.73
375.109	122.88
375.319	79.87
375.53	79.87
375.74	106.49
375.951	43.01
376.161	40.96
376.372	141.31
376.582	20.48
376.793	118.78
377.003	63.49
377.214	75.77
377.424	24.58
377.635	32.77
377.845	38.91
378.055	180.22
378.266	110.59
378.476	40.96
378.686	36.86
378.897	49.15
379.107	6.14
379.317	43.01
379.528	-2.05
379.738	75.77
379.948	98.3
380.158	102.4
380.369	83.97
380.579	47.1
380.789	57.34
380.999	100.35
381.21	141.31
381.42	133.12
381.63	53.25
381.84	165.89
382.05	22.53
382.261	94.21
382.471	114.69
382.681	73.73
382.891	71.68
383.101	73.73
383.311	-22.53
383.521	0
383.731	45.06
383.941	106.49
384.151	73.73
384.361	96.25
384.571	153.6
384.781	47.1
384.991	129.02
385.201	83.97
385.411	73.73
385.621	120.83
385.831	77.82
386.041	79.87
386.251	124.93
386.461	139.26
386.671	47.1
386.881	57.34
387.091	6.14
387.301	59.39
387.511	112.64
387.72	59.39
387.93	151.55
388.14	12.29
388.35	43.01
388.56	51.2
388.769	83.97
388.979	106.49
389.189	-8.19
389.399	110.59
389.609	16.38
389.818	83.97
390.028	86.01
390.238	114.69
390.447	104.45
390.657	159.74
390.867	63.49
391.076	28.67
391.286	61.44
391.496	124.93
391.705	71.68
391.915	139.26
392.125	133.12
392.334	57.34
392.544	153.6
392.753	96.25
392.963	53.25
393.172	94.21
393.382	45.06
393.591	96.25
393.801	120.83
394.01	102.4
394.22	59.39
394.429	88.06
394.639	55.3
394.848	90.11
395.058	141.31
395.267	90.11
395.477	165.89
395.686	120.83
395.895	178.17
396.105	165.89
396.314	67.58
396.524	215.04
396.733	108.54
396.942	159.74
397.152	63.49
397.361	65.54
397.57	65.54
397.78	104.45
397.989	114.69
398.198	153.6
398.407	178.17
398.617	147.45
398.826	178.17
399.035	120.83
399.244	131.07
399.453	73.73
399.663	149.5
399.872	141.31
400.081	139.26
400.29	137.21
400.499	159.74
400.708	137.21
400.917	131.07
401.127	106.49
401.336	69.63
401.545	151.55
401.754	192.51
401.963	145.41
402.172	124.93
402.381	120.83
402.59	38.91
402.799	122.88
403.008	151.55
403.217	176.13
403.426	245.76
403.635	149.5
403.844	139.26
404.053	178.17
404.262	180.22
404.471	194.56
404.68	192.51
404.888	274.43
405.097	258.04
405.306	169.98
405.515	288.76
405.724	182.27
405.933	196.61
406.142	217.08
406.35	299
406.559	284.67
406.768	212.99
406.977	370.68
407.185	194.56
407.394	278.52
407.603	241.66
407.812	190.46
408.02	333.82
408.229	268.28
408.438	331.77
408.646	272.38
408.855	352.25
409.064	301.05
409.272	309.24
409.481	434.17
409.69	360.44
409.898	428.03
410.107	409.59
410.315	487.42
410.524	473.08
410.733	524.28
410.941	387.07
411.15	516.09
411.358	530.42
411.567	509.94
411.775	569.34
411.984	587.77
412.192	514.04
412.401	598.01
412.609	641.01
412.818	641.01
413.026	700.41
413.234	671.73
413.443	737.27
413.651	718.84
413.86	778.23
414.068	772.08
414.276	835.57
414.485	786.42
414.693	937.97
414.901	1026.03
415.11	1023.98
415.318	927.73
415.526	1011.7
415.734	1085.42
415.943	1198.06
416.151	1161.2
416.359	1114.1
416.567	1200.11
416.776	1173.49
416.984	1335.28
417.192	1337.32
417.4	1339.37
417.608	1376.24
417.817	1320.94
418.025	1550.31
418.233	1665
418.441	1535.98
418.649	1581.03
418.857	1802.21
419.065	1691.62
419.273	1742.82
419.481	2043.87
419.689	1957.86
419.897	2045.92
420.105	2084.83
420.313	2164.7
420.521	2211.81
420.729	2281.44
420.937	2375.64
421.145	2453.47
421.353	2580.44
421.561	2711.51
421.769	2740.18
421.977	2760.66
422.185	2858.96
422.393	2910.16
422.601	3155.92
422.809	3114.96
423.017	3184.59
423.224	3200.98
423.432	3538.89
423.64	3362.76
423.848	3825.61
424.056	3620.81
424.263	4061.12
424.471	3956.68
424.679	4011.97
424.887	4147.14
425.094	4499.39
425.302	4519.87
425.51	4523.96
425.718	4700.09
425.925	4718.52
426.133	4855.73
426.341	5207.98
426.548	5367.73
426.756	5466.03
426.964	5582.76
427.171	5853.09
427.379	5955.49
427.586	6100.9
427.794	6174.63
428.001	6467.49
428.209	6735.77
428.417	6715.29
428.624	7255.95
428.832	7323.54
429.039	7415.69
429.247	7276.43
429.454	8013.7
429.662	8277.89
429.869	7923.59
430.076	8304.51
430.284	8255.36
430.491	8638.33
430.699	9006.97
430.906	8861.56
431.114	9062.26
431.321	9365.36
431.528	9811.82
431.736	10418.02
431.943	10825.56
432.15	10315.62
432.358	10637.15
432.565	11126.61
432.772	11192.15
432.979	11818.83
433.187	11802.44
433.394	12074.82
433.601	12695.36
433.808	12900.16
434.016	12693.31
434.223	13256.5
434.43	14040.87
434.637	13831.98
434.844	14563.11
435.052	15032.09
435.259	15005.47
435.466	15044.38
435.673	14909.21
435.88	16006.92
436.087	16793.34
436.294	16537.35
436.501	16592.64
436.708	16568.07
436.915	17202.94
437.122	18128.62
437.329	18071.28
437.537	18691.81
437.743	18958.05
437.95	18657
438.157	19680.98
438.364	20465.35
438.571	20516.55
438.778	20545.22
438.985	22683.3
439.192	21731
439.399	22107.82
439.606	21862.07
439.813	23053.98
440.02	23994
440.227	23920.28
440.433	23678.61
440.64	24505.99
440.847	24331.92
441.054	25214.59
441.261	26625.64
441.467	26115.7
441.674	26728.04
441.881	27864.66
442.088	27616.86
442.294	27520.6
442.501	28489.29
442.708	28692.04
442.914	29937.21
443.121	31090.21
443.328	30260.79
443.534	32738.83
443.741	31706.65
443.948	31284.77
444.154	33455.62
444.361	33496.58
444.568	33644.03
444.774	33482.24
444.981	33979.9
445.187	34891.24
445.394	36212.18
445.6	35788.25
445.807	39019.95
446.013	37727.68
446.22	38583.73
446.426	39665.06
446.633	40351.13
446.839	41221.51
447.046	39900.58
447.252	42290.55
447.459	42175.87
447.665	41561.48
447.871	43842.91
448.078	45569.35
448.284	43398.51
448.491	44422.49
448.697	46337.34
448.903	46896.44
449.11	47250.73
449.316	46267.71
449.522	46957.88
449.728	48424.22
449.935	48958.74
450.141	48680.22
450.347	49796.36
450.553	48174.37
450.76	48733.46
450.966	50459.9
451.172	50035.97
451.378	51068.15
451.584	49997.06
451.791	51295.47
451.997	50824.44
452.203	51893.48
452.409	51692.78
452.615	51694.83
452.821	49640.71
453.027	49141.01
453.233	51891.43
453.44	49990.92
453.646	50328.83
453.852	50638.08
454.058	51662.06
454.264	50076.93
454.47	50973.94
454.676	49511.69
454.882	51182.83
455.088	46990.64
455.294	47752.49
455.5	47826.21
455.705	48866.58
455.911	46677.3
456.117	45784.39
456.323	45231.44
456.529	42802.55
456.735	44813.65
456.941	43756.9
457.147	43052.4
457.352	41905.54
457.558	41536.9
457.764	41264.52
457.97	40617.36
458.176	39814.56
458.381	39519.65
458.587	37629.38
458.793	37645.76
458.999	35503.59
459.204	38501.81
459.41	37057.99
459.616	34582
459.821	34903.53
460.027	34518.51
460.233	33703.42
460.438	32562.7
460.644	32751.12
460.85	31393.31
461.055	30369.33
461.261	30369.33
461.466	28110.42
461.672	27532.89
461.878	29197.89
462.083	27364.96
462.289	26652.27
462.494	26637.93
462.7	25585.27
462.905	25126.53
463.111	25888.37
463.316	25601.66
463.522	25167.49
463.727	25583.23
463.932	25181.82
464.138	25020.03
464.343	24725.13
464.549	23973.52
464.754	24956.55
464.959	24845.96
465.165	24850.05
465.37	23500.44
465.575	23305.88
465.781	24346.25
465.986	24323.72
466.191	23262.88
466.397	22800.04
466.602	21765.81
466.807	22621.86
