Data from USB4F104151__75__12-24-21-731.txt Node

Date: Fri Mar 14 12:24:21 EDT 2025
User: louis
Spectrometer: USB4F10415
Trigger mode: 4
Integration Time (sec): 3.500000E-2
Scans to average: 1
Electric dark correction enabled: true
Nonlinearity correction enabled: false
Boxcar width: 0
XAxis mode: Wavelengths
Number of Pixels in Spectrum: 3648
>>>>>Begin Spectral Data<<<<<
178.204	-166.57
178.424	-166.57
178.644	-166.57
178.864	-248.49
179.084	-158.38
179.304	58.71
179.524	-31.4
179.744	-33.45
179.964	42.32
180.184	30.04
180.404	-29.35
180.624	-31.4
180.844	60.76
181.064	-117.42
181.283	60.76
181.503	-68.27
181.723	58.71
181.943	-90.79
182.163	-10.92
182.383	-15.02
182.602	44.37
182.822	25.94
183.042	3.41
183.262	-33.45
183.482	5.46
183.701	-84.65
183.921	27.99
184.141	-0.68
184.361	34.13
184.58	-2.73
184.8	38.23
185.02	-47.79
185.239	-4.78
185.459	13.65
185.679	34.13
185.898	-4.78
186.118	83.28
186.338	-66.22
186.557	7.51
186.777	-25.26
186.997	27.99
187.216	-33.45
187.436	62.8
187.655	48.47
187.875	-15.02
188.095	95.57
188.314	7.51
188.534	21.85
188.753	-31.4
188.973	30.04
189.192	54.61
189.412	30.04
189.631	32.08
189.851	58.71
190.07	75.09
190.29	-10.92
190.509	-12.97
190.729	-47.79
190.948	19.8
191.168	140.63
191.387	64.85
191.607	3.41
191.826	-2.73
192.045	21.85
192.265	9.56
192.484	-68.27
192.704	56.66
192.923	-2.73
193.142	109.91
193.362	101.72
193.581	19.8
193.8	40.28
194.02	62.8
194.239	-37.55
194.458	27.99
194.678	5.46
194.897	32.08
195.116	-21.16
195.335	36.18
195.555	9.56
195.774	1.37
195.993	5.46
196.212	-8.87
196.432	-53.93
196.651	-21.16
196.87	52.56
197.089	99.67
197.308	83.28
197.528	1.37
197.747	-47.79
197.966	3.41
198.185	21.85
198.404	-2.73
198.623	83.28
198.842	54.61
199.062	77.14
199.281	60.76
199.5	60.76
199.719	62.8
199.938	19.8
200.157	71
200.376	34.13
200.595	9.56
200.814	11.61
201.033	27.99
201.252	66.9
201.471	107.86
201.69	36.18
201.909	52.56
202.128	60.76
202.347	30.04
202.566	30.04
202.785	-29.35
203.004	-15.02
203.223	85.33
203.442	60.76
203.661	1.37
203.879	50.52
204.098	19.8
204.317	-70.31
204.536	15.7
204.755	-45.74
204.974	68.95
205.193	-17.07
205.411	105.81
205.63	132.44
205.849	66.9
206.068	58.71
206.287	17.75
206.505	-27.31
206.724	-15.02
206.943	23.89
207.162	-33.45
207.381	19.8
207.599	32.08
207.818	17.75
208.037	7.51
208.255	-23.21
208.474	7.51
208.693	89.43
208.911	25.94
209.13	58.71
209.349	73.04
209.567	-27.31
209.786	89.43
210.005	58.71
210.223	-47.79
210.442	-15.02
210.661	-0.68
210.879	50.52
211.098	46.42
211.316	9.56
211.535	34.13
211.753	52.56
211.972	44.37
212.191	68.95
212.409	-31.4
212.628	7.51
212.846	19.8
213.065	-19.11
213.283	3.41
213.502	97.62
213.72	5.46
213.938	-49.83
214.157	9.56
214.375	79.19
214.594	58.71
214.812	21.85
215.031	38.23
215.249	7.51
215.467	-88.75
215.686	-19.11
215.904	32.08
216.122	-31.4
216.341	27.99
216.559	23.89
216.778	-10.92
216.996	48.47
217.214	-12.97
217.432	44.37
217.651	-21.16
217.869	30.04
218.087	-31.4
218.306	-12.97
218.524	97.62
218.742	17.75
218.96	27.99
219.179	50.52
219.397	-43.69
219.615	50.52
219.833	17.75
220.051	-25.26
220.27	75.09
220.488	-27.31
220.706	9.56
220.924	1.37
221.142	-23.21
221.36	-10.92
221.578	68.95
221.796	32.08
222.015	30.04
222.233	-27.31
222.451	64.85
222.669	-72.36
222.887	34.13
223.105	-8.87
223.323	46.42
223.541	79.19
223.759	62.8
223.977	-53.93
224.195	132.44
224.413	42.32
224.631	-17.07
224.849	7.51
225.067	75.09
225.285	1.37
225.503	7.51
225.721	-21.16
225.939	32.08
226.157	-15.02
226.375	111.96
226.592	-29.35
226.81	68.95
227.028	30.04
227.246	87.38
227.464	-23.21
227.682	23.89
227.9	93.52
228.117	56.66
228.335	36.18
228.553	-8.87
228.771	17.75
228.989	-4.78
229.206	42.32
229.424	-49.83
229.642	25.94
229.86	34.13
230.077	21.85
230.295	-35.5
230.513	17.75
230.731	-2.73
230.948	-2.73
231.166	27.99
231.384	36.18
231.601	13.65
231.819	17.75
232.037	38.23
232.254	17.75
232.472	34.13
232.689	-10.92
232.907	116.05
233.125	87.38
233.342	5.46
233.56	-39.59
233.777	-2.73
233.995	-41.64
234.213	-21.16
234.43	19.8
234.648	73.04
234.865	-21.16
235.083	3.41
235.3	27.99
235.518	62.8
235.735	15.7
235.953	23.89
236.17	-47.79
236.388	19.8
236.605	9.56
236.822	99.67
237.04	50.52
237.257	48.47
237.475	-12.97
237.692	-27.31
237.909	-35.5
238.127	50.52
238.344	38.23
238.562	15.7
238.779	-8.87
238.996	-55.98
239.214	60.76
239.431	71
239.648	-29.35
239.865	107.86
240.083	79.19
240.3	15.7
240.517	40.28
240.735	21.85
240.952	15.7
241.169	52.56
241.386	17.75
241.603	36.18
241.821	58.71
242.038	148.82
242.255	73.04
242.472	-15.02
242.689	-12.97
242.907	81.24
243.124	81.24
243.341	-123.56
243.558	85.33
243.775	-10.92
243.992	-33.45
244.209	77.14
244.426	163.15
244.643	-0.68
244.86	-12.97
245.078	-2.73
245.295	7.51
245.512	64.85
245.729	-64.17
245.946	36.18
246.163	7.51
246.38	-4.78
246.597	27.99
246.814	81.24
247.031	17.75
247.248	19.8
247.464	5.46
247.681	7.51
247.898	50.52
248.115	-0.68
248.332	-19.11
248.549	36.18
248.766	79.19
248.983	54.61
249.2	11.61
249.417	107.86
249.633	36.18
249.85	66.9
250.067	-21.16
250.284	-64.17
250.501	87.38
250.717	-17.07
250.934	13.65
251.151	-2.73
251.368	-2.73
251.585	34.13
251.801	-12.97
252.018	-29.35
252.235	79.19
252.451	46.42
252.668	-2.73
252.885	46.42
253.102	-94.89
253.318	21.85
253.535	-6.83
253.752	-33.45
253.968	38.23
254.185	56.66
254.401	50.52
254.618	64.85
254.835	-33.45
255.051	48.47
255.268	-27.31
255.484	23.89
255.701	-76.46
255.917	27.99
256.134	-21.16
256.351	44.37
256.567	-66.22
256.784	58.71
257	40.28
257.217	-4.78
257.433	66.9
257.65	46.42
257.866	11.61
258.082	-23.21
258.299	-41.64
258.515	105.81
258.732	64.85
258.948	19.8
259.165	30.04
259.381	-17.07
259.597	-37.55
259.814	1.37
260.03	-2.73
260.246	-25.26
260.463	64.85
260.679	111.96
260.895	-37.55
261.112	83.28
261.328	-12.97
261.544	-17.07
261.761	87.38
261.977	23.89
262.193	19.8
262.409	30.04
262.626	27.99
262.842	27.99
263.058	-76.46
263.274	99.67
263.49	11.61
263.707	89.43
263.923	68.95
264.139	-58.03
264.355	7.51
264.571	40.28
264.787	-23.21
265.004	25.94
265.22	-47.79
265.436	-21.16
265.652	46.42
265.868	56.66
266.084	30.04
266.3	5.46
266.516	-2.73
266.732	-21.16
266.948	40.28
267.164	-12.97
267.38	19.8
267.596	23.89
267.812	89.43
268.028	36.18
268.244	17.75
268.46	-10.92
268.676	-2.73
268.892	77.14
269.108	-49.83
269.324	27.99
269.54	-53.93
269.756	75.09
269.972	-2.73
270.188	5.46
270.403	-21.16
270.619	11.61
270.835	1.37
271.051	-0.68
271.267	3.41
271.483	-19.11
271.698	114
271.914	-6.83
272.13	19.8
272.346	64.85
272.562	-41.64
272.777	13.65
272.993	50.52
273.209	32.08
273.425	7.51
273.64	32.08
273.856	56.66
274.072	109.91
274.287	-21.16
274.503	64.85
274.719	60.76
274.934	-70.31
275.15	-8.87
275.366	13.65
275.581	-2.73
275.797	-31.4
276.012	44.37
276.228	15.7
276.444	21.85
276.659	27.99
276.875	-29.35
277.09	-23.21
277.306	7.51
277.521	27.99
277.737	-72.36
277.952	38.23
278.168	25.94
278.383	7.51
278.599	17.75
278.814	40.28
279.03	-6.83
279.245	9.56
279.461	48.47
279.676	83.28
279.892	-51.88
280.107	-35.5
280.322	-10.92
280.538	77.14
280.753	7.51
280.969	9.56
281.184	44.37
281.399	23.89
281.615	23.89
281.83	34.13
282.045	13.65
282.26	56.66
282.476	9.56
282.691	46.42
282.906	52.56
283.122	58.71
283.337	-64.17
283.552	40.28
283.767	7.51
283.983	-17.07
284.198	3.41
284.413	27.99
284.628	-49.83
284.843	83.28
285.058	-25.26
285.274	-21.16
285.489	-115.37
285.704	21.85
285.919	5.46
286.134	23.89
286.349	38.23
286.564	15.7
286.779	25.94
286.995	103.76
287.21	-12.97
287.425	75.09
287.64	-15.02
287.855	83.28
288.07	-35.5
288.285	87.38
288.5	91.48
288.715	23.89
288.93	36.18
289.145	-0.68
289.36	-21.16
289.575	-41.64
289.79	91.48
290.004	23.89
290.219	50.52
290.434	71
290.649	-39.59
290.864	-12.97
291.079	-45.74
291.294	32.08
291.509	85.33
291.724	-35.5
291.938	-4.78
292.153	25.94
292.368	-4.78
292.583	-84.65
292.798	58.71
293.012	32.08
293.227	-17.07
293.442	-90.79
293.657	-35.5
293.871	7.51
294.086	-21.16
294.301	17.75
294.516	23.89
294.73	-15.02
294.945	7.51
295.16	5.46
295.374	50.52
295.589	48.47
295.804	-4.78
296.018	-23.21
296.233	52.56
296.447	62.8
296.662	-17.07
296.877	85.33
297.091	-0.68
297.306	30.04
297.52	-41.64
297.735	71
297.949	89.43
298.164	9.56
298.378	-82.6
298.593	23.89
298.807	38.23
299.022	58.71
299.236	17.75
299.451	5.46
299.665	50.52
299.88	27.99
300.094	25.94
300.309	-6.83
300.523	9.56
300.737	19.8
300.952	58.71
301.166	19.8
301.381	-12.97
301.595	17.75
301.809	-35.5
302.024	38.23
302.238	-31.4
302.452	132.44
302.667	40.28
302.881	52.56
303.095	62.8
303.309	66.9
303.524	-2.73
303.738	38.23
303.952	30.04
304.166	23.89
304.381	-53.93
304.595	50.52
304.809	-58.03
305.023	-21.16
305.237	32.08
305.452	17.75
305.666	9.56
305.88	62.8
306.094	75.09
306.308	89.43
306.522	11.61
306.736	11.61
306.95	-37.55
307.164	44.37
307.379	7.51
307.593	93.52
307.807	5.46
308.021	60.76
308.235	46.42
308.449	-2.73
308.663	-15.02
308.877	105.81
309.091	-37.55
309.305	48.47
309.519	-39.59
309.733	21.85
309.947	-70.31
310.161	60.76
310.374	32.08
310.588	56.66
310.802	-27.31
311.016	13.65
311.23	48.47
311.444	-47.79
311.658	19.8
311.872	89.43
312.085	73.04
312.299	38.23
312.513	3.41
312.727	93.52
312.941	-37.55
313.154	19.8
313.368	3.41
313.582	32.08
313.796	52.56
314.009	-4.78
314.223	52.56
314.437	99.67
314.651	44.37
314.864	-2.73
315.078	-25.26
315.292	13.65
315.505	44.37
315.719	-23.21
315.933	-12.97
316.146	-33.45
316.36	-74.41
316.573	58.71
316.787	44.37
317.001	17.75
317.214	-10.92
317.428	-4.78
317.641	15.7
317.855	73.04
318.068	-10.92
318.282	-6.83
318.495	120.15
318.709	-43.69
318.922	-58.03
319.136	89.43
319.349	105.81
319.563	-8.87
319.776	52.56
319.99	40.28
320.203	32.08
320.417	81.24
320.63	101.72
320.843	109.91
321.057	-21.16
321.27	-19.11
321.483	42.32
321.697	-12.97
321.91	38.23
322.124	60.76
322.337	54.61
322.55	50.52
322.763	50.52
322.977	-51.88
323.19	40.28
323.403	7.51
323.617	85.33
323.83	46.42
324.043	-31.4
324.256	-47.79
324.469	-66.22
324.683	75.09
324.896	52.56
325.109	-33.45
325.322	-43.69
325.535	15.7
325.748	34.13
325.962	30.04
326.175	3.41
326.388	40.28
326.601	-39.59
326.814	40.28
327.027	-19.11
327.24	62.8
327.453	-80.55
327.666	40.28
327.879	27.99
328.092	114
328.305	27.99
328.518	-19.11
328.731	40.28
328.944	-70.31
329.157	-6.83
329.37	56.66
329.583	46.42
329.796	27.99
330.009	15.7
330.222	54.61
330.435	-10.92
330.648	-6.83
330.861	87.38
331.073	-129.7
331.286	40.28
331.499	-33.45
331.712	23.89
331.925	9.56
332.138	-29.35
332.35	46.42
332.563	-21.16
332.776	3.41
332.989	36.18
333.202	5.46
333.414	-15.02
333.627	7.51
333.84	126.29
334.053	66.9
334.265	58.71
334.478	68.95
334.691	5.46
334.903	62.8
335.116	-0.68
335.329	-6.83
335.541	30.04
335.754	46.42
335.966	42.32
336.179	83.28
336.392	15.7
336.604	-35.5
336.817	56.66
337.029	58.71
337.242	-2.73
337.454	3.41
337.667	66.9
337.88	42.32
338.092	-19.11
338.305	1.37
338.517	17.75
338.729	40.28
338.942	48.47
339.154	17.75
339.367	-19.11
339.579	91.48
339.792	21.85
340.004	54.61
340.217	30.04
340.429	-6.83
340.641	-43.69
340.854	5.46
341.066	13.65
341.278	68.95
341.491	1.37
341.703	79.19
341.915	-39.59
342.128	13.65
342.34	36.18
342.552	7.51
342.764	32.08
342.977	97.62
343.189	91.48
343.401	79.19
343.613	-78.51
343.826	21.85
344.038	46.42
344.25	42.32
344.462	3.41
344.674	-25.26
344.886	32.08
345.099	60.76
345.311	17.75
345.523	-0.68
345.735	-15.02
345.947	101.72
346.159	71
346.371	-4.78
346.583	126.29
346.795	66.9
347.007	-17.07
347.219	7.51
347.431	27.99
347.643	32.08
347.855	1.37
348.067	79.19
348.279	-2.73
348.491	114
348.703	42.32
348.915	-39.59
349.127	54.61
349.339	91.48
349.551	27.99
349.763	54.61
349.975	13.65
350.187	1.37
350.399	79.19
350.61	25.94
350.822	-6.83
351.034	44.37
351.246	13.65
351.458	42.32
351.669	13.65
351.881	122.2
352.093	11.61
352.305	19.8
352.517	19.8
352.728	99.67
352.94	-12.97
353.152	68.95
353.363	23.89
353.575	64.85
353.787	120.15
353.999	62.8
354.21	136.53
354.422	13.65
354.633	44.37
354.845	23.89
355.057	54.61
355.268	73.04
355.48	75.09
355.692	1.37
355.903	77.14
356.115	-8.87
356.326	-21.16
356.538	107.86
356.749	7.51
356.961	107.86
357.172	50.52
357.384	-47.79
357.595	136.53
357.807	54.61
358.018	-17.07
358.23	25.94
358.441	46.42
358.653	-15.02
358.864	107.86
359.075	23.89
359.287	77.14
359.498	15.7
359.709	54.61
359.921	64.85
360.132	44.37
360.344	11.61
360.555	48.47
360.766	34.13
360.977	103.76
361.189	109.91
361.4	66.9
361.611	95.57
361.823	60.76
362.034	3.41
362.245	-27.31
362.456	17.75
362.667	-23.21
362.879	-12.97
363.09	1.37
363.301	11.61
363.512	56.66
363.723	-70.31
363.935	17.75
364.146	13.65
364.357	-23.21
364.568	9.56
364.779	-31.4
364.99	64.85
365.201	48.47
365.412	75.09
365.623	-101.03
365.834	-35.5
366.045	-43.69
366.256	89.43
366.467	34.13
366.678	-25.26
366.889	44.37
367.1	-58.03
367.311	-2.73
367.522	52.56
367.733	44.37
367.944	114
368.155	11.61
368.366	17.75
368.577	32.08
368.788	66.9
368.999	17.75
369.209	52.56
369.42	68.95
369.631	140.63
369.842	75.09
370.053	58.71
370.264	32.08
370.474	-4.78
370.685	34.13
370.896	42.32
371.107	42.32
371.317	111.96
371.528	52.56
371.739	101.72
371.95	107.86
372.16	48.47
372.371	-35.5
372.582	23.89
372.792	46.42
373.003	34.13
373.214	44.37
373.424	38.23
373.635	48.47
373.846	81.24
374.056	89.43
374.267	42.32
374.477	56.66
374.688	-12.97
374.898	-12.97
375.109	15.7
375.319	21.85
375.53	109.91
375.74	73.04
375.951	-31.4
376.161	81.24
376.372	66.9
376.582	-10.92
376.793	42.32
377.003	7.51
377.214	34.13
377.424	109.91
377.635	40.28
377.845	27.99
378.055	36.18
378.266	-55.98
378.476	32.08
378.686	38.23
378.897	64.85
379.107	85.33
379.317	60.76
379.528	21.85
379.738	58.71
379.948	-4.78
380.158	118.1
380.369	52.56
380.579	34.13
380.789	73.04
380.999	7.51
381.21	54.61
381.42	105.81
381.63	-4.78
381.84	52.56
382.05	11.61
382.261	1.37
382.471	81.24
382.681	79.19
382.891	50.52
383.101	42.32
383.311	-29.35
383.521	-31.4
383.731	140.63
383.941	7.51
384.151	3.41
384.361	17.75
384.571	7.51
384.781	19.8
384.991	126.29
385.201	68.95
385.411	58.71
385.621	79.19
385.831	11.61
386.041	58.71
386.251	32.08
386.461	46.42
386.671	21.85
386.881	21.85
387.091	46.42
387.301	73.04
387.511	89.43
387.72	62.8
387.93	54.61
388.14	-47.79
388.35	32.08
388.56	122.2
388.769	87.38
388.979	-2.73
389.189	-2.73
389.399	116.05
389.609	99.67
389.818	122.2
390.028	81.24
390.238	50.52
390.447	-17.07
390.657	25.94
390.867	56.66
391.076	-84.65
391.286	-41.64
391.496	15.7
391.705	-0.68
391.915	144.72
392.125	77.14
392.334	27.99
392.544	103.76
392.753	21.85
392.963	13.65
393.172	27.99
393.382	5.46
393.591	152.92
393.801	71
394.01	81.24
394.22	52.56
394.429	23.89
394.639	81.24
394.848	30.04
395.058	118.1
395.267	64.85
395.477	-2.73
395.686	79.19
395.895	122.2
396.105	73.04
396.314	109.91
396.524	44.37
396.733	124.24
396.942	116.05
397.152	60.76
397.361	58.71
397.57	58.71
397.78	48.47
397.989	111.96
398.198	193.87
398.407	75.09
398.617	109.91
398.826	58.71
399.035	48.47
399.244	85.33
399.453	17.75
399.663	50.52
399.872	122.2
400.081	87.38
400.29	60.76
400.499	27.99
400.708	130.39
400.917	97.62
401.127	44.37
401.336	7.51
401.545	150.87
401.754	130.39
401.963	95.57
402.172	30.04
402.381	1.37
402.59	-25.26
402.799	64.85
403.008	83.28
403.217	50.52
403.426	73.04
403.635	97.62
403.844	71
404.053	15.7
404.262	103.76
404.471	130.39
404.68	109.91
404.888	130.39
405.097	71
405.306	85.33
405.515	165.2
405.724	173.39
405.933	79.19
406.142	116.05
406.35	126.29
406.559	154.96
406.768	87.38
406.977	167.25
407.185	126.29
407.394	122.2
407.603	148.82
407.812	214.35
408.02	238.93
408.229	99.67
408.438	134.48
408.646	202.07
408.855	169.3
409.064	204.11
409.272	165.2
409.481	251.22
409.69	212.31
409.898	175.44
410.107	222.55
410.315	337.23
410.524	179.54
410.733	202.07
410.941	267.6
411.15	261.46
411.358	269.65
411.567	355.66
411.775	343.38
411.984	271.7
412.192	410.96
412.401	376.14
412.609	406.86
412.818	370
413.026	376.14
413.234	447.82
413.443	417.1
413.651	378.19
413.86	390.48
414.068	531.79
414.276	517.45
414.485	470.35
414.693	517.45
414.901	552.27
415.11	513.36
415.318	673.1
415.526	599.37
415.734	705.87
415.943	683.34
416.151	628.04
416.359	621.9
416.567	646.48
416.776	810.31
416.984	863.56
417.192	843.08
417.4	789.83
417.608	748.87
417.817	830.79
418.025	892.23
418.233	988.49
418.441	914.76
418.649	922.95
418.857	1043.78
419.065	1074.5
419.273	1090.88
419.481	1054.02
419.689	1131.84
419.897	1045.83
420.105	1164.61
420.313	1262.91
420.521	1361.22
420.729	1307.97
420.937	1316.16
421.145	1383.74
421.353	1441.09
421.561	1609.02
421.769	1611.07
421.977	1766.71
422.185	1731.9
422.393	1723.71
422.601	1860.92
422.809	1797.43
423.017	1850.68
423.224	1975.61
423.432	2043.19
423.64	1961.27
423.848	2237.75
424.056	2200.88
424.263	2342.19
424.471	2325.81
424.679	2344.24
424.887	2389.3
425.094	2583.85
425.302	2528.56
425.51	2678.06
425.718	2690.35
425.925	2653.48
426.133	2895.15
426.341	3054.89
426.548	3069.22
426.756	3177.76
426.964	3208.48
427.171	3374.37
427.379	3532.06
427.586	3667.23
427.794	3700
428.001	3951.9
428.209	3960.09
428.417	3999
428.624	4435.22
428.832	4175.13
429.039	4148.5
429.247	4148.5
429.454	4547.86
429.662	4902.15
429.869	4648.21
430.076	5027.08
430.284	4758.8
430.491	5033.22
430.699	5190.92
430.906	5295.36
431.114	5408
431.321	5463.3
431.528	5692.67
431.736	6040.83
431.943	6280.44
432.15	6157.56
432.358	6149.37
432.565	6618.35
432.772	6563.06
432.979	6800.62
433.187	6862.06
433.394	6993.13
433.601	7464.16
433.808	7533.79
434.016	7455.97
434.223	7861.47
434.43	8322.26
434.637	8172.76
434.844	8643.79
435.052	8893.65
435.259	8727.76
435.466	8871.12
435.673	8807.63
435.88	9311.43
436.087	9692.35
436.294	9770.18
436.501	9542.85
436.708	9860.29
436.915	10132.67
437.122	10794.16
437.329	10519.73
437.537	10962.09
437.743	11064.49
437.95	10837.17
438.157	11734.18
438.364	12149.92
438.571	11748.51
438.778	11793.57
438.985	12991.63
439.192	12536.98
439.399	13026.45
439.606	12835.99
439.813	13444.23
440.02	14212.22
440.227	14025.86
440.433	13966.46
440.64	14304.38
440.847	14298.24
441.054	14529.66
441.261	15721.57
441.467	15498.34
441.674	15441
441.881	16028.77
442.088	16127.07
442.294	15875.17
442.501	16497.75
442.708	16626.78
442.914	17417.29
443.121	18402.36
443.328	17716.29
443.534	18537.53
443.741	18383.93
443.948	18222.14
444.154	19768.36
444.361	19467.31
444.568	19432.49
444.774	19561.51
444.981	19815.46
445.187	20145.19
445.394	21218.32
445.6	21214.23
445.807	22883.32
446.013	21971.97
446.22	22500.35
446.426	23442.42
446.633	23456.75
446.839	24388.58
447.046	23084.02
447.252	24450.02
447.459	24708.06
447.665	24654.81
447.871	25686.99
448.078	27001.79
448.284	25424.85
448.491	25979.85
448.697	27194.29
448.903	27585.46
449.11	27823.02
449.316	27257.78
449.522	27743.15
449.728	28588.96
449.935	28781.47
450.141	28699.55
450.347	29766.54
450.553	28601.25
450.76	28816.29
450.966	29848.46
451.172	29516.69
451.378	30290.82
451.584	29547.41
451.791	30491.52
451.997	30350.21
452.203	30632.83
452.409	30880.64
452.615	30555.01
452.821	29715.34
453.027	28980.12
453.233	30743.42
453.44	29488.02
453.646	29770.64
453.852	30106.51
454.058	30423.94
454.264	29756.3
454.47	30063.5
454.676	29420.44
454.882	30301.06
455.088	27599.79
455.294	28119.98
455.5	28384.16
455.705	28926.88
455.911	27636.66
456.117	26878.91
456.323	26670.01
456.529	25402.32
456.735	26033.1
456.941	25451.47
457.147	24925.14
457.352	24376.29
457.558	24364
457.764	24179.68
457.97	23530.48
458.176	23374.83
458.381	23286.77
458.587	21873.67
458.793	22187.01
458.999	20698.14
459.204	22164.48
459.41	21691.4
459.616	20218.91
459.821	20239.39
460.027	20102.18
460.233	19842.09
460.438	18730.04
460.644	19055.67
460.85	18461.76
461.055	17871.94
461.261	17951.81
461.466	16634.97
461.672	15852.64
461.878	16958.55
462.083	16028.77
462.289	15869.03
462.494	15520.87
462.7	14869.62
462.905	14570.61
463.111	14742.64
463.316	15244.4
463.522	14883.95
463.727	14869.62
463.932	14779.51
464.138	14621.81
464.343	14597.24
464.549	14314.62
464.754	14693.49
464.959	14699.64
465.165	14369.91
465.37	13835.39
465.575	13667.46
465.781	14046.34
465.986	14158.97
466.191	13571.21
466.397	13245.58
466.602	12940.43
466.807	13212.81
467.012	13151.37
467.218	13051.02
467.423	13151.37
