Data from USB4F104151__27__12-23-40-296.txt Node

Date: Fri Mar 14 12:23:40 EDT 2025
User: louis
Spectrometer: USB4F10415
Trigger mode: 4
Integration Time (sec): 3.500000E-2
Scans to average: 1
Electric dark correction enabled: true
Nonlinearity correction enabled: false
Boxcar width: 0
XAxis mode: Wavelengths
Number of Pixels in Spectrum: 3648
>>>>>Begin Spectral Data<<<<<
178.204	-134.31
178.424	-134.31
178.644	-134.31
178.864	-167.08
179.084	-132.26
179.304	-15.53
179.524	-9.39
179.744	-11.43
179.964	70.48
180.184	-29.87
180.404	45.91
180.624	-13.48
180.844	-17.58
181.064	-21.67
181.283	-29.87
181.503	4.95
181.723	27.48
181.943	-89.26
182.163	35.67
182.383	58.2
182.602	37.72
182.822	35.67
183.042	50
183.262	90.96
183.482	0.85
183.701	-33.96
183.921	37.72
184.141	-19.63
184.361	82.77
184.58	29.52
184.8	27.48
185.02	-1.19
185.239	82.77
185.459	62.29
185.679	56.15
185.898	-7.34
186.118	66.39
186.338	58.2
186.557	103.25
186.777	72.53
186.997	2.9
187.216	105.3
187.436	31.57
187.655	82.77
187.875	68.44
188.095	-44.2
188.314	99.16
188.534	84.82
188.753	11.09
188.973	21.33
189.192	47.96
189.412	68.44
189.631	76.63
189.851	-38.06
190.07	68.44
190.29	60.24
190.509	-17.58
190.729	66.39
190.948	60.24
191.168	166.74
191.387	97.11
191.607	29.52
191.826	-33.96
192.045	50
192.265	-56.49
192.484	-15.53
192.704	60.24
192.923	56.15
193.142	86.87
193.362	17.24
193.581	93.01
193.8	33.62
194.02	-7.34
194.239	62.29
194.458	-48.3
194.678	-5.29
194.897	29.52
195.116	72.53
195.335	88.92
195.555	45.91
195.774	-3.24
195.993	107.35
196.212	47.96
196.432	0.85
196.651	76.63
196.87	15.19
197.089	138.07
197.308	13.14
197.528	109.4
197.747	54.1
197.966	35.67
198.185	56.15
198.404	15.19
198.623	109.4
198.842	9.05
199.062	13.14
199.281	93.01
199.5	31.57
199.719	47.96
199.938	62.29
200.157	95.06
200.376	19.29
200.595	133.97
200.814	37.72
201.033	-27.82
201.252	64.34
201.471	19.29
201.69	62.29
201.909	47.96
202.128	25.43
202.347	25.43
202.566	13.14
202.785	-5.29
203.004	-21.67
203.223	160.59
203.442	45.91
203.661	21.33
203.879	70.48
204.098	2.9
204.317	-29.87
204.536	99.16
204.755	29.52
204.974	56.15
205.193	25.43
205.411	80.72
205.63	43.86
205.849	-7.34
206.068	62.29
206.287	52.05
206.505	17.24
206.724	47.96
206.943	17.24
207.162	27.48
207.381	37.72
207.599	56.15
207.818	17.24
208.037	19.29
208.255	9.05
208.474	35.67
208.693	97.11
208.911	82.77
209.13	52.05
209.349	70.48
209.567	-9.39
209.786	125.78
210.005	88.92
210.223	47.96
210.442	11.09
210.661	39.76
210.879	7
211.098	70.48
211.316	4.95
211.535	31.57
211.753	-25.77
211.972	62.29
212.191	35.67
212.409	23.38
212.628	58.2
212.846	39.76
213.065	80.72
213.283	60.24
213.502	-3.24
213.72	27.48
213.938	52.05
214.157	37.72
214.375	4.95
214.594	-3.24
214.812	107.35
215.031	9.05
215.249	103.25
215.467	19.29
215.686	33.62
215.904	33.62
216.122	-7.34
216.341	138.07
216.559	15.19
216.778	70.48
216.996	82.77
217.214	-9.39
217.432	0.85
217.651	21.33
217.869	-19.63
218.087	-1.19
218.306	-42.15
218.524	80.72
218.742	-27.82
218.96	66.39
219.179	17.24
219.397	33.62
219.615	115.54
219.833	43.86
220.051	-9.39
220.27	78.68
220.488	33.62
220.706	50
220.924	43.86
221.142	9.05
221.36	37.72
221.578	97.11
221.796	19.29
222.015	27.48
222.233	68.44
222.451	93.01
222.669	72.53
222.887	105.3
223.105	21.33
223.323	37.72
223.541	13.14
223.759	37.72
223.977	45.91
224.195	64.34
224.413	84.82
224.631	82.77
224.849	47.96
225.067	90.96
225.285	19.29
225.503	35.67
225.721	-29.87
225.939	33.62
226.157	45.91
226.375	127.83
226.592	-15.53
226.81	-11.43
227.028	-36.01
227.246	84.82
227.464	-5.29
227.682	84.82
227.9	41.81
228.117	11.09
228.335	88.92
228.553	29.52
228.771	21.33
228.989	15.19
229.206	39.76
229.424	-36.01
229.642	97.11
229.86	17.24
230.077	23.38
230.295	58.2
230.513	95.06
230.731	43.86
230.948	23.38
231.166	45.91
231.384	41.81
231.601	68.44
231.819	97.11
232.037	35.67
232.254	62.29
232.472	-5.29
232.689	11.09
232.907	37.72
233.125	-52.39
233.342	27.48
233.56	-36.01
233.777	-74.92
233.995	-15.53
234.213	95.06
234.43	78.68
234.648	-46.25
234.865	9.05
235.083	76.63
235.3	-5.29
235.518	95.06
235.735	-27.82
235.953	54.1
236.17	-15.53
236.388	2.9
236.605	86.87
236.822	52.05
237.04	80.72
237.257	78.68
237.475	-27.82
237.692	13.14
237.909	11.09
238.127	-76.97
238.344	93.01
238.562	35.67
238.779	-95.4
238.996	56.15
239.214	-1.19
239.431	95.06
239.648	43.86
239.865	4.95
240.083	29.52
240.3	82.77
240.517	-9.39
240.735	43.86
240.952	25.43
241.169	86.87
241.386	76.63
241.603	31.57
241.821	-40.11
242.038	54.1
242.255	107.35
242.472	31.57
242.689	95.06
242.907	74.58
243.124	80.72
243.341	68.44
243.558	13.14
243.775	74.58
243.992	-44.2
244.209	21.33
244.426	113.49
244.643	25.43
244.86	17.24
245.078	0.85
245.295	119.64
245.512	52.05
245.729	-44.2
245.946	101.2
246.163	21.33
246.38	70.48
246.597	50
246.814	47.96
247.031	-48.3
247.248	97.11
247.464	37.72
247.681	-13.48
247.898	78.68
248.115	50
248.332	-48.3
248.549	58.2
248.766	78.68
248.983	56.15
249.2	25.43
249.417	47.96
249.633	-9.39
249.85	52.05
250.067	54.1
250.284	2.9
250.501	11.09
250.717	-1.19
250.934	27.48
251.151	39.76
251.368	31.57
251.585	17.24
251.801	11.09
252.018	111.44
252.235	64.34
252.451	-44.2
252.668	-38.06
252.885	80.72
253.102	4.95
253.318	60.24
253.535	-40.11
253.752	-62.63
253.968	29.52
254.185	31.57
254.401	-3.24
254.618	99.16
254.835	-15.53
255.051	95.06
255.268	27.48
255.484	72.53
255.701	-5.29
255.917	23.38
256.134	-3.24
256.351	41.81
256.567	9.05
256.784	70.48
257	58.2
257.217	33.62
257.433	43.86
257.65	70.48
257.866	64.34
258.082	23.38
258.299	7
258.515	70.48
258.732	-21.67
258.948	45.91
259.165	-36.01
259.381	-40.11
259.597	4.95
259.814	4.95
260.03	17.24
260.246	68.44
260.463	76.63
260.679	107.35
260.895	25.43
261.112	-19.63
261.328	27.48
261.544	97.11
261.761	148.31
261.977	62.29
262.193	-33.96
262.409	97.11
262.626	127.83
262.842	101.2
263.058	-11.43
263.274	54.1
263.49	115.54
263.707	93.01
263.923	-5.29
264.139	13.14
264.355	66.39
264.571	9.05
264.787	25.43
265.004	47.96
265.22	-7.34
265.436	9.05
265.652	58.2
265.868	56.15
266.084	9.05
266.3	-17.58
266.516	-7.34
266.732	11.09
266.948	4.95
267.164	29.52
267.38	60.24
267.596	70.48
267.812	78.68
268.028	86.87
268.244	54.1
268.46	56.15
268.676	19.29
268.892	-1.19
269.108	60.24
269.324	52.05
269.54	29.52
269.756	93.01
269.972	-40.11
270.188	19.29
270.403	54.1
270.619	95.06
270.835	50
271.051	13.14
271.267	23.38
271.483	93.01
271.698	97.11
271.914	35.67
272.13	78.68
272.346	78.68
272.562	-21.67
272.777	121.68
272.993	-36.01
273.209	35.67
273.425	70.48
273.64	19.29
273.856	103.25
274.072	11.09
274.287	-3.24
274.503	43.86
274.719	25.43
274.934	17.24
275.15	-70.83
275.366	0.85
275.581	-7.34
275.797	2.9
276.012	123.73
276.228	47.96
276.444	-3.24
276.659	88.92
276.875	2.9
277.09	17.24
277.306	9.05
277.521	52.05
277.737	62.29
277.952	-21.67
278.168	31.57
278.383	31.57
278.599	80.72
278.814	107.35
279.03	-17.58
279.245	50
279.461	-17.58
279.676	99.16
279.892	-33.96
280.107	-101.55
280.322	0.85
280.538	11.09
280.753	4.95
280.969	-7.34
281.184	54.1
281.399	76.63
281.615	-33.96
281.83	66.39
282.045	0.85
282.26	88.92
282.476	17.24
282.691	45.91
282.906	136.02
283.122	54.1
283.337	37.72
283.552	41.81
283.767	35.67
283.983	45.91
284.198	15.19
284.413	45.91
284.628	-81.07
284.843	52.05
285.058	50
285.274	-9.39
285.489	-9.39
285.704	15.19
285.919	74.58
286.134	47.96
286.349	58.2
286.564	45.91
286.779	74.58
286.995	58.2
287.21	50
287.425	97.11
287.64	-13.48
287.855	78.68
288.07	25.43
288.285	35.67
288.5	78.68
288.715	29.52
288.93	58.2
289.145	-33.96
289.36	68.44
289.575	54.1
289.79	93.01
290.004	-1.19
290.219	29.52
290.434	15.19
290.649	56.15
290.864	23.38
291.079	-29.87
291.294	39.76
291.509	45.91
291.724	84.82
291.938	15.19
292.153	43.86
292.368	-54.44
292.583	54.1
292.798	93.01
293.012	64.34
293.227	13.14
293.442	50
293.657	17.24
293.871	68.44
294.086	-9.39
294.301	133.97
294.516	82.77
294.73	101.2
294.945	-70.83
295.16	35.67
295.374	64.34
295.589	88.92
295.804	11.09
296.018	-33.96
296.233	9.05
296.447	27.48
296.662	23.38
296.877	41.81
297.091	19.29
297.306	66.39
297.52	-46.25
297.735	47.96
297.949	70.48
298.164	-15.53
298.378	82.77
298.593	15.19
298.807	64.34
299.022	13.14
299.236	158.55
299.451	21.33
299.665	-46.25
299.88	45.91
300.094	88.92
300.309	-36.01
300.523	35.67
300.737	29.52
300.952	82.77
301.166	-3.24
301.381	9.05
301.595	7
301.809	-1.19
302.024	39.76
302.238	82.77
302.452	103.25
302.667	41.81
302.881	33.62
303.095	25.43
303.309	88.92
303.524	-42.15
303.738	-1.19
303.952	19.29
304.166	68.44
304.381	-56.49
304.595	86.87
304.809	-15.53
305.023	50
305.237	-13.48
305.452	17.24
305.666	31.57
305.88	70.48
306.094	21.33
306.308	88.92
306.522	41.81
306.736	82.77
306.95	93.01
307.164	64.34
307.379	78.68
307.593	93.01
307.807	64.34
308.021	45.91
308.235	25.43
308.449	23.38
308.663	80.72
308.877	76.63
309.091	13.14
309.305	-17.58
309.519	-40.11
309.733	105.3
309.947	7
310.161	62.29
310.374	80.72
310.588	-3.24
310.802	45.91
311.016	66.39
311.23	27.48
311.444	-11.43
311.658	-124.07
311.872	86.87
312.085	21.33
312.299	-33.96
312.513	17.24
312.727	74.58
312.941	-3.24
313.154	-3.24
313.368	-13.48
313.582	88.92
313.796	7
314.009	4.95
314.223	103.25
314.437	47.96
314.651	68.44
314.864	23.38
315.078	9.05
315.292	105.3
315.505	7
315.719	127.83
315.933	86.87
316.146	31.57
316.36	52.05
316.573	64.34
316.787	68.44
317.001	15.19
317.214	-5.29
317.428	33.62
317.641	15.19
317.855	25.43
318.068	-7.34
318.282	33.62
318.495	95.06
318.709	33.62
318.922	25.43
319.136	70.48
319.349	70.48
319.563	41.81
319.776	109.4
319.99	41.81
320.203	31.57
320.417	50
320.63	41.81
320.843	105.3
321.057	105.3
321.27	47.96
321.483	58.2
321.697	2.9
321.91	80.72
322.124	74.58
322.337	35.67
322.55	15.19
322.763	11.09
322.977	4.95
323.19	39.76
323.403	39.76
323.617	68.44
323.83	111.44
324.043	37.72
324.256	2.9
324.469	50
324.683	25.43
324.896	60.24
325.109	37.72
325.322	4.95
325.535	121.68
325.748	66.39
325.962	-33.96
326.175	45.91
326.388	-21.67
326.601	-36.01
326.814	45.91
327.027	45.91
327.24	152.4
327.453	25.43
327.666	9.05
327.879	101.2
328.092	90.96
328.305	47.96
328.518	-21.67
328.731	15.19
328.944	43.86
329.157	-15.53
329.37	19.29
329.583	119.64
329.796	74.58
330.009	-50.35
330.222	101.2
330.435	90.96
330.648	80.72
330.861	31.57
331.073	60.24
331.286	54.1
331.499	82.77
331.712	-25.77
331.925	2.9
332.138	88.92
332.35	80.72
332.563	27.48
332.776	43.86
332.989	-66.73
333.202	13.14
333.414	70.48
333.627	7
333.84	-25.77
334.053	107.35
334.265	-31.91
334.478	23.38
334.691	37.72
334.903	41.81
335.116	-17.58
335.329	-1.19
335.541	31.57
335.754	140.12
335.966	27.48
336.179	52.05
336.392	35.67
336.604	31.57
336.817	66.39
337.029	80.72
337.242	7
337.454	60.24
337.667	58.2
337.88	-21.67
338.092	74.58
338.305	50
338.517	-17.58
338.729	60.24
338.942	31.57
339.154	-46.25
339.367	11.09
339.579	39.76
339.792	0.85
340.004	37.72
340.217	56.15
340.429	64.34
340.641	56.15
340.854	21.33
341.066	0.85
341.278	97.11
341.491	152.4
341.703	56.15
341.915	-56.49
342.128	52.05
342.34	9.05
342.552	9.05
342.764	72.53
342.977	-11.43
343.189	35.67
343.401	27.48
343.613	-42.15
343.826	84.82
344.038	7
344.25	-31.91
344.462	29.52
344.674	107.35
344.886	105.3
345.099	72.53
345.311	62.29
345.523	-19.63
345.735	-3.24
345.947	52.05
346.159	15.19
346.371	54.1
346.583	4.95
346.795	72.53
347.007	162.64
347.219	7
347.431	31.57
347.643	64.34
347.855	23.38
348.067	174.93
348.279	-15.53
348.491	47.96
348.703	58.2
348.915	60.24
349.127	2.9
349.339	86.87
349.551	64.34
349.763	-3.24
349.975	21.33
350.187	111.44
350.399	33.62
350.61	-29.87
350.822	50
351.034	84.82
351.246	74.58
351.458	90.96
351.669	45.91
351.881	62.29
352.093	66.39
352.305	41.81
352.517	60.24
352.728	80.72
352.94	41.81
353.152	72.53
353.363	-33.96
353.575	27.48
353.787	23.38
353.999	66.39
354.21	70.48
354.422	27.48
354.633	41.81
354.845	136.02
355.057	99.16
355.268	58.2
355.48	142.16
355.692	52.05
355.903	111.44
356.115	-50.35
356.326	-81.07
356.538	54.1
356.749	54.1
356.961	76.63
357.172	78.68
357.384	-87.21
357.595	13.14
357.807	39.76
358.018	31.57
358.23	123.73
358.441	84.82
358.653	54.1
358.864	37.72
359.075	39.76
359.287	43.86
359.498	68.44
359.709	11.09
359.921	84.82
360.132	0.85
360.344	25.43
360.555	-9.39
360.766	70.48
360.977	-44.2
361.189	43.86
361.4	-48.3
361.611	129.88
361.823	115.54
362.034	41.81
362.245	-44.2
362.456	84.82
362.667	47.96
362.879	47.96
363.09	-27.82
363.301	70.48
363.512	-3.24
363.723	47.96
363.935	9.05
364.146	62.29
364.357	-19.63
364.568	99.16
364.779	23.38
364.99	58.2
365.201	35.67
365.412	84.82
365.623	35.67
365.834	68.44
366.045	2.9
366.256	95.06
366.467	31.57
366.678	33.62
366.889	-1.19
367.1	-44.2
367.311	97.11
367.522	-3.24
367.733	54.1
367.944	60.24
368.155	21.33
368.366	-9.39
368.577	13.14
368.788	31.57
368.999	-64.68
369.209	78.68
369.42	133.97
369.631	109.4
369.842	62.29
370.053	31.57
370.264	-31.91
370.474	-25.77
370.685	78.68
370.896	29.52
371.107	56.15
371.317	47.96
371.528	45.91
371.739	101.2
371.95	74.58
372.16	144.21
372.371	31.57
372.582	80.72
372.792	80.72
373.003	13.14
373.214	64.34
373.424	93.01
373.635	15.19
373.846	154.45
374.056	17.24
374.267	68.44
374.477	86.87
374.688	-7.34
374.898	9.05
375.109	13.14
375.319	86.87
375.53	144.21
375.74	0.85
375.951	60.24
376.161	4.95
376.372	-36.01
376.582	-1.19
376.793	25.43
377.003	58.2
377.214	-72.87
377.424	-1.19
377.635	68.44
377.845	45.91
378.055	39.76
378.266	-9.39
378.476	52.05
378.686	80.72
378.897	37.72
379.107	60.24
379.317	45.91
379.528	29.52
379.738	78.68
379.948	0.85
380.158	76.63
380.369	27.48
380.579	58.2
380.789	68.44
380.999	47.96
381.21	25.43
381.42	121.68
381.63	9.05
381.84	47.96
382.05	82.77
382.261	54.1
382.471	66.39
382.681	131.92
382.891	41.81
383.101	70.48
383.311	0.85
383.521	82.77
383.731	60.24
383.941	27.48
384.151	21.33
384.361	64.34
384.571	31.57
384.781	15.19
384.991	88.92
385.201	41.81
385.411	76.63
385.621	21.33
385.831	105.3
386.041	62.29
386.251	54.1
386.461	78.68
386.671	99.16
386.881	101.2
387.091	54.1
387.301	88.92
387.511	68.44
387.72	74.58
387.93	15.19
388.14	-52.39
388.35	70.48
388.56	117.59
388.769	119.64
388.979	50
389.189	-31.91
389.399	90.96
389.609	105.3
389.818	64.34
390.028	58.2
390.238	84.82
390.447	66.39
390.657	56.15
390.867	88.92
391.076	17.24
391.286	56.15
391.496	95.06
391.705	35.67
391.915	84.82
392.125	78.68
392.334	31.57
392.544	123.73
392.753	86.87
392.963	0.85
393.172	76.63
393.382	-56.49
393.591	101.2
393.801	31.57
394.01	105.3
394.22	90.96
394.429	50
394.639	56.15
394.848	140.12
395.058	76.63
395.267	43.86
395.477	99.16
395.686	82.77
395.895	103.25
396.105	125.78
396.314	111.44
396.524	-21.67
396.733	93.01
396.942	121.68
397.152	84.82
397.361	39.76
397.57	-21.67
397.78	62.29
397.989	185.17
398.198	195.41
398.407	50
398.617	33.62
398.826	41.81
399.035	45.91
399.244	70.48
399.453	66.39
399.663	154.45
399.872	74.58
400.081	78.68
400.29	117.59
400.499	70.48
400.708	101.2
400.917	99.16
401.127	88.92
401.336	17.24
401.545	201.55
401.754	107.35
401.963	66.39
402.172	99.16
402.381	33.62
402.59	119.64
402.799	84.82
403.008	101.2
403.217	117.59
403.426	78.68
403.635	105.3
403.844	78.68
404.053	144.21
404.262	35.67
404.471	176.98
404.68	187.22
404.888	138.07
405.097	78.68
405.306	127.83
405.515	140.12
405.724	113.49
405.933	138.07
406.142	203.6
406.35	183.12
406.559	62.29
406.768	166.74
406.977	197.46
407.185	193.36
407.394	144.21
407.603	62.29
407.812	160.59
408.02	236.37
408.229	150.36
408.438	179.03
408.646	111.44
408.855	244.56
409.064	191.31
409.272	189.27
409.481	136.02
409.69	179.03
409.898	140.12
410.107	244.56
410.315	228.18
410.524	195.41
410.733	320.34
410.941	234.32
411.15	262.99
411.358	285.52
411.567	254.8
411.775	262.99
411.984	252.75
412.192	236.37
412.401	275.28
412.609	277.33
412.818	273.23
413.026	389.97
413.234	260.95
413.443	285.52
413.651	381.78
413.86	371.54
414.068	410.45
414.276	344.91
414.485	422.73
414.693	412.5
414.901	533.33
415.11	482.13
415.318	387.92
415.526	445.26
415.734	457.55
415.943	541.52
416.151	557.9
416.359	578.38
416.567	486.22
416.776	605
416.984	617.29
417.192	588.62
417.4	645.96
417.608	545.61
417.817	584.52
418.025	652.11
418.233	787.27
418.441	691.02
418.649	785.23
418.857	670.54
419.065	791.37
419.273	795.47
419.481	766.79
419.689	861
419.897	916.3
420.105	858.95
420.313	959.3
420.521	1086.28
420.729	949.06
420.937	1182.53
421.145	1104.71
421.353	1145.67
421.561	1190.72
421.769	1221.44
421.977	1229.63
422.185	1211.2
422.393	1403.71
422.601	1407.81
422.809	1393.47
423.017	1438.53
423.224	1485.63
423.432	1639.23
423.64	1573.69
423.848	1672
424.056	1635.13
424.263	1805.11
424.471	1774.39
424.679	1864.5
424.887	1846.07
425.094	1977.14
425.302	1932.09
425.51	2018.1
425.718	2091.83
425.925	2186.04
426.133	2237.24
426.341	2331.44
426.548	2501.42
426.756	2458.42
426.964	2448.18
427.171	2566.96
427.379	2669.36
427.586	2718.51
427.794	2839.34
428.001	2890.54
428.209	3029.8
428.417	3042.09
428.624	3296.04
428.832	3218.21
429.039	3121.96
429.247	3279.65
429.454	3558.18
429.662	3799.84
429.869	3541.79
430.076	3779.36
430.284	3695.39
430.491	3840.79
430.699	4098.84
430.906	4043.54
431.114	4164.37
431.321	4330.26
431.528	4373.27
431.736	4633.36
431.943	4954.89
432.15	4688.65
432.358	4817.68
432.565	5112.58
432.772	4909.83
432.979	5100.3
433.187	5204.74
433.394	5325.57
433.601	5657.34
433.808	5726.97
434.016	5780.22
434.223	5960.44
434.43	6284.02
434.637	6124.28
434.844	6527.73
435.052	6720.24
435.259	6533.87
435.466	6812.4
435.673	6630.13
435.88	7082.73
436.087	7424.74
436.294	7656.16
436.501	7320.29
436.708	7248.61
436.915	7820
437.122	8096.47
437.329	7899.87
437.537	8164.06
437.743	8334.04
437.95	8241.88
438.157	8864.46
438.364	9132.75
438.571	9145.03
438.778	9145.03
438.985	9876.16
439.192	9550.53
439.399	10062.52
439.606	9605.83
439.813	10080.96
440.02	10844.85
440.227	10554.04
440.433	10719.92
440.64	10744.5
440.847	10687.15
441.054	10994.35
441.261	11803.3
441.467	11670.18
441.674	11752.1
441.881	12165.79
442.088	12161.69
442.294	12237.47
442.501	12487.32
442.708	12960.4
442.914	13134.48
443.121	13781.64
443.328	13478.54
443.534	14547.58
443.741	14318.2
443.948	13652.61
444.154	14865.01
444.361	14922.35
444.568	15116.91
444.774	15116.91
444.981	15151.73
445.187	15491.69
445.394	15901.28
445.6	15800.93
445.807	17822.28
446.013	16736.85
446.22	17179.22
446.426	17855.04
446.633	17998.4
446.839	18371.13
447.046	17605.19
447.252	18577.98
447.459	18876.98
447.665	18913.84
447.871	19622.44
448.078	20310.56
448.284	19493.42
448.491	20113.95
448.697	20855.32
448.903	21094.93
449.11	20881.94
449.316	20849.18
449.522	21236.24
449.728	21828.1
449.935	22139.4
450.141	21768.71
450.347	22620.67
450.553	21776.91
450.76	22161.92
450.966	22886.9
451.172	22536.7
451.378	23085.56
451.584	22725.11
451.791	22979.06
451.997	23253.49
452.203	23306.74
452.409	23196.15
452.615	23691.76
452.821	22424.06
453.027	22522.37
453.233	23644.65
453.44	22782.46
453.646	22888.95
453.852	22954.49
454.058	23282.16
454.264	22555.13
454.47	23226.87
454.676	22280.71
454.882	23276.02
455.088	21131.79
455.294	21469.71
455.5	21983.75
455.705	22065.67
455.911	21277.2
456.117	20607.51
456.323	20546.08
456.529	19388.97
456.735	20490.78
456.941	19794.47
457.147	19370.54
457.352	18913.84
457.558	18825.78
457.764	18659.9
457.97	18299.45
458.176	17889.86
458.381	17871.43
458.587	16966.23
458.793	16788.05
458.999	16009.83
459.204	17328.72
459.41	16728.66
459.616	15637.09
459.821	15743.59
460.027	15559.27
460.233	15207.02
460.438	14602.87
460.644	14662.26
460.85	14099.07
461.055	13824.64
461.261	14021.25
461.466	12649.11
461.672	12370.58
461.878	13089.42
462.083	12427.93
462.289	12092.06
462.494	11743.91
462.7	11492.01
462.905	11053.74
463.111	11516.58
463.316	11463.33
463.522	11453.09
463.727	11430.57
463.932	11336.36
464.138	11170.47
464.343	11274.92
464.549	11109.04
464.754	11227.82
464.959	11227.82
465.165	11096.75
465.37	10611.38
465.575	10382.01
465.781	10721.97
465.986	10834.61
466.191	10404.53
466.397	10085.05
466.602	9751.23
466.807	10246.84
467.012	10105.53
467.218	9941.69
467.423	9990.84
467.628	10144.44
467.833	10402.49
468.038	9939.65
468.244	9906.88
468.449	9882.3
468.654	9691.84
468.859	9724.61
