Data from USB4F104151__92__12-24-54-977.txt Node

Date: Fri Mar 14 12:24:54 EDT 2025
User: louis
Spectrometer: USB4F10415
Trigger mode: 4
Integration Time (sec): 3.500000E-2
Scans to average: 1
Electric dark correction enabled: true
Nonlinearity correction enabled: false
Boxcar width: 0
XAxis mode: Wavelengths
Number of Pixels in Spectrum: 3648
>>>>>Begin Spectral Data<<<<<
178.204	-83.97
178.424	-83.97
178.644	-83.97
178.864	-188.41
179.084	-163.84
179.304	-16.38
179.524	65.54
179.744	-14.34
179.964	-40.96
180.184	49.15
180.404	20.48
180.624	0
180.844	-6.14
181.064	-79.87
181.283	-12.29
181.503	47.1
181.723	-12.29
181.943	-65.53
182.163	18.43
182.383	90.11
182.602	116.73
182.822	59.39
183.042	67.58
183.262	14.34
183.482	8.19
183.701	14.34
183.921	59.39
184.141	16.38
184.361	59.39
184.58	0
184.8	47.1
185.02	45.06
185.239	53.25
185.459	12.29
185.679	118.78
185.898	36.86
186.118	45.06
186.338	98.3
186.557	45.06
186.777	-20.48
186.997	40.96
187.216	86.01
187.436	51.2
187.655	-4.1
187.875	118.78
188.095	-16.38
188.314	116.73
188.534	30.72
188.753	47.1
188.973	38.91
189.192	178.17
189.412	102.4
189.631	79.87
189.851	49.15
190.07	86.01
190.29	-6.14
190.509	-8.19
190.729	0
190.948	104.45
191.168	169.98
191.387	96.25
191.607	32.77
191.826	43.01
192.045	-2.05
192.265	38.91
192.484	24.58
192.704	38.91
192.923	12.29
193.142	57.34
193.362	79.87
193.581	51.2
193.8	40.96
194.02	133.12
194.239	16.38
194.458	63.49
194.678	26.62
194.897	63.49
195.116	71.68
195.335	30.72
195.555	120.83
195.774	16.38
195.993	71.68
196.212	73.73
196.432	79.87
196.651	53.25
196.87	20.48
197.089	147.45
197.308	79.87
197.528	77.82
197.747	0
197.966	-6.14
198.185	77.82
198.404	14.34
198.623	110.59
198.842	65.54
199.062	61.44
199.281	86.01
199.5	49.15
199.719	-18.43
199.938	59.39
200.157	28.67
200.376	104.45
200.595	34.82
200.814	26.62
201.033	4.1
201.252	102.4
201.471	51.2
201.69	100.35
201.909	77.82
202.128	69.63
202.347	61.44
202.566	30.72
202.785	22.53
203.004	141.31
203.223	153.6
203.442	53.25
203.661	34.82
203.879	32.77
204.098	81.92
204.317	34.82
204.536	59.39
204.755	10.24
204.974	57.34
205.193	77.82
205.411	83.97
205.63	159.74
205.849	22.53
206.068	49.15
206.287	-38.91
206.505	147.45
206.724	49.15
206.943	-26.62
207.162	-38.91
207.381	114.69
207.599	94.21
207.818	65.54
208.037	14.34
208.255	-12.29
208.474	24.58
208.693	36.86
208.911	69.63
209.13	110.59
209.349	10.24
209.567	167.93
209.786	120.83
210.005	108.54
210.223	120.83
210.442	-22.53
210.661	36.86
210.879	49.15
211.098	6.14
211.316	49.15
211.535	26.62
211.753	61.44
211.972	104.45
212.191	40.96
212.409	92.16
212.628	63.49
212.846	51.2
213.065	67.58
213.283	118.78
213.502	63.49
213.72	55.3
213.938	-24.58
214.157	6.14
214.375	-6.14
214.594	16.38
214.812	49.15
215.031	26.62
215.249	28.67
215.467	57.34
215.686	59.39
215.904	22.53
216.122	71.68
216.341	61.44
216.559	110.59
216.778	63.49
216.996	24.58
217.214	59.39
217.432	71.68
217.651	22.53
217.869	86.01
218.087	77.82
218.306	69.63
218.524	65.54
218.742	45.06
218.96	114.69
219.179	-55.3
219.397	14.34
219.615	77.82
219.833	-6.14
220.051	34.82
220.27	61.44
220.488	32.77
220.706	-2.05
220.924	65.54
221.142	81.92
221.36	16.38
221.578	61.44
221.796	61.44
222.015	40.96
222.233	57.34
222.451	141.31
222.669	30.72
222.887	86.01
223.105	28.67
223.323	59.39
223.541	34.82
223.759	38.91
223.977	16.38
224.195	51.2
224.413	110.59
224.631	43.01
224.849	30.72
225.067	100.35
225.285	28.67
225.503	-2.05
225.721	-26.62
225.939	28.67
226.157	20.48
226.375	118.78
226.592	24.58
226.81	24.58
227.028	40.96
227.246	83.97
227.464	55.3
227.682	65.54
227.9	-47.1
228.117	90.11
228.335	71.68
228.553	51.2
228.771	131.07
228.989	14.34
229.206	-6.14
229.424	18.43
229.642	30.72
229.86	49.15
230.077	71.68
230.295	49.15
230.513	90.11
230.731	53.25
230.948	112.64
231.166	81.92
231.384	59.39
231.601	43.01
231.819	112.64
232.037	12.29
232.254	24.58
232.472	79.87
232.689	49.15
232.907	149.5
233.125	47.1
233.342	40.96
233.56	-6.14
233.777	12.29
233.995	116.73
234.213	112.64
234.43	71.68
234.648	16.38
234.865	16.38
235.083	24.58
235.3	38.91
235.518	112.64
235.735	65.54
235.953	71.68
236.17	16.38
236.388	47.1
236.605	22.53
236.822	67.58
237.04	69.63
237.257	-18.43
237.475	-14.34
237.692	122.88
237.909	36.86
238.127	71.68
238.344	104.45
238.562	83.97
238.779	47.1
238.996	67.58
239.214	55.3
239.431	77.82
239.648	-2.05
239.865	36.86
240.083	73.73
240.3	81.92
240.517	141.31
240.735	112.64
240.952	86.01
241.169	79.87
241.386	94.21
241.603	-22.53
241.821	6.14
242.038	30.72
242.255	8.19
242.472	6.14
242.689	18.43
242.907	63.49
243.124	53.25
243.341	40.96
243.558	14.34
243.775	61.44
243.992	12.29
244.209	131.07
244.426	200.7
244.643	147.45
244.86	-22.53
245.078	12.29
245.295	32.77
245.512	38.91
245.729	102.4
245.946	104.45
246.163	100.35
246.38	100.35
246.597	32.77
246.814	28.67
247.031	-16.38
247.248	34.82
247.464	102.4
247.681	71.68
247.898	71.68
248.115	77.82
248.332	0
248.549	126.97
248.766	108.54
248.983	94.21
249.2	114.69
249.417	59.39
249.633	-18.43
249.85	98.3
250.067	10.24
250.284	34.82
250.501	67.58
250.717	102.4
250.934	22.53
251.151	49.15
251.368	26.62
251.585	30.72
251.801	24.58
252.018	49.15
252.235	131.07
252.451	-8.19
252.668	83.97
252.885	88.06
253.102	-12.29
253.318	-30.72
253.535	26.62
253.752	61.44
253.968	57.34
254.185	10.24
254.401	88.06
254.618	71.68
254.835	43.01
255.051	141.31
255.268	53.25
255.484	83.97
255.701	61.44
255.917	65.54
256.134	57.34
256.351	32.77
256.567	-6.14
256.784	102.4
257	-28.67
257.217	116.73
257.433	49.15
257.65	81.92
257.866	47.1
258.082	18.43
258.299	-16.38
258.515	45.06
258.732	53.25
258.948	120.83
259.165	77.82
259.381	4.1
259.597	120.83
259.814	16.38
260.03	73.73
260.246	53.25
260.463	79.87
260.679	100.35
260.895	47.1
261.112	45.06
261.328	53.25
261.544	16.38
261.761	129.02
261.977	53.25
262.193	32.77
262.409	40.96
262.626	94.21
262.842	73.73
263.058	-12.29
263.274	145.41
263.49	32.77
263.707	67.58
263.923	8.19
264.139	-53.25
264.355	26.62
264.571	96.25
264.787	61.44
265.004	92.16
265.22	36.86
265.436	100.35
265.652	18.43
265.868	-53.25
266.084	-28.67
266.3	133.12
266.516	106.49
266.732	16.38
266.948	88.06
267.164	40.96
267.38	83.97
267.596	69.63
267.812	147.45
268.028	65.54
268.244	14.34
268.46	43.01
268.676	40.96
268.892	73.73
269.108	40.96
269.324	86.01
269.54	38.91
269.756	92.16
269.972	-2.05
270.188	49.15
270.403	53.25
270.619	86.01
270.835	28.67
271.051	30.72
271.267	59.39
271.483	77.82
271.698	32.77
271.914	55.3
272.13	81.92
272.346	73.73
272.562	-10.24
272.777	96.25
272.993	40.96
273.209	94.21
273.425	51.2
273.64	-47.1
273.856	75.77
274.072	38.91
274.287	-6.14
274.503	43.01
274.719	26.62
274.934	83.97
275.15	-8.19
275.366	-65.53
275.581	22.53
275.797	104.45
276.012	110.59
276.228	53.25
276.444	51.2
276.659	131.07
276.875	69.63
277.09	86.01
277.306	51.2
277.521	-22.53
277.737	47.1
277.952	92.16
278.168	65.54
278.383	133.12
278.599	0
278.814	73.73
279.03	79.87
279.245	38.91
279.461	61.44
279.676	100.35
279.892	28.67
280.107	51.2
280.322	8.19
280.538	34.82
280.753	4.1
280.969	108.54
281.184	-4.1
281.399	110.59
281.615	55.3
281.83	71.68
282.045	49.15
282.26	75.77
282.476	2.05
282.691	6.14
282.906	79.87
283.122	47.1
283.337	-18.43
283.552	51.2
283.767	55.3
283.983	110.59
284.198	14.34
284.413	124.93
284.628	20.48
284.843	104.45
285.058	104.45
285.274	-6.14
285.489	81.92
285.704	71.68
285.919	71.68
286.134	36.86
286.349	83.97
286.564	-12.29
286.779	83.97
286.995	59.39
287.21	4.1
287.425	108.54
287.64	100.35
287.855	32.77
288.07	30.72
288.285	47.1
288.5	30.72
288.715	53.25
288.93	59.39
289.145	-30.72
289.36	92.16
289.575	-20.48
289.79	75.77
290.004	67.58
290.219	47.1
290.434	45.06
290.649	75.77
290.864	2.05
291.079	4.1
291.294	53.25
291.509	77.82
291.724	-2.05
291.938	32.77
292.153	69.63
292.368	69.63
292.583	51.2
292.798	49.15
293.012	55.3
293.227	32.77
293.442	61.44
293.657	69.63
293.871	32.77
294.086	88.06
294.301	163.84
294.516	110.59
294.73	-10.24
294.945	40.96
295.16	26.62
295.374	176.13
295.589	24.58
295.804	53.25
296.018	6.14
296.233	16.38
296.447	86.01
296.662	12.29
296.877	79.87
297.091	53.25
297.306	32.77
297.52	94.21
297.735	73.73
297.949	24.58
298.164	88.06
298.378	24.58
298.593	4.1
298.807	-16.38
299.022	55.3
299.236	83.97
299.451	53.25
299.665	49.15
299.88	8.19
300.094	53.25
300.309	45.06
300.523	71.68
300.737	12.29
300.952	75.77
301.166	126.97
301.381	20.48
301.595	32.77
301.809	43.01
302.024	24.58
302.238	38.91
302.452	88.06
302.667	81.92
302.881	118.78
303.095	14.34
303.309	40.96
303.524	67.58
303.738	22.53
303.952	10.24
304.166	61.44
304.381	-55.3
304.595	114.69
304.809	32.77
305.023	110.59
305.237	-18.43
305.452	77.82
305.666	81.92
305.88	98.3
306.094	20.48
306.308	71.68
306.522	96.25
306.736	147.45
306.95	129.02
307.164	45.06
307.379	18.43
307.593	20.48
307.807	137.21
308.021	90.11
308.235	81.92
308.449	22.53
308.663	61.44
308.877	149.5
309.091	71.68
309.305	100.35
309.519	-34.82
309.733	32.77
309.947	32.77
310.161	81.92
310.374	88.06
310.588	73.73
310.802	43.01
311.016	96.25
311.23	73.73
311.444	110.59
311.658	22.53
311.872	53.25
312.085	96.25
312.299	-18.43
312.513	55.3
312.727	40.96
312.941	-12.29
313.154	98.3
313.368	22.53
313.582	20.48
313.796	104.45
314.009	73.73
314.223	12.29
314.437	47.1
314.651	18.43
314.864	4.1
315.078	18.43
315.292	88.06
315.505	83.97
315.719	63.49
315.933	26.62
316.146	36.86
316.36	34.82
316.573	143.36
316.787	59.39
317.001	102.4
317.214	2.05
317.428	30.72
317.641	-32.77
317.855	69.63
318.068	112.64
318.282	110.59
318.495	63.49
318.709	77.82
318.922	6.14
319.136	118.78
319.349	139.26
319.563	2.05
319.776	61.44
319.99	-14.34
320.203	67.58
320.417	-4.1
320.63	90.11
320.843	83.97
321.057	45.06
321.27	32.77
321.483	20.48
321.697	165.89
321.91	104.45
322.124	57.34
322.337	36.86
322.55	100.35
322.763	28.67
322.977	47.1
323.19	90.11
323.403	96.25
323.617	51.2
323.83	28.67
324.043	-2.05
324.256	126.97
324.469	6.14
324.683	63.49
324.896	63.49
325.109	-10.24
325.322	36.86
325.535	61.44
325.748	102.4
325.962	59.39
326.175	36.86
326.388	92.16
326.601	40.96
326.814	102.4
327.027	28.67
327.24	151.55
327.453	20.48
327.666	51.2
327.879	-10.24
328.092	90.11
328.305	53.25
328.518	83.97
328.731	122.88
328.944	69.63
329.157	120.83
329.37	-32.77
329.583	143.36
329.796	90.11
330.009	-65.53
330.222	71.68
330.435	90.11
330.648	-14.34
330.861	73.73
331.073	36.86
331.286	153.6
331.499	77.82
331.712	8.19
331.925	43.01
332.138	65.54
332.35	112.64
332.563	14.34
332.776	36.86
332.989	110.59
333.202	96.25
333.414	67.58
333.627	40.96
333.84	69.63
334.053	83.97
334.265	10.24
334.478	69.63
334.691	51.2
334.903	124.93
335.116	12.29
335.329	26.62
335.541	104.45
335.754	79.87
335.966	47.1
336.179	22.53
336.392	43.01
336.604	67.58
336.817	43.01
337.029	24.58
337.242	32.77
337.454	34.82
337.667	38.91
337.88	34.82
338.092	71.68
338.305	71.68
338.517	-8.19
338.729	61.44
338.942	114.69
339.154	-6.14
339.367	16.38
339.579	61.44
339.792	14.34
340.004	69.63
340.217	6.14
340.429	75.77
340.641	49.15
340.854	59.39
341.066	92.16
341.278	92.16
341.491	151.55
341.703	40.96
341.915	34.82
342.128	67.58
342.34	14.34
342.552	-26.62
342.764	40.96
342.977	49.15
343.189	98.3
343.401	36.86
343.613	40.96
343.826	43.01
344.038	32.77
344.25	65.54
344.462	59.39
344.674	-4.1
344.886	94.21
345.099	38.91
345.311	73.73
345.523	88.06
345.735	22.53
345.947	43.01
346.159	8.19
346.371	59.39
346.583	22.53
346.795	159.74
347.007	8.19
347.219	47.1
347.431	61.44
347.643	-4.1
347.855	2.05
348.067	139.26
348.279	92.16
348.491	71.68
348.703	114.69
348.915	83.97
349.127	-12.29
349.339	112.64
349.551	36.86
349.763	53.25
349.975	4.1
350.187	112.64
350.399	120.83
350.61	67.58
350.822	47.1
351.034	61.44
351.246	71.68
351.458	16.38
351.669	133.12
351.881	151.55
352.093	73.73
352.305	-18.43
352.517	104.45
352.728	40.96
352.94	43.01
353.152	65.54
353.363	10.24
353.575	61.44
353.787	96.25
353.999	14.34
354.21	106.49
354.422	55.3
354.633	-24.58
354.845	55.3
355.057	43.01
355.268	116.73
355.48	69.63
355.692	32.77
355.903	88.06
356.115	34.82
356.326	88.06
356.538	53.25
356.749	18.43
356.961	98.3
357.172	141.31
357.384	-40.96
357.595	143.36
357.807	59.39
358.018	47.1
358.23	61.44
358.441	67.58
358.653	73.73
358.864	61.44
359.075	10.24
359.287	102.4
359.498	112.64
359.709	69.63
359.921	-51.2
360.132	8.19
360.344	102.4
360.555	0
360.766	77.82
360.977	14.34
361.189	112.64
361.4	51.2
361.611	133.12
361.823	106.49
362.034	57.34
362.245	34.82
362.456	45.06
362.667	18.43
362.879	96.25
363.09	34.82
363.301	96.25
363.512	153.6
363.723	108.54
363.935	83.97
364.146	108.54
364.357	90.11
364.568	73.73
364.779	0
364.99	79.87
365.201	36.86
365.412	118.78
365.623	43.01
365.834	4.1
366.045	83.97
366.256	24.58
366.467	28.67
366.678	12.29
366.889	20.48
367.1	133.12
367.311	67.58
367.522	53.25
367.733	67.58
367.944	6.14
368.155	-26.62
368.366	124.93
368.577	120.83
368.788	118.78
368.999	2.05
369.209	98.3
369.42	45.06
369.631	77.82
369.842	96.25
370.053	30.72
370.264	190.46
370.474	24.58
370.685	26.62
370.896	45.06
371.107	55.3
371.317	57.34
371.528	36.86
371.739	69.63
371.95	12.29
372.16	18.43
372.371	-51.2
372.582	22.53
372.792	2.05
373.003	94.21
373.214	81.92
373.424	149.5
373.635	77.82
373.846	77.82
374.056	18.43
374.267	16.38
374.477	73.73
374.688	24.58
374.898	34.82
375.109	114.69
375.319	86.01
375.53	75.77
375.74	98.3
375.951	114.69
376.161	49.15
376.372	92.16
376.582	16.38
376.793	81.92
377.003	-6.14
377.214	129.02
377.424	114.69
377.635	26.62
377.845	4.1
378.055	112.64
378.266	38.91
378.476	114.69
378.686	83.97
378.897	75.77
379.107	98.3
379.317	139.26
379.528	106.49
379.738	51.2
379.948	-6.14
380.158	124.93
380.369	77.82
380.579	73.73
380.789	40.96
380.999	49.15
381.21	69.63
381.42	108.54
381.63	18.43
381.84	77.82
382.05	110.59
382.261	108.54
382.471	112.64
382.681	114.69
382.891	98.3
383.101	34.82
383.311	83.97
383.521	18.43
383.731	118.78
383.941	147.45
384.151	8.19
384.361	81.92
384.571	75.77
384.781	65.54
384.991	143.36
385.201	126.97
385.411	79.87
385.621	61.44
385.831	71.68
386.041	47.1
386.251	75.77
386.461	141.31
386.671	61.44
386.881	122.88
387.091	61.44
387.301	120.83
387.511	4.1
387.72	79.87
387.93	96.25
388.14	6.14
388.35	102.4
388.56	124.93
388.769	49.15
388.979	98.3
389.189	65.54
389.399	4.1
389.609	79.87
389.818	94.21
390.028	59.39
390.238	71.68
390.447	100.35
390.657	145.41
390.867	79.87
391.076	98.3
391.286	120.83
391.496	110.59
391.705	94.21
391.915	112.64
392.125	104.45
392.334	28.67
392.544	114.69
392.753	137.21
392.963	-16.38
393.172	49.15
393.382	32.77
393.591	106.49
393.801	6.14
394.01	141.31
394.22	110.59
394.429	63.49
394.639	59.39
394.848	98.3
395.058	6.14
395.267	28.67
395.477	124.93
395.686	63.49
395.895	231.42
396.105	210.94
396.314	75.77
396.524	40.96
396.733	49.15
396.942	165.89
397.152	131.07
397.361	102.4
397.57	114.69
397.78	137.21
397.989	86.01
398.198	77.82
398.407	81.92
398.617	53.25
398.826	63.49
399.035	114.69
399.244	163.84
399.453	149.5
399.663	61.44
399.872	40.96
400.081	73.73
400.29	86.01
400.499	96.25
400.708	92.16
400.917	153.6
401.127	100.35
401.336	69.63
401.545	174.08
401.754	149.5
401.963	120.83
402.172	43.01
402.381	69.63
402.59	86.01
402.799	90.11
403.008	161.79
403.217	81.92
403.426	137.21
403.635	61.44
403.844	196.61
404.053	139.26
404.262	167.93
404.471	172.03
404.68	243.71
404.888	118.78
405.097	155.65
405.306	131.07
405.515	217.08
405.724	178.17
405.933	178.17
406.142	161.79
406.35	210.94
406.559	169.98
406.768	137.21
406.977	245.76
407.185	190.46
407.394	153.6
407.603	126.97
407.812	221.18
408.02	235.52
408.229	176.13
408.438	198.65
408.646	202.75
408.855	311.29
409.064	229.37
409.272	200.7
409.481	260.09
409.69	178.17
409.898	249.85
410.107	280.57
410.315	272.38
410.524	237.56
410.733	280.57
410.941	282.62
411.15	305.15
411.358	194.56
411.567	374.78
411.775	362.49
411.984	364.54
412.192	268.28
412.401	299
412.609	434.17
412.818	366.59
413.026	409.59
413.234	436.22
413.443	401.4
413.651	409.59
413.86	438.27
414.068	438.27
414.276	544.76
414.485	466.94
414.693	501.75
414.901	565.24
415.11	563.19
415.318	563.19
415.526	559.1
415.734	665.59
415.943	636.92
416.151	659.45
416.359	665.59
416.567	665.59
416.776	681.97
416.984	739.32
417.192	684.02
417.4	788.47
417.608	692.21
417.817	808.95
418.025	765.94
418.233	948.21
418.441	874.48
418.649	827.38
418.857	974.83
419.065	1069.04
419.273	972.79
419.481	1019.89
419.689	1114.09
419.897	1146.86
420.105	1101.81
420.313	1275.88
420.521	1183.73
420.729	1267.69
420.937	1329.13
421.145	1236.97
421.353	1366
421.561	1497.07
421.769	1447.91
421.977	1490.92
422.185	1472.49
422.393	1535.98
422.601	1785.83
422.809	1759.21
423.017	1763.3
423.224	1736.68
423.432	1894.37
423.64	1826.79
423.848	1898.47
424.056	1923.04
424.263	2109.41
424.471	2211.81
424.679	2203.61
424.887	2328.54
425.094	2316.25
425.302	2258.91
425.51	2392.03
425.718	2488.28
425.925	2625.5
426.133	2611.16
426.341	2764.76
426.548	3049.43
426.756	2918.36
426.964	2863.06
427.171	3196.88
427.379	3117.01
427.586	3237.84
427.794	3358.67
428.001	3624.9
428.209	3729.35
428.417	3602.38
428.624	3817.41
428.832	3833.8
429.039	3811.27
429.247	3854.28
429.454	4034.5
429.662	4523.96
429.869	4169.66
430.076	4587.45
430.284	4224.96
430.491	4503.48
430.699	4804.53
430.906	4849.59
431.114	4956.08
431.321	5083.06
431.528	5015.48
431.736	5447.6
431.943	5803.94
432.15	5523.37
432.358	5593
432.565	6037.41
432.772	5947.3
432.979	6143.91
433.187	6270.88
433.394	6346.66
433.601	6752.15
433.808	6608.8
434.016	6684.57
434.223	6852.5
434.43	7516.05
434.637	7292.82
434.844	7747.47
435.052	7741.32
435.259	7925.64
435.466	7966.6
435.673	7937.93
435.88	8228.74
436.087	8703.87
436.294	8822.65
436.501	8562.56
436.708	8839.03
436.915	9279.35
437.122	9660.27
437.329	9500.53
437.537	9742.19
437.743	9879.4
437.95	9705.32
438.157	10446.69
438.364	10719.07
438.571	10626.91
438.778	10778.46
438.985	11671.37
439.192	11388.75
439.399	11704.14
439.606	11444.05
439.813	12021.58
440.02	12635.97
440.227	12549.95
440.433	12406.59
440.64	12990.27
440.847	12818.24
441.054	13176.63
441.261	13950.76
441.467	13733.68
441.674	14194.47
441.881	14440.23
442.088	14520.1
442.294	14317.35
442.501	14511.91
442.708	15087.39
442.914	15666.96
443.121	16105.23
443.328	15884.05
443.534	17084.16
443.741	16621.31
443.948	16187.15
444.154	17557.24
444.361	17463.03
444.568	17377.01
444.774	17606.39
444.981	17831.66
445.187	18157.29
445.394	19099.36
445.6	18917.09
445.807	20770.5
446.013	19969.74
446.22	19973.84
446.426	20989.63
446.633	21149.37
446.839	21929.65
447.046	20805.31
447.252	22109.87
447.459	22017.71
447.665	22132.4
447.871	23058.08
448.078	24143.5
448.284	22703.78
448.491	23692.95
448.697	24729.22
448.903	24747.65
449.11	24825.48
449.316	24764.04
449.522	24991.36
449.728	25716.34
449.935	26062.45
450.141	25837.17
450.347	26654.31
450.553	25769.59
450.76	25976.44
450.966	26840.68
451.172	26486.38
451.378	27270.75
451.584	26930.79
451.791	27221.6
451.997	27434.59
452.203	27661.91
452.409	27905.62
452.615	27397.73
452.821	26531.44
453.027	26330.73
453.233	28030.55
453.44	26791.53
453.646	27186.79
453.852	26918.5
454.058	27393.63
454.264	26527.34
454.47	27098.72
454.676	26574.44
454.882	27709.02
455.088	25132.67
455.294	25677.43
455.5	25671.29
455.705	26101.36
455.911	25138.82
456.117	24311.44
456.323	24432.27
456.529	22970.02
456.735	24219.28
456.941	23287.45
457.147	22800.04
457.352	22441.64
457.558	22173.36
457.764	22027.95
457.97	21716.66
458.176	21069.5
458.381	21223.1
458.587	19998.41
458.793	20104.91
458.999	19234.52
459.204	20434.63
459.41	19775.19
459.616	18253.55
459.821	18585.32
460.027	18476.77
460.233	18331.37
460.438	17489.65
460.644	17270.52
460.85	16854.78
461.055	16393.99
461.261	16359.17
461.466	15093.53
461.672	14708.51
461.878	15722.26
462.083	14649.12
462.289	14444.32
462.494	14368.55
462.7	13578.03
462.905	13047.61
463.111	13887.28
463.316	13852.46
463.522	13281.08
463.727	13367.09
463.932	13666.1
464.138	13319.99
464.343	13416.24
464.549	12961.59
464.754	13313.84
464.959	13602.61
465.165	13338.42
465.37	12746.56
465.575	12398.4
465.781	12654.4
465.986	12828.48
466.191	12394.31
466.397	12222.28
466.602	11669.33
466.807	12054.34
467.012	12109.64
467.218	11949.9
467.423	11888.46
