Data from USB4F104151__69__12-24-16-937.txt Node

Date: Fri Mar 14 12:24:16 EDT 2025
User: louis
Spectrometer: USB4F10415
Trigger mode: 4
Integration Time (sec): 3.500000E-2
Scans to average: 1
Electric dark correction enabled: true
Nonlinearity correction enabled: false
Boxcar width: 0
XAxis mode: Wavelengths
Number of Pixels in Spectrum: 3648
>>>>>Begin Spectral Data<<<<<
178.204	-66.39
178.424	-66.39
178.644	-66.39
178.864	-156.5
179.084	-140.12
179.304	-47.96
179.524	13.48
179.744	70.83
179.964	-17.24
180.184	-7
180.404	-15.19
180.624	-37.72
180.844	36.01
181.064	-50
181.283	58.54
181.503	-39.76
181.723	36.01
181.943	-123.73
182.163	89.26
182.383	46.25
182.602	1.19
182.822	33.96
183.042	17.58
183.262	-15.19
183.482	-7
183.701	-47.96
183.921	-47.96
184.141	3.24
184.361	-11.09
184.58	27.82
184.8	3.24
185.02	-60.24
185.239	138.41
185.459	-25.43
185.679	-17.24
185.898	-76.63
186.118	19.63
186.338	-31.57
186.557	-4.95
186.777	-82.77
186.997	-105.3
187.216	-2.9
187.436	64.68
187.655	33.96
187.875	-21.33
188.095	-11.09
188.314	29.87
188.534	76.97
188.753	-54.1
188.973	11.43
189.192	44.2
189.412	9.39
189.631	-2.9
189.851	23.72
190.07	46.25
190.29	-54.1
190.509	-0.85
190.729	-13.14
190.948	76.97
191.168	134.31
191.387	1.19
191.607	-82.77
191.826	-50
192.045	1.19
192.265	1.19
192.484	-15.19
192.704	15.53
192.923	-56.15
193.142	115.88
193.362	-37.72
193.581	-13.14
193.8	62.63
194.02	107.69
194.239	-17.24
194.458	-2.9
194.678	-39.76
194.897	31.91
195.116	7.34
195.335	17.58
195.555	93.35
195.774	-17.24
195.993	27.82
196.212	66.73
196.432	17.58
196.651	-97.11
196.87	-23.38
197.089	117.93
197.308	23.72
197.528	46.25
197.747	1.19
197.966	-11.09
198.185	56.49
198.404	21.67
198.623	-9.05
198.842	9.39
199.062	-4.95
199.281	52.39
199.5	36.01
199.719	1.19
199.938	72.87
200.157	76.97
200.376	21.67
200.595	44.2
200.814	-31.57
201.033	-64.34
201.252	1.19
201.471	89.26
201.69	56.49
201.909	-13.14
202.128	-43.86
202.347	46.25
202.566	31.91
202.785	79.02
203.004	-11.09
203.223	154.79
203.442	-15.19
203.661	13.48
203.879	-43.86
204.098	9.39
204.317	-70.48
204.536	-11.09
204.755	21.67
204.974	31.91
205.193	-23.38
205.411	50.35
205.63	74.92
205.849	-7
206.068	29.87
206.287	3.24
206.505	54.44
206.724	-25.43
206.943	72.87
207.162	-9.05
207.381	9.39
207.599	-39.76
207.818	29.87
208.037	-76.63
208.255	15.53
208.474	5.29
208.693	13.48
208.911	-7
209.13	-19.29
209.349	11.43
209.567	40.11
209.786	21.67
210.005	36.01
210.223	-13.14
210.442	-9.05
210.661	5.29
210.879	7.34
211.098	-13.14
211.316	70.83
211.535	15.53
211.753	85.16
211.972	15.53
212.191	25.77
212.409	3.24
212.628	-4.95
212.846	-21.33
213.065	128.17
213.283	-13.14
213.502	7.34
213.72	-62.29
213.938	9.39
214.157	-103.25
214.375	31.91
214.594	-27.48
214.812	85.16
215.031	40.11
215.249	-11.09
215.467	46.25
215.686	-52.05
215.904	58.54
216.122	21.67
216.341	56.49
216.559	-31.57
216.778	23.72
216.996	46.25
217.214	-31.57
217.432	-15.19
217.651	-33.62
217.869	5.29
218.087	5.29
218.306	3.24
218.524	-45.91
218.742	-31.57
218.96	-37.72
219.179	5.29
219.397	23.72
219.615	122.02
219.833	15.53
220.051	25.77
220.27	-23.38
220.488	1.19
220.706	58.54
220.924	36.01
221.142	40.11
221.36	38.06
221.578	-31.57
221.796	15.53
222.015	52.39
222.233	64.68
222.451	74.92
222.669	-35.67
222.887	81.07
223.105	-37.72
223.323	-2.9
223.541	-0.85
223.759	66.73
223.977	64.68
224.195	142.5
224.413	70.83
224.631	7.34
224.849	-7
225.067	27.82
225.285	-27.48
225.503	25.77
225.721	1.19
225.939	25.77
226.157	-15.19
226.375	17.58
226.592	-86.87
226.81	21.67
227.028	72.87
227.246	115.88
227.464	15.53
227.682	76.97
227.9	-9.05
228.117	-13.14
228.335	72.87
228.553	-19.29
228.771	56.49
228.989	23.72
229.206	109.74
229.424	-13.14
229.642	-13.14
229.86	-41.81
230.077	99.5
230.295	-2.9
230.513	62.63
230.731	25.77
230.948	44.2
231.166	66.73
231.384	58.54
231.601	-72.53
231.819	27.82
232.037	-19.29
232.254	-13.14
232.472	-15.19
232.689	19.63
232.907	1.19
233.125	1.19
233.342	81.07
233.56	-41.81
233.777	-25.43
233.995	-58.2
234.213	50.35
234.43	25.77
234.648	17.58
234.865	7.34
235.083	72.87
235.3	70.83
235.518	-27.48
235.735	29.87
235.953	38.06
236.17	-21.33
236.388	-0.85
236.605	93.35
236.822	72.87
237.04	23.72
237.257	17.58
237.475	3.24
237.692	11.43
237.909	15.53
238.127	56.49
238.344	103.59
238.562	1.19
238.779	-37.72
238.996	-31.57
239.214	25.77
239.431	1.19
239.648	-13.14
239.865	58.54
240.083	31.91
240.3	-29.52
240.517	-11.09
240.735	-25.43
240.952	91.31
241.169	29.87
241.386	5.29
241.603	11.43
241.821	3.24
242.038	-33.62
242.255	29.87
242.472	23.72
242.689	-0.85
242.907	72.87
243.124	3.24
243.341	-23.38
243.558	-62.29
243.775	-29.52
243.992	-33.62
244.209	70.83
244.426	48.3
244.643	-2.9
244.86	-68.44
245.078	25.77
245.295	40.11
245.512	66.73
245.729	3.24
245.946	36.01
246.163	52.39
246.38	-50
246.597	-39.76
246.814	-17.24
247.031	-13.14
247.248	-27.48
247.464	-29.52
247.681	-4.95
247.898	-33.62
248.115	-54.1
248.332	-7
248.549	11.43
248.766	76.97
248.983	70.83
249.2	13.48
249.417	-9.05
249.633	19.63
249.85	-9.05
250.067	9.39
250.284	3.24
250.501	31.91
250.717	-7
250.934	-58.2
251.151	76.97
251.368	64.68
251.585	33.96
251.801	-27.48
252.018	-2.9
252.235	48.3
252.451	-0.85
252.668	3.24
252.885	70.83
253.102	52.39
253.318	64.68
253.535	-13.14
253.752	-9.05
253.968	-37.72
254.185	-105.3
254.401	-27.48
254.618	-23.38
254.835	-43.86
255.051	-21.33
255.268	56.49
255.484	42.15
255.701	13.48
255.917	31.91
256.134	-11.09
256.351	-39.76
256.567	-19.29
256.784	33.96
257	-29.52
257.217	91.31
257.433	27.82
257.65	33.96
257.866	54.44
258.082	29.87
258.299	-2.9
258.515	148.65
258.732	-11.09
258.948	-13.14
259.165	17.58
259.381	-7
259.597	11.43
259.814	36.01
260.03	17.58
260.246	40.11
260.463	3.24
260.679	74.92
260.895	25.77
261.112	13.48
261.328	33.96
261.544	13.48
261.761	85.16
261.977	17.58
262.193	-95.06
262.409	52.39
262.626	21.67
262.842	29.87
263.058	58.54
263.274	46.25
263.49	40.11
263.707	9.39
263.923	-2.9
264.139	-7
264.355	15.53
264.571	11.43
264.787	-0.85
265.004	93.35
265.22	5.29
265.436	52.39
265.652	-19.29
265.868	21.67
266.084	1.19
266.3	68.78
266.516	-29.52
266.732	83.11
266.948	62.63
267.164	-13.14
267.38	-9.05
267.596	33.96
267.812	87.21
268.028	46.25
268.244	-76.63
268.46	-29.52
268.676	-58.2
268.892	1.19
269.108	-43.86
269.324	13.48
269.54	-68.44
269.756	52.39
269.972	11.43
270.188	-7
270.403	-13.14
270.619	42.15
270.835	11.43
271.051	23.72
271.267	-52.05
271.483	-33.62
271.698	113.83
271.914	-25.43
272.13	17.58
272.346	-17.24
272.562	-35.67
272.777	109.74
272.993	7.34
273.209	15.53
273.425	25.77
273.64	1.19
273.856	1.19
274.072	-43.86
274.287	23.72
274.503	31.91
274.719	-19.29
274.934	23.72
275.15	-45.91
275.366	1.19
275.581	-7
275.797	76.97
276.012	-35.67
276.228	23.72
276.444	-4.95
276.659	58.54
276.875	-103.25
277.09	21.67
277.306	-82.77
277.521	23.72
277.737	-35.67
277.952	7.34
278.168	-0.85
278.383	-41.81
278.599	5.29
278.814	-29.52
279.03	-60.24
279.245	9.39
279.461	66.73
279.676	48.3
279.892	-31.57
280.107	-37.72
280.322	42.15
280.538	13.48
280.753	-25.43
280.969	-29.52
281.184	79.02
281.399	83.11
281.615	1.19
281.83	-25.43
282.045	-31.57
282.26	-56.15
282.476	-19.29
282.691	15.53
282.906	-17.24
283.122	-41.81
283.337	-25.43
283.552	9.39
283.767	-37.72
283.983	-7
284.198	11.43
284.413	-17.24
284.628	13.48
284.843	40.11
285.058	95.4
285.274	-54.1
285.489	7.34
285.704	-2.9
285.919	9.39
286.134	-9.05
286.349	-52.05
286.564	-13.14
286.779	72.87
286.995	-31.57
287.21	29.87
287.425	5.29
287.64	-9.05
287.855	-74.58
288.07	-72.53
288.285	48.3
288.5	15.53
288.715	-37.72
288.93	29.87
289.145	-52.05
289.36	19.63
289.575	19.63
289.79	29.87
290.004	-47.96
290.219	74.92
290.434	1.19
290.649	-129.88
290.864	52.39
291.079	27.82
291.294	27.82
291.509	46.25
291.724	27.82
291.938	-62.29
292.153	-33.62
292.368	15.53
292.583	-31.57
292.798	40.11
293.012	48.3
293.227	19.63
293.442	9.39
293.657	-2.9
293.871	142.5
294.086	-23.38
294.301	11.43
294.516	95.4
294.73	-43.86
294.945	5.29
295.16	46.25
295.374	-7
295.589	52.39
295.804	-60.24
296.018	50.35
296.233	17.58
296.447	-78.68
296.662	5.29
296.877	5.29
297.091	113.83
297.306	7.34
297.52	-62.29
297.735	-33.62
297.949	9.39
298.164	44.2
298.378	27.82
298.593	-19.29
298.807	-9.05
299.022	1.19
299.236	-50
299.451	-35.67
299.665	-0.85
299.88	23.72
300.094	-47.96
300.309	17.58
300.523	19.63
300.737	-7
300.952	-47.96
301.166	-31.57
301.381	36.01
301.595	33.96
301.809	-41.81
302.024	-13.14
302.238	9.39
302.452	138.41
302.667	87.21
302.881	42.15
303.095	33.96
303.309	-17.24
303.524	-62.29
303.738	-99.16
303.952	-23.38
304.166	46.25
304.381	-74.58
304.595	54.44
304.809	9.39
305.023	-17.24
305.237	25.77
305.452	50.35
305.666	-21.33
305.88	-35.67
306.094	-7
306.308	66.73
306.522	15.53
306.736	-7
306.95	11.43
307.164	-37.72
307.379	-47.96
307.593	79.02
307.807	31.91
308.021	1.19
308.235	33.96
308.449	-2.9
308.663	1.19
308.877	48.3
309.091	11.43
309.305	3.24
309.519	-119.64
309.733	50.35
309.947	-27.48
310.161	60.59
310.374	70.83
310.588	50.35
310.802	-43.86
311.016	1.19
311.23	-41.81
311.444	58.54
311.658	-47.96
311.872	31.91
312.085	5.29
312.299	70.83
312.513	-13.14
312.727	29.87
312.941	-39.76
313.154	29.87
313.368	-0.85
313.582	-45.91
313.796	-21.33
314.009	-9.05
314.223	11.43
314.437	1.19
314.651	-11.09
314.864	-13.14
315.078	-11.09
315.292	-39.76
315.505	-19.29
315.719	-52.05
315.933	31.91
316.146	15.53
316.36	-0.85
316.573	-50
316.787	62.63
317.001	-7
317.214	3.24
317.428	-4.95
317.641	-9.05
317.855	46.25
318.068	38.06
318.282	27.82
318.495	81.07
318.709	40.11
318.922	15.53
319.136	93.35
319.349	87.21
319.563	-4.95
319.776	-33.62
319.99	-90.96
320.203	-23.38
320.417	1.19
320.63	19.63
320.843	11.43
321.057	5.29
321.27	46.25
321.483	93.35
321.697	58.54
321.91	29.87
322.124	50.35
322.337	23.72
322.55	-31.57
322.763	42.15
322.977	-62.29
323.19	13.48
323.403	-21.33
323.617	48.3
323.83	-0.85
324.043	9.39
324.256	33.96
324.469	-27.48
324.683	79.02
324.896	-39.76
325.109	-45.91
325.322	-13.14
325.535	64.68
325.748	81.07
325.962	-35.67
326.175	-4.95
326.388	83.11
326.601	19.63
326.814	42.15
327.027	23.72
327.24	134.31
327.453	36.01
327.666	3.24
327.879	15.53
328.092	72.87
328.305	64.68
328.518	9.39
328.731	25.77
328.944	36.01
329.157	9.39
329.37	-56.15
329.583	56.49
329.796	58.54
330.009	-19.29
330.222	36.01
330.435	70.83
330.648	-7
330.861	-4.95
331.073	-39.76
331.286	48.3
331.499	54.44
331.712	-27.48
331.925	56.49
332.138	11.43
332.35	1.19
332.563	-23.38
332.776	85.16
332.989	-62.29
333.202	-21.33
333.414	-21.33
333.627	27.82
333.84	-11.09
334.053	-47.96
334.265	-50
334.478	-13.14
334.691	9.39
334.903	48.3
335.116	-76.63
335.329	-35.67
335.541	23.72
335.754	66.73
335.966	-23.38
336.179	17.58
336.392	-58.2
336.604	-21.33
336.817	-17.24
337.029	42.15
337.242	23.72
337.454	15.53
337.667	7.34
337.88	119.98
338.092	-23.38
338.305	54.44
338.517	-78.68
338.729	91.31
338.942	-33.62
339.154	-54.1
339.367	25.77
339.579	-27.48
339.792	-25.43
340.004	46.25
340.217	33.96
340.429	-13.14
340.641	-19.29
340.854	7.34
341.066	-21.33
341.278	-27.48
341.491	31.91
341.703	5.29
341.915	7.34
342.128	-4.95
342.34	-0.85
342.552	-39.76
342.764	-9.05
342.977	-17.24
343.189	-11.09
343.401	13.48
343.613	-15.19
343.826	23.72
344.038	-17.24
344.25	19.63
344.462	-17.24
344.674	-0.85
344.886	29.87
345.099	-25.43
345.311	-29.52
345.523	-31.57
345.735	-23.38
345.947	50.35
346.159	21.67
346.371	70.83
346.583	11.43
346.795	44.2
347.007	-11.09
347.219	13.48
347.431	9.39
347.643	54.44
347.855	-43.86
348.067	54.44
348.279	23.72
348.491	40.11
348.703	52.39
348.915	25.77
349.127	-70.48
349.339	60.59
349.551	25.77
349.763	-9.05
349.975	-72.53
350.187	74.92
350.399	29.87
350.61	25.77
350.822	17.58
351.034	-4.95
351.246	19.63
351.458	31.91
351.669	-43.86
351.881	33.96
352.093	40.11
352.305	38.06
352.517	21.67
352.728	89.26
352.94	56.49
353.152	21.67
353.363	-27.48
353.575	1.19
353.787	-15.19
353.999	93.35
354.21	50.35
354.422	-23.38
354.633	-0.85
354.845	19.63
355.057	33.96
355.268	-27.48
355.48	27.82
355.692	7.34
355.903	-21.33
356.115	11.43
356.326	-47.96
356.538	83.11
356.749	46.25
356.961	-21.33
357.172	-0.85
357.384	-33.62
357.595	58.54
357.807	15.53
358.018	-84.82
358.23	7.34
358.441	76.97
358.653	25.77
358.864	25.77
359.075	56.49
359.287	11.43
359.498	54.44
359.709	85.16
359.921	31.91
360.132	17.58
360.344	-11.09
360.555	-25.43
360.766	1.19
360.977	-60.24
361.189	42.15
361.4	21.67
361.611	72.87
361.823	17.58
362.034	33.96
362.245	-62.29
362.456	44.2
362.667	48.3
362.879	11.43
363.09	-0.85
363.301	15.53
363.512	-15.19
363.723	-45.91
363.935	21.67
364.146	-29.52
364.357	-21.33
364.568	21.67
364.779	-21.33
364.99	74.92
365.201	-60.24
365.412	91.31
365.623	-31.57
365.834	25.77
366.045	-43.86
366.256	60.59
366.467	21.67
366.678	-0.85
366.889	70.83
367.1	11.43
367.311	27.82
367.522	38.06
367.733	-15.19
367.944	44.2
368.155	101.55
368.366	-15.19
368.577	29.87
368.788	42.15
368.999	-47.96
369.209	48.3
369.42	99.5
369.631	130.22
369.842	-0.85
370.053	38.06
370.264	23.72
370.474	-43.86
370.685	-23.38
370.896	36.01
371.107	42.15
371.317	-29.52
371.528	52.39
371.739	85.16
371.95	33.96
372.16	68.78
372.371	-13.14
372.582	-13.14
372.792	66.73
373.003	101.55
373.214	5.29
373.424	58.54
373.635	-101.2
373.846	58.54
374.056	33.96
374.267	52.39
374.477	-0.85
374.688	1.19
374.898	5.29
375.109	68.78
375.319	-9.05
375.53	17.58
375.74	85.16
375.951	-13.14
376.161	-4.95
376.372	68.78
376.582	42.15
376.793	38.06
377.003	-4.95
377.214	33.96
377.424	-45.91
377.635	11.43
377.845	5.29
378.055	81.07
378.266	-9.05
378.476	-23.38
378.686	54.44
378.897	15.53
379.107	23.72
379.317	42.15
379.528	70.83
379.738	91.31
379.948	-35.67
380.158	40.11
380.369	56.49
380.579	25.77
380.789	-27.48
380.999	-4.95
381.21	128.17
381.42	33.96
381.63	11.43
381.84	52.39
382.05	70.83
382.261	62.63
382.471	-2.9
382.681	-35.67
382.891	126.12
383.101	64.68
383.311	-13.14
383.521	54.44
383.731	66.73
383.941	60.59
384.151	50.35
384.361	-25.43
384.571	-21.33
384.781	52.39
384.991	76.97
385.201	33.96
385.411	23.72
385.621	-84.82
385.831	33.96
386.041	-2.9
386.251	-35.67
386.461	42.15
386.671	-39.76
386.881	3.24
387.091	-2.9
387.301	44.2
387.511	15.53
387.72	36.01
387.93	79.02
388.14	-37.72
388.35	-2.9
388.56	44.2
388.769	9.39
388.979	36.01
389.189	58.54
389.399	-7
389.609	122.02
389.818	13.48
390.028	36.01
390.238	74.92
390.447	-31.57
390.657	58.54
390.867	74.92
391.076	-7
391.286	-0.85
391.496	25.77
391.705	44.2
391.915	1.19
392.125	31.91
392.334	-7
392.544	48.3
392.753	-86.87
392.963	15.53
393.172	111.78
393.382	36.01
393.591	60.59
393.801	5.29
394.01	89.26
394.22	68.78
394.429	76.97
394.639	-15.19
394.848	58.54
395.058	46.25
395.267	85.16
395.477	9.39
395.686	31.91
395.895	105.64
396.105	19.63
396.314	46.25
396.524	-4.95
396.733	-37.72
396.942	81.07
397.152	23.72
397.361	60.59
397.57	48.3
397.78	54.44
397.989	76.97
398.198	187.56
398.407	50.35
398.617	66.73
398.826	19.63
399.035	99.5
399.244	150.7
399.453	72.87
399.663	-4.95
399.872	76.97
400.081	48.3
400.29	1.19
400.499	-2.9
400.708	70.83
400.917	52.39
401.127	25.77
401.336	25.77
401.545	162.98
401.754	15.53
401.963	-15.19
402.172	46.25
402.381	91.31
402.59	95.4
402.799	-13.14
403.008	136.36
403.217	103.59
403.426	46.25
403.635	74.92
403.844	1.19
404.053	93.35
404.262	29.87
404.471	105.64
404.68	87.21
404.888	85.16
405.097	91.31
405.306	36.01
405.515	134.31
405.724	42.15
405.933	66.73
406.142	146.6
406.35	40.11
406.559	21.67
406.768	70.83
406.977	95.4
407.185	128.17
407.394	154.79
407.603	40.11
407.812	93.35
408.02	115.88
408.229	111.78
408.438	152.74
408.646	101.55
408.855	119.98
409.064	197.8
409.272	124.07
409.481	175.27
409.69	156.84
409.898	101.55
410.107	128.17
410.315	220.33
410.524	119.98
410.733	220.33
410.941	160.94
411.15	214.18
411.358	126.12
411.567	173.22
411.775	185.51
411.984	218.28
412.192	185.51
412.401	230.57
412.609	308.39
412.818	244.9
413.026	296.1
413.234	253.09
413.443	205.99
413.651	210.09
413.86	287.91
414.068	337.06
414.276	355.49
414.485	279.72
414.693	437.41
414.901	443.56
415.11	443.56
415.318	457.89
415.526	416.93
415.734	431.27
415.943	482.47
416.151	418.98
416.359	451.75
416.567	525.47
416.776	515.23
416.984	599.2
417.192	601.25
417.4	515.23
417.608	498.85
417.817	527.52
418.025	591.01
418.233	652.45
418.441	586.91
418.649	619.68
418.857	826.53
419.065	660.64
419.273	697.5
419.481	787.61
419.689	746.66
419.897	771.23
420.105	808.09
420.313	947.36
420.521	916.64
420.729	953.5
420.937	879.77
421.145	978.08
421.353	1043.61
421.561	1168.54
421.769	1129.63
421.977	1125.53
422.185	1178.78
422.393	1139.87
422.601	1219.74
422.809	1303.7
423.017	1303.7
423.224	1348.76
423.432	1363.09
423.64	1461.4
423.848	1498.26
424.056	1410.2
424.263	1686.67
424.471	1692.82
424.679	1709.2
424.887	1647.76
425.094	1868.94
425.302	1780.88
425.51	1848.46
425.718	1926.29
425.925	1901.71
426.133	2057.36
426.341	2231.43
426.548	2237.58
426.756	2329.74
426.964	2278.54
427.171	2339.97
427.379	2540.68
427.586	2509.96
427.794	2647.17
428.001	2694.27
428.209	2675.84
428.417	2743.42
428.624	2886.78
428.832	2991.23
429.039	2944.13
429.247	2843.78
429.454	3157.11
429.662	3435.64
429.869	3169.4
430.076	3396.73
430.284	3347.58
430.491	3472.5
430.699	3724.4
430.906	3609.72
431.114	3830.9
431.321	3959.92
431.528	3941.49
431.736	4201.58
431.943	4320.36
432.15	4275.31
432.358	4310.12
432.565	4525.16
432.772	4547.69
432.979	4768.87
433.187	5051.49
433.394	4899.94
433.601	5164.12
433.808	5237.85
434.016	5295.19
434.223	5446.74
434.43	5704.79
434.637	5510.23
434.844	5973.07
435.052	6149.2
435.259	6255.69
435.466	6069.33
435.673	6069.33
435.88	6517.83
436.087	6931.52
436.294	7017.54
436.501	6786.12
436.708	6870.08
436.915	7341.11
437.122	7423.03
437.329	7355.45
437.537	7504.95
437.743	7574.58
437.95	7554.1
438.157	7990.32
438.364	8250.41
438.571	8238.12
438.778	8467.5
438.985	9149.47
439.192	8756.26
439.399	8954.91
439.606	8813.6
439.813	9321.5
440.02	9960.47
440.227	9690.13
440.433	9710.61
440.64	9845.78
440.847	10130.45
441.054	10234.89
441.261	10685.45
441.467	10882.05
441.674	10892.29
441.881	11455.48
442.088	11308.03
442.294	11117.57
442.501	11533.31
442.708	11791.35
442.914	12258.29
443.121	12526.57
443.328	12536.81
443.534	13183.97
443.741	13110.24
443.948	12743.66
444.154	13755.35
444.361	13540.32
444.568	13736.92
444.774	13714.39
444.981	14097.36
445.187	14056.4
445.394	14771.15
445.6	14414.8
445.807	16124.85
446.013	15379.39
446.22	15627.2
446.426	16073.65
446.633	16331.7
446.839	17099.69
447.046	16384.94
447.252	17277.86
447.459	17197.99
447.665	17181.6
447.871	18025.37
448.078	18815.88
448.284	17951.64
448.491	18355.09
448.697	19243.91
448.903	19352.45
449.11	19372.93
449.316	19118.98
449.522	19356.55
449.728	20169.59
449.935	20288.37
450.141	20306.8
450.347	20847.47
450.553	20044.66
450.76	20253.56
450.966	20736.88
451.172	20728.69
451.378	21222.25
451.584	21072.75
451.791	21496.67
451.997	21248.87
452.203	21777.25
452.409	21670.75
452.615	21594.98
452.821	20634.48
453.027	20489.07
453.233	21562.21
453.44	20714.35
453.646	20876.14
453.852	21144.42
454.058	21439.33
454.264	20706.16
454.47	21275.49
454.676	20935.53
454.882	21472.1
455.088	19465.09
455.294	20097.91
455.5	20173.69
455.705	20253.56
455.911	19164.04
456.117	19260.29
456.323	19018.63
456.529	17568.67
456.735	18426.77
456.941	18344.85
457.147	17931.16
457.352	17220.52
457.558	17175.46
457.764	17150.88
457.97	16499.63
458.176	16509.87
458.381	16354.23
458.587	15614.91
458.793	15408.06
458.999	14816.2
459.204	15797.18
459.41	15459.26
459.616	14339.02
459.821	14590.92
460.027	14269.39
460.233	14072.79
460.438	13464.54
460.644	13417.44
460.85	13016.04
461.055	12856.29
461.261	12921.83
461.466	11656.18
461.672	11389.95
461.878	12041.2
462.083	11621.37
462.289	11164.67
462.494	10976.26
462.7	10464.27
462.905	10460.17
463.111	10802.18
463.316	10765.32
463.522	10521.61
463.727	10636.3
463.932	10474.51
464.138	10353.68
464.343	10456.08
464.549	10144.78
464.754	10458.12
464.959	10169.36
465.165	10402.83
465.37	9694.23
465.575	9704.47
465.781	10238.99
465.986	9899.03
466.191	9589.78
466.397	9473.05
466.602	9192.48
466.807	9217.05
467.012	9337.88
467.218	9243.68
467.423	9053.22
467.628	9145.38
