Data from USB4F104151__1__12-23-15-904.txt Node

Date: Fri Mar 14 12:23:15 EDT 2025
User: louis
Spectrometer: USB4F10415
Trigger mode: 4
Integration Time (sec): 3.500000E-2
Scans to average: 1
Electric dark correction enabled: true
Nonlinearity correction enabled: false
Boxcar width: 0
XAxis mode: Wavelengths
Number of Pixels in Spectrum: 3648
>>>>>Begin Spectral Data<<<<<
178.204	-195.07
178.424	-195.07
178.644	-195.07
178.864	-176.64
179.084	-164.35
179.304	42.5
179.524	48.64
179.744	-35.33
179.964	-6.66
180.184	48.64
180.404	-23.04
180.624	15.87
180.844	-20.99
181.064	-4.61
181.283	-0.51
181.503	-33.28
181.723	-31.23
181.943	-10.75
182.163	126.46
182.383	-37.38
182.602	83.45
182.822	69.12
183.042	58.88
183.262	36.35
183.482	75.26
183.701	9.73
183.921	17.92
184.141	13.82
184.361	15.87
184.58	38.4
184.8	77.31
185.02	34.3
185.239	69.12
185.459	116.22
185.679	105.98
185.898	-80.38
186.118	85.5
186.338	13.82
186.557	36.35
186.777	32.26
186.997	28.16
187.216	-55.81
187.436	79.36
187.655	60.93
187.875	69.12
188.095	26.11
188.314	36.35
188.534	79.36
188.753	75.26
188.973	22.02
189.192	13.82
189.412	-14.85
189.631	30.21
189.851	-39.42
190.07	83.45
190.29	52.74
190.509	-37.38
190.729	-14.85
190.948	1.54
191.168	249.34
191.387	32.26
191.607	19.97
191.826	48.64
192.045	112.13
192.265	46.59
192.484	56.83
192.704	85.5
192.923	36.35
193.142	101.89
193.362	118.27
193.581	13.82
193.8	105.98
194.02	130.56
194.239	34.3
194.458	108.03
194.678	-0.51
194.897	26.11
195.116	60.93
195.335	42.5
195.555	-14.85
195.774	34.3
195.993	103.93
196.212	-66.05
196.432	15.87
196.651	42.5
196.87	58.88
197.089	120.32
197.308	99.84
197.528	-0.51
197.747	26.11
197.966	38.4
198.185	13.82
198.404	13.82
198.623	73.21
198.842	67.07
199.062	26.11
199.281	60.93
199.5	54.78
199.719	79.36
199.938	103.93
200.157	9.73
200.376	32.26
200.595	54.78
200.814	-55.81
201.033	-59.9
201.252	85.5
201.471	62.98
201.69	67.07
201.909	89.6
202.128	40.45
202.347	34.3
202.566	69.12
202.785	11.78
203.004	67.07
203.223	169.47
203.442	26.11
203.661	24.06
203.879	77.31
204.098	79.36
204.317	75.26
204.536	60.93
204.755	9.73
204.974	42.5
205.193	36.35
205.411	163.33
205.63	103.93
205.849	-31.23
206.068	9.73
206.287	5.63
206.505	75.26
206.724	3.58
206.943	38.4
207.162	-0.51
207.381	69.12
207.599	13.82
207.818	11.78
208.037	-29.18
208.255	-23.04
208.474	19.97
208.693	40.45
208.911	19.97
209.13	-16.9
209.349	44.54
209.567	-16.9
209.786	50.69
210.005	81.41
210.223	46.59
210.442	-33.28
210.661	87.55
210.879	-23.04
211.098	52.74
211.316	50.69
211.535	75.26
211.753	62.98
211.972	-6.66
212.191	28.16
212.409	71.17
212.628	60.93
212.846	60.93
213.065	87.55
213.283	110.08
213.502	75.26
213.72	-49.66
213.938	38.4
214.157	-12.8
214.375	19.97
214.594	7.68
214.812	58.88
215.031	26.11
215.249	-12.8
215.467	-10.75
215.686	30.21
215.904	97.79
216.122	13.82
216.341	34.3
216.559	75.26
216.778	101.89
216.996	105.98
217.214	48.64
217.432	22.02
217.651	-43.52
217.869	24.06
218.087	-2.56
218.306	36.35
218.524	36.35
218.742	85.5
218.96	91.65
219.179	62.98
219.397	89.6
219.615	58.88
219.833	124.41
220.051	-59.9
220.27	24.06
220.488	58.88
220.706	60.93
220.924	-14.85
221.142	54.78
221.36	-6.66
221.578	83.45
221.796	24.06
222.015	5.63
222.233	52.74
222.451	87.55
222.669	-0.51
222.887	3.58
223.105	71.17
223.323	34.3
223.541	-27.14
223.759	130.56
223.977	67.07
224.195	97.79
224.413	108.03
224.631	-4.61
224.849	62.98
225.067	62.98
225.285	60.93
225.503	60.93
225.721	15.87
225.939	-8.7
226.157	1.54
226.375	58.88
226.592	42.5
226.81	30.21
227.028	103.93
227.246	124.41
227.464	38.4
227.682	73.21
227.9	-0.51
228.117	112.13
228.335	13.82
228.553	58.88
228.771	-4.61
228.989	-12.8
229.206	91.65
229.424	30.21
229.642	13.82
229.86	-0.51
230.077	42.5
230.295	13.82
230.513	50.69
230.731	71.17
230.948	48.64
231.166	73.21
231.384	11.78
231.601	26.11
231.819	77.31
232.037	15.87
232.254	-74.24
232.472	34.3
232.689	13.82
232.907	108.03
233.125	65.02
233.342	28.16
233.56	13.82
233.777	36.35
233.995	30.21
234.213	89.6
234.43	101.89
234.648	32.26
234.865	-49.66
235.083	112.13
235.3	130.56
235.518	56.83
235.735	67.07
235.953	50.69
236.17	-27.14
236.388	-10.75
236.605	79.36
236.822	62.98
237.04	99.84
237.257	9.73
237.475	-6.66
237.692	-12.8
237.909	91.65
238.127	77.31
238.344	148.99
238.562	40.45
238.779	11.78
238.996	9.73
239.214	44.54
239.431	-14.85
239.648	56.83
239.865	73.21
240.083	40.45
240.3	46.59
240.517	22.02
240.735	91.65
240.952	34.3
241.169	67.07
241.386	-12.8
241.603	28.16
241.821	73.21
242.038	3.58
242.255	97.79
242.472	-39.42
242.689	81.41
242.907	48.64
243.124	28.16
243.341	-18.94
243.558	-8.7
243.775	-41.47
243.992	36.35
244.209	60.93
244.426	71.17
244.643	40.45
244.86	3.58
245.078	38.4
245.295	44.54
245.512	-8.7
245.729	32.26
245.946	56.83
246.163	30.21
246.38	26.11
246.597	-6.66
246.814	17.92
247.031	56.83
247.248	56.83
247.464	30.21
247.681	34.3
247.898	99.84
248.115	79.36
248.332	-47.62
248.549	38.4
248.766	79.36
248.983	26.11
249.2	-16.9
249.417	36.35
249.633	38.4
249.85	3.58
250.067	73.21
250.284	28.16
250.501	73.21
250.717	22.02
250.934	30.21
251.151	93.69
251.368	42.5
251.585	13.82
251.801	-23.04
252.018	46.59
252.235	101.89
252.451	17.92
252.668	11.78
252.885	62.98
253.102	-16.9
253.318	44.54
253.535	15.87
253.752	38.4
253.968	24.06
254.185	-14.85
254.401	13.82
254.618	69.12
254.835	13.82
255.051	128.51
255.268	69.12
255.484	11.78
255.701	28.16
255.917	67.07
256.134	34.3
256.351	67.07
256.567	50.69
256.784	95.74
257	77.31
257.217	65.02
257.433	44.54
257.65	60.93
257.866	30.21
258.082	-23.04
258.299	44.54
258.515	73.21
258.732	9.73
258.948	79.36
259.165	-23.04
259.381	-14.85
259.597	42.5
259.814	50.69
260.03	67.07
260.246	60.93
260.463	60.93
260.679	99.84
260.895	54.78
261.112	97.79
261.328	-59.9
261.544	22.02
261.761	48.64
261.977	-27.14
262.193	-25.09
262.409	79.36
262.626	36.35
262.842	34.3
263.058	19.97
263.274	24.06
263.49	-33.28
263.707	75.26
263.923	15.87
264.139	-23.04
264.355	69.12
264.571	1.54
264.787	52.74
265.004	157.18
265.22	36.35
265.436	40.45
265.652	24.06
265.868	103.93
266.084	-4.61
266.3	40.45
266.516	28.16
266.732	17.92
266.948	22.02
267.164	91.65
267.38	42.5
267.596	110.08
267.812	93.69
268.028	24.06
268.244	-2.56
268.46	40.45
268.676	65.02
268.892	26.11
269.108	-25.09
269.324	42.5
269.54	58.88
269.756	28.16
269.972	19.97
270.188	17.92
270.403	26.11
270.619	77.31
270.835	26.11
271.051	28.16
271.267	-25.09
271.483	-27.14
271.698	-2.56
271.914	60.93
272.13	83.45
272.346	-41.47
272.562	87.55
272.777	114.17
272.993	38.4
273.209	56.83
273.425	132.61
273.64	24.06
273.856	99.84
274.072	-18.94
274.287	52.74
274.503	89.6
274.719	118.27
274.934	73.21
275.15	77.31
275.366	38.4
275.581	38.4
275.797	75.26
276.012	22.02
276.228	-18.94
276.444	22.02
276.659	105.98
276.875	-8.7
277.09	34.3
277.306	30.21
277.521	93.69
277.737	40.45
277.952	24.06
278.168	50.69
278.383	93.69
278.599	24.06
278.814	58.88
279.03	28.16
279.245	99.84
279.461	58.88
279.676	75.26
279.892	54.78
280.107	56.83
280.322	-25.09
280.538	19.97
280.753	-27.14
280.969	36.35
281.184	38.4
281.399	89.6
281.615	28.16
281.83	83.45
282.045	-31.23
282.26	38.4
282.476	67.07
282.691	73.21
282.906	34.3
283.122	24.06
283.337	7.68
283.552	28.16
283.767	-23.04
283.983	136.7
284.198	-31.23
284.413	99.84
284.628	1.54
284.843	69.12
285.058	69.12
285.274	54.78
285.489	-6.66
285.704	93.69
285.919	11.78
286.134	15.87
286.349	-68.09
286.564	26.11
286.779	60.93
286.995	42.5
287.21	-16.9
287.425	-2.56
287.64	32.26
287.855	97.79
288.07	-55.81
288.285	89.6
288.5	-23.04
288.715	52.74
288.93	17.92
289.145	28.16
289.36	60.93
289.575	110.08
289.79	75.26
290.004	52.74
290.219	3.58
290.434	60.93
290.649	40.45
290.864	48.64
291.079	52.74
291.294	38.4
291.509	132.61
291.724	13.82
291.938	-2.56
292.153	69.12
292.368	-10.75
292.583	75.26
292.798	3.58
293.012	30.21
293.227	11.78
293.442	26.11
293.657	122.37
293.871	75.26
294.086	-2.56
294.301	54.78
294.516	54.78
294.73	91.65
294.945	3.58
295.16	-64
295.374	85.5
295.589	62.98
295.804	46.59
296.018	-27.14
296.233	93.69
296.447	87.55
296.662	89.6
296.877	24.06
297.091	58.88
297.306	56.83
297.52	26.11
297.735	-0.51
297.949	34.3
298.164	114.17
298.378	34.3
298.593	52.74
298.807	54.78
299.022	91.65
299.236	15.87
299.451	77.31
299.665	-27.14
299.88	75.26
300.094	32.26
300.309	-14.85
300.523	32.26
300.737	56.83
300.952	77.31
301.166	56.83
301.381	-10.75
301.595	15.87
301.809	36.35
302.024	34.3
302.238	19.97
302.452	134.65
302.667	11.78
302.881	105.98
303.095	89.6
303.309	65.02
303.524	36.35
303.738	-39.42
303.952	40.45
304.166	7.68
304.381	-16.9
304.595	69.12
304.809	28.16
305.023	-39.42
305.237	36.35
305.452	30.21
305.666	11.78
305.88	-12.8
306.094	73.21
306.308	28.16
306.522	87.55
306.736	40.45
306.95	54.78
307.164	19.97
307.379	89.6
307.593	67.07
307.807	108.03
308.021	97.79
308.235	71.17
308.449	-76.29
308.663	32.26
308.877	112.13
309.091	58.88
309.305	3.58
309.519	-55.81
309.733	44.54
309.947	11.78
310.161	26.11
310.374	67.07
310.588	81.41
310.802	-4.61
311.016	-10.75
311.23	67.07
311.444	-59.9
311.658	67.07
311.872	110.08
312.085	114.17
312.299	34.3
312.513	58.88
312.727	38.4
312.941	-23.04
313.154	15.87
313.368	5.63
313.582	48.64
313.796	3.58
314.009	83.45
314.223	32.26
314.437	48.64
314.651	36.35
314.864	-29.18
315.078	9.73
315.292	-0.51
315.505	-0.51
315.719	58.88
315.933	-12.8
316.146	-20.99
316.36	19.97
316.573	62.98
316.787	71.17
317.001	1.54
317.214	26.11
317.428	32.26
317.641	48.64
317.855	101.89
318.068	60.93
318.282	40.45
318.495	79.36
318.709	60.93
318.922	42.5
319.136	114.17
319.349	108.03
319.563	3.58
319.776	77.31
319.99	1.54
320.203	40.45
320.417	38.4
320.63	-23.04
320.843	140.8
321.057	44.54
321.27	32.26
321.483	71.17
321.697	91.65
321.91	32.26
322.124	13.82
322.337	75.26
322.55	-37.38
322.763	50.69
322.977	9.73
323.19	46.59
323.403	128.51
323.617	38.4
323.83	97.79
324.043	-4.61
324.256	1.54
324.469	-18.94
324.683	56.83
324.896	5.63
325.109	11.78
325.322	-35.33
325.535	11.78
325.748	46.59
325.962	11.78
326.175	128.51
326.388	42.5
326.601	65.02
326.814	1.54
327.027	11.78
327.24	95.74
327.453	24.06
327.666	48.64
327.879	136.7
328.092	46.59
328.305	79.36
328.518	50.69
328.731	34.3
328.944	58.88
329.157	91.65
329.37	11.78
329.583	87.55
329.796	19.97
330.009	-2.56
330.222	144.89
330.435	77.31
330.648	54.78
330.861	40.45
331.073	5.63
331.286	1.54
331.499	-2.56
331.712	-16.9
331.925	36.35
332.138	91.65
332.35	122.37
332.563	9.73
332.776	81.41
332.989	5.63
333.202	13.82
333.414	46.59
333.627	-37.38
333.84	-27.14
334.053	28.16
334.265	44.54
334.478	81.41
334.691	75.26
334.903	69.12
335.116	1.54
335.329	42.5
335.541	83.45
335.754	97.79
335.966	32.26
336.179	22.02
336.392	32.26
336.604	58.88
336.817	28.16
337.029	-33.28
337.242	99.84
337.454	118.27
337.667	-20.99
337.88	5.63
338.092	44.54
338.305	-0.51
338.517	15.87
338.729	38.4
338.942	62.98
339.154	-55.81
339.367	-8.7
339.579	56.83
339.792	54.78
340.004	71.17
340.217	46.59
340.429	85.5
340.641	-8.7
340.854	30.21
341.066	-23.04
341.278	-0.51
341.491	108.03
341.703	58.88
341.915	89.6
342.128	58.88
342.34	101.89
342.552	-16.9
342.764	93.69
342.977	-29.18
343.189	9.73
343.401	34.3
343.613	-35.33
343.826	-14.85
344.038	85.5
344.25	44.54
344.462	89.6
344.674	44.54
344.886	71.17
345.099	81.41
345.311	24.06
345.523	97.79
345.735	44.54
345.947	-16.9
346.159	-25.09
346.371	87.55
346.583	77.31
346.795	151.04
347.007	-6.66
347.219	28.16
347.431	93.69
347.643	79.36
347.855	65.02
348.067	91.65
348.279	50.69
348.491	-6.66
348.703	54.78
348.915	87.55
349.127	58.88
349.339	73.21
349.551	52.74
349.763	99.84
349.975	69.12
350.187	36.35
350.399	42.5
350.61	146.94
350.822	19.97
351.034	-31.23
351.246	3.58
351.458	42.5
351.669	-18.94
351.881	89.6
352.093	67.07
352.305	54.78
352.517	81.41
352.728	136.7
352.94	60.93
353.152	24.06
353.363	1.54
353.575	62.98
353.787	58.88
353.999	50.69
354.21	103.93
354.422	13.82
354.633	73.21
354.845	99.84
355.057	9.73
355.268	46.59
355.48	19.97
355.692	9.73
355.903	60.93
356.115	-12.8
356.326	-8.7
356.538	110.08
356.749	48.64
356.961	58.88
357.172	28.16
357.384	-16.9
357.595	108.03
357.807	22.02
358.018	-2.56
358.23	34.3
358.441	126.46
358.653	38.4
358.864	9.73
359.075	26.11
359.287	50.69
359.498	44.54
359.709	99.84
359.921	85.5
360.132	56.83
360.344	38.4
360.555	3.58
360.766	73.21
360.977	58.88
361.189	99.84
361.4	9.73
361.611	36.35
361.823	77.31
362.034	5.63
362.245	-35.33
362.456	114.17
362.667	79.36
362.879	22.02
363.09	17.92
363.301	71.17
363.512	85.5
363.723	38.4
363.935	26.11
364.146	34.3
364.357	44.54
364.568	118.27
364.779	5.63
364.99	97.79
365.201	65.02
365.412	-0.51
365.623	15.87
365.834	85.5
366.045	5.63
366.256	157.18
366.467	130.56
366.678	58.88
366.889	73.21
367.1	62.98
367.311	36.35
367.522	-10.75
367.733	50.69
367.944	118.27
368.155	-0.51
368.366	110.08
368.577	101.89
368.788	22.02
368.999	-10.75
369.209	73.21
369.42	48.64
369.631	103.93
369.842	11.78
370.053	83.45
370.264	114.17
370.474	46.59
370.685	56.83
370.896	40.45
371.107	50.69
371.317	52.74
371.528	32.26
371.739	122.37
371.95	110.08
372.16	62.98
372.371	28.16
372.582	19.97
372.792	93.69
373.003	50.69
373.214	-6.66
373.424	132.61
373.635	-12.8
373.846	69.12
374.056	114.17
374.267	75.26
374.477	24.06
374.688	36.35
374.898	9.73
375.109	62.98
375.319	-4.61
375.53	73.21
375.74	105.98
375.951	67.07
376.161	99.84
376.372	9.73
376.582	40.45
376.793	60.93
377.003	-12.8
377.214	73.21
377.424	69.12
377.635	28.16
377.845	5.63
378.055	89.6
378.266	50.69
378.476	95.74
378.686	124.41
378.897	85.5
379.107	105.98
379.317	17.92
379.528	-20.99
379.738	116.22
379.948	-55.81
380.158	40.45
380.369	13.82
380.579	85.5
380.789	22.02
380.999	83.45
381.21	40.45
381.42	142.85
381.63	32.26
381.84	105.98
382.05	67.07
382.261	105.98
382.471	97.79
382.681	28.16
382.891	122.37
383.101	89.6
383.311	3.58
383.521	9.73
383.731	89.6
383.941	93.69
384.151	73.21
384.361	50.69
384.571	36.35
384.781	52.74
384.991	65.02
385.201	95.74
385.411	-39.42
385.621	93.69
385.831	-10.75
386.041	118.27
386.251	22.02
386.461	62.98
386.671	112.13
386.881	-16.9
387.091	32.26
387.301	67.07
387.511	101.89
387.72	60.93
387.93	153.09
388.14	-68.09
388.35	95.74
388.56	81.41
388.769	108.03
388.979	91.65
389.189	42.5
389.399	71.17
389.609	56.83
389.818	48.64
390.028	153.09
390.238	69.12
390.447	60.93
390.657	58.88
390.867	-0.51
391.076	-43.52
391.286	46.59
391.496	-23.04
391.705	60.93
391.915	87.55
392.125	112.13
392.334	69.12
392.544	50.69
392.753	42.5
392.963	67.07
393.172	30.21
393.382	28.16
393.591	161.28
393.801	60.93
394.01	136.7
394.22	67.07
394.429	56.83
394.639	93.69
394.848	120.32
395.058	52.74
395.267	120.32
395.477	28.16
395.686	85.5
395.895	50.69
396.105	136.7
396.314	75.26
396.524	130.56
396.733	75.26
396.942	108.03
397.152	103.93
397.361	81.41
397.57	58.88
397.78	36.35
397.989	85.5
398.198	128.51
398.407	97.79
398.617	52.74
398.826	97.79
399.035	116.22
399.244	140.8
399.453	81.41
399.663	122.37
399.872	97.79
400.081	34.3
400.29	177.66
400.499	42.5
400.708	173.57
400.917	79.36
401.127	69.12
401.336	11.78
401.545	140.8
401.754	93.69
401.963	118.27
402.172	120.32
402.381	91.65
402.59	7.68
402.799	71.17
403.008	130.56
403.217	126.46
403.426	177.66
403.635	-4.61
403.844	89.6
404.053	140.8
404.262	34.3
404.471	153.09
404.68	120.32
404.888	95.74
405.097	128.51
405.306	169.47
405.515	112.13
405.724	85.5
405.933	77.31
406.142	146.94
406.35	151.04
406.559	46.59
406.768	116.22
406.977	153.09
407.185	93.69
407.394	230.91
407.603	124.41
407.812	204.28
408.02	185.85
408.229	206.33
408.438	153.09
408.646	128.51
408.855	185.85
409.064	151.04
409.272	169.47
409.481	263.68
409.69	173.57
409.898	194.05
410.107	239.1
410.315	288.25
410.524	226.81
410.733	263.68
410.941	237.05
411.15	247.29
411.358	292.35
411.567	230.91
411.775	294.4
411.984	271.87
412.192	323.07
412.401	280.06
412.609	380.41
412.818	392.7
413.026	366.07
413.234	337.4
413.443	308.73
413.651	300.54
413.86	290.3
414.068	349.69
414.276	357.88
414.485	437.75
414.693	355.83
414.901	499.19
415.11	488.95
415.318	470.52
415.526	460.28
415.734	562.68
415.943	359.93
416.151	560.63
416.359	595.45
416.567	595.45
416.776	568.82
416.984	552.44
417.192	593.4
417.4	677.37
417.608	648.69
417.817	701.94
418.025	724.47
418.233	728.56
418.441	685.56
418.649	771.57
418.857	822.77
419.065	912.88
419.273	798.2
419.481	908.79
419.689	794.1
419.897	798.2
420.105	1052.14
420.313	1041.9
420.521	1050.1
420.729	1019.38
420.937	1005.04
421.145	1185.26
421.353	1213.93
421.561	1177.07
421.769	1230.32
421.977	1273.32
422.185	1318.38
422.393	1367.53
422.601	1445.35
422.809	1455.59
423.017	1467.88
423.224	1465.83
423.432	1582.57
423.64	1545.7
423.848	1693.16
424.056	1652.2
424.263	1844.71
424.471	1820.13
424.679	1844.71
424.887	1859.04
425.094	1959.39
425.302	2125.28
425.51	2055.65
425.718	2041.31
425.925	2172.38
426.133	2242.01
426.341	2407.9
426.548	2409.95
426.756	2391.52
426.964	2489.82
427.171	2620.89
427.379	2629.08
427.586	2696.66
427.794	2803.16
428.001	2876.88
428.209	2950.61
428.417	3032.53
428.624	3192.27
428.832	3073.49
429.039	3270.09
429.247	3136.98
429.454	3513.8
429.662	3816.9
429.869	3474.89
430.076	3859.91
430.284	3657.16
430.491	3917.25
430.699	3958.21
430.906	3816.9
431.114	4120
431.321	4208.06
431.528	4212.16
431.736	4683.19
431.943	4744.63
432.15	4672.95
432.358	4687.29
432.565	4998.58
432.772	4783.54
432.979	5154.23
433.187	5412.27
433.394	5354.93
433.601	5774.76
433.808	5639.59
434.016	5727.66
434.223	5719.46
434.43	6073.76
434.637	6313.38
434.844	6581.66
435.052	6585.76
435.259	6624.67
435.466	6682.01
435.673	6626.71
435.88	7081.36
436.087	7370.13
436.294	7441.81
436.501	7269.78
436.708	7286.16
436.915	7613.84
437.122	7978.37
437.329	7912.84
437.537	8230.27
437.743	8623.48
437.95	8185.22
438.157	8891.77
438.364	9014.65
438.571	9104.76
438.778	9047.41
438.985	9887.08
439.192	9651.56
439.399	9932.14
439.606	9477.49
439.813	10263.91
440.02	10624.35
440.227	10657.12
440.433	10515.81
440.64	10904.92
440.847	10863.96
441.054	10995.03
441.261	11658.57
441.467	11560.27
441.674	11631.95
441.881	12328.26
442.088	12313.92
442.294	12344.64
442.501	12410.18
442.708	12520.77
442.914	13133.11
443.121	13905.2
443.328	13268.28
443.534	14224.68
443.741	13923.63
443.948	13651.25
444.154	14910.75
444.361	14877.98
444.568	14640.42
444.774	15027.48
444.981	15050.01
445.187	15648.02
445.394	16102.67
445.6	15848.72
445.807	17532.15
446.013	16821.5
446.22	16893.18
446.426	17747.19
446.633	17937.65
446.839	18486.5
447.046	17597.68
447.252	18488.55
447.459	18650.34
447.665	18658.53
447.871	19696.85
448.078	20356.3
448.284	19545.3
448.491	19825.87
448.697	20597.96
448.903	21152.96
449.11	21019.84
449.316	20583.62
449.522	21324.99
449.728	21640.37
449.935	22076.59
450.141	21683.38
450.347	22430.89
450.553	21851.31
450.76	21990.58
450.966	22531.24
451.172	22340.78
451.378	22844.58
451.584	22514.86
451.791	23166.11
451.997	23008.42
452.203	23217.31
452.409	23372.96
452.615	23168.16
452.821	22867.11
453.027	22283.44
453.233	23305.37
453.44	22686.89
453.646	22942.88
453.852	23080.1
454.058	22922.4
454.264	22570.15
454.47	23239.84
454.676	22275.24
454.882	23164.06
455.088	20880.58
455.294	21593.27
455.5	21843.12
455.705	22056.11
455.911	21177.53
456.117	20741.32
456.323	20438.22
456.529	19365.08
456.735	20176.08
456.941	19655.89
457.147	19664.08
457.352	18834.66
457.558	18423.01
457.764	18683.11
457.97	18019.57
458.176	17835.25
458.381	17820.91
458.587	16956.67
458.793	16772.35
458.999	15940.88
459.204	17116.41
459.41	16755.97
459.616	15508.76
459.821	15619.35
460.027	15406.36
460.233	15179.03
460.438	14390.56
460.644	14566.69
460.85	14030.12
461.055	13593.9
461.261	13505.84
461.466	12748.09
461.672	12254.53
461.878	13110.58
462.083	12526.91
462.289	12139.85
462.494	11922.76
462.7	11490.64
462.905	11007.32
463.111	11398.48
463.316	11504.98
463.522	11275.6
463.727	11210.07
463.932	11416.91
464.138	11064.66
464.343	11169.11
464.549	10870.11
464.754	11115.86
464.959	11099.48
465.165	11066.71
465.37	10478.94
465.575	10145.13
465.781	10829.15
465.986	10784.09
466.191	10169.7
466.397	10278.24
466.602	9741.68
466.807	9969
467.012	10134.89
467.218	10046.82
467.423	9872.75
467.628	10145.13
467.833	10136.93
468.038	10036.58
