Data from USB4F104151__62__12-24-09-972.txt Node

Date: Fri Mar 14 12:24:09 EDT 2025
User: louis
Spectrometer: USB4F10415
Trigger mode: 4
Integration Time (sec): 3.500000E-2
Scans to average: 1
Electric dark correction enabled: true
Nonlinearity correction enabled: false
Boxcar width: 0
XAxis mode: Wavelengths
Number of Pixels in Spectrum: 3648
>>>>>Begin Spectral Data<<<<<
178.204	-144.38
178.424	-144.38
178.644	-144.38
178.864	-168.96
179.084	-136.19
179.304	-56.32
179.524	-29.7
179.744	-78.85
179.964	29.7
180.184	60.42
180.404	41.98
180.624	-19.46
180.844	29.7
181.064	23.55
181.283	9.22
181.503	-1.02
181.723	-9.22
181.943	-74.75
182.163	33.79
182.383	11.26
182.602	37.89
182.822	7.17
183.042	74.75
183.262	-74.75
183.482	-23.55
183.701	-13.31
183.921	-19.46
184.141	-70.65
184.361	158.72
184.58	-27.65
184.8	11.26
185.02	-23.55
185.239	-15.36
185.459	64.51
185.679	76.8
185.898	13.31
186.118	19.46
186.338	31.74
186.557	64.51
186.777	39.94
186.997	-50.18
187.216	5.12
187.436	158.72
187.655	41.98
187.875	27.65
188.095	25.6
188.314	17.41
188.534	56.32
188.753	-1.02
188.973	-9.22
189.192	82.94
189.412	9.22
189.631	60.42
189.851	50.18
190.07	35.84
190.29	-1.02
190.509	-31.74
190.729	-3.07
190.948	48.13
191.168	148.48
191.387	64.51
191.607	93.18
191.826	19.46
192.045	25.6
192.265	60.42
192.484	21.5
192.704	58.37
192.923	-5.12
193.142	52.22
193.362	29.7
193.581	74.75
193.8	-9.22
194.02	115.71
194.239	31.74
194.458	46.08
194.678	13.31
194.897	-17.41
195.116	117.76
195.335	13.31
195.555	39.94
195.774	-46.08
195.993	52.22
196.212	-33.79
196.432	-3.07
196.651	76.8
196.87	17.41
197.089	76.8
197.308	41.98
197.528	56.32
197.747	-21.5
197.966	-3.07
198.185	74.75
198.404	66.56
198.623	46.08
198.842	29.7
199.062	5.12
199.281	66.56
199.5	39.94
199.719	-1.02
199.938	41.98
200.157	35.84
200.376	35.84
200.595	35.84
200.814	41.98
201.033	27.65
201.252	39.94
201.471	48.13
201.69	68.61
201.909	15.36
202.128	15.36
202.347	64.51
202.566	-1.02
202.785	41.98
203.004	7.17
203.223	82.94
203.442	25.6
203.661	-27.65
203.879	-15.36
204.098	64.51
204.317	-17.41
204.536	31.74
204.755	5.12
204.974	29.7
205.193	56.32
205.411	76.8
205.63	93.18
205.849	17.41
206.068	1.02
206.287	-17.41
206.505	130.05
206.724	15.36
206.943	25.6
207.162	-5.12
207.381	13.31
207.599	25.6
207.818	76.8
208.037	64.51
208.255	1.02
208.474	13.31
208.693	93.18
208.911	27.65
209.13	-13.31
209.349	121.85
209.567	52.22
209.786	60.42
210.005	70.65
210.223	17.41
210.442	-9.22
210.661	82.94
210.879	-33.79
211.098	72.7
211.316	70.65
211.535	37.89
211.753	95.23
211.972	66.56
212.191	31.74
212.409	64.51
212.628	89.09
212.846	23.55
213.065	5.12
213.283	39.94
213.502	17.41
213.72	37.89
213.938	27.65
214.157	46.08
214.375	78.85
214.594	58.37
214.812	35.84
215.031	35.84
215.249	87.04
215.467	35.84
215.686	23.55
215.904	41.98
216.122	35.84
216.341	-25.6
216.559	52.22
216.778	76.8
216.996	99.33
217.214	48.13
217.432	35.84
217.651	-5.12
217.869	-9.22
218.087	11.26
218.306	3.07
218.524	1.02
218.742	-1.02
218.96	48.13
219.179	66.56
219.397	41.98
219.615	154.62
219.833	76.8
220.051	-62.46
220.27	17.41
220.488	-46.08
220.706	46.08
220.924	-19.46
221.142	44.03
221.36	7.17
221.578	21.5
221.796	-35.84
222.015	13.31
222.233	27.65
222.451	46.08
222.669	-35.84
222.887	11.26
223.105	-21.5
223.323	62.46
223.541	-54.27
223.759	5.12
223.977	19.46
224.195	60.42
224.413	27.65
224.631	39.94
224.849	3.07
225.067	113.66
225.285	27.65
225.503	66.56
225.721	-29.7
225.939	68.61
226.157	11.26
226.375	95.23
226.592	13.31
226.81	-5.12
227.028	56.32
227.246	121.85
227.464	-21.5
227.682	15.36
227.9	97.28
228.117	84.99
228.335	-48.13
228.553	48.13
228.771	60.42
228.989	99.33
229.206	35.84
229.424	-46.08
229.642	-11.26
229.86	-21.5
230.077	66.56
230.295	44.03
230.513	-1.02
230.731	87.04
230.948	105.47
231.166	111.61
231.384	50.18
231.601	-7.17
231.819	62.46
232.037	56.32
232.254	-27.65
232.472	23.55
232.689	-7.17
232.907	-62.46
233.125	19.46
233.342	-29.7
233.56	35.84
233.777	52.22
233.995	-41.98
234.213	54.27
234.43	60.42
234.648	19.46
234.865	-66.56
235.083	27.65
235.3	29.7
235.518	13.31
235.735	-21.5
235.953	-13.31
236.17	66.56
236.388	-5.12
236.605	27.65
236.822	-5.12
237.04	74.75
237.257	21.5
237.475	-35.84
237.692	46.08
237.909	17.41
238.127	3.07
238.344	15.36
238.562	60.42
238.779	-60.42
238.996	-41.98
239.214	-9.22
239.431	19.46
239.648	1.02
239.865	87.04
240.083	109.57
240.3	13.31
240.517	-33.79
240.735	-60.42
240.952	99.33
241.169	64.51
241.386	-15.36
241.603	46.08
241.821	17.41
242.038	54.27
242.255	78.85
242.472	9.22
242.689	52.22
242.907	46.08
243.124	89.09
243.341	50.18
243.558	29.7
243.775	5.12
243.992	-46.08
244.209	74.75
244.426	148.48
244.643	68.61
244.86	-56.32
245.078	46.08
245.295	1.02
245.512	58.37
245.729	-44.03
245.946	25.6
246.163	15.36
246.38	72.7
246.597	25.6
246.814	39.94
247.031	46.08
247.248	70.65
247.464	37.89
247.681	15.36
247.898	29.7
248.115	27.65
248.332	3.07
248.549	62.46
248.766	52.22
248.983	56.32
249.2	9.22
249.417	44.03
249.633	7.17
249.85	39.94
250.067	11.26
250.284	35.84
250.501	7.17
250.717	50.18
250.934	11.26
251.151	7.17
251.368	60.42
251.585	76.8
251.801	27.65
252.018	13.31
252.235	87.04
252.451	19.46
252.668	-31.74
252.885	-7.17
253.102	23.55
253.318	-1.02
253.535	54.27
253.752	33.79
253.968	25.6
254.185	-9.22
254.401	-17.41
254.618	21.5
254.835	-44.03
255.051	37.89
255.268	78.85
255.484	-5.12
255.701	44.03
255.917	17.41
256.134	35.84
256.351	13.31
256.567	-29.7
256.784	111.61
257	29.7
257.217	-11.26
257.433	58.37
257.65	9.22
257.866	70.65
258.082	-17.41
258.299	7.17
258.515	70.65
258.732	17.41
258.948	13.31
259.165	-74.75
259.381	15.36
259.597	25.6
259.814	35.84
260.03	-15.36
260.246	60.42
260.463	80.89
260.679	121.85
260.895	-15.36
261.112	48.13
261.328	-54.27
261.544	64.51
261.761	25.6
261.977	-25.6
262.193	31.74
262.409	29.7
262.626	-29.7
262.842	37.89
263.058	7.17
263.274	78.85
263.49	29.7
263.707	95.23
263.923	21.5
264.139	41.98
264.355	54.27
264.571	33.79
264.787	48.13
265.004	76.8
265.22	-9.22
265.436	13.31
265.652	-21.5
265.868	31.74
266.084	15.36
266.3	9.22
266.516	-3.07
266.732	3.07
266.948	-1.02
267.164	31.74
267.38	9.22
267.596	39.94
267.812	130.05
268.028	41.98
268.244	82.94
268.46	-11.26
268.676	56.32
268.892	-39.94
269.108	15.36
269.324	48.13
269.54	-48.13
269.756	-21.5
269.972	5.12
270.188	62.46
270.403	-37.89
270.619	-7.17
270.835	3.07
271.051	31.74
271.267	23.55
271.483	46.08
271.698	23.55
271.914	97.28
272.13	54.27
272.346	31.74
272.562	19.46
272.777	35.84
272.993	35.84
273.209	-29.7
273.425	29.7
273.64	-87.04
273.856	58.37
274.072	9.22
274.287	3.07
274.503	72.7
274.719	70.65
274.934	-27.65
275.15	52.22
275.366	31.74
275.581	48.13
275.797	-9.22
276.012	41.98
276.228	-19.46
276.444	17.41
276.659	44.03
276.875	25.6
277.09	13.31
277.306	-31.74
277.521	9.22
277.737	17.41
277.952	-3.07
278.168	-9.22
278.383	44.03
278.599	-46.08
278.814	84.99
279.03	-52.22
279.245	70.65
279.461	11.26
279.676	3.07
279.892	-35.84
280.107	-1.02
280.322	21.5
280.538	-7.17
280.753	58.37
280.969	58.37
281.184	31.74
281.399	7.17
281.615	7.17
281.83	15.36
282.045	-3.07
282.26	27.65
282.476	60.42
282.691	-56.32
282.906	17.41
283.122	15.36
283.337	23.55
283.552	76.8
283.767	1.02
283.983	13.31
284.198	17.41
284.413	29.7
284.628	1.02
284.843	23.55
285.058	44.03
285.274	25.6
285.489	17.41
285.704	35.84
285.919	9.22
286.134	13.31
286.349	44.03
286.564	-1.02
286.779	66.56
286.995	15.36
287.21	1.02
287.425	58.37
287.64	27.65
287.855	56.32
288.07	3.07
288.285	-21.5
288.5	111.61
288.715	62.46
288.93	-21.5
289.145	99.33
289.36	82.94
289.575	9.22
289.79	91.13
290.004	46.08
290.219	76.8
290.434	-31.74
290.649	80.89
290.864	7.17
291.079	25.6
291.294	41.98
291.509	29.7
291.724	39.94
291.938	37.89
292.153	19.46
292.368	-25.6
292.583	13.31
292.798	41.98
293.012	-9.22
293.227	46.08
293.442	35.84
293.657	87.04
293.871	103.42
294.086	-33.79
294.301	15.36
294.516	103.42
294.73	-5.12
294.945	-35.84
295.16	48.13
295.374	64.51
295.589	87.04
295.804	7.17
296.018	33.79
296.233	13.31
296.447	74.75
296.662	-39.94
296.877	70.65
297.091	39.94
297.306	-13.31
297.52	-39.94
297.735	25.6
297.949	33.79
298.164	52.22
298.378	48.13
298.593	15.36
298.807	1.02
299.022	111.61
299.236	105.47
299.451	46.08
299.665	76.8
299.88	74.75
300.094	23.55
300.309	78.85
300.523	9.22
300.737	-19.46
300.952	21.5
301.166	15.36
301.381	-5.12
301.595	17.41
301.809	-5.12
302.024	-33.79
302.238	13.31
302.452	89.09
302.667	64.51
302.881	52.22
303.095	50.18
303.309	33.79
303.524	3.07
303.738	25.6
303.952	-19.46
304.166	23.55
304.381	-39.94
304.595	31.74
304.809	93.18
305.023	103.42
305.237	54.27
305.452	39.94
305.666	62.46
305.88	78.85
306.094	54.27
306.308	7.17
306.522	9.22
306.736	39.94
306.95	35.84
307.164	-3.07
307.379	31.74
307.593	87.04
307.807	103.42
308.021	62.46
308.235	9.22
308.449	-64.51
308.663	33.79
308.877	101.37
309.091	35.84
309.305	-31.74
309.519	-7.17
309.733	27.65
309.947	78.85
310.161	33.79
310.374	87.04
310.588	99.33
310.802	80.89
311.016	74.75
311.23	17.41
311.444	5.12
311.658	46.08
311.872	39.94
312.085	-7.17
312.299	29.7
312.513	44.03
312.727	5.12
312.941	-29.7
313.154	-3.07
313.368	7.17
313.582	58.37
313.796	52.22
314.009	-7.17
314.223	74.75
314.437	1.02
314.651	68.61
314.864	-35.84
315.078	68.61
315.292	68.61
315.505	19.46
315.719	23.55
315.933	33.79
316.146	25.6
316.36	-1.02
316.573	31.74
316.787	21.5
317.001	60.42
317.214	1.02
317.428	33.79
317.641	31.74
317.855	-9.22
318.068	-5.12
318.282	19.46
318.495	5.12
318.709	68.61
318.922	-17.41
319.136	97.28
319.349	37.89
319.563	5.12
319.776	58.37
319.99	62.46
320.203	123.9
320.417	99.33
320.63	21.5
320.843	125.95
321.057	74.75
321.27	105.47
321.483	109.57
321.697	115.71
321.91	109.57
322.124	121.85
322.337	39.94
322.55	48.13
322.763	-13.31
322.977	54.27
323.19	11.26
323.403	109.57
323.617	-39.94
323.83	74.75
324.043	15.36
324.256	29.7
324.469	7.17
324.683	146.43
324.896	-21.5
325.109	76.8
325.322	-11.26
325.535	113.66
325.748	1.02
325.962	33.79
326.175	37.89
326.388	-37.89
326.601	31.74
326.814	37.89
327.027	58.37
327.24	97.28
327.453	-60.42
327.666	35.84
327.879	-15.36
328.092	82.94
328.305	-3.07
328.518	-82.94
328.731	-15.36
328.944	76.8
329.157	56.32
329.37	13.31
329.583	95.23
329.796	52.22
330.009	-46.08
330.222	84.99
330.435	80.89
330.648	1.02
330.861	64.51
331.073	50.18
331.286	60.42
331.499	-56.32
331.712	-33.79
331.925	56.32
332.138	41.98
332.35	109.57
332.563	-68.61
332.776	103.42
332.989	5.12
333.202	91.13
333.414	-15.36
333.627	121.85
333.84	-1.02
334.053	37.89
334.265	41.98
334.478	29.7
334.691	39.94
334.903	33.79
335.116	29.7
335.329	44.03
335.541	105.47
335.754	95.23
335.966	54.27
336.179	-1.02
336.392	17.41
336.604	1.02
336.817	128
337.029	80.89
337.242	58.37
337.454	58.37
337.667	11.26
337.88	87.04
338.092	62.46
338.305	25.6
338.517	-11.26
338.729	52.22
338.942	60.42
339.154	23.55
339.367	44.03
339.579	50.18
339.792	-31.74
340.004	89.09
340.217	31.74
340.429	-3.07
340.641	1.02
340.854	33.79
341.066	54.27
341.278	87.04
341.491	-46.08
341.703	58.37
341.915	-39.94
342.128	33.79
342.34	-11.26
342.552	27.65
342.764	-7.17
342.977	17.41
343.189	17.41
343.401	95.23
343.613	-5.12
343.826	54.27
344.038	-31.74
344.25	37.89
344.462	39.94
344.674	37.89
344.886	58.37
345.099	13.31
345.311	68.61
345.523	39.94
345.735	-44.03
345.947	15.36
346.159	-3.07
346.371	15.36
346.583	15.36
346.795	93.18
347.007	-3.07
347.219	-11.26
347.431	21.5
347.643	48.13
347.855	70.65
348.067	70.65
348.279	27.65
348.491	13.31
348.703	54.27
348.915	-50.18
349.127	-1.02
349.339	21.5
349.551	-37.89
349.763	93.18
349.975	15.36
350.187	74.75
350.399	19.46
350.61	33.79
350.822	33.79
351.034	99.33
351.246	19.46
351.458	11.26
351.669	134.14
351.881	89.09
352.093	31.74
352.305	107.52
352.517	13.31
352.728	80.89
352.94	7.17
353.152	33.79
353.363	46.08
353.575	39.94
353.787	123.9
353.999	33.79
354.21	97.28
354.422	-9.22
354.633	3.07
354.845	74.75
355.057	60.42
355.268	54.27
355.48	130.05
355.692	25.6
355.903	76.8
356.115	13.31
356.326	-74.75
356.538	-17.41
356.749	21.5
356.961	132.09
357.172	60.42
357.384	19.46
357.595	109.57
357.807	78.85
358.018	29.7
358.23	84.99
358.441	177.15
358.653	80.89
358.864	80.89
359.075	13.31
359.287	99.33
359.498	80.89
359.709	52.22
359.921	44.03
360.132	58.37
360.344	13.31
360.555	21.5
360.766	21.5
360.977	50.18
361.189	11.26
361.4	39.94
361.611	56.32
361.823	76.8
362.034	17.41
362.245	7.17
362.456	39.94
362.667	46.08
362.879	5.12
363.09	9.22
363.301	-25.6
363.512	35.84
363.723	23.55
363.935	-25.6
364.146	41.98
364.357	15.36
364.568	72.7
364.779	-46.08
364.99	134.14
365.201	93.18
365.412	50.18
365.623	50.18
365.834	103.42
366.045	52.22
366.256	76.8
366.467	-19.46
366.678	9.22
366.889	41.98
367.1	41.98
367.311	37.89
367.522	23.55
367.733	62.46
367.944	66.56
368.155	52.22
368.366	80.89
368.577	70.65
368.788	78.85
368.999	-58.37
369.209	48.13
369.42	50.18
369.631	121.85
369.842	15.36
370.053	31.74
370.264	3.07
370.474	-1.02
370.685	125.95
370.896	15.36
371.107	54.27
371.317	103.42
371.528	27.65
371.739	134.14
371.95	68.61
372.16	11.26
372.371	46.08
372.582	7.17
372.792	97.28
373.003	-15.36
373.214	17.41
373.424	103.42
373.635	54.27
373.846	101.37
374.056	58.37
374.267	54.27
374.477	52.22
374.688	48.13
374.898	29.7
375.109	29.7
375.319	11.26
375.53	82.94
375.74	74.75
375.951	-62.46
376.161	33.79
376.372	70.65
376.582	33.79
376.793	70.65
377.003	7.17
377.214	9.22
377.424	15.36
377.635	-13.31
377.845	41.98
378.055	93.18
378.266	-13.31
378.476	41.98
378.686	48.13
378.897	97.28
379.107	23.55
379.317	62.46
379.528	-3.07
379.738	80.89
379.948	-121.85
380.158	31.74
380.369	-23.55
380.579	58.37
380.789	58.37
380.999	78.85
381.21	7.17
381.42	132.09
381.63	91.13
381.84	60.42
382.05	93.18
382.261	95.23
382.471	111.61
382.681	-1.02
382.891	80.89
383.101	33.79
383.311	41.98
383.521	-21.5
383.731	89.09
383.941	-9.22
384.151	-1.02
384.361	-5.12
384.571	74.75
384.781	27.65
384.991	148.48
385.201	70.65
385.411	146.43
385.621	87.04
385.831	11.26
386.041	99.33
386.251	46.08
386.461	125.95
386.671	82.94
386.881	91.13
387.091	48.13
387.301	72.7
387.511	5.12
387.72	78.85
387.93	80.89
388.14	9.22
388.35	62.46
388.56	35.84
388.769	13.31
388.979	74.75
389.189	37.89
389.399	48.13
389.609	80.89
389.818	54.27
390.028	99.33
390.238	144.38
390.447	31.74
390.657	78.85
390.867	29.7
391.076	-37.89
391.286	105.47
391.496	70.65
391.705	93.18
391.915	87.04
392.125	66.56
392.334	44.03
392.544	117.76
392.753	21.5
392.963	25.6
393.172	-5.12
393.382	54.27
393.591	142.33
393.801	54.27
394.01	111.61
394.22	101.37
394.429	60.42
394.639	72.7
394.848	62.46
395.058	1.02
395.267	37.89
395.477	121.85
395.686	29.7
395.895	132.09
396.105	78.85
396.314	107.52
396.524	50.18
396.733	109.57
396.942	107.52
397.152	103.42
397.361	52.22
397.57	50.18
397.78	107.52
397.989	60.42
398.198	78.85
398.407	152.57
398.617	44.03
398.826	70.65
399.035	35.84
399.244	109.57
399.453	44.03
399.663	60.42
399.872	105.47
400.081	25.6
400.29	99.33
400.499	58.37
400.708	103.42
400.917	107.52
401.127	72.7
401.336	130.05
401.545	97.28
401.754	62.46
401.963	50.18
402.172	132.09
402.381	44.03
402.59	93.18
402.799	113.66
403.008	146.43
403.217	191.49
403.426	25.6
403.635	13.31
403.844	158.72
404.053	-9.22
404.262	152.57
404.471	91.13
404.68	105.47
404.888	105.47
405.097	27.65
405.306	66.56
405.515	111.61
405.724	199.68
405.933	109.57
406.142	91.13
406.35	195.58
406.559	78.85
406.768	93.18
406.977	160.77
407.185	187.39
407.394	119.81
407.603	117.76
407.812	218.11
408.02	179.2
408.229	142.33
408.438	199.68
408.646	123.9
408.855	201.72
409.064	150.53
409.272	265.21
409.481	238.59
409.69	226.3
409.898	148.48
410.107	222.2
410.315	218.11
410.524	160.77
410.733	162.81
410.941	259.07
411.15	246.78
411.358	265.21
411.567	279.55
411.775	254.97
411.984	250.88
412.192	267.26
412.401	287.74
412.609	338.94
412.818	340.99
413.026	349.18
413.234	310.27
413.443	340.99
413.651	300.03
413.86	400.38
414.068	459.77
414.276	502.78
414.485	402.43
414.693	433.15
414.901	517.11
415.11	517.11
415.318	392.19
415.526	510.97
415.734	564.22
415.943	453.63
416.151	646.13
416.359	553.98
416.567	513.02
416.776	627.7
416.984	639.99
417.192	721.91
417.4	683
417.608	588.79
417.817	586.74
418.025	683
418.233	764.92
418.441	775.16
418.649	732.15
418.857	891.89
419.065	873.46
419.273	756.72
419.481	912.37
419.689	996.34
419.897	932.85
420.105	961.52
420.313	1014.77
420.521	1121.26
420.729	1102.83
420.937	1174.51
421.145	1209.33
421.353	1180.65
421.561	1303.53
421.769	1305.58
421.977	1334.25
422.185	1332.2
422.393	1397.74
422.601	1420.27
422.809	1504.23
423.017	1457.13
423.224	1561.58
423.432	1676.26
423.64	1629.16
423.848	1815.52
424.056	1741.8
424.263	1842.15
424.471	1881.06
424.679	1934.31
424.887	1903.59
425.094	1948.64
425.302	2229.21
425.51	2051.04
425.718	2194.4
425.925	2366.43
426.133	2247.65
426.341	2513.88
426.548	2599.9
426.756	2550.75
426.964	2630.62
427.171	2788.31
427.379	2853.84
427.586	2784.21
427.794	2968.53
428.001	3079.12
428.209	3269.58
428.417	3052.5
428.624	3298.25
428.832	3402.7
429.039	3466.19
429.247	3408.84
429.454	3810.25
429.662	4074.43
429.869	3802.05
430.076	3969.99
430.284	3795.91
430.491	4058.05
430.699	4406.2
430.906	4268.99
431.114	4348.86
431.321	4613.05
431.528	4635.58
431.736	4932.53
431.943	5274.54
432.15	4826.04
432.358	5215.15
432.565	5278.64
432.772	5252.02
432.979	5536.68
433.187	5637.03
433.394	5837.73
433.601	6028.2
433.808	6073.25
434.016	6028.2
434.223	6312.86
434.43	6744.99
434.637	6740.89
434.844	7017.36
435.052	7158.67
435.259	6853.53
435.466	7107.48
435.673	7046.04
435.88	7498.64
436.087	7889.8
436.294	7895.94
436.501	7789.45
436.708	7799.69
436.915	8129.41
437.122	8608.64
437.329	8526.72
437.537	8577.92
437.743	8930.17
437.95	8698.75
438.157	9130.87
438.364	9673.58
438.571	9597.81
438.778	9610.09
438.985	10687.32
439.192	10138.47
439.399	10507.1
439.606	10210.15
439.813	10855.26
440.02	11430.74
440.227	11227.99
440.433	11213.65
440.64	11576.14
440.847	11375.44
441.054	11688.78
441.261	12446.53
441.467	12587.84
441.674	12487.49
441.881	13069.11
442.088	13044.54
442.294	12804.92
442.501	13124.41
442.708	13730.61
442.914	13984.55
443.121	14584.61
443.328	14263.08
443.534	15389.46
443.741	14664.48
443.948	14598.95
444.154	15749.9
444.361	15498
444.568	15780.62
444.774	15516.44
444.981	15887.12
445.187	16481.03
445.394	17101.56
445.6	16999.16
445.807	18488.04
446.013	17689.33
446.22	17842.93
446.426	18703.07
446.633	18918.11
446.839	19407.58
447.046	18832.1
447.252	19991.25
447.459	19907.28
447.665	19720.92
447.871	20615.88
448.078	21459.64
448.284	20624.07
448.491	21041.85
448.697	21928.63
448.903	22274.73
449.11	22549.16
449.316	22098.61
449.522	22332.08
449.728	23077.54
449.935	23126.69
450.141	23083.68
450.347	24113.81
450.553	23190.17
450.76	23419.55
450.966	24019.6
451.172	23675.54
451.378	24341.13
451.584	24052.37
451.791	24429.2
451.997	24429.2
452.203	25164.42
452.409	25240.19
452.615	24988.29
452.821	23706.26
453.027	23681.69
453.233	24701.58
453.44	24064.66
453.646	23972.5
453.852	23970.45
454.058	24570.51
454.264	23929.49
454.47	24361.61
454.676	23655.06
454.882	24857.22
455.088	22530.73
455.294	22762.15
455.5	23028.38
455.705	23325.34
455.911	22764.2
456.117	22002.35
456.323	21938.87
456.529	20527.81
456.735	21668.53
456.941	20822.72
457.147	20441.8
457.352	19995.34
457.558	19765.97
457.764	19512.02
457.97	19206.87
458.176	19051.23
458.381	18572
458.587	18379.5
458.793	18139.88
458.999	17134.33
459.204	18379.5
459.41	17767.15
459.616	16814.85
459.821	16542.47
460.027	16419.59
460.233	16212.74
460.438	15672.08
460.644	15586.07
460.85	14762.78
461.055	14449.44
461.261	14500.64
461.466	13488.95
461.672	13017.91
461.878	14189.35
462.083	13175.61
462.289	12772.16
462.494	12395.33
462.7	12217.16
462.905	11883.34
463.111	12229.45
463.316	12378.95
463.522	12133.19
463.727	11844.43
463.932	12075.85
464.138	11922.25
464.343	11916.11
464.549	11557.71
464.754	11893.58
464.959	11959.11
465.165	11717.45
465.37	11205.46
465.575	11121.49
465.781	11477.84
465.986	11522.9
466.191	11264.85
466.397	10726.24
466.602	10257.25
466.807	10664.8
467.012	10455.9
467.218	10769.24
467.423	10531.68
467.628	10713.95
467.833	10814.3
468.038	10636.13
468.244	10308.45
