Data from USB4F104151__30__12-23-43-726.txt Node

Date: Fri Mar 14 12:23:43 EDT 2025
User: louis
Spectrometer: USB4F10415
Trigger mode: 4
Integration Time (sec): 3.500000E-2
Scans to average: 1
Electric dark correction enabled: true
Nonlinearity correction enabled: false
Boxcar width: 0
XAxis mode: Wavelengths
Number of Pixels in Spectrum: 3648
>>>>>Begin Spectral Data<<<<<
178.204	-148.31
178.424	-148.31
178.644	-148.31
178.864	-152.4
179.084	-109.4
179.304	-15.19
179.524	-21.33
179.744	-41.81
179.964	25.77
180.184	-0.85
180.404	11.43
180.624	11.43
180.844	9.39
181.064	-45.91
181.283	17.58
181.503	-23.38
181.723	72.87
181.943	11.43
182.163	62.63
182.383	-52.05
182.602	17.58
182.822	74.92
183.042	58.54
183.262	-47.96
183.482	76.97
183.701	38.06
183.921	21.67
184.141	-17.24
184.361	44.2
184.58	44.2
184.8	42.15
185.02	-43.86
185.239	60.59
185.459	9.39
185.679	27.82
185.898	-54.1
186.118	19.63
186.338	13.48
186.557	68.78
186.777	11.43
186.997	9.39
187.216	5.29
187.436	36.01
187.655	38.06
187.875	87.21
188.095	11.43
188.314	111.78
188.534	11.43
188.753	48.3
188.973	74.92
189.192	60.59
189.412	40.11
189.631	27.82
189.851	15.53
190.07	93.35
190.29	-35.67
190.509	3.24
190.729	46.25
190.948	62.63
191.168	87.21
191.387	-17.24
191.607	-2.9
191.826	36.01
192.045	5.29
192.265	-2.9
192.484	60.59
192.704	-17.24
192.923	-21.33
193.142	142.5
193.362	-19.29
193.581	89.26
193.8	58.54
194.02	101.55
194.239	13.48
194.458	17.58
194.678	-27.48
194.897	19.63
195.116	-56.15
195.335	33.96
195.555	64.68
195.774	11.43
195.993	91.31
196.212	44.2
196.432	9.39
196.651	7.34
196.87	31.91
197.089	38.06
197.308	56.49
197.528	105.64
197.747	19.63
197.966	56.49
198.185	52.39
198.404	36.01
198.623	103.59
198.842	101.55
199.062	3.24
199.281	40.11
199.5	-35.67
199.719	60.59
199.938	74.92
200.157	-7
200.376	31.91
200.595	95.4
200.814	17.58
201.033	-41.81
201.252	-9.05
201.471	46.25
201.69	48.3
201.909	85.16
202.128	68.78
202.347	-21.33
202.566	7.34
202.785	56.49
203.004	40.11
203.223	95.4
203.442	5.29
203.661	68.78
203.879	25.77
204.098	50.35
204.317	-11.09
204.536	81.07
204.755	-13.14
204.974	95.4
205.193	-7
205.411	142.5
205.63	40.11
205.849	27.82
206.068	3.24
206.287	31.91
206.505	25.77
206.724	54.44
206.943	-27.48
207.162	31.91
207.381	95.4
207.599	29.87
207.818	17.58
208.037	-72.53
208.255	-15.19
208.474	38.06
208.693	46.25
208.911	72.87
209.13	134.31
209.349	33.96
209.567	50.35
209.786	33.96
210.005	25.77
210.223	5.29
210.442	7.34
210.661	62.63
210.879	-43.86
211.098	23.72
211.316	60.59
211.535	54.44
211.753	9.39
211.972	-19.29
212.191	-15.19
212.409	3.24
212.628	-2.9
212.846	-11.09
213.065	21.67
213.283	101.55
213.502	9.39
213.72	60.59
213.938	15.53
214.157	36.01
214.375	-2.9
214.594	29.87
214.812	46.25
215.031	68.78
215.249	-37.72
215.467	19.63
215.686	29.87
215.904	119.98
216.122	52.39
216.341	52.39
216.559	54.44
216.778	72.87
216.996	66.73
217.214	3.24
217.432	5.29
217.651	79.02
217.869	48.3
218.087	27.82
218.306	9.39
218.524	33.96
218.742	17.58
218.96	15.53
219.179	91.31
219.397	25.77
219.615	74.92
219.833	21.67
220.051	46.25
220.27	76.97
220.488	95.4
220.706	70.83
220.924	62.63
221.142	-0.85
221.36	1.19
221.578	83.11
221.796	52.39
222.015	-29.52
222.233	68.78
222.451	-0.85
222.669	-19.29
222.887	-45.91
223.105	-25.43
223.323	3.24
223.541	-0.85
223.759	79.02
223.977	19.63
224.195	50.35
224.413	42.15
224.631	54.44
224.849	17.58
225.067	62.63
225.285	-78.68
225.503	70.83
225.721	-29.52
225.939	13.48
226.157	54.44
226.375	144.55
226.592	-41.81
226.81	-0.85
227.028	115.88
227.246	89.26
227.464	85.16
227.682	113.83
227.9	33.96
228.117	89.26
228.335	29.87
228.553	19.63
228.771	19.63
228.989	87.21
229.206	1.19
229.424	87.21
229.642	50.35
229.86	-41.81
230.077	81.07
230.295	81.07
230.513	46.25
230.731	33.96
230.948	48.3
231.166	101.55
231.384	29.87
231.601	17.58
231.819	7.34
232.037	-4.95
232.254	-72.53
232.472	29.87
232.689	-9.05
232.907	62.63
233.125	-33.62
233.342	-19.29
233.56	-50
233.777	42.15
233.995	-27.48
234.213	66.73
234.43	87.21
234.648	89.26
234.865	27.82
235.083	103.59
235.3	58.54
235.518	31.91
235.735	62.63
235.953	36.01
236.17	40.11
236.388	-4.95
236.605	91.31
236.822	50.35
237.04	31.91
237.257	-13.14
237.475	46.25
237.692	-2.9
237.909	36.01
238.127	70.83
238.344	15.53
238.562	95.4
238.779	-56.15
238.996	1.19
239.214	-60.24
239.431	109.74
239.648	-2.9
239.865	21.67
240.083	17.58
240.3	50.35
240.517	29.87
240.735	19.63
240.952	44.2
241.169	74.92
241.386	56.49
241.603	-17.24
241.821	-13.14
242.038	21.67
242.255	5.29
242.472	46.25
242.689	5.29
242.907	72.87
243.124	42.15
243.341	52.39
243.558	60.59
243.775	66.73
243.992	7.34
244.209	-17.24
244.426	95.4
244.643	62.63
244.86	46.25
245.078	36.01
245.295	3.24
245.512	48.3
245.729	7.34
245.946	-39.76
246.163	-7
246.38	11.43
246.597	9.39
246.814	79.02
247.031	-31.57
247.248	36.01
247.464	-4.95
247.681	9.39
247.898	38.06
248.115	27.82
248.332	11.43
248.549	107.69
248.766	105.64
248.983	132.26
249.2	-33.62
249.417	109.74
249.633	23.72
249.85	38.06
250.067	-43.86
250.284	-9.05
250.501	3.24
250.717	107.69
250.934	-39.76
251.151	76.97
251.368	-17.24
251.585	50.35
251.801	21.67
252.018	-41.81
252.235	7.34
252.451	54.44
252.668	5.29
252.885	109.74
253.102	7.34
253.318	-9.05
253.535	15.53
253.752	-50
253.968	-45.91
254.185	-21.33
254.401	13.48
254.618	-23.38
254.835	1.19
255.051	50.35
255.268	76.97
255.484	-17.24
255.701	72.87
255.917	66.73
256.134	42.15
256.351	62.63
256.567	9.39
256.784	48.3
257	27.82
257.217	17.58
257.433	3.24
257.65	19.63
257.866	36.01
258.082	-15.19
258.299	-39.76
258.515	70.83
258.732	-25.43
258.948	25.77
259.165	60.59
259.381	-0.85
259.597	122.02
259.814	99.5
260.03	27.82
260.246	-15.19
260.463	-27.48
260.679	89.26
260.895	99.5
261.112	91.31
261.328	-13.14
261.544	-2.9
261.761	29.87
261.977	68.78
262.193	-9.05
262.409	58.54
262.626	60.59
262.842	9.39
263.058	-9.05
263.274	-23.38
263.49	11.43
263.707	83.11
263.923	66.73
264.139	-13.14
264.355	42.15
264.571	74.92
264.787	13.48
265.004	36.01
265.22	-7
265.436	74.92
265.652	1.19
265.868	25.77
266.084	-11.09
266.3	50.35
266.516	-76.63
266.732	46.25
266.948	3.24
267.164	46.25
267.38	-11.09
267.596	36.01
267.812	48.3
268.028	33.96
268.244	3.24
268.46	-11.09
268.676	33.96
268.892	19.63
269.108	19.63
269.324	1.19
269.54	-19.29
269.756	140.46
269.972	17.58
270.188	19.63
270.403	-0.85
270.619	3.24
270.835	95.4
271.051	-58.2
271.267	-7
271.483	9.39
271.698	50.35
271.914	62.63
272.13	91.31
272.346	-29.52
272.562	-17.24
272.777	38.06
272.993	76.97
273.209	-7
273.425	11.43
273.64	-15.19
273.856	105.64
274.072	36.01
274.287	-2.9
274.503	97.45
274.719	85.16
274.934	-76.63
275.15	-37.72
275.366	-2.9
275.581	81.07
275.797	-9.05
276.012	70.83
276.228	21.67
276.444	46.25
276.659	-13.14
276.875	-41.81
277.09	5.29
277.306	-50
277.521	95.4
277.737	36.01
277.952	52.39
278.168	23.72
278.383	27.82
278.599	54.44
278.814	31.91
279.03	5.29
279.245	95.4
279.461	15.53
279.676	7.34
279.892	23.72
280.107	-37.72
280.322	-9.05
280.538	-2.9
280.753	23.72
280.969	31.91
281.184	17.58
281.399	33.96
281.615	27.82
281.83	60.59
282.045	-47.96
282.26	64.68
282.476	9.39
282.691	21.67
282.906	62.63
283.122	50.35
283.337	54.44
283.552	36.01
283.767	23.72
283.983	46.25
284.198	-7
284.413	83.11
284.628	1.19
284.843	-29.52
285.058	68.78
285.274	-21.33
285.489	-9.05
285.704	130.22
285.919	91.31
286.134	64.68
286.349	13.48
286.564	-50
286.779	36.01
286.995	60.59
287.21	-27.48
287.425	36.01
287.64	-4.95
287.855	-7
288.07	23.72
288.285	56.49
288.5	36.01
288.715	36.01
288.93	52.39
289.145	-7
289.36	54.44
289.575	62.63
289.79	60.59
290.004	36.01
290.219	17.58
290.434	58.54
290.649	-0.85
290.864	31.91
291.079	74.92
291.294	-31.57
291.509	-15.19
291.724	91.31
291.938	-21.33
292.153	109.74
292.368	36.01
292.583	1.19
292.798	91.31
293.012	29.87
293.227	40.11
293.442	42.15
293.657	3.24
293.871	-9.05
294.086	-13.14
294.301	72.87
294.516	42.15
294.73	38.06
294.945	-56.15
295.16	13.48
295.374	-29.52
295.589	154.79
295.804	25.77
296.018	44.2
296.233	-2.9
296.447	81.07
296.662	40.11
296.877	93.35
297.091	48.3
297.306	29.87
297.52	38.06
297.735	87.21
297.949	15.53
298.164	9.39
298.378	7.34
298.593	31.91
298.807	-7
299.022	25.77
299.236	29.87
299.451	40.11
299.665	72.87
299.88	-4.95
300.094	136.36
300.309	-54.1
300.523	99.5
300.737	13.48
300.952	85.16
301.166	17.58
301.381	33.96
301.595	42.15
301.809	-7
302.024	27.82
302.238	-80.72
302.452	15.53
302.667	-17.24
302.881	132.26
303.095	-9.05
303.309	58.54
303.524	-41.81
303.738	-56.15
303.952	-27.48
304.166	72.87
304.381	-27.48
304.595	52.39
304.809	-9.05
305.023	25.77
305.237	-31.57
305.452	-68.44
305.666	21.67
305.88	7.34
306.094	89.26
306.308	36.01
306.522	89.26
306.736	52.39
306.95	38.06
307.164	23.72
307.379	21.67
307.593	46.25
307.807	105.64
308.021	62.63
308.235	40.11
308.449	-25.43
308.663	46.25
308.877	76.97
309.091	50.35
309.305	89.26
309.519	-45.91
309.733	56.49
309.947	-33.62
310.161	111.78
310.374	60.59
310.588	21.67
310.802	25.77
311.016	-43.86
311.23	-27.48
311.444	11.43
311.658	74.92
311.872	103.59
312.085	11.43
312.299	68.78
312.513	79.02
312.727	62.63
312.941	17.58
313.154	-17.24
313.368	-7
313.582	36.01
313.796	17.58
314.009	25.77
314.223	79.02
314.437	64.68
314.651	23.72
314.864	-11.09
315.078	21.67
315.292	31.91
315.505	11.43
315.719	31.91
315.933	54.44
316.146	-0.85
316.36	117.93
316.573	111.78
316.787	76.97
317.001	-33.62
317.214	79.02
317.428	-11.09
317.641	-45.91
317.855	48.3
318.068	-33.62
318.282	3.24
318.495	132.26
318.709	62.63
318.922	31.91
319.136	99.5
319.349	66.73
319.563	15.53
319.776	1.19
319.99	-2.9
320.203	79.02
320.417	117.93
320.63	5.29
320.843	79.02
321.057	72.87
321.27	70.83
321.483	89.26
321.697	183.46
321.91	21.67
322.124	64.68
322.337	17.58
322.55	21.67
322.763	68.78
322.977	52.39
323.19	-9.05
323.403	44.2
323.617	56.49
323.83	29.87
324.043	54.44
324.256	15.53
324.469	-21.33
324.683	70.83
324.896	54.44
325.109	23.72
325.322	-52.05
325.535	11.43
325.748	36.01
325.962	-11.09
326.175	66.73
326.388	23.72
326.601	-4.95
326.814	42.15
327.027	9.39
327.24	13.48
327.453	-7
327.666	27.82
327.879	74.92
328.092	29.87
328.305	72.87
328.518	-0.85
328.731	46.25
328.944	115.88
329.157	5.29
329.37	27.82
329.583	111.78
329.796	113.83
330.009	-43.86
330.222	40.11
330.435	124.07
330.648	62.63
330.861	46.25
331.073	79.02
331.286	23.72
331.499	56.49
331.712	40.11
331.925	81.07
332.138	3.24
332.35	83.11
332.563	-56.15
332.776	83.11
332.989	-47.96
333.202	25.77
333.414	1.19
333.627	38.06
333.84	15.53
334.053	70.83
334.265	-2.9
334.478	15.53
334.691	1.19
334.903	33.96
335.116	-4.95
335.329	105.64
335.541	103.59
335.754	138.41
335.966	-15.19
336.179	21.67
336.392	81.07
336.604	23.72
336.817	68.78
337.029	5.29
337.242	-9.05
337.454	-11.09
337.667	1.19
337.88	85.16
338.092	79.02
338.305	68.78
338.517	38.06
338.729	70.83
338.942	81.07
339.154	-13.14
339.367	93.35
339.579	11.43
339.792	-17.24
340.004	23.72
340.217	29.87
340.429	19.63
340.641	31.91
340.854	-23.38
341.066	33.96
341.278	76.97
341.491	126.12
341.703	3.24
341.915	-7
342.128	33.96
342.34	-64.34
342.552	36.01
342.764	-33.62
342.977	-11.09
343.189	68.78
343.401	60.59
343.613	15.53
343.826	13.48
344.038	3.24
344.25	38.06
344.462	93.35
344.674	46.25
344.886	68.78
345.099	97.45
345.311	68.78
345.523	15.53
345.735	-11.09
345.947	21.67
346.159	62.63
346.371	-9.05
346.583	27.82
346.795	19.63
347.007	76.97
347.219	-39.76
347.431	-13.14
347.643	50.35
347.855	-7
348.067	68.78
348.279	7.34
348.491	-4.95
348.703	-52.05
348.915	33.96
349.127	38.06
349.339	66.73
349.551	42.15
349.763	46.25
349.975	62.63
350.187	64.68
350.399	66.73
350.61	60.59
350.822	31.91
351.034	103.59
351.246	21.67
351.458	70.83
351.669	13.48
351.881	72.87
352.093	-2.9
352.305	42.15
352.517	91.31
352.728	83.11
352.94	42.15
353.152	7.34
353.363	-19.29
353.575	50.35
353.787	58.54
353.999	-9.05
354.21	87.21
354.422	-62.29
354.633	25.77
354.845	103.59
355.057	-33.62
355.268	21.67
355.48	85.16
355.692	64.68
355.903	40.11
356.115	17.58
356.326	-9.05
356.538	29.87
356.749	99.5
356.961	19.63
357.172	46.25
357.384	9.39
357.595	81.07
357.807	-13.14
358.018	-0.85
358.23	46.25
358.441	68.78
358.653	68.78
358.864	33.96
359.075	-9.05
359.287	-21.33
359.498	79.02
359.709	29.87
359.921	15.53
360.132	60.59
360.344	89.26
360.555	38.06
360.766	56.49
360.977	50.35
361.189	87.21
361.4	-19.29
361.611	-17.24
361.823	50.35
362.034	83.11
362.245	3.24
362.456	25.77
362.667	-31.57
362.879	-19.29
363.09	27.82
363.301	101.55
363.512	19.63
363.723	38.06
363.935	9.39
364.146	46.25
364.357	44.2
364.568	62.63
364.779	-13.14
364.99	81.07
365.201	-39.76
365.412	44.2
365.623	9.39
365.834	3.24
366.045	11.43
366.256	70.83
366.467	46.25
366.678	-37.72
366.889	-52.05
367.1	27.82
367.311	40.11
367.522	52.39
367.733	15.53
367.944	70.83
368.155	27.82
368.366	15.53
368.577	140.46
368.788	-58.2
368.999	64.68
369.209	-0.85
369.42	72.87
369.631	52.39
369.842	33.96
370.053	58.54
370.264	15.53
370.474	-4.95
370.685	76.97
370.896	27.82
371.107	58.54
371.317	-13.14
371.528	-4.95
371.739	83.11
371.95	50.35
372.16	52.39
372.371	5.29
372.582	50.35
372.792	56.49
373.003	103.59
373.214	115.88
373.424	124.07
373.635	15.53
373.846	54.44
374.056	66.73
374.267	48.3
374.477	-64.34
374.688	13.48
374.898	74.92
375.109	1.19
375.319	27.82
375.53	64.68
375.74	115.88
375.951	89.26
376.161	46.25
376.372	54.44
376.582	23.72
376.793	101.55
377.003	7.34
377.214	64.68
377.424	48.3
377.635	97.45
377.845	76.97
378.055	97.45
378.266	13.48
378.476	99.5
378.686	50.35
378.897	-35.67
379.107	68.78
379.317	46.25
379.528	-4.95
379.738	52.39
379.948	-7
380.158	15.53
380.369	50.35
380.579	79.02
380.789	29.87
380.999	54.44
381.21	74.92
381.42	105.64
381.63	15.53
381.84	103.59
382.05	50.35
382.261	52.39
382.471	89.26
382.681	146.6
382.891	81.07
383.101	72.87
383.311	1.19
383.521	23.72
383.731	27.82
383.941	72.87
384.151	31.91
384.361	58.54
384.571	13.48
384.781	-7
384.991	87.21
385.201	-0.85
385.411	85.16
385.621	21.67
385.831	70.83
386.041	7.34
386.251	19.63
386.461	-15.19
386.671	97.45
386.881	-13.14
387.091	68.78
387.301	87.21
387.511	95.4
387.72	5.29
387.93	103.59
388.14	44.2
388.35	74.92
388.56	95.4
388.769	119.98
388.979	19.63
389.189	44.2
389.399	33.96
389.609	48.3
389.818	95.4
390.028	38.06
390.238	25.77
390.447	36.01
390.657	160.94
390.867	46.25
391.076	87.21
391.286	81.07
391.496	-7
391.705	44.2
391.915	15.53
392.125	119.98
392.334	42.15
392.544	177.32
392.753	46.25
392.963	1.19
393.172	38.06
393.382	40.11
393.591	89.26
393.801	48.3
394.01	74.92
394.22	76.97
394.429	42.15
394.639	81.07
394.848	150.7
395.058	105.64
395.267	113.83
395.477	115.88
395.686	58.54
395.895	148.65
396.105	70.83
396.314	117.93
396.524	128.17
396.733	36.01
396.942	99.5
397.152	95.4
397.361	52.39
397.57	52.39
397.78	99.5
397.989	79.02
398.198	138.41
398.407	60.59
398.617	38.06
398.826	124.07
399.035	46.25
399.244	138.41
399.453	144.55
399.663	33.96
399.872	76.97
400.081	76.97
400.29	150.7
400.499	21.67
400.708	128.17
400.917	136.36
401.127	56.49
401.336	64.68
401.545	169.13
401.754	89.26
401.963	208.04
402.172	85.16
402.381	50.35
402.59	85.16
402.799	119.98
403.008	107.69
403.217	74.92
403.426	99.5
403.635	103.59
403.844	79.02
404.053	79.02
404.262	132.26
404.471	199.85
404.68	113.83
404.888	171.18
405.097	111.78
405.306	99.5
405.515	187.56
405.724	122.02
405.933	173.22
406.142	117.93
406.35	107.69
406.559	150.7
406.768	99.5
406.977	208.04
407.185	173.22
407.394	162.98
407.603	173.22
407.812	146.6
408.02	160.94
408.229	199.85
408.438	191.66
408.646	152.74
408.855	175.27
409.064	197.8
409.272	177.32
409.481	156.84
409.69	259.24
409.898	187.56
410.107	232.62
410.315	289.96
410.524	244.9
410.733	205.99
410.941	214.18
411.15	292.01
411.358	273.57
411.567	298.15
411.775	318.63
411.984	404.64
412.192	300.2
412.401	339.11
412.609	320.68
412.818	392.36
413.026	398.5
413.234	337.06
413.443	375.97
413.651	464.04
413.86	367.78
414.068	498.85
414.276	537.76
414.485	455.84
414.693	437.41
414.901	580.77
415.11	470.18
415.318	433.32
415.526	548
415.734	591.01
415.943	562.34
416.151	629.92
416.359	582.82
416.567	707.74
416.776	744.61
416.984	746.66
417.192	744.61
417.4	722.08
417.608	742.56
417.817	789.66
418.025	795.81
418.233	791.71
418.441	791.71
418.649	873.63
418.857	869.53
419.065	980.12
419.273	941.21
419.481	924.83
419.689	992.41
419.897	1115.29
420.105	1131.67
420.313	1215.64
420.521	1182.87
420.729	1178.78
420.937	1320.09
421.145	1270.94
421.353	1389.72
421.561	1449.11
421.769	1514.64
421.977	1479.83
422.185	1424.53
422.393	1612.95
422.601	1635.47
422.809	1655.95
423.017	1639.57
423.224	1696.91
423.432	1854.61
423.64	1821.84
423.848	2028.68
424.056	1825.93
424.263	2186.38
424.471	2067.6
424.679	2102.41
424.887	2256.01
425.094	2317.45
425.302	2188.43
425.51	2419.85
425.718	2559.11
425.925	2507.91
426.133	2536.58
426.341	2866.3
426.548	2806.91
426.756	2870.4
426.964	2831.49
427.171	3110.01
427.379	3200.12
427.586	3191.93
427.794	3427.45
428.001	3552.37
428.209	3744.88
428.417	3650.67
428.624	3921.01
428.832	3867.76
429.039	3861.62
429.247	3708.02
429.454	4146.28
429.662	4342.89
429.869	4105.32
430.076	4344.94
430.284	4387.94
430.491	4529.25
430.699	4863.07
430.906	4809.83
431.114	4797.54
431.321	5119.07
431.528	5194.84
431.736	5352.54
431.943	5778.51
432.15	5559.38
432.358	5690.45
432.565	5827.67
432.772	5870.67
432.979	6120.53
433.187	6186.06
433.394	6278.22
433.601	6659.14
433.808	6765.64
434.016	6667.33
434.223	7056.45
434.43	7330.87
434.637	7488.57
434.844	7892.02
435.052	8027.18
435.259	7926.83
435.466	7984.18
435.673	7748.66
435.88	8449.07
436.087	8768.55
436.294	8901.67
436.501	8496.17
436.708	8907.81
436.915	8926.24
437.122	9415.71
437.329	9362.46
437.537	9868.31
437.743	9956.37
437.95	9671.7
438.157	10652.68
438.364	10849.29
438.571	10783.75
438.778	10793.99
438.985	11895.8
439.192	11316.22
439.399	11674.62
439.606	11262.97
439.813	11858.93
440.02	12770.28
440.227	12356.59
440.433	12491.76
440.64	13065.19
440.847	12819.43
441.054	13188.07
441.261	13890.52
441.467	13487.07
441.674	14076.88
441.881	14504.91
442.088	14341.07
442.294	14635.98
442.501	14955.46
442.708	15027.14
442.914	15819.71
443.121	16362.42
443.328	16067.51
443.534	17204.13
443.741	16460.72
443.948	16235.44
444.154	17537.95
444.361	17556.38
444.568	17619.87
444.774	17617.82
444.981	17851.29
445.187	18498.45
445.394	19053.45
445.6	19065.74
445.807	20478.83
446.013	19858.3
446.22	20169.59
446.426	21027.69
446.633	21263.21
446.839	22033.24
447.046	21338.98
447.252	21992.28
447.459	22037.34
447.665	22274.9
447.871	23024.46
448.078	24187.71
448.284	22965.07
448.491	23466.82
448.697	24697.65
448.903	24873.78
449.11	25047.85
449.316	24390.45
449.522	24974.13
449.728	25838.37
449.935	26028.83
450.141	26166.04
450.347	26571.54
450.553	25703.2
450.76	25850.66
450.966	26706.71
451.172	26438.42
451.378	27159.31
451.584	26594.07
451.791	27284.23
451.997	27284.23
452.203	27806.47
452.409	27689.73
452.615	27583.24
452.821	26473.24
453.027	26110.75
453.233	27462.41
453.44	26422.04
453.646	26878.74
453.852	27079.44
454.058	27149.07
454.264	26354.46
454.47	27048.72
454.676	26215.19
454.882	27237.13
455.088	25002.8
455.294	25123.63
455.5	25436.97
455.705	25719.59
455.911	24875.82
456.117	24718.13
456.323	24181.56
456.529	22788.94
456.735	23767.87
456.941	23182.15
457.147	22639.44
457.352	22225.75
457.558	21986.14
457.764	21781.34
457.97	21488.48
458.176	20913
458.381	21064.55
458.587	19962.75
458.793	19620.74
458.999	18754.44
459.204	20188.02
459.41	19555.2
459.616	18367.38
459.821	18283.41
460.027	18176.92
460.233	17980.31
460.438	17073.06
460.644	17089.45
460.85	16452.53
461.055	16280.5
461.261	16184.24
461.466	14760.91
461.672	14296.02
461.878	15389.63
462.083	14427.09
462.289	13984.73
462.494	14210
462.7	13323.23
462.905	13116.39
463.111	13544.41
463.316	13571.04
463.522	13085.67
463.727	13104.1
463.932	13122.53
464.138	12948.45
464.343	13120.48
464.549	12782.57
464.754	13155.3
464.959	12919.78
465.165	13024.23
465.37	12362.73
465.575	12102.64
465.781	12532.72
465.986	12588.01
466.191	12297.2
466.397	11850.74
466.602	11303.93
466.807	11955.19
467.012	11809.78
467.218	11691
467.423	11703.29
467.628	11793.4
467.833	12131.31
468.038	11766.78
468.244	11328.51
