Data from USB4F104151__22__12-23-32-667.txt Node

Date: Fri Mar 14 12:23:32 EDT 2025
User: louis
Spectrometer: USB4F10415
Trigger mode: 4
Integration Time (sec): 3.500000E-2
Scans to average: 1
Electric dark correction enabled: true
Nonlinearity correction enabled: false
Boxcar width: 0
XAxis mode: Wavelengths
Number of Pixels in Spectrum: 3648
>>>>>Begin Spectral Data<<<<<
178.204	-167.42
178.424	-167.42
178.644	-167.42
178.864	-89.6
179.084	-122.37
179.304	-52.74
179.524	-36.35
179.744	20.99
179.964	23.04
180.184	43.52
180.404	-5.63
180.624	16.9
180.844	57.86
181.064	-1.54
181.283	-73.21
181.503	6.66
181.723	0.51
181.943	29.18
182.163	127.49
182.383	16.9
182.602	61.95
182.822	-24.06
183.042	41.47
183.262	84.48
183.482	82.43
183.701	4.61
183.921	70.14
184.141	27.14
184.361	53.76
184.58	4.61
184.8	74.24
185.02	31.23
185.239	82.43
185.459	35.33
185.679	111.1
185.898	-1.54
186.118	47.62
186.338	82.43
186.557	98.81
186.777	78.33
186.997	43.52
187.216	-7.68
187.436	119.29
187.655	45.57
187.875	88.57
188.095	14.85
188.314	43.52
188.534	102.91
188.753	70.14
188.973	35.33
189.192	88.57
189.412	29.18
189.631	94.72
189.851	23.04
190.07	129.53
190.29	76.29
190.509	53.76
190.729	-44.54
190.948	80.38
191.168	182.78
191.387	74.24
191.607	41.47
191.826	31.23
192.045	39.42
192.265	8.7
192.484	-1.54
192.704	-22.02
192.923	37.38
193.142	133.63
193.362	84.48
193.581	23.04
193.8	18.94
194.02	84.48
194.239	8.7
194.458	64
194.678	-3.58
194.897	123.39
195.116	80.38
195.335	16.9
195.555	0.51
195.774	45.57
195.993	35.33
196.212	45.57
196.432	47.62
196.651	55.81
196.87	20.99
197.089	107.01
197.308	27.14
197.528	82.43
197.747	-17.92
197.966	102.91
198.185	100.86
198.404	-36.35
198.623	113.15
198.842	80.38
199.062	55.81
199.281	107.01
199.5	86.53
199.719	64
199.938	43.52
200.157	8.7
200.376	14.85
200.595	12.8
200.814	68.09
201.033	61.95
201.252	117.25
201.471	59.9
201.69	76.29
201.909	41.47
202.128	84.48
202.347	6.66
202.566	37.38
202.785	55.81
203.004	18.94
203.223	158.21
203.442	76.29
203.661	-3.58
203.879	45.57
204.098	104.96
204.317	-7.68
204.536	80.38
204.755	68.09
204.974	76.29
205.193	41.47
205.411	53.76
205.63	84.48
205.849	78.33
206.068	92.67
206.287	39.42
206.505	64
206.724	64
206.943	55.81
207.162	18.94
207.381	29.18
207.599	8.7
207.818	18.94
208.037	47.62
208.255	12.8
208.474	-3.58
208.693	84.48
208.911	33.28
209.13	37.38
209.349	94.72
209.567	23.04
209.786	96.77
210.005	51.71
210.223	68.09
210.442	-32.26
210.661	14.85
210.879	92.67
211.098	35.33
211.316	49.66
211.535	51.71
211.753	39.42
211.972	72.19
212.191	20.99
212.409	64
212.628	84.48
212.846	37.38
213.065	64
213.283	45.57
213.502	104.96
213.72	12.8
213.938	51.71
214.157	49.66
214.375	49.66
214.594	27.14
214.812	57.86
215.031	111.1
215.249	25.09
215.467	27.14
215.686	-30.21
215.904	88.57
216.122	45.57
216.341	94.72
216.559	133.63
216.778	47.62
216.996	33.28
217.214	20.99
217.432	25.09
217.651	12.8
217.869	51.71
218.087	-15.87
218.306	74.24
218.524	92.67
218.742	-1.54
218.96	94.72
219.179	-9.73
219.397	29.18
219.615	150.01
219.833	55.81
220.051	70.14
220.27	76.29
220.488	37.38
220.706	53.76
220.924	61.95
221.142	-15.87
221.36	45.57
221.578	111.1
221.796	109.05
222.015	6.66
222.233	23.04
222.451	78.33
222.669	-46.59
222.887	90.62
223.105	37.38
223.323	47.62
223.541	33.28
223.759	55.81
223.977	2.56
224.195	74.24
224.413	70.14
224.631	51.71
224.849	33.28
225.067	137.73
225.285	-22.02
225.503	47.62
225.721	43.52
225.939	-36.35
226.157	31.23
226.375	154.11
226.592	29.18
226.81	64
227.028	45.57
227.246	64
227.464	70.14
227.682	80.38
227.9	43.52
228.117	59.9
228.335	104.96
228.553	125.44
228.771	57.86
228.989	72.19
229.206	125.44
229.424	23.04
229.642	-1.54
229.86	33.28
230.077	88.57
230.295	68.09
230.513	27.14
230.731	27.14
230.948	113.15
231.166	35.33
231.384	-5.63
231.601	107.01
231.819	115.2
232.037	68.09
232.254	104.96
232.472	51.71
232.689	39.42
232.907	100.86
233.125	107.01
233.342	29.18
233.56	61.95
233.777	16.9
233.995	45.57
234.213	23.04
234.43	111.1
234.648	-38.4
234.865	37.38
235.083	84.48
235.3	-17.92
235.518	37.38
235.735	143.87
235.953	80.38
236.17	78.33
236.388	41.47
236.605	74.24
236.822	90.62
237.04	127.49
237.257	27.14
237.475	64
237.692	86.53
237.909	29.18
238.127	64
238.344	61.95
238.562	10.75
238.779	31.23
238.996	33.28
239.214	41.47
239.431	117.25
239.648	43.52
239.865	51.71
240.083	61.95
240.3	96.77
240.517	-17.92
240.735	100.86
240.952	0.51
241.169	78.33
241.386	16.9
241.603	4.61
241.821	45.57
242.038	49.66
242.255	53.76
242.472	55.81
242.689	37.38
242.907	129.53
243.124	-1.54
243.341	-1.54
243.558	104.96
243.775	64
243.992	20.99
244.209	88.57
244.426	68.09
244.643	76.29
244.86	57.86
245.078	102.91
245.295	90.62
245.512	16.9
245.729	14.85
245.946	51.71
246.163	61.95
246.38	37.38
246.597	16.9
246.814	-32.26
247.031	-9.73
247.248	61.95
247.464	70.14
247.681	14.85
247.898	66.05
248.115	55.81
248.332	59.9
248.549	16.9
248.766	139.77
248.983	72.19
249.2	31.23
249.417	68.09
249.633	27.14
249.85	64
250.067	68.09
250.284	88.57
250.501	35.33
250.717	104.96
250.934	70.14
251.151	47.62
251.368	27.14
251.585	4.61
251.801	129.53
252.018	76.29
252.235	53.76
252.451	76.29
252.668	70.14
252.885	107.01
253.102	72.19
253.318	119.29
253.535	0.51
253.752	-19.97
253.968	35.33
254.185	92.67
254.401	51.71
254.618	104.96
254.835	-46.59
255.051	90.62
255.268	70.14
255.484	-40.45
255.701	72.19
255.917	98.81
256.134	70.14
256.351	39.42
256.567	64
256.784	-15.87
257	16.9
257.217	80.38
257.433	45.57
257.65	92.67
257.866	92.67
258.082	-22.02
258.299	-13.82
258.515	-3.58
258.732	-30.21
258.948	57.86
259.165	2.56
259.381	59.9
259.597	66.05
259.814	109.05
260.03	10.75
260.246	43.52
260.463	-5.63
260.679	27.14
260.895	18.94
261.112	6.66
261.328	25.09
261.544	51.71
261.761	57.86
261.977	35.33
262.193	12.8
262.409	102.91
262.626	31.23
262.842	66.05
263.058	-5.63
263.274	-7.68
263.49	61.95
263.707	-7.68
263.923	35.33
264.139	-44.54
264.355	154.11
264.571	64
264.787	37.38
265.004	113.15
265.22	-36.35
265.436	-15.87
265.652	29.18
265.868	64
266.084	41.47
266.3	41.47
266.516	-28.16
266.732	0.51
266.948	53.76
267.164	61.95
267.38	131.58
267.596	8.7
267.812	135.68
268.028	102.91
268.244	-13.82
268.46	35.33
268.676	47.62
268.892	2.56
269.108	-52.74
269.324	80.38
269.54	84.48
269.756	123.39
269.972	31.23
270.188	39.42
270.403	8.7
270.619	94.72
270.835	14.85
271.051	37.38
271.267	64
271.483	0.51
271.698	96.77
271.914	-28.16
272.13	76.29
272.346	119.29
272.562	70.14
272.777	59.9
272.993	43.52
273.209	25.09
273.425	47.62
273.64	66.05
273.856	25.09
274.072	64
274.287	39.42
274.503	53.76
274.719	68.09
274.934	92.67
275.15	31.23
275.366	14.85
275.581	82.43
275.797	135.68
276.012	35.33
276.228	27.14
276.444	20.99
276.659	88.57
276.875	-32.26
277.09	61.95
277.306	20.99
277.521	47.62
277.737	-7.68
277.952	147.97
278.168	10.75
278.383	31.23
278.599	137.73
278.814	31.23
279.03	66.05
279.245	66.05
279.461	41.47
279.676	76.29
279.892	27.14
280.107	57.86
280.322	6.66
280.538	66.05
280.753	-32.26
280.969	16.9
281.184	2.56
281.399	37.38
281.615	76.29
281.83	55.81
282.045	86.53
282.26	55.81
282.476	0.51
282.691	51.71
282.906	72.19
283.122	131.58
283.337	82.43
283.552	143.87
283.767	2.56
283.983	68.09
284.198	59.9
284.413	57.86
284.628	64
284.843	45.57
285.058	78.33
285.274	113.15
285.489	96.77
285.704	98.81
285.919	29.18
286.134	102.91
286.349	20.99
286.564	49.66
286.779	43.52
286.995	70.14
287.21	-15.87
287.425	-40.45
287.64	4.61
287.855	45.57
288.07	6.66
288.285	102.91
288.5	111.1
288.715	78.33
288.93	123.39
289.145	61.95
289.36	88.57
289.575	14.85
289.79	49.66
290.004	104.96
290.219	-1.54
290.434	39.42
290.649	49.66
290.864	66.05
291.079	14.85
291.294	35.33
291.509	88.57
291.724	51.71
291.938	18.94
292.153	51.71
292.368	35.33
292.583	59.9
292.798	49.66
293.012	113.15
293.227	14.85
293.442	70.14
293.657	68.09
293.871	78.33
294.086	129.53
294.301	143.87
294.516	59.9
294.73	78.33
294.945	80.38
295.16	35.33
295.374	113.15
295.589	131.58
295.804	72.19
296.018	154.11
296.233	121.34
296.447	111.1
296.662	-3.58
296.877	49.66
297.091	86.53
297.306	-15.87
297.52	64
297.735	94.72
297.949	2.56
298.164	90.62
298.378	55.81
298.593	14.85
298.807	6.66
299.022	29.18
299.236	4.61
299.451	45.57
299.665	72.19
299.88	86.53
300.094	-22.02
300.309	12.8
300.523	0.51
300.737	16.9
300.952	66.05
301.166	64
301.381	18.94
301.595	84.48
301.809	20.99
302.024	57.86
302.238	-24.06
302.452	55.81
302.667	51.71
302.881	113.15
303.095	55.81
303.309	76.29
303.524	53.76
303.738	41.47
303.952	-5.63
304.166	41.47
304.381	-71.17
304.595	104.96
304.809	41.47
305.023	25.09
305.237	-36.35
305.452	-42.5
305.666	86.53
305.88	68.09
306.094	84.48
306.308	84.48
306.522	74.24
306.736	47.62
306.95	43.52
307.164	84.48
307.379	-13.82
307.593	82.43
307.807	80.38
308.021	25.09
308.235	41.47
308.449	37.38
308.663	23.04
308.877	80.38
309.091	88.57
309.305	-1.54
309.519	-9.73
309.733	92.67
309.947	6.66
310.161	86.53
310.374	72.19
310.588	39.42
310.802	27.14
311.016	94.72
311.23	64
311.444	70.14
311.658	16.9
311.872	74.24
312.085	125.44
312.299	45.57
312.513	53.76
312.727	-28.16
312.941	-30.21
313.154	90.62
313.368	14.85
313.582	35.33
313.796	29.18
314.009	49.66
314.223	117.25
314.437	39.42
314.651	158.21
314.864	57.86
315.078	51.71
315.292	27.14
315.505	-15.87
315.719	139.77
315.933	45.57
316.146	31.23
316.36	2.56
316.573	53.76
316.787	-3.58
317.001	72.19
317.214	37.38
317.428	70.14
317.641	20.99
317.855	57.86
318.068	-15.87
318.282	43.52
318.495	53.76
318.709	133.63
318.922	16.9
319.136	61.95
319.349	-36.35
319.563	66.05
319.776	51.71
319.99	80.38
320.203	6.66
320.417	86.53
320.63	68.09
320.843	94.72
321.057	51.71
321.27	31.23
321.483	51.71
321.697	96.77
321.91	104.96
322.124	102.91
322.337	41.47
322.55	-1.54
322.763	-17.92
322.977	27.14
323.19	86.53
323.403	39.42
323.617	107.01
323.83	68.09
324.043	23.04
324.256	74.24
324.469	39.42
324.683	123.39
324.896	137.73
325.109	86.53
325.322	-50.69
325.535	78.33
325.748	102.91
325.962	0.51
326.175	80.38
326.388	121.34
326.601	16.9
326.814	4.61
327.027	49.66
327.24	158.21
327.453	29.18
327.666	100.86
327.879	27.14
328.092	43.52
328.305	55.81
328.518	27.14
328.731	43.52
328.944	47.62
329.157	88.57
329.37	35.33
329.583	76.29
329.796	139.77
330.009	12.8
330.222	131.58
330.435	43.52
330.648	18.94
330.861	82.43
331.073	150.01
331.286	27.14
331.499	53.76
331.712	47.62
331.925	94.72
332.138	98.81
332.35	141.82
332.563	-15.87
332.776	113.15
332.989	-7.68
333.202	55.81
333.414	6.66
333.627	74.24
333.84	-1.54
334.053	88.57
334.265	45.57
334.478	68.09
334.691	66.05
334.903	137.73
335.116	57.86
335.329	86.53
335.541	133.63
335.754	119.29
335.966	-19.97
336.179	94.72
336.392	-17.92
336.604	84.48
336.817	76.29
337.029	102.91
337.242	129.53
337.454	78.33
337.667	-36.35
337.88	137.73
338.092	31.23
338.305	64
338.517	-32.26
338.729	57.86
338.942	23.04
339.154	33.28
339.367	49.66
339.579	45.57
339.792	61.95
340.004	92.67
340.217	86.53
340.429	70.14
340.641	14.85
340.854	10.75
341.066	-34.3
341.278	66.05
341.491	107.01
341.703	86.53
341.915	47.62
342.128	80.38
342.34	53.76
342.552	-5.63
342.764	-50.69
342.977	20.99
343.189	143.87
343.401	131.58
343.613	35.33
343.826	51.71
344.038	43.52
344.25	25.09
344.462	68.09
344.674	78.33
344.886	31.23
345.099	43.52
345.311	90.62
345.523	41.47
345.735	-1.54
345.947	117.25
346.159	74.24
346.371	-1.54
346.583	41.47
346.795	98.81
347.007	12.8
347.219	129.53
347.431	20.99
347.643	109.05
347.855	109.05
348.067	96.77
348.279	37.38
348.491	-11.78
348.703	47.62
348.915	47.62
349.127	37.38
349.339	78.33
349.551	74.24
349.763	61.95
349.975	90.62
350.187	121.34
350.399	51.71
350.61	29.18
350.822	6.66
351.034	59.9
351.246	29.18
351.458	125.44
351.669	113.15
351.881	55.81
352.093	104.96
352.305	172.54
352.517	80.38
352.728	188.93
352.94	23.04
353.152	78.33
353.363	88.57
353.575	55.81
353.787	61.95
353.999	104.96
354.21	59.9
354.422	23.04
354.633	57.86
354.845	86.53
355.057	39.42
355.268	-3.58
355.48	27.14
355.692	84.48
355.903	111.1
356.115	47.62
356.326	23.04
356.538	53.76
356.749	51.71
356.961	145.92
357.172	76.29
357.384	57.86
357.595	117.25
357.807	20.99
358.018	-36.35
358.23	10.75
358.441	96.77
358.653	25.09
358.864	90.62
359.075	31.23
359.287	86.53
359.498	152.06
359.709	96.77
359.921	78.33
360.132	72.19
360.344	109.05
360.555	84.48
360.766	59.9
360.977	53.76
361.189	109.05
361.4	94.72
361.611	51.71
361.823	16.9
362.034	25.09
362.245	25.09
362.456	64
362.667	88.57
362.879	92.67
363.09	0.51
363.301	129.53
363.512	66.05
363.723	78.33
363.935	-7.68
364.146	66.05
364.357	33.28
364.568	72.19
364.779	-60.93
364.99	90.62
365.201	57.86
365.412	45.57
365.623	25.09
365.834	27.14
366.045	66.05
366.256	121.34
366.467	-5.63
366.678	35.33
366.889	31.23
367.1	18.94
367.311	18.94
367.522	12.8
367.733	111.1
367.944	96.77
368.155	82.43
368.366	55.81
368.577	109.05
368.788	76.29
368.999	72.19
369.209	127.49
369.42	88.57
369.631	147.97
369.842	61.95
370.053	45.57
370.264	61.95
370.474	-17.92
370.685	47.62
370.896	121.34
371.107	41.47
371.317	39.42
371.528	49.66
371.739	145.92
371.95	68.09
372.16	90.62
372.371	16.9
372.582	16.9
372.792	113.15
373.003	59.9
373.214	70.14
373.424	59.9
373.635	76.29
373.846	115.2
374.056	43.52
374.267	88.57
374.477	20.99
374.688	47.62
374.898	61.95
375.109	70.14
375.319	94.72
375.53	53.76
375.74	31.23
375.951	88.57
376.161	70.14
376.372	133.63
376.582	113.15
376.793	100.86
377.003	51.71
377.214	35.33
377.424	29.18
377.635	98.81
377.845	66.05
378.055	78.33
378.266	59.9
378.476	61.95
378.686	4.61
378.897	57.86
379.107	98.81
379.317	43.52
379.528	-44.54
379.738	109.05
379.948	-5.63
380.158	127.49
380.369	64
380.579	20.99
380.789	109.05
380.999	41.47
381.21	92.67
381.42	92.67
381.63	8.7
381.84	115.2
382.05	76.29
382.261	90.62
382.471	109.05
382.681	59.9
382.891	107.01
383.101	14.85
383.311	39.42
383.521	29.18
383.731	100.86
383.941	80.38
384.151	66.05
384.361	104.96
384.571	92.67
384.781	55.81
384.991	145.92
385.201	92.67
385.411	90.62
385.621	119.29
385.831	135.68
386.041	55.81
386.251	14.85
386.461	70.14
386.671	10.75
386.881	33.28
387.091	82.43
387.301	139.77
387.511	131.58
387.72	84.48
387.93	25.09
388.14	12.8
388.35	35.33
388.56	90.62
388.769	102.91
388.979	68.09
389.189	16.9
389.399	59.9
389.609	104.96
389.818	141.82
390.028	68.09
390.238	72.19
390.447	-24.06
390.657	61.95
390.867	-5.63
391.076	-3.58
391.286	72.19
391.496	119.29
391.705	121.34
391.915	172.54
392.125	109.05
392.334	66.05
392.544	115.2
392.753	92.67
392.963	57.86
393.172	33.28
393.382	-11.78
393.591	119.29
393.801	-13.82
394.01	23.04
394.22	102.91
394.429	104.96
394.639	49.66
394.848	76.29
395.058	59.9
395.267	90.62
395.477	57.86
395.686	86.53
395.895	160.25
396.105	133.63
396.314	70.14
396.524	129.53
396.733	64
396.942	115.2
397.152	131.58
397.361	145.92
397.57	139.77
397.78	57.86
397.989	98.81
398.198	184.83
398.407	104.96
398.617	104.96
398.826	78.33
399.035	129.53
399.244	141.82
399.453	129.53
399.663	145.92
399.872	205.31
400.081	100.86
400.29	170.49
400.499	78.33
400.708	180.73
400.917	115.2
401.127	125.44
401.336	131.58
401.545	145.92
401.754	111.1
401.963	61.95
402.172	57.86
402.381	139.77
402.59	94.72
402.799	86.53
403.008	98.81
403.217	129.53
403.426	127.49
403.635	45.57
403.844	113.15
404.053	125.44
404.262	117.25
404.471	94.72
404.68	131.58
404.888	107.01
405.097	201.21
405.306	117.25
405.515	100.86
405.724	131.58
405.933	166.4
406.142	160.25
406.35	182.78
406.559	195.07
406.768	176.64
406.977	213.5
407.185	129.53
407.394	184.83
407.603	127.49
407.812	211.45
408.02	246.27
408.229	172.54
408.438	199.16
408.646	205.31
408.855	209.4
409.064	240.12
409.272	201.21
409.481	262.65
409.69	223.74
409.898	197.12
410.107	326.14
410.315	250.36
410.524	188.93
410.733	320
410.941	313.85
411.15	242.17
411.358	297.47
411.567	371.19
411.775	299.52
411.984	307.71
412.192	350.71
412.401	332.28
412.609	352.76
412.818	336.38
413.026	416.25
413.234	379.39
413.443	412.15
413.651	395.77
413.86	457.21
414.068	553.46
414.276	516.6
414.485	479.74
414.693	502.26
414.901	567.8
415.11	569.85
415.318	518.65
415.526	666.1
415.734	631.29
415.943	604.66
416.151	655.86
416.359	600.57
416.567	680.44
416.776	813.56
416.984	735.73
417.192	825.84
417.4	778.74
417.608	741.88
417.817	791.03
418.025	909.81
418.233	883.19
418.441	836.08
418.649	924.15
418.857	973.3
419.065	956.91
419.273	995.82
419.481	1022.45
419.689	1065.46
419.897	1200.62
420.105	1217.01
420.313	1235.44
420.521	1253.87
420.729	1190.38
420.937	1337.84
421.145	1382.89
421.353	1446.38
421.561	1499.63
421.769	1489.39
421.977	1614.31
422.185	1507.82
422.393	1622.5
422.601	1669.61
422.809	1579.5
423.017	1749.48
423.224	1864.16
423.432	1929.7
423.64	1927.65
423.848	2083.3
424.056	1966.56
424.263	2167.26
424.471	2308.57
424.679	2195.93
424.887	2394.59
425.094	2392.54
425.302	2335.2
425.51	2552.28
425.718	2593.24
425.925	2535.9
426.133	2658.78
426.341	2988.5
426.548	2935.25
426.756	3013.07
426.964	3082.7
427.171	3078.61
427.379	3301.84
427.586	3307.98
427.794	3494.35
428.001	3592.65
428.209	3805.64
428.417	3758.53
428.624	4018.63
428.832	3944.9
429.039	3920.32
429.247	3920.32
429.454	4252.1
429.662	4520.38
429.869	4428.22
430.076	4661.69
430.284	4520.38
430.491	4557.24
430.699	4782.52
430.906	4985.27
431.114	4983.22
431.321	5317.04
431.528	5347.76
431.736	5609.9
431.943	5724.58
432.15	5820.84
432.358	5802.41
432.565	6158.75
432.772	6007.2
432.979	6287.78
433.187	6541.72
433.394	6680.99
433.601	6879.64
433.808	6984.09
434.016	7037.33
434.223	7379.34
434.43	7711.11
434.637	7442.83
434.844	7889.29
435.052	8120.71
435.259	8200.58
435.466	8284.55
435.673	8139.14
435.88	8720.76
436.087	9042.29
436.294	9064.82
436.501	8962.42
436.708	9159.03
436.915	9320.82
437.122	9789.8
437.329	9613.68
437.537	10193.25
437.743	10369.38
437.95	10125.67
438.157	10713.44
438.364	11053.4
438.571	11024.73
438.778	11184.47
438.985	12151.11
439.192	11612.49
439.399	12155.21
439.606	11854.16
439.813	12470.59
440.02	13175.09
440.227	12937.53
440.433	12831.04
440.64	13119.8
440.847	13326.64
441.054	13625.65
441.261	14547.23
441.467	14252.33
441.674	14496.03
441.881	14948.64
442.088	14948.64
442.294	15087.9
442.501	15270.17
442.708	15708.43
442.914	16068.87
443.121	16769.28
443.328	16525.57
443.534	17852.66
443.741	17404.15
443.948	17086.72
444.154	18217.19
444.361	18057.45
444.568	18305.26
444.774	18135.28
444.981	18350.31
445.187	18878.69
445.394	19706.07
445.6	19626.2
445.807	21502.14
446.013	20574.41
446.22	20875.46
446.426	21770.42
446.633	21854.39
446.839	22767.78
447.046	21913.78
447.252	22847.65
447.459	23060.64
447.665	23179.42
447.871	24072.34
448.078	25053.31
448.284	24010.9
448.491	24148.11
448.697	25393.28
448.903	26132.59
449.11	26110.07
449.316	25352.32
449.522	26050.67
449.728	26624.11
449.935	26949.73
450.141	26873.96
450.347	27195.49
450.553	26761.32
450.76	27027.56
450.966	27545.69
451.172	27281.5
451.378	28213.33
451.584	27543.64
451.791	28295.25
451.997	28174.42
452.203	28774.47
452.409	28971.08
452.615	28463.18
452.821	27213.92
453.027	27693.15
453.233	28694.6
453.44	27701.34
453.646	28057.68
453.852	27844.7
454.058	28332.11
454.264	27406.43
454.47	28137.55
454.676	27611.23
454.882	28426.32
455.088	25792.63
455.294	26439.79
455.5	26529.9
455.705	26863.72
455.911	25858.17
456.117	25366.65
456.323	25102.46
456.529	23627.93
456.735	24703.11
456.941	23908.5
457.147	23511.19
457.352	22716.58
457.558	22718.63
457.764	22511.78
457.97	22116.53
458.176	21655.73
458.381	21704.88
458.587	20584.65
458.793	20498.63
458.999	19583.19
459.204	20863.17
459.41	20195.53
459.616	18933.98
459.821	19077.34
460.027	18729.19
460.233	18219.24
460.438	17551.6
460.644	17836.27
460.85	17221.88
461.055	16767.23
461.261	16847.1
461.466	15575.31
461.672	15149.34
461.878	15968.52
462.083	15120.67
462.289	14891.29
462.494	14737.7
462.7	13928.75
462.905	13639.98
463.111	13914.41
463.316	14033.19
463.522	13801.77
463.727	13789.49
463.932	13953.32
464.138	13490.48
464.343	13668.66
464.549	13248.82
464.754	13726
464.959	13625.65
465.165	13416.76
465.37	12788.03
465.575	12431.68
465.781	13279.54
465.986	13211.96
466.191	12800.32
466.397	12548.42
466.602	11764.04
466.807	12341.57
467.012	12220.74
467.218	12261.7
467.423	11938.12
467.628	11995.46
