Data from USB4F104151__3__12-23-16-675.txt Node

Date: Fri Mar 14 12:23:16 EDT 2025
User: louis
Spectrometer: USB4F10415
Trigger mode: 4
Integration Time (sec): 3.500000E-2
Scans to average: 1
Electric dark correction enabled: true
Nonlinearity correction enabled: false
Boxcar width: 0
XAxis mode: Wavelengths
Number of Pixels in Spectrum: 3648
>>>>>Begin Spectral Data<<<<<
178.204	-182.95
178.424	-182.95
178.644	-182.95
178.864	-141.99
179.084	-92.84
179.304	-10.92
179.524	25.94
179.744	-6.83
179.964	60.76
180.184	64.85
180.404	1.37
180.624	-45.74
180.844	-17.07
181.064	-66.22
181.283	9.56
181.503	-31.4
181.723	15.7
181.943	-51.88
182.163	58.71
182.383	27.99
182.602	34.13
182.822	101.72
183.042	83.28
183.262	-4.78
183.482	-8.87
183.701	-2.73
183.921	46.42
184.141	-21.16
184.361	58.71
184.58	81.24
184.8	71
185.02	5.46
185.239	42.32
185.459	-6.83
185.679	5.46
185.898	-33.45
186.118	130.39
186.338	30.04
186.557	73.04
186.777	48.47
186.997	75.09
187.216	15.7
187.436	91.48
187.655	68.95
187.875	42.32
188.095	75.09
188.314	-37.55
188.534	36.18
188.753	-2.73
188.973	32.08
189.192	144.72
189.412	60.76
189.631	-23.21
189.851	38.23
190.07	64.85
190.29	-35.5
190.509	-15.02
190.729	91.48
190.948	11.61
191.168	148.82
191.387	62.8
191.607	-43.69
191.826	-19.11
192.045	-2.73
192.265	5.46
192.484	52.56
192.704	48.47
192.923	62.8
193.142	124.24
193.362	21.85
193.581	19.8
193.8	-4.78
194.02	52.56
194.239	23.89
194.458	75.09
194.678	11.61
194.897	13.65
195.116	17.75
195.335	-6.83
195.555	99.67
195.774	17.75
195.993	118.1
196.212	25.94
196.432	60.76
196.651	-8.87
196.87	50.52
197.089	71
197.308	13.65
197.528	62.8
197.747	40.28
197.966	-10.92
198.185	93.52
198.404	1.37
198.623	99.67
198.842	-31.4
199.062	40.28
199.281	103.76
199.5	83.28
199.719	71
199.938	36.18
200.157	83.28
200.376	13.65
200.595	-8.87
200.814	62.8
201.033	27.99
201.252	50.52
201.471	68.95
201.69	58.71
201.909	27.99
202.128	19.8
202.347	83.28
202.566	-8.87
202.785	52.56
203.004	89.43
203.223	165.2
203.442	-6.83
203.661	56.66
203.879	30.04
204.098	17.75
204.317	19.8
204.536	34.13
204.755	25.94
204.974	64.85
205.193	120.15
205.411	144.72
205.63	62.8
205.849	13.65
206.068	79.19
206.287	85.33
206.505	120.15
206.724	79.19
206.943	-0.68
207.162	48.47
207.381	107.86
207.599	19.8
207.818	79.19
208.037	17.75
208.255	30.04
208.474	93.52
208.693	27.99
208.911	34.13
209.13	54.61
209.349	27.99
209.567	42.32
209.786	9.56
210.005	91.48
210.223	52.56
210.442	-37.55
210.661	66.9
210.879	11.61
211.098	21.85
211.316	21.85
211.535	48.47
211.753	38.23
211.972	77.14
212.191	38.23
212.409	-19.11
212.628	27.99
212.846	-23.21
213.065	101.72
213.283	52.56
213.502	3.41
213.72	48.47
213.938	-49.83
214.157	21.85
214.375	32.08
214.594	30.04
214.812	21.85
215.031	99.67
215.249	54.61
215.467	17.75
215.686	-43.69
215.904	25.94
216.122	-19.11
216.341	99.67
216.559	25.94
216.778	38.23
216.996	77.14
217.214	23.89
217.432	50.52
217.651	9.56
217.869	32.08
218.087	68.95
218.306	15.7
218.524	79.19
218.742	46.42
218.96	77.14
219.179	44.37
219.397	42.32
219.615	111.96
219.833	109.91
220.051	3.41
220.27	60.76
220.488	44.37
220.706	-60.07
220.924	3.41
221.142	79.19
221.36	66.9
221.578	-10.92
221.796	-25.26
222.015	56.66
222.233	3.41
222.451	46.42
222.669	34.13
222.887	58.71
223.105	-6.83
223.323	101.72
223.541	21.85
223.759	32.08
223.977	11.61
224.195	140.63
224.413	21.85
224.631	140.63
224.849	54.61
225.067	118.1
225.285	7.51
225.503	3.41
225.721	-51.88
225.939	13.65
226.157	56.66
226.375	148.82
226.592	-2.73
226.81	5.46
227.028	40.28
227.246	105.81
227.464	83.28
227.682	40.28
227.9	11.61
228.117	-6.83
228.335	54.61
228.553	50.52
228.771	48.47
228.989	7.51
229.206	25.94
229.424	62.8
229.642	-8.87
229.86	27.99
230.077	7.51
230.295	83.28
230.513	95.57
230.731	36.18
230.948	66.9
231.166	83.28
231.384	91.48
231.601	19.8
231.819	64.85
232.037	13.65
232.254	-0.68
232.472	-49.83
232.689	101.72
232.907	40.28
233.125	56.66
233.342	83.28
233.56	-25.26
233.777	40.28
233.995	42.32
234.213	89.43
234.43	95.57
234.648	40.28
234.865	-6.83
235.083	-10.92
235.3	54.61
235.518	40.28
235.735	32.08
235.953	64.85
236.17	46.42
236.388	75.09
236.605	-10.92
236.822	146.77
237.04	111.96
237.257	62.8
237.475	-62.12
237.692	19.8
237.909	15.7
238.127	-45.74
238.344	-2.73
238.562	134.48
238.779	-41.64
238.996	19.8
239.214	-37.55
239.431	89.43
239.648	40.28
239.865	71
240.083	87.38
240.3	60.76
240.517	15.7
240.735	34.13
240.952	15.7
241.169	23.89
241.386	-6.83
241.603	11.61
241.821	11.61
242.038	83.28
242.255	38.23
242.472	19.8
242.689	19.8
242.907	27.99
243.124	44.37
243.341	23.89
243.558	-27.31
243.775	13.65
243.992	-4.78
244.209	60.76
244.426	81.24
244.643	46.42
244.86	122.2
245.078	87.38
245.295	64.85
245.512	50.52
245.729	-0.68
245.946	60.76
246.163	101.72
246.38	36.18
246.597	-12.97
246.814	9.56
247.031	23.89
247.248	23.89
247.464	60.76
247.681	77.14
247.898	-41.64
248.115	62.8
248.332	101.72
248.549	40.28
248.766	140.63
248.983	50.52
249.2	91.48
249.417	97.62
249.633	-6.83
249.85	-25.26
250.067	23.89
250.284	25.94
250.501	120.15
250.717	75.09
250.934	17.75
251.151	25.94
251.368	-12.97
251.585	27.99
251.801	15.7
252.018	-8.87
252.235	95.57
252.451	105.81
252.668	9.56
252.885	89.43
253.102	91.48
253.318	42.32
253.535	64.85
253.752	9.56
253.968	19.8
254.185	3.41
254.401	124.24
254.618	-10.92
254.835	-19.11
255.051	116.05
255.268	66.9
255.484	77.14
255.701	-6.83
255.917	58.71
256.134	-0.68
256.351	5.46
256.567	91.48
256.784	58.71
257	25.94
257.217	58.71
257.433	-0.68
257.65	120.15
257.866	68.95
258.082	46.42
258.299	-6.83
258.515	-15.02
258.732	54.61
258.948	-35.5
259.165	36.18
259.381	-6.83
259.597	36.18
259.814	-8.87
260.03	68.95
260.246	13.65
260.463	-12.97
260.679	62.8
260.895	-2.73
261.112	60.76
261.328	5.46
261.544	62.8
261.761	118.1
261.977	48.47
262.193	-0.68
262.409	42.32
262.626	85.33
262.842	7.51
263.058	19.8
263.274	81.24
263.49	5.46
263.707	-21.16
263.923	48.47
264.139	-27.31
264.355	46.42
264.571	58.71
264.787	11.61
265.004	89.43
265.22	56.66
265.436	23.89
265.652	-37.55
265.868	36.18
266.084	-27.31
266.3	-21.16
266.516	-39.59
266.732	3.41
266.948	34.13
267.164	-47.79
267.38	30.04
267.596	134.48
267.812	44.37
268.028	42.32
268.244	103.76
268.46	48.47
268.676	71
268.892	52.56
269.108	50.52
269.324	54.61
269.54	60.76
269.756	81.24
269.972	-10.92
270.188	32.08
270.403	9.56
270.619	79.19
270.835	42.32
271.051	-0.68
271.267	-19.11
271.483	15.7
271.698	30.04
271.914	77.14
272.13	13.65
272.346	58.71
272.562	44.37
272.777	89.43
272.993	5.46
273.209	27.99
273.425	56.66
273.64	15.7
273.856	-2.73
274.072	-43.69
274.287	42.32
274.503	89.43
274.719	9.56
274.934	19.8
275.15	7.51
275.366	38.23
275.581	30.04
275.797	34.13
276.012	-25.26
276.228	32.08
276.444	-8.87
276.659	36.18
276.875	-64.17
277.09	15.7
277.306	-19.11
277.521	60.76
277.737	-12.97
277.952	66.9
278.168	87.38
278.383	34.13
278.599	-19.11
278.814	-12.97
279.03	25.94
279.245	48.47
279.461	44.37
279.676	3.41
279.892	50.52
280.107	23.89
280.322	40.28
280.538	68.95
280.753	-19.11
280.969	87.38
281.184	46.42
281.399	52.56
281.615	9.56
281.83	46.42
282.045	-33.45
282.26	1.37
282.476	17.75
282.691	36.18
282.906	40.28
283.122	44.37
283.337	-12.97
283.552	91.48
283.767	13.65
283.983	32.08
284.198	-2.73
284.413	56.66
284.628	-23.21
284.843	52.56
285.058	36.18
285.274	46.42
285.489	52.56
285.704	27.99
285.919	15.7
286.134	50.52
286.349	19.8
286.564	-6.83
286.779	107.86
286.995	-0.68
287.21	77.14
287.425	19.8
287.64	-8.87
287.855	60.76
288.07	48.47
288.285	25.94
288.5	1.37
288.715	99.67
288.93	73.04
289.145	68.95
289.36	58.71
289.575	62.8
289.79	111.96
290.004	30.04
290.219	62.8
290.434	66.9
290.649	-23.21
290.864	-74.41
291.079	19.8
291.294	-27.31
291.509	79.19
291.724	21.85
291.938	34.13
292.153	60.76
292.368	-25.26
292.583	38.23
292.798	60.76
293.012	-60.07
293.227	5.46
293.442	79.19
293.657	17.75
293.871	165.2
294.086	13.65
294.301	83.28
294.516	54.61
294.73	-43.69
294.945	-25.26
295.16	13.65
295.374	44.37
295.589	21.85
295.804	40.28
296.018	52.56
296.233	15.7
296.447	40.28
296.662	64.85
296.877	58.71
297.091	60.76
297.306	140.63
297.52	54.61
297.735	7.51
297.949	27.99
298.164	95.57
298.378	-41.64
298.593	-37.55
298.807	-25.26
299.022	73.04
299.236	60.76
299.451	-17.07
299.665	1.37
299.88	38.23
300.094	95.57
300.309	56.66
300.523	93.52
300.737	30.04
300.952	23.89
301.166	56.66
301.381	73.04
301.595	23.89
301.809	32.08
302.024	114
302.238	15.7
302.452	83.28
302.667	89.43
302.881	62.8
303.095	42.32
303.309	21.85
303.524	-21.16
303.738	7.51
303.952	44.37
304.166	9.56
304.381	-39.59
304.595	103.76
304.809	-4.78
305.023	103.76
305.237	34.13
305.452	36.18
305.666	36.18
305.88	60.76
306.094	120.15
306.308	1.37
306.522	60.76
306.736	66.9
306.95	-29.35
307.164	64.85
307.379	-4.78
307.593	15.7
307.807	19.8
308.021	13.65
308.235	44.37
308.449	-49.83
308.663	25.94
308.877	36.18
309.091	21.85
309.305	46.42
309.519	-51.88
309.733	105.81
309.947	56.66
310.161	58.71
310.374	83.28
310.588	122.2
310.802	-29.35
311.016	15.7
311.23	-10.92
311.444	-62.12
311.658	-41.64
311.872	85.33
312.085	17.75
312.299	87.38
312.513	152.91
312.727	66.9
312.941	30.04
313.154	79.19
313.368	32.08
313.582	25.94
313.796	116.05
314.009	52.56
314.223	130.39
314.437	68.95
314.651	27.99
314.864	42.32
315.078	75.09
315.292	34.13
315.505	56.66
315.719	81.24
315.933	40.28
316.146	36.18
316.36	-10.92
316.573	64.85
316.787	19.8
317.001	1.37
317.214	-62.12
317.428	52.56
317.641	1.37
317.855	17.75
318.068	27.99
318.282	1.37
318.495	62.8
318.709	-4.78
318.922	34.13
319.136	89.43
319.349	11.61
319.563	-23.21
319.776	23.89
319.99	-33.45
320.203	44.37
320.417	42.32
320.63	109.91
320.843	83.28
321.057	111.96
321.27	34.13
321.483	83.28
321.697	19.8
321.91	71
322.124	3.41
322.337	34.13
322.55	13.65
322.763	-10.92
322.977	66.9
323.19	38.23
323.403	40.28
323.617	34.13
323.83	81.24
324.043	40.28
324.256	34.13
324.469	-4.78
324.683	85.33
324.896	91.48
325.109	34.13
325.322	-19.11
325.535	66.9
325.748	109.91
325.962	15.7
326.175	56.66
326.388	128.34
326.601	52.56
326.814	13.65
327.027	85.33
327.24	95.57
327.453	-0.68
327.666	124.24
327.879	54.61
328.092	60.76
328.305	36.18
328.518	122.2
328.731	50.52
328.944	60.76
329.157	13.65
329.37	7.51
329.583	68.95
329.796	62.8
330.009	-27.31
330.222	9.56
330.435	77.14
330.648	120.15
330.861	50.52
331.073	46.42
331.286	54.61
331.499	105.81
331.712	44.37
331.925	27.99
332.138	40.28
332.35	73.04
332.563	-37.55
332.776	93.52
332.989	19.8
333.202	-25.26
333.414	64.85
333.627	40.28
333.84	1.37
334.053	-10.92
334.265	17.75
334.478	21.85
334.691	54.61
334.903	7.51
335.116	15.7
335.329	44.37
335.541	48.47
335.754	36.18
335.966	27.99
336.179	23.89
336.392	-2.73
336.604	36.18
336.817	75.09
337.029	9.56
337.242	-31.4
337.454	105.81
337.667	-37.55
337.88	77.14
338.092	-12.97
338.305	60.76
338.517	21.85
338.729	60.76
338.942	91.48
339.154	-25.26
339.367	71
339.579	66.9
339.792	17.75
340.004	109.91
340.217	23.89
340.429	50.52
340.641	15.7
340.854	23.89
341.066	64.85
341.278	114
341.491	64.85
341.703	42.32
341.915	36.18
342.128	52.56
342.34	1.37
342.552	40.28
342.764	19.8
342.977	3.41
343.189	79.19
343.401	-10.92
343.613	-0.68
343.826	-6.83
344.038	21.85
344.25	95.57
344.462	-17.07
344.674	56.66
344.886	17.75
345.099	34.13
345.311	-15.02
345.523	11.61
345.735	11.61
345.947	68.95
346.159	68.95
346.371	60.76
346.583	42.32
346.795	189.78
347.007	-74.41
347.219	60.76
347.431	42.32
347.643	60.76
347.855	11.61
348.067	-2.73
348.279	-33.45
348.491	-8.87
348.703	21.85
348.915	62.8
349.127	19.8
349.339	50.52
349.551	68.95
349.763	73.04
349.975	73.04
350.187	71
350.399	93.52
350.61	-17.07
350.822	-27.31
351.034	25.94
351.246	-10.92
351.458	52.56
351.669	58.71
351.881	44.37
352.093	73.04
352.305	93.52
352.517	71
352.728	62.8
352.94	64.85
353.152	66.9
353.363	-0.68
353.575	40.28
353.787	62.8
353.999	-23.21
354.21	128.34
354.422	9.56
354.633	32.08
354.845	17.75
355.057	-15.02
355.268	71
355.48	21.85
355.692	134.48
355.903	42.32
356.115	25.94
356.326	62.8
356.538	36.18
356.749	101.72
356.961	97.62
357.172	27.99
357.384	52.56
357.595	40.28
357.807	68.95
358.018	144.72
358.23	-27.31
358.441	32.08
358.653	93.52
358.864	44.37
359.075	7.51
359.287	66.9
359.498	42.32
359.709	36.18
359.921	36.18
360.132	52.56
360.344	58.71
360.555	3.41
360.766	42.32
360.977	9.56
361.189	97.62
361.4	-10.92
361.611	36.18
361.823	122.2
362.034	1.37
362.245	9.56
362.456	44.37
362.667	111.96
362.879	-29.35
363.09	87.38
363.301	-6.83
363.512	23.89
363.723	58.71
363.935	1.37
364.146	79.19
364.357	52.56
364.568	13.65
364.779	30.04
364.99	107.86
365.201	44.37
365.412	42.32
365.623	89.43
365.834	40.28
366.045	91.48
366.256	40.28
366.467	25.94
366.678	77.14
366.889	48.47
367.1	11.61
367.311	23.89
367.522	-6.83
367.733	66.9
367.944	58.71
368.155	54.61
368.366	109.91
368.577	103.76
368.788	50.52
368.999	32.08
369.209	68.95
369.42	83.28
369.631	111.96
369.842	79.19
370.053	-15.02
370.264	89.43
370.474	-6.83
370.685	101.72
370.896	9.56
371.107	148.82
371.317	77.14
371.528	23.89
371.739	75.09
371.95	21.85
372.16	25.94
372.371	34.13
372.582	27.99
372.792	83.28
373.003	93.52
373.214	17.75
373.424	52.56
373.635	-31.4
373.846	60.76
374.056	15.7
374.267	36.18
374.477	3.41
374.688	42.32
374.898	83.28
375.109	9.56
375.319	19.8
375.53	116.05
375.74	83.28
375.951	93.52
376.161	58.71
376.372	101.72
376.582	21.85
376.793	77.14
377.003	19.8
377.214	34.13
377.424	42.32
377.635	5.46
377.845	-45.74
378.055	52.56
378.266	95.57
378.476	60.76
378.686	44.37
378.897	13.65
379.107	-37.55
379.317	17.75
379.528	5.46
379.738	66.9
379.948	27.99
380.158	19.8
380.369	25.94
380.579	9.56
380.789	-37.55
380.999	116.05
381.21	87.38
381.42	60.76
381.63	75.09
381.84	-12.97
382.05	38.23
382.261	56.66
382.471	73.04
382.681	1.37
382.891	42.32
383.101	7.51
383.311	30.04
383.521	50.52
383.731	42.32
383.941	73.04
384.151	46.42
384.361	-21.16
384.571	38.23
384.781	75.09
384.991	103.76
385.201	150.87
385.411	95.57
385.621	85.33
385.831	56.66
386.041	36.18
386.251	3.41
386.461	68.95
386.671	-0.68
386.881	79.19
387.091	111.96
387.301	50.52
387.511	-4.78
387.72	50.52
387.93	95.57
388.14	13.65
388.35	30.04
388.56	99.67
388.769	105.81
388.979	75.09
389.189	-33.45
389.399	15.7
389.609	93.52
389.818	15.7
390.028	40.28
390.238	66.9
390.447	122.2
390.657	103.76
390.867	46.42
391.076	68.95
391.286	-0.68
391.496	93.52
391.705	25.94
391.915	136.53
392.125	75.09
392.334	58.71
392.544	111.96
392.753	68.95
392.963	46.42
393.172	64.85
393.382	30.04
393.591	81.24
393.801	58.71
394.01	66.9
394.22	25.94
394.429	36.18
394.639	91.48
394.848	48.47
395.058	42.32
395.267	64.85
395.477	81.24
395.686	148.82
395.895	107.86
396.105	130.39
396.314	38.23
396.524	9.56
396.733	34.13
396.942	99.67
397.152	81.24
397.361	114
397.57	71
397.78	15.7
397.989	124.24
398.198	91.48
398.407	132.44
398.617	83.28
398.826	124.24
399.035	109.91
399.244	97.62
399.453	56.66
399.663	42.32
399.872	54.61
400.081	5.46
400.29	142.68
400.499	23.89
400.708	183.63
400.917	62.8
401.127	66.9
401.336	75.09
401.545	173.39
401.754	101.72
401.963	140.63
402.172	109.91
402.381	77.14
402.59	107.86
402.799	54.61
403.008	85.33
403.217	163.15
403.426	146.77
403.635	62.8
403.844	93.52
404.053	109.91
404.262	79.19
404.471	36.18
404.68	66.9
404.888	58.71
405.097	148.82
405.306	120.15
405.515	150.87
405.724	152.91
405.933	140.63
406.142	142.68
406.35	132.44
406.559	62.8
406.768	136.53
406.977	208.21
407.185	138.58
407.394	126.29
407.603	71
407.812	187.73
408.02	152.91
408.229	163.15
408.438	142.68
408.646	197.97
408.855	165.2
409.064	210.26
409.272	187.73
409.481	281.94
409.69	195.92
409.898	185.68
410.107	181.59
410.315	222.55
410.524	222.55
410.733	243.03
410.941	212.31
411.15	240.98
411.358	294.22
411.567	349.52
411.775	238.93
411.984	249.17
412.192	296.27
412.401	331.09
412.609	419.15
412.818	320.85
413.026	331.09
413.234	324.94
413.443	288.08
413.651	341.33
413.86	363.86
414.068	410.96
414.276	419.15
414.485	372.05
414.693	456.01
414.901	425.29
415.11	478.54
415.318	507.21
415.526	386.38
415.734	439.63
415.943	515.41
416.151	539.98
416.359	591.18
416.567	626
416.776	621.9
416.984	552.27
417.192	632.14
417.4	562.51
417.608	654.67
417.817	615.76
418.025	703.82
418.233	789.83
418.441	720.2
418.649	707.91
418.857	800.07
419.065	806.22
419.273	750.92
419.481	851.27
419.689	902.47
419.897	867.66
420.105	892.23
420.313	947.53
420.521	1031.49
420.729	1029.45
420.937	988.49
421.145	1058.12
421.353	1193.28
421.561	1199.43
421.769	1205.57
421.977	1199.43
422.185	1150.28
422.393	1295.68
422.601	1404.22
422.809	1402.18
423.017	1461.57
423.224	1574.21
423.432	1643.84
423.64	1559.87
423.848	1645.88
424.056	1690.94
424.263	1748.28
424.471	1705.28
424.679	1813.82
424.887	1865.02
425.094	1914.17
425.302	1969.46
425.51	2051.38
425.718	2096.44
425.925	2092.34
426.133	2080.05
426.341	2413.87
426.548	2276.66
426.756	2526.51
426.964	2551.09
427.171	2641.2
427.379	2592.05
427.586	2704.68
427.794	2725.16
428.001	2905.39
428.209	3218.72
428.417	2946.34
428.624	3378.47
428.832	3190.05
429.039	3214.63
429.247	3196.2
429.454	3626.27
429.662	3716.38
429.869	3460.38
430.076	3667.23
430.284	3712.28
430.491	3747.1
430.699	4125.97
430.906	4044.06
431.114	4171.03
431.321	4197.65
431.528	4338.96
431.736	4488.46
431.943	4762.89
432.15	4676.88
432.358	4871.43
432.565	4951.31
432.772	4902.15
432.979	5141.77
433.187	5287.17
433.394	5256.45
433.601	5610.75
433.808	5702.91
434.016	5760.25
434.223	5825.79
434.43	6315.25
434.637	6024.44
434.844	6454.51
435.052	6565.11
435.259	6585.58
435.466	6716.65
435.673	6608.11
435.88	7107.82
436.087	7337.19
436.294	7431.4
436.501	7251.17
436.708	7478.5
436.915	7761.12
437.122	7853.28
437.329	7933.15
437.537	8430.8
437.743	8137.95
437.95	8324.31
438.157	8684.75
438.364	8946.89
438.571	8965.32
438.778	9002.19
438.985	9913.53
439.192	9534.66
439.399	9850.05
439.606	9647.3
439.813	10124.47
440.02	10880.18
440.227	10554.55
440.433	10394.81
440.64	10781.87
440.847	10753.2
441.054	11054.25
441.261	11719.84
441.467	11508.9
441.674	11728.03
441.881	12104.86
442.088	12252.31
442.294	12102.81
442.501	12612.76
442.708	12946.58
442.914	13001.87
443.121	13894.79
443.328	13415.56
443.534	14138.49
443.741	13995.14
443.948	13739.14
444.154	14926.96
444.361	14859.38
444.568	15068.27
444.774	15064.18
444.981	15023.22
445.187	15590.5
445.394	16241.76
445.6	15897.7
445.807	17339.47
446.013	16856.15
446.22	16933.97
446.426	17536.07
446.633	17902.66
446.839	18574.39
447.046	17671.24
447.252	18662.46
447.459	18807.86
447.665	18775.09
447.871	19506.22
448.078	20286.5
448.284	19469.36
448.491	19950.63
448.697	20724.76
448.903	21091.35
449.11	21412.88
449.316	20907.03
449.522	21087.25
449.728	21879.82
449.935	21906.44
450.141	21830.66
450.347	22354.94
450.553	21828.62
450.76	21881.86
450.966	22866.94
451.172	22563.84
451.378	22965.24
451.584	22340.61
451.791	23157.75
451.997	23194.61
452.203	23413.74
452.409	23423.98
452.615	23464.94
452.821	22455.29
453.027	22137.86
453.233	23145.46
453.44	22524.93
453.646	22596.6
453.852	22815.74
454.058	22993.91
454.264	22285.31
454.47	22842.36
454.676	22008.84
454.882	23233.52
455.088	21066.77
455.294	21206.03
455.5	21789.7
455.705	22080.52
455.911	20847.64
456.117	20665.37
456.323	20548.64
456.529	19127.35
456.735	20186.15
456.941	19639.34
457.147	19254.32
457.352	18703.42
457.558	18492.48
457.764	18611.26
457.97	17828.93
458.176	17738.82
458.381	17765.45
458.587	17075.28
458.793	16972.88
458.999	16163.93
459.204	17232.97
459.41	16522.33
459.616	15441
459.821	15664.23
460.027	15660.13
460.233	15103.09
460.438	14365.82
460.644	14507.13
460.85	13888.64
461.055	13634.69
461.261	13307.02
461.466	12616.85
461.672	12254.36
461.878	13345.93
462.083	12256.41
462.289	11873.44
462.494	11863.2
462.7	11443.37
462.905	11044.01
463.111	11355.3
463.316	11513
463.522	11130.03
463.727	11285.67
463.932	11447.46
464.138	11187.37
464.343	11257
464.549	10753.2
464.754	11168.94
464.959	11037.87
465.165	11013.29
465.37	10560.69
465.575	10212.54
465.781	10683.57
465.986	10613.94
466.191	10437.81
466.397	10151.1
466.602	10009.79
466.807	9954.49
467.012	9882.81
467.218	10071.23
467.423	9802.94
467.628	9979.07
467.833	10374.33
468.038	9876.67
468.244	9589.95
468.449	10130.62
468.654	9817.28
