Data from USB4F104151__94__12-24-55-572.txt Node

Date: Fri Mar 14 12:24:55 EDT 2025
User: louis
Spectrometer: USB4F10415
Trigger mode: 4
Integration Time (sec): 3.500000E-2
Scans to average: 1
Electric dark correction enabled: true
Nonlinearity correction enabled: false
Boxcar width: 0
XAxis mode: Wavelengths
Number of Pixels in Spectrum: 3648
>>>>>Begin Spectral Data<<<<<
178.204	-79.36
178.424	-79.36
178.644	-79.36
178.864	-189.95
179.084	-65.02
179.304	-46.59
179.524	-79.36
179.744	-26.11
179.964	166.4
180.184	-9.73
180.404	70.14
180.624	-5.63
180.844	-32.26
181.064	-36.35
181.283	39.42
181.503	-38.4
181.723	-1.54
181.943	43.52
182.163	92.67
182.383	27.14
182.602	78.33
182.822	47.62
183.042	68.09
183.262	-1.54
183.482	55.81
183.701	41.47
183.921	47.62
184.141	-101.89
184.361	70.14
184.58	-7.68
184.8	141.82
185.02	59.9
185.239	6.66
185.459	57.86
185.679	33.28
185.898	23.04
186.118	49.66
186.338	88.57
186.557	18.94
186.777	45.57
186.997	23.04
187.216	16.9
187.436	123.39
187.655	102.91
187.875	84.48
188.095	-28.16
188.314	61.95
188.534	25.09
188.753	39.42
188.973	78.33
189.192	25.09
189.412	12.8
189.631	86.53
189.851	57.86
190.07	49.66
190.29	20.99
190.509	57.86
190.729	107.01
190.948	68.09
191.168	207.36
191.387	51.71
191.607	-69.12
191.826	57.86
192.045	2.56
192.265	-11.78
192.484	-46.59
192.704	20.99
192.923	-30.21
193.142	164.35
193.362	76.29
193.581	131.58
193.8	150.01
194.02	70.14
194.239	-7.68
194.458	20.99
194.678	55.81
194.897	37.38
195.116	-13.82
195.335	16.9
195.555	39.42
195.774	25.09
195.993	51.71
196.212	-9.73
196.432	18.94
196.651	0.51
196.87	47.62
197.089	72.19
197.308	72.19
197.528	104.96
197.747	88.57
197.966	70.14
198.185	64
198.404	-30.21
198.623	76.29
198.842	64
199.062	82.43
199.281	64
199.5	43.52
199.719	82.43
199.938	156.16
200.157	92.67
200.376	18.94
200.595	78.33
200.814	45.57
201.033	47.62
201.252	68.09
201.471	20.99
201.69	98.81
201.909	2.56
202.128	86.53
202.347	6.66
202.566	59.9
202.785	35.33
203.004	43.52
203.223	166.4
203.442	66.05
203.661	49.66
203.879	-38.4
204.098	64
204.317	-46.59
204.536	125.44
204.755	59.9
204.974	29.18
205.193	107.01
205.411	131.58
205.63	18.94
205.849	39.42
206.068	25.09
206.287	53.76
206.505	72.19
206.724	37.38
206.943	-17.92
207.162	-42.5
207.381	-7.68
207.599	53.76
207.818	4.61
208.037	70.14
208.255	43.52
208.474	53.76
208.693	8.7
208.911	-5.63
209.13	8.7
209.349	-17.92
209.567	154.11
209.786	90.62
210.005	57.86
210.223	31.23
210.442	53.76
210.661	33.28
210.879	59.9
211.098	2.56
211.316	80.38
211.535	51.71
211.753	78.33
211.972	-5.63
212.191	6.66
212.409	18.94
212.628	86.53
212.846	25.09
213.065	72.19
213.283	127.49
213.502	68.09
213.72	-69.12
213.938	41.47
214.157	25.09
214.375	37.38
214.594	35.33
214.812	64
215.031	100.86
215.249	41.47
215.467	49.66
215.686	104.96
215.904	55.81
216.122	84.48
216.341	68.09
216.559	96.77
216.778	104.96
216.996	43.52
217.214	-30.21
217.432	27.14
217.651	16.9
217.869	55.81
218.087	55.81
218.306	-26.11
218.524	47.62
218.742	8.7
218.96	-9.73
219.179	33.28
219.397	25.09
219.615	92.67
219.833	43.52
220.051	-54.78
220.27	113.15
220.488	47.62
220.706	74.24
220.924	-13.82
221.142	55.81
221.36	-3.58
221.578	37.38
221.796	51.71
222.015	76.29
222.233	6.66
222.451	59.9
222.669	68.09
222.887	-1.54
223.105	-11.78
223.323	8.7
223.541	27.14
223.759	-24.06
223.977	37.38
224.195	78.33
224.413	51.71
224.631	39.42
224.849	35.33
225.067	43.52
225.285	-56.83
225.503	35.33
225.721	-19.97
225.939	74.24
226.157	-5.63
226.375	113.15
226.592	-1.54
226.81	64
227.028	135.68
227.246	98.81
227.464	53.76
227.682	66.05
227.9	8.7
228.117	-32.26
228.335	25.09
228.553	39.42
228.771	37.38
228.989	8.7
229.206	59.9
229.424	33.28
229.642	72.19
229.86	20.99
230.077	39.42
230.295	64
230.513	86.53
230.731	66.05
230.948	35.33
231.166	86.53
231.384	29.18
231.601	39.42
231.819	78.33
232.037	57.86
232.254	18.94
232.472	100.86
232.689	-9.73
232.907	139.77
233.125	-7.68
233.342	-22.02
233.56	86.53
233.777	-7.68
233.995	113.15
234.213	41.47
234.43	90.62
234.648	41.47
234.865	47.62
235.083	47.62
235.3	6.66
235.518	64
235.735	123.39
235.953	68.09
236.17	23.04
236.388	-44.54
236.605	100.86
236.822	145.92
237.04	37.38
237.257	31.23
237.475	6.66
237.692	70.14
237.909	23.04
238.127	74.24
238.344	51.71
238.562	37.38
238.779	-36.35
238.996	10.75
239.214	14.85
239.431	57.86
239.648	43.52
239.865	68.09
240.083	59.9
240.3	59.9
240.517	37.38
240.735	20.99
240.952	47.62
241.169	74.24
241.386	59.9
241.603	76.29
241.821	0.51
242.038	127.49
242.255	70.14
242.472	-22.02
242.689	96.77
242.907	12.8
243.124	4.61
243.341	8.7
243.558	-3.58
243.775	12.8
243.992	-36.35
244.209	37.38
244.426	76.29
244.643	-3.58
244.86	-1.54
245.078	64
245.295	43.52
245.512	74.24
245.729	-15.87
245.946	39.42
246.163	23.04
246.38	43.52
246.597	25.09
246.814	43.52
247.031	59.9
247.248	35.33
247.464	41.47
247.681	35.33
247.898	12.8
248.115	20.99
248.332	-24.06
248.549	102.91
248.766	72.19
248.983	78.33
249.2	31.23
249.417	66.05
249.633	10.75
249.85	6.66
250.067	90.62
250.284	49.66
250.501	-17.92
250.717	57.86
250.934	-17.92
251.151	41.47
251.368	14.85
251.585	14.85
251.801	-13.82
252.018	-22.02
252.235	29.18
252.451	16.9
252.668	39.42
252.885	29.18
253.102	47.62
253.318	-22.02
253.535	39.42
253.752	27.14
253.968	-3.58
254.185	4.61
254.401	27.14
254.618	92.67
254.835	-15.87
255.051	68.09
255.268	16.9
255.484	31.23
255.701	68.09
255.917	162.3
256.134	45.57
256.351	27.14
256.567	-13.82
256.784	35.33
257	14.85
257.217	82.43
257.433	53.76
257.65	66.05
257.866	82.43
258.082	57.86
258.299	12.8
258.515	35.33
258.732	37.38
258.948	39.42
259.165	74.24
259.381	-15.87
259.597	4.61
259.814	47.62
260.03	25.09
260.246	16.9
260.463	-36.35
260.679	51.71
260.895	-5.63
261.112	82.43
261.328	123.39
261.544	-11.78
261.761	109.05
261.977	41.47
262.193	-24.06
262.409	119.29
262.626	-15.87
262.842	-26.11
263.058	70.14
263.274	139.77
263.49	35.33
263.707	27.14
263.923	16.9
264.139	-5.63
264.355	23.04
264.571	-1.54
264.787	61.95
265.004	125.44
265.22	-11.78
265.436	64
265.652	74.24
265.868	27.14
266.084	115.2
266.3	-22.02
266.516	33.28
266.732	14.85
266.948	98.81
267.164	111.1
267.38	96.77
267.596	55.81
267.812	80.38
268.028	-36.35
268.244	35.33
268.46	39.42
268.676	29.18
268.892	51.71
269.108	-17.92
269.324	82.43
269.54	12.8
269.756	78.33
269.972	12.8
270.188	127.49
270.403	47.62
270.619	-17.92
270.835	-26.11
271.051	25.09
271.267	0.51
271.483	39.42
271.698	12.8
271.914	29.18
272.13	29.18
272.346	84.48
272.562	8.7
272.777	90.62
272.993	47.62
273.209	20.99
273.425	66.05
273.64	43.52
273.856	113.15
274.072	2.56
274.287	35.33
274.503	90.62
274.719	82.43
274.934	35.33
275.15	-1.54
275.366	25.09
275.581	27.14
275.797	59.9
276.012	14.85
276.228	51.71
276.444	23.04
276.659	57.86
276.875	-58.88
277.09	86.53
277.306	37.38
277.521	57.86
277.737	29.18
277.952	53.76
278.168	18.94
278.383	74.24
278.599	23.04
278.814	111.1
279.03	74.24
279.245	82.43
279.461	-13.82
279.676	53.76
279.892	-142.85
280.107	-3.58
280.322	33.28
280.538	78.33
280.753	-9.73
280.969	25.09
281.184	98.81
281.399	115.2
281.615	39.42
281.83	74.24
282.045	-24.06
282.26	45.57
282.476	39.42
282.691	92.67
282.906	82.43
283.122	94.72
283.337	4.61
283.552	82.43
283.767	-9.73
283.983	10.75
284.198	59.9
284.413	4.61
284.628	-28.16
284.843	66.05
285.058	47.62
285.274	8.7
285.489	68.09
285.704	117.25
285.919	94.72
286.134	74.24
286.349	76.29
286.564	51.71
286.779	61.95
286.995	61.95
287.21	80.38
287.425	107.01
287.64	37.38
287.855	31.23
288.07	-69.12
288.285	96.77
288.5	104.96
288.715	100.86
288.93	-7.68
289.145	37.38
289.36	86.53
289.575	18.94
289.79	82.43
290.004	74.24
290.219	66.05
290.434	72.19
290.649	-34.3
290.864	16.9
291.079	37.38
291.294	64
291.509	104.96
291.724	35.33
291.938	49.66
292.153	125.44
292.368	25.09
292.583	43.52
292.798	127.49
293.012	16.9
293.227	-3.58
293.442	72.19
293.657	147.97
293.871	43.52
294.086	14.85
294.301	94.72
294.516	14.85
294.73	33.28
294.945	-34.3
295.16	55.81
295.374	160.25
295.589	96.77
295.804	18.94
296.018	16.9
296.233	14.85
296.447	57.86
296.662	10.75
296.877	98.81
297.091	61.95
297.306	51.71
297.52	-22.02
297.735	100.86
297.949	20.99
298.164	121.34
298.378	51.71
298.593	68.09
298.807	-9.73
299.022	57.86
299.236	111.1
299.451	41.47
299.665	39.42
299.88	100.86
300.094	72.19
300.309	90.62
300.523	76.29
300.737	76.29
300.952	107.01
301.166	12.8
301.381	55.81
301.595	35.33
301.809	72.19
302.024	51.71
302.238	45.57
302.452	12.8
302.667	20.99
302.881	64
303.095	41.47
303.309	0.51
303.524	-1.54
303.738	-13.82
303.952	55.81
304.166	47.62
304.381	0.51
304.595	61.95
304.809	41.47
305.023	100.86
305.237	41.47
305.452	90.62
305.666	61.95
305.88	74.24
306.094	78.33
306.308	94.72
306.522	92.67
306.736	92.67
306.95	66.05
307.164	64
307.379	2.56
307.593	88.57
307.807	119.29
308.021	4.61
308.235	84.48
308.449	-30.21
308.663	-9.73
308.877	90.62
309.091	76.29
309.305	129.53
309.519	12.8
309.733	53.76
309.947	12.8
310.161	70.14
310.374	109.05
310.588	119.29
310.802	39.42
311.016	92.67
311.23	107.01
311.444	23.04
311.658	20.99
311.872	39.42
312.085	115.2
312.299	82.43
312.513	39.42
312.727	74.24
312.941	51.71
313.154	61.95
313.368	57.86
313.582	90.62
313.796	-7.68
314.009	55.81
314.223	29.18
314.437	49.66
314.651	49.66
314.864	90.62
315.078	107.01
315.292	25.09
315.505	70.14
315.719	12.8
315.933	64
316.146	2.56
316.36	59.9
316.573	57.86
316.787	53.76
317.001	27.14
317.214	20.99
317.428	74.24
317.641	25.09
317.855	12.8
318.068	29.18
318.282	-11.78
318.495	104.96
318.709	8.7
318.922	31.23
319.136	78.33
319.349	129.53
319.563	-22.02
319.776	66.05
319.99	29.18
320.203	57.86
320.417	86.53
320.63	84.48
320.843	104.96
321.057	47.62
321.27	72.19
321.483	137.73
321.697	98.81
321.91	84.48
322.124	29.18
322.337	55.81
322.55	8.7
322.763	-15.87
322.977	39.42
323.19	82.43
323.403	10.75
323.617	86.53
323.83	115.2
324.043	-9.73
324.256	66.05
324.469	-15.87
324.683	72.19
324.896	47.62
325.109	57.86
325.322	-17.92
325.535	33.28
325.748	27.14
325.962	-26.11
326.175	59.9
326.388	72.19
326.601	12.8
326.814	-24.06
327.027	-5.63
327.24	141.82
327.453	10.75
327.666	84.48
327.879	-9.73
328.092	133.63
328.305	55.81
328.518	90.62
328.731	6.66
328.944	-9.73
329.157	33.28
329.37	70.14
329.583	33.28
329.796	90.62
330.009	-9.73
330.222	45.57
330.435	55.81
330.648	94.72
330.861	-26.11
331.073	55.81
331.286	33.28
331.499	49.66
331.712	-15.87
331.925	31.23
332.138	57.86
332.35	84.48
332.563	45.57
332.776	70.14
332.989	-3.58
333.202	27.14
333.414	35.33
333.627	35.33
333.84	76.29
334.053	98.81
334.265	-38.4
334.478	-1.54
334.691	113.15
334.903	76.29
335.116	61.95
335.329	33.28
335.541	119.29
335.754	90.62
335.966	70.14
336.179	29.18
336.392	12.8
336.604	-5.63
336.817	68.09
337.029	59.9
337.242	68.09
337.454	72.19
337.667	80.38
337.88	76.29
338.092	18.94
338.305	70.14
338.517	12.8
338.729	84.48
338.942	88.57
339.154	115.2
339.367	-50.69
339.579	121.34
339.792	-3.58
340.004	117.25
340.217	31.23
340.429	47.62
340.641	14.85
340.854	74.24
341.066	27.14
341.278	117.25
341.491	96.77
341.703	39.42
341.915	20.99
342.128	49.66
342.34	78.33
342.552	59.9
342.764	53.76
342.977	127.49
343.189	33.28
343.401	23.04
343.613	33.28
343.826	59.9
344.038	47.62
344.25	66.05
344.462	64
344.674	6.66
344.886	-11.78
345.099	45.57
345.311	43.52
345.523	31.23
345.735	43.52
345.947	-26.11
346.159	64
346.371	51.71
346.583	23.04
346.795	57.86
347.007	100.86
347.219	70.14
347.431	41.47
347.643	-19.97
347.855	-26.11
348.067	55.81
348.279	45.57
348.491	53.76
348.703	86.53
348.915	84.48
349.127	55.81
349.339	59.9
349.551	51.71
349.763	90.62
349.975	125.44
350.187	33.28
350.399	72.19
350.61	55.81
350.822	84.48
351.034	33.28
351.246	80.38
351.458	53.76
351.669	53.76
351.881	25.09
352.093	72.19
352.305	76.29
352.517	35.33
352.728	59.9
352.94	-26.11
353.152	102.91
353.363	84.48
353.575	104.96
353.787	98.81
353.999	20.99
354.21	59.9
354.422	-11.78
354.633	-1.54
354.845	70.14
355.057	55.81
355.268	119.29
355.48	39.42
355.692	4.61
355.903	33.28
356.115	90.62
356.326	-22.02
356.538	107.01
356.749	39.42
356.961	27.14
357.172	82.43
357.384	10.75
357.595	84.48
357.807	31.23
358.018	-1.54
358.23	41.47
358.441	133.63
358.653	78.33
358.864	37.38
359.075	-7.68
359.287	74.24
359.498	57.86
359.709	27.14
359.921	59.9
360.132	92.67
360.344	70.14
360.555	84.48
360.766	43.52
360.977	14.85
361.189	109.05
361.4	16.9
361.611	45.57
361.823	172.54
362.034	-13.82
362.245	25.09
362.456	76.29
362.667	96.77
362.879	57.86
363.09	53.76
363.301	10.75
363.512	37.38
363.723	25.09
363.935	39.42
364.146	59.9
364.357	66.05
364.568	41.47
364.779	-15.87
364.99	137.73
365.201	33.28
365.412	76.29
365.623	-34.3
365.834	66.05
366.045	-3.58
366.256	59.9
366.467	82.43
366.678	12.8
366.889	90.62
367.1	8.7
367.311	25.09
367.522	37.38
367.733	53.76
367.944	113.15
368.155	4.61
368.366	76.29
368.577	27.14
368.788	25.09
368.999	8.7
369.209	96.77
369.42	207.36
369.631	150.01
369.842	29.18
370.053	64
370.264	100.86
370.474	115.2
370.685	64
370.896	70.14
371.107	10.75
371.317	74.24
371.528	25.09
371.739	53.76
371.95	88.57
372.16	139.77
372.371	-30.21
372.582	57.86
372.792	78.33
373.003	8.7
373.214	98.81
373.424	18.94
373.635	94.72
373.846	107.01
374.056	-3.58
374.267	80.38
374.477	25.09
374.688	78.33
374.898	12.8
375.109	76.29
375.319	23.04
375.53	-26.11
375.74	111.1
375.951	33.28
376.161	25.09
376.372	129.53
376.582	-9.73
376.793	-1.54
377.003	109.05
377.214	8.7
377.424	100.86
377.635	53.76
377.845	104.96
378.055	117.25
378.266	4.61
378.476	23.04
378.686	135.68
378.897	96.77
379.107	55.81
379.317	100.86
379.528	49.66
379.738	90.62
379.948	27.14
380.158	55.81
380.369	-38.4
380.579	-15.87
380.789	33.28
380.999	100.86
381.21	137.73
381.42	102.91
381.63	55.81
381.84	88.57
382.05	107.01
382.261	53.76
382.471	80.38
382.681	57.86
382.891	135.68
383.101	61.95
383.311	-13.82
383.521	25.09
383.731	156.16
383.941	131.58
384.151	64
384.361	74.24
384.571	8.7
384.781	133.63
384.991	100.86
385.201	78.33
385.411	64
385.621	84.48
385.831	107.01
386.041	66.05
386.251	41.47
386.461	25.09
386.671	25.09
386.881	102.91
387.091	53.76
387.301	33.28
387.511	23.04
387.72	82.43
387.93	27.14
388.14	70.14
388.35	100.86
388.56	104.96
388.769	64
388.979	135.68
389.189	107.01
389.399	45.57
389.609	64
389.818	53.76
390.028	96.77
390.238	49.66
390.447	96.77
390.657	47.62
390.867	80.38
391.076	-1.54
391.286	84.48
391.496	39.42
391.705	66.05
391.915	121.34
392.125	70.14
392.334	68.09
392.544	145.92
392.753	31.23
392.963	16.9
393.172	104.96
393.382	92.67
393.591	186.88
393.801	29.18
394.01	190.97
394.22	68.09
394.429	-38.4
394.639	18.94
394.848	49.66
395.058	131.58
395.267	68.09
395.477	72.19
395.686	96.77
395.895	117.25
396.105	162.3
396.314	178.69
396.524	82.43
396.733	86.53
396.942	213.5
397.152	92.67
397.361	117.25
397.57	127.49
397.78	82.43
397.989	104.96
398.198	125.44
398.407	45.57
398.617	96.77
398.826	102.91
399.035	92.67
399.244	162.3
399.453	127.49
399.663	109.05
399.872	147.97
400.081	39.42
400.29	78.33
400.499	86.53
400.708	100.86
400.917	12.8
401.127	139.77
401.336	102.91
401.545	90.62
401.754	107.01
401.963	172.54
402.172	80.38
402.381	78.33
402.59	143.87
402.799	131.58
403.008	150.01
403.217	131.58
403.426	117.25
403.635	96.77
403.844	90.62
404.053	141.82
404.262	107.01
404.471	217.6
404.68	160.25
404.888	170.49
405.097	64
405.306	145.92
405.515	143.87
405.724	90.62
405.933	139.77
406.142	135.68
406.35	174.59
406.559	172.54
406.768	115.2
406.977	254.46
407.185	184.83
407.394	143.87
407.603	223.74
407.812	207.36
408.02	215.55
408.229	156.16
408.438	176.64
408.646	180.73
408.855	195.07
409.064	190.97
409.272	209.4
409.481	195.07
409.69	197.12
409.898	293.37
410.107	287.23
410.315	272.89
410.524	225.79
410.733	313.85
410.941	297.47
411.15	274.94
411.358	285.18
411.567	465.4
411.775	338.43
411.984	307.71
412.192	322.04
412.401	295.42
412.609	365.05
412.818	451.07
413.026	420.35
413.234	412.15
413.443	342.52
413.651	428.54
413.86	436.73
414.068	524.79
414.276	524.79
414.485	412.15
414.693	539.13
414.901	424.44
415.11	551.42
415.318	565.75
415.526	559.61
415.734	619
415.943	575.99
416.151	633.33
416.359	573.94
416.567	676.34
416.776	758.26
416.984	756.21
417.192	696.82
417.4	715.25
417.608	670.2
417.817	725.49
418.025	801.27
418.233	891.38
418.441	836.08
418.649	944.63
418.857	901.62
419.065	1063.41
419.273	891.38
419.481	1038.83
419.689	1081.84
419.897	1075.7
420.105	1004.02
420.313	1208.81
420.521	1241.58
420.729	1266.16
420.937	1235.44
421.145	1245.68
421.353	1356.27
421.561	1460.71
421.769	1440.23
421.977	1458.67
422.185	1505.77
422.393	1556.97
422.601	1634.79
422.809	1685.99
423.017	1694.18
423.224	1767.91
423.432	1839.59
423.64	1823.2
423.848	2101.73
424.056	1972.71
424.263	2109.92
424.471	2142.69
424.679	2097.63
424.887	2128.35
425.094	2408.92
425.302	2218.46
425.51	2261.47
425.718	2535.9
425.925	2560.47
426.133	2539.99
426.341	2812.37
426.548	2941.4
426.756	2992.59
426.964	2851.28
427.171	3215.82
427.379	3226.06
427.586	3256.78
427.794	3289.55
428.001	3477.96
428.209	3793.35
428.417	3623.37
428.624	3914.18
428.832	3776.97
429.039	3897.8
429.247	3754.44
429.454	4245.95
429.662	4426.17
429.869	4127.17
430.076	4383.17
430.284	4385.21
430.491	4557.24
430.699	4768.18
430.906	4714.94
431.114	4868.53
431.321	5036.47
431.528	5302.7
431.736	5499.31
431.943	5675.43
432.15	5358
432.358	5622.19
432.565	5964.2
432.772	5767.59
432.979	6244.77
433.187	6345.12
433.394	6416.8
433.601	6771.1
433.808	6689.18
434.016	6838.68
434.223	6926.74
434.43	7377.3
434.637	7281.04
434.844	7643.53
435.052	8003.97
435.259	7879.05
435.466	8061.32
435.673	7872.9
435.88	8296.83
436.087	8993.14
436.294	8831.35
436.501	8573.31
436.708	8667.52
436.915	8831.35
437.122	9560.43
437.329	9501.04
437.537	9832.81
437.743	9824.62
437.95	9863.53
438.157	10262.88
438.364	10692.96
438.571	10803.55
438.778	10783.07
438.985	11882.83
439.192	11276.63
439.399	11577.68
439.606	11211.09
439.813	11999.56
440.02	12814.65
440.227	12329.28
440.433	12284.23
440.64	12818.75
440.847	12767.55
441.054	12994.87
441.261	13984.04
441.467	13850.92
441.674	13904.17
441.881	14651.68
442.088	14526.75
442.294	14326.05
442.501	14858.53
442.708	15098.14
442.914	15724.82
443.121	16558.34
443.328	15935.76
443.534	17031.42
443.741	16677.12
443.948	16294.15
444.154	17586.42
444.361	17486.07
444.568	17531.12
444.774	17570.04
444.981	17807.6
445.187	18194.67
445.394	19007.71
445.6	18946.27
445.807	20717.76
446.013	19773.65
446.22	20134.09
446.426	20877.51
446.633	21104.83
446.839	21612.73
447.046	20984
447.252	22466.73
447.459	22270.12
447.665	22241.45
447.871	23111.84
448.078	24072.34
448.284	23044.26
448.491	23322.78
448.697	24498.31
448.903	24813.7
449.11	25090.18
449.316	24445.07
449.522	25176.19
449.728	25581.69
449.935	25919.6
450.141	25671.8
450.347	26585.19
450.553	25524.35
450.76	26134.64
450.966	26925.16
451.172	26607.72
451.378	27287.65
451.584	26667.11
451.791	27101.28
451.997	27129.95
452.203	27529.31
452.409	27611.23
452.615	27838.55
452.821	26376.3
453.027	26214.51
453.233	27756.63
453.44	26753.13
453.646	26980.45
453.852	27107.43
454.058	27549.79
454.264	26538.09
454.47	27146.34
454.676	26423.4
454.882	27404.38
455.088	25208.96
455.294	25573.5
455.5	25772.15
455.705	26151.02
455.911	25131.14
456.117	24688.78
456.323	24254.61
456.529	22945.95
456.735	23738.52
456.941	23193.76
457.147	23023.78
457.352	22378.67
457.558	21967.02
457.764	22200.49
457.97	21991.6
458.176	21383.35
458.381	21031.1
458.587	20119.76
458.793	20201.68
458.999	18884.83
459.204	20635.85
459.41	19869.9
459.616	18657.51
459.821	18446.57
460.027	18344.17
460.233	18321.64
460.438	17199.35
460.644	17627.38
460.85	16548.1
461.055	16464.13
461.261	16275.72
461.466	15180.06
461.672	14635.3
461.878	15462.68
462.083	14493.99
462.289	14536.99
462.494	14338.34
462.7	13556.02
462.905	13349.17
463.111	13541.68
463.316	13846.83
463.522	13502.77
463.727	13414.71
463.932	13240.63
464.138	13125.94
464.343	13308.21
464.549	13084.98
464.754	13519.15
464.959	13488.43
465.165	13189.43
465.37	12667.2
465.575	12413.25
465.781	12880.19
465.986	12818.75
466.191	12411.2
466.397	12319.04
466.602	11686.22
466.807	12196.17
467.012	11913.55
467.218	11989.32
467.423	11708.75
467.628	11837.77
467.833	12323.14
468.038	11829.58
