Data from USB4F104151__87__12-24-31-320.txt Node

Date: Fri Mar 14 12:24:31 EDT 2025
User: louis
Spectrometer: USB4F10415
Trigger mode: 4
Integration Time (sec): 3.500000E-2
Scans to average: 1
Electric dark correction enabled: true
Nonlinearity correction enabled: false
Boxcar width: 0
XAxis mode: Wavelengths
Number of Pixels in Spectrum: 3648
>>>>>Begin Spectral Data<<<<<
178.204	-121.51
178.424	-121.51
178.644	-121.51
178.864	-144.04
179.084	-146.09
179.304	34.13
179.524	-53.93
179.744	52.56
179.964	38.23
180.184	7.51
180.404	15.7
180.624	-8.87
180.844	-84.65
181.064	-41.64
181.283	1.37
181.503	19.8
181.723	19.8
181.943	21.84
182.163	36.18
182.383	54.61
182.602	30.04
182.822	103.76
183.042	11.61
183.262	62.8
183.482	87.38
183.701	32.08
183.921	30.04
184.141	5.46
184.361	46.42
184.58	13.65
184.8	-21.16
185.02	64.85
185.239	-2.73
185.459	-45.74
185.679	44.37
185.898	-27.31
186.118	52.56
186.338	-27.31
186.557	46.42
186.777	56.66
186.997	34.13
187.216	87.38
187.436	85.33
187.655	83.28
187.875	77.14
188.095	13.65
188.314	32.08
188.534	52.56
188.753	54.61
188.973	9.56
189.192	105.81
189.412	-6.83
189.631	11.61
189.851	50.52
190.07	120.15
190.29	46.42
190.509	3.41
190.729	62.8
190.948	54.61
191.168	202.07
191.387	50.52
191.607	-66.22
191.826	34.13
192.045	56.66
192.265	40.28
192.484	-0.68
192.704	36.18
192.923	-8.87
193.142	169.3
193.362	15.7
193.581	66.9
193.8	44.37
194.02	60.76
194.239	71
194.458	21.84
194.678	73.04
194.897	38.23
195.116	52.56
195.335	5.46
195.555	87.38
195.774	68.95
195.993	46.42
196.212	44.37
196.432	34.13
196.651	46.42
196.87	-66.22
197.089	15.7
197.308	81.24
197.528	89.43
197.747	-47.79
197.966	97.62
198.185	101.72
198.404	3.41
198.623	91.48
198.842	56.66
199.062	73.04
199.281	64.85
199.5	-21.16
199.719	27.99
199.938	50.52
200.157	50.52
200.376	-6.83
200.595	46.42
200.814	34.13
201.033	-33.45
201.252	161.11
201.471	-15.02
201.69	46.42
201.909	48.47
202.128	-0.68
202.347	27.99
202.566	66.9
202.785	50.52
203.004	5.46
203.223	64.85
203.442	60.76
203.661	34.13
203.879	62.8
204.098	126.29
204.317	-21.16
204.536	77.14
204.755	-10.92
204.974	114
205.193	54.61
205.411	58.71
205.63	15.7
205.849	91.48
206.068	32.08
206.287	77.14
206.505	46.42
206.724	25.94
206.943	25.94
207.162	1.37
207.381	15.7
207.599	46.42
207.818	23.89
208.037	77.14
208.255	71
208.474	11.61
208.693	81.24
208.911	9.56
209.13	23.89
209.349	-4.78
209.567	27.99
209.786	87.38
210.005	5.46
210.223	79.19
210.442	-12.97
210.661	68.95
210.879	-6.83
211.098	77.14
211.316	30.04
211.535	44.37
211.753	44.37
211.972	36.18
212.191	-39.59
212.409	32.08
212.628	7.51
212.846	-49.83
213.065	52.56
213.283	44.37
213.502	89.43
213.72	13.65
213.938	30.04
214.157	64.85
214.375	109.91
214.594	23.89
214.812	64.85
215.031	64.85
215.249	44.37
215.467	-6.83
215.686	-0.68
215.904	132.44
216.122	27.99
216.341	40.28
216.559	5.46
216.778	79.19
216.996	-12.97
217.214	3.41
217.432	17.75
217.651	44.37
217.869	71
218.087	75.09
218.306	19.8
218.524	11.61
218.742	-39.59
218.96	87.38
219.179	44.37
219.397	-41.64
219.615	73.04
219.833	34.13
220.051	-31.4
220.27	56.66
220.488	75.09
220.706	-31.4
220.924	-25.26
221.142	56.66
221.36	75.09
221.578	30.04
221.796	-31.4
222.015	-19.11
222.233	60.76
222.451	71
222.669	-4.78
222.887	175.44
223.105	-39.59
223.323	66.9
223.541	21.84
223.759	66.9
223.977	38.23
224.195	36.18
224.413	27.99
224.631	64.85
224.849	19.8
225.067	15.7
225.285	-21.16
225.503	-6.83
225.721	9.56
225.939	-4.78
226.157	9.56
226.375	109.91
226.592	93.52
226.81	-76.46
227.028	48.47
227.246	34.13
227.464	44.37
227.682	54.61
227.9	-6.83
228.117	73.04
228.335	62.8
228.553	38.23
228.771	15.7
228.989	85.33
229.206	36.18
229.424	-0.68
229.642	17.75
229.86	48.47
230.077	64.85
230.295	-21.16
230.513	42.32
230.731	-12.97
230.948	17.75
231.166	34.13
231.384	87.38
231.601	-41.64
231.819	60.76
232.037	9.56
232.254	11.61
232.472	27.99
232.689	19.8
232.907	93.52
233.125	15.7
233.342	-35.5
233.56	7.51
233.777	-19.11
233.995	17.75
234.213	42.32
234.43	75.09
234.648	83.28
234.865	40.28
235.083	21.84
235.3	-0.68
235.518	21.84
235.735	52.56
235.953	79.19
236.17	9.56
236.388	-4.78
236.605	27.99
236.822	124.24
237.04	105.81
237.257	136.53
237.475	54.61
237.692	-0.68
237.909	68.95
238.127	60.76
238.344	50.52
238.562	34.13
238.779	13.65
238.996	9.56
239.214	83.28
239.431	81.24
239.648	23.89
239.865	79.19
240.083	130.39
240.3	-19.11
240.517	-8.87
240.735	21.84
240.952	52.56
241.169	75.09
241.386	30.04
241.603	58.71
241.821	5.46
242.038	77.14
242.255	116.05
242.472	-19.11
242.689	13.65
242.907	93.52
243.124	-78.51
243.341	-8.87
243.558	32.08
243.775	93.52
243.992	5.46
244.209	71
244.426	120.15
244.643	23.89
244.86	71
245.078	44.37
245.295	11.61
245.512	38.23
245.729	11.61
245.946	75.09
246.163	122.2
246.38	79.19
246.597	54.61
246.814	25.94
247.031	-25.26
247.248	50.52
247.464	91.48
247.681	15.7
247.898	3.41
248.115	54.61
248.332	32.08
248.549	99.67
248.766	87.38
248.983	77.14
249.2	103.76
249.417	114
249.633	75.09
249.85	27.99
250.067	111.96
250.284	60.76
250.501	64.85
250.717	101.72
250.934	23.89
251.151	11.61
251.368	-4.78
251.585	66.9
251.801	56.66
252.018	-12.97
252.235	48.47
252.451	46.42
252.668	46.42
252.885	101.72
253.102	62.8
253.318	99.67
253.535	54.61
253.752	9.56
253.968	116.05
254.185	9.56
254.401	46.42
254.618	42.32
254.835	32.08
255.051	128.34
255.268	81.24
255.484	34.13
255.701	15.7
255.917	85.33
256.134	23.89
256.351	-0.68
256.567	44.37
256.784	64.85
257	-10.92
257.217	111.96
257.433	44.37
257.65	30.04
257.866	130.39
258.082	1.37
258.299	-0.68
258.515	148.82
258.732	19.8
258.948	32.08
259.165	97.62
259.381	42.32
259.597	-4.78
259.814	56.66
260.03	-10.92
260.246	11.61
260.463	36.18
260.679	60.76
260.895	27.99
261.112	3.41
261.328	95.57
261.544	27.99
261.761	105.81
261.977	19.8
262.193	46.42
262.409	62.8
262.626	62.8
262.842	38.23
263.058	15.7
263.274	109.91
263.49	40.28
263.707	134.48
263.923	-19.11
264.139	-2.73
264.355	-6.83
264.571	97.62
264.787	99.67
265.004	89.43
265.22	9.56
265.436	54.61
265.652	15.7
265.868	91.48
266.084	21.84
266.3	89.43
266.516	32.08
266.732	40.28
266.948	87.38
267.164	5.46
267.38	42.32
267.596	75.09
267.812	93.52
268.028	81.24
268.244	36.18
268.46	56.66
268.676	-15.02
268.892	42.32
269.108	89.43
269.324	60.76
269.54	-29.35
269.756	62.8
269.972	5.46
270.188	62.8
270.403	13.65
270.619	50.52
270.835	44.37
271.051	60.76
271.267	21.84
271.483	32.08
271.698	-10.92
271.914	23.89
272.13	44.37
272.346	13.65
272.562	71
272.777	120.15
272.993	73.04
273.209	25.94
273.425	58.71
273.64	25.94
273.856	21.84
274.072	83.28
274.287	-51.88
274.503	17.75
274.719	42.32
274.934	136.53
275.15	1.37
275.366	68.95
275.581	50.52
275.797	105.81
276.012	5.46
276.228	83.28
276.444	79.19
276.659	46.42
276.875	7.51
277.09	-6.83
277.306	19.8
277.521	75.09
277.737	9.56
277.952	93.52
278.168	32.08
278.383	56.66
278.599	83.28
278.814	48.47
279.03	46.42
279.245	109.91
279.461	19.8
279.676	54.61
279.892	1.37
280.107	-35.5
280.322	3.41
280.538	44.37
280.753	34.13
280.969	17.75
281.184	13.65
281.399	95.57
281.615	27.99
281.83	95.57
282.045	48.47
282.26	87.38
282.476	64.85
282.691	122.2
282.906	-33.45
283.122	85.33
283.337	91.48
283.552	25.94
283.767	-12.97
283.983	99.67
284.198	120.15
284.413	54.61
284.628	3.41
284.843	38.23
285.058	85.33
285.274	60.76
285.489	19.8
285.704	85.33
285.919	-60.07
286.134	3.41
286.349	34.13
286.564	-25.26
286.779	50.52
286.995	15.7
287.21	-19.11
287.425	42.32
287.64	48.47
287.855	32.08
288.07	48.47
288.285	71
288.5	46.42
288.715	111.96
288.93	99.67
289.145	75.09
289.36	95.57
289.575	15.7
289.79	56.66
290.004	30.04
290.219	73.04
290.434	40.28
290.649	-49.83
290.864	64.85
291.079	56.66
291.294	3.41
291.509	44.37
291.724	109.91
291.938	38.23
292.153	60.76
292.368	19.8
292.583	85.33
292.798	60.76
293.012	38.23
293.227	44.37
293.442	19.8
293.657	91.48
293.871	152.91
294.086	-15.02
294.301	95.57
294.516	56.66
294.73	56.66
294.945	75.09
295.16	44.37
295.374	21.84
295.589	79.19
295.804	44.37
296.018	73.04
296.233	140.63
296.447	17.75
296.662	-31.4
296.877	46.42
297.091	-19.11
297.306	101.72
297.52	36.18
297.735	85.33
297.949	48.47
298.164	87.38
298.378	34.13
298.593	27.99
298.807	75.09
299.022	91.48
299.236	85.33
299.451	93.52
299.665	23.89
299.88	79.19
300.094	73.04
300.309	99.67
300.523	91.48
300.737	38.23
300.952	77.14
301.166	5.46
301.381	54.61
301.595	48.47
301.809	-35.5
302.024	68.95
302.238	32.08
302.452	95.57
302.667	17.75
302.881	66.9
303.095	77.14
303.309	-23.21
303.524	56.66
303.738	1.37
303.952	60.76
304.166	148.82
304.381	58.71
304.595	146.77
304.809	95.57
305.023	144.72
305.237	66.9
305.452	54.61
305.666	-12.97
305.88	23.89
306.094	21.84
306.308	-17.07
306.522	87.38
306.736	97.62
306.95	-8.87
307.164	-4.78
307.379	5.46
307.593	75.09
307.807	136.53
308.021	68.95
308.235	38.23
308.449	64.85
308.663	17.75
308.877	99.67
309.091	21.84
309.305	38.23
309.519	-64.17
309.733	23.89
309.947	19.8
310.161	134.48
310.374	62.8
310.588	40.28
310.802	97.62
311.016	52.56
311.23	89.43
311.444	5.46
311.658	87.38
311.872	42.32
312.085	105.81
312.299	101.72
312.513	46.42
312.727	120.15
312.941	87.38
313.154	73.04
313.368	81.24
313.582	95.57
313.796	-27.31
314.009	38.23
314.223	-4.78
314.437	40.28
314.651	124.24
314.864	54.61
315.078	60.76
315.292	13.65
315.505	79.19
315.719	128.34
315.933	71
316.146	36.18
316.36	64.85
316.573	95.57
316.787	34.13
317.001	19.8
317.214	-12.97
317.428	38.23
317.641	52.56
317.855	71
318.068	124.24
318.282	107.86
318.495	142.68
318.709	68.95
318.922	15.7
319.136	116.05
319.349	150.87
319.563	40.28
319.776	79.19
319.99	17.75
320.203	-23.21
320.417	42.32
320.63	109.91
320.843	68.95
321.057	40.28
321.27	1.37
321.483	83.28
321.697	85.33
321.91	-2.73
322.124	81.24
322.337	13.65
322.55	32.08
322.763	48.47
322.977	15.7
323.19	44.37
323.403	38.23
323.617	52.56
323.83	50.52
324.043	52.56
324.256	-12.97
324.469	-27.31
324.683	136.53
324.896	71
325.109	126.29
325.322	-25.26
325.535	40.28
325.748	99.67
325.962	46.42
326.175	40.28
326.388	60.76
326.601	91.48
326.814	81.24
327.027	13.65
327.24	101.72
327.453	-10.92
327.666	44.37
327.879	27.99
328.092	52.56
328.305	134.48
328.518	79.19
328.731	93.52
328.944	93.52
329.157	97.62
329.37	83.28
329.583	64.85
329.796	30.04
330.009	-55.98
330.222	-4.78
330.435	46.42
330.648	-6.83
330.861	32.08
331.073	107.86
331.286	95.57
331.499	85.33
331.712	52.56
331.925	27.99
332.138	36.18
332.35	58.71
332.563	11.61
332.776	71
332.989	-12.97
333.202	36.18
333.414	-23.21
333.627	58.71
333.84	71
334.053	134.48
334.265	11.61
334.478	130.39
334.691	128.34
334.903	64.85
335.116	68.95
335.329	9.56
335.541	3.41
335.754	157.01
335.966	46.42
336.179	-37.55
336.392	36.18
336.604	54.61
336.817	95.57
337.029	77.14
337.242	-6.83
337.454	93.52
337.667	89.43
337.88	89.43
338.092	32.08
338.305	27.99
338.517	-8.87
338.729	144.72
338.942	75.09
339.154	111.96
339.367	-37.55
339.579	99.67
339.792	5.46
340.004	103.76
340.217	32.08
340.429	128.34
340.641	3.41
340.854	52.56
341.066	71
341.278	93.52
341.491	120.15
341.703	19.8
341.915	114
342.128	103.76
342.34	79.19
342.552	27.99
342.764	-31.4
342.977	66.9
343.189	81.24
343.401	38.23
343.613	-31.4
343.826	48.47
344.038	3.41
344.25	103.76
344.462	-43.69
344.674	40.28
344.886	66.9
345.099	71
345.311	66.9
345.523	101.72
345.735	-70.31
345.947	75.09
346.159	50.52
346.371	44.37
346.583	122.2
346.795	87.38
347.007	17.75
347.219	71
347.431	66.9
347.643	105.81
347.855	-6.83
348.067	87.38
348.279	27.99
348.491	103.76
348.703	42.32
348.915	97.62
349.127	34.13
349.339	56.66
349.551	-4.78
349.763	62.8
349.975	77.14
350.187	95.57
350.399	134.48
350.61	54.61
350.822	54.61
351.034	56.66
351.246	23.89
351.458	48.47
351.669	44.37
351.881	15.7
352.093	38.23
352.305	85.33
352.517	36.18
352.728	56.66
352.94	62.8
353.152	44.37
353.363	25.94
353.575	30.04
353.787	107.86
353.999	136.53
354.21	132.44
354.422	-25.26
354.633	71
354.845	95.57
355.057	81.24
355.268	83.28
355.48	103.76
355.692	17.75
355.903	89.43
356.115	-2.73
356.326	58.71
356.538	50.52
356.749	-29.35
356.961	109.91
357.172	13.65
357.384	48.47
357.595	97.62
357.807	79.19
358.018	54.61
358.23	-12.97
358.441	111.96
358.653	44.37
358.864	85.33
359.075	-53.93
359.287	87.38
359.498	87.38
359.709	44.37
359.921	120.15
360.132	27.99
360.344	36.18
360.555	44.37
360.766	97.62
360.977	46.42
361.189	46.42
361.4	32.08
361.611	116.05
361.823	25.94
362.034	109.91
362.245	34.13
362.456	38.23
362.667	99.67
362.879	58.71
363.09	71
363.301	60.76
363.512	66.9
363.723	71
363.935	73.04
364.146	85.33
364.357	-10.92
364.568	140.63
364.779	48.47
364.99	21.84
365.201	23.89
365.412	109.91
365.623	27.99
365.834	122.2
366.045	111.96
366.256	77.14
366.467	52.56
366.678	62.8
366.889	87.38
367.1	25.94
367.311	128.34
367.522	68.95
367.733	44.37
367.944	50.52
368.155	52.56
368.366	114
368.577	152.91
368.788	56.66
368.999	52.56
369.209	23.89
369.42	130.39
369.631	56.66
369.842	42.32
370.053	34.13
370.264	109.91
370.474	48.47
370.685	68.95
370.896	81.24
371.107	111.96
371.317	81.24
371.528	40.28
371.739	146.77
371.95	77.14
372.16	42.32
372.371	17.75
372.582	58.71
372.792	75.09
373.003	38.23
373.214	-23.21
373.424	85.33
373.635	25.94
373.846	91.48
374.056	46.42
374.267	75.09
374.477	42.32
374.688	50.52
374.898	58.71
375.109	68.95
375.319	42.32
375.53	68.95
375.74	75.09
375.951	40.28
376.161	48.47
376.372	87.38
376.582	81.24
376.793	62.8
377.003	79.19
377.214	23.89
377.424	-45.74
377.635	19.8
377.845	56.66
378.055	152.91
378.266	111.96
378.476	91.48
378.686	97.62
378.897	91.48
379.107	9.56
379.317	79.19
379.528	50.52
379.738	40.28
379.948	-23.21
380.158	99.67
380.369	23.89
380.579	32.08
380.789	21.84
380.999	48.47
381.21	134.48
381.42	89.43
381.63	152.91
381.84	124.24
382.05	64.85
382.261	48.47
382.471	58.71
382.681	50.52
382.891	64.85
383.101	136.53
383.311	34.13
383.521	56.66
383.731	58.71
383.941	126.29
384.151	60.76
384.361	-6.83
384.571	148.82
384.781	75.09
384.991	77.14
385.201	85.33
385.411	50.52
385.621	56.66
385.831	54.61
386.041	120.15
386.251	44.37
386.461	60.76
386.671	56.66
386.881	27.99
387.091	5.46
387.301	167.25
387.511	21.84
387.72	46.42
387.93	60.76
388.14	89.43
388.35	40.28
388.56	167.25
388.769	81.24
388.979	103.76
389.189	-17.07
389.399	40.28
389.609	93.52
389.818	66.9
390.028	38.23
390.238	124.24
390.447	13.65
390.657	7.51
390.867	114
391.076	81.24
391.286	68.95
391.496	97.62
391.705	60.76
391.915	97.62
392.125	116.05
392.334	62.8
392.544	140.63
392.753	99.67
392.963	11.61
393.172	75.09
393.382	128.34
393.591	103.76
393.801	50.52
394.01	109.91
394.22	71
394.429	66.9
394.639	-25.26
394.848	101.72
395.058	150.87
395.267	109.91
395.477	120.15
395.686	60.76
395.895	99.67
396.105	71
396.314	71
396.524	89.43
396.733	136.53
396.942	183.63
397.152	75.09
397.361	85.33
397.57	185.68
397.78	81.24
397.989	75.09
398.198	116.05
398.407	34.13
398.617	27.99
398.826	128.34
399.035	48.47
399.244	128.34
399.453	144.72
399.663	99.67
399.872	109.91
400.081	89.43
400.29	169.3
400.499	109.91
400.708	128.34
400.917	87.38
401.127	75.09
401.336	111.96
401.545	134.48
401.754	159.06
401.963	200.02
402.172	154.96
402.381	181.59
402.59	161.11
402.799	99.67
403.008	181.59
403.217	120.15
403.426	122.2
403.635	87.38
403.844	140.63
404.053	111.96
404.262	185.68
404.471	195.92
404.68	204.11
404.888	195.92
405.097	148.82
405.306	128.34
405.515	130.39
405.724	111.96
405.933	206.16
406.142	97.62
406.35	154.96
406.559	202.07
406.768	232.79
406.977	234.83
407.185	238.93
407.394	216.4
407.603	128.34
407.812	167.25
408.02	286.03
408.229	247.12
408.438	204.11
408.646	243.03
408.855	204.11
409.064	212.31
409.272	257.36
409.481	382.29
409.69	320.85
409.898	269.65
410.107	281.94
410.315	333.14
410.524	304.46
410.733	341.33
410.941	269.65
411.15	326.99
411.358	365.9
411.567	425.29
411.775	345.42
411.984	363.86
412.192	453.97
412.401	404.82
412.609	523.6
412.818	560.46
413.026	462.16
413.234	511.31
413.443	517.45
413.651	544.08
413.86	556.36
414.068	603.47
414.276	578.89
414.485	634.19
414.693	634.19
414.901	779.59
415.11	730.44
415.318	748.87
415.526	757.07
415.734	767.31
415.943	746.83
416.151	830.79
416.359	808.26
416.567	947.53
416.776	836.94
416.984	922.95
417.192	931.14
417.4	935.24
417.608	970.05
417.817	1043.78
418.025	996.68
418.233	1144.13
418.441	1097.03
418.649	1187.14
418.857	1291.59
419.065	1260.87
419.273	1154.37
419.481	1330.5
419.689	1410.37
419.897	1398.08
420.105	1461.57
420.313	1523.01
420.521	1563.97
420.729	1658.17
420.937	1707.32
421.145	1770.81
421.353	1809.72
421.561	1910.07
421.769	1934.65
421.977	1955.13
422.185	2037.05
422.393	2108.73
422.601	2245.94
422.809	2241.84
423.017	2133.3
423.224	2334
423.432	2352.43
423.64	2354.48
423.848	2747.69
424.056	2661.68
424.263	2755.88
424.471	2755.88
424.679	2942.25
424.887	3001.64
425.094	3071.27
425.302	3153.19
425.51	3095.85
425.718	3298.59
425.925	3255.59
426.133	3439.9
426.341	3675.42
426.548	3794.2
426.756	3800.35
426.964	3900.7
427.171	4101.4
427.379	4144.41
427.586	4275.48
427.794	4453.65
428.001	4562.19
428.209	4795.66
428.417	4723.98
428.624	5186.82
428.832	4990.22
429.039	5072.14
429.247	4924.68
429.454	5534.98
429.662	5991.67
429.869	5580.03
430.076	5924.09
430.284	5680.38
430.491	5926.14
430.699	6305.01
430.906	6337.78
431.114	6497.52
431.321	6657.26
431.528	6771.95
431.736	7228.65
431.943	7576.8
432.15	7320.81
432.358	7464.16
432.565	7537.89
432.772	7761.12
432.979	7879.9
433.187	8471.76
433.394	8234.2
433.601	8858.83
433.808	9077.96
434.016	9092.3
434.223	9505.99
434.43	9907.39
434.637	9686.21
434.844	10300.6
435.052	10480.82
435.259	10335.42
435.466	10689.71
435.673	10380.47
435.88	11066.54
436.087	11707.55
436.294	11666.6
436.501	11588.77
436.708	11513
436.915	12156.06
437.122	12461.21
437.329	12678.29
437.537	13030.54
437.743	13253.77
437.95	13048.97
438.157	13804.67
438.364	14265.47
438.571	14044.29
438.778	14314.62
438.985	15543.4
439.192	14982.26
439.399	15553.64
439.606	15246.44
439.813	16061.54
440.02	16970.83
440.227	16460.89
440.433	16596.06
440.64	16921.68
440.847	16938.07
441.054	17359.95
441.261	18521.15
441.467	18580.54
441.674	18717.75
441.881	19141.68
442.088	19315.76
442.294	19342.38
442.501	19749.93
442.708	20046.88
442.914	20683.8
443.121	21650.44
443.328	21050.39
443.534	22588.41
443.741	22021.13
443.948	21795.85
444.154	23391.22
444.361	23129.08
444.568	23104.5
444.774	23184.37
444.981	23555.05
445.187	24370.15
445.394	25158.61
445.6	25068.5
445.807	27300.79
446.013	26184.65
446.22	26766.27
446.426	27880.36
446.633	28031.91
446.839	28982.17
447.046	27814.83
447.252	29531.03
447.459	29154.2
447.665	29023.13
447.871	30575.49
448.078	31847.28
448.284	30768
448.491	31312.76
448.697	32420.71
448.903	32928.61
449.11	32826.21
449.316	32414.57
449.522	33411.93
449.728	34188.11
449.935	34341.71
450.141	34399.05
450.347	34939.71
450.553	33958.74
450.76	34648.9
450.966	35777.33
451.172	35158.84
451.378	36018.99
451.584	35527.48
451.791	36037.42
451.997	36072.24
452.203	36494.12
452.409	36817.7
452.615	36416.3
452.821	35136.32
453.027	35076.93
453.233	36541.22
453.44	35361.59
453.646	35449.66
453.852	35763
454.058	36758.31
454.264	35011.39
454.47	36238.12
454.676	35164.99
454.882	36401.96
455.088	33045.34
455.294	33373.02
455.5	34245.45
455.705	34245.45
455.911	32815.97
456.117	32559.97
456.323	31923.05
456.529	30229.38
456.735	31509.36
456.941	30794.62
457.147	30169.99
457.352	29143.96
457.558	29232.02
457.764	29326.23
457.97	28425.12
458.176	27481.01
458.381	27990.95
458.587	26649.53
458.793	26428.35
458.999	25127.89
459.204	27147.19
459.41	26145.73
459.616	24439.78
459.821	24124.39
460.027	24259.56
460.233	23823.34
460.438	22440.96
460.644	23186.42
460.85	21820.42
461.055	21537.8
461.261	21349.39
461.466	19780.65
461.672	19377.2
461.878	20655.13
462.083	19225.65
462.289	18768.95
462.494	18637.88
462.7	17810.5
462.905	17294.41
463.111	17933.38
463.316	18127.94
463.522	17663.05
463.727	17617.99
463.932	17761.35
464.138	17511.5
464.343	17646.66
464.549	17026.13
464.754	17493.07
464.959	17667.14
465.165	17241.17
465.37	16585.82
465.575	16360.54
465.781	16755.8
465.986	16911.44
466.191	16315.48
466.397	15694.95
466.602	15137.9
466.807	15799.4
467.012	15793.25
467.218	15778.92
467.423	15565.93
467.628	15647.85
467.833	16462.94
468.038	15780.96
