Data from USB4F104151__95__12-24-55-887.txt Node

Date: Fri Mar 14 12:24:55 EDT 2025
User: louis
Spectrometer: USB4F10415
Trigger mode: 4
Integration Time (sec): 3.500000E-2
Scans to average: 1
Electric dark correction enabled: true
Nonlinearity correction enabled: false
Boxcar width: 0
XAxis mode: Wavelengths
Number of Pixels in Spectrum: 3648
>>>>>Begin Spectral Data<<<<<
178.204	-161.96
178.424	-161.96
178.644	-161.96
178.864	-139.43
179.084	-155.82
179.304	5.97
179.524	85.84
179.744	-26.79
179.964	-12.46
180.184	-49.32
180.404	12.12
180.624	-12.46
180.844	-0.17
181.064	1.88
181.283	77.65
181.503	-104.62
181.723	22.36
181.943	-41.13
182.163	135
182.383	-22.7
182.602	18.26
182.822	32.6
183.042	-20.65
183.262	-16.55
183.482	42.84
183.701	-45.23
183.921	-6.31
184.141	-0.17
184.361	65.36
184.58	30.55
184.8	-16.55
185.02	-18.6
185.239	1.88
185.459	18.26
185.679	67.41
185.898	16.21
186.118	3.93
186.338	-2.22
186.557	110.42
186.777	83.8
186.997	46.93
187.216	-8.36
187.436	91.99
187.655	124.76
187.875	108.37
188.095	81.75
188.314	91.99
188.534	26.45
188.753	48.98
188.973	40.79
189.192	110.42
189.412	-16.55
189.631	40.79
189.851	24.4
190.07	8.02
190.29	-26.79
190.509	24.4
190.729	-106.67
190.948	67.41
191.168	116.56
191.387	44.88
191.607	-28.84
191.826	104.28
192.045	116.56
192.265	-45.23
192.484	100.18
192.704	-55.47
192.923	-55.47
193.142	28.5
193.362	48.98
193.581	48.98
193.8	36.69
194.02	53.08
194.239	98.13
194.458	63.32
194.678	44.88
194.897	46.93
195.116	-2.22
195.335	-22.7
195.555	63.32
195.774	24.4
195.993	69.46
196.212	94.04
196.432	-10.41
196.651	-18.6
196.87	30.55
197.089	28.5
197.308	96.08
197.528	-30.89
197.747	-69.8
197.966	8.02
198.185	38.74
198.404	40.79
198.623	59.22
198.842	-49.32
199.062	59.22
199.281	36.69
199.5	1.88
199.719	-4.27
199.938	63.32
200.157	-18.6
200.376	28.5
200.595	73.56
200.814	26.45
201.033	67.41
201.252	-6.31
201.471	34.64
201.69	36.69
201.909	57.17
202.128	18.26
202.347	10.07
202.566	-53.42
202.785	-26.79
203.004	-53.42
203.223	59.22
203.442	51.03
203.661	-12.46
203.879	51.03
204.098	42.84
204.317	-24.75
204.536	12.12
204.755	16.21
204.974	8.02
205.193	26.45
205.411	83.8
205.63	20.31
205.849	5.97
206.068	8.02
206.287	83.8
206.505	20.31
206.724	-2.22
206.943	36.69
207.162	-41.13
207.381	-0.17
207.599	5.97
207.818	18.26
208.037	-2.22
208.255	77.65
208.474	16.21
208.693	77.65
208.911	36.69
209.13	-32.94
209.349	-51.37
209.567	20.31
209.786	55.12
210.005	55.12
210.223	24.4
210.442	-41.13
210.661	-18.6
210.879	69.46
211.098	-30.89
211.316	28.5
211.535	28.5
211.753	-39.08
211.972	85.84
212.191	1.88
212.409	-32.94
212.628	36.69
212.846	-10.41
213.065	34.64
213.283	26.45
213.502	71.51
213.72	-24.75
213.938	1.88
214.157	34.64
214.375	79.7
214.594	38.74
214.812	51.03
215.031	36.69
215.249	34.64
215.467	-18.6
215.686	-18.6
215.904	71.51
216.122	42.84
216.341	38.74
216.559	67.41
216.778	48.98
216.996	46.93
217.214	30.55
217.432	38.74
217.651	-22.7
217.869	8.02
218.087	14.17
218.306	-8.36
218.524	48.98
218.742	-14.51
218.96	48.98
219.179	40.79
219.397	-8.36
219.615	106.32
219.833	-41.13
220.051	-49.32
220.27	106.32
220.488	22.36
220.706	87.89
220.924	3.93
221.142	53.08
221.36	14.17
221.578	-4.27
221.796	16.21
222.015	51.03
222.233	40.79
222.451	-6.31
222.669	-18.6
222.887	96.08
223.105	-28.84
223.323	32.6
223.541	-14.51
223.759	61.27
223.977	-10.41
224.195	65.36
224.413	10.07
224.631	24.4
224.849	96.08
225.067	110.42
225.285	-24.75
225.503	-55.47
225.721	-67.75
225.939	-32.94
226.157	-24.75
226.375	141.14
226.592	-77.99
226.81	34.64
227.028	44.88
227.246	139.09
227.464	-4.27
227.682	89.94
227.9	32.6
228.117	46.93
228.335	48.98
228.553	-18.6
228.771	71.51
228.989	-18.6
229.206	22.36
229.424	24.4
229.642	-14.51
229.86	-2.22
230.077	40.79
230.295	89.94
230.513	53.08
230.731	94.04
230.948	44.88
231.166	65.36
231.384	10.07
231.601	22.36
231.819	59.22
232.037	51.03
232.254	-41.13
232.472	16.21
232.689	-26.79
232.907	61.27
233.125	102.23
233.342	30.55
233.56	-49.32
233.777	36.69
233.995	63.32
234.213	61.27
234.43	14.17
234.648	22.36
234.865	3.93
235.083	-16.55
235.3	1.88
235.518	83.8
235.735	116.56
235.953	110.42
236.17	5.97
236.388	12.12
236.605	26.45
236.822	65.36
237.04	46.93
237.257	38.74
237.475	8.02
237.692	87.89
237.909	14.17
238.127	24.4
238.344	46.93
238.562	12.12
238.779	-34.99
238.996	-6.31
239.214	-16.55
239.431	110.42
239.648	40.79
239.865	51.03
240.083	57.17
240.3	20.31
240.517	44.88
240.735	-26.79
240.952	34.64
241.169	22.36
241.386	122.71
241.603	-43.18
241.821	57.17
242.038	10.07
242.255	51.03
242.472	-18.6
242.689	8.02
242.907	53.08
243.124	18.26
243.341	5.97
243.558	46.93
243.775	-59.56
243.992	16.21
244.209	120.66
244.426	112.47
244.643	77.65
244.86	18.26
245.078	-55.47
245.295	40.79
245.512	48.98
245.729	48.98
245.946	20.31
246.163	51.03
246.38	-14.51
246.597	106.32
246.814	69.46
247.031	-4.27
247.248	81.75
247.464	5.97
247.681	-51.37
247.898	26.45
248.115	8.02
248.332	85.84
248.549	36.69
248.766	116.56
248.983	22.36
249.2	1.88
249.417	126.8
249.633	18.26
249.85	26.45
250.067	22.36
250.284	-12.46
250.501	28.5
250.717	-18.6
250.934	-59.56
251.151	12.12
251.368	38.74
251.585	75.6
251.801	8.02
252.018	-0.17
252.235	22.36
252.451	85.84
252.668	-2.22
252.885	89.94
253.102	36.69
253.318	59.22
253.535	-0.17
253.752	36.69
253.968	44.88
254.185	12.12
254.401	28.5
254.618	100.18
254.835	61.27
255.051	96.08
255.268	1.88
255.484	20.31
255.701	44.88
255.917	79.7
256.134	-45.23
256.351	-16.55
256.567	-18.6
256.784	3.93
257	-41.13
257.217	22.36
257.433	-2.22
257.65	71.51
257.866	85.84
258.082	-8.36
258.299	-24.75
258.515	5.97
258.732	-57.51
258.948	38.74
259.165	20.31
259.381	-26.79
259.597	57.17
259.814	-0.17
260.03	-6.31
260.246	12.12
260.463	79.7
260.679	73.56
260.895	85.84
261.112	30.55
261.328	46.93
261.544	-37.03
261.761	89.94
261.977	-51.37
262.193	30.55
262.409	36.69
262.626	63.32
262.842	53.08
263.058	53.08
263.274	46.93
263.49	16.21
263.707	79.7
263.923	24.4
264.139	81.75
264.355	53.08
264.571	153.43
264.787	79.7
265.004	83.8
265.22	-55.47
265.436	30.55
265.652	-4.27
265.868	55.12
266.084	-0.17
266.3	77.65
266.516	-65.71
266.732	65.36
266.948	12.12
267.164	5.97
267.38	46.93
267.596	67.41
267.812	159.57
268.028	59.22
268.244	34.64
268.46	16.21
268.676	42.84
268.892	96.08
269.108	-39.08
269.324	79.7
269.54	3.93
269.756	106.32
269.972	10.07
270.188	-18.6
270.403	-14.51
270.619	53.08
270.835	-20.65
271.051	34.64
271.267	38.74
271.483	51.03
271.698	91.99
271.914	14.17
272.13	67.41
272.346	20.31
272.562	57.17
272.777	79.7
272.993	34.64
273.209	-8.36
273.425	55.12
273.64	-20.65
273.856	46.93
274.072	75.6
274.287	-65.71
274.503	-4.27
274.719	48.98
274.934	85.84
275.15	-18.6
275.366	24.4
275.581	30.55
275.797	3.93
276.012	10.07
276.228	12.12
276.444	-12.46
276.659	118.61
276.875	20.31
277.09	32.6
277.306	-2.22
277.521	57.17
277.737	-0.17
277.952	28.5
278.168	91.99
278.383	42.84
278.599	10.07
278.814	-4.27
279.03	-18.6
279.245	102.23
279.461	46.93
279.676	59.22
279.892	-12.46
280.107	32.6
280.322	12.12
280.538	67.41
280.753	28.5
280.969	24.4
281.184	112.47
281.399	48.98
281.615	-22.7
281.83	143.19
282.045	-32.94
282.26	51.03
282.476	-20.65
282.691	16.21
282.906	8.02
283.122	69.46
283.337	-26.79
283.552	8.02
283.767	55.12
283.983	51.03
284.198	-20.65
284.413	16.21
284.628	10.07
284.843	-12.46
285.058	-14.51
285.274	3.93
285.489	-2.22
285.704	73.56
285.919	-6.31
286.134	51.03
286.349	8.02
286.564	48.98
286.779	38.74
286.995	-4.27
287.21	10.07
287.425	-14.51
287.64	8.02
287.855	48.98
288.07	-69.8
288.285	98.13
288.5	1.88
288.715	16.21
288.93	10.07
289.145	-4.27
289.36	120.66
289.575	-6.31
289.79	108.37
290.004	-30.89
290.219	20.31
290.434	40.79
290.649	-49.32
290.864	73.56
291.079	8.02
291.294	3.93
291.509	24.4
291.724	-26.79
291.938	-8.36
292.153	51.03
292.368	16.21
292.583	14.17
292.798	79.7
293.012	63.32
293.227	14.17
293.442	22.36
293.657	36.69
293.871	73.56
294.086	1.88
294.301	65.36
294.516	124.76
294.73	-28.84
294.945	69.46
295.16	1.88
295.374	75.6
295.589	108.37
295.804	30.55
296.018	57.17
296.233	81.75
296.447	1.88
296.662	-4.27
296.877	53.08
297.091	20.31
297.306	-51.37
297.52	22.36
297.735	10.07
297.949	16.21
298.164	77.65
298.378	24.4
298.593	-32.94
298.807	87.89
299.022	81.75
299.236	32.6
299.451	108.37
299.665	-10.41
299.88	44.88
300.094	3.93
300.309	30.55
300.523	57.17
300.737	-22.7
300.952	30.55
301.166	30.55
301.381	-14.51
301.595	-59.56
301.809	-24.75
302.024	46.93
302.238	-51.37
302.452	81.75
302.667	18.26
302.881	94.04
303.095	-59.56
303.309	71.51
303.524	-6.31
303.738	89.94
303.952	-39.08
304.166	75.6
304.381	5.97
304.595	104.28
304.809	-26.79
305.023	22.36
305.237	63.32
305.452	-4.27
305.666	24.4
305.88	108.37
306.094	118.61
306.308	16.21
306.522	71.51
306.736	57.17
306.95	65.36
307.164	38.74
307.379	1.88
307.593	79.7
307.807	38.74
308.021	48.98
308.235	28.5
308.449	-32.94
308.663	73.56
308.877	59.22
309.091	28.5
309.305	32.6
309.519	-55.47
309.733	34.64
309.947	51.03
310.161	102.23
310.374	96.08
310.588	83.8
310.802	-47.27
311.016	22.36
311.23	55.12
311.444	98.13
311.658	51.03
311.872	114.52
312.085	145.24
312.299	83.8
312.513	44.88
312.727	5.97
312.941	16.21
313.154	42.84
313.368	8.02
313.582	55.12
313.796	-2.22
314.009	48.98
314.223	75.6
314.437	89.94
314.651	-18.6
314.864	-37.03
315.078	75.6
315.292	65.36
315.505	85.84
315.719	124.76
315.933	73.56
316.146	34.64
316.36	-34.99
316.573	100.18
316.787	63.32
317.001	12.12
317.214	8.02
317.428	89.94
317.641	-59.56
317.855	36.69
318.068	32.6
318.282	28.5
318.495	83.8
318.709	69.46
318.922	71.51
319.136	104.28
319.349	130.9
319.563	14.17
319.776	8.02
319.99	5.97
320.203	44.88
320.417	53.08
320.63	-0.17
320.843	48.98
321.057	40.79
321.27	81.75
321.483	-12.46
321.697	46.93
321.91	61.27
322.124	71.51
322.337	-8.36
322.55	-24.75
322.763	18.26
322.977	24.4
323.19	-2.22
323.403	73.56
323.617	81.75
323.83	85.84
324.043	65.36
324.256	-4.27
324.469	22.36
324.683	48.98
324.896	73.56
325.109	30.55
325.322	-55.47
325.535	81.75
325.748	67.41
325.962	8.02
326.175	-2.22
326.388	24.4
326.601	10.07
326.814	-37.03
327.027	10.07
327.24	77.65
327.453	40.79
327.666	20.31
327.879	147.28
328.092	40.79
328.305	32.6
328.518	61.27
328.731	-84.14
328.944	28.5
329.157	22.36
329.37	-71.85
329.583	153.43
329.796	171.86
330.009	5.97
330.222	20.31
330.435	44.88
330.648	14.17
330.861	77.65
331.073	18.26
331.286	53.08
331.499	71.51
331.712	65.36
331.925	69.46
332.138	89.94
332.35	81.75
332.563	5.97
332.776	77.65
332.989	-6.31
333.202	3.93
333.414	20.31
333.627	-16.55
333.84	-34.99
334.053	10.07
334.265	-16.55
334.478	1.88
334.691	57.17
334.903	69.46
335.116	55.12
335.329	69.46
335.541	42.84
335.754	8.02
335.966	51.03
336.179	18.26
336.392	3.93
336.604	61.27
336.817	-4.27
337.029	30.55
337.242	-12.46
337.454	-4.27
337.667	79.7
337.88	151.38
338.092	-32.94
338.305	51.03
338.517	108.37
338.729	14.17
338.942	-12.46
339.154	24.4
339.367	-16.55
339.579	44.88
339.792	-2.22
340.004	46.93
340.217	32.6
340.429	73.56
340.641	-24.75
340.854	14.17
341.066	30.55
341.278	-6.31
341.491	85.84
341.703	63.32
341.915	5.97
342.128	79.7
342.34	-24.75
342.552	69.46
342.764	59.22
342.977	1.88
343.189	-37.03
343.401	-18.6
343.613	18.26
343.826	-0.17
344.038	36.69
344.25	67.41
344.462	87.89
344.674	67.41
344.886	48.98
345.099	34.64
345.311	24.4
345.523	-8.36
345.735	5.97
345.947	75.6
346.159	73.56
346.371	12.12
346.583	44.88
346.795	94.04
347.007	34.64
347.219	67.41
347.431	20.31
347.643	75.6
347.855	20.31
348.067	32.6
348.279	46.93
348.491	22.36
348.703	46.93
348.915	69.46
349.127	100.18
349.339	44.88
349.551	18.26
349.763	44.88
349.975	12.12
350.187	141.14
350.399	73.56
350.61	-18.6
350.822	73.56
351.034	51.03
351.246	-26.79
351.458	-4.27
351.669	1.88
351.881	53.08
352.093	-14.51
352.305	69.46
352.517	30.55
352.728	85.84
352.94	61.27
353.152	14.17
353.363	28.5
353.575	130.9
353.787	128.85
353.999	48.98
354.21	81.75
354.422	-20.65
354.633	61.27
354.845	-18.6
355.057	112.47
355.268	94.04
355.48	42.84
355.692	40.79
355.903	100.18
356.115	77.65
356.326	20.31
356.538	40.79
356.749	-2.22
356.961	16.21
357.172	53.08
357.384	22.36
357.595	124.76
357.807	100.18
358.018	-6.31
358.23	22.36
358.441	108.37
358.653	85.84
358.864	-22.7
359.075	3.93
359.287	63.32
359.498	42.84
359.709	61.27
359.921	63.32
360.132	89.94
360.344	87.89
360.555	3.93
360.766	22.36
360.977	57.17
361.189	38.74
361.4	34.64
361.611	67.41
361.823	28.5
362.034	51.03
362.245	30.55
362.456	-0.17
362.667	32.6
362.879	36.69
363.09	94.04
363.301	89.94
363.512	18.26
363.723	-6.31
363.935	-37.03
364.146	69.46
364.357	44.88
364.568	14.17
364.779	-22.7
364.99	81.75
365.201	32.6
365.412	114.52
365.623	-77.99
365.834	-0.17
366.045	-10.41
366.256	89.94
366.467	67.41
366.678	-10.41
366.889	128.85
367.1	126.8
367.311	128.85
367.522	1.88
367.733	18.26
367.944	63.32
368.155	14.17
368.366	24.4
368.577	83.8
368.788	108.37
368.999	20.31
369.209	20.31
369.42	110.42
369.631	186.19
369.842	94.04
370.053	63.32
370.264	22.36
370.474	-28.84
370.685	14.17
370.896	8.02
371.107	30.55
371.317	14.17
371.528	108.37
371.739	36.69
371.95	61.27
372.16	141.14
372.371	-16.55
372.582	36.69
372.792	63.32
373.003	104.28
373.214	51.03
373.424	67.41
373.635	-20.65
373.846	149.33
374.056	8.02
374.267	22.36
374.477	30.55
374.688	14.17
374.898	69.46
375.109	46.93
375.319	5.97
375.53	-6.31
375.74	73.56
375.951	26.45
376.161	57.17
376.372	40.79
376.582	-14.51
376.793	42.84
377.003	-16.55
377.214	53.08
377.424	151.38
377.635	79.7
377.845	18.26
378.055	81.75
378.266	36.69
378.476	112.47
378.686	73.56
378.897	46.93
379.107	28.5
379.317	61.27
379.528	65.36
379.738	81.75
379.948	44.88
380.158	135
380.369	-41.13
380.579	46.93
380.789	-0.17
380.999	75.6
381.21	100.18
381.42	96.08
381.63	26.45
381.84	100.18
382.05	8.02
382.261	-6.31
382.471	71.51
382.681	-51.37
382.891	75.6
383.101	20.31
383.311	8.02
383.521	36.69
383.731	61.27
383.941	8.02
384.151	110.42
384.361	44.88
384.571	42.84
384.781	12.12
384.991	61.27
385.201	106.32
385.411	20.31
385.621	18.26
385.831	79.7
386.041	8.02
386.251	139.09
386.461	46.93
386.671	20.31
386.881	12.12
387.091	26.45
387.301	42.84
387.511	83.8
387.72	28.5
387.93	73.56
388.14	-14.51
388.35	77.65
388.56	71.51
388.769	40.79
388.979	32.6
389.189	24.4
389.399	8.02
389.609	122.71
389.818	81.75
390.028	104.28
390.238	81.75
390.447	-6.31
390.657	81.75
390.867	-39.08
391.076	-2.22
391.286	24.4
391.496	77.65
391.705	112.47
391.915	32.6
392.125	87.89
392.334	85.84
392.544	73.56
392.753	102.23
392.963	30.55
393.172	59.22
393.382	1.88
393.591	83.8
393.801	10.07
394.01	147.28
394.22	57.17
394.429	85.84
394.639	10.07
394.848	16.21
395.058	65.36
395.267	12.12
395.477	87.89
395.686	59.22
395.895	143.19
396.105	114.52
396.314	118.61
396.524	118.61
396.733	24.4
396.942	141.14
397.152	71.51
397.361	98.13
397.57	83.8
397.78	36.69
397.989	83.8
398.198	120.66
398.407	104.28
398.617	89.94
398.826	16.21
399.035	126.8
399.244	89.94
399.453	57.17
399.663	48.98
399.872	94.04
400.081	89.94
400.29	135
400.499	79.7
400.708	87.89
400.917	34.64
401.127	44.88
401.336	8.02
401.545	155.47
401.754	85.84
401.963	147.28
402.172	106.32
402.381	79.7
402.59	8.02
402.799	126.8
403.008	91.99
403.217	186.19
403.426	153.43
403.635	69.46
403.844	87.89
404.053	102.23
404.262	173.91
404.471	145.24
404.68	149.33
404.888	34.64
405.097	126.8
405.306	145.24
405.515	106.32
405.724	188.24
405.933	141.14
406.142	104.28
406.35	208.72
406.559	216.91
406.768	184.15
406.977	159.57
407.185	126.8
407.394	91.99
407.603	137.04
407.812	192.34
408.02	116.56
408.229	153.43
408.438	94.04
408.646	161.62
408.855	151.38
409.064	214.87
409.272	210.77
409.481	333.65
409.69	157.52
409.898	214.87
410.107	218.96
410.315	243.54
410.524	204.63
410.733	261.97
410.941	339.79
411.15	354.13
411.358	261.97
411.567	257.87
411.775	319.31
411.984	315.22
412.192	292.69
412.401	423.76
412.609	378.7
412.818	415.57
413.026	360.27
413.234	356.18
413.443	311.12
413.651	388.94
413.86	405.33
414.068	415.57
414.276	462.67
414.485	448.33
414.693	548.68
414.901	556.88
415.11	587.6
415.318	520.01
415.526	501.58
415.734	606.03
415.943	569.16
416.151	626.51
416.359	675.66
416.567	642.89
416.776	714.57
416.984	685.9
417.192	745.29
417.4	687.95
417.608	665.42
417.817	765.77
418.025	751.43
418.233	978.76
418.441	776.01
418.649	866.12
418.857	933.7
419.065	964.42
419.273	978.76
419.481	986.95
419.689	1062.73
419.897	1079.11
420.105	1054.53
420.313	1156.93
420.521	1199.94
420.729	1199.94
420.937	1242.95
421.145	1371.97
421.353	1310.53
421.561	1412.93
421.769	1367.87
421.977	1494.85
422.185	1523.52
422.393	1627.96
422.601	1716.03
422.809	1673.02
423.017	1646.4
423.224	1752.89
423.432	1787.71
423.64	1734.46
423.848	2092.85
424.056	1906.49
424.263	2246.45
424.471	2139.96
424.679	2107.19
424.887	2240.31
425.094	2367.28
425.302	2289.46
425.51	2463.54
425.718	2506.54
425.925	2580.27
426.133	2529.07
426.341	2717.48
426.548	2780.97
426.756	2856.75
426.964	2836.27
427.171	3065.64
427.379	3180.32
427.586	3182.37
427.794	3299.11
428.001	3577.63
428.209	3649.31
428.417	3563.29
428.624	3813.15
428.832	3798.81
429.039	3753.76
429.247	3743.52
429.454	4099.86
429.662	4599.57
429.869	4103.96
430.076	4443.92
430.284	4146.97
430.491	4546.32
430.699	4785.93
430.906	4704.01
431.114	4894.47
431.321	5023.5
431.528	5218.05
431.736	5388.04
431.943	5646.08
432.15	5603.07
432.358	5623.55
432.565	5822.2
432.772	5787.39
432.979	6225.65
433.187	6211.32
433.394	6383.35
433.601	6786.8
433.808	6868.72
434.016	6835.95
434.223	6971.11
434.43	7386.85
434.637	7341.8
434.844	7945.95
435.052	8015.58
435.259	7904.99
435.466	7972.57
435.673	7720.67
435.88	8404.69
436.087	8861.39
436.294	8830.67
436.501	8441.56
436.708	8689.36
436.915	9139.91
437.122	9449.16
437.329	9549.51
437.537	9709.25
437.743	9912
437.95	9948.86
438.157	10280.63
438.364	10782.38
438.571	10544.82
438.778	10694.32
438.985	11630.24
439.192	11419.3
439.399	11775.65
439.606	11400.87
439.813	12088.99
440.02	12822.16
440.227	12637.84
440.433	12465.82
440.64	12748.43
440.847	12949.14
441.054	12967.57
441.261	13956.74
441.467	13928.06
441.674	14184.06
441.881	14630.52
442.088	14601.85
442.294	14610.04
442.501	14915.19
442.708	15275.63
442.914	15711.85
443.121	16453.21
443.328	16100.96
443.534	17253.97
443.741	16318.04
443.948	16356.96
444.154	17595.98
444.361	17495.63
444.568	17614.41
444.774	17618.5
444.981	17745.48
445.187	18230.85
445.394	19146.29
445.6	18773.56
445.807	20919.83
446.013	19926.57
446.22	20012.58
446.426	20960.79
446.633	21014.04
446.839	21917.19
447.046	21278.22
447.252	22115.84
447.459	22611.45
447.665	22070.79
447.871	23084.53
448.078	24063.46
448.284	22822.39
448.491	23705.07
448.697	24430.05
448.903	24927.7
449.11	24985.05
449.316	24667.61
449.522	25419.22
449.728	25538
449.935	25732.56
450.141	25771.47
450.347	26439.11
450.553	25302.48
450.76	25855.43
450.966	27020.73
451.172	26377.67
451.378	27385.27
451.584	26903.99
451.791	27151.8
451.997	27522.48
452.203	27614.64
452.409	27944.36
452.615	27616.69
452.821	26596.8
453.027	26695.1
453.233	28065.19
453.44	26754.49
453.646	27219.38
453.852	27127.22
454.058	27682.22
454.264	26451.39
454.47	27280.82
454.676	26475.97
454.882	27297.2
455.088	25193.94
455.294	25734.6
455.5	25765.32
455.705	25972.17
455.911	25230.8
456.117	24579.55
456.323	24200.68
456.529	23201.27
456.735	23676.4
456.941	23293.43
457.147	23019
457.352	22253.06
457.558	22021.64
457.764	22050.31
457.97	21771.79
458.176	21298.7
458.381	21167.63
458.587	20346.4
458.793	20248.1
458.999	19244.59
459.204	20413.98
459.41	19891.75
459.616	18726.46
459.821	18710.07
460.027	18572.86
460.233	17940.04
460.438	17264.21
460.644	17628.74
460.85	16541.27
461.055	16359
461.261	16356.96
461.466	15255.15
461.672	14698.1
461.878	15629.93
462.083	14636.66
462.289	14235.26
462.494	14147.2
462.7	13747.84
462.905	13407.88
463.111	13559.43
463.316	13913.73
463.522	13588.1
463.727	13424.26
463.932	13454.98
464.138	13350.54
464.343	13332.11
464.549	12893.84
464.754	13457.03
464.959	13299.34
465.165	13264.52
465.37	12629.65
465.575	12322.46
465.781	12555.93
465.986	12998.29
466.191	12459.67
466.397	12115.61
466.602	11507.37
466.807	11839.14
467.012	12054.17
467.218	11927.2
467.423	11849.38
467.628	11906.72
467.833	12447.38
