Data from USB4F104151__19__12-23-27-417.txt Node

Date: Fri Mar 14 12:23:27 EDT 2025
User: louis
Spectrometer: USB4F10415
Trigger mode: 4
Integration Time (sec): 3.500000E-2
Scans to average: 1
Electric dark correction enabled: true
Nonlinearity correction enabled: false
Boxcar width: 0
XAxis mode: Wavelengths
Number of Pixels in Spectrum: 3648
>>>>>Begin Spectral Data<<<<<
178.204	-108.54
178.424	-108.54
178.644	-108.54
178.864	-172.03
179.084	-208.89
179.304	-32.77
179.524	-24.58
179.744	-36.86
179.964	94.21
180.184	45.06
180.404	28.67
180.624	-36.86
180.844	83.97
181.064	-126.97
181.283	16.38
181.503	-57.34
181.723	47.1
181.943	-34.82
182.163	20.48
182.383	69.63
182.602	94.21
182.822	45.06
183.042	26.62
183.262	-12.29
183.482	-18.43
183.701	43.01
183.921	22.53
184.141	-28.67
184.361	-4.1
184.58	43.01
184.8	63.49
185.02	-51.2
185.239	10.24
185.459	65.54
185.679	51.2
185.898	94.21
186.118	61.44
186.338	24.58
186.557	81.92
186.777	-32.77
186.997	28.67
187.216	36.86
187.436	65.54
187.655	63.49
187.875	69.63
188.095	49.15
188.314	69.63
188.534	94.21
188.753	-6.14
188.973	77.82
189.192	86.01
189.412	12.29
189.631	12.29
189.851	63.49
190.07	83.97
190.29	12.29
190.509	-4.1
190.729	-2.05
190.948	96.25
191.168	106.49
191.387	53.25
191.607	2.05
191.826	-63.49
192.045	-6.14
192.265	-55.3
192.484	-20.48
192.704	-28.67
192.923	-12.29
193.142	49.15
193.362	75.77
193.581	24.58
193.8	8.19
194.02	92.16
194.239	-2.05
194.458	10.24
194.678	61.44
194.897	-4.1
195.116	71.68
195.335	83.97
195.555	-10.24
195.774	61.44
195.993	-6.14
196.212	-28.67
196.432	-34.82
196.651	-20.48
196.87	26.62
197.089	63.49
197.308	53.25
197.528	63.49
197.747	-32.77
197.966	49.15
198.185	100.35
198.404	-10.24
198.623	53.25
198.842	75.77
199.062	67.58
199.281	38.91
199.5	49.15
199.719	0
199.938	-2.05
200.157	22.53
200.376	102.4
200.595	10.24
200.814	12.29
201.033	0
201.252	-34.82
201.471	141.31
201.69	86.01
201.909	69.63
202.128	28.67
202.347	20.48
202.566	-4.1
202.785	16.38
203.004	20.48
203.223	69.63
203.442	126.97
203.661	69.63
203.879	106.49
204.098	4.1
204.317	36.86
204.536	94.21
204.755	-6.14
204.974	18.43
205.193	-22.53
205.411	83.97
205.63	65.54
205.849	-26.62
206.068	108.54
206.287	-8.19
206.505	12.29
206.724	57.34
206.943	8.19
207.162	0
207.381	16.38
207.599	8.19
207.818	22.53
208.037	-12.29
208.255	0
208.474	10.24
208.693	100.35
208.911	55.3
209.13	-10.24
209.349	28.67
209.567	16.38
209.786	57.34
210.005	65.54
210.223	69.63
210.442	-47.1
210.661	49.15
210.879	28.67
211.098	14.34
211.316	30.72
211.535	94.21
211.753	40.96
211.972	59.39
212.191	-4.1
212.409	-18.43
212.628	-18.43
212.846	-49.15
213.065	22.53
213.283	120.83
213.502	22.53
213.72	-34.82
213.938	47.1
214.157	4.1
214.375	14.34
214.594	6.14
214.812	30.72
215.031	40.96
215.249	61.44
215.467	75.77
215.686	-6.14
215.904	57.34
216.122	18.43
216.341	40.96
216.559	18.43
216.778	-24.58
216.996	20.48
217.214	-26.62
217.432	6.14
217.651	-10.24
217.869	45.06
218.087	-16.38
218.306	47.1
218.524	59.39
218.742	73.73
218.96	-22.53
219.179	10.24
219.397	43.01
219.615	122.88
219.833	71.68
220.051	71.68
220.27	71.68
220.488	63.49
220.706	49.15
220.924	61.44
221.142	6.14
221.36	59.39
221.578	57.34
221.796	26.62
222.015	47.1
222.233	4.1
222.451	79.87
222.669	61.44
222.887	0
223.105	38.91
223.323	4.1
223.541	57.34
223.759	86.01
223.977	-40.96
224.195	63.49
224.413	51.2
224.631	32.77
224.849	69.63
225.067	8.19
225.285	-30.72
225.503	-4.1
225.721	6.14
225.939	12.29
226.157	18.43
226.375	186.37
226.592	2.05
226.81	-26.62
227.028	116.73
227.246	61.44
227.464	-16.38
227.682	86.01
227.9	131.07
228.117	30.72
228.335	75.77
228.553	55.3
228.771	75.77
228.989	16.38
229.206	43.01
229.424	-22.53
229.642	55.3
229.86	-10.24
230.077	28.67
230.295	12.29
230.513	45.06
230.731	18.43
230.948	116.73
231.166	34.82
231.384	-24.58
231.601	-10.24
231.819	73.73
232.037	-34.82
232.254	-18.43
232.472	-49.15
232.689	30.72
232.907	4.1
233.125	14.34
233.342	18.43
233.56	49.15
233.777	-12.29
233.995	-26.62
234.213	55.3
234.43	34.82
234.648	-71.68
234.865	43.01
235.083	34.82
235.3	-18.43
235.518	63.49
235.735	122.88
235.953	106.49
236.17	34.82
236.388	-43.01
236.605	100.35
236.822	59.39
237.04	55.3
237.257	14.34
237.475	6.14
237.692	-36.86
237.909	26.62
238.127	16.38
238.344	0
238.562	43.01
238.779	14.34
238.996	-14.34
239.214	59.39
239.431	96.25
239.648	30.72
239.865	24.58
240.083	18.43
240.3	-20.48
240.517	-34.82
240.735	10.24
240.952	32.77
241.169	141.31
241.386	61.44
241.603	47.1
241.821	-18.43
242.038	34.82
242.255	77.82
242.472	-16.38
242.689	112.64
242.907	65.54
243.124	-2.05
243.341	14.34
243.558	18.43
243.775	0
243.992	-18.43
244.209	71.68
244.426	118.78
244.643	38.91
244.86	79.87
245.078	-10.24
245.295	-16.38
245.512	-4.1
245.729	38.91
245.946	-36.86
246.163	69.63
246.38	22.53
246.597	-24.58
246.814	-12.29
247.031	12.29
247.248	-18.43
247.464	-83.97
247.681	86.01
247.898	10.24
248.115	38.91
248.332	16.38
248.549	-4.1
248.766	92.16
248.983	51.2
249.2	122.88
249.417	22.53
249.633	4.1
249.85	112.64
250.067	-59.39
250.284	43.01
250.501	79.87
250.717	73.73
250.934	-12.29
251.151	-2.05
251.368	90.11
251.585	2.05
251.801	22.53
252.018	8.19
252.235	83.97
252.451	40.96
252.668	73.73
252.885	-16.38
253.102	47.1
253.318	14.34
253.535	22.53
253.752	-49.15
253.968	-36.86
254.185	-10.24
254.401	90.11
254.618	38.91
254.835	10.24
255.051	67.58
255.268	51.2
255.484	-36.86
255.701	67.58
255.917	100.35
256.134	-38.91
256.351	65.54
256.567	-30.72
256.784	43.01
257	-14.34
257.217	22.53
257.433	94.21
257.65	86.01
257.866	79.87
258.082	2.05
258.299	24.58
258.515	-16.38
258.732	0
258.948	75.77
259.165	28.67
259.381	-32.77
259.597	10.24
259.814	106.49
260.03	-57.34
260.246	-12.29
260.463	22.53
260.679	10.24
260.895	16.38
261.112	63.49
261.328	47.1
261.544	6.14
261.761	129.02
261.977	88.06
262.193	-4.1
262.409	65.54
262.626	47.1
262.842	8.19
263.058	6.14
263.274	67.58
263.49	26.62
263.707	112.64
263.923	79.87
264.139	-45.06
264.355	28.67
264.571	106.49
264.787	10.24
265.004	49.15
265.22	-16.38
265.436	-18.43
265.652	28.67
265.868	61.44
266.084	53.25
266.3	77.82
266.516	4.1
266.732	10.24
266.948	63.49
267.164	40.96
267.38	53.25
267.596	-16.38
267.812	92.16
268.028	88.06
268.244	6.14
268.46	40.96
268.676	47.1
268.892	36.86
269.108	6.14
269.324	-18.43
269.54	20.48
269.756	116.73
269.972	-8.19
270.188	49.15
270.403	0
270.619	-49.15
270.835	28.67
271.051	28.67
271.267	-55.3
271.483	-43.01
271.698	59.39
271.914	40.96
272.13	-10.24
272.346	-34.82
272.562	-8.19
272.777	16.38
272.993	12.29
273.209	-8.19
273.425	83.97
273.64	10.24
273.856	20.48
274.072	26.62
274.287	96.25
274.503	43.01
274.719	26.62
274.934	65.54
275.15	-4.1
275.366	40.96
275.581	-10.24
275.797	-2.05
276.012	43.01
276.228	30.72
276.444	38.91
276.659	59.39
276.875	-73.73
277.09	22.53
277.306	14.34
277.521	53.25
277.737	43.01
277.952	6.14
278.168	81.92
278.383	-10.24
278.599	45.06
278.814	71.68
279.03	47.1
279.245	57.34
279.461	-16.38
279.676	110.59
279.892	24.58
280.107	10.24
280.322	6.14
280.538	114.69
280.753	-16.38
280.969	18.43
281.184	96.25
281.399	-2.05
281.615	-24.58
281.83	65.54
282.045	-22.53
282.26	49.15
282.476	-6.14
282.691	20.48
282.906	65.54
283.122	77.82
283.337	59.39
283.552	67.58
283.767	36.86
283.983	69.63
284.198	59.39
284.413	20.48
284.628	-4.1
284.843	55.3
285.058	53.25
285.274	-32.77
285.489	-4.1
285.704	61.44
285.919	45.06
286.134	14.34
286.349	10.24
286.564	-8.19
286.779	4.1
286.995	43.01
287.21	98.3
287.425	32.77
287.64	-16.38
287.855	16.38
288.07	8.19
288.285	49.15
288.5	28.67
288.715	88.06
288.93	-12.29
289.145	20.48
289.36	40.96
289.575	-20.48
289.79	143.36
290.004	51.2
290.219	104.45
290.434	12.29
290.649	18.43
290.864	32.77
291.079	79.87
291.294	49.15
291.509	8.19
291.724	18.43
291.938	2.05
292.153	139.26
292.368	57.34
292.583	55.3
292.798	18.43
293.012	36.86
293.227	26.62
293.442	18.43
293.657	61.44
293.871	122.88
294.086	45.06
294.301	104.45
294.516	100.35
294.73	0
294.945	65.54
295.16	-59.39
295.374	94.21
295.589	49.15
295.804	10.24
296.018	94.21
296.233	28.67
296.447	10.24
296.662	22.53
296.877	34.82
297.091	47.1
297.306	81.92
297.52	-34.82
297.735	77.82
297.949	-2.05
298.164	86.01
298.378	22.53
298.593	45.06
298.807	-16.38
299.022	32.77
299.236	49.15
299.451	14.34
299.665	34.82
299.88	-4.1
300.094	45.06
300.309	32.77
300.523	18.43
300.737	69.63
300.952	-43.01
301.166	16.38
301.381	-43.01
301.595	-16.38
301.809	10.24
302.024	47.1
302.238	0
302.452	135.17
302.667	36.86
302.881	79.87
303.095	26.62
303.309	45.06
303.524	-12.29
303.738	90.11
303.952	38.91
304.166	-10.24
304.381	6.14
304.595	92.16
304.809	-30.72
305.023	55.3
305.237	-36.86
305.452	-43.01
305.666	47.1
305.88	12.29
306.094	96.25
306.308	53.25
306.522	12.29
306.736	55.3
306.95	45.06
307.164	49.15
307.379	22.53
307.593	38.91
307.807	133.12
308.021	28.67
308.235	16.38
308.449	4.1
308.663	22.53
308.877	169.98
309.091	2.05
309.305	-55.3
309.519	-26.62
309.733	57.34
309.947	90.11
310.161	108.54
310.374	12.29
310.588	45.06
310.802	-28.67
311.016	94.21
311.23	30.72
311.444	10.24
311.658	22.53
311.872	57.34
312.085	63.49
312.299	38.91
312.513	75.77
312.727	90.11
312.941	26.62
313.154	51.2
313.368	38.91
313.582	-49.15
313.796	26.62
314.009	-38.91
314.223	2.05
314.437	106.49
314.651	88.06
314.864	63.49
315.078	43.01
315.292	-26.62
315.505	43.01
315.719	124.93
315.933	45.06
316.146	14.34
316.36	-10.24
316.573	63.49
316.787	67.58
317.001	-59.39
317.214	-20.48
317.428	22.53
317.641	16.38
317.855	22.53
318.068	69.63
318.282	-38.91
318.495	81.92
318.709	28.67
318.922	45.06
319.136	79.87
319.349	24.58
319.563	102.4
319.776	81.92
319.99	-32.77
320.203	51.2
320.417	-4.1
320.63	126.97
320.843	94.21
321.057	43.01
321.27	24.58
321.483	49.15
321.697	73.73
321.91	30.72
322.124	106.49
322.337	32.77
322.55	16.38
322.763	32.77
322.977	-47.1
323.19	22.53
323.403	16.38
323.617	61.44
323.83	49.15
324.043	20.48
324.256	-49.15
324.469	-51.2
324.683	16.38
324.896	26.62
325.109	16.38
325.322	-6.14
325.535	36.86
325.748	0
325.962	36.86
326.175	-6.14
326.388	57.34
326.601	24.58
326.814	-2.05
327.027	4.1
327.24	26.62
327.453	-67.58
327.666	-4.1
327.879	30.72
328.092	71.68
328.305	4.1
328.518	-18.43
328.731	34.82
328.944	45.06
329.157	86.01
329.37	43.01
329.583	71.68
329.796	71.68
330.009	4.1
330.222	77.82
330.435	-28.67
330.648	53.25
330.861	28.67
331.073	51.2
331.286	63.49
331.499	-2.05
331.712	-88.06
331.925	49.15
332.138	-18.43
332.35	38.91
332.563	-40.96
332.776	65.54
332.989	90.11
333.202	28.67
333.414	32.77
333.627	10.24
333.84	45.06
334.053	14.34
334.265	-12.29
334.478	55.3
334.691	59.39
334.903	30.72
335.116	16.38
335.329	-10.24
335.541	40.96
335.754	83.97
335.966	-26.62
336.179	57.34
336.392	86.01
336.604	8.19
336.817	12.29
337.029	2.05
337.242	4.1
337.454	-51.2
337.667	28.67
337.88	65.54
338.092	86.01
338.305	65.54
338.517	-6.14
338.729	10.24
338.942	14.34
339.154	0
339.367	12.29
339.579	102.4
339.792	12.29
340.004	106.49
340.217	14.34
340.429	38.91
340.641	6.14
340.854	-22.53
341.066	-40.96
341.278	106.49
341.491	143.36
341.703	26.62
341.915	6.14
342.128	126.97
342.34	92.16
342.552	12.29
342.764	69.63
342.977	4.1
343.189	34.82
343.401	55.3
343.613	22.53
343.826	8.19
344.038	-65.53
344.25	-14.34
344.462	34.82
344.674	14.34
344.886	-45.06
345.099	36.86
345.311	90.11
345.523	43.01
345.735	-77.82
345.947	57.34
346.159	8.19
346.371	20.48
346.583	22.53
346.795	90.11
347.007	36.86
347.219	71.68
347.431	73.73
347.643	65.54
347.855	45.06
348.067	-6.14
348.279	-24.58
348.491	0
348.703	53.25
348.915	16.38
349.127	28.67
349.339	49.15
349.551	47.1
349.763	40.96
349.975	18.43
350.187	40.96
350.399	14.34
350.61	28.67
350.822	-34.82
351.034	14.34
351.246	45.06
351.458	98.3
351.669	49.15
351.881	53.25
352.093	81.92
352.305	49.15
352.517	12.29
352.728	129.02
352.94	47.1
353.152	67.58
353.363	96.25
353.575	40.96
353.787	86.01
353.999	63.49
354.21	108.54
354.422	8.19
354.633	57.34
354.845	30.72
355.057	-14.34
355.268	0
355.48	-2.05
355.692	-14.34
355.903	49.15
356.115	-28.67
356.326	8.19
356.538	141.31
356.749	18.43
356.961	43.01
357.172	22.53
357.384	40.96
357.595	110.59
357.807	108.54
358.018	0
358.23	55.3
358.441	69.63
358.653	116.73
358.864	86.01
359.075	24.58
359.287	71.68
359.498	67.58
359.709	28.67
359.921	69.63
360.132	49.15
360.344	63.49
360.555	94.21
360.766	61.44
360.977	26.62
361.189	77.82
361.4	12.29
361.611	36.86
361.823	38.91
362.034	45.06
362.245	6.14
362.456	53.25
362.667	67.58
362.879	63.49
363.09	36.86
363.301	10.24
363.512	65.54
363.723	10.24
363.935	43.01
364.146	53.25
364.357	40.96
364.568	96.25
364.779	-28.67
364.99	108.54
365.201	34.82
365.412	53.25
365.623	-49.15
365.834	4.1
366.045	90.11
366.256	75.77
366.467	32.77
366.678	65.54
366.889	-20.48
367.1	43.01
367.311	51.2
367.522	-38.91
367.733	32.77
367.944	61.44
368.155	59.39
368.366	71.68
368.577	88.06
368.788	8.19
368.999	79.87
369.209	38.91
369.42	81.92
369.631	208.89
369.842	45.06
370.053	-22.53
370.264	6.14
370.474	53.25
370.685	92.16
370.896	-10.24
371.107	59.39
371.317	38.91
371.528	38.91
371.739	28.67
371.95	30.72
372.16	83.97
372.371	22.53
372.582	75.77
372.792	43.01
373.003	38.91
373.214	81.92
373.424	81.92
373.635	67.58
373.846	61.44
374.056	65.54
374.267	16.38
374.477	61.44
374.688	45.06
374.898	69.63
375.109	28.67
375.319	65.54
375.53	57.34
375.74	55.3
375.951	0
376.161	77.82
376.372	4.1
376.582	2.05
376.793	65.54
377.003	-49.15
377.214	69.63
377.424	-40.96
377.635	114.69
377.845	-55.3
378.055	-8.19
378.266	-30.72
378.476	16.38
378.686	6.14
378.897	26.62
379.107	104.45
379.317	-8.19
379.528	51.2
379.738	-10.24
379.948	36.86
380.158	112.64
380.369	55.3
380.579	86.01
380.789	49.15
380.999	43.01
381.21	145.41
381.42	137.21
381.63	63.49
381.84	92.16
382.05	45.06
382.261	40.96
382.471	-30.72
382.681	-55.3
382.891	94.21
383.101	110.59
383.311	-8.19
383.521	12.29
383.731	124.93
383.941	116.73
384.151	59.39
384.361	92.16
384.571	43.01
384.781	98.3
384.991	94.21
385.201	86.01
385.411	51.2
385.621	8.19
385.831	77.82
386.041	45.06
386.251	40.96
386.461	61.44
386.671	45.06
386.881	79.87
387.091	-12.29
387.301	79.87
387.511	36.86
387.72	120.83
387.93	14.34
388.14	8.19
388.35	22.53
388.56	96.25
388.769	47.1
388.979	71.68
389.189	8.19
389.399	-65.53
389.609	61.44
389.818	83.97
390.028	53.25
390.238	10.24
390.447	28.67
390.657	22.53
390.867	57.34
391.076	10.24
391.286	51.2
391.496	28.67
391.705	2.05
391.915	69.63
392.125	143.36
392.334	18.43
392.544	106.49
392.753	49.15
392.963	51.2
393.172	61.44
393.382	12.29
393.591	79.87
393.801	47.1
394.01	65.54
394.22	32.77
394.429	-4.1
394.639	49.15
394.848	40.96
395.058	106.49
395.267	61.44
395.477	65.54
395.686	114.69
395.895	118.78
396.105	88.06
396.314	6.14
396.524	40.96
396.733	45.06
396.942	135.17
397.152	81.92
397.361	159.74
397.57	45.06
397.78	69.63
397.989	143.36
398.198	169.98
398.407	102.4
398.617	30.72
398.826	86.01
399.035	86.01
399.244	75.77
399.453	55.3
399.663	63.49
399.872	38.91
400.081	71.68
400.29	120.83
400.499	81.92
400.708	96.25
400.917	-4.1
401.127	12.29
401.336	65.54
401.545	100.35
401.754	90.11
401.963	188.41
402.172	61.44
402.381	10.24
402.59	77.82
402.799	47.1
403.008	120.83
403.217	135.17
403.426	155.65
403.635	86.01
403.844	47.1
404.053	49.15
404.262	106.49
404.471	151.55
404.68	110.59
404.888	194.56
405.097	12.29
405.306	153.6
405.515	161.79
405.724	36.86
405.933	75.77
406.142	178.17
406.35	200.7
406.559	176.13
406.768	88.06
406.977	198.65
407.185	182.27
407.394	135.17
407.603	59.39
407.812	163.84
408.02	231.42
408.229	118.78
408.438	94.21
408.646	122.88
408.855	120.83
409.064	124.93
409.272	139.26
409.481	210.94
409.69	184.32
409.898	212.99
410.107	276.48
410.315	225.28
410.524	178.17
410.733	196.61
410.941	176.13
411.15	249.85
411.358	225.28
411.567	241.66
411.775	260.09
411.984	352.25
412.192	313.34
412.401	229.37
412.609	305.15
412.818	399.35
413.026	292.86
413.234	344.06
413.443	348.15
413.651	311.29
413.86	352.25
414.068	468.98
414.276	456.7
414.485	362.49
414.693	481.27
414.901	509.94
415.11	438.27
415.318	425.98
415.526	407.55
415.734	526.33
415.943	511.99
416.151	548.86
416.359	561.14
416.567	565.24
416.776	618.49
416.984	618.49
417.192	667.64
417.4	585.72
417.608	563.19
417.817	782.32
418.025	636.92
418.233	843.76
418.441	782.32
418.649	776.18
418.857	882.67
419.065	829.43
419.273	813.04
419.481	976.88
419.689	917.49
419.897	1036.27
420.105	989.17
420.313	1171.44
420.521	1040.37
420.729	1009.65
420.937	1089.52
421.145	1177.58
421.353	1148.91
421.561	1263.6
421.769	1398.76
421.977	1359.85
422.185	1279.98
422.393	1472.49
422.601	1624.04
422.809	1435.63
423.017	1441.77
423.224	1667.05
423.432	1595.37
423.64	1626.09
423.848	1839.08
424.056	1837.03
424.263	1988.58
424.471	1949.67
424.679	1861.6
424.887	1976.29
425.094	2150.37
425.302	2170.85
425.51	2084.83
425.718	2205.66
425.925	2277.34
426.133	2369.5
426.341	2447.32
426.548	2564.06
426.756	2473.95
426.964	2641.88
427.171	2656.22
427.379	2719.7
427.586	3022.8
427.794	2891.73
428.001	3123.15
428.209	3286.99
428.417	3317.71
428.624	3469.26
428.832	3364.81
429.039	3389.39
429.247	3399.63
429.454	3829.7
429.662	3946.44
429.869	3741.64
430.076	3919.81
430.284	3938.24
430.491	4044.74
430.699	4476.86
430.906	4229.06
431.114	4282.3
431.321	4573.11
431.528	4569.02
431.736	4997.04
431.943	5160.88
432.15	4984.76
432.358	4861.88
432.565	5418.93
432.772	5242.8
432.979	5593
433.187	5683.11
433.394	5674.92
433.601	6053.8
433.808	6092.71
434.016	6170.53
434.223	6246.3
434.43	6539.16
434.637	6563.74
434.844	6856.6
435.052	6963.09
435.259	7155.6
435.466	7122.84
435.673	6977.43
435.88	7540.62
436.087	8140.68
436.294	8017.8
436.501	7550.86
436.708	7810.95
436.915	8056.71
437.122	8517.5
437.329	8320.9
437.537	8779.64
437.743	8912.76
437.95	9084.79
438.157	9281.39
438.364	9500.53
438.571	9623.41
438.778	9797.48
438.985	10653.53
439.192	10153.83
439.399	10354.53
439.606	10286.95
439.813	10811.23
440.02	11435.86
440.227	11116.37
440.433	11210.58
440.64	11634.51
440.847	11384.66
441.054	12005.19
441.261	12404.55
441.467	12392.26
441.674	12674.88
441.881	12992.31
442.088	13215.54
442.294	13111.1
442.501	13195.06
442.708	13721.39
442.914	14114.6
443.121	14548.77
443.328	14317.35
443.534	15443.73
443.741	14878.49
443.948	14524.19
444.154	15795.98
444.361	15628.05
444.568	15761.17
444.774	15812.37
444.981	15836.94
445.187	16537.35
445.394	16899.84
445.6	16934.65
445.807	18589.41
446.013	17929.97
446.22	18020.08
446.426	18554.6
446.633	19025.63
446.839	19621.59
447.046	18863.84
447.252	20041.42
447.459	19920.59
447.665	19807.95
447.871	20920
448.078	21477.05
448.284	20903.62
448.491	21305.02
448.697	21997.23
448.903	22458.03
449.11	22681.25
449.316	22156.97
449.522	22427.31
449.728	23152.29
449.935	23410.33
450.141	23250.59
450.347	23637.66
450.553	23293.6
450.76	23373.47
450.966	24120.98
451.172	23967.38
451.378	24462.99
451.584	23955.09
451.791	24714.89
451.997	24872.58
452.203	25030.27
452.409	25032.32
452.615	24764.04
452.821	23942.8
453.027	23570.07
453.233	24673.93
453.44	24135.31
453.646	24020.63
453.852	23963.28
454.058	24460.94
454.264	24297.1
454.47	24327.82
454.676	23903.89
454.882	24370.83
455.088	22306.48
455.294	22847.14
455.5	22834.85
455.705	23195.29
455.911	22384.3
456.117	21995.18
456.323	21620.41
456.529	20438.73
456.735	21552.82
456.941	20770.5
457.147	20672.2
457.352	19877.58
457.558	19441.37
457.764	19914.45
457.97	19283.67
458.176	18865.89
458.381	18716.39
458.587	17858.29
458.793	17893.1
458.999	16561.92
459.204	18155.24
459.41	17669.87
459.616	16393.99
459.821	16281.35
460.027	16385.8
460.233	16004.88
460.438	15191.83
460.644	15462.16
460.85	14860.06
461.055	14546.72
461.261	14559.01
461.466	13350.71
461.672	12926.78
461.878	13872.94
462.083	12715.84
462.289	12740.41
462.494	12822.33
462.7	12128.07
462.905	11691.85
463.111	12175.17
463.316	12291.91
463.522	11913.03
463.727	11990.86
463.932	11818.83
464.138	11636.56
464.343	11964.23
464.549	11728.72
464.754	12046.15
464.959	11882.31
465.165	11841.36
465.37	11235.16
465.575	11009.88
465.781	11267.92
465.986	11315.03
466.191	10985.3
466.397	10717.02
466.602	10420.06
466.807	10626.91
467.012	10708.83
467.218	10485.6
467.423	10614.62
467.628	10694.49
467.833	10956.63
468.038	10491.74
468.244	10434.4
468.449	10788.7
