Data from USB4F104151__80__12-24-26-140.txt Node

Date: Fri Mar 14 12:24:26 EDT 2025
User: louis
Spectrometer: USB4F10415
Trigger mode: 4
Integration Time (sec): 3.500000E-2
Scans to average: 1
Electric dark correction enabled: true
Nonlinearity correction enabled: false
Boxcar width: 0
XAxis mode: Wavelengths
Number of Pixels in Spectrum: 3648
>>>>>Begin Spectral Data<<<<<
178.204	-163.67
178.424	-163.67
178.644	-163.67
178.864	-116.56
179.084	-120.66
179.304	-20.31
179.524	-48.98
179.744	6.31
179.964	-1.88
180.184	18.6
180.404	18.6
180.624	-24.4
180.844	-12.12
181.064	0.17
181.283	12.46
181.503	-24.4
181.723	75.95
181.943	12.46
182.163	145.58
182.383	57.51
182.602	90.28
182.822	129.19
183.042	100.52
183.262	-16.21
183.482	18.6
183.701	18.6
183.921	75.95
184.141	-1.88
184.361	47.27
184.58	114.86
184.8	43.18
185.02	34.99
185.239	41.13
185.459	-1.88
185.679	100.52
185.898	-34.64
186.118	49.32
186.338	34.99
186.557	41.13
186.777	-5.97
186.997	98.47
187.216	47.27
187.436	108.71
187.655	100.52
187.875	59.56
188.095	65.71
188.314	84.14
188.534	204.97
188.753	-3.93
188.973	55.47
189.192	22.7
189.412	-8.02
189.631	16.55
189.851	86.19
190.07	104.62
190.29	47.27
190.509	-14.17
190.729	73.9
190.948	110.76
191.168	166.06
191.387	20.65
191.607	-12.12
191.826	47.27
192.045	82.09
192.265	37.03
192.484	-38.74
192.704	37.03
192.923	92.33
193.142	106.67
193.362	59.56
193.581	157.86
193.8	137.38
194.02	151.72
194.239	22.7
194.458	20.65
194.678	73.9
194.897	59.56
195.116	59.56
195.335	39.08
195.555	57.51
195.774	26.79
195.993	73.9
196.212	49.32
196.432	88.23
196.651	-42.84
196.87	100.52
197.089	147.62
197.308	37.03
197.528	73.9
197.747	39.08
197.966	59.56
198.185	84.14
198.404	-42.84
198.623	-55.12
198.842	47.27
199.062	92.33
199.281	98.47
199.5	18.6
199.719	96.43
199.938	59.56
200.157	133.29
200.376	30.89
200.595	-12.12
200.814	32.94
201.033	6.31
201.252	14.51
201.471	34.99
201.69	104.62
201.909	16.55
202.128	22.7
202.347	22.7
202.566	94.38
202.785	43.18
203.004	-28.5
203.223	106.67
203.442	-34.64
203.661	51.37
203.879	-28.5
204.098	123.05
204.317	8.36
204.536	10.41
204.755	110.76
204.974	32.94
205.193	69.8
205.411	157.86
205.63	123.05
205.849	51.37
206.068	8.36
206.287	32.94
206.505	59.56
206.724	32.94
206.943	-34.64
207.162	-1.88
207.381	32.94
207.599	-26.45
207.818	41.13
208.037	114.86
208.255	98.47
208.474	-14.17
208.693	98.47
208.911	26.79
209.13	47.27
209.349	37.03
209.567	24.75
209.786	77.99
210.005	49.32
210.223	45.23
210.442	-14.17
210.661	39.08
210.879	129.19
211.098	-14.17
211.316	4.27
211.535	112.81
211.753	75.95
211.972	53.42
212.191	41.13
212.409	-22.36
212.628	47.27
212.846	47.27
213.065	104.62
213.283	100.52
213.502	4.27
213.72	57.51
213.938	49.32
214.157	30.89
214.375	157.86
214.594	10.41
214.812	41.13
215.031	2.22
215.249	41.13
215.467	6.31
215.686	20.65
215.904	49.32
216.122	59.56
216.341	131.24
216.559	65.71
216.778	90.28
216.996	84.14
217.214	24.75
217.432	55.47
217.651	14.51
217.869	80.04
218.087	82.09
218.306	98.47
218.524	53.42
218.742	39.08
218.96	71.85
219.179	94.38
219.397	63.66
219.615	69.8
219.833	61.61
220.051	14.51
220.27	112.81
220.488	80.04
220.706	73.9
220.924	77.99
221.142	22.7
221.36	102.57
221.578	53.42
221.796	8.36
222.015	98.47
222.233	-1.88
222.451	51.37
222.669	114.86
222.887	92.33
223.105	26.79
223.323	57.51
223.541	69.8
223.759	121
223.977	24.75
224.195	69.8
224.413	75.95
224.631	73.9
224.849	39.08
225.067	77.99
225.285	-22.36
225.503	71.85
225.721	-3.93
225.939	84.14
226.157	37.03
226.375	92.33
226.592	28.84
226.81	12.46
227.028	49.32
227.246	86.19
227.464	-5.97
227.682	-10.07
227.9	131.24
228.117	59.56
228.335	47.27
228.553	-30.55
228.771	24.75
228.989	86.19
229.206	22.7
229.424	41.13
229.642	55.47
229.86	55.47
230.077	63.66
230.295	80.04
230.513	80.04
230.731	28.84
230.948	41.13
231.166	53.42
231.384	-5.97
231.601	92.33
231.819	61.61
232.037	51.37
232.254	-36.69
232.472	41.13
232.689	100.52
232.907	37.03
233.125	41.13
233.342	49.32
233.56	-10.07
233.777	49.32
233.995	28.84
234.213	51.37
234.43	63.66
234.648	30.89
234.865	39.08
235.083	12.46
235.3	104.62
235.518	26.79
235.735	133.29
235.953	106.67
236.17	24.75
236.388	57.51
236.605	41.13
236.822	143.53
237.04	55.47
237.257	114.86
237.475	12.46
237.692	34.99
237.909	41.13
238.127	8.36
238.344	84.14
238.562	98.47
238.779	0.17
238.996	32.94
239.214	45.23
239.431	65.71
239.648	51.37
239.865	73.9
240.083	34.99
240.3	12.46
240.517	77.99
240.735	16.55
240.952	143.53
241.169	96.43
241.386	77.99
241.603	16.55
241.821	14.51
242.038	127.14
242.255	102.57
242.472	30.89
242.689	61.61
242.907	94.38
243.124	102.57
243.341	-12.12
243.558	-65.36
243.775	53.42
243.992	12.46
244.209	75.95
244.426	137.38
244.643	94.38
244.86	55.47
245.078	24.75
245.295	53.42
245.512	63.66
245.729	32.94
245.946	61.61
246.163	108.71
246.38	28.84
246.597	110.76
246.814	88.23
247.031	37.03
247.248	61.61
247.464	51.37
247.681	34.99
247.898	94.38
248.115	47.27
248.332	26.79
248.549	176.3
248.766	151.72
248.983	112.81
249.2	63.66
249.417	96.43
249.633	73.9
249.85	-8.02
250.067	82.09
250.284	26.79
250.501	30.89
250.717	110.76
250.934	57.51
251.151	106.67
251.368	77.99
251.585	34.99
251.801	96.43
252.018	20.65
252.235	-1.88
252.451	24.75
252.668	63.66
252.885	2.22
253.102	71.85
253.318	20.65
253.535	24.75
253.752	55.47
253.968	26.79
254.185	49.32
254.401	55.47
254.618	188.58
254.835	47.27
255.051	82.09
255.268	63.66
255.484	16.55
255.701	96.43
255.917	49.32
256.134	45.23
256.351	121
256.567	51.37
256.784	18.6
257	-34.64
257.217	26.79
257.433	110.76
257.65	26.79
257.866	98.47
258.082	-30.55
258.299	73.9
258.515	41.13
258.732	41.13
258.948	41.13
259.165	22.7
259.381	43.18
259.597	104.62
259.814	-20.31
260.03	0.17
260.246	-57.17
260.463	63.66
260.679	137.38
260.895	106.67
261.112	22.7
261.328	-12.12
261.544	90.28
261.761	108.71
261.977	59.56
262.193	-24.4
262.409	73.9
262.626	63.66
262.842	98.47
263.058	71.85
263.274	77.99
263.49	45.23
263.707	51.37
263.923	145.58
264.139	-30.55
264.355	67.75
264.571	106.67
264.787	22.7
265.004	90.28
265.22	75.95
265.436	71.85
265.652	32.94
265.868	71.85
266.084	-79.7
266.3	43.18
266.516	6.31
266.732	39.08
266.948	80.04
267.164	51.37
267.38	77.99
267.596	116.9
267.812	143.53
268.028	77.99
268.244	63.66
268.46	18.6
268.676	77.99
268.892	129.19
269.108	32.94
269.324	20.65
269.54	-30.55
269.756	80.04
269.972	0.17
270.188	8.36
270.403	-24.4
270.619	34.99
270.835	65.71
271.051	86.19
271.267	53.42
271.483	14.51
271.698	45.23
271.914	75.95
272.13	-20.31
272.346	18.6
272.562	86.19
272.777	71.85
272.993	75.95
273.209	49.32
273.425	94.38
273.64	39.08
273.856	84.14
274.072	59.56
274.287	32.94
274.503	10.41
274.719	75.95
274.934	8.36
275.15	34.99
275.366	43.18
275.581	151.72
275.797	137.38
276.012	57.51
276.228	102.57
276.444	-16.21
276.659	84.14
276.875	10.41
277.09	88.23
277.306	30.89
277.521	88.23
277.737	75.95
277.952	73.9
278.168	71.85
278.383	92.33
278.599	80.04
278.814	96.43
279.03	20.65
279.245	92.33
279.461	47.27
279.676	32.94
279.892	49.32
280.107	47.27
280.322	16.55
280.538	45.23
280.753	-20.31
280.969	34.99
281.184	96.43
281.399	2.22
281.615	0.17
281.83	51.37
282.045	24.75
282.26	73.9
282.476	61.61
282.691	80.04
282.906	65.71
283.122	37.03
283.337	121
283.552	45.23
283.767	118.95
283.983	8.36
284.198	37.03
284.413	-28.5
284.628	32.94
284.843	61.61
285.058	39.08
285.274	84.14
285.489	61.61
285.704	43.18
285.919	59.56
286.134	49.32
286.349	80.04
286.564	75.95
286.779	14.51
286.995	18.6
287.21	-3.93
287.425	82.09
287.64	75.95
287.855	-8.02
288.07	45.23
288.285	84.14
288.5	114.86
288.715	63.66
288.93	65.71
289.145	10.41
289.36	57.51
289.575	-67.41
289.79	98.47
290.004	37.03
290.219	88.23
290.434	12.46
290.649	-8.02
290.864	41.13
291.079	28.84
291.294	26.79
291.509	30.89
291.724	98.47
291.938	0.17
292.153	43.18
292.368	51.37
292.583	30.89
292.798	82.09
293.012	100.52
293.227	139.43
293.442	-10.07
293.657	137.38
293.871	65.71
294.086	127.14
294.301	125.1
294.516	106.67
294.73	39.08
294.945	-98.13
295.16	94.38
295.374	20.65
295.589	84.14
295.804	-16.21
296.018	24.75
296.233	88.23
296.447	14.51
296.662	90.28
296.877	88.23
297.091	118.95
297.306	57.51
297.52	18.6
297.735	49.32
297.949	-5.97
298.164	104.62
298.378	69.8
298.593	67.75
298.807	-1.88
299.022	71.85
299.236	45.23
299.451	71.85
299.665	34.99
299.88	43.18
300.094	90.28
300.309	67.75
300.523	84.14
300.737	2.22
300.952	28.84
301.166	92.33
301.381	59.56
301.595	-1.88
301.809	-59.22
302.024	-16.21
302.238	65.71
302.452	47.27
302.667	-12.12
302.881	65.71
303.095	24.75
303.309	10.41
303.524	49.32
303.738	57.51
303.952	63.66
304.166	110.76
304.381	16.55
304.595	63.66
304.809	-24.4
305.023	51.37
305.237	18.6
305.452	43.18
305.666	80.04
305.88	75.95
306.094	96.43
306.308	32.94
306.522	69.8
306.736	47.27
306.95	69.8
307.164	37.03
307.379	86.19
307.593	59.56
307.807	67.75
308.021	100.52
308.235	86.19
308.449	24.75
308.663	32.94
308.877	129.19
309.091	121
309.305	71.85
309.519	22.7
309.733	37.03
309.947	-18.26
310.161	77.99
310.374	114.86
310.588	133.29
310.802	-5.97
311.016	49.32
311.23	112.81
311.444	2.22
311.658	69.8
311.872	55.47
312.085	118.95
312.299	147.62
312.513	106.67
312.727	71.85
312.941	20.65
313.154	73.9
313.368	65.71
313.582	2.22
313.796	131.24
314.009	14.51
314.223	71.85
314.437	67.75
314.651	65.71
314.864	24.75
315.078	18.6
315.292	10.41
315.505	63.66
315.719	137.38
315.933	96.43
316.146	45.23
316.36	2.22
316.573	43.18
316.787	149.67
317.001	75.95
317.214	59.56
317.428	30.89
317.641	41.13
317.855	-3.93
318.068	71.85
318.282	84.14
318.495	75.95
318.709	77.99
318.922	-36.69
319.136	139.43
319.349	164.01
319.563	45.23
319.776	94.38
319.99	55.47
320.203	112.81
320.417	39.08
320.63	80.04
320.843	90.28
321.057	114.86
321.27	73.9
321.483	157.86
321.697	96.43
321.91	30.89
322.124	139.43
322.337	-14.17
322.55	73.9
322.763	-8.02
322.977	47.27
323.19	22.7
323.403	18.6
323.617	98.47
323.83	77.99
324.043	26.79
324.256	34.99
324.469	49.32
324.683	102.57
324.896	55.47
325.109	24.75
325.322	-38.74
325.535	108.71
325.748	77.99
325.962	-20.31
326.175	49.32
326.388	110.76
326.601	82.09
326.814	14.51
327.027	26.79
327.24	82.09
327.453	49.32
327.666	94.38
327.879	90.28
328.092	75.95
328.305	47.27
328.518	34.99
328.731	26.79
328.944	22.7
329.157	16.55
329.37	45.23
329.583	141.48
329.796	32.94
330.009	61.61
330.222	24.75
330.435	116.9
330.648	37.03
330.861	39.08
331.073	73.9
331.286	98.47
331.499	41.13
331.712	4.27
331.925	63.66
332.138	51.37
332.35	55.47
332.563	-1.88
332.776	82.09
332.989	20.65
333.202	24.75
333.414	112.81
333.627	106.67
333.84	67.75
334.053	30.89
334.265	88.23
334.478	114.86
334.691	18.6
334.903	24.75
335.116	34.99
335.329	96.43
335.541	49.32
335.754	63.66
335.966	-1.88
336.179	8.36
336.392	39.08
336.604	26.79
336.817	61.61
337.029	123.05
337.242	57.51
337.454	37.03
337.667	84.14
337.88	110.76
338.092	10.41
338.305	84.14
338.517	43.18
338.729	2.22
338.942	161.96
339.154	-8.02
339.367	41.13
339.579	116.9
339.792	100.52
340.004	75.95
340.217	53.42
340.429	39.08
340.641	10.41
340.854	63.66
341.066	39.08
341.278	63.66
341.491	59.56
341.703	8.36
341.915	24.75
342.128	41.13
342.34	34.99
342.552	37.03
342.764	-3.93
342.977	84.14
343.189	80.04
343.401	118.95
343.613	47.27
343.826	-14.17
344.038	-5.97
344.25	96.43
344.462	39.08
344.674	22.7
344.886	22.7
345.099	32.94
345.311	96.43
345.523	141.48
345.735	37.03
345.947	71.85
346.159	94.38
346.371	-18.26
346.583	-3.93
346.795	55.47
347.007	90.28
347.219	88.23
347.431	90.28
347.643	110.76
347.855	47.27
348.067	125.1
348.279	43.18
348.491	57.51
348.703	39.08
348.915	86.19
349.127	69.8
349.339	80.04
349.551	-12.12
349.763	8.36
349.975	45.23
350.187	80.04
350.399	75.95
350.61	59.56
350.822	41.13
351.034	-16.21
351.246	65.71
351.458	69.8
351.669	34.99
351.881	118.95
352.093	86.19
352.305	90.28
352.517	123.05
352.728	94.38
352.94	43.18
353.152	127.14
353.363	28.84
353.575	84.14
353.787	77.99
353.999	4.27
354.21	168.1
354.422	55.47
354.633	49.32
354.845	49.32
355.057	96.43
355.268	57.51
355.48	96.43
355.692	47.27
355.903	116.9
356.115	100.52
356.326	0.17
356.538	49.32
356.749	129.19
356.961	129.19
357.172	-5.97
357.384	6.31
357.595	170.15
357.807	90.28
358.018	51.37
358.23	96.43
358.441	88.23
358.653	45.23
358.864	90.28
359.075	45.23
359.287	6.31
359.498	102.57
359.709	0.17
359.921	131.24
360.132	20.65
360.344	71.85
360.555	100.52
360.766	30.89
360.977	0.17
361.189	149.67
361.4	94.38
361.611	123.05
361.823	170.15
362.034	22.7
362.245	-3.93
362.456	41.13
362.667	39.08
362.879	26.79
363.09	26.79
363.301	57.51
363.512	49.32
363.723	65.71
363.935	88.23
364.146	102.57
364.357	59.56
364.568	34.99
364.779	-36.69
364.99	139.43
365.201	57.51
365.412	123.05
365.623	2.22
365.834	20.65
366.045	86.19
366.256	59.56
366.467	90.28
366.678	55.47
366.889	61.61
367.1	59.56
367.311	22.7
367.522	69.8
367.733	63.66
367.944	88.23
368.155	55.47
368.366	92.33
368.577	73.9
368.788	84.14
368.999	12.46
369.209	141.48
369.42	190.63
369.631	164.01
369.842	53.42
370.053	37.03
370.264	82.09
370.474	22.7
370.685	82.09
370.896	2.22
371.107	77.99
371.317	114.86
371.528	94.38
371.739	145.58
371.95	77.99
372.16	69.8
372.371	69.8
372.582	-28.5
372.792	82.09
373.003	59.56
373.214	98.47
373.424	65.71
373.635	53.42
373.846	180.39
374.056	37.03
374.267	108.71
374.477	100.52
374.688	77.99
374.898	30.89
375.109	55.47
375.319	92.33
375.53	71.85
375.74	65.71
375.951	65.71
376.161	108.71
376.372	77.99
376.582	24.75
376.793	121
377.003	41.13
377.214	86.19
377.424	59.56
377.635	129.19
377.845	43.18
378.055	147.62
378.266	-38.74
378.476	145.58
378.686	84.14
378.897	57.51
379.107	65.71
379.317	170.15
379.528	26.79
379.738	69.8
379.948	61.61
380.158	84.14
380.369	84.14
380.579	114.86
380.789	71.85
380.999	131.24
381.21	65.71
381.42	88.23
381.63	82.09
381.84	45.23
382.05	26.79
382.261	80.04
382.471	121
382.681	102.57
382.891	153.77
383.101	43.18
383.311	14.51
383.521	24.75
383.731	65.71
383.941	114.86
384.151	82.09
384.361	92.33
384.571	12.46
384.781	69.8
384.991	114.86
385.201	153.77
385.411	108.71
385.621	149.67
385.831	6.31
386.041	28.84
386.251	61.61
386.461	53.42
386.671	12.46
386.881	80.04
387.091	51.37
387.301	106.67
387.511	69.8
387.72	63.66
387.93	55.47
388.14	61.61
388.35	84.14
388.56	41.13
388.769	94.38
388.979	98.47
389.189	92.33
389.399	59.56
389.609	59.56
389.818	59.56
390.028	71.85
390.238	86.19
390.447	80.04
390.657	100.52
390.867	131.24
391.076	24.75
391.286	94.38
391.496	116.9
391.705	59.56
391.915	149.67
392.125	145.58
392.334	147.62
392.544	137.38
392.753	110.76
392.963	63.66
393.172	61.61
393.382	90.28
393.591	100.52
393.801	86.19
394.01	65.71
394.22	108.71
394.429	65.71
394.639	61.61
394.848	77.99
395.058	69.8
395.267	39.08
395.477	135.34
395.686	84.14
395.895	110.76
396.105	176.3
396.314	55.47
396.524	112.81
396.733	63.66
396.942	168.1
397.152	137.38
397.361	149.67
397.57	129.19
397.78	123.05
397.989	82.09
398.198	166.06
398.407	73.9
398.617	69.8
398.826	151.72
399.035	98.47
399.244	147.62
399.453	51.37
399.663	90.28
399.872	123.05
400.081	86.19
400.29	143.53
400.499	98.47
400.708	84.14
400.917	176.3
401.127	98.47
401.336	104.62
401.545	200.87
401.754	182.44
401.963	133.29
402.172	67.75
402.381	131.24
402.59	153.77
402.799	139.43
403.008	67.75
403.217	135.34
403.426	84.14
403.635	121
403.844	53.42
404.053	106.67
404.262	135.34
404.471	168.1
404.68	151.72
404.888	127.14
405.097	170.15
405.306	184.49
405.515	176.3
405.724	172.2
405.933	184.49
406.142	196.78
406.35	198.82
406.559	186.54
406.768	188.58
406.977	217.26
407.185	170.15
407.394	198.82
407.603	118.95
407.812	256.17
408.02	225.45
408.229	266.41
408.438	213.16
408.646	215.21
408.855	149.67
409.064	200.87
409.272	176.3
409.481	270.5
409.69	227.5
409.898	329.89
410.107	274.6
410.315	280.74
410.524	223.4
410.733	340.13
410.941	329.89
411.15	260.26
411.358	319.65
411.567	430.24
411.775	366.76
411.984	438.44
412.192	377
412.401	372.9
412.609	499.88
412.818	471.2
413.026	430.24
413.234	454.82
413.443	395.43
413.651	540.83
413.86	516.26
414.068	508.07
414.276	632.99
414.485	569.51
414.693	569.51
414.901	657.57
415.11	598.18
415.318	536.74
415.526	600.23
415.734	696.48
415.943	657.57
416.151	774.3
416.359	702.62
416.567	815.26
416.776	676
416.984	762.02
417.192	915.61
417.4	710.82
417.608	747.68
417.817	919.71
418.025	901.28
418.233	954.52
418.441	921.76
418.649	1007.77
418.857	1108.12
419.065	1061.02
419.273	977.05
419.481	1167.51
419.689	1317.01
419.897	1292.44
420.105	1292.44
420.313	1353.88
420.521	1362.07
420.729	1448.08
420.937	1421.46
421.145	1546.39
421.353	1489.04
421.561	1681.55
421.769	1675.41
421.977	1853.58
422.185	1738.9
422.393	1820.81
422.601	1949.84
422.809	2019.47
423.017	1990.8
423.224	1910.93
423.432	2078.86
423.64	2009.23
423.848	2228.36
424.056	2175.11
424.263	2416.77
424.471	2515.08
424.679	2392.2
424.887	2619.52
425.094	2631.81
425.302	2609.28
425.51	2793.6
425.718	2803.84
425.925	2959.49
426.133	2930.81
426.341	3156.09
426.548	3147.9
426.756	3207.29
426.964	3358.84
427.171	3487.86
427.379	3590.26
427.586	3801.2
427.794	3776.63
428.001	3965.04
428.209	4057.2
428.417	4018.29
428.624	4259.95
428.832	4180.07
429.039	4114.54
429.247	4243.56
429.454	4812.9
429.662	5156.96
429.869	4683.88
430.076	5099.61
430.284	4950.11
430.491	4964.45
430.699	5652.56
430.906	5462.1
431.114	5455.96
431.321	5642.32
431.528	5892.18
431.736	6045.77
431.943	6516.81
432.15	6025.29
432.358	6381.64
432.565	6656.07
432.772	6654.02
432.979	6922.31
433.187	7043.14
433.394	7131.2
433.601	7596.09
433.808	7780.4
434.016	7575.61
434.223	7911.47
434.43	8198.19
434.637	8247.34
434.844	8691.75
435.052	8761.38
435.259	8857.64
435.466	8992.8
435.673	8982.56
435.88	9594.9
436.087	9863.19
436.294	9838.61
436.501	9656.34
436.708	9844.76
436.915	10330.13
437.122	10713.1
437.329	10649.61
437.537	11153.41
437.743	11202.56
437.95	11268.09
438.157	11696.12
438.364	12074.99
438.571	11821.05
438.778	11964.4
438.985	13340.64
439.192	12625.9
439.399	13076.45
439.606	12748.78
439.813	13623.26
440.02	14356.43
440.227	13916.12
440.433	13914.07
440.64	14663.63
440.847	14198.74
441.054	14985.16
441.261	15687.61
441.467	15396.8
441.674	15726.52
441.881	16383.92
442.088	16226.23
442.294	16279.47
442.501	16805.8
442.708	16936.87
442.914	17758.11
443.121	18282.39
443.328	18010.01
443.534	19341.19
443.741	18700.17
443.948	18452.37
444.154	20031.35
444.361	19595.14
444.568	20326.26
444.774	19666.81
444.981	20043.64
445.187	20733.81
445.394	21614.43
445.6	21190.5
445.807	23351.11
446.013	22284.12
446.22	22673.23
446.426	23598.91
446.633	23416.65
446.839	24676.15
447.046	23666.5
447.252	24973.1
447.459	24952.62
447.665	24878.9
447.871	26070.81
448.078	27119.37
448.284	25696.03
448.491	26550.04
448.697	27537.16
448.903	28169.98
449.11	28276.48
449.316	27057.93
449.522	28249.85
449.728	29206.25
449.935	29370.09
450.141	29036.27
450.347	30017.25
450.553	28913.39
450.76	29337.32
450.966	30295.77
451.172	29898.47
451.378	30691.03
451.584	30170.85
451.791	31080.14
451.997	30588.63
452.203	31637.19
452.409	31272.65
452.615	31123.15
452.821	29865.7
453.027	29728.49
453.233	31557.32
453.44	29794.02
453.646	30740.18
453.852	30547.67
454.058	30660.31
454.264	29949.67
454.47	30582.49
454.676	29654.76
454.882	30971.6
455.088	28155.65
455.294	28595.96
455.5	28708.6
455.705	29421.29
455.911	28241.66
456.117	27682.56
456.323	26984.21
456.529	25849.63
456.735	26896.14
456.941	26248.99
457.147	26011.42
457.352	25012.01
457.558	24651.57
457.764	24835.89
457.97	24362.81
458.176	23699.27
458.381	23961.41
458.587	22474.58
458.793	22255.45
458.999	21391.2
459.204	22835.02
459.41	22003.55
459.616	21067.63
459.821	20881.26
460.027	20731.76
460.233	20211.57
460.438	19351.43
460.644	19677.05
460.85	18683.79
461.055	18290.58
461.261	18442.13
461.466	16932.78
461.672	16519.09
461.878	17663.9
462.083	16723.88
462.289	16256.95
462.494	15959.99
462.7	15081.41
462.905	14888.9
463.111	15300.55
463.316	15667.13
463.522	15112.13
463.727	15161.28
463.932	15275.97
464.138	14813.13
464.343	15273.92
464.549	14602.19
464.754	14958.53
464.959	14763.98
465.165	14819.27
465.37	14319.57
465.575	13848.54
465.781	14270.42
465.986	14338
466.191	13924.31
466.397	13615.07
466.602	13109.22
466.807	13453.28
467.012	13631.45
467.218	13506.52
