Data from USB4F104151__57__12-24-06-228.txt Node

Date: Fri Mar 14 12:24:06 EDT 2025
User: louis
Spectrometer: USB4F10415
Trigger mode: 4
Integration Time (sec): 3.500000E-2
Scans to average: 1
Electric dark correction enabled: true
Nonlinearity correction enabled: false
Boxcar width: 0
XAxis mode: Wavelengths
Number of Pixels in Spectrum: 3648
>>>>>Begin Spectral Data<<<<<
178.204	-162.81
178.424	-162.81
178.644	-162.81
178.864	-115.71
179.084	-125.95
179.304	-5.12
179.524	11.26
179.744	-25.6
179.964	25.6
180.184	-9.22
180.404	27.65
180.624	25.6
180.844	-9.22
181.064	-74.75
181.283	3.07
181.503	-27.65
181.723	58.37
181.943	-37.89
182.163	50.18
182.383	-41.98
182.602	103.42
182.822	54.27
183.042	35.84
183.262	1.02
183.482	11.26
183.701	-27.65
183.921	15.36
184.141	-11.26
184.361	60.42
184.58	54.27
184.8	76.8
185.02	-33.79
185.239	128
185.459	39.94
185.679	-17.41
185.898	25.6
186.118	109.57
186.338	37.89
186.557	58.37
186.777	-19.46
186.997	27.65
187.216	-11.26
187.436	132.09
187.655	68.61
187.875	27.65
188.095	-3.07
188.314	21.5
188.534	115.71
188.753	-27.65
188.973	-13.31
189.192	74.75
189.412	-31.74
189.631	-1.02
189.851	21.5
190.07	44.03
190.29	46.08
190.509	-58.37
190.729	1.02
190.948	74.75
191.168	95.23
191.387	37.89
191.607	-35.84
191.826	17.41
192.045	-31.74
192.265	15.36
192.484	33.79
192.704	-3.07
192.923	-46.08
193.142	93.18
193.362	56.32
193.581	50.18
193.8	52.22
194.02	68.61
194.239	54.27
194.458	99.33
194.678	-1.02
194.897	13.31
195.116	78.85
195.335	-17.41
195.555	99.33
195.774	37.89
195.993	80.89
196.212	13.31
196.432	-44.03
196.651	82.94
196.87	-1.02
197.089	-5.12
197.308	50.18
197.528	60.42
197.747	-19.46
197.966	48.13
198.185	33.79
198.404	-37.89
198.623	44.03
198.842	82.94
199.062	-3.07
199.281	35.84
199.5	-37.89
199.719	60.42
199.938	54.27
200.157	33.79
200.376	19.46
200.595	115.71
200.814	60.42
201.033	-5.12
201.252	132.09
201.471	-27.65
201.69	44.03
201.909	19.46
202.128	13.31
202.347	25.6
202.566	37.89
202.785	17.41
203.004	-54.27
203.223	123.9
203.442	25.6
203.661	9.22
203.879	-31.74
204.098	80.89
204.317	-46.08
204.536	17.41
204.755	29.7
204.974	23.55
205.193	-5.12
205.411	154.62
205.63	17.41
205.849	39.94
206.068	-17.41
206.287	17.41
206.505	15.36
206.724	21.5
206.943	-9.22
207.162	58.37
207.381	76.8
207.599	-17.41
207.818	68.61
208.037	-46.08
208.255	-5.12
208.474	50.18
208.693	50.18
208.911	-37.89
209.13	3.07
209.349	44.03
209.567	50.18
209.786	35.84
210.005	44.03
210.223	-54.27
210.442	68.61
210.661	19.46
210.879	-11.26
211.098	87.04
211.316	-5.12
211.535	19.46
211.753	41.98
211.972	-7.17
212.191	39.94
212.409	39.94
212.628	-41.98
212.846	-31.74
213.065	111.61
213.283	-3.07
213.502	23.55
213.72	91.13
213.938	27.65
214.157	9.22
214.375	41.98
214.594	-11.26
214.812	113.66
215.031	-33.79
215.249	3.07
215.467	21.5
215.686	37.89
215.904	115.71
216.122	19.46
216.341	78.85
216.559	25.6
216.778	17.41
216.996	39.94
217.214	21.5
217.432	-25.6
217.651	7.17
217.869	17.41
218.087	-11.26
218.306	-3.07
218.524	37.89
218.742	37.89
218.96	50.18
219.179	74.75
219.397	35.84
219.615	64.51
219.833	7.17
220.051	7.17
220.27	74.75
220.488	-5.12
220.706	44.03
220.924	74.75
221.142	82.94
221.36	41.98
221.578	19.46
221.796	-3.07
222.015	3.07
222.233	21.5
222.451	35.84
222.669	-74.75
222.887	3.07
223.105	7.17
223.323	37.89
223.541	-21.5
223.759	15.36
223.977	50.18
224.195	152.57
224.413	27.65
224.631	3.07
224.849	-41.98
225.067	66.56
225.285	-33.79
225.503	-5.12
225.721	1.02
225.939	1.02
226.157	39.94
226.375	107.52
226.592	3.07
226.81	19.46
227.028	11.26
227.246	82.94
227.464	39.94
227.682	87.04
227.9	82.94
228.117	27.65
228.335	-7.17
228.553	5.12
228.771	9.22
228.989	35.84
229.206	39.94
229.424	-9.22
229.642	31.74
229.86	35.84
230.077	119.81
230.295	1.02
230.513	60.42
230.731	66.56
230.948	-41.98
231.166	87.04
231.384	-9.22
231.601	-3.07
231.819	89.09
232.037	58.37
232.254	27.65
232.472	72.7
232.689	-15.36
232.907	-3.07
233.125	37.89
233.342	-13.31
233.56	39.94
233.777	3.07
233.995	46.08
234.213	89.09
234.43	17.41
234.648	21.5
234.865	80.89
235.083	3.07
235.3	-17.41
235.518	97.28
235.735	41.98
235.953	33.79
236.17	9.22
236.388	-13.31
236.605	87.04
236.822	64.51
237.04	-1.02
237.257	19.46
237.475	3.07
237.692	-1.02
237.909	39.94
238.127	44.03
238.344	37.89
238.562	-37.89
238.779	-60.42
238.996	11.26
239.214	-27.65
239.431	15.36
239.648	62.46
239.865	11.26
240.083	78.85
240.3	87.04
240.517	21.5
240.735	41.98
240.952	121.85
241.169	-9.22
241.386	17.41
241.603	9.22
241.821	-11.26
242.038	13.31
242.255	13.31
242.472	-27.65
242.689	54.27
242.907	44.03
243.124	39.94
243.341	-13.31
243.558	64.51
243.775	-46.08
243.992	25.6
244.209	23.55
244.426	56.32
244.643	17.41
244.86	-11.26
245.078	48.13
245.295	19.46
245.512	62.46
245.729	-9.22
245.946	54.27
246.163	72.7
246.38	41.98
246.597	68.61
246.814	52.22
247.031	84.99
247.248	31.74
247.464	82.94
247.681	19.46
247.898	27.65
248.115	76.8
248.332	-13.31
248.549	48.13
248.766	17.41
248.983	48.13
249.2	23.55
249.417	-13.31
249.633	44.03
249.85	78.85
250.067	23.55
250.284	35.84
250.501	82.94
250.717	37.89
250.934	1.02
251.151	-1.02
251.368	17.41
251.585	54.27
251.801	3.07
252.018	-87.04
252.235	84.99
252.451	-50.18
252.668	3.07
252.885	-37.89
253.102	-7.17
253.318	-19.46
253.535	68.61
253.752	5.12
253.968	101.37
254.185	-11.26
254.401	70.65
254.618	15.36
254.835	9.22
255.051	123.9
255.268	9.22
255.484	29.7
255.701	-39.94
255.917	66.56
256.134	-27.65
256.351	78.85
256.567	44.03
256.784	78.85
257	-37.89
257.217	19.46
257.433	109.57
257.65	-35.84
257.866	56.32
258.082	80.89
258.299	123.9
258.515	60.42
258.732	-11.26
258.948	1.02
259.165	25.6
259.381	52.22
259.597	19.46
259.814	50.18
260.03	-11.26
260.246	-50.18
260.463	33.79
260.679	62.46
260.895	68.61
261.112	44.03
261.328	-33.79
261.544	-9.22
261.761	125.95
261.977	11.26
262.193	-35.84
262.409	-15.36
262.626	-31.74
262.842	15.36
263.058	23.55
263.274	44.03
263.49	-7.17
263.707	56.32
263.923	74.75
264.139	54.27
264.355	37.89
264.571	46.08
264.787	13.31
265.004	37.89
265.22	48.13
265.436	15.36
265.652	-13.31
265.868	17.41
266.084	-3.07
266.3	-5.12
266.516	84.99
266.732	-23.55
266.948	-21.5
267.164	25.6
267.38	109.57
267.596	1.02
267.812	25.6
268.028	21.5
268.244	3.07
268.46	27.65
268.676	-17.41
268.892	9.22
269.108	-64.51
269.324	-44.03
269.54	23.55
269.756	144.38
269.972	-5.12
270.188	7.17
270.403	-41.98
270.619	3.07
270.835	41.98
271.051	44.03
271.267	56.32
271.483	5.12
271.698	31.74
271.914	-33.79
272.13	17.41
272.346	44.03
272.562	48.13
272.777	9.22
272.993	13.31
273.209	-52.22
273.425	3.07
273.64	19.46
273.856	15.36
274.072	-56.32
274.287	23.55
274.503	68.61
274.719	7.17
274.934	11.26
275.15	-15.36
275.366	62.46
275.581	-1.02
275.797	5.12
276.012	-11.26
276.228	-70.65
276.444	-39.94
276.659	27.65
276.875	-9.22
277.09	13.31
277.306	-9.22
277.521	37.89
277.737	21.5
277.952	44.03
278.168	101.37
278.383	9.22
278.599	31.74
278.814	41.98
279.03	-89.09
279.245	52.22
279.461	37.89
279.676	54.27
279.892	21.5
280.107	-5.12
280.322	-3.07
280.538	48.13
280.753	64.51
280.969	-1.02
281.184	39.94
281.399	-9.22
281.615	35.84
281.83	-37.89
282.045	56.32
282.26	-9.22
282.476	-21.5
282.691	19.46
282.906	23.55
283.122	78.85
283.337	3.07
283.552	31.74
283.767	-23.55
283.983	66.56
284.198	72.7
284.413	58.37
284.628	-9.22
284.843	46.08
285.058	13.31
285.274	21.5
285.489	13.31
285.704	33.79
285.919	-3.07
286.134	33.79
286.349	52.22
286.564	-1.02
286.779	76.8
286.995	17.41
287.21	-56.32
287.425	95.23
287.64	17.41
287.855	68.61
288.07	-39.94
288.285	58.37
288.5	15.36
288.715	62.46
288.93	35.84
289.145	1.02
289.36	11.26
289.575	-74.75
289.79	70.65
290.004	41.98
290.219	29.7
290.434	7.17
290.649	-7.17
290.864	25.6
291.079	29.7
291.294	64.51
291.509	-15.36
291.724	54.27
291.938	7.17
292.153	17.41
292.368	-7.17
292.583	44.03
292.798	46.08
293.012	21.5
293.227	25.6
293.442	62.46
293.657	54.27
293.871	105.47
294.086	35.84
294.301	27.65
294.516	11.26
294.73	-5.12
294.945	11.26
295.16	1.02
295.374	119.81
295.589	64.51
295.804	80.89
296.018	48.13
296.233	74.75
296.447	23.55
296.662	25.6
296.877	60.42
297.091	-9.22
297.306	-5.12
297.52	-62.46
297.735	31.74
297.949	31.74
298.164	60.42
298.378	33.79
298.593	-31.74
298.807	-5.12
299.022	52.22
299.236	-39.94
299.451	29.7
299.665	15.36
299.88	31.74
300.094	31.74
300.309	52.22
300.523	3.07
300.737	1.02
300.952	68.61
301.166	-9.22
301.381	37.89
301.595	9.22
301.809	41.98
302.024	-70.65
302.238	3.07
302.452	27.65
302.667	-66.56
302.881	62.46
303.095	39.94
303.309	48.13
303.524	17.41
303.738	7.17
303.952	7.17
304.166	9.22
304.381	9.22
304.595	54.27
304.809	5.12
305.023	50.18
305.237	15.36
305.452	64.51
305.666	82.94
305.88	1.02
306.094	84.99
306.308	99.33
306.522	84.99
306.736	-3.07
306.95	80.89
307.164	19.46
307.379	17.41
307.593	52.22
307.807	82.94
308.021	84.99
308.235	93.18
308.449	-5.12
308.663	-27.65
308.877	46.08
309.091	-3.07
309.305	-11.26
309.519	-37.89
309.733	60.42
309.947	35.84
310.161	60.42
310.374	46.08
310.588	60.42
310.802	33.79
311.016	41.98
311.23	33.79
311.444	-52.22
311.658	-13.31
311.872	50.18
312.085	31.74
312.299	76.8
312.513	54.27
312.727	11.26
312.941	-21.5
313.154	-29.7
313.368	-5.12
313.582	76.8
313.796	74.75
314.009	-13.31
314.223	99.33
314.437	17.41
314.651	64.51
314.864	-21.5
315.078	25.6
315.292	-1.02
315.505	9.22
315.719	58.37
315.933	41.98
316.146	37.89
316.36	7.17
316.573	37.89
316.787	35.84
317.001	72.7
317.214	-19.46
317.428	46.08
317.641	11.26
317.855	19.46
318.068	54.27
318.282	15.36
318.495	66.56
318.709	52.22
318.922	9.22
319.136	80.89
319.349	62.46
319.563	21.5
319.776	-3.07
319.99	-5.12
320.203	89.09
320.417	44.03
320.63	15.36
320.843	9.22
321.057	31.74
321.27	74.75
321.483	-15.36
321.697	66.56
321.91	5.12
322.124	-41.98
322.337	31.74
322.55	3.07
322.763	-35.84
322.977	25.6
323.19	-19.46
323.403	33.79
323.617	5.12
323.83	-21.5
324.043	7.17
324.256	66.56
324.469	76.8
324.683	-58.37
324.896	60.42
325.109	84.99
325.322	-97.28
325.535	74.75
325.748	44.03
325.962	-5.12
326.175	52.22
326.388	62.46
326.601	50.18
326.814	1.02
327.027	15.36
327.24	123.9
327.453	-82.94
327.666	-41.98
327.879	-19.46
328.092	48.13
328.305	23.55
328.518	99.33
328.731	37.89
328.944	-7.17
329.157	50.18
329.37	-41.98
329.583	99.33
329.796	50.18
330.009	-29.7
330.222	27.65
330.435	23.55
330.648	9.22
330.861	50.18
331.073	-48.13
331.286	-50.18
331.499	15.36
331.712	-39.94
331.925	7.17
332.138	19.46
332.35	58.37
332.563	-21.5
332.776	105.47
332.989	-60.42
333.202	-48.13
333.414	19.46
333.627	-1.02
333.84	31.74
334.053	72.7
334.265	-7.17
334.478	19.46
334.691	74.75
334.903	64.51
335.116	-41.98
335.329	-1.02
335.541	17.41
335.754	82.94
335.966	-21.5
336.179	-35.84
336.392	72.7
336.604	46.08
336.817	-70.65
337.029	31.74
337.242	-21.5
337.454	66.56
337.667	23.55
337.88	27.65
338.092	35.84
338.305	21.5
338.517	25.6
338.729	52.22
338.942	80.89
339.154	23.55
339.367	-33.79
339.579	91.13
339.792	25.6
340.004	31.74
340.217	50.18
340.429	-17.41
340.641	-15.36
340.854	-1.02
341.066	11.26
341.278	41.98
341.491	128
341.703	-5.12
341.915	91.13
342.128	84.99
342.34	62.46
342.552	17.41
342.764	80.89
342.977	80.89
343.189	44.03
343.401	-15.36
343.613	-31.74
343.826	-15.36
344.038	11.26
344.25	7.17
344.462	33.79
344.674	113.66
344.886	89.09
345.099	56.32
345.311	62.46
345.523	23.55
345.735	15.36
345.947	-3.07
346.159	-56.32
346.371	54.27
346.583	48.13
346.795	52.22
347.007	-39.94
347.219	-25.6
347.431	-33.79
347.643	66.56
347.855	-37.89
348.067	11.26
348.279	9.22
348.491	29.7
348.703	33.79
348.915	31.74
349.127	-39.94
349.339	13.31
349.551	66.56
349.763	56.32
349.975	33.79
350.187	31.74
350.399	52.22
350.61	37.89
350.822	44.03
351.034	97.28
351.246	-5.12
351.458	-3.07
351.669	-31.74
351.881	-39.94
352.093	-11.26
352.305	105.47
352.517	39.94
352.728	125.95
352.94	27.65
353.152	50.18
353.363	31.74
353.575	31.74
353.787	70.65
353.999	68.61
354.21	134.14
354.422	-27.65
354.633	56.32
354.845	44.03
355.057	107.52
355.268	9.22
355.48	66.56
355.692	15.36
355.903	17.41
356.115	-46.08
356.326	-39.94
356.538	35.84
356.749	39.94
356.961	91.13
357.172	46.08
357.384	50.18
357.595	52.22
357.807	-19.46
358.018	-19.46
358.23	60.42
358.441	119.81
358.653	-13.31
358.864	-15.36
359.075	-11.26
359.287	23.55
359.498	66.56
359.709	-33.79
359.921	-17.41
360.132	93.18
360.344	52.22
360.555	52.22
360.766	23.55
360.977	-19.46
361.189	-31.74
361.4	11.26
361.611	87.04
361.823	44.03
362.034	5.12
362.245	13.31
362.456	-39.94
362.667	3.07
362.879	31.74
363.09	9.22
363.301	76.8
363.512	17.41
363.723	-17.41
363.935	-11.26
364.146	101.37
364.357	74.75
364.568	41.98
364.779	54.27
364.99	74.75
365.201	-44.03
365.412	25.6
365.623	-76.8
365.834	-9.22
366.045	41.98
366.256	82.94
366.467	41.98
366.678	39.94
366.889	68.61
367.1	3.07
367.311	-23.55
367.522	44.03
367.733	52.22
367.944	109.57
368.155	119.81
368.366	80.89
368.577	113.66
368.788	121.85
368.999	-5.12
369.209	9.22
369.42	-1.02
369.631	140.29
369.842	35.84
370.053	41.98
370.264	54.27
370.474	93.18
370.685	56.32
370.896	11.26
371.107	82.94
371.317	-9.22
371.528	27.65
371.739	78.85
371.95	33.79
372.16	44.03
372.371	-17.41
372.582	-50.18
372.792	60.42
373.003	64.51
373.214	-52.22
373.424	78.85
373.635	35.84
373.846	46.08
374.056	64.51
374.267	62.46
374.477	39.94
374.688	-25.6
374.898	23.55
375.109	25.6
375.319	54.27
375.53	25.6
375.74	37.89
375.951	-19.46
376.161	54.27
376.372	76.8
376.582	-25.6
376.793	3.07
377.003	60.42
377.214	17.41
377.424	99.33
377.635	27.65
377.845	68.61
378.055	52.22
378.266	5.12
378.476	27.65
378.686	3.07
378.897	60.42
379.107	-15.36
379.317	5.12
379.528	50.18
379.738	64.51
379.948	-29.7
380.158	39.94
380.369	-74.75
380.579	56.32
380.789	76.8
380.999	11.26
381.21	-11.26
381.42	111.61
381.63	27.65
381.84	-9.22
382.05	54.27
382.261	52.22
382.471	56.32
382.681	11.26
382.891	35.84
383.101	66.56
383.311	-35.84
383.521	-23.55
383.731	82.94
383.941	138.24
384.151	48.13
384.361	13.31
384.571	70.65
384.781	-27.65
384.991	113.66
385.201	117.76
385.411	33.79
385.621	66.56
385.831	13.31
386.041	13.31
386.251	54.27
386.461	91.13
386.671	-25.6
386.881	35.84
387.091	93.18
387.301	76.8
387.511	44.03
387.72	17.41
387.93	56.32
388.14	-11.26
388.35	-9.22
388.56	44.03
388.769	105.47
388.979	-19.46
389.189	25.6
389.399	66.56
389.609	41.98
389.818	115.71
390.028	48.13
390.238	62.46
390.447	29.7
390.657	91.13
390.867	66.56
391.076	-15.36
391.286	60.42
391.496	89.09
391.705	3.07
391.915	31.74
392.125	19.46
392.334	5.12
392.544	44.03
392.753	70.65
392.963	-66.56
393.172	111.61
393.382	62.46
393.591	95.23
393.801	33.79
394.01	109.57
394.22	19.46
394.429	76.8
394.639	58.37
394.848	76.8
395.058	54.27
395.267	44.03
395.477	82.94
395.686	62.46
395.895	80.89
396.105	123.9
396.314	-58.37
396.524	23.55
396.733	-52.22
396.942	164.86
397.152	93.18
397.361	76.8
397.57	80.89
397.78	101.37
397.989	17.41
398.198	140.29
398.407	23.55
398.617	101.37
398.826	-5.12
399.035	29.7
399.244	56.32
399.453	64.51
399.663	27.65
399.872	35.84
400.081	48.13
400.29	164.86
400.499	-13.31
400.708	119.81
400.917	7.17
401.127	78.85
401.336	80.89
401.545	109.57
401.754	177.15
401.963	91.13
402.172	35.84
402.381	13.31
402.59	33.79
402.799	-11.26
403.008	68.61
403.217	123.9
403.426	41.98
403.635	152.57
403.844	84.99
404.053	99.33
404.262	17.41
404.471	82.94
404.68	82.94
404.888	-54.27
405.097	48.13
405.306	156.67
405.515	152.57
405.724	115.71
405.933	134.14
406.142	121.85
406.35	132.09
406.559	164.86
406.768	140.29
406.977	113.66
407.185	103.42
407.394	95.23
407.603	107.52
407.812	240.64
408.02	130.05
408.229	144.38
408.438	70.65
408.646	101.37
408.855	109.57
409.064	123.9
409.272	152.57
409.481	162.81
409.69	138.24
409.898	156.67
410.107	228.35
410.315	168.96
410.524	238.59
410.733	242.68
410.941	148.48
411.15	158.72
411.358	177.15
411.567	279.55
411.775	220.16
411.984	252.92
412.192	203.77
412.401	216.06
412.609	238.59
412.818	304.12
413.026	322.56
413.234	199.68
413.443	306.17
413.651	244.73
413.86	271.36
414.068	353.27
414.276	334.84
414.485	330.75
414.693	388.09
414.901	441.34
415.11	457.72
415.318	455.67
415.526	406.52
415.734	435.19
415.943	390.14
416.151	465.91
416.359	416.76
416.567	410.62
416.776	535.54
416.984	515.06
417.192	572.41
417.4	613.37
417.608	443.39
417.817	556.02
418.025	754.68
418.233	734.2
418.441	611.32
418.649	582.65
418.857	709.62
419.065	723.96
419.273	719.86
419.481	742.39
419.689	795.64
419.897	826.36
420.105	807.92
420.313	908.27
420.521	916.47
420.729	902.13
420.937	871.41
421.145	902.13
421.353	998.38
421.561	1068.02
421.769	1154.03
421.977	1147.89
422.185	1156.08
422.393	1233.9
422.601	1309.68
422.809	1285.1
423.017	1309.68
423.224	1301.48
423.432	1334.25
423.64	1405.93
423.848	1541.1
424.056	1547.24
424.263	1534.95
424.471	1586.15
424.679	1692.65
424.887	1663.97
425.094	1805.28
425.302	1774.56
425.51	1778.66
425.718	1879.01
425.925	1915.87
426.133	1807.33
426.341	2145.25
426.548	2143.2
426.756	2218.97
426.964	2223.07
427.171	2325.47
427.379	2329.56
427.586	2495.45
427.794	2509.79
428.001	2642.9
428.209	2780.12
428.417	2741.21
428.624	2925.52
428.832	2808.79
429.039	2890.71
429.247	2859.99
429.454	3089.36
429.662	3326.93
429.869	3242.96
430.076	3255.25
430.284	3314.64
430.491	3443.66
430.699	3525.58
430.906	3582.92
431.114	3648.46
431.321	3851.21
431.528	3951.56
431.736	4172.74
431.943	4168.64
432.15	4217.79
432.358	4154.3
432.565	4506.56
432.772	4285.37
432.979	4606.91
433.187	4656.06
433.394	4674.49
433.601	5145.52
433.808	5190.58
434.016	5155.76
434.223	5223.34
434.43	5651.37
434.637	5475.24
434.844	5727.14
435.052	5866.41
435.259	6030.24
435.466	6091.68
435.673	5948.33
435.88	6388.64
436.087	6572.96
436.294	6638.49
436.501	6560.67
436.708	6552.48
436.915	6933.4
437.122	7177.11
437.329	7056.28
437.537	7424.91
437.743	7476.11
437.95	7400.34
438.157	7814.02
438.364	8145.8
438.571	8063.88
438.778	8096.64
438.985	8905.59
439.192	8403.84
439.399	8751.99
439.606	8719.23
439.813	9186.16
440.02	9784.17
440.227	9386.86
440.433	9470.83
440.64	9683.82
440.847	9536.37
441.054	9931.62
441.261	10658.65
441.467	10503.01
441.674	10613.6
441.881	11092.82
442.088	11019.1
442.294	10756.96
442.501	11326.29
442.708	11619.15
442.914	11834.19
443.121	12493.63
443.328	11967.31
443.534	13022.01
443.741	12675.9
443.948	12256.07
444.154	13220.66
444.361	13267.77
444.568	13331.25
444.774	13155.13
444.981	13429.56
445.187	14025.51
445.394	14310.18
445.6	14308.13
445.807	15403.8
446.013	14850.85
446.22	15244.06
446.426	15940.36
446.633	16212.74
446.839	16470.79
447.046	16038.67
447.252	16558.85
447.459	16718.59
447.665	16835.33
447.871	17486.58
448.078	18373.35
448.284	17308.41
448.491	17896.17
448.697	18557.67
448.903	19167.96
449.11	18623.2
449.316	18543.33
449.522	19122.91
449.728	19321.56
449.935	19704.53
450.141	19565.27
450.347	20159.18
450.553	19442.39
450.76	19718.87
450.966	20144.84
451.172	20167.37
451.378	20830.91
451.584	20339.4
451.791	20789.95
451.997	20499.14
452.203	21029.57
452.409	21037.76
452.615	20953.79
452.821	20112.08
453.027	19804.88
453.233	20906.69
453.44	19968.72
453.646	20411.08
453.852	20730.56
454.058	20832.96
454.264	20021.97
454.47	20742.85
454.676	20071.12
454.882	20832.96
455.088	18979.55
455.294	19344.09
455.5	19450.58
455.705	19608.28
455.911	18950.88
456.117	18770.66
456.323	18387.69
456.529	17324.79
456.735	18197.23
456.941	17566.45
457.147	17341.18
457.352	16782.08
457.558	16597.76
457.764	16640.77
457.97	16360.2
458.176	16079.63
458.381	15846.16
458.587	15168.28
458.793	15057.69
458.999	14381.86
459.204	15635.22
459.41	14971.68
459.616	13841.2
459.821	14101.29
460.027	13929.26
460.233	13828.91
460.438	13187.89
460.644	13024.06
460.85	12456.77
461.055	12464.96
461.261	12507.97
461.466	11502.42
461.672	11105.11
461.878	11897.67
462.083	10947.42
462.289	10834.78
462.494	10793.82
462.7	10373.99
462.905	10001.26
463.111	10494.82
463.316	10333.03
463.522	10140.52
463.727	10066.79
463.932	10183.52
464.138	9966.44
464.343	10109.8
464.549	9874.28
464.754	10040.17
464.959	9888.62
465.165	9818.99
465.37	9485.17
465.575	9167.73
465.781	9562.99
465.986	9698.16
466.191	9266.03
466.397	9249.65
466.602	8641.4
466.807	9028.47
467.012	8932.22
467.218	9112.44
467.423	9069.43
467.628	8967.03
467.833	9388.91
468.038	8817.53
