Data from USB4F104151__42__12-23-53-209.txt Node

Date: Fri Mar 14 12:23:53 EDT 2025
User: louis
Spectrometer: USB4F10415
Trigger mode: 4
Integration Time (sec): 3.500000E-2
Scans to average: 1
Electric dark correction enabled: true
Nonlinearity correction enabled: false
Boxcar width: 0
XAxis mode: Wavelengths
Number of Pixels in Spectrum: 3648
>>>>>Begin Spectral Data<<<<<
178.204	-131.41
178.424	-131.41
178.644	-131.41
178.864	-172.37
179.084	-155.99
179.304	61.1
179.524	3.75
179.744	20.14
179.964	42.67
180.184	-53.59
180.404	1.71
180.624	1.71
180.844	-51.54
181.064	-43.35
181.283	5.8
181.503	7.85
181.723	3.75
181.943	5.8
182.163	112.3
182.383	116.39
182.602	36.52
182.822	95.91
183.042	-0.34
183.262	-14.68
183.482	-26.96
183.701	-22.87
183.921	67.24
184.141	-41.3
184.361	-14.68
184.58	30.38
184.8	67.24
185.02	-33.11
185.239	108.2
185.459	120.49
185.679	75.43
185.898	7.85
186.118	40.62
186.338	-2.39
186.557	-0.34
186.777	-2.39
186.997	11.95
187.216	77.48
187.436	118.44
187.655	48.81
187.875	34.47
188.095	-0.34
188.314	54.95
188.534	126.63
188.753	28.33
188.973	28.33
189.192	97.96
189.412	61.1
189.631	28.33
189.851	38.57
190.07	126.63
190.29	26.28
190.509	42.67
190.729	83.63
190.948	108.2
191.168	220.84
191.387	112.3
191.607	67.24
191.826	52.91
192.045	83.63
192.265	85.67
192.484	95.91
192.704	85.67
192.923	40.62
193.142	83.63
193.362	-6.49
193.581	57
193.8	118.44
194.02	136.87
194.239	11.95
194.458	77.48
194.678	5.8
194.897	81.58
195.116	32.43
195.335	36.52
195.555	120.49
195.774	85.67
195.993	50.86
196.212	52.91
196.432	67.24
196.651	44.71
196.87	16.04
197.089	91.82
197.308	-10.58
197.528	85.67
197.747	36.52
197.966	-26.96
198.185	116.39
198.404	24.23
198.623	89.77
198.842	69.29
199.062	93.87
199.281	36.52
199.5	3.75
199.719	91.82
199.938	95.91
200.157	106.15
200.376	67.24
200.595	48.81
200.814	-2.39
201.033	-67.92
201.252	77.48
201.471	28.33
201.69	116.39
201.909	40.62
202.128	50.86
202.347	11.95
202.566	93.87
202.785	20.14
203.004	13.99
203.223	114.34
203.442	7.85
203.661	22.19
203.879	67.24
204.098	110.25
204.317	32.43
204.536	40.62
204.755	81.58
204.974	69.29
205.193	69.29
205.411	116.39
205.63	79.53
205.849	85.67
206.068	-2.39
206.287	147.11
206.505	26.28
206.724	30.38
206.943	38.57
207.162	11.95
207.381	40.62
207.599	38.57
207.818	75.43
208.037	-22.87
208.255	28.33
208.474	69.29
208.693	77.48
208.911	28.33
209.13	20.14
209.349	183.98
209.567	30.38
209.786	93.87
210.005	57
210.223	57
210.442	-12.63
210.661	44.71
210.879	65.19
211.098	79.53
211.316	104.11
211.535	71.34
211.753	42.67
211.972	71.34
212.191	-10.58
212.409	7.85
212.628	7.85
212.846	28.33
213.065	79.53
213.283	28.33
213.502	52.91
213.72	120.49
213.938	67.24
214.157	24.23
214.375	114.34
214.594	-10.58
214.812	26.28
215.031	50.86
215.249	54.95
215.467	28.33
215.686	20.14
215.904	73.39
216.122	81.58
216.341	126.63
216.559	61.1
216.778	57
216.996	57
217.214	34.47
217.432	48.81
217.651	13.99
217.869	57
218.087	59.05
218.306	16.04
218.524	79.53
218.742	32.43
218.96	26.28
219.179	28.33
219.397	42.67
219.615	77.48
219.833	44.71
220.051	34.47
220.27	59.05
220.488	42.67
220.706	73.39
220.924	-22.87
221.142	89.77
221.36	132.78
221.578	38.57
221.796	24.23
222.015	-12.63
222.233	36.52
222.451	102.06
222.669	13.99
222.887	120.49
223.105	30.38
223.323	26.28
223.541	-8.53
223.759	63.15
223.977	79.53
224.195	104.11
224.413	11.95
224.631	89.77
224.849	18.09
225.067	63.15
225.285	46.76
225.503	57
225.721	-20.82
225.939	79.53
226.157	50.86
226.375	112.3
226.592	20.14
226.81	71.34
227.028	57
227.246	65.19
227.464	77.48
227.682	42.67
227.9	-22.87
228.117	87.72
228.335	44.71
228.553	-18.77
228.771	34.47
228.989	108.2
229.206	97.96
229.424	-16.73
229.642	16.04
229.86	-45.4
230.077	28.33
230.295	63.15
230.513	110.25
230.731	11.95
230.948	57
231.166	85.67
231.384	-57.68
231.601	18.09
231.819	106.15
232.037	30.38
232.254	24.23
232.472	63.15
232.689	63.15
232.907	83.63
233.125	67.24
233.342	77.48
233.56	28.33
233.777	75.43
233.995	24.23
234.213	54.95
234.43	65.19
234.648	-24.92
234.865	16.04
235.083	5.8
235.3	59.05
235.518	132.78
235.735	57
235.953	134.82
236.17	22.19
236.388	-35.16
236.605	95.91
236.822	118.44
237.04	85.67
237.257	-6.49
237.475	-18.77
237.692	-8.53
237.909	65.19
238.127	95.91
238.344	3.75
238.562	46.76
238.779	63.15
238.996	50.86
239.214	54.95
239.431	112.3
239.648	61.1
239.865	59.05
240.083	85.67
240.3	130.73
240.517	42.67
240.735	61.1
240.952	40.62
241.169	114.34
241.386	34.47
241.603	57
241.821	65.19
242.038	110.25
242.255	-29.01
242.472	73.39
242.689	54.95
242.907	114.34
243.124	44.71
243.341	61.1
243.558	-8.53
243.775	54.95
243.992	-33.11
244.209	132.78
244.426	100.01
244.643	118.44
244.86	38.57
245.078	95.91
245.295	-22.87
245.512	46.76
245.729	26.28
245.946	32.43
246.163	71.34
246.38	85.67
246.597	59.05
246.814	83.63
247.031	11.95
247.248	13.99
247.464	46.76
247.681	42.67
247.898	59.05
248.115	52.91
248.332	40.62
248.549	120.49
248.766	24.23
248.983	73.39
249.2	140.97
249.417	77.48
249.633	46.76
249.85	118.44
250.067	65.19
250.284	9.9
250.501	77.48
250.717	124.58
250.934	24.23
251.151	34.47
251.368	91.82
251.585	69.29
251.801	5.8
252.018	9.9
252.235	95.91
252.451	59.05
252.668	5.8
252.885	87.72
253.102	32.43
253.318	40.62
253.535	91.82
253.752	-33.11
253.968	20.14
254.185	28.33
254.401	69.29
254.618	89.77
254.835	22.19
255.051	102.06
255.268	116.39
255.484	42.67
255.701	11.95
255.917	16.04
256.134	50.86
256.351	48.81
256.567	65.19
256.784	38.57
257	-24.92
257.217	126.63
257.433	108.2
257.65	75.43
257.866	106.15
258.082	40.62
258.299	75.43
258.515	-10.58
258.732	1.71
258.948	1.71
259.165	57
259.381	38.57
259.597	38.57
259.814	52.91
260.03	-49.49
260.246	3.75
260.463	95.91
260.679	95.91
260.895	13.99
261.112	73.39
261.328	-37.2
261.544	5.8
261.761	173.74
261.977	44.71
262.193	-22.87
262.409	97.96
262.626	54.95
262.842	63.15
263.058	-8.53
263.274	38.57
263.49	36.52
263.707	38.57
263.923	40.62
264.139	-22.87
264.355	91.82
264.571	93.87
264.787	54.95
265.004	120.49
265.22	89.77
265.436	36.52
265.652	-18.77
265.868	79.53
266.084	11.95
266.3	95.91
266.516	-43.35
266.732	87.72
266.948	69.29
267.164	32.43
267.38	89.77
267.596	50.86
267.812	24.23
268.028	1.71
268.244	46.76
268.46	-6.49
268.676	3.75
268.892	38.57
269.108	67.24
269.324	-31.06
269.54	26.28
269.756	57
269.972	3.75
270.188	83.63
270.403	3.75
270.619	-65.88
270.835	85.67
271.051	57
271.267	-24.92
271.483	104.11
271.698	102.06
271.914	126.63
272.13	102.06
272.346	52.91
272.562	54.95
272.777	97.96
272.993	26.28
273.209	46.76
273.425	85.67
273.64	36.52
273.856	38.57
274.072	20.14
274.287	63.15
274.503	61.1
274.719	89.77
274.934	79.53
275.15	-18.77
275.366	63.15
275.581	-22.87
275.797	36.52
276.012	5.8
276.228	30.38
276.444	7.85
276.659	104.11
276.875	44.71
277.09	28.33
277.306	44.71
277.521	61.1
277.737	34.47
277.952	79.53
278.168	73.39
278.383	7.85
278.599	40.62
278.814	175.78
279.03	73.39
279.245	108.2
279.461	-0.34
279.676	52.91
279.892	28.33
280.107	34.47
280.322	52.91
280.538	22.19
280.753	52.91
280.969	97.96
281.184	34.47
281.399	61.1
281.615	67.24
281.83	-4.44
282.045	42.67
282.26	52.91
282.476	-14.68
282.691	118.44
282.906	85.67
283.122	36.52
283.337	9.9
283.552	5.8
283.767	-0.34
283.983	54.95
284.198	40.62
284.413	44.71
284.628	3.75
284.843	71.34
285.058	91.82
285.274	128.68
285.489	1.71
285.704	143.02
285.919	32.43
286.134	5.8
286.349	-18.77
286.564	20.14
286.779	120.49
286.995	32.43
287.21	-39.25
287.425	102.06
287.64	61.1
287.855	87.72
288.07	36.52
288.285	61.1
288.5	100.01
288.715	7.85
288.93	54.95
289.145	77.48
289.36	65.19
289.575	24.23
289.79	65.19
290.004	-18.77
290.219	54.95
290.434	61.1
290.649	110.25
290.864	22.19
291.079	75.43
291.294	50.86
291.509	97.96
291.724	3.75
291.938	50.86
292.153	5.8
292.368	28.33
292.583	61.1
292.798	46.76
293.012	-0.34
293.227	57
293.442	42.67
293.657	134.82
293.871	124.58
294.086	95.91
294.301	104.11
294.516	40.62
294.73	124.58
294.945	-10.58
295.16	110.25
295.374	79.53
295.589	130.73
295.804	50.86
296.018	71.34
296.233	38.57
296.447	75.43
296.662	30.38
296.877	77.48
297.091	102.06
297.306	36.52
297.52	54.95
297.735	61.1
297.949	85.67
298.164	67.24
298.378	30.38
298.593	-18.77
298.807	44.71
299.022	87.72
299.236	102.06
299.451	69.29
299.665	16.04
299.88	50.86
300.094	91.82
300.309	61.1
300.523	28.33
300.737	20.14
300.952	24.23
301.166	50.86
301.381	-24.92
301.595	97.96
301.809	85.67
302.024	-33.11
302.238	57
302.452	128.68
302.667	120.49
302.881	93.87
303.095	77.48
303.309	52.91
303.524	61.1
303.738	-47.44
303.952	18.09
304.166	85.67
304.381	-26.96
304.595	81.58
304.809	24.23
305.023	-12.63
305.237	77.48
305.452	52.91
305.666	44.71
305.88	81.58
306.094	77.48
306.308	50.86
306.522	65.19
306.736	106.15
306.95	77.48
307.164	-20.82
307.379	44.71
307.593	69.29
307.807	40.62
308.021	44.71
308.235	145.06
308.449	-35.16
308.663	34.47
308.877	130.73
309.091	30.38
309.305	61.1
309.519	30.38
309.733	50.86
309.947	28.33
310.161	106.15
310.374	128.68
310.588	97.96
310.802	95.91
311.016	36.52
311.23	54.95
311.444	85.67
311.658	100.01
311.872	138.92
312.085	108.2
312.299	59.05
312.513	91.82
312.727	32.43
312.941	16.04
313.154	95.91
313.368	13.99
313.582	81.58
313.796	93.87
314.009	-16.73
314.223	97.96
314.437	30.38
314.651	48.81
314.864	26.28
315.078	79.53
315.292	61.1
315.505	36.52
315.719	13.99
315.933	124.58
316.146	48.81
316.36	36.52
316.573	30.38
316.787	30.38
317.001	18.09
317.214	20.14
317.428	69.29
317.641	-4.44
317.855	24.23
318.068	28.33
318.282	52.91
318.495	126.63
318.709	124.58
318.922	-18.77
319.136	140.97
319.349	161.45
319.563	75.43
319.776	85.67
319.99	-35.16
320.203	95.91
320.417	3.75
320.63	108.2
320.843	44.71
321.057	59.05
321.27	-6.49
321.483	89.77
321.697	106.15
321.91	77.48
322.124	65.19
322.337	5.8
322.55	22.19
322.763	11.95
322.977	67.24
323.19	38.57
323.403	32.43
323.617	36.52
323.83	118.44
324.043	22.19
324.256	57
324.469	-43.35
324.683	61.1
324.896	38.57
325.109	132.78
325.322	1.71
325.535	112.3
325.748	116.39
325.962	18.09
326.175	63.15
326.388	81.58
326.601	83.63
326.814	18.09
327.027	34.47
327.24	110.25
327.453	18.09
327.666	77.48
327.879	71.34
328.092	46.76
328.305	108.2
328.518	38.57
328.731	32.43
328.944	-6.49
329.157	24.23
329.37	79.53
329.583	116.39
329.796	110.25
330.009	38.57
330.222	61.1
330.435	95.91
330.648	-12.63
330.861	26.28
331.073	38.57
331.286	1.71
331.499	57
331.712	77.48
331.925	95.91
332.138	104.11
332.35	83.63
332.563	48.81
332.776	79.53
332.989	65.19
333.202	97.96
333.414	69.29
333.627	-0.34
333.84	40.62
334.053	77.48
334.265	120.49
334.478	118.44
334.691	-31.06
334.903	16.04
335.116	9.9
335.329	81.58
335.541	30.38
335.754	120.49
335.966	59.05
336.179	57
336.392	24.23
336.604	32.43
336.817	20.14
337.029	91.82
337.242	-59.73
337.454	83.63
337.667	5.8
337.88	143.02
338.092	110.25
338.305	110.25
338.517	40.62
338.729	95.91
338.942	165.54
339.154	34.47
339.367	32.43
339.579	87.72
339.792	38.57
340.004	61.1
340.217	34.47
340.429	106.15
340.641	20.14
340.854	-26.96
341.066	52.91
341.278	114.34
341.491	93.87
341.703	159.4
341.915	-20.82
342.128	63.15
342.34	59.05
342.552	20.14
342.764	-49.49
342.977	75.43
343.189	63.15
343.401	75.43
343.613	26.28
343.826	81.58
344.038	9.9
344.25	110.25
344.462	44.71
344.674	87.72
344.886	-31.06
345.099	79.53
345.311	104.11
345.523	1.71
345.735	-35.16
345.947	102.06
346.159	85.67
346.371	104.11
346.583	40.62
346.795	108.2
347.007	13.99
347.219	59.05
347.431	13.99
347.643	100.01
347.855	-2.39
348.067	126.63
348.279	-8.53
348.491	110.25
348.703	124.58
348.915	61.1
349.127	63.15
349.339	5.8
349.551	9.9
349.763	75.43
349.975	95.91
350.187	108.2
350.399	79.53
350.61	85.67
350.822	77.48
351.034	118.44
351.246	54.95
351.458	97.96
351.669	112.3
351.881	102.06
352.093	71.34
352.305	50.86
352.517	38.57
352.728	69.29
352.94	50.86
353.152	93.87
353.363	54.95
353.575	110.25
353.787	112.3
353.999	83.63
354.21	110.25
354.422	42.67
354.633	71.34
354.845	40.62
355.057	87.72
355.268	61.1
355.48	114.34
355.692	71.34
355.903	87.72
356.115	73.39
356.326	22.19
356.538	91.82
356.749	71.34
356.961	54.95
357.172	30.38
357.384	32.43
357.595	161.45
357.807	-4.44
358.018	16.04
358.23	71.34
358.441	61.1
358.653	106.15
358.864	102.06
359.075	26.28
359.287	7.85
359.498	106.15
359.709	59.05
359.921	91.82
360.132	-47.44
360.344	57
360.555	71.34
360.766	149.16
360.977	22.19
361.189	85.67
361.4	134.82
361.611	106.15
361.823	48.81
362.034	147.11
362.245	1.71
362.456	38.57
362.667	122.54
362.879	-51.54
363.09	143.02
363.301	91.82
363.512	38.57
363.723	20.14
363.935	44.71
364.146	46.76
364.357	71.34
364.568	38.57
364.779	-47.44
364.99	91.82
365.201	38.57
365.412	120.49
365.623	-26.96
365.834	91.82
366.045	32.43
366.256	28.33
366.467	95.91
366.678	16.04
366.889	81.58
367.1	40.62
367.311	57
367.522	93.87
367.733	85.67
367.944	126.63
368.155	48.81
368.366	108.2
368.577	87.72
368.788	120.49
368.999	46.76
369.209	-2.39
369.42	104.11
369.631	83.63
369.842	46.76
370.053	63.15
370.264	-22.87
370.474	108.2
370.685	85.67
370.896	36.52
371.107	77.48
371.317	11.95
371.528	18.09
371.739	89.77
371.95	102.06
372.16	116.39
372.371	11.95
372.582	89.77
372.792	59.05
373.003	1.71
373.214	155.3
373.424	81.58
373.635	95.91
373.846	118.44
374.056	46.76
374.267	95.91
374.477	89.77
374.688	22.19
374.898	85.67
375.109	59.05
375.319	54.95
375.53	102.06
375.74	85.67
375.951	24.23
376.161	-10.58
376.372	73.39
376.582	34.47
376.793	87.72
377.003	16.04
377.214	77.48
377.424	134.82
377.635	77.48
377.845	30.38
378.055	126.63
378.266	22.19
378.476	97.96
378.686	120.49
378.897	93.87
379.107	116.39
379.317	87.72
379.528	77.48
379.738	93.87
379.948	48.81
380.158	102.06
380.369	28.33
380.579	108.2
380.789	65.19
380.999	93.87
381.21	65.19
381.42	175.78
381.63	79.53
381.84	48.81
382.05	120.49
382.261	153.26
382.471	93.87
382.681	71.34
382.891	138.92
383.101	50.86
383.311	-4.44
383.521	24.23
383.731	102.06
383.941	161.45
384.151	83.63
384.361	83.63
384.571	134.82
384.781	73.39
384.991	69.29
385.201	122.54
385.411	145.06
385.621	73.39
385.831	91.82
386.041	75.43
386.251	40.62
386.461	106.15
386.671	46.76
386.881	136.87
387.091	91.82
387.301	91.82
387.511	114.34
387.72	48.81
387.93	134.82
388.14	28.33
388.35	79.53
388.56	34.47
388.769	95.91
388.979	93.87
389.189	26.28
389.399	81.58
389.609	79.53
389.818	69.29
390.028	106.15
390.238	161.45
390.447	91.82
390.657	71.34
390.867	28.33
391.076	104.11
391.286	85.67
391.496	28.33
391.705	34.47
391.915	120.49
392.125	183.98
392.334	48.81
392.544	67.24
392.753	40.62
392.963	77.48
393.172	16.04
393.382	85.67
393.591	83.63
393.801	11.95
394.01	130.73
394.22	132.78
394.429	87.72
394.639	108.2
394.848	118.44
395.058	120.49
395.267	26.28
395.477	149.16
395.686	106.15
395.895	194.22
396.105	151.21
396.314	100.01
396.524	149.16
396.733	67.24
396.942	136.87
397.152	97.96
397.361	169.64
397.57	100.01
397.78	108.2
397.989	177.83
398.198	200.36
398.407	67.24
398.617	32.43
398.826	106.15
399.035	91.82
399.244	149.16
399.453	140.97
399.663	159.4
399.872	118.44
400.081	122.54
400.29	157.35
400.499	52.91
400.708	130.73
400.917	63.15
401.127	44.71
401.336	128.68
401.545	280.23
401.754	67.24
401.963	169.64
402.172	122.54
402.381	102.06
402.59	97.96
402.799	138.92
403.008	91.82
403.217	145.06
403.426	171.69
403.635	153.26
403.844	118.44
404.053	104.11
404.262	40.62
404.471	183.98
404.68	132.78
404.888	161.45
405.097	108.2
405.306	183.98
405.515	163.5
405.724	132.78
405.933	124.58
406.142	249.51
406.35	208.55
406.559	165.54
406.768	140.97
406.977	198.31
407.185	229.03
407.394	206.5
407.603	161.45
407.812	192.17
408.02	233.13
408.229	241.32
408.438	257.7
408.646	192.17
408.855	276.13
409.064	196.26
409.272	274.09
409.481	407.2
409.69	165.54
409.898	310.95
410.107	241.32
410.315	335.53
410.524	245.41
410.733	304.81
410.941	384.68
411.15	390.82
411.358	325.29
411.567	405.16
411.775	337.57
411.984	341.67
412.192	468.64
412.401	439.97
412.609	431.78
412.818	558.75
413.026	614.05
413.234	497.32
413.443	493.22
413.651	472.74
413.86	558.75
414.068	601.76
414.276	599.71
414.485	558.75
414.693	609.95
414.901	663.2
415.11	698.02
415.318	636.58
415.526	650.91
415.734	732.83
415.943	708.26
416.151	759.46
416.359	822.94
416.567	822.94
416.776	859.81
416.984	894.62
417.192	890.53
417.4	927.39
417.608	908.96
417.817	984.73
418.025	1015.45
418.233	1099.42
418.441	1009.31
418.649	1126.04
418.857	1160.86
419.065	1242.78
419.273	1167
419.481	1175.19
419.689	1345.17
419.897	1320.6
420.105	1402.52
420.313	1353.37
420.521	1529.49
420.729	1539.73
420.937	1541.78
421.145	1570.45
421.353	1652.37
421.561	1695.38
421.769	1799.82
421.977	1928.85
422.185	1986.19
422.393	1988.24
422.601	2139.79
422.809	2111.11
423.017	2172.55
423.224	2293.38
423.432	2201.23
423.64	2373.25
423.848	2526.85
424.056	2528.9
424.263	2725.51
424.471	2709.12
424.679	2780.8
424.887	2727.55
425.094	2821.76
425.302	3014.27
425.51	3100.28
425.718	3196.54
425.925	3083.9
426.133	3300.98
426.341	3528.31
426.548	3593.84
426.756	3659.38
426.964	3632.76
427.171	3931.76
427.379	3935.85
427.586	4058.73
427.794	4216.43
428.001	4413.03
428.209	4537.96
428.417	4580.96
428.624	4822.63
428.832	4843.1
429.039	4802.15
429.247	4787.81
429.454	5248.6
429.662	5537.37
429.869	5367.38
430.076	5408.34
430.284	5645.91
430.491	5703.25
430.699	5963.34
430.906	6069.84
431.114	6092.37
431.321	6471.24
431.528	6446.66
431.736	6780.48
431.943	7089.73
432.15	7011.9
432.358	7005.76
432.565	7444.03
432.772	7439.93
432.979	7841.33
433.187	7951.92
433.394	8066.61
433.601	8474.15
433.808	8517.16
434.016	8427.05
434.223	8871.46
434.43	9274.91
434.637	9309.72
434.844	9670.17
435.052	9858.58
435.259	9934.36
435.466	10069.52
435.673	9983.51
435.88	10597.9
436.087	11095.55
436.294	10954.24
436.501	10806.79
436.708	11212.29
436.915	11394.56
437.122	11920.88
437.329	11976.18
437.537	12555.76
437.743	12279.28
437.95	12404.21
438.157	12885.48
438.364	13637.08
438.571	13530.59
438.778	13440.48
438.985	14806.47
439.192	14292.43
439.399	14693.83
439.606	14274
439.813	15140.29
440.02	16113.08
440.227	15756.73
440.433	15844.79
440.64	16166.32
440.847	15922.62
441.054	16483.76
441.261	17649.05
441.467	17493.41
441.674	17851.8
441.881	18548.11
442.088	18150.81
442.294	18083.22
442.501	18812.3
442.708	19029.38
442.914	19635.58
443.121	20571.5
443.328	20071.8
443.534	21474.66
443.741	21075.31
443.948	20761.97
444.154	22228.31
444.361	22371.67
444.568	22291.8
444.774	22252.89
444.981	22574.42
445.187	22961.48
445.394	23967.04
445.6	23924.03
445.807	26357.02
446.013	24939.82
446.22	25115.95
446.426	26371.35
446.633	26756.37
446.839	27637
447.046	26281.24
447.252	27956.48
447.459	27800.83
447.665	28056.83
447.871	29230.32
448.078	30192.86
448.284	28761.33
448.491	29727.97
448.697	30844.12
448.903	31595.72
449.11	31435.98
449.316	30852.31
449.522	31425.74
449.728	32011.46
449.935	32677.05
450.141	32386.24
450.347	33182.9
450.553	32357.56
450.76	32851.13
450.966	33854.63
451.172	33408.17
451.378	34270.37
451.584	33559.72
451.791	34114.72
451.997	34018.47
452.203	34944.15
452.409	34618.52
452.615	34286.75
452.821	33678.5
453.027	32951.48
453.233	34661.53
453.44	33295.53
453.646	34049.19
453.852	34000.04
454.058	34409.63
454.264	33324.21
454.47	34247.84
454.676	33074.35
454.882	34509.98
455.088	31257.81
455.294	31851.72
455.5	32050.37
455.705	32476.35
455.911	31157.46
456.117	30598.36
456.323	30360.8
456.529	28845.3
456.735	29766.88
456.941	28886.26
457.147	28921.07
457.352	27487.5
457.558	27381
457.764	27297.03
457.97	26959.12
458.176	26506.52
458.381	26352.92
458.587	24778.03
458.793	24995.12
458.999	23567.68
459.204	25238.83
459.41	24851.76
459.616	23207.24
459.821	22981.96
460.027	22875.47
460.233	22572.37
460.438	21427.56
460.644	21570.91
460.85	20624.75
461.055	20254.07
461.261	20360.56
461.466	18658.7
461.672	18138.52
461.878	19187.08
462.083	18259.35
462.289	18132.37
462.494	17890.71
462.7	16803.24
462.905	16295.35
463.111	16905.64
463.316	16874.92
463.522	16496.05
463.727	16879.02
463.932	16575.92
464.138	16577.97
464.343	16903.59
464.549	16176.56
464.754	16430.51
464.959	16500.14
465.165	16663.98
465.37	15728.06
465.575	15162.82
465.781	15836.6
465.986	15979.96
466.191	15384
466.397	15087.04
466.602	14554.57
466.807	15015.37
467.012	14900.68
