Data from USB4F104151__24__12-23-33-367.txt Node

Date: Fri Mar 14 12:23:33 EDT 2025
User: louis
Spectrometer: USB4F10415
Trigger mode: 4
Integration Time (sec): 3.500000E-2
Scans to average: 1
Electric dark correction enabled: true
Nonlinearity correction enabled: false
Boxcar width: 0
XAxis mode: Wavelengths
Number of Pixels in Spectrum: 3648
>>>>>Begin Spectral Data<<<<<
178.204	-205.82
178.424	-205.82
178.644	-205.82
178.864	-168.96
179.084	-74.75
179.304	-15.36
179.524	44.03
179.744	-13.31
179.964	3.07
180.184	37.89
180.404	19.46
180.624	-1.02
180.844	19.46
181.064	-21.5
181.283	31.74
181.503	-66.56
181.723	-37.89
181.943	-19.46
182.163	78.85
182.383	76.8
182.602	68.61
182.822	37.89
183.042	87.04
183.262	33.79
183.482	50.18
183.701	-64.51
183.921	7.17
184.141	-3.07
184.361	64.51
184.58	46.08
184.8	68.61
185.02	-15.36
185.239	66.56
185.459	-9.22
185.679	48.13
185.898	-27.65
186.118	93.18
186.338	-19.46
186.557	-7.17
186.777	-21.5
186.997	72.7
187.216	-9.22
187.436	54.27
187.655	17.41
187.875	89.09
188.095	58.37
188.314	19.46
188.534	87.04
188.753	41.98
188.973	9.22
189.192	99.33
189.412	66.56
189.631	-7.17
189.851	1.02
190.07	31.74
190.29	-17.41
190.509	23.55
190.729	-15.36
190.948	101.37
191.168	160.77
191.387	25.6
191.607	-13.31
191.826	-33.79
192.045	78.85
192.265	-37.89
192.484	29.7
192.704	-41.98
192.923	-37.89
193.142	80.89
193.362	39.94
193.581	41.98
193.8	25.6
194.02	3.07
194.239	-23.55
194.458	-11.26
194.678	5.12
194.897	56.32
195.116	25.6
195.335	64.51
195.555	35.84
195.774	56.32
195.993	58.37
196.212	-5.12
196.432	-23.55
196.651	29.7
196.87	19.46
197.089	25.6
197.308	52.22
197.528	68.61
197.747	-5.12
197.966	7.17
198.185	31.74
198.404	48.13
198.623	78.85
198.842	103.42
199.062	9.22
199.281	48.13
199.5	9.22
199.719	46.08
199.938	19.46
200.157	-21.5
200.376	39.94
200.595	62.46
200.814	-15.36
201.033	78.85
201.252	121.85
201.471	54.27
201.69	58.37
201.909	52.22
202.128	-13.31
202.347	-25.6
202.566	-13.31
202.785	-33.79
203.004	-17.41
203.223	103.42
203.442	-1.02
203.661	31.74
203.879	41.98
204.098	72.7
204.317	5.12
204.536	105.47
204.755	29.7
204.974	25.6
205.193	29.7
205.411	58.37
205.63	-13.31
205.849	15.36
206.068	52.22
206.287	72.7
206.505	60.42
206.724	-64.51
206.943	23.55
207.162	62.46
207.381	-3.07
207.599	48.13
207.818	31.74
208.037	-50.18
208.255	-7.17
208.474	-46.08
208.693	5.12
208.911	19.46
209.13	44.03
209.349	48.13
209.567	89.09
209.786	44.03
210.005	-15.36
210.223	-11.26
210.442	-3.07
210.661	29.7
210.879	1.02
211.098	29.7
211.316	78.85
211.535	56.32
211.753	58.37
211.972	17.41
212.191	-25.6
212.409	-11.26
212.628	-7.17
212.846	-1.02
213.065	41.98
213.283	-41.98
213.502	-41.98
213.72	-3.07
213.938	60.42
214.157	23.55
214.375	-25.6
214.594	-11.26
214.812	-1.02
215.031	-9.22
215.249	9.22
215.467	-5.12
215.686	7.17
215.904	48.13
216.122	52.22
216.341	78.85
216.559	15.36
216.778	17.41
216.996	39.94
217.214	31.74
217.432	-13.31
217.651	17.41
217.869	78.85
218.087	-3.07
218.306	-11.26
218.524	87.04
218.742	-99.33
218.96	70.65
219.179	74.75
219.397	17.41
219.615	74.75
219.833	41.98
220.051	-25.6
220.27	111.61
220.488	46.08
220.706	72.7
220.924	3.07
221.142	48.13
221.36	-19.46
221.578	29.7
221.796	33.79
222.015	11.26
222.233	-37.89
222.451	62.46
222.669	23.55
222.887	74.75
223.105	37.89
223.323	23.55
223.541	29.7
223.759	78.85
223.977	23.55
224.195	99.33
224.413	35.84
224.631	39.94
224.849	74.75
225.067	93.18
225.285	5.12
225.503	27.65
225.721	-78.85
225.939	-7.17
226.157	66.56
226.375	1.02
226.592	31.74
226.81	7.17
227.028	15.36
227.246	113.66
227.464	1.02
227.682	41.98
227.9	64.51
228.117	99.33
228.335	25.6
228.553	-1.02
228.771	56.32
228.989	115.71
229.206	-1.02
229.424	-21.5
229.642	-50.18
229.86	-56.32
230.077	50.18
230.295	1.02
230.513	15.36
230.731	35.84
230.948	58.37
231.166	76.8
231.384	15.36
231.601	-15.36
231.819	50.18
232.037	-21.5
232.254	-44.03
232.472	-9.22
232.689	-35.84
232.907	72.7
233.125	35.84
233.342	39.94
233.56	39.94
233.777	-13.31
233.995	58.37
234.213	68.61
234.43	-1.02
234.648	15.36
234.865	76.8
235.083	-9.22
235.3	3.07
235.518	72.7
235.735	60.42
235.953	44.03
236.17	17.41
236.388	-1.02
236.605	44.03
236.822	7.17
237.04	87.04
237.257	44.03
237.475	64.51
237.692	52.22
237.909	35.84
238.127	1.02
238.344	-11.26
238.562	-41.98
238.779	-11.26
238.996	5.12
239.214	29.7
239.431	89.09
239.648	76.8
239.865	-31.74
240.083	29.7
240.3	-27.65
240.517	48.13
240.735	-64.51
240.952	95.23
241.169	48.13
241.386	64.51
241.603	-44.03
241.821	-35.84
242.038	103.42
242.255	78.85
242.472	-5.12
242.689	84.99
242.907	70.65
243.124	-27.65
243.341	1.02
243.558	-27.65
243.775	-9.22
243.992	-17.41
244.209	56.32
244.426	72.7
244.643	-27.65
244.86	58.37
245.078	13.31
245.295	-23.55
245.512	37.89
245.729	-9.22
245.946	62.46
246.163	48.13
246.38	9.22
246.597	11.26
246.814	50.18
247.031	-58.37
247.248	58.37
247.464	44.03
247.681	29.7
247.898	-56.32
248.115	84.99
248.332	-5.12
248.549	46.08
248.766	25.6
248.983	54.27
249.2	72.7
249.417	91.13
249.633	41.98
249.85	82.94
250.067	-7.17
250.284	-7.17
250.501	68.61
250.717	46.08
250.934	52.22
251.151	-70.65
251.368	56.32
251.585	54.27
251.801	15.36
252.018	13.31
252.235	37.89
252.451	23.55
252.668	-33.79
252.885	46.08
253.102	17.41
253.318	33.79
253.535	-56.32
253.752	33.79
253.968	70.65
254.185	-105.47
254.401	87.04
254.618	50.18
254.835	21.5
255.051	56.32
255.268	23.55
255.484	15.36
255.701	46.08
255.917	95.23
256.134	-19.46
256.351	60.42
256.567	-99.33
256.784	21.5
257	-25.6
257.217	-11.26
257.433	7.17
257.65	-19.46
257.866	44.03
258.082	66.56
258.299	-9.22
258.515	1.02
258.732	13.31
258.948	76.8
259.165	-13.31
259.381	15.36
259.597	52.22
259.814	37.89
260.03	17.41
260.246	-37.89
260.463	70.65
260.679	11.26
260.895	31.74
261.112	27.65
261.328	23.55
261.544	21.5
261.761	84.99
261.977	-44.03
262.193	23.55
262.409	1.02
262.626	-7.17
262.842	-23.55
263.058	-1.02
263.274	5.12
263.49	70.65
263.707	25.6
263.923	11.26
264.139	17.41
264.355	7.17
264.571	33.79
264.787	5.12
265.004	68.61
265.22	13.31
265.436	-15.36
265.652	9.22
265.868	66.56
266.084	-11.26
266.3	25.6
266.516	31.74
266.732	58.37
266.948	-11.26
267.164	23.55
267.38	-17.41
267.596	29.7
267.812	93.18
268.028	23.55
268.244	13.31
268.46	-19.46
268.676	15.36
268.892	27.65
269.108	1.02
269.324	3.07
269.54	11.26
269.756	-25.6
269.972	46.08
270.188	15.36
270.403	13.31
270.619	54.27
270.835	-3.07
271.051	93.18
271.267	-25.6
271.483	17.41
271.698	27.65
271.914	99.33
272.13	44.03
272.346	13.31
272.562	41.98
272.777	44.03
272.993	-15.36
273.209	62.46
273.425	-29.7
273.64	-23.55
273.856	89.09
274.072	23.55
274.287	15.36
274.503	31.74
274.719	-11.26
274.934	-7.17
275.15	84.99
275.366	64.51
275.581	1.02
275.797	-27.65
276.012	35.84
276.228	11.26
276.444	-9.22
276.659	35.84
276.875	-1.02
277.09	-29.7
277.306	-11.26
277.521	15.36
277.737	3.07
277.952	44.03
278.168	-5.12
278.383	5.12
278.599	29.7
278.814	54.27
279.03	68.61
279.245	80.89
279.461	15.36
279.676	27.65
279.892	-60.42
280.107	17.41
280.322	3.07
280.538	37.89
280.753	15.36
280.969	50.18
281.184	-66.56
281.399	19.46
281.615	62.46
281.83	70.65
282.045	-76.8
282.26	54.27
282.476	56.32
282.691	35.84
282.906	11.26
283.122	52.22
283.337	-70.65
283.552	74.75
283.767	27.65
283.983	66.56
284.198	35.84
284.413	76.8
284.628	-33.79
284.843	35.84
285.058	37.89
285.274	11.26
285.489	33.79
285.704	50.18
285.919	-35.84
286.134	-52.22
286.349	-17.41
286.564	80.89
286.779	117.76
286.995	48.13
287.21	3.07
287.425	70.65
287.64	17.41
287.855	84.99
288.07	-50.18
288.285	25.6
288.5	-7.17
288.715	25.6
288.93	39.94
289.145	58.37
289.36	117.76
289.575	-17.41
289.79	93.18
290.004	50.18
290.219	58.37
290.434	15.36
290.649	15.36
290.864	-41.98
291.079	31.74
291.294	31.74
291.509	-7.17
291.724	1.02
291.938	87.04
292.153	58.37
292.368	64.51
292.583	41.98
292.798	150.53
293.012	62.46
293.227	31.74
293.442	7.17
293.657	15.36
293.871	54.27
294.086	5.12
294.301	103.42
294.516	105.47
294.73	50.18
294.945	-33.79
295.16	70.65
295.374	70.65
295.589	44.03
295.804	-15.36
296.018	105.47
296.233	5.12
296.447	50.18
296.662	-87.04
296.877	23.55
297.091	17.41
297.306	27.65
297.52	37.89
297.735	138.24
297.949	35.84
298.164	101.37
298.378	-21.5
298.593	9.22
298.807	-23.55
299.022	74.75
299.236	60.42
299.451	60.42
299.665	7.17
299.88	3.07
300.094	-15.36
300.309	66.56
300.523	89.09
300.737	44.03
300.952	78.85
301.166	3.07
301.381	-29.7
301.595	-50.18
301.809	-1.02
302.024	-33.79
302.238	13.31
302.452	27.65
302.667	25.6
302.881	72.7
303.095	62.46
303.309	54.27
303.524	7.17
303.738	48.13
303.952	-27.65
304.166	17.41
304.381	-39.94
304.595	148.48
304.809	54.27
305.023	33.79
305.237	17.41
305.452	72.7
305.666	48.13
305.88	29.7
306.094	99.33
306.308	64.51
306.522	105.47
306.736	46.08
306.95	74.75
307.164	-3.07
307.379	-60.42
307.593	13.31
307.807	7.17
308.021	-48.13
308.235	37.89
308.449	27.65
308.663	56.32
308.877	5.12
309.091	56.32
309.305	91.13
309.519	-35.84
309.733	99.33
309.947	-11.26
310.161	21.5
310.374	97.28
310.588	17.41
310.802	-7.17
311.016	27.65
311.23	35.84
311.444	11.26
311.658	74.75
311.872	99.33
312.085	58.37
312.299	52.22
312.513	46.08
312.727	35.84
312.941	-11.26
313.154	21.5
313.368	99.33
313.582	72.7
313.796	-29.7
314.009	29.7
314.223	54.27
314.437	-15.36
314.651	31.74
314.864	23.55
315.078	60.42
315.292	3.07
315.505	11.26
315.719	7.17
315.933	-31.74
316.146	-44.03
316.36	-11.26
316.573	15.36
316.787	31.74
317.001	78.85
317.214	33.79
317.428	1.02
317.641	-52.22
317.855	-3.07
318.068	-13.31
318.282	33.79
318.495	144.38
318.709	52.22
318.922	-15.36
319.136	35.84
319.349	37.89
319.563	13.31
319.776	-48.13
319.99	33.79
320.203	66.56
320.417	109.57
320.63	52.22
320.843	-13.31
321.057	1.02
321.27	29.7
321.483	60.42
321.697	35.84
321.91	25.6
322.124	-41.98
322.337	35.84
322.55	33.79
322.763	87.04
322.977	-41.98
323.19	-21.5
323.403	27.65
323.617	19.46
323.83	70.65
324.043	19.46
324.256	17.41
324.469	3.07
324.683	87.04
324.896	5.12
325.109	-37.89
325.322	-50.18
325.535	19.46
325.748	23.55
325.962	1.02
326.175	66.56
326.388	74.75
326.601	80.89
326.814	-41.98
327.027	-33.79
327.24	140.29
327.453	-21.5
327.666	-17.41
327.879	82.94
328.092	35.84
328.305	-5.12
328.518	11.26
328.731	-31.74
328.944	-3.07
329.157	39.94
329.37	7.17
329.583	101.37
329.796	58.37
330.009	-9.22
330.222	89.09
330.435	76.8
330.648	-17.41
330.861	56.32
331.073	-58.37
331.286	54.27
331.499	29.7
331.712	-3.07
331.925	-15.36
332.138	-25.6
332.35	25.6
332.563	-41.98
332.776	-21.5
332.989	-13.31
333.202	27.65
333.414	-21.5
333.627	33.79
333.84	15.36
334.053	72.7
334.265	-46.08
334.478	37.89
334.691	46.08
334.903	19.46
335.116	-37.89
335.329	56.32
335.541	-11.26
335.754	31.74
335.966	-29.7
336.179	-9.22
336.392	-50.18
336.604	54.27
336.817	-9.22
337.029	-21.5
337.242	97.28
337.454	64.51
337.667	-3.07
337.88	95.23
338.092	66.56
338.305	91.13
338.517	-52.22
338.729	58.37
338.942	54.27
339.154	37.89
339.367	-35.84
339.579	58.37
339.792	-15.36
340.004	60.42
340.217	87.04
340.429	97.28
340.641	-37.89
340.854	44.03
341.066	11.26
341.278	33.79
341.491	66.56
341.703	39.94
341.915	23.55
342.128	72.7
342.34	33.79
342.552	37.89
342.764	31.74
342.977	74.75
343.189	91.13
343.401	7.17
343.613	-41.98
343.826	13.31
344.038	15.36
344.25	72.7
344.462	-15.36
344.674	23.55
344.886	23.55
345.099	48.13
345.311	60.42
345.523	21.5
345.735	-44.03
345.947	68.61
346.159	52.22
346.371	-9.22
346.583	17.41
346.795	121.85
347.007	44.03
347.219	3.07
347.431	-41.98
347.643	72.7
347.855	19.46
348.067	97.28
348.279	23.55
348.491	44.03
348.703	5.12
348.915	1.02
349.127	33.79
349.339	33.79
349.551	-9.22
349.763	87.04
349.975	87.04
350.187	35.84
350.399	11.26
350.61	54.27
350.822	5.12
351.034	7.17
351.246	84.99
351.458	-9.22
351.669	44.03
351.881	91.13
352.093	109.57
352.305	25.6
352.517	3.07
352.728	58.37
352.94	31.74
353.152	31.74
353.363	50.18
353.575	46.08
353.787	58.37
353.999	3.07
354.21	66.56
354.422	1.02
354.633	-41.98
354.845	99.33
355.057	13.31
355.268	33.79
355.48	13.31
355.692	46.08
355.903	-9.22
356.115	50.18
356.326	-13.31
356.538	138.24
356.749	50.18
356.961	97.28
357.172	-19.46
357.384	-23.55
357.595	31.74
357.807	7.17
358.018	17.41
358.23	48.13
358.441	70.65
358.653	54.27
358.864	56.32
359.075	21.5
359.287	23.55
359.498	128
359.709	-41.98
359.921	70.65
360.132	-31.74
360.344	19.46
360.555	13.31
360.766	19.46
360.977	1.02
361.189	80.89
361.4	-11.26
361.611	117.76
361.823	113.66
362.034	37.89
362.245	-48.13
362.456	9.22
362.667	89.09
362.879	23.55
363.09	56.32
363.301	7.17
363.512	56.32
363.723	54.27
363.935	-29.7
364.146	144.38
364.357	52.22
364.568	52.22
364.779	1.02
364.99	72.7
365.201	-74.75
365.412	87.04
365.623	-62.46
365.834	68.61
366.045	11.26
366.256	15.36
366.467	11.26
366.678	50.18
366.889	52.22
367.1	76.8
367.311	13.31
367.522	54.27
367.733	64.51
367.944	64.51
368.155	-9.22
368.366	23.55
368.577	78.85
368.788	33.79
368.999	-60.42
369.209	-9.22
369.42	128
369.631	25.6
369.842	29.7
370.053	128
370.264	97.28
370.474	15.36
370.685	33.79
370.896	37.89
371.107	-15.36
371.317	111.61
371.528	82.94
371.739	72.7
371.95	52.22
372.16	107.52
372.371	25.6
372.582	-9.22
372.792	-72.7
373.003	17.41
373.214	23.55
373.424	-37.89
373.635	29.7
373.846	50.18
374.056	58.37
374.267	91.13
374.477	119.81
374.688	52.22
374.898	17.41
375.109	80.89
375.319	60.42
375.53	62.46
375.74	60.42
375.951	48.13
376.161	29.7
376.372	44.03
376.582	11.26
376.793	15.36
377.003	48.13
377.214	3.07
377.424	17.41
377.635	25.6
377.845	54.27
378.055	70.65
378.266	76.8
378.476	23.55
378.686	80.89
378.897	35.84
379.107	44.03
379.317	11.26
379.528	29.7
379.738	52.22
379.948	-7.17
380.158	58.37
380.369	-5.12
380.579	9.22
380.789	-9.22
380.999	87.04
381.21	91.13
381.42	160.77
381.63	-46.08
381.84	87.04
382.05	46.08
382.261	76.8
382.471	103.42
382.681	-19.46
382.891	111.61
383.101	78.85
383.311	-1.02
383.521	19.46
383.731	107.52
383.941	107.52
384.151	7.17
384.361	-1.02
384.571	144.38
384.781	25.6
384.991	97.28
385.201	93.18
385.411	-41.98
385.621	39.94
385.831	13.31
386.041	48.13
386.251	68.61
386.461	7.17
386.671	74.75
386.881	64.51
387.091	11.26
387.301	25.6
387.511	-15.36
387.72	3.07
387.93	68.61
388.14	-33.79
388.35	89.09
388.56	138.24
388.769	132.09
388.979	17.41
389.189	7.17
389.399	60.42
389.609	95.23
389.818	78.85
390.028	35.84
390.238	68.61
390.447	39.94
390.657	3.07
390.867	9.22
391.076	-97.28
391.286	111.61
391.496	39.94
391.705	37.89
391.915	113.66
392.125	9.22
392.334	29.7
392.544	33.79
392.753	56.32
392.963	-1.02
393.172	60.42
393.382	-9.22
393.591	109.57
393.801	68.61
394.01	121.85
394.22	70.65
394.429	9.22
394.639	31.74
394.848	39.94
395.058	52.22
395.267	80.89
395.477	109.57
395.686	80.89
395.895	91.13
396.105	121.85
396.314	23.55
396.524	95.23
396.733	-9.22
396.942	125.95
397.152	119.81
397.361	146.43
397.57	150.53
397.78	72.7
397.989	29.7
398.198	171.01
398.407	68.61
398.617	1.02
398.826	93.18
399.035	113.66
399.244	80.89
399.453	62.46
399.663	5.12
399.872	52.22
400.081	76.8
400.29	93.18
400.499	19.46
400.708	44.03
400.917	46.08
401.127	62.46
401.336	95.23
401.545	119.81
401.754	97.28
401.963	74.75
402.172	39.94
402.381	93.18
402.59	123.9
402.799	117.76
403.008	17.41
403.217	95.23
403.426	44.03
403.635	101.37
403.844	107.52
404.053	39.94
404.262	82.94
404.471	123.9
404.68	121.85
404.888	146.43
405.097	60.42
405.306	132.09
405.515	195.58
405.724	148.48
405.933	152.57
406.142	91.13
406.35	119.81
406.559	109.57
406.768	132.09
406.977	117.76
407.185	125.95
407.394	144.38
407.603	31.74
407.812	115.71
408.02	197.63
408.229	80.89
408.438	171.01
408.646	195.58
408.855	171.01
409.064	193.53
409.272	234.49
409.481	179.2
409.69	201.72
409.898	254.97
410.107	261.12
410.315	224.25
410.524	226.3
410.733	242.68
410.941	197.63
411.15	287.74
411.358	271.36
411.567	383.99
411.775	332.79
411.984	244.73
412.192	334.84
412.401	279.55
412.609	336.89
412.818	365.56
413.026	367.61
413.234	355.32
413.443	359.42
413.651	371.71
413.86	363.51
414.068	447.48
414.276	429.05
414.485	502.78
414.693	498.68
414.901	613.37
415.11	537.59
415.318	525.3
415.526	463.86
415.734	547.83
415.943	558.07
416.151	689.14
416.359	576.5
416.567	609.27
416.776	666.61
416.984	783.35
417.192	642.04
417.4	736.24
417.608	635.89
417.817	728.05
418.025	766.96
418.233	928.75
418.441	895.99
418.649	846.84
418.857	877.55
419.065	1006.58
419.273	982
419.481	1010.67
419.689	1037.3
419.897	1016.82
420.105	1199.09
420.313	1184.75
420.521	1233.9
420.729	1285.1
420.937	1164.27
421.145	1332.2
421.353	1428.46
421.561	1438.7
421.769	1477.61
421.977	1471.47
422.185	1453.03
422.393	1678.31
422.601	1688.55
422.809	1733.61
423.017	1778.66
423.224	1721.32
423.432	1897.44
423.64	1905.63
423.848	2145.25
424.056	1997.79
424.263	2169.82
424.471	2188.25
424.679	2182.11
424.887	2384.86
425.094	2378.72
425.302	2376.67
425.51	2575.32
425.718	2601.94
425.925	2692.05
426.133	2794.45
426.341	2939.86
426.548	2825.17
426.756	2966.48
426.964	3075.03
427.171	3214.29
427.379	3179.47
427.586	3417.04
427.794	3326.93
428.001	3584.97
428.209	3763.14
428.417	3744.71
428.624	3986.37
428.832	3888.07
429.039	3941.32
429.247	4012.99
429.454	4369.34
429.662	4539.32
429.869	4256.7
430.076	4447.16
430.284	4402.11
430.491	4797.37
430.699	4899.77
430.906	4899.77
431.114	4996.02
431.321	5139.38
431.528	5309.36
431.736	5686.19
431.943	5864.36
432.15	5645.23
432.358	5862.31
432.565	6110.11
432.772	6224.8
432.979	6386.59
433.187	6448.03
433.394	6513.56
433.601	6910.87
433.808	7011.22
434.016	6935.45
434.223	7170.96
434.43	7660.43
434.637	7590.8
434.844	8039.3
435.052	8276.87
435.259	8131.46
435.466	8004.49
435.673	7992.2
435.88	8620.92
436.087	9274.23
436.294	9048.95
436.501	8829.82
436.708	9227.12
436.915	9433.97
437.122	9784.17
437.329	9812.84
437.537	10087.27
437.743	10201.96
437.95	10140.52
438.157	10658.65
438.364	11076.44
438.571	11076.44
438.778	11058.01
438.985	12219.21
439.192	11920.2
439.399	11975.5
439.606	11717.45
439.813	12403.52
440.02	13224.76
440.227	12991.29
440.433	12745.53
440.64	13368.12
440.847	13280.05
441.054	13538.1
441.261	14576.42
441.467	14373.67
441.674	14486.31
441.881	15012.63
442.088	15076.12
442.294	15002.4
442.501	15368.98
442.708	15756.05
442.914	16401.16
443.121	16909.05
443.328	16565
443.534	17801.97
443.741	17144.57
443.948	16956.16
444.154	18318.06
444.361	18189.03
444.568	18133.74
444.774	18350.82
444.981	18479.85
445.187	19018.46
445.394	19991.25
445.6	19649.24
445.807	21400.25
446.013	20230.86
446.22	20826.82
446.426	21648.05
446.633	21994.16
446.839	22645.41
447.046	21902
447.252	23231.13
447.459	23343.77
447.665	23014.05
447.871	24027.79
448.078	25369.21
448.284	23884.44
448.491	24308.37
448.697	25416.32
448.903	25858.68
449.11	25674.36
449.316	25410.17
449.522	25823.86
449.728	26487.4
449.935	26892.9
450.141	26759.78
450.347	27634.27
450.553	26804.84
450.76	26952.29
450.966	28105.3
451.172	27650.65
451.378	28090.96
451.584	27757.14
451.791	28389.97
451.997	27892.31
452.203	28826.18
452.409	28742.22
452.615	28688.97
452.821	27363.93
453.027	27107.94
453.233	28799.56
453.44	27435.61
453.646	27882.07
453.852	27859.54
454.058	28332.62
454.264	27419.23
454.47	28224.08
454.676	27464.28
454.882	28273.23
455.088	26008.18
455.294	26247.79
455.5	26563.18
455.705	26802.79
455.911	25997.94
456.117	25227.9
456.323	25244.29
456.529	23782.04
456.735	24593.03
456.941	23868.05
457.147	23679.64
457.352	22999.71
457.558	22604.46
457.764	22874.79
457.97	22424.23
458.176	21719.73
458.381	21510.84
458.587	20658.88
458.793	20447.94
458.999	19677.91
459.204	20683.46
459.41	20464.33
459.616	19104.48
459.821	19016.41
460.027	19018.46
460.233	18494.18
460.438	17531.64
460.644	17548.02
460.85	16982.78
461.055	16663.3
461.261	16741.12
461.466	15698.7
461.672	14867.23
461.878	16126.73
462.083	14910.24
462.289	14783.26
462.494	14369.57
462.7	13783.85
462.905	13466.42
463.111	13845.29
463.316	14072.62
463.522	13830.96
463.727	13759.28
463.932	13886.25
464.138	13773.61
464.343	13568.82
464.549	13257.53
464.754	13718.32
464.959	13800.24
465.165	13523.76
465.37	12852.03
465.575	12606.27
465.781	13341.49
465.986	13157.18
466.191	12620.61
466.397	12438.34
466.602	11887.43
466.807	12206.92
467.012	12284.74
467.218	12266.31
467.423	11924.3
467.628	12303.17
467.833	12794.68
