Data from USB4F104151__58__12-24-06-543.txt Node

Date: Fri Mar 14 12:24:06 EDT 2025
User: louis
Spectrometer: USB4F10415
Trigger mode: 4
Integration Time (sec): 3.500000E-2
Scans to average: 1
Electric dark correction enabled: true
Nonlinearity correction enabled: false
Boxcar width: 0
XAxis mode: Wavelengths
Number of Pixels in Spectrum: 3648
>>>>>Begin Spectral Data<<<<<
178.204	-97.45
178.424	-97.45
178.644	-97.45
178.864	-144.55
179.084	-140.46
179.304	0.85
179.524	-33.96
179.744	7
179.964	-9.39
180.184	27.48
180.404	-1.19
180.624	-40.11
180.844	-9.39
181.064	13.14
181.283	-1.19
181.503	-23.72
181.723	70.48
181.943	9.05
182.163	52.05
182.383	-40.11
182.602	50
182.822	13.14
183.042	15.19
183.262	-56.49
183.482	-23.72
183.701	-3.24
183.921	-13.48
184.141	-44.2
184.361	15.19
184.58	-46.25
184.8	39.76
185.02	-19.63
185.239	21.33
185.459	2.9
185.679	105.3
185.898	29.52
186.118	78.68
186.338	29.52
186.557	13.14
186.777	-79.02
186.997	52.05
187.216	19.29
187.436	74.58
187.655	47.96
187.875	13.14
188.095	-52.39
188.314	109.4
188.534	127.83
188.753	-3.24
188.973	113.49
189.192	123.73
189.412	21.33
189.631	-1.19
189.851	41.81
190.07	74.58
190.29	-1.19
190.509	33.62
190.729	-13.48
190.948	66.39
191.168	101.2
191.387	15.19
191.607	13.14
191.826	35.67
192.045	-31.91
192.265	-58.54
192.484	7
192.704	-33.96
192.923	7
193.142	54.1
193.362	37.72
193.581	39.76
193.8	17.24
194.02	54.1
194.239	-19.63
194.458	47.96
194.678	-50.35
194.897	58.2
195.116	-9.39
195.335	15.19
195.555	39.76
195.774	19.29
195.993	37.72
196.212	-19.63
196.432	-40.11
196.651	37.72
196.87	68.44
197.089	107.35
197.308	88.92
197.528	56.15
197.747	-1.19
197.966	23.38
198.185	86.87
198.404	-46.25
198.623	35.67
198.842	47.96
199.062	35.67
199.281	52.05
199.5	15.19
199.719	68.44
199.938	7
200.157	74.58
200.376	56.15
200.595	66.39
200.814	33.62
201.033	-7.34
201.252	-5.29
201.471	-42.15
201.69	90.96
201.909	-25.77
202.128	-27.82
202.347	72.53
202.566	70.48
202.785	-17.58
203.004	-68.78
203.223	25.43
203.442	11.09
203.661	-33.96
203.879	-56.49
204.098	58.2
204.317	23.38
204.536	17.24
204.755	-11.43
204.974	41.81
205.193	-11.43
205.411	66.39
205.63	68.44
205.849	-29.87
206.068	41.81
206.287	-31.91
206.505	39.76
206.724	-5.29
206.943	25.43
207.162	0.85
207.381	35.67
207.599	37.72
207.818	58.2
208.037	54.1
208.255	13.14
208.474	64.34
208.693	9.05
208.911	21.33
209.13	7
209.349	105.3
209.567	17.24
209.786	117.59
210.005	78.68
210.223	37.72
210.442	-48.3
210.661	27.48
210.879	13.14
211.098	11.09
211.316	0.85
211.535	52.05
211.753	11.09
211.972	62.29
212.191	27.48
212.409	23.38
212.628	43.86
212.846	-50.35
213.065	31.57
213.283	-17.58
213.502	0.85
213.72	23.38
213.938	-11.43
214.157	39.76
214.375	15.19
214.594	58.2
214.812	21.33
215.031	-13.48
215.249	-17.58
215.467	50
215.686	33.62
215.904	11.09
216.122	62.29
216.341	107.35
216.559	23.38
216.778	131.92
216.996	62.29
217.214	0.85
217.432	4.95
217.651	2.9
217.869	0.85
218.087	23.38
218.306	31.57
218.524	2.9
218.742	-64.68
218.96	74.58
219.179	-25.77
219.397	82.77
219.615	56.15
219.833	27.48
220.051	52.05
220.27	45.91
220.488	107.35
220.706	80.72
220.924	35.67
221.142	19.29
221.36	9.05
221.578	107.35
221.796	4.95
222.015	45.91
222.233	-7.34
222.451	121.68
222.669	-62.63
222.887	-50.35
223.105	-44.2
223.323	35.67
223.541	-29.87
223.759	76.63
223.977	-62.63
224.195	4.95
224.413	41.81
224.631	7
224.849	-7.34
225.067	125.78
225.285	-27.82
225.503	29.52
225.721	-87.21
225.939	54.1
226.157	25.43
226.375	150.36
226.592	-19.63
226.81	-5.29
227.028	45.91
227.246	183.12
227.464	9.05
227.682	41.81
227.9	-9.39
228.117	35.67
228.335	-46.25
228.553	15.19
228.771	74.58
228.989	74.58
229.206	21.33
229.424	13.14
229.642	-7.34
229.86	60.24
230.077	21.33
230.295	33.62
230.513	23.38
230.731	76.63
230.948	103.25
231.166	54.1
231.384	-60.59
231.601	-42.15
231.819	58.2
232.037	21.33
232.254	-48.3
232.472	105.3
232.689	7
232.907	19.29
233.125	7
233.342	17.24
233.56	-40.11
233.777	29.52
233.995	-33.96
234.213	66.39
234.43	29.52
234.648	-5.29
234.865	-5.29
235.083	2.9
235.3	-5.29
235.518	27.48
235.735	97.11
235.953	-11.43
236.17	-5.29
236.388	90.96
236.605	-3.24
236.822	82.77
237.04	109.4
237.257	84.82
237.475	-21.67
237.692	15.19
237.909	41.81
238.127	15.19
238.344	-3.24
238.562	23.38
238.779	-38.06
238.996	-11.43
239.214	78.68
239.431	68.44
239.648	-11.43
239.865	74.58
240.083	58.2
240.3	66.39
240.517	43.86
240.735	25.43
240.952	33.62
241.169	17.24
241.386	68.44
241.603	15.19
241.821	-19.63
242.038	82.77
242.255	9.05
242.472	-21.67
242.689	23.38
242.907	54.1
243.124	-15.53
243.341	27.48
243.558	-29.87
243.775	-7.34
243.992	43.86
244.209	-50.35
244.426	88.92
244.643	29.52
244.86	-42.15
245.078	21.33
245.295	52.05
245.512	19.29
245.729	-17.58
245.946	72.53
246.163	41.81
246.38	-44.2
246.597	25.43
246.814	64.34
247.031	13.14
247.248	39.76
247.464	35.67
247.681	56.15
247.898	-13.48
248.115	-42.15
248.332	-89.26
248.549	93.01
248.766	31.57
248.983	35.67
249.2	35.67
249.417	84.82
249.633	4.95
249.85	7
250.067	-17.58
250.284	68.44
250.501	-31.91
250.717	52.05
250.934	-29.87
251.151	2.9
251.368	17.24
251.585	54.1
251.801	2.9
252.018	-42.15
252.235	86.87
252.451	29.52
252.668	23.38
252.885	66.39
253.102	72.53
253.318	-19.63
253.535	4.95
253.752	4.95
253.968	-1.19
254.185	-54.44
254.401	64.34
254.618	68.44
254.835	-13.48
255.051	25.43
255.268	54.1
255.484	54.1
255.701	17.24
255.917	2.9
256.134	-31.91
256.351	66.39
256.567	-46.25
256.784	56.15
257	9.05
257.217	52.05
257.433	29.52
257.65	-9.39
257.866	29.52
258.082	-46.25
258.299	-31.91
258.515	19.29
258.732	64.34
258.948	-9.39
259.165	45.91
259.381	29.52
259.597	56.15
259.814	13.14
260.03	-21.67
260.246	21.33
260.463	103.25
260.679	27.48
260.895	-40.11
261.112	13.14
261.328	-36.01
261.544	35.67
261.761	62.29
261.977	-5.29
262.193	-81.07
262.409	66.39
262.626	80.72
262.842	-36.01
263.058	19.29
263.274	11.09
263.49	-13.48
263.707	41.81
263.923	66.39
264.139	-101.55
264.355	-36.01
264.571	97.11
264.787	-5.29
265.004	78.68
265.22	-17.58
265.436	29.52
265.652	-38.06
265.868	60.24
266.084	17.24
266.3	72.53
266.516	-5.29
266.732	56.15
266.948	-56.49
267.164	17.24
267.38	-11.43
267.596	107.35
267.812	31.57
268.028	70.48
268.244	-40.11
268.46	0.85
268.676	52.05
268.892	4.95
269.108	-27.82
269.324	-7.34
269.54	-23.72
269.756	70.48
269.972	0.85
270.188	50
270.403	-15.53
270.619	-15.53
270.835	-19.63
271.051	39.76
271.267	-38.06
271.483	66.39
271.698	105.3
271.914	-74.92
272.13	60.24
272.346	41.81
272.562	23.38
272.777	78.68
272.993	-19.63
273.209	-85.16
273.425	-11.43
273.64	21.33
273.856	58.2
274.072	-1.19
274.287	2.9
274.503	58.2
274.719	27.48
274.934	41.81
275.15	-62.63
275.366	13.14
275.581	35.67
275.797	19.29
276.012	11.09
276.228	-1.19
276.444	2.9
276.659	-1.19
276.875	-25.77
277.09	-3.24
277.306	-66.73
277.521	39.76
277.737	37.72
277.952	39.76
278.168	41.81
278.383	-23.72
278.599	37.72
278.814	19.29
279.03	-62.63
279.245	86.87
279.461	-29.87
279.676	58.2
279.892	-50.35
280.107	9.05
280.322	41.81
280.538	39.76
280.753	-23.72
280.969	-21.67
281.184	39.76
281.399	39.76
281.615	27.48
281.83	35.67
282.045	-15.53
282.26	9.05
282.476	-50.35
282.691	15.19
282.906	37.72
283.122	74.58
283.337	35.67
283.552	58.2
283.767	-31.91
283.983	52.05
284.198	-36.01
284.413	17.24
284.628	4.95
284.843	27.48
285.058	23.38
285.274	43.86
285.489	-19.63
285.704	103.25
285.919	-13.48
286.134	54.1
286.349	-5.29
286.564	7
286.779	76.63
286.995	-3.24
287.21	-33.96
287.425	54.1
287.64	-29.87
287.855	-50.35
288.07	-17.58
288.285	-13.48
288.5	19.29
288.715	62.29
288.93	47.96
289.145	-40.11
289.36	72.53
289.575	-21.67
289.79	80.72
290.004	-42.15
290.219	2.9
290.434	9.05
290.649	7
290.864	-50.35
291.079	76.63
291.294	0.85
291.509	0.85
291.724	17.24
291.938	-7.34
292.153	41.81
292.368	-19.63
292.583	2.9
292.798	23.38
293.012	-21.67
293.227	66.39
293.442	39.76
293.657	35.67
293.871	23.38
294.086	-15.53
294.301	47.96
294.516	37.72
294.73	72.53
294.945	-21.67
295.16	11.09
295.374	54.1
295.589	-1.19
295.804	-31.91
296.018	35.67
296.233	0.85
296.447	41.81
296.662	-33.96
296.877	11.09
297.091	39.76
297.306	-25.77
297.52	41.81
297.735	50
297.949	-40.11
298.164	58.2
298.378	-1.19
298.593	-23.72
298.807	21.33
299.022	2.9
299.236	-38.06
299.451	-21.67
299.665	-3.24
299.88	-48.3
300.094	60.24
300.309	23.38
300.523	17.24
300.737	-46.25
300.952	-68.78
301.166	-21.67
301.381	-25.77
301.595	-7.34
301.809	25.43
302.024	47.96
302.238	-31.91
302.452	58.2
302.667	25.43
302.881	88.92
303.095	82.77
303.309	37.72
303.524	-7.34
303.738	33.62
303.952	-17.58
304.166	-9.39
304.381	-1.19
304.595	76.63
304.809	-50.35
305.023	-13.48
305.237	-19.63
305.452	21.33
305.666	54.1
305.88	105.3
306.094	41.81
306.308	25.43
306.522	64.34
306.736	68.44
306.95	39.76
307.164	39.76
307.379	11.09
307.593	72.53
307.807	11.09
308.021	45.91
308.235	-11.43
308.449	17.24
308.663	23.38
308.877	95.06
309.091	56.15
309.305	66.39
309.519	-89.26
309.733	-13.48
309.947	-46.25
310.161	19.29
310.374	68.44
310.588	19.29
310.802	19.29
311.016	27.48
311.23	29.52
311.444	-31.91
311.658	-23.72
311.872	103.25
312.085	29.52
312.299	21.33
312.513	90.96
312.727	31.57
312.941	27.48
313.154	76.63
313.368	-29.87
313.582	33.62
313.796	-23.72
314.009	-40.11
314.223	107.35
314.437	31.57
314.651	35.67
314.864	-27.82
315.078	-17.58
315.292	-29.87
315.505	25.43
315.719	41.81
315.933	62.29
316.146	-19.63
316.36	-19.63
316.573	84.82
316.787	-1.19
317.001	-3.24
317.214	-36.01
317.428	9.05
317.641	27.48
317.855	-17.58
318.068	0.85
318.282	41.81
318.495	27.48
318.709	52.05
318.922	47.96
319.136	72.53
319.349	50
319.563	13.14
319.776	13.14
319.99	15.19
320.203	13.14
320.417	68.44
320.63	74.58
320.843	66.39
321.057	58.2
321.27	17.24
321.483	25.43
321.697	35.67
321.91	50
322.124	68.44
322.337	11.09
322.55	68.44
322.763	9.05
322.977	11.09
323.19	19.29
323.403	7
323.617	74.58
323.83	99.16
324.043	15.19
324.256	-17.58
324.469	-17.58
324.683	27.48
324.896	-42.15
325.109	39.76
325.322	-21.67
325.535	70.48
325.748	74.58
325.962	-33.96
326.175	68.44
326.388	21.33
326.601	-15.53
326.814	50
327.027	39.76
327.24	47.96
327.453	-64.68
327.666	84.82
327.879	62.29
328.092	35.67
328.305	13.14
328.518	37.72
328.731	-46.25
328.944	56.15
329.157	76.63
329.37	15.19
329.583	66.39
329.796	123.73
330.009	-29.87
330.222	74.58
330.435	-27.82
330.648	-58.54
330.861	13.14
331.073	58.2
331.286	-29.87
331.499	-7.34
331.712	-21.67
331.925	2.9
332.138	47.96
332.35	17.24
332.563	13.14
332.776	70.48
332.989	15.19
333.202	-36.01
333.414	25.43
333.627	0.85
333.84	-48.3
334.053	-13.48
334.265	-13.48
334.478	-7.34
334.691	29.52
334.903	45.91
335.116	-17.58
335.329	-36.01
335.541	13.14
335.754	31.57
335.966	-27.82
336.179	-38.06
336.392	17.24
336.604	25.43
336.817	72.53
337.029	21.33
337.242	78.68
337.454	11.09
337.667	54.1
337.88	109.4
338.092	11.09
338.305	-40.11
338.517	52.05
338.729	97.11
338.942	7
339.154	-46.25
339.367	11.09
339.579	37.72
339.792	33.62
340.004	64.34
340.217	-38.06
340.429	2.9
340.641	9.05
340.854	11.09
341.066	41.81
341.278	-36.01
341.491	101.2
341.703	9.05
341.915	70.48
342.128	39.76
342.34	99.16
342.552	50
342.764	-9.39
342.977	50
343.189	17.24
343.401	62.29
343.613	21.33
343.826	27.48
344.038	-11.43
344.25	31.57
344.462	19.29
344.674	29.52
344.886	-1.19
345.099	56.15
345.311	0.85
345.523	-15.53
345.735	33.62
345.947	62.29
346.159	23.38
346.371	7
346.583	-40.11
346.795	72.53
347.007	-58.54
347.219	-56.49
347.431	35.67
347.643	86.87
347.855	23.38
348.067	50
348.279	-44.2
348.491	-3.24
348.703	99.16
348.915	74.58
349.127	-31.91
349.339	47.96
349.551	-9.39
349.763	-17.58
349.975	31.57
350.187	31.57
350.399	29.52
350.61	107.35
350.822	41.81
351.034	86.87
351.246	76.63
351.458	113.49
351.669	35.67
351.881	13.14
352.093	101.2
352.305	15.19
352.517	39.76
352.728	45.91
352.94	29.52
353.152	27.48
353.363	9.05
353.575	-36.01
353.787	47.96
353.999	25.43
354.21	107.35
354.422	37.72
354.633	-23.72
354.845	-1.19
355.057	90.96
355.268	27.48
355.48	-33.96
355.692	-3.24
355.903	70.48
356.115	52.05
356.326	-19.63
356.538	62.29
356.749	15.19
356.961	21.33
357.172	58.2
357.384	-36.01
357.595	35.67
357.807	7
358.018	-89.26
358.23	31.57
358.441	21.33
358.653	72.53
358.864	45.91
359.075	41.81
359.287	86.87
359.498	35.67
359.709	41.81
359.921	-1.19
360.132	17.24
360.344	13.14
360.555	74.58
360.766	-11.43
360.977	7
361.189	33.62
361.4	-23.72
361.611	93.01
361.823	41.81
362.034	74.58
362.245	-29.87
362.456	-42.15
362.667	31.57
362.879	-44.2
363.09	33.62
363.301	9.05
363.512	-36.01
363.723	-27.82
363.935	-13.48
364.146	82.77
364.357	52.05
364.568	47.96
364.779	-36.01
364.99	37.72
365.201	-38.06
365.412	64.34
365.623	43.86
365.834	107.35
366.045	45.91
366.256	66.39
366.467	-11.43
366.678	23.38
366.889	-25.77
367.1	-23.72
367.311	78.68
367.522	-5.29
367.733	-21.67
367.944	27.48
368.155	11.09
368.366	-29.87
368.577	60.24
368.788	31.57
368.999	9.05
369.209	45.91
369.42	56.15
369.631	129.88
369.842	19.29
370.053	-1.19
370.264	107.35
370.474	-36.01
370.685	13.14
370.896	13.14
371.107	35.67
371.317	88.92
371.528	45.91
371.739	76.63
371.95	113.49
372.16	43.86
372.371	4.95
372.582	-17.58
372.792	54.1
373.003	-9.39
373.214	2.9
373.424	80.72
373.635	66.39
373.846	-23.72
374.056	19.29
374.267	29.52
374.477	2.9
374.688	37.72
374.898	50
375.109	-91.31
375.319	27.48
375.53	74.58
375.74	68.44
375.951	15.19
376.161	-1.19
376.372	52.05
376.582	-17.58
376.793	-7.34
377.003	-38.06
377.214	54.1
377.424	23.38
377.635	19.29
377.845	-56.49
378.055	45.91
378.266	-15.53
378.476	31.57
378.686	105.3
378.897	64.34
379.107	162.64
379.317	74.58
379.528	54.1
379.738	-38.06
379.948	-23.72
380.158	35.67
380.369	-15.53
380.579	70.48
380.789	23.38
380.999	29.52
381.21	27.48
381.42	29.52
381.63	-15.53
381.84	54.1
382.05	-17.58
382.261	50
382.471	-9.39
382.681	76.63
382.891	21.33
383.101	19.29
383.311	-38.06
383.521	-1.19
383.731	11.09
383.941	58.2
384.151	74.58
384.361	43.86
384.571	-25.77
384.781	103.25
384.991	66.39
385.201	84.82
385.411	90.96
385.621	64.34
385.831	19.29
386.041	43.86
386.251	56.15
386.461	115.54
386.671	45.91
386.881	52.05
387.091	97.11
387.301	47.96
387.511	21.33
387.72	47.96
387.93	33.62
388.14	56.15
388.35	-44.2
388.56	103.25
388.769	80.72
388.979	101.2
389.189	41.81
389.399	64.34
389.609	27.48
389.818	68.44
390.028	0.85
390.238	103.25
390.447	50
390.657	70.48
390.867	13.14
391.076	-31.91
391.286	-1.19
391.496	58.2
391.705	19.29
391.915	47.96
392.125	72.53
392.334	-52.39
392.544	76.63
392.753	103.25
392.963	50
393.172	25.43
393.382	-1.19
393.591	84.82
393.801	86.87
394.01	2.9
394.22	31.57
394.429	76.63
394.639	35.67
394.848	9.05
395.058	47.96
395.267	43.86
395.477	58.2
395.686	47.96
395.895	78.68
396.105	111.44
396.314	41.81
396.524	58.2
396.733	-29.87
396.942	62.29
397.152	82.77
397.361	74.58
397.57	52.05
397.78	-42.15
397.989	121.68
398.198	80.72
398.407	-25.77
398.617	41.81
398.826	131.92
399.035	105.3
399.244	78.68
399.453	127.83
399.663	45.91
399.872	52.05
400.081	-23.72
400.29	176.98
400.499	23.38
400.708	52.05
400.917	119.64
401.127	52.05
401.336	27.48
401.545	152.4
401.754	72.53
401.963	70.48
402.172	105.3
402.381	56.15
402.59	17.24
402.799	113.49
403.008	31.57
403.217	66.39
403.426	76.63
403.635	54.1
403.844	107.35
404.053	70.48
404.262	60.24
404.471	144.21
404.68	68.44
404.888	60.24
405.097	131.92
405.306	41.81
405.515	99.16
405.724	123.73
405.933	148.31
406.142	80.72
406.35	84.82
406.559	125.78
406.768	70.48
406.977	41.81
407.185	88.92
407.394	111.44
407.603	82.77
407.812	121.68
408.02	164.69
408.229	154.45
408.438	140.12
408.646	136.02
408.855	156.5
409.064	158.55
409.272	97.11
409.481	174.93
409.69	119.64
409.898	82.77
410.107	240.47
410.315	224.08
410.524	86.87
410.733	174.93
410.941	199.51
411.15	265.04
411.358	246.61
411.567	226.13
411.775	203.6
411.984	275.28
412.192	293.71
412.401	273.23
412.609	295.76
412.818	252.75
413.026	269.14
413.234	279.38
413.443	224.08
413.651	285.52
413.86	205.65
414.068	408.4
414.276	377.68
414.485	381.78
414.693	357.2
414.901	432.97
415.11	353.1
415.318	392.02
415.526	365.39
415.734	512.85
415.943	506.7
416.151	463.69
416.359	443.21
416.567	545.61
416.776	443.21
416.984	508.75
417.192	527.18
417.4	533.33
417.608	504.65
417.817	662.35
418.025	633.68
418.233	699.21
418.441	598.86
418.649	648.01
418.857	770.89
419.065	772.94
419.273	666.44
419.481	752.46
419.689	834.38
419.897	795.47
420.105	832.33
420.313	867.14
420.521	957.25
420.729	885.58
420.937	861
421.145	942.92
421.353	1039.17
421.561	1024.84
421.769	1125.19
421.977	1082.18
422.185	1106.76
422.393	1168.2
422.601	1211.2
422.809	1190.72
423.017	1252.16
423.224	1323.84
423.432	1360.7
423.64	1377.09
423.848	1477.44
424.056	1559.36
424.263	1588.03
424.471	1751.87
424.679	1739.58
424.887	1641.28
425.094	1901.37
425.302	1721.15
425.51	1815.35
425.718	1905.46
425.925	1899.32
426.133	1979.19
426.341	2167.6
426.548	2165.56
426.756	2192.18
426.964	2210.61
427.171	2276.15
427.379	2270
427.586	2489.14
427.794	2609.97
428.001	2695.98
428.209	2700.08
428.417	2671.4
428.624	2890.54
428.832	2951.98
429.039	2835.24
429.247	2966.31
429.454	3033.9
429.662	3250.98
429.869	3134.25
430.076	3377.95
430.284	3232.55
430.491	3324.71
430.699	3652.38
430.906	3592.99
431.114	3726.11
431.321	3775.26
431.528	3900.19
431.736	4016.92
431.943	4248.34
432.15	4215.57
432.358	4209.43
432.565	4528.91
432.772	4274.96
432.979	4647.69
433.187	4748.04
433.394	4619.02
433.601	5051.14
433.808	5112.58
434.016	5069.58
434.223	5341.96
434.43	5552.9
434.637	5520.13
434.844	5866.24
435.052	6079.22
435.259	5968.63
435.466	5876.48
435.673	5913.34
435.88	6234.87
436.087	6646.51
436.294	6677.23
436.501	6636.27
436.708	6347.51
436.915	6818.54
437.122	7101.16
437.329	7047.91
437.537	7359.21
437.743	7342.82
437.95	7344.87
438.157	7848.67
438.364	8071.9
438.571	8159.96
438.778	7869.15
438.985	8823.5
439.192	8571.6
439.399	8805.07
439.606	8704.72
439.813	9036.49
440.02	9638.59
440.227	9595.59
440.433	9446.09
440.64	9896.64
440.847	9652.93
441.054	9804.48
441.261	10654.39
441.467	10549.94
441.674	10633.91
441.881	11002.54
442.088	10932.91
442.294	10887.86
442.501	11260.59
442.708	11401.9
442.914	11899.55
443.121	12636.82
443.328	11895.46
443.534	12896.91
443.741	12505.75
443.948	12386.97
444.154	13243.02
444.361	13169.29
444.568	13384.33
444.774	13464.2
444.981	13283.98
445.187	14109.31
445.394	14383.74
445.6	14019.2
445.807	15706.73
446.013	14996.08
446.22	15223.41
446.426	15854.18
446.633	16032.35
446.839	16781.91
447.046	16042.59
447.252	16632.41
447.459	16663.13
447.665	16591.45
447.871	17359.44
448.078	18270.78
448.284	17338.96
448.491	18084.42
448.697	18625.08
448.903	18702.9
449.11	18876.98
449.316	18567.74
449.522	19001.91
449.728	19403.31
449.935	19589.67
450.141	19628.59
450.347	20019.75
450.553	19362.35
450.76	19800.62
450.966	20484.64
451.172	20187.68
451.378	21010.96
451.584	20222.5
451.791	20636.19
451.997	20744.73
452.203	20965.91
452.409	20793.88
452.615	21039.64
452.821	19896.87
453.027	19851.81
453.233	20988.44
453.44	20161.06
453.646	20570.65
453.852	20517.4
454.058	20931.09
454.264	20218.4
454.47	20728.35
454.676	20179.49
454.882	21017.11
455.088	19001.91
455.294	19470.89
455.5	19657.26
455.705	19849.77
455.911	19110.45
456.117	18461.24
456.323	18528.83
456.529	17175.12
456.735	17973.83
456.941	17740.36
457.147	17369.68
457.352	16790.1
457.558	16677.46
457.764	16718.42
457.97	16484.95
458.176	16018.02
458.381	15923.81
458.587	15194.73
458.793	15374.95
458.999	14400.12
459.204	15446.63
459.41	14996.08
459.616	14187.13
459.821	14078.59
460.027	13968
460.233	13701.76
460.438	13107.85
460.644	13372.04
460.85	12710.55
461.055	12329.63
461.261	12366.49
461.466	11270.83
461.672	11051.69
461.878	11934.37
462.083	11262.63
462.289	10871.47
462.494	10609.33
462.7	10179.26
462.905	10056.38
463.111	10326.71
463.316	10539.7
463.522	10287.8
463.727	10193.59
463.932	10078.91
464.138	10085.05
464.343	10314.42
464.549	10009.28
464.754	10267.32
464.959	10169.02
465.165	9900.73
465.37	9599.68
465.575	9265.86
465.781	9712.32
465.986	9738.94
466.191	9308.87
466.397	9220.81
466.602	8731.34
466.807	9050.83
467.012	9128.65
467.218	8960.72
467.423	9018.06
467.628	8930
467.833	9319.11
468.038	8930
468.244	8741.58
468.449	9046.73
