Data from USB4F104151__11__12-23-23-148.txt Node

Date: Fri Mar 14 12:23:23 EDT 2025
User: louis
Spectrometer: USB4F10415
Trigger mode: 4
Integration Time (sec): 3.500000E-2
Scans to average: 1
Electric dark correction enabled: true
Nonlinearity correction enabled: false
Boxcar width: 0
XAxis mode: Wavelengths
Number of Pixels in Spectrum: 3648
>>>>>Begin Spectral Data<<<<<
178.204	-141.48
178.424	-141.48
178.644	-141.48
178.864	-129.19
179.084	-125.1
179.304	-16.55
179.524	-12.46
179.744	-39.08
179.964	34.64
180.184	-22.7
180.404	28.5
180.624	-16.55
180.844	8.02
181.064	3.93
181.283	-4.27
181.503	-39.08
181.723	75.6
181.943	-77.99
182.163	10.07
182.383	-0.17
182.602	26.45
182.822	18.26
183.042	20.31
183.262	20.31
183.482	38.74
183.701	28.5
183.921	-8.36
184.141	46.93
184.361	38.74
184.58	57.17
184.8	22.36
185.02	14.17
185.239	44.88
185.459	30.55
185.679	32.6
185.898	-20.65
186.118	67.41
186.338	-65.71
186.557	94.04
186.777	-16.55
186.997	42.84
187.216	75.6
187.436	16.21
187.655	24.4
187.875	98.13
188.095	-24.75
188.314	57.17
188.534	81.75
188.753	53.08
188.973	55.12
189.192	26.45
189.412	135
189.631	-0.17
189.851	67.41
190.07	98.13
190.29	-0.17
190.509	-0.17
190.729	-59.56
190.948	59.22
191.168	96.08
191.387	85.84
191.607	-20.65
191.826	48.98
192.045	112.47
192.265	40.79
192.484	32.6
192.704	-10.41
192.923	3.93
193.142	165.71
193.362	-12.46
193.581	24.4
193.8	85.84
194.02	53.08
194.239	38.74
194.458	3.93
194.678	12.12
194.897	-45.23
195.116	30.55
195.335	55.12
195.555	42.84
195.774	-28.84
195.993	63.32
196.212	-98.47
196.432	-12.46
196.651	96.08
196.87	38.74
197.089	114.52
197.308	40.79
197.528	61.27
197.747	-39.08
197.966	-20.65
198.185	120.66
198.404	112.47
198.623	69.46
198.842	139.09
199.062	180.05
199.281	44.88
199.5	44.88
199.719	59.22
199.938	8.02
200.157	98.13
200.376	-49.32
200.595	44.88
200.814	122.71
201.033	22.36
201.252	42.84
201.471	14.17
201.69	87.89
201.909	18.26
202.128	26.45
202.347	20.31
202.566	44.88
202.785	-0.17
203.004	3.93
203.223	161.62
203.442	36.69
203.661	67.41
203.879	79.7
204.098	137.04
204.317	-39.08
204.536	-18.6
204.755	46.93
204.974	91.99
205.193	-41.13
205.411	178
205.63	14.17
205.849	40.79
206.068	38.74
206.287	55.12
206.505	40.79
206.724	44.88
206.943	16.21
207.162	79.7
207.381	79.7
207.599	3.93
207.818	-69.8
208.037	-20.65
208.255	-28.84
208.474	26.45
208.693	16.21
208.911	-12.46
209.13	51.03
209.349	51.03
209.567	42.84
209.786	42.84
210.005	61.27
210.223	65.36
210.442	-14.51
210.661	12.12
210.879	67.41
211.098	96.08
211.316	42.84
211.535	61.27
211.753	-8.36
211.972	42.84
212.191	-6.31
212.409	73.56
212.628	71.51
212.846	10.07
213.065	79.7
213.283	40.79
213.502	57.17
213.72	-18.6
213.938	-2.22
214.157	22.36
214.375	-4.27
214.594	-22.7
214.812	100.18
215.031	51.03
215.249	24.4
215.467	5.97
215.686	20.31
215.904	73.56
216.122	100.18
216.341	61.27
216.559	8.02
216.778	141.14
216.996	79.7
217.214	18.26
217.432	57.17
217.651	22.36
217.869	24.4
218.087	30.55
218.306	10.07
218.524	30.55
218.742	112.47
218.96	51.03
219.179	32.6
219.397	51.03
219.615	46.93
219.833	79.7
220.051	36.69
220.27	128.85
220.488	34.64
220.706	14.17
220.924	-53.42
221.142	1.88
221.36	-24.75
221.578	71.51
221.796	48.98
222.015	3.93
222.233	-0.17
222.451	30.55
222.669	-10.41
222.887	26.45
223.105	-47.27
223.323	87.89
223.541	-8.36
223.759	75.6
223.977	-10.41
224.195	87.89
224.413	8.02
224.631	59.22
224.849	73.56
225.067	141.14
225.285	-8.36
225.503	8.02
225.721	-18.6
225.939	100.18
226.157	-10.41
226.375	106.32
226.592	-20.65
226.81	53.08
227.028	79.7
227.246	85.84
227.464	85.84
227.682	22.36
227.9	3.93
228.117	40.79
228.335	28.5
228.553	55.12
228.771	46.93
228.989	98.13
229.206	98.13
229.424	104.28
229.642	32.6
229.86	40.79
230.077	106.32
230.295	10.07
230.513	89.94
230.731	53.08
230.948	-6.31
231.166	69.46
231.384	-30.89
231.601	-2.22
231.819	53.08
232.037	51.03
232.254	38.74
232.472	32.6
232.689	75.6
232.907	48.98
233.125	5.97
233.342	-51.37
233.56	1.88
233.777	-8.36
233.995	34.64
234.213	20.31
234.43	28.5
234.648	57.17
234.865	34.64
235.083	12.12
235.3	151.38
235.518	122.71
235.735	28.5
235.953	98.13
236.17	8.02
236.388	46.93
236.605	-4.27
236.822	48.98
237.04	-26.79
237.257	116.56
237.475	-6.31
237.692	38.74
237.909	57.17
238.127	-26.79
238.344	22.36
238.562	3.93
238.779	26.45
238.996	-30.89
239.214	36.69
239.431	-14.51
239.648	1.88
239.865	22.36
240.083	79.7
240.3	1.88
240.517	38.74
240.735	-8.36
240.952	120.66
241.169	48.98
241.386	59.22
241.603	77.65
241.821	108.37
242.038	77.65
242.255	24.4
242.472	-28.84
242.689	30.55
242.907	165.71
243.124	-63.66
243.341	61.27
243.558	-16.55
243.775	30.55
243.992	8.02
244.209	51.03
244.426	55.12
244.643	10.07
244.86	59.22
245.078	77.65
245.295	36.69
245.512	48.98
245.729	-34.99
245.946	16.21
246.163	32.6
246.38	48.98
246.597	53.08
246.814	108.37
247.031	-12.46
247.248	-12.46
247.464	67.41
247.681	34.64
247.898	69.46
248.115	69.46
248.332	32.6
248.549	94.04
248.766	67.41
248.983	81.75
249.2	32.6
249.417	77.65
249.633	-43.18
249.85	83.8
250.067	71.51
250.284	63.32
250.501	57.17
250.717	18.26
250.934	22.36
251.151	-20.65
251.368	48.98
251.585	63.32
251.801	55.12
252.018	65.36
252.235	96.08
252.451	-8.36
252.668	-71.85
252.885	-6.31
253.102	65.36
253.318	126.8
253.535	-34.99
253.752	42.84
253.968	100.18
254.185	53.08
254.401	94.04
254.618	71.51
254.835	5.97
255.051	71.51
255.268	75.6
255.484	89.94
255.701	3.93
255.917	-20.65
256.134	20.31
256.351	69.46
256.567	28.5
256.784	32.6
257	-51.37
257.217	8.02
257.433	63.32
257.65	96.08
257.866	65.36
258.082	34.64
258.299	18.26
258.515	12.12
258.732	87.89
258.948	16.21
259.165	14.17
259.381	24.4
259.597	53.08
259.814	75.6
260.03	51.03
260.246	8.02
260.463	20.31
260.679	83.8
260.895	98.13
261.112	106.32
261.328	34.64
261.544	79.7
261.761	81.75
261.977	-59.56
262.193	28.5
262.409	67.41
262.626	51.03
262.842	14.17
263.058	106.32
263.274	55.12
263.49	44.88
263.707	69.46
263.923	36.69
264.139	48.98
264.355	22.36
264.571	137.04
264.787	114.52
265.004	89.94
265.22	94.04
265.436	1.88
265.652	-51.37
265.868	98.13
266.084	26.45
266.3	65.36
266.516	-6.31
266.732	-14.51
266.948	38.74
267.164	57.17
267.38	75.6
267.596	10.07
267.812	63.32
268.028	63.32
268.244	34.64
268.46	51.03
268.676	69.46
268.892	85.84
269.108	87.89
269.324	-12.46
269.54	-49.32
269.756	38.74
269.972	34.64
270.188	-8.36
270.403	-12.46
270.619	32.6
270.835	-43.18
271.051	55.12
271.267	1.88
271.483	-20.65
271.698	73.56
271.914	81.75
272.13	51.03
272.346	-16.55
272.562	114.52
272.777	28.5
272.993	44.88
273.209	38.74
273.425	26.45
273.64	48.98
273.856	65.36
274.072	10.07
274.287	26.45
274.503	79.7
274.719	40.79
274.934	114.52
275.15	12.12
275.366	83.8
275.581	32.6
275.797	24.4
276.012	85.84
276.228	-4.27
276.444	-32.94
276.659	98.13
276.875	-30.89
277.09	14.17
277.306	16.21
277.521	40.79
277.737	51.03
277.952	40.79
278.168	16.21
278.383	28.5
278.599	53.08
278.814	51.03
279.03	102.23
279.245	73.56
279.461	53.08
279.676	8.02
279.892	-22.7
280.107	12.12
280.322	-10.41
280.538	96.08
280.753	14.17
280.969	69.46
281.184	32.6
281.399	57.17
281.615	-2.22
281.83	83.8
282.045	-32.94
282.26	8.02
282.476	94.04
282.691	71.51
282.906	36.69
283.122	126.8
283.337	83.8
283.552	48.98
283.767	32.6
283.983	28.5
284.198	-24.75
284.413	108.37
284.628	-34.99
284.843	34.64
285.058	30.55
285.274	83.8
285.489	-30.89
285.704	38.74
285.919	5.97
286.134	46.93
286.349	16.21
286.564	46.93
286.779	63.32
286.995	34.64
287.21	36.69
287.425	83.8
287.64	-0.17
287.855	22.36
288.07	-30.89
288.285	38.74
288.5	94.04
288.715	141.14
288.93	5.97
289.145	1.88
289.36	61.27
289.575	1.88
289.79	130.9
290.004	18.26
290.219	53.08
290.434	-4.27
290.649	34.64
290.864	1.88
291.079	30.55
291.294	89.94
291.509	26.45
291.724	-26.79
291.938	28.5
292.153	87.89
292.368	16.21
292.583	16.21
292.798	53.08
293.012	12.12
293.227	79.7
293.442	81.75
293.657	42.84
293.871	57.17
294.086	-18.6
294.301	22.36
294.516	81.75
294.73	10.07
294.945	18.26
295.16	10.07
295.374	55.12
295.589	18.26
295.804	36.69
296.018	-24.75
296.233	102.23
296.447	30.55
296.662	-4.27
296.877	91.99
297.091	94.04
297.306	20.31
297.52	18.26
297.735	40.79
297.949	18.26
298.164	34.64
298.378	48.98
298.593	1.88
298.807	-14.51
299.022	34.64
299.236	139.09
299.451	26.45
299.665	28.5
299.88	161.62
300.094	46.93
300.309	-0.17
300.523	44.88
300.737	44.88
300.952	96.08
301.166	36.69
301.381	26.45
301.595	-34.99
301.809	110.42
302.024	-6.31
302.238	75.6
302.452	34.64
302.667	38.74
302.881	132.95
303.095	96.08
303.309	3.93
303.524	-47.27
303.738	10.07
303.952	-20.65
304.166	42.84
304.381	-49.32
304.595	104.28
304.809	-12.46
305.023	42.84
305.237	-16.55
305.452	65.36
305.666	40.79
305.88	5.97
306.094	85.84
306.308	75.6
306.522	3.93
306.736	36.69
306.95	102.23
307.164	59.22
307.379	10.07
307.593	69.46
307.807	71.51
308.021	79.7
308.235	24.4
308.449	-39.08
308.663	34.64
308.877	63.32
309.091	42.84
309.305	149.33
309.519	-20.65
309.733	87.89
309.947	-41.13
310.161	-39.08
310.374	110.42
310.588	59.22
310.802	-0.17
311.016	40.79
311.23	71.51
311.444	8.02
311.658	-6.31
311.872	46.93
312.085	77.65
312.299	73.56
312.513	-0.17
312.727	48.98
312.941	34.64
313.154	32.6
313.368	-80.04
313.582	-14.51
313.796	102.23
314.009	44.88
314.223	65.36
314.437	26.45
314.651	24.4
314.864	-22.7
315.078	34.64
315.292	8.02
315.505	-20.65
315.719	26.45
315.933	59.22
316.146	81.75
316.36	-6.31
316.573	128.85
316.787	10.07
317.001	65.36
317.214	75.6
317.428	73.56
317.641	-14.51
317.855	73.56
318.068	22.36
318.282	38.74
318.495	16.21
318.709	32.6
318.922	69.46
319.136	59.22
319.349	77.65
319.563	8.02
319.776	59.22
319.99	3.93
320.203	46.93
320.417	34.64
320.63	77.65
320.843	28.5
321.057	18.26
321.27	155.47
321.483	55.12
321.697	116.56
321.91	69.46
322.124	106.32
322.337	67.41
322.55	32.6
322.763	8.02
322.977	89.94
323.19	-20.65
323.403	106.32
323.617	63.32
323.83	91.99
324.043	1.88
324.256	34.64
324.469	-28.84
324.683	38.74
324.896	32.6
325.109	102.23
325.322	-2.22
325.535	89.94
325.748	132.95
325.962	8.02
326.175	46.93
326.388	73.56
326.601	110.42
326.814	46.93
327.027	-2.22
327.24	98.13
327.453	-51.37
327.666	38.74
327.879	32.6
328.092	20.31
328.305	14.17
328.518	12.12
328.731	61.27
328.944	16.21
329.157	65.36
329.37	71.51
329.583	120.66
329.796	28.5
330.009	44.88
330.222	116.56
330.435	55.12
330.648	128.85
330.861	46.93
331.073	139.09
331.286	24.4
331.499	-49.32
331.712	-4.27
331.925	-39.08
332.138	48.98
332.35	96.08
332.563	75.6
332.776	8.02
332.989	-10.41
333.202	-4.27
333.414	20.31
333.627	-26.79
333.84	38.74
334.053	63.32
334.265	-20.65
334.478	112.47
334.691	-4.27
334.903	81.75
335.116	44.88
335.329	18.26
335.541	102.23
335.754	73.56
335.966	53.08
336.179	30.55
336.392	51.03
336.604	51.03
336.817	46.93
337.029	34.64
337.242	-6.31
337.454	40.79
337.667	1.88
337.88	36.69
338.092	10.07
338.305	32.6
338.517	8.02
338.729	22.36
338.942	110.42
339.154	44.88
339.367	-30.89
339.579	55.12
339.792	-43.18
340.004	106.32
340.217	65.36
340.429	51.03
340.641	51.03
340.854	-12.46
341.066	14.17
341.278	63.32
341.491	94.04
341.703	3.93
341.915	59.22
342.128	94.04
342.34	36.69
342.552	-28.84
342.764	75.6
342.977	77.65
343.189	10.07
343.401	79.7
343.613	-18.6
343.826	40.79
344.038	-43.18
344.25	28.5
344.462	22.36
344.674	116.56
344.886	20.31
345.099	36.69
345.311	46.93
345.523	-10.41
345.735	1.88
345.947	40.79
346.159	-8.36
346.371	16.21
346.583	10.07
346.795	81.75
347.007	116.56
347.219	147.28
347.431	16.21
347.643	59.22
347.855	-8.36
348.067	85.84
348.279	124.76
348.491	36.69
348.703	36.69
348.915	51.03
349.127	57.17
349.339	44.88
349.551	26.45
349.763	55.12
349.975	3.93
350.187	114.52
350.399	85.84
350.61	5.97
350.822	46.93
351.034	-22.7
351.246	40.79
351.458	75.6
351.669	77.65
351.881	53.08
352.093	65.36
352.305	8.02
352.517	-24.75
352.728	132.95
352.94	-8.36
353.152	46.93
353.363	30.55
353.575	28.5
353.787	110.42
353.999	79.7
354.21	65.36
354.422	79.7
354.633	-6.31
354.845	-8.36
355.057	46.93
355.268	24.4
355.48	91.99
355.692	30.55
355.903	-14.51
356.115	34.64
356.326	-26.79
356.538	32.6
356.749	79.7
356.961	116.56
357.172	75.6
357.384	61.27
357.595	81.75
357.807	-45.23
358.018	57.17
358.23	16.21
358.441	73.56
358.653	63.32
358.864	30.55
359.075	36.69
359.287	1.88
359.498	104.28
359.709	-4.27
359.921	-10.41
360.132	73.56
360.344	40.79
360.555	91.99
360.766	79.7
360.977	-24.75
361.189	67.41
361.4	12.12
361.611	77.65
361.823	112.47
362.034	71.51
362.245	-16.55
362.456	46.93
362.667	26.45
362.879	51.03
363.09	-18.6
363.301	53.08
363.512	73.56
363.723	40.79
363.935	63.32
364.146	40.79
364.357	14.17
364.568	77.65
364.779	-0.17
364.99	57.17
365.201	14.17
365.412	98.13
365.623	-4.27
365.834	79.7
366.045	59.22
366.256	44.88
366.467	30.55
366.678	87.89
366.889	-2.22
367.1	18.26
367.311	71.51
367.522	65.36
367.733	14.17
367.944	79.7
368.155	14.17
368.366	96.08
368.577	32.6
368.788	53.08
368.999	40.79
369.209	44.88
369.42	132.95
369.631	147.28
369.842	44.88
370.053	8.02
370.264	38.74
370.474	128.85
370.685	67.41
370.896	-4.27
371.107	75.6
371.317	75.6
371.528	14.17
371.739	153.43
371.95	128.85
372.16	79.7
372.371	67.41
372.582	8.02
372.792	116.56
373.003	67.41
373.214	122.71
373.424	59.22
373.635	42.84
373.846	147.28
374.056	73.56
374.267	10.07
374.477	44.88
374.688	44.88
374.898	-8.36
375.109	81.75
375.319	53.08
375.53	98.13
375.74	53.08
375.951	5.97
376.161	38.74
376.372	141.14
376.582	59.22
376.793	132.95
377.003	87.89
377.214	44.88
377.424	5.97
377.635	91.99
377.845	-59.56
378.055	141.14
378.266	46.93
378.476	65.36
378.686	65.36
378.897	26.45
379.107	104.28
379.317	87.89
379.528	28.5
379.738	96.08
379.948	40.79
380.158	106.32
380.369	83.8
380.579	65.36
380.789	32.6
380.999	48.98
381.21	51.03
381.42	159.57
381.63	71.51
381.84	96.08
382.05	67.41
382.261	65.36
382.471	83.8
382.681	-10.41
382.891	106.32
383.101	22.36
383.311	24.4
383.521	-6.31
383.731	112.47
383.941	94.04
384.151	55.12
384.361	83.8
384.571	8.02
384.781	59.22
384.991	98.13
385.201	94.04
385.411	5.97
385.621	91.99
385.831	-26.79
386.041	73.56
386.251	40.79
386.461	122.71
386.671	32.6
386.881	14.17
387.091	32.6
387.301	71.51
387.511	36.69
387.72	114.52
387.93	83.8
388.14	-67.75
388.35	61.27
388.56	67.41
388.769	57.17
388.979	143.19
389.189	67.41
389.399	44.88
389.609	87.89
389.818	83.8
390.028	46.93
390.238	36.69
390.447	77.65
390.657	65.36
390.867	73.56
391.076	12.12
391.286	5.97
391.496	106.32
391.705	106.32
391.915	30.55
392.125	51.03
392.334	1.88
392.544	48.98
392.753	102.23
392.963	57.17
393.172	63.32
393.382	71.51
393.591	157.52
393.801	24.4
394.01	147.28
394.22	30.55
394.429	108.37
394.639	48.98
394.848	40.79
395.058	128.85
395.267	40.79
395.477	48.98
395.686	28.5
395.895	137.04
396.105	124.76
396.314	10.07
396.524	100.18
396.733	61.27
396.942	61.27
397.152	63.32
397.361	85.84
397.57	55.12
397.78	167.76
397.989	83.8
398.198	61.27
398.407	28.5
398.617	100.18
398.826	98.13
399.035	108.37
399.244	114.52
399.453	130.9
399.663	63.32
399.872	65.36
400.081	100.18
400.29	108.37
400.499	34.64
400.708	116.56
400.917	114.52
401.127	108.37
401.336	-6.31
401.545	151.38
401.754	135
401.963	114.52
402.172	34.64
402.381	108.37
402.59	73.56
402.799	108.37
403.008	155.47
403.217	38.74
403.426	130.9
403.635	67.41
403.844	98.13
404.053	55.12
404.262	91.99
404.471	208.72
404.68	112.47
404.888	151.38
405.097	112.47
405.306	130.9
405.515	178
405.724	118.61
405.933	204.63
406.142	112.47
406.35	200.53
406.559	237.39
406.768	108.37
406.977	157.52
407.185	188.24
407.394	243.54
407.603	173.91
407.812	194.39
408.02	296.78
408.229	227.15
408.438	149.33
408.646	169.81
408.855	171.86
409.064	218.96
409.272	270.16
409.481	182.1
409.69	182.1
409.898	261.97
410.107	163.67
410.315	245.59
410.524	186.19
410.733	282.45
410.941	266.07
411.15	294.74
411.358	304.98
411.567	331.6
411.775	286.54
411.984	327.5
412.192	382.8
412.401	362.32
412.609	481.1
412.818	390.99
413.026	413.52
413.234	454.48
413.443	376.66
413.651	409.42
413.86	403.28
414.068	501.58
414.276	571.21
414.485	454.48
414.693	472.91
414.901	548.68
415.11	536.4
415.318	509.77
415.526	589.64
415.734	657.23
415.943	708.43
416.151	747.34
416.359	681.8
416.567	681.8
416.776	722.76
416.984	741.19
417.192	808.78
417.4	773.96
417.608	800.59
417.817	730.95
418.025	788.3
418.233	894.79
418.441	937.8
418.649	810.82
418.857	964.42
419.065	1095.49
419.273	956.23
419.481	1105.73
419.689	1150.79
419.897	1175.36
420.105	1156.93
420.313	1296.19
420.521	1283.91
420.729	1277.76
420.937	1353.54
421.145	1429.31
421.353	1544
421.561	1558.33
421.769	1627.96
421.977	1574.72
422.185	1705.79
422.393	1593.15
422.601	1777.47
422.809	1904.44
423.017	1951.54
423.224	1775.42
423.432	1918.78
423.64	1951.54
423.848	2230.07
424.056	2088.76
424.263	2121.52
424.471	2279.22
424.679	2176.82
424.887	2447.15
425.094	2598.7
425.302	2461.49
425.51	2709.29
425.718	2668.33
425.925	2703.15
426.133	2918.18
426.341	2946.86
426.548	3116.84
426.756	3047.21
426.964	3200.8
427.171	3260.2
427.379	3421.99
427.586	3503.9
427.794	3647.26
428.001	3694.36
428.209	3905.31
428.417	3872.54
428.624	4114.2
428.832	4134.68
429.039	4136.73
429.247	4149.01
429.454	4491.02
429.662	4726.54
429.869	4505.36
430.076	4734.73
430.284	4792.08
430.491	4886.28
430.699	5156.61
430.906	5181.19
431.114	5392.13
431.321	5545.73
431.528	5621.5
431.736	5928.7
431.943	6223.61
432.15	6033.15
432.358	6002.43
432.565	6362.87
432.772	6344.44
432.979	6715.12
433.187	6850.28
433.394	6850.28
433.601	7364.32
433.808	7345.89
434.016	7321.32
434.223	7503.59
434.43	8054.49
434.637	7950.04
434.844	8429.27
435.052	8582.87
435.259	8675.02
435.466	8644.31
435.673	8478.42
435.88	9084.62
436.087	9553.6
436.294	9746.11
436.501	9504.45
436.708	9604.8
436.915	9877.18
437.122	10481.33
437.329	10211
437.537	10706.61
437.743	10878.64
437.95	10757.81
438.157	11353.77
438.364	11628.2
438.571	11443.88
438.778	11787.94
438.985	12768.91
439.192	12134.04
439.399	12783.25
439.606	12414.62
439.813	13221.52
440.02	13805.19
440.227	13719.17
440.433	13674.12
440.64	14096
440.847	14141.05
441.054	14175.87
441.261	15177.33
441.467	14966.38
441.674	15304.3
441.881	15986.27
442.088	15578.73
442.294	15599.21
442.501	16023.14
442.708	16674.39
442.914	17133.14
443.121	17710.66
443.328	17266.25
443.534	18622.01
443.741	18138.69
443.948	17729.09
444.154	19119.67
444.361	19033.65
444.568	19287.6
444.774	19039.79
444.981	19508.78
445.187	20145.7
445.394	20803.1
445.6	20577.82
445.807	22474.24
446.013	21734.92
446.22	22162.95
446.426	23115.25
446.633	23012.85
446.839	24069.61
447.046	22818.3
447.252	24339.94
447.459	24319.46
447.665	24239.59
447.871	25445.84
448.078	26258.88
448.284	25095.64
448.491	25654.73
448.697	26940.86
448.903	27278.77
449.11	27327.92
449.316	26746.3
449.522	27301.3
449.728	28059.05
449.935	28540.32
450.141	28165.54
450.347	28945.82
450.553	28366.24
450.76	28351.91
450.966	29306.26
451.172	28777.89
451.378	29572.5
451.584	29158.81
451.791	30051.72
451.997	29767.06
452.203	30287.24
452.409	29902.22
452.615	29889.93
452.821	28888.48
453.027	28427.68
453.233	29947.28
453.44	29228.44
453.646	29369.75
453.852	29248.92
454.058	29898.13
454.264	28933.53
454.47	29330.84
454.676	28919.2
454.882	29879.69
455.088	27008.44
455.294	27438.51
455.5	28071.34
455.705	28046.76
455.911	27100.6
456.117	26365.38
456.323	26463.68
456.529	24684
456.735	25882.06
456.941	25337.3
457.147	24638.94
457.352	24169.96
457.558	23789.03
457.764	23610.86
457.97	23105.01
458.176	22728.19
458.381	23125.49
458.587	21607.95
458.793	21786.12
458.999	20737.56
459.204	22058.5
459.41	21440.01
459.616	19850.79
459.821	20114.98
460.027	19924.52
460.233	19641.9
460.438	18558.52
460.644	18550.33
460.85	17772.1
461.055	17813.06
461.261	17598.02
461.466	16277.08
461.672	15722.09
461.878	16899.67
462.083	15783.52
462.289	15447.66
462.494	15451.75
462.7	14773.88
462.905	14497.4
463.111	14798.45
463.316	15044.21
463.522	14450.3
463.727	14474.87
463.932	14390.91
464.138	14360.19
464.343	14380.67
464.549	13850.24
464.754	14589.56
464.959	14245.5
465.165	14055.04
465.37	13706.88
465.575	13180.56
465.781	13696.64
465.986	13782.66
466.191	13258.38
466.397	12998.29
466.602	12410.52
466.807	12752.53
467.012	12889.74
467.218	12973.71
467.423	12648.08
467.628	12856.98
467.833	13190.8
468.038	12854.93
