Data from USB4F104151__49__12-24-00-453.txt Node

Date: Fri Mar 14 12:24:00 EDT 2025
User: louis
Spectrometer: USB4F10415
Trigger mode: 4
Integration Time (sec): 3.500000E-2
Scans to average: 1
Electric dark correction enabled: true
Nonlinearity correction enabled: false
Boxcar width: 0
XAxis mode: Wavelengths
Number of Pixels in Spectrum: 3648
>>>>>Begin Spectral Data<<<<<
178.204	-134.82
178.424	-134.82
178.644	-134.82
178.864	-85.67
179.084	-190.12
179.304	2.39
179.524	-28.33
179.744	0.34
179.964	39.25
180.184	-40.62
180.404	6.49
180.624	-3.75
180.844	-32.43
181.064	-40.62
181.283	49.49
181.503	-26.28
181.723	74.07
181.943	-89.77
182.163	141.65
182.383	63.83
182.602	76.12
182.822	-22.19
183.042	37.2
183.262	37.2
183.482	33.11
183.701	-3.75
183.921	-20.14
184.141	24.92
184.361	106.84
184.58	98.64
184.8	-18.09
185.02	20.82
185.239	67.92
185.459	4.44
185.679	-28.33
185.898	-63.15
186.118	88.4
186.338	80.21
186.557	57.68
186.777	16.73
186.997	-38.57
187.216	-24.23
187.436	65.88
187.655	55.64
187.875	39.25
188.095	80.21
188.314	26.96
188.534	65.88
188.753	-54.95
188.973	24.92
189.192	63.83
189.412	-28.33
189.631	41.3
189.851	26.96
190.07	53.59
190.29	10.58
190.509	76.12
190.729	2.39
190.948	102.74
191.168	186.71
191.387	133.46
191.607	57.68
191.826	57.68
192.045	55.64
192.265	49.49
192.484	33.11
192.704	16.73
192.923	53.59
193.142	141.65
193.362	72.02
193.581	102.74
193.8	80.21
194.02	57.68
194.239	24.92
194.458	76.12
194.678	10.58
194.897	78.16
195.116	76.12
195.335	6.49
195.555	6.49
195.774	26.96
195.993	0.34
196.212	37.2
196.432	8.53
196.651	51.54
196.87	78.16
197.089	125.27
197.308	90.45
197.528	131.41
197.747	4.44
197.966	10.58
198.185	6.49
198.404	41.3
198.623	45.4
198.842	6.49
199.062	96.6
199.281	14.68
199.5	49.49
199.719	4.44
199.938	55.64
200.157	74.07
200.376	45.4
200.595	35.16
200.814	35.16
201.033	-20.14
201.252	37.2
201.471	57.68
201.69	98.64
201.909	102.74
202.128	-50.86
202.347	55.64
202.566	16.73
202.785	53.59
203.004	53.59
203.223	123.22
203.442	37.2
203.661	20.82
203.879	-3.75
204.098	90.45
204.317	16.73
204.536	41.3
204.755	74.07
204.974	55.64
205.193	82.26
205.411	110.93
205.63	12.63
205.849	-3.75
206.068	100.69
206.287	88.4
206.505	129.36
206.724	96.6
206.943	-40.62
207.162	0.34
207.381	-9.9
207.599	82.26
207.818	69.97
208.037	16.73
208.255	26.96
208.474	35.16
208.693	45.4
208.911	65.88
209.13	22.87
209.349	39.25
209.567	72.02
209.786	26.96
210.005	33.11
210.223	8.53
210.442	6.49
210.661	92.5
210.879	69.97
211.098	14.68
211.316	-13.99
211.535	98.64
211.753	37.2
211.972	51.54
212.191	35.16
212.409	59.73
212.628	55.64
212.846	18.77
213.065	45.4
213.283	98.64
213.502	53.59
213.72	-52.91
213.938	-18.09
214.157	33.11
214.375	96.6
214.594	96.6
214.812	26.96
215.031	-9.9
215.249	129.36
215.467	41.3
215.686	31.06
215.904	63.83
216.122	20.82
216.341	18.77
216.559	-7.85
216.778	90.45
216.996	63.83
217.214	57.68
217.432	6.49
217.651	61.78
217.869	72.02
218.087	16.73
218.306	47.44
218.524	8.53
218.742	41.3
218.96	43.35
219.179	47.44
219.397	31.06
219.615	53.59
219.833	67.92
220.051	-50.86
220.27	47.44
220.488	6.49
220.706	39.25
220.924	-3.75
221.142	-22.19
221.36	43.35
221.578	22.87
221.796	96.6
222.015	82.26
222.233	35.16
222.451	96.6
222.669	47.44
222.887	26.96
223.105	69.97
223.323	18.77
223.541	-40.62
223.759	110.93
223.977	51.54
224.195	88.4
224.413	55.64
224.631	33.11
224.849	31.06
225.067	65.88
225.285	41.3
225.503	37.2
225.721	-28.33
225.939	47.44
226.157	53.59
226.375	162.13
226.592	10.58
226.81	-34.47
227.028	123.22
227.246	90.45
227.464	43.35
227.682	139.6
227.9	47.44
228.117	53.59
228.335	2.39
228.553	-13.99
228.771	88.4
228.989	-50.86
229.206	65.88
229.424	-38.57
229.642	45.4
229.86	67.92
230.077	94.55
230.295	53.59
230.513	69.97
230.731	65.88
230.948	31.06
231.166	10.58
231.384	-13.99
231.601	-11.95
231.819	147.8
232.037	-11.95
232.254	-9.9
232.472	78.16
232.689	80.21
232.907	35.16
233.125	102.74
233.342	29.01
233.56	65.88
233.777	26.96
233.995	51.54
234.213	80.21
234.43	96.6
234.648	112.98
234.865	20.82
235.083	18.77
235.3	61.78
235.518	65.88
235.735	51.54
235.953	117.08
236.17	123.22
236.388	45.4
236.605	39.25
236.822	104.79
237.04	96.6
237.257	41.3
237.475	29.01
237.692	98.64
237.909	115.03
238.127	-11.95
238.344	74.07
238.562	74.07
238.779	24.92
238.996	31.06
239.214	43.35
239.431	35.16
239.648	16.73
239.865	-1.71
240.083	-7.85
240.3	67.92
240.517	29.01
240.735	59.73
240.952	84.31
241.169	51.54
241.386	-22.19
241.603	4.44
241.821	0.34
242.038	106.84
242.255	88.4
242.472	10.58
242.689	-5.8
242.907	108.88
243.124	35.16
243.341	59.73
243.558	24.92
243.775	2.39
243.992	55.64
244.209	37.2
244.426	100.69
244.643	69.97
244.86	33.11
245.078	22.87
245.295	74.07
245.512	69.97
245.729	-13.99
245.946	65.88
246.163	51.54
246.38	80.21
246.597	31.06
246.814	39.25
247.031	37.2
247.248	20.82
247.464	51.54
247.681	125.27
247.898	-9.9
248.115	53.59
248.332	41.3
248.549	29.01
248.766	131.41
248.983	14.68
249.2	104.79
249.417	86.36
249.633	35.16
249.85	18.77
250.067	125.27
250.284	-24.23
250.501	55.64
250.717	65.88
250.934	26.96
251.151	31.06
251.368	4.44
251.585	112.98
251.801	92.5
252.018	-26.28
252.235	39.25
252.451	-1.71
252.668	41.3
252.885	92.5
253.102	33.11
253.318	-9.9
253.535	-24.23
253.752	90.45
253.968	-3.75
254.185	-7.85
254.401	67.92
254.618	8.53
254.835	22.87
255.051	14.68
255.268	55.64
255.484	102.74
255.701	20.82
255.917	69.97
256.134	-16.04
256.351	67.92
256.567	12.63
256.784	16.73
257	-40.62
257.217	4.44
257.433	24.92
257.65	90.45
257.866	88.4
258.082	76.12
258.299	41.3
258.515	78.16
258.732	4.44
258.948	55.64
259.165	12.63
259.381	22.87
259.597	82.26
259.814	67.92
260.03	29.01
260.246	-24.23
260.463	96.6
260.679	86.36
260.895	31.06
261.112	45.4
261.328	76.12
261.544	20.82
261.761	119.12
261.977	14.68
262.193	49.49
262.409	98.64
262.626	69.97
262.842	43.35
263.058	-36.52
263.274	20.82
263.49	24.92
263.707	90.45
263.923	82.26
264.139	-1.71
264.355	98.64
264.571	78.16
264.787	33.11
265.004	61.78
265.22	45.4
265.436	-50.86
265.652	39.25
265.868	84.31
266.084	-7.85
266.3	76.12
266.516	24.92
266.732	129.36
266.948	43.35
267.164	49.49
267.38	63.83
267.596	51.54
267.812	76.12
268.028	43.35
268.244	33.11
268.46	20.82
268.676	10.58
268.892	104.79
269.108	-5.8
269.324	31.06
269.54	98.64
269.756	43.35
269.972	-11.95
270.188	53.59
270.403	-63.15
270.619	65.88
270.835	96.6
271.051	2.39
271.267	-46.76
271.483	31.06
271.698	31.06
271.914	94.55
272.13	151.89
272.346	0.34
272.562	10.58
272.777	78.16
272.993	59.73
273.209	61.78
273.425	92.5
273.64	20.82
273.856	90.45
274.072	61.78
274.287	-24.23
274.503	61.78
274.719	37.2
274.934	47.44
275.15	-22.19
275.366	94.55
275.581	96.6
275.797	0.34
276.012	10.58
276.228	96.6
276.444	57.68
276.659	96.6
276.875	57.68
277.09	6.49
277.306	84.31
277.521	112.98
277.737	55.64
277.952	12.63
278.168	41.3
278.383	14.68
278.599	51.54
278.814	39.25
279.03	100.69
279.245	12.63
279.461	4.44
279.676	92.5
279.892	82.26
280.107	-34.47
280.322	16.73
280.538	59.73
280.753	41.3
280.969	39.25
281.184	98.64
281.399	76.12
281.615	6.49
281.83	47.44
282.045	6.49
282.26	33.11
282.476	31.06
282.691	31.06
282.906	29.01
283.122	41.3
283.337	82.26
283.552	57.68
283.767	129.36
283.983	164.18
284.198	47.44
284.413	125.27
284.628	-3.75
284.843	67.92
285.058	61.78
285.274	117.08
285.489	-26.28
285.704	63.83
285.919	92.5
286.134	-5.8
286.349	29.01
286.564	86.36
286.779	72.02
286.995	69.97
287.21	8.53
287.425	51.54
287.64	49.49
287.855	29.01
288.07	29.01
288.285	110.93
288.5	65.88
288.715	67.92
288.93	41.3
289.145	39.25
289.36	125.27
289.575	43.35
289.79	74.07
290.004	-9.9
290.219	22.87
290.434	59.73
290.649	33.11
290.864	14.68
291.079	80.21
291.294	86.36
291.509	45.4
291.724	51.54
291.938	41.3
292.153	22.87
292.368	-1.71
292.583	37.2
292.798	12.63
293.012	84.31
293.227	26.96
293.442	18.77
293.657	67.92
293.871	121.17
294.086	22.87
294.301	22.87
294.516	-18.09
294.73	10.58
294.945	0.34
295.16	33.11
295.374	47.44
295.589	90.45
295.804	26.96
296.018	74.07
296.233	92.5
296.447	45.4
296.662	-13.99
296.877	86.36
297.091	104.79
297.306	26.96
297.52	24.92
297.735	125.27
297.949	35.16
298.164	57.68
298.378	41.3
298.593	49.49
298.807	49.49
299.022	76.12
299.236	82.26
299.451	72.02
299.665	88.4
299.88	-3.75
300.094	137.56
300.309	43.35
300.523	53.59
300.737	57.68
300.952	37.2
301.166	129.36
301.381	45.4
301.595	20.82
301.809	61.78
302.024	29.01
302.238	-20.14
302.452	100.69
302.667	96.6
302.881	76.12
303.095	31.06
303.309	74.07
303.524	65.88
303.738	141.65
303.952	65.88
304.166	31.06
304.381	26.96
304.595	133.46
304.809	0.34
305.023	39.25
305.237	90.45
305.452	22.87
305.666	16.73
305.88	76.12
306.094	72.02
306.308	76.12
306.522	147.8
306.736	12.63
306.95	69.97
307.164	29.01
307.379	18.77
307.593	39.25
307.807	72.02
308.021	61.78
308.235	59.73
308.449	-73.39
308.663	112.98
308.877	127.32
309.091	55.64
309.305	72.02
309.519	57.68
309.733	35.16
309.947	-20.14
310.161	67.92
310.374	72.02
310.588	69.97
310.802	8.53
311.016	67.92
311.23	51.54
311.444	0.34
311.658	-16.04
311.872	121.17
312.085	43.35
312.299	69.97
312.513	135.51
312.727	63.83
312.941	14.68
313.154	39.25
313.368	24.92
313.582	4.44
313.796	76.12
314.009	16.73
314.223	153.94
314.437	59.73
314.651	-7.85
314.864	22.87
315.078	61.78
315.292	33.11
315.505	41.3
315.719	-5.8
315.933	69.97
316.146	61.78
316.36	-5.8
316.573	190.8
316.787	29.01
317.001	2.39
317.214	0.34
317.428	63.83
317.641	35.16
317.855	-28.33
318.068	12.63
318.282	43.35
318.495	47.44
318.709	29.01
318.922	-1.71
319.136	94.55
319.349	74.07
319.563	80.21
319.776	86.36
319.99	16.73
320.203	74.07
320.417	-9.9
320.63	63.83
320.843	94.55
321.057	72.02
321.27	47.44
321.483	86.36
321.697	106.84
321.91	92.5
322.124	45.4
322.337	147.8
322.55	6.49
322.763	86.36
322.977	35.16
323.19	53.59
323.403	100.69
323.617	33.11
323.83	106.84
324.043	37.2
324.256	74.07
324.469	37.2
324.683	112.98
324.896	57.68
325.109	63.83
325.322	-11.95
325.535	35.16
325.748	63.83
325.962	57.68
326.175	90.45
326.388	112.98
326.601	108.88
326.814	67.92
327.027	16.73
327.24	119.12
327.453	-20.14
327.666	39.25
327.879	86.36
328.092	153.94
328.305	90.45
328.518	65.88
328.731	-7.85
328.944	39.25
329.157	14.68
329.37	49.49
329.583	84.31
329.796	110.93
330.009	-16.04
330.222	164.18
330.435	102.74
330.648	76.12
330.861	53.59
331.073	59.73
331.286	65.88
331.499	102.74
331.712	-1.71
331.925	112.98
332.138	-7.85
332.35	59.73
332.563	76.12
332.776	86.36
332.989	33.11
333.202	49.49
333.414	26.96
333.627	86.36
333.84	20.82
334.053	63.83
334.265	69.97
334.478	14.68
334.691	24.92
334.903	-42.67
335.116	-5.8
335.329	102.74
335.541	67.92
335.754	106.84
335.966	33.11
336.179	102.74
336.392	76.12
336.604	90.45
336.817	53.59
337.029	61.78
337.242	22.87
337.454	125.27
337.667	14.68
337.88	43.35
338.092	24.92
338.305	35.16
338.517	12.63
338.729	98.64
338.942	94.55
339.154	110.93
339.367	-22.19
339.579	88.4
339.792	-5.8
340.004	65.88
340.217	82.26
340.429	84.31
340.641	6.49
340.854	141.65
341.066	59.73
341.278	82.26
341.491	112.98
341.703	16.73
341.915	53.59
342.128	69.97
342.34	86.36
342.552	80.21
342.764	80.21
342.977	72.02
343.189	74.07
343.401	22.87
343.613	57.68
343.826	53.59
344.038	35.16
344.25	139.6
344.462	53.59
344.674	86.36
344.886	-13.99
345.099	100.69
345.311	63.83
345.523	59.73
345.735	72.02
345.947	33.11
346.159	29.01
346.371	80.21
346.583	135.51
346.795	119.12
347.007	-1.71
347.219	104.79
347.431	65.88
347.643	117.08
347.855	86.36
348.067	65.88
348.279	14.68
348.491	125.27
348.703	88.4
348.915	61.78
349.127	61.78
349.339	92.5
349.551	45.4
349.763	31.06
349.975	94.55
350.187	47.44
350.399	53.59
350.61	92.5
350.822	-9.9
351.034	104.79
351.246	112.98
351.458	72.02
351.669	37.2
351.881	102.74
352.093	59.73
352.305	106.84
352.517	39.25
352.728	94.55
352.94	61.78
353.152	41.3
353.363	129.36
353.575	47.44
353.787	96.6
353.999	69.97
354.21	119.12
354.422	61.78
354.633	61.78
354.845	82.26
355.057	88.4
355.268	78.16
355.48	45.4
355.692	121.17
355.903	80.21
356.115	80.21
356.326	49.49
356.538	147.8
356.749	80.21
356.961	65.88
357.172	-11.95
357.384	43.35
357.595	59.73
357.807	125.27
358.018	51.54
358.23	63.83
358.441	57.68
358.653	41.3
358.864	43.35
359.075	18.77
359.287	43.35
359.498	61.78
359.709	125.27
359.921	90.45
360.132	129.36
360.344	94.55
360.555	57.68
360.766	47.44
360.977	45.4
361.189	74.07
361.4	129.36
361.611	129.36
361.823	123.22
362.034	67.92
362.245	51.54
362.456	96.6
362.667	65.88
362.879	67.92
363.09	61.78
363.301	115.03
363.512	55.64
363.723	69.97
363.935	2.39
364.146	47.44
364.357	55.64
364.568	55.64
364.779	-34.47
364.99	168.27
365.201	90.45
365.412	63.83
365.623	-38.57
365.834	96.6
366.045	67.92
366.256	82.26
366.467	37.2
366.678	10.58
366.889	41.3
367.1	69.97
367.311	80.21
367.522	98.64
367.733	90.45
367.944	90.45
368.155	106.84
368.366	76.12
368.577	112.98
368.788	115.03
368.999	74.07
369.209	139.6
369.42	121.17
369.631	176.47
369.842	26.96
370.053	12.63
370.264	98.64
370.474	20.82
370.685	55.64
370.896	102.74
371.107	80.21
371.317	63.83
371.528	16.73
371.739	69.97
371.95	69.97
372.16	155.99
372.371	22.87
372.582	86.36
372.792	29.01
373.003	125.27
373.214	37.2
373.424	117.08
373.635	43.35
373.846	125.27
374.056	78.16
374.267	94.55
374.477	96.6
374.688	45.4
374.898	39.25
375.109	149.84
375.319	100.69
375.53	53.59
375.74	121.17
375.951	47.44
376.161	133.46
376.372	112.98
376.582	2.39
376.793	74.07
377.003	-18.09
377.214	39.25
377.424	6.49
377.635	37.2
377.845	78.16
378.055	92.5
378.266	78.16
378.476	51.54
378.686	121.17
378.897	145.75
379.107	96.6
379.317	76.12
379.528	37.2
379.738	86.36
379.948	24.92
380.158	100.69
380.369	82.26
380.579	112.98
380.789	92.5
380.999	123.22
381.21	67.92
381.42	59.73
381.63	-3.75
381.84	41.3
382.05	123.22
382.261	65.88
382.471	57.68
382.681	24.92
382.891	119.12
383.101	121.17
383.311	29.01
383.521	4.44
383.731	69.97
383.941	98.64
384.151	92.5
384.361	59.73
384.571	31.06
384.781	96.6
384.991	115.03
385.201	110.93
385.411	92.5
385.621	76.12
385.831	-13.99
386.041	139.6
386.251	80.21
386.461	129.36
386.671	55.64
386.881	57.68
387.091	110.93
387.301	55.64
387.511	137.56
387.72	55.64
387.93	92.5
388.14	78.16
388.35	108.88
388.56	139.6
388.769	133.46
388.979	45.4
389.189	121.17
389.399	67.92
389.609	51.54
389.818	74.07
390.028	90.45
390.238	69.97
390.447	88.4
390.657	82.26
390.867	76.12
391.076	65.88
391.286	67.92
391.496	-16.04
391.705	84.31
391.915	92.5
392.125	147.8
392.334	158.03
392.544	205.14
392.753	57.68
392.963	61.78
393.172	37.2
393.382	41.3
393.591	166.23
393.801	43.35
394.01	176.47
394.22	92.5
394.429	115.03
394.639	106.84
394.848	176.47
395.058	145.75
395.267	104.79
395.477	211.28
395.686	121.17
395.895	178.51
396.105	194.9
396.314	129.36
396.524	151.89
396.733	135.51
396.942	137.56
397.152	151.89
397.361	221.52
397.57	123.22
397.78	37.2
397.989	123.22
398.198	217.43
398.407	170.32
398.617	182.61
398.826	129.36
399.035	182.61
399.244	149.84
399.453	143.7
399.663	127.32
399.872	149.84
400.081	205.14
400.29	143.7
400.499	100.69
400.708	133.46
400.917	94.55
401.127	121.17
401.336	176.47
401.545	237.91
401.754	268.63
401.963	186.71
402.172	164.18
402.381	129.36
402.59	110.93
402.799	166.23
403.008	231.76
403.217	155.99
403.426	153.94
403.635	110.93
403.844	160.08
404.053	151.89
404.262	217.43
404.471	223.57
404.68	192.85
404.888	305.49
405.097	184.66
405.306	217.43
405.515	198.99
405.724	196.95
405.933	237.91
406.142	201.04
406.35	166.23
406.559	192.85
406.768	248.15
406.977	211.28
407.185	297.3
407.394	297.3
407.603	262.48
407.812	297.3
408.02	362.83
408.229	301.39
408.438	393.55
408.646	346.45
408.855	350.54
409.064	309.58
409.272	332.11
409.481	444.75
409.69	377.17
409.898	414.03
410.107	524.62
410.315	500.05
410.524	483.66
410.733	454.99
410.941	391.5
411.15	485.71
411.358	481.61
411.567	641.36
411.775	465.23
411.984	569.68
412.192	684.36
412.401	575.82
412.609	706.89
412.818	745.8
413.026	686.41
413.234	768.33
413.443	696.65
413.651	751.95
413.86	788.81
414.068	790.86
414.276	792.91
414.485	856.39
414.693	962.89
414.901	923.98
415.11	923.98
415.318	977.22
415.526	1077.57
415.734	1032.52
415.943	1116.48
416.151	1204.55
416.359	1136.96
416.567	1194.31
416.776	1284.42
416.984	1308.99
417.192	1411.39
417.4	1313.09
417.608	1249.6
417.817	1411.39
418.025	1526.08
418.233	1724.73
418.441	1589.57
418.649	1628.48
418.857	1808.7
419.065	1757.5
419.273	1782.07
419.481	1909.05
419.689	1982.78
419.897	2056.5
420.105	2048.31
420.313	2220.34
420.521	2257.2
420.729	2076.98
420.937	2353.46
421.145	2335.03
421.353	2443.57
421.561	2582.83
421.769	2808.11
421.977	2912.55
422.185	2937.13
422.393	2961.7
422.601	3199.27
422.809	3225.89
423.017	3158.31
423.224	3352.87
423.432	3412.26
423.64	3389.73
423.848	3782.94
424.056	3637.53
424.263	3928.35
424.471	3942.68
424.679	4086.04
424.887	4198.68
425.094	4448.53
425.302	4520.21
425.51	4608.27
425.718	4778.25
425.925	4847.88
426.133	4962.57
426.341	5181.7
426.548	5290.24
426.756	5425.41
426.964	5558.53
427.171	5878.01
427.379	6082.81
427.586	6093.05
427.794	6338.8
428.001	6615.28
428.209	6969.58
428.417	6635.76
428.624	7262.44
428.832	7291.11
429.039	7188.71
429.247	7188.71
429.454	8001.76
429.662	8464.6
429.869	8018.14
430.076	8403.16
430.284	8167.64
430.491	8564.95
430.699	8929.49
430.906	9062.6
431.114	9248.97
431.321	9511.11
431.528	9777.34
431.736	10291.38
431.943	10631.35
432.15	10555.57
432.358	10574
432.565	11309.22
432.772	11210.92
432.979	11888.8
433.187	11882.66
433.394	11978.91
433.601	12976.27
433.808	12798.1
434.016	12804.24
434.223	13377.67
434.43	14127.23
434.637	13891.71
434.844	14719.09
435.052	14923.89
435.259	14930.03
435.466	15116.4
435.673	15071.34
435.88	15986.79
436.087	16861.27
436.294	16726.1
436.501	16517.21
436.708	16697.43
436.915	17221.71
437.122	17942.6
437.329	18085.95
437.537	18362.43
437.743	19005.49
437.95	18753.59
438.157	19515.44
438.364	20314.14
438.571	20498.46
438.778	20461.6
438.985	22507.52
439.192	21436.43
439.399	22202.37
439.606	21809.16
439.813	22915.06
440.02	24244.2
440.227	23767.02
440.433	24020.97
440.64	24430.56
440.847	24287.2
441.054	25204.69
441.261	26390.47
441.467	26466.24
441.674	26828.73
441.881	27817.9
442.088	27731.89
442.294	27578.29
442.501	28524.45
442.708	28882.84
442.914	30154.63
443.121	31031.16
443.328	30523.27
443.534	32382.82
443.741	31694.71
443.948	31391.61
444.154	33714
444.361	32843.62
444.568	33396.57
444.774	33412.95
444.981	33783.63
445.187	34772.8
445.394	36171.57
445.6	35653.43
445.807	38995.71
446.013	37955.35
446.22	37996.31
446.426	39968.5
446.633	40158.96
446.839	41623.26
447.046	39569.15
447.252	42188.5
447.459	41649.88
447.665	41541.34
447.871	43566.78
448.078	45797.02
448.284	43058.88
448.491	44807.85
448.697	46356.11
448.903	47435.39
449.11	47142.53
449.316	46452.37
449.522	47150.73
449.728	48529.01
449.935	48975.47
450.141	48551.54
450.347	49593.95
450.553	48455.28
450.76	49016.43
450.966	50660.94
451.172	50024.03
451.378	50806.35
451.584	50132.57
451.791	51308.1
451.997	51156.55
452.203	52045.37
452.409	51979.84
452.615	51080.78
452.821	49759.84
453.027	49423.97
453.233	51535.43
453.44	50202.2
453.646	50515.54
453.852	50503.25
454.058	51664.45
454.264	49981.02
454.47	50851.41
454.676	49509.99
454.882	51088.97
455.088	46753.42
455.294	47588.99
455.5	48201.33
455.705	48823.92
455.911	46888.59
456.117	45942.42
456.323	45151.91
456.529	42931.91
456.735	44992.17
456.941	43781.82
457.147	42716.87
457.352	41735.9
457.558	41068.26
457.764	41055.97
457.97	40228.59
458.176	39362.3
458.381	39481.08
458.587	37523.22
458.793	37476.12
458.999	35649.33
459.204	38270.73
459.41	37115.68
459.616	34756.42
459.821	35008.32
460.027	34377.54
460.233	34043.73
460.438	32108.4
460.644	32431.97
460.85	31362.93
461.055	30640
461.261	30633.86
461.466	28340.13
461.672	27555.76
461.878	29398.93
462.083	27428.79
462.289	27013.05
462.494	26595.26
462.7	25458.64
462.905	24852.44
463.111	25536.46
463.316	25941.96
463.522	25456.59
463.727	25298.9
463.932	25384.91
464.138	24905.69
464.343	25214.93
464.549	24207.33
464.754	24868.83
464.959	24928.22
465.165	24948.7
465.37	23556.08
465.575	22929.4
465.781	23807.98
465.986	24412.13
466.191	23496.69
466.397	22554.62
466.602	21489.68
466.807	22331.39
467.012	22671.36
