Data from USB4F104151__85__12-24-30-620.txt Node

Date: Fri Mar 14 12:24:30 EDT 2025
User: louis
Spectrometer: USB4F10415
Trigger mode: 4
Integration Time (sec): 3.500000E-2
Scans to average: 1
Electric dark correction enabled: true
Nonlinearity correction enabled: false
Boxcar width: 0
XAxis mode: Wavelengths
Number of Pixels in Spectrum: 3648
>>>>>Begin Spectral Data<<<<<
178.204	-72.87
178.424	-72.87
178.644	-72.87
178.864	-115.88
179.084	-109.74
179.304	33.62
179.524	60.24
179.744	4.95
179.964	-9.39
180.184	-27.82
180.404	7
180.624	33.62
180.844	2.9
181.064	-23.72
181.283	-31.91
181.503	-38.06
181.723	-11.43
181.943	15.19
182.163	60.24
182.383	37.72
182.602	-3.24
182.822	86.87
183.042	37.72
183.262	-27.82
183.482	66.39
183.701	11.09
183.921	25.43
184.141	62.29
184.361	158.55
184.58	-11.43
184.8	58.2
185.02	86.87
185.239	60.24
185.459	109.4
185.679	129.88
185.898	74.58
186.118	-11.43
186.338	27.48
186.557	33.62
186.777	58.2
186.997	90.96
187.216	9.05
187.436	127.83
187.655	107.35
187.875	64.34
188.095	-40.11
188.314	127.83
188.534	54.1
188.753	15.19
188.973	-5.29
189.192	123.73
189.412	27.48
189.631	88.92
189.851	21.33
190.07	70.48
190.29	0.85
190.509	-3.24
190.729	9.05
190.948	62.29
191.168	162.64
191.387	93.01
191.607	33.62
191.826	60.24
192.045	33.62
192.265	31.57
192.484	25.43
192.704	-5.29
192.923	31.57
193.142	109.4
193.362	17.24
193.581	45.91
193.8	47.96
194.02	101.2
194.239	11.09
194.458	74.58
194.678	23.38
194.897	74.58
195.116	47.96
195.335	17.24
195.555	105.3
195.774	-7.34
195.993	72.53
196.212	107.35
196.432	-1.19
196.651	60.24
196.87	21.33
197.089	62.29
197.308	88.92
197.528	31.57
197.747	-3.24
197.966	95.06
198.185	80.72
198.404	39.76
198.623	82.77
198.842	70.48
199.062	52.05
199.281	68.44
199.5	-29.87
199.719	29.52
199.938	76.63
200.157	52.05
200.376	107.35
200.595	189.27
200.814	52.05
201.033	27.48
201.252	41.81
201.471	-1.19
201.69	129.88
201.909	-3.24
202.128	-40.11
202.347	80.72
202.566	68.44
202.785	43.86
203.004	-21.67
203.223	54.1
203.442	62.29
203.661	-11.43
203.879	84.82
204.098	41.81
204.317	-21.67
204.536	47.96
204.755	47.96
204.974	25.43
205.193	50
205.411	99.16
205.63	31.57
205.849	113.49
206.068	31.57
206.287	68.44
206.505	35.67
206.724	90.96
206.943	50
207.162	19.29
207.381	68.44
207.599	50
207.818	9.05
208.037	50
208.255	7
208.474	31.57
208.693	76.63
208.911	119.64
209.13	43.86
209.349	119.64
209.567	78.68
209.786	47.96
210.005	105.3
210.223	80.72
210.442	-33.96
210.661	25.43
210.879	13.14
211.098	33.62
211.316	50
211.535	47.96
211.753	23.38
211.972	11.09
212.191	47.96
212.409	133.97
212.628	-11.43
212.846	37.72
213.065	52.05
213.283	101.2
213.502	-9.39
213.72	15.19
213.938	60.24
214.157	19.29
214.375	140.12
214.594	-1.19
214.812	140.12
215.031	45.91
215.249	66.39
215.467	27.48
215.686	31.57
215.904	101.2
216.122	60.24
216.341	47.96
216.559	66.39
216.778	43.86
216.996	82.77
217.214	68.44
217.432	0.85
217.651	17.24
217.869	-19.63
218.087	72.53
218.306	31.57
218.524	86.87
218.742	21.33
218.96	43.86
219.179	43.86
219.397	13.14
219.615	166.74
219.833	39.76
220.051	2.9
220.27	17.24
220.488	54.1
220.706	41.81
220.924	0.85
221.142	17.24
221.36	15.19
221.578	52.05
221.796	27.48
222.015	56.15
222.233	29.52
222.451	88.92
222.669	-36.01
222.887	66.39
223.105	15.19
223.323	17.24
223.541	47.96
223.759	68.44
223.977	84.82
224.195	62.29
224.413	72.53
224.631	41.81
224.849	72.53
225.067	86.87
225.285	47.96
225.503	62.29
225.721	50
225.939	43.86
226.157	0.85
226.375	101.2
226.592	23.38
226.81	19.29
227.028	50
227.246	142.16
227.464	21.33
227.682	27.48
227.9	47.96
228.117	35.67
228.335	11.09
228.553	47.96
228.771	15.19
228.989	80.72
229.206	54.1
229.424	37.72
229.642	37.72
229.86	52.05
230.077	52.05
230.295	-23.72
230.513	68.44
230.731	39.76
230.948	2.9
231.166	64.34
231.384	103.25
231.601	35.67
231.819	101.2
232.037	-5.29
232.254	-38.06
232.472	-19.63
232.689	84.82
232.907	131.92
233.125	82.77
233.342	-5.29
233.56	11.09
233.777	29.52
233.995	4.95
234.213	144.21
234.43	72.53
234.648	4.95
234.865	54.1
235.083	80.72
235.3	54.1
235.518	68.44
235.735	7
235.953	41.81
236.17	33.62
236.388	17.24
236.605	78.68
236.822	35.67
237.04	47.96
237.257	-17.58
237.475	-23.72
237.692	25.43
237.909	2.9
238.127	27.48
238.344	29.52
238.562	72.53
238.779	-44.2
238.996	-27.82
239.214	-1.19
239.431	72.53
239.648	39.76
239.865	17.24
240.083	35.67
240.3	76.63
240.517	-9.39
240.735	84.82
240.952	82.77
241.169	72.53
241.386	37.72
241.603	11.09
241.821	27.48
242.038	60.24
242.255	115.54
242.472	-62.63
242.689	-21.67
242.907	82.77
243.124	29.52
243.341	-23.72
243.558	41.81
243.775	80.72
243.992	-21.67
244.209	97.11
244.426	121.68
244.643	74.58
244.86	11.09
245.078	60.24
245.295	56.15
245.512	90.96
245.729	19.29
245.946	119.64
246.163	47.96
246.38	82.77
246.597	-1.19
246.814	78.68
247.031	70.48
247.248	-1.19
247.464	154.45
247.681	17.24
247.898	76.63
248.115	86.87
248.332	93.01
248.549	62.29
248.766	152.4
248.983	72.53
249.2	33.62
249.417	70.48
249.633	43.86
249.85	-17.58
250.067	-33.96
250.284	0.85
250.501	74.58
250.717	13.14
250.934	7
251.151	68.44
251.368	0.85
251.585	-17.58
251.801	119.64
252.018	68.44
252.235	131.92
252.451	78.68
252.668	29.52
252.885	-7.34
253.102	39.76
253.318	93.01
253.535	45.91
253.752	33.62
253.968	-9.39
254.185	-48.3
254.401	43.86
254.618	15.19
254.835	7
255.051	76.63
255.268	84.82
255.484	4.95
255.701	-23.72
255.917	72.53
256.134	-3.24
256.351	43.86
256.567	43.86
256.784	72.53
257	-64.68
257.217	84.82
257.433	76.63
257.65	123.73
257.866	58.2
258.082	-3.24
258.299	64.34
258.515	60.24
258.732	62.29
258.948	58.2
259.165	72.53
259.381	-15.53
259.597	66.39
259.814	-29.87
260.03	2.9
260.246	19.29
260.463	-19.63
260.679	19.29
260.895	45.91
261.112	41.81
261.328	37.72
261.544	47.96
261.761	121.68
261.977	80.72
262.193	-42.15
262.409	-3.24
262.626	17.24
262.842	62.29
263.058	-40.11
263.274	78.68
263.49	62.29
263.707	80.72
263.923	50
264.139	39.76
264.355	72.53
264.571	93.01
264.787	88.92
265.004	105.3
265.22	9.05
265.436	29.52
265.652	7
265.868	19.29
266.084	45.91
266.3	31.57
266.516	-13.48
266.732	107.35
266.948	68.44
267.164	58.2
267.38	101.2
267.596	39.76
267.812	95.06
268.028	33.62
268.244	64.34
268.46	31.57
268.676	37.72
268.892	54.1
269.108	23.38
269.324	29.52
269.54	-3.24
269.756	74.58
269.972	31.57
270.188	2.9
270.403	56.15
270.619	4.95
270.835	58.2
271.051	45.91
271.267	43.86
271.483	-11.43
271.698	52.05
271.914	19.29
272.13	68.44
272.346	72.53
272.562	-13.48
272.777	88.92
272.993	47.96
273.209	39.76
273.425	168.79
273.64	0.85
273.856	97.11
274.072	-5.29
274.287	7
274.503	82.77
274.719	88.92
274.934	88.92
275.15	-42.15
275.366	58.2
275.581	17.24
275.797	58.2
276.012	60.24
276.228	39.76
276.444	76.63
276.659	47.96
276.875	33.62
277.09	56.15
277.306	56.15
277.521	58.2
277.737	80.72
277.952	78.68
278.168	64.34
278.383	72.53
278.599	56.15
278.814	133.97
279.03	17.24
279.245	68.44
279.461	64.34
279.676	158.55
279.892	80.72
280.107	-50.35
280.322	-11.43
280.538	125.78
280.753	50
280.969	27.48
281.184	97.11
281.399	162.64
281.615	95.06
281.83	43.86
282.045	101.2
282.26	-31.91
282.476	84.82
282.691	21.33
282.906	-9.39
283.122	43.86
283.337	25.43
283.552	29.52
283.767	25.43
283.983	29.52
284.198	21.33
284.413	117.59
284.628	-9.39
284.843	23.38
285.058	52.05
285.274	47.96
285.489	-1.19
285.704	101.2
285.919	52.05
286.134	66.39
286.349	62.29
286.564	19.29
286.779	58.2
286.995	35.67
287.21	-40.11
287.425	41.81
287.64	2.9
287.855	76.63
288.07	4.95
288.285	93.01
288.5	60.24
288.715	47.96
288.93	21.33
289.145	9.05
289.36	21.33
289.575	68.44
289.79	70.48
290.004	21.33
290.219	25.43
290.434	35.67
290.649	76.63
290.864	29.52
291.079	4.95
291.294	68.44
291.509	97.11
291.724	158.55
291.938	121.68
292.153	80.72
292.368	-11.43
292.583	45.91
292.798	64.34
293.012	29.52
293.227	117.59
293.442	-19.63
293.657	72.53
293.871	45.91
294.086	117.59
294.301	35.67
294.516	129.88
294.73	0.85
294.945	0.85
295.16	41.81
295.374	78.68
295.589	72.53
295.804	0.85
296.018	62.29
296.233	97.11
296.447	-25.77
296.662	41.81
296.877	103.25
297.091	33.62
297.306	29.52
297.52	66.39
297.735	62.29
297.949	23.38
298.164	13.14
298.378	88.92
298.593	11.09
298.807	50
299.022	37.72
299.236	90.96
299.451	4.95
299.665	-38.06
299.88	23.38
300.094	43.86
300.309	45.91
300.523	0.85
300.737	62.29
300.952	11.09
301.166	66.39
301.381	33.62
301.595	43.86
301.809	4.95
302.024	47.96
302.238	33.62
302.452	119.64
302.667	31.57
302.881	50
303.095	52.05
303.309	95.06
303.524	37.72
303.738	111.44
303.952	27.48
304.166	9.05
304.381	-56.49
304.595	84.82
304.809	-11.43
305.023	47.96
305.237	60.24
305.452	68.44
305.666	82.77
305.88	50
306.094	21.33
306.308	7
306.522	25.43
306.736	78.68
306.95	105.3
307.164	43.86
307.379	9.05
307.593	62.29
307.807	95.06
308.021	111.44
308.235	17.24
308.449	-23.72
308.663	13.14
308.877	140.12
309.091	-52.39
309.305	70.48
309.519	4.95
309.733	66.39
309.947	-5.29
310.161	66.39
310.374	105.3
310.588	68.44
310.802	-13.48
311.016	82.77
311.23	54.1
311.444	60.24
311.658	-17.58
311.872	43.86
312.085	82.77
312.299	64.34
312.513	17.24
312.727	43.86
312.941	60.24
313.154	64.34
313.368	37.72
313.582	109.4
313.796	74.58
314.009	72.53
314.223	64.34
314.437	115.54
314.651	68.44
314.864	21.33
315.078	19.29
315.292	60.24
315.505	50
315.719	93.01
315.933	62.29
316.146	43.86
316.36	-1.19
316.573	129.88
316.787	56.15
317.001	29.52
317.214	4.95
317.428	29.52
317.641	-3.24
317.855	99.16
318.068	41.81
318.282	78.68
318.495	82.77
318.709	68.44
318.922	35.67
319.136	113.49
319.349	97.11
319.563	60.24
319.776	52.05
319.99	78.68
320.203	111.44
320.417	80.72
320.63	54.1
320.843	101.2
321.057	19.29
321.27	78.68
321.483	45.91
321.697	62.29
321.91	95.06
322.124	111.44
322.337	23.38
322.55	9.05
322.763	58.2
322.977	88.92
323.19	70.48
323.403	50
323.617	39.76
323.83	0.85
324.043	-1.19
324.256	60.24
324.469	2.9
324.683	72.53
324.896	9.05
325.109	82.77
325.322	47.96
325.535	64.34
325.748	125.78
325.962	39.76
326.175	93.01
326.388	50
326.601	41.81
326.814	78.68
327.027	11.09
327.24	156.5
327.453	13.14
327.666	64.34
327.879	66.39
328.092	64.34
328.305	62.29
328.518	23.38
328.731	-29.87
328.944	107.35
329.157	86.87
329.37	37.72
329.583	136.02
329.796	164.69
330.009	37.72
330.222	66.39
330.435	107.35
330.648	50
330.861	50
331.073	115.54
331.286	43.86
331.499	60.24
331.712	-1.19
331.925	64.34
332.138	19.29
332.35	60.24
332.563	52.05
332.776	74.58
332.989	54.1
333.202	2.9
333.414	25.43
333.627	27.48
333.84	101.2
334.053	29.52
334.265	9.05
334.478	58.2
334.691	64.34
334.903	31.57
335.116	19.29
335.329	95.06
335.541	35.67
335.754	39.76
335.966	60.24
336.179	84.82
336.392	99.16
336.604	27.48
336.817	35.67
337.029	125.78
337.242	101.2
337.454	113.49
337.667	37.72
337.88	84.82
338.092	60.24
338.305	78.68
338.517	58.2
338.729	90.96
338.942	117.59
339.154	58.2
339.367	35.67
339.579	76.63
339.792	-40.11
340.004	115.54
340.217	-46.25
340.429	-3.24
340.641	-1.19
340.854	17.24
341.066	-27.82
341.278	103.25
341.491	103.25
341.703	76.63
341.915	15.19
342.128	-13.48
342.34	103.25
342.552	-7.34
342.764	86.87
342.977	54.1
343.189	62.29
343.401	37.72
343.613	35.67
343.826	29.52
344.038	72.53
344.25	119.64
344.462	56.15
344.674	-13.48
344.886	7
345.099	39.76
345.311	70.48
345.523	56.15
345.735	56.15
345.947	138.07
346.159	93.01
346.371	21.33
346.583	52.05
346.795	111.44
347.007	140.12
347.219	50
347.431	31.57
347.643	62.29
347.855	4.95
348.067	70.48
348.279	4.95
348.491	-40.11
348.703	129.88
348.915	2.9
349.127	58.2
349.339	31.57
349.551	50
349.763	52.05
349.975	4.95
350.187	129.88
350.399	80.72
350.61	109.4
350.822	54.1
351.034	33.62
351.246	72.53
351.458	56.15
351.669	95.06
351.881	131.92
352.093	95.06
352.305	68.44
352.517	47.96
352.728	107.35
352.94	27.48
353.152	-5.29
353.363	11.09
353.575	62.29
353.787	123.73
353.999	-9.39
354.21	99.16
354.422	58.2
354.633	68.44
354.845	68.44
355.057	60.24
355.268	133.97
355.48	76.63
355.692	45.91
355.903	45.91
356.115	9.05
356.326	-42.15
356.538	35.67
356.749	66.39
356.961	68.44
357.172	19.29
357.384	21.33
357.595	136.02
357.807	35.67
358.018	-46.25
358.23	25.43
358.441	72.53
358.653	88.92
358.864	68.44
359.075	-7.34
359.287	146.26
359.498	113.49
359.709	93.01
359.921	45.91
360.132	107.35
360.344	99.16
360.555	86.87
360.766	41.81
360.977	21.33
361.189	58.2
361.4	29.52
361.611	113.49
361.823	127.83
362.034	62.29
362.245	4.95
362.456	47.96
362.667	74.58
362.879	9.05
363.09	78.68
363.301	70.48
363.512	45.91
363.723	33.62
363.935	54.1
364.146	103.25
364.357	78.68
364.568	82.77
364.779	-7.34
364.99	131.92
365.201	35.67
365.412	29.52
365.623	39.76
365.834	84.82
366.045	45.91
366.256	60.24
366.467	109.4
366.678	107.35
366.889	4.95
367.1	11.09
367.311	-15.53
367.522	64.34
367.733	80.72
367.944	142.16
368.155	103.25
368.366	140.12
368.577	50
368.788	82.77
368.999	37.72
369.209	43.86
369.42	174.93
369.631	111.44
369.842	47.96
370.053	52.05
370.264	4.95
370.474	17.24
370.685	119.64
370.896	13.14
371.107	62.29
371.317	29.52
371.528	47.96
371.739	146.26
371.95	62.29
372.16	86.87
372.371	-9.39
372.582	74.58
372.792	76.63
373.003	66.39
373.214	15.19
373.424	103.25
373.635	-1.19
373.846	50
374.056	70.48
374.267	37.72
374.477	56.15
374.688	86.87
374.898	-7.34
375.109	82.77
375.319	66.39
375.53	25.43
375.74	29.52
375.951	148.31
376.161	82.77
376.372	107.35
376.582	105.3
376.793	88.92
377.003	50
377.214	60.24
377.424	80.72
377.635	7
377.845	-13.48
378.055	99.16
378.266	-13.48
378.476	97.11
378.686	101.2
378.897	146.26
379.107	70.48
379.317	80.72
379.528	115.54
379.738	90.96
379.948	35.67
380.158	72.53
380.369	62.29
380.579	111.44
380.789	35.67
380.999	127.83
381.21	4.95
381.42	144.21
381.63	-15.53
381.84	45.91
382.05	84.82
382.261	148.31
382.471	58.2
382.681	50
382.891	136.02
383.101	70.48
383.311	76.63
383.521	-27.82
383.731	95.06
383.941	15.19
384.151	15.19
384.361	17.24
384.571	131.92
384.781	0.85
384.991	60.24
385.201	117.59
385.411	84.82
385.621	146.26
385.831	111.44
386.041	33.62
386.251	95.06
386.461	131.92
386.671	76.63
386.881	111.44
387.091	60.24
387.301	107.35
387.511	93.01
387.72	107.35
387.93	113.49
388.14	-25.77
388.35	97.11
388.56	115.54
388.769	123.73
388.979	19.29
389.189	4.95
389.399	60.24
389.609	43.86
389.818	72.53
390.028	86.87
390.238	82.77
390.447	66.39
390.657	115.54
390.867	-1.19
391.076	45.91
391.286	74.58
391.496	41.81
391.705	86.87
391.915	117.59
392.125	187.22
392.334	52.05
392.544	144.21
392.753	97.11
392.963	121.68
393.172	105.3
393.382	93.01
393.591	136.02
393.801	68.44
394.01	189.27
394.22	95.06
394.429	123.73
394.639	119.64
394.848	133.97
395.058	123.73
395.267	105.3
395.477	187.22
395.686	144.21
395.895	111.44
396.105	226.13
396.314	86.87
396.524	74.58
396.733	95.06
396.942	154.45
397.152	117.59
397.361	152.4
397.57	74.58
397.78	156.5
397.989	164.69
398.198	117.59
398.407	78.68
398.617	113.49
398.826	80.72
399.035	62.29
399.244	205.65
399.453	93.01
399.663	39.76
399.872	99.16
400.081	33.62
400.29	121.68
400.499	121.68
400.708	136.02
400.917	136.02
401.127	105.3
401.336	33.62
401.545	154.45
401.754	150.36
401.963	103.25
402.172	179.03
402.381	90.96
402.59	146.26
402.799	166.74
403.008	115.54
403.217	156.5
403.426	133.97
403.635	146.26
403.844	121.68
404.053	125.78
404.262	148.31
404.471	195.41
404.68	195.41
404.888	129.88
405.097	232.27
405.306	168.79
405.515	176.98
405.724	142.16
405.933	181.07
406.142	176.98
406.35	224.08
406.559	207.7
406.768	140.12
406.977	262.99
407.185	127.83
407.394	238.42
407.603	228.18
407.812	213.84
408.02	232.27
408.229	201.55
408.438	205.65
408.646	148.31
408.855	303.95
409.064	256.85
409.272	273.23
409.481	287.57
409.69	273.23
409.898	248.66
410.107	373.58
410.315	306
410.524	224.08
410.733	299.86
410.941	351.06
411.15	355.15
411.358	324.43
411.567	371.54
411.775	463.69
411.984	398.16
412.192	471.89
412.401	375.63
412.609	541.52
412.818	467.79
413.026	506.7
413.234	518.99
413.443	574.28
413.651	572.24
413.86	566.09
414.068	572.24
414.276	662.35
414.485	570.19
414.693	660.3
414.901	715.59
415.11	662.35
415.318	676.68
415.526	707.4
415.734	682.83
415.943	709.45
416.151	889.67
416.359	744.27
416.567	854.86
416.776	906.06
416.984	965.45
417.192	1018.69
417.4	1049.41
417.608	967.49
417.817	969.54
418.025	1065.8
418.233	1157.96
418.441	1055.56
418.649	1211.2
418.857	1254.21
419.065	1346.37
419.273	1258.31
419.481	1241.92
419.689	1475.39
419.897	1411.9
420.105	1592.13
420.313	1411.9
420.521	1575.74
420.729	1563.45
420.937	1624.89
421.145	1663.8
421.353	1846.07
421.561	1919.8
421.769	1901.37
421.977	1985.34
422.185	1948.47
422.393	2069.3
422.601	2169.65
422.809	2181.94
423.017	2241.33
423.224	2353.97
423.432	2374.45
423.64	2442.03
423.848	2716.46
424.056	2515.76
424.263	2698.03
424.471	2794.28
424.679	2872.11
424.887	2970.41
425.094	2958.12
425.302	3085.09
425.51	3177.25
425.718	3246.88
425.925	3511.07
426.133	3615.52
426.341	3646.24
426.548	3814.17
426.756	3830.55
426.964	3947.29
427.171	4143.89
427.379	4229.91
427.586	4383.51
427.794	4356.88
428.001	4504.34
428.209	4690.7
428.417	4694.8
428.624	5124.87
428.832	5057.29
429.039	5020.42
429.247	5229.32
429.454	5595.9
429.662	5841.66
429.869	5538.56
430.076	5933.82
430.284	5845.76
430.491	5939.96
430.699	6361.84
430.906	6388.47
431.114	6400.76
431.321	6656.75
431.528	6841.07
431.736	7230.18
431.943	7365.35
432.15	7336.68
432.358	7502.56
432.565	7813.85
432.772	7742.18
432.979	8323.8
433.187	8370.9
433.394	8346.33
433.601	8827.6
433.808	9136.84
434.016	8915.66
434.223	9427.65
434.43	9687.75
434.637	9556.68
434.844	10484.41
435.052	10386.1
435.259	10513.08
435.466	10508.98
435.673	10324.66
435.88	11115.18
436.087	11649.7
436.294	11633.32
436.501	11438.76
436.708	11610.79
436.915	12253.85
437.122	12528.28
437.329	12591.77
437.537	13064.85
437.743	13253.26
437.95	13060.75
438.157	13789.83
438.364	14262.91
438.571	14199.42
438.778	14320.25
438.985	15463.02
439.192	14862.96
439.399	15542.89
439.606	15067.76
439.813	15792.74
440.02	17019.47
440.227	16585.3
440.433	16585.3
440.64	17154.64
440.847	16929.36
441.054	17330.76
441.261	18573.88
441.467	18352.7
441.674	18852.41
441.881	19477.04
442.088	19223.09
442.294	19251.76
442.501	19720.74
442.708	20238.88
442.914	20877.85
443.121	21969.41
443.328	21525
443.534	22774.27
443.741	22024.71
443.948	21754.38
444.154	23149.04
444.361	23316.98
444.568	23415.28
444.774	23591.41
444.981	23851.5
445.187	24416.74
445.394	25244.12
445.6	25070.04
445.807	27232.69
446.013	26524.1
446.22	26468.8
446.426	27736.49
446.633	28039.59
446.839	28832.16
447.046	27695.53
447.252	29311.38
447.459	29407.64
447.665	29333.91
447.871	30749.06
448.078	31959.41
448.284	30204.3
448.491	31476.09
448.697	32604.52
448.903	32690.53
449.11	33012.06
449.316	32670.05
449.522	32907.62
449.728	34142.54
449.935	34265.42
450.141	34326.86
450.347	35066.17
450.553	33962.32
450.76	34107.72
450.966	35713.33
451.172	35244.35
451.378	35942.7
451.584	35311.93
451.791	36276.52
451.997	35703.09
452.203	36735.27
452.409	36602.15
452.615	36188.46
452.821	34978.11
453.027	34969.92
453.233	36553
453.44	34992.45
453.646	35744.05
453.852	35488.06
454.058	36540.71
454.264	35037.5
454.47	35852.59
454.676	35090.75
454.882	36221.23
455.088	33096.03
455.294	33392.98
455.5	33915.22
455.705	34341.19
455.911	33194.33
456.117	32622.95
456.323	32004.46
456.529	30472.58
456.735	31621.49
456.941	30570.88
457.147	30116.23
457.352	29213.08
457.558	28922.27
457.764	29032.86
457.97	28451.24
458.176	28019.11
458.381	27670.96
458.587	26399.17
458.793	26446.27
458.999	25137.62
459.204	26862.01
459.41	26343.88
459.616	24355.3
459.821	24226.28
460.027	24148.45
460.233	23978.47
460.438	22942.2
460.644	22870.52
460.85	22112.77
461.055	21639.69
461.261	21443.09
461.466	20189.73
461.672	19403.31
461.878	20892.18
462.083	19354.16
462.289	18915.89
462.494	18874.93
462.7	17910.34
462.905	17666.63
463.111	17912.39
463.316	18018.88
463.522	17877.57
463.727	17609.29
463.932	17785.41
464.138	17492.55
464.343	17691.21
464.549	16935.51
464.754	17402.44
464.959	17637.96
465.165	17515.08
465.37	16691.8
465.575	16413.27
465.781	16894.55
465.986	16829.01
466.191	16599.64
466.397	16048.74
466.602	15229.55
466.807	15710.82
467.012	16122.46
467.218	15696.49
467.423	15821.41
467.628	15467.11
467.833	16058.98
468.038	15501.93
