Data from USB4F104151__40__12-23-52-439.txt Node

Date: Fri Mar 14 12:23:52 EDT 2025
User: louis
Spectrometer: USB4F10415
Trigger mode: 4
Integration Time (sec): 3.500000E-2
Scans to average: 1
Electric dark correction enabled: true
Nonlinearity correction enabled: false
Boxcar width: 0
XAxis mode: Wavelengths
Number of Pixels in Spectrum: 3648
>>>>>Begin Spectral Data<<<<<
178.204	-155.82
178.424	-155.82
178.644	-155.82
178.864	-47.27
179.084	-159.91
179.304	-10.41
179.524	26.45
179.744	46.93
179.964	32.6
180.184	-41.13
180.404	-4.27
180.624	5.97
180.844	8.02
181.064	-51.37
181.283	34.64
181.503	-22.7
181.723	-24.75
181.943	-73.9
182.163	94.04
182.383	26.45
182.602	34.64
182.822	24.4
183.042	61.27
183.262	20.31
183.482	-8.36
183.701	-43.18
183.921	48.98
184.141	-32.94
184.361	137.04
184.58	12.12
184.8	42.84
185.02	-32.94
185.239	38.74
185.459	34.64
185.679	132.95
185.898	-2.22
186.118	116.56
186.338	22.36
186.557	139.09
186.777	32.6
186.997	81.75
187.216	18.26
187.436	153.43
187.655	67.41
187.875	51.03
188.095	22.36
188.314	98.13
188.534	85.84
188.753	-2.22
188.973	24.4
189.192	65.36
189.412	46.93
189.631	26.45
189.851	36.69
190.07	46.93
190.29	36.69
190.509	48.98
190.729	-4.27
190.948	126.8
191.168	157.52
191.387	67.41
191.607	1.88
191.826	38.74
192.045	81.75
192.265	42.84
192.484	20.31
192.704	32.6
192.923	-12.46
193.142	57.17
193.362	110.42
193.581	112.47
193.8	69.46
194.02	69.46
194.239	46.93
194.458	55.12
194.678	3.93
194.897	26.45
195.116	42.84
195.335	28.5
195.555	48.98
195.774	-10.41
195.993	12.12
196.212	16.21
196.432	-26.79
196.651	-6.31
196.87	-0.17
197.089	85.84
197.308	100.18
197.528	85.84
197.747	-41.13
197.966	65.36
198.185	42.84
198.404	30.55
198.623	26.45
198.842	53.08
199.062	96.08
199.281	71.51
199.5	34.64
199.719	-16.55
199.938	30.55
200.157	137.04
200.376	34.64
200.595	28.5
200.814	22.36
201.033	-45.23
201.252	55.12
201.471	-0.17
201.69	87.89
201.909	96.08
202.128	98.13
202.347	8.02
202.566	-24.75
202.785	8.02
203.004	22.36
203.223	126.8
203.442	34.64
203.661	-14.51
203.879	44.88
204.098	53.08
204.317	38.74
204.536	53.08
204.755	55.12
204.974	42.84
205.193	48.98
205.411	71.51
205.63	-24.75
205.849	114.52
206.068	61.27
206.287	-20.65
206.505	8.02
206.724	28.5
206.943	30.55
207.162	22.36
207.381	34.64
207.599	8.02
207.818	32.6
208.037	18.26
208.255	34.64
208.474	81.75
208.693	30.55
208.911	-47.27
209.13	22.36
209.349	83.8
209.567	53.08
209.786	57.17
210.005	44.88
210.223	42.84
210.442	-18.6
210.661	-22.7
210.879	-30.89
211.098	24.4
211.316	57.17
211.535	141.14
211.753	59.22
211.972	16.21
212.191	26.45
212.409	30.55
212.628	51.03
212.846	-24.75
213.065	51.03
213.283	59.22
213.502	75.6
213.72	38.74
213.938	-24.75
214.157	46.93
214.375	22.36
214.594	83.8
214.812	-6.31
215.031	-34.99
215.249	5.97
215.467	44.88
215.686	94.04
215.904	46.93
216.122	34.64
216.341	77.65
216.559	61.27
216.778	79.7
216.996	32.6
217.214	-41.13
217.432	-6.31
217.651	-10.41
217.869	85.84
218.087	-14.51
218.306	-10.41
218.524	16.21
218.742	5.97
218.96	118.61
219.179	1.88
219.397	46.93
219.615	77.65
219.833	38.74
220.051	-28.84
220.27	40.79
220.488	-6.31
220.706	26.45
220.924	-6.31
221.142	-26.79
221.36	40.79
221.578	46.93
221.796	8.02
222.015	87.89
222.233	26.45
222.451	34.64
222.669	14.17
222.887	-28.84
223.105	34.64
223.323	-28.84
223.541	8.02
223.759	98.13
223.977	30.55
224.195	73.56
224.413	104.28
224.631	104.28
224.849	63.32
225.067	36.69
225.285	53.08
225.503	44.88
225.721	-71.85
225.939	98.13
226.157	51.03
226.375	180.05
226.592	3.93
226.81	44.88
227.028	24.4
227.246	102.23
227.464	40.79
227.682	-0.17
227.9	26.45
228.117	-0.17
228.335	87.89
228.553	51.03
228.771	22.36
228.989	91.99
229.206	18.26
229.424	-8.36
229.642	69.46
229.86	59.22
230.077	16.21
230.295	48.98
230.513	71.51
230.731	106.32
230.948	79.7
231.166	61.27
231.384	-22.7
231.601	61.27
231.819	63.32
232.037	44.88
232.254	-67.75
232.472	-10.41
232.689	-6.31
232.907	63.32
233.125	24.4
233.342	16.21
233.56	-77.99
233.777	20.31
233.995	18.26
234.213	106.32
234.43	8.02
234.648	18.26
234.865	79.7
235.083	75.6
235.3	20.31
235.518	14.17
235.735	89.94
235.953	28.5
236.17	28.5
236.388	71.51
236.605	24.4
236.822	42.84
237.04	30.55
237.257	34.64
237.475	71.51
237.692	16.21
237.909	-0.17
238.127	-10.41
238.344	28.5
238.562	73.56
238.779	3.93
238.996	16.21
239.214	-12.46
239.431	102.23
239.648	20.31
239.865	89.94
240.083	106.32
240.3	-10.41
240.517	116.56
240.735	-16.55
240.952	63.32
241.169	73.56
241.386	73.56
241.603	20.31
241.821	-16.55
242.038	24.4
242.255	48.98
242.472	-53.42
242.689	94.04
242.907	79.7
243.124	-18.6
243.341	14.17
243.558	28.5
243.775	18.26
243.992	89.94
244.209	51.03
244.426	57.17
244.643	51.03
244.86	26.45
245.078	20.31
245.295	65.36
245.512	18.26
245.729	16.21
245.946	14.17
246.163	110.42
246.38	91.99
246.597	20.31
246.814	42.84
247.031	20.31
247.248	67.41
247.464	22.36
247.681	38.74
247.898	24.4
248.115	36.69
248.332	40.79
248.549	44.88
248.766	32.6
248.983	57.17
249.2	40.79
249.417	94.04
249.633	69.46
249.85	-16.55
250.067	32.6
250.284	75.6
250.501	120.66
250.717	96.08
250.934	10.07
251.151	63.32
251.368	18.26
251.585	32.6
251.801	59.22
252.018	32.6
252.235	30.55
252.451	12.12
252.668	-24.75
252.885	57.17
253.102	51.03
253.318	36.69
253.535	1.88
253.752	38.74
253.968	10.07
254.185	16.21
254.401	-8.36
254.618	114.52
254.835	63.32
255.051	5.97
255.268	-49.32
255.484	38.74
255.701	3.93
255.917	57.17
256.134	-22.7
256.351	40.79
256.567	32.6
256.784	-43.18
257	-26.79
257.217	10.07
257.433	59.22
257.65	1.88
257.866	79.7
258.082	-39.08
258.299	71.51
258.515	63.32
258.732	-75.95
258.948	-18.6
259.165	67.41
259.381	5.97
259.597	79.7
259.814	51.03
260.03	18.26
260.246	-32.94
260.463	157.52
260.679	16.21
260.895	73.56
261.112	28.5
261.328	44.88
261.544	57.17
261.761	85.84
261.977	-24.75
262.193	40.79
262.409	63.32
262.626	5.97
262.842	30.55
263.058	85.84
263.274	46.93
263.49	28.5
263.707	30.55
263.923	73.56
264.139	-12.46
264.355	67.41
264.571	124.76
264.787	24.4
265.004	149.33
265.22	24.4
265.436	-0.17
265.652	61.27
265.868	61.27
266.084	-0.17
266.3	77.65
266.516	-18.6
266.732	118.61
266.948	44.88
267.164	100.18
267.38	12.12
267.596	83.8
267.812	61.27
268.028	-8.36
268.244	-30.89
268.46	120.66
268.676	14.17
268.892	91.99
269.108	28.5
269.324	-30.89
269.54	8.02
269.756	126.8
269.972	5.97
270.188	65.36
270.403	-0.17
270.619	44.88
270.835	85.84
271.051	-30.89
271.267	8.02
271.483	30.55
271.698	57.17
271.914	91.99
272.13	38.74
272.346	10.07
272.562	53.08
272.777	98.13
272.993	36.69
273.209	-14.51
273.425	55.12
273.64	30.55
273.856	28.5
274.072	-8.36
274.287	51.03
274.503	8.02
274.719	48.98
274.934	75.6
275.15	-8.36
275.366	71.51
275.581	-10.41
275.797	53.08
276.012	55.12
276.228	46.93
276.444	-2.22
276.659	91.99
276.875	12.12
277.09	77.65
277.306	85.84
277.521	79.7
277.737	8.02
277.952	122.71
278.168	28.5
278.383	57.17
278.599	-10.41
278.814	-0.17
279.03	-2.22
279.245	87.89
279.461	18.26
279.676	85.84
279.892	-59.56
280.107	-2.22
280.322	30.55
280.538	3.93
280.753	87.89
280.969	16.21
281.184	3.93
281.399	57.17
281.615	-26.79
281.83	38.74
282.045	48.98
282.26	-0.17
282.476	51.03
282.691	112.47
282.906	55.12
283.122	48.98
283.337	85.84
283.552	96.08
283.767	30.55
283.983	81.75
284.198	61.27
284.413	-4.27
284.628	-26.79
284.843	71.51
285.058	18.26
285.274	-8.36
285.489	-6.31
285.704	46.93
285.919	40.79
286.134	57.17
286.349	77.65
286.564	48.98
286.779	96.08
286.995	75.6
287.21	-2.22
287.425	53.08
287.64	85.84
287.855	69.46
288.07	-0.17
288.285	91.99
288.5	120.66
288.715	108.37
288.93	32.6
289.145	38.74
289.36	-10.41
289.575	55.12
289.79	71.51
290.004	24.4
290.219	77.65
290.434	-10.41
290.649	10.07
290.864	14.17
291.079	32.6
291.294	-2.22
291.509	42.84
291.724	14.17
291.938	1.88
292.153	116.56
292.368	-41.13
292.583	26.45
292.798	40.79
293.012	30.55
293.227	-22.7
293.442	67.41
293.657	91.99
293.871	81.75
294.086	26.45
294.301	143.19
294.516	112.47
294.73	67.41
294.945	-2.22
295.16	42.84
295.374	139.09
295.589	96.08
295.804	22.36
296.018	71.51
296.233	44.88
296.447	69.46
296.662	24.4
296.877	59.22
297.091	44.88
297.306	38.74
297.52	28.5
297.735	14.17
297.949	-28.84
298.164	32.6
298.378	98.13
298.593	36.69
298.807	22.36
299.022	73.56
299.236	-4.27
299.451	32.6
299.665	22.36
299.88	38.74
300.094	147.28
300.309	94.04
300.523	73.56
300.737	-18.6
300.952	61.27
301.166	42.84
301.381	-0.17
301.595	-2.22
301.809	16.21
302.024	38.74
302.238	10.07
302.452	53.08
302.667	73.56
302.881	48.98
303.095	28.5
303.309	55.12
303.524	63.32
303.738	28.5
303.952	-4.27
304.166	51.03
304.381	10.07
304.595	28.5
304.809	10.07
305.023	16.21
305.237	61.27
305.452	26.45
305.666	40.79
305.88	75.6
306.094	98.13
306.308	59.22
306.522	135
306.736	108.37
306.95	34.64
307.164	44.88
307.379	40.79
307.593	81.75
307.807	-8.36
308.021	108.37
308.235	55.12
308.449	-8.36
308.663	20.31
308.877	151.38
309.091	71.51
309.305	32.6
309.519	10.07
309.733	89.94
309.947	-32.94
310.161	48.98
310.374	73.56
310.588	57.17
310.802	32.6
311.016	8.02
311.23	-8.36
311.444	38.74
311.658	-4.27
311.872	67.41
312.085	98.13
312.299	120.66
312.513	75.6
312.727	91.99
312.941	53.08
313.154	-6.31
313.368	89.94
313.582	30.55
313.796	128.85
314.009	67.41
314.223	36.69
314.437	91.99
314.651	48.98
314.864	5.97
315.078	28.5
315.292	28.5
315.505	71.51
315.719	77.65
315.933	87.89
316.146	8.02
316.36	22.36
316.573	110.42
316.787	104.28
317.001	48.98
317.214	112.47
317.428	28.5
317.641	18.26
317.855	36.69
318.068	34.64
318.282	46.93
318.495	122.71
318.709	14.17
318.922	-28.84
319.136	114.52
319.349	-14.51
319.563	16.21
319.776	61.27
319.99	42.84
320.203	65.36
320.417	94.04
320.63	63.32
320.843	137.04
321.057	46.93
321.27	63.32
321.483	26.45
321.697	57.17
321.91	79.7
322.124	-18.6
322.337	106.32
322.55	-24.75
322.763	98.13
322.977	67.41
323.19	-12.46
323.403	10.07
323.617	91.99
323.83	94.04
324.043	36.69
324.256	32.6
324.469	5.97
324.683	171.86
324.896	57.17
325.109	12.12
325.322	-34.99
325.535	126.8
325.748	3.93
325.962	12.12
326.175	69.46
326.388	26.45
326.601	75.6
326.814	3.93
327.027	46.93
327.24	69.46
327.453	18.26
327.666	48.98
327.879	108.37
328.092	-14.51
328.305	48.98
328.518	34.64
328.731	36.69
328.944	67.41
329.157	83.8
329.37	20.31
329.583	91.99
329.796	32.6
330.009	16.21
330.222	34.64
330.435	57.17
330.648	-4.27
330.861	-41.13
331.073	32.6
331.286	46.93
331.499	3.93
331.712	8.02
331.925	98.13
332.138	26.45
332.35	71.51
332.563	69.46
332.776	75.6
332.989	-20.65
333.202	114.52
333.414	-16.55
333.627	57.17
333.84	-57.51
334.053	42.84
334.265	57.17
334.478	40.79
334.691	87.89
334.903	98.13
335.116	3.93
335.329	24.4
335.541	61.27
335.754	96.08
335.966	38.74
336.179	69.46
336.392	36.69
336.604	44.88
336.817	61.27
337.029	75.6
337.242	22.36
337.454	126.8
337.667	51.03
337.88	30.55
338.092	73.56
338.305	32.6
338.517	16.21
338.729	106.32
338.942	32.6
339.154	-8.36
339.367	20.31
339.579	28.5
339.792	53.08
340.004	71.51
340.217	44.88
340.429	28.5
340.641	38.74
340.854	122.71
341.066	8.02
341.278	46.93
341.491	100.18
341.703	34.64
341.915	12.12
342.128	73.56
342.34	61.27
342.552	10.07
342.764	38.74
342.977	8.02
343.189	106.32
343.401	81.75
343.613	-61.61
343.826	149.33
344.038	8.02
344.25	-0.17
344.462	32.6
344.674	53.08
344.886	57.17
345.099	18.26
345.311	1.88
345.523	51.03
345.735	63.32
345.947	51.03
346.159	20.31
346.371	61.27
346.583	51.03
346.795	143.19
347.007	46.93
347.219	57.17
347.431	-0.17
347.643	98.13
347.855	42.84
348.067	20.31
348.279	-43.18
348.491	51.03
348.703	8.02
348.915	34.64
349.127	32.6
349.339	44.88
349.551	-47.27
349.763	5.97
349.975	69.46
350.187	149.33
350.399	120.66
350.61	124.76
350.822	57.17
351.034	48.98
351.246	85.84
351.458	36.69
351.669	51.03
351.881	135
352.093	77.65
352.305	34.64
352.517	100.18
352.728	71.51
352.94	104.28
353.152	59.22
353.363	85.84
353.575	-67.75
353.787	155.47
353.999	65.36
354.21	126.8
354.422	65.36
354.633	-30.89
354.845	114.52
355.057	135
355.268	122.71
355.48	94.04
355.692	-43.18
355.903	42.84
356.115	22.36
356.326	-30.89
356.538	124.76
356.749	-34.99
356.961	165.71
357.172	63.32
357.384	30.55
357.595	178
357.807	34.64
358.018	42.84
358.23	48.98
358.441	143.19
358.653	20.31
358.864	3.93
359.075	85.84
359.287	53.08
359.498	38.74
359.709	126.8
359.921	26.45
360.132	57.17
360.344	26.45
360.555	-14.51
360.766	98.13
360.977	44.88
361.189	122.71
361.4	69.46
361.611	3.93
361.823	65.36
362.034	51.03
362.245	40.79
362.456	106.32
362.667	114.52
362.879	30.55
363.09	132.95
363.301	53.08
363.512	10.07
363.723	81.75
363.935	42.84
364.146	100.18
364.357	122.71
364.568	98.13
364.779	-51.37
364.99	137.04
365.201	-18.6
365.412	114.52
365.623	36.69
365.834	87.89
366.045	67.41
366.256	40.79
366.467	44.88
366.678	32.6
366.889	42.84
367.1	83.8
367.311	28.5
367.522	48.98
367.733	30.55
367.944	34.64
368.155	48.98
368.366	8.02
368.577	55.12
368.788	100.18
368.999	-10.41
369.209	26.45
369.42	91.99
369.631	196.43
369.842	14.17
370.053	30.55
370.264	114.52
370.474	65.36
370.685	94.04
370.896	67.41
371.107	108.37
371.317	16.21
371.528	34.64
371.739	69.46
371.95	14.17
372.16	102.23
372.371	-14.51
372.582	73.56
372.792	10.07
373.003	34.64
373.214	122.71
373.424	20.31
373.635	38.74
373.846	83.8
374.056	26.45
374.267	38.74
374.477	87.89
374.688	-4.27
374.898	38.74
375.109	75.6
375.319	24.4
375.53	28.5
375.74	67.41
375.951	26.45
376.161	85.84
376.372	16.21
376.582	36.69
376.793	104.28
377.003	48.98
377.214	100.18
377.424	137.04
377.635	48.98
377.845	89.94
378.055	69.46
378.266	10.07
378.476	26.45
378.686	73.56
378.897	28.5
379.107	24.4
379.317	20.31
379.528	-26.79
379.738	81.75
379.948	-22.7
380.158	98.13
380.369	53.08
380.579	38.74
380.789	77.65
380.999	67.41
381.21	44.88
381.42	89.94
381.63	59.22
381.84	75.6
382.05	16.21
382.261	98.13
382.471	89.94
382.681	71.51
382.891	3.93
383.101	77.65
383.311	55.12
383.521	34.64
383.731	30.55
383.941	94.04
384.151	63.32
384.361	108.37
384.571	-6.31
384.781	20.31
384.991	106.32
385.201	114.52
385.411	61.27
385.621	73.56
385.831	71.51
386.041	96.08
386.251	3.93
386.461	16.21
386.671	85.84
386.881	87.89
387.091	12.12
387.301	48.98
387.511	-4.27
387.72	83.8
387.93	73.56
388.14	83.8
388.35	10.07
388.56	135
388.769	159.57
388.979	79.7
389.189	85.84
389.399	77.65
389.609	55.12
389.818	81.75
390.028	38.74
390.238	108.37
390.447	77.65
390.657	98.13
390.867	30.55
391.076	44.88
391.286	44.88
391.496	75.6
391.705	14.17
391.915	77.65
392.125	85.84
392.334	57.17
392.544	122.71
392.753	77.65
392.963	14.17
393.172	98.13
393.382	73.56
393.591	190.29
393.801	3.93
394.01	122.71
394.22	69.46
394.429	89.94
394.639	65.36
394.848	59.22
395.058	108.37
395.267	67.41
395.477	34.64
395.686	87.89
395.895	132.95
396.105	173.91
396.314	94.04
396.524	89.94
396.733	96.08
396.942	94.04
397.152	167.76
397.361	100.18
397.57	116.56
397.78	165.71
397.989	132.95
398.198	102.23
398.407	116.56
398.617	40.79
398.826	46.93
399.035	89.94
399.244	81.75
399.453	57.17
399.663	145.24
399.872	94.04
400.081	188.24
400.29	128.85
400.499	128.85
400.708	141.14
400.917	116.56
401.127	124.76
401.336	83.8
401.545	147.28
401.754	143.19
401.963	128.85
402.172	130.9
402.381	77.65
402.59	124.76
402.799	98.13
403.008	122.71
403.217	165.71
403.426	163.67
403.635	96.08
403.844	51.03
404.053	104.28
404.262	151.38
404.471	214.87
404.68	184.15
404.888	198.48
405.097	182.1
405.306	61.27
405.515	178
405.724	100.18
405.933	202.58
406.142	173.91
406.35	186.19
406.559	104.28
406.768	239.44
406.977	182.1
407.185	186.19
407.394	251.73
407.603	116.56
407.812	212.82
408.02	257.87
408.229	198.48
408.438	239.44
408.646	247.63
408.855	202.58
409.064	352.08
409.272	180.05
409.481	315.22
409.69	272.21
409.898	321.36
410.107	327.5
410.315	274.26
410.524	347.98
410.733	358.22
410.941	245.59
411.15	376.66
411.358	317.26
411.567	452.43
411.775	352.08
411.984	358.22
412.192	509.77
412.401	454.48
412.609	485.2
412.818	558.92
413.026	427.85
413.234	440.14
413.443	485.2
413.651	497.49
413.86	571.21
414.068	630.6
414.276	630.6
414.485	538.45
414.693	630.6
414.901	728.91
415.11	669.52
415.318	739.15
415.526	698.19
415.734	722.76
415.943	767.82
416.151	792.39
416.359	905.03
416.567	788.3
416.776	829.26
416.984	853.83
417.192	1005.38
417.4	913.22
417.608	943.94
417.817	974.66
418.025	952.13
418.233	1054.53
418.441	1089.35
418.649	1142.6
418.857	1316.67
419.065	1230.66
419.273	1191.75
419.481	1337.15
419.689	1328.96
419.897	1390.4
420.105	1492.8
420.313	1433.41
420.521	1548.09
420.729	1474.37
420.937	1611.58
421.145	1548.09
421.353	1740.6
421.561	1888.06
421.769	1857.34
421.977	1918.78
422.185	1996.6
422.393	1900.34
422.601	2088.76
422.809	2101.05
423.017	2107.19
423.224	2242.36
423.432	2367.28
423.64	2436.91
423.848	2684.72
424.056	2498.35
424.263	2664.24
424.471	2735.92
424.679	2688.81
424.887	2955.05
425.094	2959.14
425.302	2883.37
425.51	3047.21
425.718	3178.28
425.925	3252
426.133	3352.35
426.341	3581.73
426.548	3735.32
426.756	3542.82
426.964	3733.28
427.171	3743.52
427.379	4130.58
427.586	4110.1
427.794	4058.9
428.001	4458.26
428.209	4630.29
428.417	4525.84
428.624	4839.18
428.832	4849.42
429.039	4910.86
429.247	4873.99
429.454	5156.61
429.662	5789.44
429.869	5302.02
430.076	5572.35
430.284	5459.71
430.491	5744.38
430.699	6209.27
430.906	6096.63
431.114	6125.3
431.321	6407.92
431.528	6389.49
431.736	6973.16
431.943	7145.19
432.15	6995.69
432.358	7034.6
432.565	7470.82
432.772	7411.43
432.979	7743.2
433.187	7835.36
433.394	8015.58
433.601	8537.81
433.808	8697.55
434.016	8574.67
434.223	8996.56
434.43	9633.47
434.637	9129.67
434.844	9742.02
435.052	9950.91
435.259	9993.92
435.466	10041.02
435.673	10024.64
435.88	10567.35
436.087	11173.55
436.294	11112.11
436.501	10858.16
436.708	11208.36
436.915	11529.89
437.122	12074.65
437.329	11927.2
437.537	12506.77
437.743	12588.69
437.95	12418.71
438.157	13192.84
438.364	13471.37
438.571	13549.19
438.778	13772.42
438.985	14896.75
439.192	14272.12
439.399	14978.67
439.606	14472.82
439.813	15525.48
440.02	16299.61
440.227	15922.79
440.433	15668.84
440.64	16479.83
440.847	16410.2
441.054	16549.46
441.261	17628.74
441.467	17505.87
441.674	17886.79
441.881	18345.53
442.088	18462.27
442.294	18521.66
442.501	19013.17
442.708	19303.98
442.914	20074.02
443.121	20659.74
443.328	20272.67
443.534	21724.68
443.741	21204.5
443.948	20758.04
444.154	22648.32
444.361	22148.61
444.568	22210.05
444.774	22414.85
444.981	22709.75
445.187	23082.49
445.394	24061.41
445.6	23813.61
445.807	26377.67
446.013	25034.2
446.22	25624.01
446.426	26500.54
446.633	26815.93
446.839	27731.37
447.046	26441.15
447.252	28218.79
447.459	27993.51
447.665	27999.66
447.871	29369.75
448.078	30469.51
448.284	28941.72
448.491	30096.78
448.697	31032.7
448.903	31833.46
449.11	31563.12
449.316	30887.29
449.522	31808.88
449.728	32261.48
449.935	32660.83
450.141	32914.78
450.347	33832.27
450.553	32437.61
450.76	32779.62
450.966	33981.77
451.172	33533.27
451.378	34463.05
451.584	33916.24
451.791	34692.42
451.997	34542.92
452.203	35216.7
452.409	35032.38
452.615	34770.24
452.821	33242.46
453.027	33314.14
453.233	34792.77
453.44	33629.52
453.646	33766.74
453.852	34155.85
454.058	34561.35
454.264	33719.63
454.47	34360.65
454.676	33293.66
454.882	34489.67
455.088	31761.78
455.294	31772.02
455.5	32847.2
455.705	32566.63
455.911	31323.51
456.117	31047.04
456.323	30387.59
456.529	28775.84
456.735	30029.2
456.941	29625.75
457.147	28634.53
457.352	28050.86
457.558	27448.75
457.764	27884.97
457.97	27051.45
458.176	26537.41
458.381	26459.59
458.587	25198.04
458.793	25277.91
458.999	23866.86
459.204	25718.22
459.41	24944.09
459.616	23264.75
459.821	23168.5
460.027	23031.29
460.233	22447.61
460.438	21392.91
460.644	21845.51
460.85	20618.78
461.055	20377.12
461.261	20268.58
461.466	18654.78
461.672	18355.77
461.878	19813.93
462.083	18099.78
462.289	17931.84
462.494	17749.57
462.7	16907.86
462.905	16688.73
463.111	16885.33
463.316	17196.62
463.522	16787.03
463.727	16895.57
463.932	16684.63
464.138	16428.63
464.343	16629.34
464.549	16193.12
464.754	16660.06
464.959	16604.76
465.165	16490.07
465.37	15703.65
465.575	15400.55
465.781	16051.81
465.986	16135.78
466.191	15599.21
466.397	15107.69
466.602	14153.34
466.807	14937.71
467.012	14978.67
467.218	15013.49
467.423	14947.95
467.628	14917.23
