Data from USB4F104151__61__12-24-09-622.txt Node

Date: Fri Mar 14 12:24:09 EDT 2025
User: louis
Spectrometer: USB4F10415
Trigger mode: 4
Integration Time (sec): 3.500000E-2
Scans to average: 1
Electric dark correction enabled: true
Nonlinearity correction enabled: false
Boxcar width: 0
XAxis mode: Wavelengths
Number of Pixels in Spectrum: 3648
>>>>>Begin Spectral Data<<<<<
178.204	-141.99
178.424	-141.99
178.644	-141.99
178.864	-139.94
179.084	-182.95
179.304	7.51
179.524	9.56
179.744	-10.92
179.964	-10.92
180.184	30.04
180.404	52.56
180.624	11.61
180.844	30.04
181.064	-51.88
181.283	-72.36
181.503	5.46
181.723	-0.68
181.943	-74.41
182.163	101.72
182.383	-39.59
182.602	60.76
182.822	38.23
183.042	21.85
183.262	3.41
183.482	-10.92
183.701	11.61
183.921	13.65
184.141	-4.78
184.361	99.67
184.58	-6.83
184.8	62.8
185.02	-41.64
185.239	81.24
185.459	42.32
185.679	97.62
185.898	-10.92
186.118	66.9
186.338	23.89
186.557	73.04
186.777	13.65
186.997	77.14
187.216	44.37
187.436	62.8
187.655	-6.83
187.875	19.8
188.095	5.46
188.314	71
188.534	120.15
188.753	-27.31
188.973	-21.16
189.192	-27.31
189.412	25.94
189.631	-6.83
189.851	30.04
190.07	13.65
190.29	-0.68
190.509	17.75
190.729	7.51
190.948	89.43
191.168	140.63
191.387	46.42
191.607	52.56
191.826	25.94
192.045	-6.83
192.265	32.08
192.484	-6.83
192.704	-19.11
192.923	-66.22
193.142	75.09
193.362	11.61
193.581	83.28
193.8	-15.02
194.02	-10.92
194.239	9.56
194.458	25.94
194.678	-10.92
194.897	101.72
195.116	44.37
195.335	-4.78
195.555	27.99
195.774	36.18
195.993	58.71
196.212	15.7
196.432	5.46
196.651	27.99
196.87	15.7
197.089	46.42
197.308	68.95
197.528	11.61
197.747	30.04
197.966	13.65
198.185	66.9
198.404	21.85
198.623	27.99
198.842	19.8
199.062	83.28
199.281	99.67
199.5	-17.07
199.719	-4.78
199.938	-25.26
200.157	44.37
200.376	-4.78
200.595	52.56
200.814	30.04
201.033	38.23
201.252	48.47
201.471	3.41
201.69	130.39
201.909	62.8
202.128	46.42
202.347	44.37
202.566	-47.79
202.785	15.7
203.004	-27.31
203.223	116.05
203.442	-51.88
203.661	-12.97
203.879	-66.22
204.098	79.19
204.317	25.94
204.536	27.99
204.755	13.65
204.974	11.61
205.193	-6.83
205.411	93.52
205.63	-8.87
205.849	48.47
206.068	11.61
206.287	56.66
206.505	50.52
206.724	-33.45
206.943	32.08
207.162	-17.07
207.381	17.75
207.599	-41.64
207.818	-15.02
208.037	15.7
208.255	30.04
208.474	1.37
208.693	13.65
208.911	73.04
209.13	85.33
209.349	60.76
209.567	19.8
209.786	-17.07
210.005	73.04
210.223	58.71
210.442	-66.22
210.661	-4.78
210.879	-0.68
211.098	60.76
211.316	5.46
211.535	15.7
211.753	36.18
211.972	36.18
212.191	-51.88
212.409	21.85
212.628	-35.5
212.846	23.89
213.065	25.94
213.283	87.38
213.502	11.61
213.72	27.99
213.938	-10.92
214.157	13.65
214.375	34.13
214.594	50.52
214.812	32.08
215.031	-23.21
215.249	50.52
215.467	109.91
215.686	64.85
215.904	91.48
216.122	-21.16
216.341	77.14
216.559	15.7
216.778	42.32
216.996	107.86
217.214	13.65
217.432	-31.4
217.651	-27.31
217.869	15.7
218.087	15.7
218.306	93.52
218.524	17.75
218.742	-10.92
218.96	27.99
219.179	25.94
219.397	68.95
219.615	54.61
219.833	62.8
220.051	-51.88
220.27	66.9
220.488	9.56
220.706	27.99
220.924	34.13
221.142	-51.88
221.36	44.37
221.578	38.23
221.796	48.47
222.015	-2.73
222.233	71
222.451	68.95
222.669	21.85
222.887	-4.78
223.105	-19.11
223.323	15.7
223.541	89.43
223.759	73.04
223.977	-2.73
224.195	40.28
224.413	62.8
224.631	36.18
224.849	-23.21
225.067	73.04
225.285	-21.16
225.503	-8.87
225.721	-53.93
225.939	-4.78
226.157	56.66
226.375	109.91
226.592	3.41
226.81	54.61
227.028	44.37
227.246	81.24
227.464	25.94
227.682	44.37
227.9	44.37
228.117	64.85
228.335	7.51
228.553	138.58
228.771	27.99
228.989	36.18
229.206	-19.11
229.424	-25.26
229.642	-31.4
229.86	-4.78
230.077	5.46
230.295	-68.27
230.513	-23.21
230.731	64.85
230.948	25.94
231.166	13.65
231.384	-10.92
231.601	21.85
231.819	66.9
232.037	50.52
232.254	-49.83
232.472	38.23
232.689	64.85
232.907	1.37
233.125	9.56
233.342	-0.68
233.56	30.04
233.777	-33.45
233.995	-27.31
234.213	-0.68
234.43	42.32
234.648	3.41
234.865	-8.87
235.083	66.9
235.3	-27.31
235.518	3.41
235.735	23.89
235.953	40.28
236.17	-6.83
236.388	-8.87
236.605	81.24
236.822	64.85
237.04	42.32
237.257	17.75
237.475	3.41
237.692	13.65
237.909	32.08
238.127	11.61
238.344	-23.21
238.562	9.56
238.779	-27.31
238.996	-47.79
239.214	48.47
239.431	34.13
239.648	-29.35
239.865	46.42
240.083	21.85
240.3	54.61
240.517	-29.35
240.735	83.28
240.952	77.14
241.169	-17.07
241.386	-29.35
241.603	58.71
241.821	-47.79
242.038	21.85
242.255	-15.02
242.472	-58.03
242.689	-8.87
242.907	46.42
243.124	1.37
243.341	9.56
243.558	5.46
243.775	21.85
243.992	-64.17
244.209	32.08
244.426	85.33
244.643	25.94
244.86	13.65
245.078	40.28
245.295	68.95
245.512	23.89
245.729	5.46
245.946	52.56
246.163	60.76
246.38	23.89
246.597	-60.07
246.814	-80.55
247.031	19.8
247.248	-10.92
247.464	-35.5
247.681	7.51
247.898	3.41
248.115	17.75
248.332	11.61
248.549	81.24
248.766	13.65
248.983	46.42
249.2	48.47
249.417	36.18
249.633	-10.92
249.85	7.51
250.067	27.99
250.284	-68.27
250.501	87.38
250.717	7.51
250.934	3.41
251.151	1.37
251.368	5.46
251.585	-10.92
251.801	21.85
252.018	25.94
252.235	-39.59
252.451	7.51
252.668	-25.26
252.885	93.52
253.102	-19.11
253.318	-60.07
253.535	-33.45
253.752	7.51
253.968	13.65
254.185	19.8
254.401	1.37
254.618	-60.07
254.835	-55.98
255.051	40.28
255.268	71
255.484	19.8
255.701	-31.4
255.917	75.09
256.134	11.61
256.351	38.23
256.567	13.65
256.784	-17.07
257	-10.92
257.217	19.8
257.433	91.48
257.65	42.32
257.866	-0.68
258.082	-23.21
258.299	-4.78
258.515	30.04
258.732	21.85
258.948	-10.92
259.165	-70.31
259.381	48.47
259.597	52.56
259.814	15.7
260.03	34.13
260.246	58.71
260.463	132.44
260.679	36.18
260.895	-39.59
261.112	13.65
261.328	-6.83
261.544	-21.16
261.761	87.38
261.977	-21.16
262.193	-62.12
262.409	58.71
262.626	40.28
262.842	25.94
263.058	19.8
263.274	73.04
263.49	-8.87
263.707	118.1
263.923	68.95
264.139	19.8
264.355	54.61
264.571	68.95
264.787	15.7
265.004	-21.16
265.22	-19.11
265.436	-62.12
265.652	17.75
265.868	-33.45
266.084	-70.31
266.3	-23.21
266.516	19.8
266.732	21.85
266.948	-33.45
267.164	-19.11
267.38	87.38
267.596	75.09
267.812	83.28
268.028	11.61
268.244	52.56
268.46	17.75
268.676	-10.92
268.892	46.42
269.108	17.75
269.324	-31.4
269.54	-41.64
269.756	-47.79
269.972	-70.31
270.188	3.41
270.403	-66.22
270.619	44.37
270.835	54.61
271.051	54.61
271.267	-55.98
271.483	54.61
271.698	50.52
271.914	23.89
272.13	42.32
272.346	1.37
272.562	30.04
272.777	77.14
272.993	11.61
273.209	21.85
273.425	-49.83
273.64	21.85
273.856	62.8
274.072	17.75
274.287	-41.64
274.503	36.18
274.719	-0.68
274.934	30.04
275.15	-72.36
275.366	-0.68
275.581	5.46
275.797	34.13
276.012	9.56
276.228	-0.68
276.444	9.56
276.659	101.72
276.875	-6.83
277.09	54.61
277.306	-2.73
277.521	68.95
277.737	-45.74
277.952	103.76
278.168	75.09
278.383	30.04
278.599	27.99
278.814	93.52
279.03	17.75
279.245	15.7
279.461	3.41
279.676	-31.4
279.892	-0.68
280.107	-25.26
280.322	34.13
280.538	38.23
280.753	52.56
280.969	68.95
281.184	3.41
281.399	30.04
281.615	-21.16
281.83	85.33
282.045	-66.22
282.26	-37.55
282.476	-41.64
282.691	93.52
282.906	87.38
283.122	21.85
283.337	-27.31
283.552	34.13
283.767	-15.02
283.983	15.7
284.198	3.41
284.413	42.32
284.628	-23.21
284.843	-0.68
285.058	56.66
285.274	7.51
285.489	21.85
285.704	5.46
285.919	42.32
286.134	64.85
286.349	7.51
286.564	91.48
286.779	91.48
286.995	48.47
287.21	11.61
287.425	42.32
287.64	-10.92
287.855	42.32
288.07	54.61
288.285	91.48
288.5	52.56
288.715	30.04
288.93	-31.4
289.145	15.7
289.36	40.28
289.575	-12.97
289.79	66.9
290.004	36.18
290.219	103.76
290.434	-23.21
290.649	15.7
290.864	97.62
291.079	-19.11
291.294	25.94
291.509	-25.26
291.724	-51.88
291.938	50.52
292.153	-4.78
292.368	38.23
292.583	71
292.798	62.8
293.012	-39.59
293.227	-25.26
293.442	46.42
293.657	71
293.871	54.61
294.086	11.61
294.301	99.67
294.516	105.81
294.73	-6.83
294.945	-25.26
295.16	3.41
295.374	34.13
295.589	99.67
295.804	42.32
296.018	77.14
296.233	60.76
296.447	27.99
296.662	-23.21
296.877	66.9
297.091	52.56
297.306	-25.26
297.52	-8.87
297.735	-17.07
297.949	9.56
298.164	64.85
298.378	38.23
298.593	54.61
298.807	-72.36
299.022	40.28
299.236	140.63
299.451	11.61
299.665	36.18
299.88	5.46
300.094	34.13
300.309	50.52
300.523	60.76
300.737	-0.68
300.952	42.32
301.166	-2.73
301.381	50.52
301.595	71
301.809	30.04
302.024	1.37
302.238	38.23
302.452	58.71
302.667	-0.68
302.881	40.28
303.095	154.96
303.309	34.13
303.524	13.65
303.738	-6.83
303.952	-15.02
304.166	36.18
304.381	-33.45
304.595	146.77
304.809	27.99
305.023	27.99
305.237	-27.31
305.452	50.52
305.666	9.56
305.88	81.24
306.094	97.62
306.308	-2.73
306.522	50.52
306.736	23.89
306.95	25.94
307.164	27.99
307.379	-53.93
307.593	66.9
307.807	-21.16
308.021	36.18
308.235	17.75
308.449	-31.4
308.663	-29.35
308.877	114
309.091	3.41
309.305	-8.87
309.519	-49.83
309.733	77.14
309.947	11.61
310.161	3.41
310.374	52.56
310.588	62.8
310.802	-4.78
311.016	36.18
311.23	52.56
311.444	32.08
311.658	52.56
311.872	60.76
312.085	124.24
312.299	75.09
312.513	-0.68
312.727	42.32
312.941	-2.73
313.154	7.51
313.368	32.08
313.582	-41.64
313.796	-47.79
314.009	15.7
314.223	-0.68
314.437	44.37
314.651	-0.68
314.864	40.28
315.078	-41.64
315.292	-6.83
315.505	-49.83
315.719	-27.31
315.933	52.56
316.146	-0.68
316.36	17.75
316.573	36.18
316.787	44.37
317.001	58.71
317.214	-8.87
317.428	89.43
317.641	34.13
317.855	5.46
318.068	13.65
318.282	46.42
318.495	42.32
318.709	77.14
318.922	71
319.136	81.24
319.349	140.63
319.563	-19.11
319.776	-47.79
319.99	-6.83
320.203	54.61
320.417	-2.73
320.63	-0.68
320.843	68.95
321.057	54.61
321.27	54.61
321.483	19.8
321.697	81.24
321.91	21.85
322.124	40.28
322.337	11.61
322.55	-66.22
322.763	152.91
322.977	32.08
323.19	3.41
323.403	23.89
323.617	81.24
323.83	44.37
324.043	40.28
324.256	83.28
324.469	-19.11
324.683	54.61
324.896	30.04
325.109	9.56
325.322	-4.78
325.535	83.28
325.748	56.66
325.962	62.8
326.175	15.7
326.388	1.37
326.601	66.9
326.814	68.95
327.027	60.76
327.24	97.62
327.453	-15.02
327.666	103.76
327.879	32.08
328.092	101.72
328.305	23.89
328.518	-49.83
328.731	23.89
328.944	77.14
329.157	73.04
329.37	-29.35
329.583	97.62
329.796	36.18
330.009	-8.87
330.222	11.61
330.435	13.65
330.648	15.7
330.861	73.04
331.073	77.14
331.286	38.23
331.499	25.94
331.712	17.75
331.925	73.04
332.138	71
332.35	120.15
332.563	40.28
332.776	17.75
332.989	54.61
333.202	3.41
333.414	-60.07
333.627	23.89
333.84	81.24
334.053	7.51
334.265	-31.4
334.478	11.61
334.691	36.18
334.903	-2.73
335.116	-43.69
335.329	5.46
335.541	-72.36
335.754	97.62
335.966	1.37
336.179	50.52
336.392	-10.92
336.604	-17.07
336.817	21.85
337.029	68.95
337.242	34.13
337.454	-23.21
337.667	-8.87
337.88	101.72
338.092	23.89
338.305	38.23
338.517	-21.16
338.729	66.9
338.942	-12.97
339.154	25.94
339.367	15.7
339.579	11.61
339.792	54.61
340.004	-0.68
340.217	-60.07
340.429	60.76
340.641	42.32
340.854	71
341.066	-12.97
341.278	-10.92
341.491	83.28
341.703	34.13
341.915	-84.65
342.128	87.38
342.34	-2.73
342.552	36.18
342.764	62.8
342.977	58.71
343.189	87.38
343.401	-17.07
343.613	-2.73
343.826	11.61
344.038	21.85
344.25	58.71
344.462	30.04
344.674	48.47
344.886	-49.83
345.099	-17.07
345.311	27.99
345.523	52.56
345.735	-25.26
345.947	-2.73
346.159	11.61
346.371	9.56
346.583	71
346.795	101.72
347.007	9.56
347.219	11.61
347.431	25.94
347.643	109.91
347.855	40.28
348.067	-4.78
348.279	-10.92
348.491	103.76
348.703	64.85
348.915	60.76
349.127	17.75
349.339	5.46
349.551	25.94
349.763	75.09
349.975	-19.11
350.187	66.9
350.399	15.7
350.61	27.99
350.822	40.28
351.034	36.18
351.246	-21.16
351.458	44.37
351.669	32.08
351.881	68.95
352.093	48.47
352.305	48.47
352.517	17.75
352.728	91.48
352.94	44.37
353.152	87.38
353.363	-19.11
353.575	23.89
353.787	77.14
353.999	38.23
354.21	52.56
354.422	30.04
354.633	-6.83
354.845	-6.83
355.057	73.04
355.268	46.42
355.48	114
355.692	-10.92
355.903	38.23
356.115	17.75
356.326	-58.03
356.538	32.08
356.749	5.46
356.961	71
357.172	42.32
357.384	-25.26
357.595	87.38
357.807	-45.74
358.018	25.94
358.23	27.99
358.441	-6.83
358.653	50.52
358.864	40.28
359.075	38.23
359.287	27.99
359.498	97.62
359.709	83.28
359.921	44.37
360.132	79.19
360.344	15.7
360.555	5.46
360.766	19.8
360.977	62.8
361.189	89.43
361.4	-37.55
361.611	17.75
361.823	32.08
362.034	64.85
362.245	-21.16
362.456	-21.16
362.667	7.51
362.879	11.61
363.09	81.24
363.301	-10.92
363.512	7.51
363.723	-80.55
363.935	87.38
364.146	44.37
364.357	27.99
364.568	79.19
364.779	-12.97
364.99	32.08
365.201	-21.16
365.412	68.95
365.623	-55.98
365.834	-10.92
366.045	11.61
366.256	32.08
366.467	44.37
366.678	13.65
366.889	97.62
367.1	120.15
367.311	46.42
367.522	99.67
367.733	58.71
367.944	85.33
368.155	46.42
368.366	-4.78
368.577	48.47
368.788	36.18
368.999	-31.4
369.209	23.89
369.42	85.33
369.631	99.67
369.842	83.28
370.053	-23.21
370.264	89.43
370.474	21.85
370.685	7.51
370.896	83.28
371.107	56.66
371.317	89.43
371.528	-23.21
371.739	21.85
371.95	56.66
372.16	105.81
372.371	44.37
372.582	40.28
372.792	13.65
373.003	-0.68
373.214	101.72
373.424	68.95
373.635	-12.97
373.846	38.23
374.056	60.76
374.267	27.99
374.477	7.51
374.688	34.13
374.898	40.28
375.109	114
375.319	-17.07
375.53	-8.87
375.74	19.8
375.951	13.65
376.161	44.37
376.372	42.32
376.582	-43.69
376.793	27.99
377.003	64.85
377.214	-27.31
377.424	19.8
377.635	38.23
377.845	-10.92
378.055	11.61
378.266	54.61
378.476	36.18
378.686	9.56
378.897	36.18
379.107	-19.11
379.317	46.42
379.528	19.8
379.738	85.33
379.948	73.04
380.158	54.61
380.369	-2.73
380.579	71
380.789	134.48
380.999	140.63
381.21	71
381.42	200.02
381.63	17.75
381.84	62.8
382.05	-0.68
382.261	44.37
382.471	97.62
382.681	-19.11
382.891	54.61
383.101	99.67
383.311	44.37
383.521	-41.64
383.731	42.32
383.941	52.56
384.151	58.71
384.361	77.14
384.571	15.7
384.781	71
384.991	126.29
385.201	73.04
385.411	71
385.621	68.95
385.831	56.66
386.041	7.51
386.251	11.61
386.461	97.62
386.671	11.61
386.881	-12.97
387.091	44.37
387.301	44.37
387.511	-39.59
387.72	89.43
387.93	30.04
388.14	-51.88
388.35	50.52
388.56	50.52
388.769	54.61
388.979	-4.78
389.189	15.7
389.399	83.28
389.609	60.76
389.818	52.56
390.028	-31.4
390.238	89.43
390.447	64.85
390.657	21.85
390.867	13.65
391.076	13.65
391.286	58.71
391.496	-10.92
391.705	11.61
391.915	107.86
392.125	73.04
392.334	15.7
392.544	23.89
392.753	93.52
392.963	40.28
393.172	15.7
393.382	-43.69
393.591	132.44
393.801	75.09
394.01	130.39
394.22	9.56
394.429	68.95
394.639	38.23
394.848	15.7
395.058	32.08
395.267	40.28
395.477	44.37
395.686	85.33
395.895	105.81
396.105	120.15
396.314	107.86
396.524	42.32
396.733	9.56
396.942	140.63
397.152	122.2
397.361	85.33
397.57	75.09
397.78	97.62
397.989	79.19
398.198	128.34
398.407	21.85
398.617	62.8
398.826	68.95
399.035	83.28
399.244	75.09
399.453	85.33
399.663	95.57
399.872	99.67
400.081	46.42
400.29	62.8
400.499	-0.68
400.708	103.76
400.917	60.76
401.127	42.32
401.336	71
401.545	152.91
401.754	79.19
401.963	75.09
402.172	111.96
402.381	15.7
402.59	85.33
402.799	54.61
403.008	73.04
403.217	95.57
403.426	152.91
403.635	79.19
403.844	89.43
404.053	95.57
404.262	148.82
404.471	161.11
404.68	118.1
404.888	95.57
405.097	124.24
405.306	32.08
405.515	130.39
405.724	75.09
405.933	79.19
406.142	191.83
406.35	128.34
406.559	97.62
406.768	71
406.977	161.11
407.185	150.87
407.394	195.92
407.603	128.34
407.812	126.29
408.02	179.54
408.229	111.96
408.438	185.68
408.646	142.68
408.855	183.63
409.064	146.77
409.272	179.54
409.481	202.07
409.69	173.39
409.898	202.07
410.107	191.83
410.315	228.69
410.524	210.26
410.733	212.31
410.941	216.4
411.15	267.6
411.358	261.46
411.567	302.42
411.775	175.44
411.984	333.14
412.192	333.14
412.401	247.12
412.609	394.58
412.818	367.95
413.026	351.57
413.234	216.4
413.443	322.9
413.651	365.9
413.86	361.81
414.068	458.06
414.276	464.21
414.485	294.22
414.693	517.45
414.901	476.49
415.11	376.14
415.318	423.25
415.526	464.21
415.734	505.17
415.943	523.6
416.151	482.64
416.359	517.45
416.567	542.03
416.776	595.28
416.984	697.67
417.192	636.24
417.4	628.04
417.608	701.77
417.817	712.01
418.025	732.49
418.233	881.99
418.441	804.17
418.649	750.92
418.857	867.66
419.065	898.38
419.273	818.5
419.481	822.6
419.689	875.85
419.897	984.39
420.105	968.01
420.313	1019.21
420.521	1099.08
420.729	1074.5
420.937	1111.36
421.145	1127.75
421.353	1215.81
421.561	1385.79
421.769	1271.11
421.977	1369.41
422.185	1344.83
422.393	1398.08
422.601	1613.12
422.809	1500.48
423.017	1557.82
423.224	1535.29
423.432	1588.54
423.64	1758.52
423.848	1776.95
424.056	1754.43
424.263	1942.84
424.471	1891.64
424.679	1936.7
424.887	2041.14
425.094	1975.61
425.302	1953.08
425.51	2129.2
425.718	2243.89
425.925	2288.95
426.133	2237.75
426.341	2647.34
426.548	2446.64
426.756	2530.61
426.964	2575.66
427.171	2737.45
427.379	2923.82
427.586	2790.7
427.794	2862.38
428.001	3061.03
428.209	3212.58
428.417	3091.75
428.624	3513.63
428.832	3312.93
429.039	3503.39
429.247	3400.99
429.454	3620.13
429.662	3992.86
429.869	3700
430.076	3839.26
430.284	3976.47
430.491	4087.06
430.699	4424.98
430.906	4189.46
431.114	4259.09
431.321	4490.51
431.528	4517.14
431.736	4871.43
431.943	5035.27
432.15	5043.46
432.358	5123.34
432.565	5211.4
432.772	5078.28
432.979	5500.16
433.187	5690.62
433.394	5694.72
433.601	6147.32
433.808	6030.59
434.016	5991.67
434.223	6059.26
434.43	6704.37
434.637	6618.35
434.844	6909.16
435.052	7234.79
435.259	7107.82
435.466	7132.39
435.673	7081.19
435.88	7570.66
436.087	7787.74
436.294	7896.28
436.501	7625.95
436.708	7918.81
436.915	8062.17
437.122	8631.51
437.329	8486.1
437.537	8815.82
437.743	8967.37
437.95	8998.09
438.157	9344.2
438.364	9344.2
438.571	9565.38
438.778	9682.11
438.985	10384.57
439.192	10106.04
439.399	10468.53
439.606	10142.91
439.813	10757.3
440.02	11717.79
440.227	11340.97
440.433	11250.86
440.64	11570.34
440.847	11447.46
441.054	11859.1
441.261	12483.73
441.467	12438.68
441.674	12690.58
441.881	13112.46
442.088	12803.22
442.294	12934.29
442.501	13337.74
442.708	13692.04
442.914	14269.56
443.121	14515.32
443.328	14345.34
443.534	15230.06
443.741	14838.9
443.948	14662.77
444.154	15619.17
444.361	15797.35
444.568	15893.6
444.774	15985.76
444.981	15981.67
445.187	16381.02
445.394	17005.65
445.6	16995.41
445.807	18375.74
446.013	17704.01
446.22	17970.24
446.426	18848.82
446.633	18852.92
446.839	19725.35
447.046	18834.49
447.252	20003.88
447.459	19782.7
447.665	19760.17
447.871	20841.5
448.078	21509.13
448.284	20573.21
448.491	20931.61
448.697	21924.87
448.903	22549.5
449.11	22397.95
449.316	22123.52
449.522	22477.82
449.728	23081.97
449.935	23249.91
450.141	23182.32
450.347	24048.61
450.553	22871.03
450.76	23739.37
450.966	24357.86
451.172	23749.61
451.378	24511.46
451.584	24017.89
451.791	24607.71
451.997	24556.51
452.203	24968.15
452.409	24892.38
452.615	24964.06
452.821	23981.03
453.027	23657.45
453.233	24617.95
453.44	23778.28
453.646	23899.11
453.852	24353.76
454.058	24552.41
454.264	24028.13
454.47	24185.83
454.676	23661.55
454.882	24542.17
455.088	22776.83
455.294	22643.71
455.5	22998.01
455.705	23403.5
455.911	22510.59
456.117	22019.08
456.323	21885.96
456.529	20306.98
456.735	21410.83
456.941	20857.88
457.147	20708.38
457.352	19919.91
457.558	19713.06
457.764	19809.32
457.97	19534.89
458.176	18723.9
458.381	18857.01
458.587	17984.58
458.793	18146.37
458.999	16966.74
459.204	18445.37
459.41	17921.09
459.616	16471.13
459.821	16712.79
460.027	16204.89
460.233	16217.18
460.438	15117.42
460.644	15512.68
460.85	15010.93
461.055	14427.26
461.261	14496.89
461.466	13579.4
461.672	13055.12
461.878	13841.54
462.083	13091.98
462.289	12844.18
462.494	12672.15
462.7	12180.64
462.905	11816.1
463.111	12250.27
463.316	12235.93
463.522	12057.76
463.727	11904.16
463.932	12014.75
464.138	11750.56
464.343	11988.13
464.549	11283.63
464.754	11984.03
464.959	11746.47
465.165	11789.47
465.37	11267.24
465.575	10794.16
465.781	11472.04
465.986	11484.33
466.191	11138.22
466.397	10745.01
466.602	10212.54
466.807	10736.82
467.012	10591.41
467.218	10470.58
467.423	10486.97
467.628	10761.39
467.833	11023.53
468.038	10669.23
