Data from USB4F104151__1__11-39-15-136.txt Node

Date: Wed Feb 19 11:39:15 EST 2025
User: louis
Spectrometer: USB4F10415
Trigger mode: 4
Integration Time (sec): 2.250200E-1
Scans to average: 1
Electric dark correction enabled: true
Nonlinearity correction enabled: false
Boxcar width: 0
XAxis mode: Wavelengths
Number of Pixels in Spectrum: 3648
>>>>>Begin Spectral Data<<<<<
178.204	-779.59
178.424	-779.59
178.644	-779.59
178.864	-879.94
179.084	-851.27
179.304	119.46
179.524	53.93
179.744	27.31
179.964	-181.59
180.184	193.19
180.404	152.23
180.624	-212.31
180.844	-116.05
181.064	-64.85
181.283	205.48
181.503	-161.11
181.723	-15.7
181.943	72.36
182.163	397.99
182.383	-214.35
182.602	-206.16
182.822	385.7
183.042	228.01
183.262	-220.5
183.482	-157.01
183.701	146.09
183.921	217.77
184.141	-249.17
184.361	-109.91
184.58	307.88
184.8	223.91
185.02	-267.6
185.239	-66.9
185.459	273.06
185.679	418.47
185.898	-222.55
186.118	-218.45
186.338	242.34
186.557	262.82
186.777	-300.37
186.997	-214.35
187.216	160.42
187.436	461.48
187.655	-157.01
187.875	-23.89
188.095	146.09
188.314	291.49
188.534	-87.38
188.753	-263.51
188.973	414.37
189.192	479.91
189.412	-259.41
189.631	-263.51
189.851	352.93
190.07	430.76
190.29	-185.68
190.509	-220.5
190.729	158.38
190.948	346.79
191.168	-66.9
191.387	-181.59
191.607	121.51
191.826	285.35
192.045	-118.1
192.265	-187.73
192.484	268.97
192.704	195.24
192.923	-253.27
193.142	-62.8
193.362	332.45
193.581	330.41
193.8	-101.72
194.02	-150.87
194.239	121.51
194.458	246.44
194.678	-97.62
194.897	-292.18
195.116	248.49
195.335	258.73
195.555	-175.44
195.774	-245.07
195.993	365.22
196.212	117.42
196.432	-128.34
196.651	-202.07
196.87	117.42
197.089	520.87
197.308	-216.4
197.528	-132.44
197.747	10.92
197.966	187.05
198.185	-148.82
198.404	-197.97
198.623	311.97
198.842	359.08
199.062	-56.66
199.281	-107.86
199.5	176.81
199.719	273.06
199.938	-181.59
200.157	-165.2
200.376	289.45
200.595	359.08
200.814	-150.87
201.033	-206.16
201.252	397.99
201.471	256.68
201.69	-197.97
201.909	-140.63
202.128	264.87
202.347	307.88
202.566	-48.47
202.785	-331.09
203.004	72.36
203.223	551.59
203.442	-257.36
203.661	-372.05
203.879	260.77
204.098	340.65
204.317	-224.59
204.536	-34.13
204.755	320.17
204.974	228.01
205.193	-372.05
205.411	-130.39
205.63	330.41
205.849	277.16
206.068	-208.21
206.287	-253.27
206.505	414.37
206.724	162.47
206.943	-236.88
207.162	-175.44
207.381	223.91
207.599	207.53
207.818	-148.82
208.037	-263.51
208.255	139.94
208.474	240.3
208.693	-167.25
208.911	-189.78
209.13	297.64
209.349	311.97
209.567	-21.85
209.786	-142.68
210.005	242.34
210.223	234.15
210.442	-415.06
210.661	-222.55
210.879	299.69
211.098	271.01
211.316	-95.57
211.535	-197.97
211.753	248.49
211.972	240.3
212.191	-173.39
212.409	-114
212.628	250.53
212.846	133.8
213.065	-216.4
213.283	-124.24
213.502	264.87
213.72	154.28
213.938	-257.36
214.157	-134.48
214.375	340.65
214.594	121.51
214.812	-87.38
215.031	-214.35
215.249	215.72
215.467	254.63
215.686	-93.52
215.904	-140.63
216.122	205.48
216.341	377.51
216.559	-42.32
216.778	-3.41
216.996	365.22
217.214	115.37
217.432	-136.53
217.651	-214.35
217.869	205.48
218.087	219.82
218.306	-118.1
218.524	-253.27
218.742	176.81
218.96	258.73
219.179	-142.68
219.397	-185.68
219.615	443.04
219.833	268.97
220.051	-263.51
220.27	-81.24
220.488	283.3
220.706	252.58
220.924	-226.64
221.142	-216.4
221.36	250.53
221.578	268.97
221.796	-169.3
222.015	-5.46
222.233	236.2
222.451	387.75
222.669	-85.33
222.887	-109.91
223.105	55.98
223.323	154.28
223.541	-152.91
223.759	-169.3
223.977	236.2
224.195	432.8
224.413	-163.15
224.631	-179.54
224.849	246.44
225.067	561.83
225.285	-95.57
225.503	-222.55
225.721	-71
225.939	219.82
226.157	-163.15
226.375	53.93
226.592	64.17
226.81	164.52
227.028	-40.28
227.246	-128.34
227.464	211.62
227.682	283.3
227.9	-169.3
228.117	-71
228.335	244.39
228.553	105.13
228.771	-179.54
228.989	-183.63
229.206	303.78
229.424	51.88
229.642	-163.15
229.86	-105.81
230.077	332.45
230.295	225.96
230.513	-27.99
230.731	-126.29
230.948	492.2
231.166	422.56
231.384	-50.52
231.601	-140.63
231.819	449.19
232.037	180.9
232.254	-91.48
232.472	-87.38
232.689	176.81
232.907	426.66
233.125	-300.37
233.342	-296.27
233.56	182.95
233.777	141.99
233.995	-210.26
234.213	-97.62
234.43	266.92
234.648	193.19
234.865	-177.49
235.083	-105.81
235.3	193.19
235.518	332.45
235.735	-60.76
235.953	-81.24
236.17	209.58
236.388	141.99
236.605	-25.94
236.822	-81.24
237.04	324.26
237.257	254.63
237.475	-226.64
237.692	-132.44
237.909	197.29
238.127	215.72
238.344	-52.56
238.562	-103.76
238.779	80.55
238.996	4.78
239.214	-103.76
239.431	-157.01
239.648	158.38
239.865	264.87
240.083	-138.58
240.3	-152.91
240.517	111.27
240.735	137.9
240.952	27.31
241.169	-202.07
241.386	180.9
241.603	139.94
241.821	-187.73
242.038	-152.91
242.255	340.65
242.472	39.59
242.689	-58.71
242.907	-183.63
243.124	160.42
243.341	223.91
243.558	-66.9
243.775	-316.75
243.992	-7.51
244.209	266.92
244.426	-17.75
244.643	-101.72
244.86	94.89
245.078	346.79
245.295	-136.53
245.512	-126.29
245.729	80.55
245.946	187.05
246.163	-175.44
246.38	-130.39
246.597	135.85
246.814	187.05
247.031	-79.19
247.248	-212.31
247.464	209.58
247.681	109.22
247.898	-142.68
248.115	-50.52
248.332	62.12
248.549	406.18
248.766	-79.19
248.983	-105.81
249.2	326.31
249.417	244.39
249.633	-124.24
249.85	-73.04
250.067	185
250.284	144.04
250.501	-226.64
250.717	-120.15
250.934	-9.56
251.151	156.33
251.368	-56.66
251.585	-148.82
251.801	182.95
252.018	45.74
252.235	25.26
252.451	-165.2
252.668	148.14
252.885	305.83
253.102	-75.09
253.318	-97.62
253.535	139.94
253.752	94.89
253.968	-197.97
254.185	-183.63
254.401	248.49
254.618	277.16
254.835	-138.58
255.051	-56.66
255.268	285.35
255.484	271.01
255.701	-107.86
255.917	-101.72
256.134	86.7
256.351	123.56
256.567	-161.11
256.784	-1.37
257	-52.56
257.217	305.83
257.433	103.08
257.65	-99.67
257.866	344.74
258.082	0.68
258.299	-167.25
258.515	-58.71
258.732	191.14
258.948	49.83
259.165	-15.7
259.381	-197.97
259.597	318.12
259.814	115.37
260.03	-167.25
260.246	-73.04
260.463	266.92
260.679	324.26
260.895	-64.85
261.112	-46.42
261.328	172.71
261.544	78.51
261.761	-91.48
261.977	-161.11
262.193	111.27
262.409	176.81
262.626	27.31
262.842	-19.8
263.058	45.74
263.274	268.97
263.49	-66.9
263.707	-107.86
263.923	283.3
264.139	-30.04
264.355	-75.09
264.571	-66.9
264.787	334.5
265.004	279.21
265.22	-68.95
265.436	-75.09
265.652	98.99
265.868	225.96
266.084	-165.2
266.3	-152.91
266.516	51.88
266.732	209.58
266.948	-99.67
267.164	-279.89
267.38	363.17
267.596	197.29
267.812	25.26
268.028	-68.95
268.244	70.31
268.46	127.66
268.676	-95.57
268.892	-60.76
269.108	101.03
269.324	-52.56
269.54	-152.91
269.756	-62.8
269.972	98.99
270.188	154.28
270.403	-118.1
270.619	-46.42
270.835	197.29
271.051	191.14
271.267	-103.76
271.483	-214.35
271.698	260.77
271.914	170.66
272.13	-27.99
272.346	-60.76
272.562	156.33
272.777	404.13
272.993	-36.18
273.209	-97.62
273.425	221.86
273.64	29.35
273.856	-122.2
274.072	-183.63
274.287	127.66
274.503	238.25
274.719	-23.89
274.934	-152.91
275.15	23.21
275.366	119.46
275.581	-111.96
275.797	-23.89
276.012	213.67
276.228	70.31
276.444	-56.66
276.659	105.13
276.875	33.45
277.09	137.9
277.306	-46.42
277.521	8.87
277.737	125.61
277.952	170.66
278.168	-118.1
278.383	-79.19
278.599	109.22
278.814	174.76
279.03	-138.58
279.245	-15.7
279.461	98.99
279.676	277.16
279.892	-116.05
280.107	-132.44
280.322	105.13
280.538	252.58
280.753	-77.14
280.969	-48.47
281.184	129.7
281.399	352.93
281.615	21.16
281.83	39.59
282.045	-77.14
282.26	-1.37
282.476	-114
282.691	58.03
282.906	144.04
283.122	197.29
283.337	-52.56
283.552	-9.56
283.767	66.22
283.983	193.19
284.198	-23.89
284.413	-38.23
284.628	15.02
284.843	135.85
285.058	-103.76
285.274	-105.81
285.489	90.79
285.704	176.81
285.919	-122.2
286.134	-62.8
286.349	168.62
286.564	2.73
286.779	8.87
286.995	-38.23
287.21	-79.19
287.425	201.38
287.64	-66.9
287.855	115.37
288.07	-30.04
288.285	258.73
288.5	-3.41
288.715	-25.94
288.93	109.22
289.145	-25.94
289.36	-85.33
289.575	-15.7
289.79	242.34
290.004	70.31
290.219	51.88
290.434	-62.8
290.649	60.07
290.864	62.12
291.079	-38.23
291.294	-48.47
291.509	271.01
291.724	68.27
291.938	-81.24
292.153	-5.46
292.368	168.62
292.583	189.1
292.798	25.26
293.012	6.83
293.227	232.1
293.442	58.03
293.657	10.92
293.871	-46.42
294.086	295.59
294.301	266.92
294.516	2.73
294.73	131.75
294.945	55.98
295.16	125.61
295.374	-21.85
295.589	-13.65
295.804	125.61
296.018	176.81
296.233	2.73
296.447	74.41
296.662	84.65
296.877	342.69
297.091	-23.89
297.306	19.11
297.52	162.47
297.735	168.62
297.949	76.46
298.164	-183.63
298.378	211.62
298.593	76.46
298.807	-15.7
299.022	-46.42
299.236	354.98
299.451	6.83
299.665	-5.46
299.88	43.69
300.094	189.1
300.309	86.7
300.523	-11.61
300.737	-34.13
300.952	195.24
301.166	180.9
301.381	-130.39
301.595	-77.14
301.809	150.18
302.024	12.97
302.238	-42.32
302.452	80.55
302.667	180.9
302.881	307.88
303.095	60.07
303.309	25.26
303.524	58.03
303.738	141.99
303.952	-13.65
304.166	23.21
304.381	-173.39
304.595	244.39
304.809	49.83
305.023	-46.42
305.237	107.18
305.452	68.27
305.666	-11.61
305.88	33.45
306.094	193.19
306.308	123.56
306.522	10.92
306.736	74.41
306.95	228.01
307.164	103.08
307.379	107.18
307.593	88.75
307.807	281.25
308.021	152.23
308.235	127.66
308.449	-163.15
308.663	201.38
308.877	426.66
309.091	6.83
309.305	-1.37
309.519	-40.28
309.733	248.49
309.947	-75.09
310.161	-50.52
310.374	203.43
310.588	299.69
310.802	-81.24
311.016	-46.42
311.23	217.77
311.444	-25.94
311.658	-19.8
311.872	187.05
312.085	225.96
312.299	273.06
312.513	185
312.727	-71
312.941	47.79
313.154	86.7
313.368	6.83
313.582	-9.56
313.796	252.58
314.009	60.07
314.223	135.85
314.437	162.47
314.651	199.34
314.864	-44.37
315.078	-7.51
315.292	-71
315.505	70.31
315.719	201.38
315.933	60.07
316.146	-1.37
316.36	35.5
316.573	207.53
316.787	144.04
317.001	29.35
317.214	-15.7
317.428	154.28
317.641	-109.91
317.855	-56.66
318.068	211.62
318.282	203.43
318.495	88.75
318.709	-42.32
318.922	168.62
319.136	357.03
319.349	-15.7
319.563	-19.8
319.776	193.19
319.99	-87.38
320.203	90.79
320.417	-11.61
320.63	98.99
320.843	305.83
321.057	31.4
321.27	-9.56
321.483	291.49
321.697	252.58
321.91	-144.72
322.124	45.74
322.337	170.66
322.55	23.21
322.763	17.07
322.977	-111.96
323.19	47.79
323.403	119.46
323.617	29.35
323.83	213.67
324.043	170.66
324.256	105.13
324.469	-216.4
324.683	176.81
324.896	90.79
325.109	105.13
325.322	-107.86
325.535	25.26
325.748	203.43
325.962	105.13
326.175	15.02
326.388	-25.94
326.601	164.52
326.814	39.59
327.027	15.02
327.24	94.89
327.453	-23.89
327.666	273.06
327.879	205.48
328.092	62.12
328.305	350.89
328.518	72.36
328.731	-38.23
328.944	-27.99
329.157	185
329.37	121.51
329.583	111.27
329.796	62.12
330.009	-40.28
330.222	281.25
330.435	66.22
330.648	23.21
330.861	199.34
331.073	123.56
331.286	72.36
331.499	33.45
331.712	82.6
331.925	125.61
332.138	15.02
332.35	-27.99
332.563	117.42
332.776	242.34
332.989	-48.47
333.202	-54.61
333.414	119.46
333.627	193.19
333.84	-54.61
334.053	101.03
334.265	12.97
334.478	72.36
334.691	-101.72
334.903	86.7
335.116	53.93
335.329	133.8
335.541	43.69
335.754	303.78
335.966	72.36
336.179	148.14
336.392	-7.51
336.604	64.17
336.817	135.85
337.029	131.75
337.242	-93.52
337.454	68.27
337.667	199.34
337.88	209.58
338.092	170.66
338.305	6.83
338.517	148.14
338.729	178.86
338.942	80.55
339.154	-118.1
339.367	-25.94
339.579	178.86
339.792	-136.53
340.004	53.93
340.217	92.84
340.429	160.42
340.641	-81.24
340.854	-13.65
341.066	135.85
341.278	170.66
341.491	96.94
341.703	-1.37
341.915	-42.32
342.128	228.01
342.34	-32.08
342.552	-27.99
342.764	98.99
342.977	101.03
343.189	23.21
343.401	62.12
343.613	25.26
343.826	125.61
344.038	-73.04
344.25	66.22
344.462	29.35
344.674	195.24
344.886	-42.32
345.099	-44.37
345.311	230.06
345.523	101.03
345.735	-150.87
345.947	70.31
346.159	158.38
346.371	221.86
346.583	41.64
346.795	119.46
347.007	137.9
347.219	152.23
347.431	-1.37
347.643	156.33
347.855	160.42
348.067	246.44
348.279	29.35
348.491	-73.04
348.703	240.3
348.915	125.61
349.127	-83.28
349.339	25.26
349.551	55.98
349.763	301.73
349.975	15.02
350.187	49.83
350.399	324.26
350.61	141.99
350.822	-1.37
351.034	-3.41
351.246	201.38
351.458	189.1
351.669	53.93
351.881	-11.61
352.093	311.97
352.305	232.1
352.517	-5.46
352.728	58.03
352.94	131.75
353.152	197.29
353.363	-101.72
353.575	-27.99
353.787	373.41
353.999	180.9
354.21	105.13
354.422	-42.32
354.633	111.27
354.845	76.46
355.057	94.89
355.268	27.31
355.48	260.77
355.692	-19.8
355.903	17.07
356.115	-157.01
356.326	-85.33
356.538	334.5
356.749	-32.08
356.961	101.03
357.172	103.08
357.384	8.87
357.595	172.71
357.807	-93.52
358.018	133.8
358.23	176.81
358.441	-25.94
358.653	-68.95
358.864	201.38
359.075	6.83
359.287	-85.33
359.498	55.98
359.709	223.91
359.921	162.47
360.132	82.6
360.344	-83.28
360.555	41.64
360.766	207.53
360.977	-93.52
361.189	88.75
361.4	123.56
361.611	234.15
361.823	115.37
362.034	-46.42
362.245	-66.9
362.456	170.66
362.667	86.7
362.879	-77.14
363.09	260.77
363.301	168.62
363.512	-42.32
363.723	-91.48
363.935	41.64
364.146	330.41
364.357	-11.61
364.568	-85.33
364.779	-42.32
364.99	254.63
365.201	-19.8
365.412	176.81
365.623	-66.9
365.834	215.72
366.045	53.93
366.256	119.46
366.467	244.39
366.678	135.85
366.889	39.59
367.1	-58.71
367.311	299.69
367.522	131.75
367.733	12.97
367.944	0.68
368.155	150.18
368.366	193.19
368.577	90.79
368.788	123.56
368.999	119.46
369.209	103.08
369.42	123.56
369.631	318.12
369.842	250.53
370.053	115.37
370.264	-1.37
370.474	-111.96
370.685	168.62
370.896	88.75
371.107	15.02
371.317	-32.08
371.528	189.1
371.739	268.97
371.95	51.88
372.16	53.93
372.371	-9.56
372.582	49.83
372.792	-68.95
373.003	39.59
373.214	144.04
373.424	158.38
373.635	8.87
373.846	98.99
374.056	258.73
374.267	174.76
374.477	90.79
374.688	-58.71
374.898	160.42
375.109	66.22
375.319	4.78
375.53	60.07
375.74	252.58
375.951	103.08
376.161	-11.61
376.372	88.75
376.582	62.12
376.793	250.53
377.003	-111.96
377.214	-36.18
377.424	240.3
377.635	123.56
377.845	19.11
378.055	70.31
378.266	-89.43
378.476	154.28
378.686	0.68
378.897	12.97
379.107	242.34
379.317	176.81
379.528	-124.24
379.738	70.31
379.948	-89.43
380.158	195.24
380.369	68.27
380.579	35.5
380.789	105.13
380.999	225.96
381.21	176.81
381.42	211.62
381.63	86.7
381.84	240.3
382.05	86.7
382.261	64.17
382.471	305.83
382.681	74.41
382.891	31.4
383.101	117.42
383.311	60.07
383.521	29.35
383.731	-48.47
383.941	127.66
384.151	182.95
384.361	23.21
384.571	-44.37
384.781	25.26
384.991	258.73
385.201	336.55
385.411	150.18
385.621	-40.28
385.831	262.82
386.041	154.28
386.251	-19.8
386.461	60.07
386.671	221.86
386.881	154.28
387.091	60.07
387.301	121.51
387.511	105.13
387.72	115.37
387.93	60.07
388.14	-62.8
388.35	168.62
388.56	357.03
388.769	49.83
388.979	-52.56
389.189	43.69
389.399	115.37
389.609	21.16
389.818	60.07
390.028	115.37
390.238	103.08
390.447	8.87
390.657	31.4
390.867	125.61
391.076	-40.28
391.286	-46.42
391.496	-60.76
391.705	131.75
391.915	291.49
392.125	31.4
392.334	-44.37
392.544	289.45
392.753	121.51
392.963	-1.37
393.172	80.55
393.382	19.11
393.591	334.5
393.801	-32.08
394.01	-60.76
394.22	170.66
394.429	47.79
394.639	51.88
394.848	68.27
395.058	232.1
395.267	103.08
395.477	160.42
395.686	33.45
395.895	443.04
396.105	350.89
396.314	0.68
396.524	0.68
396.733	98.99
396.942	297.64
397.152	21.16
397.361	234.15
397.57	154.28
397.78	117.42
397.989	152.23
398.198	268.97
398.407	82.6
398.617	41.64
398.826	82.6
399.035	-52.56
399.244	154.28
399.453	109.22
399.663	-68.95
399.872	-161.11
400.081	17.07
400.29	154.28
400.499	-46.42
400.708	31.4
400.917	117.42
401.127	101.03
401.336	-11.61
401.545	281.25
401.754	279.21
401.963	283.3
402.172	15.02
402.381	-60.76
402.59	125.61
402.799	103.08
403.008	111.27
403.217	51.88
403.426	209.58
403.635	-3.41
403.844	-75.09
404.053	-15.7
404.262	51.88
404.471	301.73
404.68	62.12
404.888	-9.56
405.097	53.93
405.306	168.62
405.515	111.27
405.724	-73.04
405.933	295.59
406.142	189.1
406.35	78.51
406.559	21.16
406.768	141.99
406.977	287.4
407.185	21.16
407.394	6.83
407.603	-105.81
407.812	135.85
408.02	123.56
408.229	29.35
408.438	268.97
408.646	-64.85
408.855	-34.13
409.064	-13.65
409.272	109.22
409.481	195.24
409.69	6.83
409.898	-81.24
410.107	191.14
410.315	217.77
410.524	68.27
410.733	62.12
410.941	154.28
411.15	250.53
411.358	51.88
411.567	68.27
411.775	187.05
411.984	76.46
412.192	23.21
412.401	47.79
412.609	410.28
412.818	293.54
413.026	51.88
413.234	-36.18
413.443	217.77
413.651	-15.7
413.86	-93.52
414.068	135.85
414.276	346.79
414.485	127.66
414.693	117.42
414.901	92.84
415.11	244.39
415.318	115.37
415.526	60.07
415.734	170.66
415.943	90.79
416.151	377.51
416.359	6.83
416.567	43.69
416.776	320.17
416.984	219.82
417.192	105.13
417.4	-19.8
417.608	41.64
417.817	-11.61
418.025	170.66
418.233	15.02
418.441	27.31
418.649	-48.47
418.857	111.27
419.065	129.7
419.273	109.22
419.481	121.51
419.689	76.46
419.897	-56.66
420.105	-11.61
420.313	213.67
420.521	150.18
420.729	150.18
420.937	64.17
421.145	-42.32
421.353	74.41
421.561	129.7
421.769	176.81
421.977	25.26
422.185	84.65
422.393	2.73
422.601	228.01
422.809	119.46
423.017	41.64
423.224	-32.08
423.432	303.78
423.64	105.13
423.848	-73.04
424.056	-68.95
424.263	260.77
424.471	127.66
424.679	180.9
424.887	-93.52
425.094	262.82
425.302	217.77
425.51	-138.58
425.718	23.21
425.925	182.95
426.133	-3.41
426.341	119.46
426.548	29.35
426.756	86.7
426.964	211.62
427.171	43.69
427.379	39.59
427.586	166.57
427.794	213.67
428.001	55.98
428.209	115.37
428.417	346.79
428.624	258.73
428.832	88.75
429.039	66.22
429.247	162.47
429.454	201.38
429.662	86.7
429.869	117.42
430.076	234.15
430.284	164.52
430.491	37.55
430.699	58.03
430.906	354.98
431.114	219.82
431.321	68.27
431.528	72.36
431.736	170.66
431.943	219.82
432.15	60.07
432.358	10.92
432.565	332.45
432.772	-136.53
432.979	117.42
433.187	-9.56
433.394	320.17
433.601	53.93
433.808	12.97
434.016	148.14
434.223	137.9
434.43	144.04
434.637	39.59
434.844	160.42
435.052	234.15
435.259	232.1
435.466	119.46
435.673	49.83
435.88	359.08
436.087	268.97
436.294	369.32
436.501	178.86
436.708	277.16
436.915	215.72
437.122	252.58
437.329	23.21
437.537	234.15
437.743	219.82
437.95	230.06
438.157	90.79
438.364	105.13
438.571	170.66
438.778	84.65
438.985	148.14
439.192	314.02
439.399	211.62
439.606	127.66
439.813	137.9
440.02	457.38
440.227	529.06
440.433	135.85
440.64	88.75
440.847	248.49
441.054	189.1
441.261	150.18
441.467	131.75
441.674	211.62
441.881	441
442.088	137.9
442.294	174.76
442.501	397.99
442.708	496.29
442.914	109.22
443.121	168.62
443.328	357.03
443.534	434.85
443.741	170.66
443.948	35.5
444.154	344.74
444.361	531.11
444.568	197.29
444.774	285.35
444.981	141.99
445.187	502.43
445.394	275.11
445.6	170.66
445.807	336.55
446.013	381.6
446.22	137.9
446.426	303.78
446.633	469.67
446.839	645.79
447.046	80.55
447.252	426.66
447.459	371.36
447.665	324.26
447.871	232.1
448.078	537.25
448.284	547.49
448.491	576.16
448.697	432.8
448.903	375.46
449.11	656.03
449.316	481.96
449.522	467.62
449.728	500.39
449.935	582.31
450.141	498.34
450.347	529.06
450.553	416.42
450.76	580.26
450.966	637.6
451.172	668.32
451.378	402.08
451.584	705.18
451.791	850.59
451.997	660.13
452.203	565.92
452.409	918.17
452.615	864.93
452.821	576.16
453.027	578.21
453.233	1014.43
453.44	737.95
453.646	643.74
453.852	750.24
454.058	684.7
454.264	869.02
454.47	774.81
454.676	633.5
454.882	979.61
455.088	901.79
455.294	834.21
455.5	889.5
455.705	998.04
455.911	922.27
456.117	823.97
456.323	871.07
456.529	901.79
456.735	1036.95
456.941	783.01
457.147	848.54
457.352	1032.86
457.558	885.41
457.764	961.18
457.97	883.36
458.176	1018.52
458.381	1112.73
458.587	952.99
458.793	930.46
458.999	879.26
459.204	1000.09
459.41	871.07
459.616	961.18
459.821	1067.67
460.027	842.4
460.233	1004.19
460.438	940.7
460.644	979.61
460.85	1069.72
461.055	981.66
461.261	1012.38
461.466	860.83
461.672	832.16
461.878	686.75
462.083	862.88
462.289	801.44
462.494	844.45
462.7	883.36
462.905	649.89
