Data from USB4F104151__0__11-38-47-480.txt Node

Date: Wed Feb 19 11:38:47 EST 2025
User: louis
Spectrometer: USB4F10415
Trigger mode: 4
Integration Time (sec): 2.250200E-1
Scans to average: 1
Electric dark correction enabled: true
Nonlinearity correction enabled: false
Boxcar width: 0
XAxis mode: Wavelengths
Number of Pixels in Spectrum: 3648
>>>>>Begin Spectral Data<<<<<
178.204	-857.76
178.424	-857.76
178.644	-857.76
178.864	-820.89
179.084	-812.7
179.304	198.99
179.524	106.84
179.744	10.58
179.964	-183.98
180.184	289.1
180.404	104.79
180.624	-255.65
180.844	-63.15
181.064	12.63
181.283	125.27
181.503	-183.98
181.723	-161.45
181.943	-65.19
182.163	481.61
182.383	-198.31
182.602	-165.54
182.822	323.92
183.042	194.9
183.262	-198.31
183.482	-183.98
183.701	168.27
183.921	198.99
184.141	-181.93
184.361	-220.84
184.58	272.72
184.8	209.23
185.02	-204.46
185.239	6.49
185.459	309.58
185.679	444.75
185.898	-235.18
186.118	-257.7
186.338	250.19
186.557	266.58
186.777	-212.65
186.997	-214.7
187.216	176.47
187.436	485.71
187.655	-118.44
187.875	59.73
188.095	84.31
188.314	364.88
188.534	-104.11
188.753	-269.99
188.973	442.7
189.192	510.29
189.412	-218.79
189.631	-177.83
189.851	237.91
190.07	358.74
190.29	-155.3
190.509	-216.74
190.729	160.08
190.948	358.74
191.168	-30.38
191.387	-208.55
191.607	190.8
191.826	242
192.045	-128.68
192.265	-112.3
192.484	319.82
192.704	274.77
192.923	-147.11
193.142	-7.85
193.362	295.25
193.581	293.2
193.8	-118.44
194.02	-196.26
194.239	190.8
194.458	332.11
194.678	-75.43
194.897	-267.94
195.116	203.09
195.335	242
195.555	-89.77
195.774	-216.74
195.993	407.89
196.212	207.19
196.432	-155.3
196.651	-263.85
196.87	201.04
197.089	557.39
197.308	-208.55
197.528	-130.73
197.747	39.25
197.966	205.14
198.185	-116.39
198.404	-276.13
198.623	299.34
198.842	366.93
199.062	-120.49
199.281	-38.57
199.5	182.61
199.719	254.29
199.938	-177.83
200.157	-161.45
200.376	348.5
200.595	332.11
200.814	-50.86
201.033	-120.49
201.252	422.22
201.471	266.58
201.69	-147.11
201.909	-106.15
202.128	280.91
202.347	319.82
202.566	-183.98
202.785	-321.19
203.004	151.89
203.223	520.53
203.442	-251.56
203.661	-317.09
203.879	256.34
204.098	252.24
204.317	-229.03
204.536	61.78
204.755	332.11
204.974	293.2
205.193	-321.19
205.411	-81.58
205.63	344.4
205.849	184.66
206.068	-173.74
206.287	-218.79
206.505	418.13
206.724	198.99
206.943	-233.13
207.162	-120.49
207.381	188.75
207.599	209.23
207.818	-89.77
208.037	-278.18
208.255	180.56
208.474	207.19
208.693	-194.22
208.911	-284.33
209.13	362.83
209.349	315.73
209.567	-73.39
209.786	-132.78
210.005	303.44
210.223	178.51
210.442	-292.52
210.661	-347.81
210.879	264.53
211.098	205.14
211.316	-104.11
211.535	-83.63
211.753	125.27
211.972	244.05
212.191	-95.91
212.409	-79.53
212.628	313.68
212.846	112.98
213.065	-235.18
213.283	-134.82
213.502	131.41
213.72	162.13
213.938	-188.07
214.157	-220.84
214.375	280.91
214.594	147.8
214.812	-153.26
215.031	-177.83
215.249	160.08
215.467	274.77
215.686	-87.72
215.904	-122.54
216.122	211.28
216.341	285.01
216.559	-28.33
216.778	-81.58
216.996	389.46
217.214	254.29
217.432	-210.6
217.651	-253.61
217.869	248.15
218.087	158.03
218.306	-138.92
218.524	-163.5
218.742	172.37
218.96	323.92
219.179	-188.07
219.397	-173.74
219.615	506.19
219.833	182.61
220.051	-138.92
220.27	-77.48
220.488	364.88
220.706	188.75
220.924	-284.33
221.142	-186.02
221.36	217.43
221.578	145.75
221.796	-138.92
222.015	-81.58
222.233	307.54
222.451	430.41
222.669	-126.63
222.887	-106.15
223.105	51.54
223.323	131.41
223.541	-97.96
223.759	-104.11
223.977	166.23
224.195	397.65
224.413	-91.82
224.631	-159.4
224.849	162.13
225.067	512.33
225.285	-18.09
225.503	-183.98
225.721	-36.52
225.939	225.62
226.157	-85.67
226.375	84.31
226.592	158.03
226.81	145.75
227.028	-34.47
227.246	-108.2
227.464	184.66
227.682	344.4
227.9	-93.87
228.117	-110.25
228.335	280.91
228.553	225.62
228.771	-249.51
228.989	-169.64
229.206	299.34
229.424	162.13
229.642	-136.87
229.86	-122.54
230.077	330.06
230.295	297.3
230.513	-69.29
230.731	-181.93
230.948	395.6
231.166	403.79
231.384	-73.39
231.601	-143.02
231.819	405.84
232.037	37.2
232.254	-42.67
232.472	-177.83
232.689	67.92
232.907	301.39
233.125	-190.12
233.342	-235.18
233.56	176.47
233.777	43.35
233.995	-124.58
234.213	-194.22
234.43	305.49
234.648	176.47
234.865	-114.34
235.083	-38.57
235.3	155.99
235.518	295.25
235.735	-11.95
235.953	-122.54
236.17	293.2
236.388	72.02
236.605	-7.85
236.822	-59.05
237.04	287.06
237.257	215.38
237.475	-149.16
237.692	-147.11
237.909	268.63
238.127	129.36
238.344	-77.48
238.562	-95.91
238.779	43.35
238.996	-52.91
239.214	-34.47
239.431	-87.72
239.648	160.08
239.865	180.56
240.083	-67.24
240.3	-192.17
240.517	168.27
240.735	121.17
240.952	80.21
241.169	-118.44
241.386	229.71
241.603	141.65
241.821	-190.12
242.038	-95.91
242.255	381.26
242.472	37.2
242.689	-114.34
242.907	-159.4
243.124	117.08
243.341	127.32
243.558	-114.34
243.775	-136.87
243.992	90.45
244.209	270.67
244.426	-5.8
244.643	-100.01
244.86	180.56
245.078	252.24
245.295	-28.33
245.512	-126.63
245.729	82.26
245.946	250.19
246.163	-175.78
246.38	-159.4
246.597	211.28
246.814	196.95
247.031	-91.82
247.248	-247.46
247.464	330.06
247.681	266.58
247.898	-48.81
248.115	-79.53
248.332	74.07
248.549	403.79
248.766	-38.57
248.983	-81.58
249.2	309.58
249.417	311.63
249.633	-69.29
249.85	-73.39
250.067	176.47
250.284	158.03
250.501	-140.97
250.717	-89.77
250.934	55.64
251.151	133.46
251.368	-32.43
251.585	-89.77
251.801	192.85
252.018	72.02
252.235	-18.09
252.451	-126.63
252.668	147.8
252.885	250.19
253.102	-36.52
253.318	-140.97
253.535	168.27
253.752	110.93
253.968	-75.43
254.185	-222.89
254.401	172.37
254.618	213.33
254.835	-71.34
255.051	-61.1
255.268	317.78
255.484	223.57
255.701	-102.06
255.917	-97.96
256.134	139.6
256.351	115.03
256.567	-216.74
256.784	6.49
257	24.92
257.217	278.87
257.433	41.3
257.65	-153.26
257.866	309.58
258.082	10.58
258.299	-161.45
258.515	-110.25
258.732	180.56
258.948	117.08
259.165	51.54
259.381	-239.27
259.597	295.25
259.814	211.28
260.03	-145.06
260.246	-102.06
260.463	328.02
260.679	274.77
260.895	-145.06
261.112	-52.91
261.328	160.08
261.544	-26.28
261.761	-91.82
261.977	-138.92
262.193	39.25
262.409	325.97
262.626	2.39
262.842	-122.54
263.058	96.6
263.274	403.79
263.49	8.53
263.707	-143.02
263.923	258.39
264.139	24.92
264.355	-95.91
264.571	35.16
264.787	223.57
265.004	348.5
265.22	6.49
265.436	-104.11
265.652	209.23
265.868	246.1
266.084	-188.07
266.3	-169.64
266.516	39.25
266.732	164.18
266.948	-100.01
267.164	-145.06
267.38	244.05
267.596	330.06
267.812	26.96
268.028	-112.3
268.244	98.64
268.46	190.8
268.676	-65.19
268.892	43.35
269.108	6.49
269.324	6.49
269.54	-200.36
269.756	-95.91
269.972	69.97
270.188	153.94
270.403	-165.54
270.619	-95.91
270.835	237.91
271.051	125.27
271.267	-63.15
271.483	-128.68
271.698	332.11
271.914	217.43
272.13	-13.99
272.346	-85.67
272.562	174.42
272.777	303.44
272.993	-124.58
273.209	-112.3
273.425	256.34
273.64	45.4
273.856	-85.67
274.072	-208.55
274.287	94.55
274.503	117.08
274.719	59.73
274.934	-175.78
275.15	-40.62
275.366	125.27
275.581	-181.93
275.797	-52.91
276.012	168.27
276.228	127.32
276.444	-120.49
276.659	98.64
276.875	108.88
277.09	59.73
277.306	-91.82
277.521	-24.23
277.737	211.28
277.952	196.95
278.168	-83.63
278.383	2.39
278.599	166.23
278.814	295.25
279.03	-91.82
279.245	43.35
279.461	160.08
279.676	203.09
279.892	-122.54
280.107	-128.68
280.322	80.21
280.538	252.24
280.753	-116.39
280.969	-134.82
281.184	174.42
281.399	201.04
281.615	-87.72
281.83	18.77
282.045	4.44
282.26	80.21
282.476	-44.71
282.691	33.11
282.906	264.53
283.122	84.31
283.337	-87.72
283.552	24.92
283.767	143.7
283.983	192.85
284.198	-61.1
284.413	-91.82
284.628	-7.85
284.843	211.28
285.058	-116.39
285.274	-126.63
285.489	145.75
285.704	141.65
285.919	-63.15
286.134	-50.86
286.349	82.26
286.564	131.41
286.779	29.01
286.995	-40.62
287.21	-36.52
287.425	172.37
287.64	10.58
287.855	117.08
288.07	-46.76
288.285	297.3
288.5	55.64
288.715	63.83
288.93	188.75
289.145	24.92
289.36	-40.62
289.575	33.11
289.79	366.93
290.004	127.32
290.219	51.54
290.434	-83.63
290.649	67.92
290.864	125.27
291.079	20.82
291.294	39.25
291.509	188.75
291.724	133.46
291.938	-71.34
292.153	-20.14
292.368	164.18
292.583	278.87
292.798	20.82
293.012	12.63
293.227	229.71
293.442	139.6
293.657	82.26
293.871	-85.67
294.086	248.15
294.301	297.3
294.516	-30.38
294.73	74.07
294.945	59.73
295.16	131.41
295.374	18.77
295.589	31.06
295.804	2.39
296.018	203.09
296.233	-81.58
296.447	51.54
296.662	174.42
296.877	364.88
297.091	-28.33
297.306	10.58
297.52	41.3
297.735	184.66
297.949	92.5
298.164	-153.26
298.378	205.14
298.593	-46.76
298.807	-69.29
299.022	57.68
299.236	387.41
299.451	35.16
299.665	-16.04
299.88	-5.8
300.094	207.19
300.309	119.12
300.523	6.49
300.737	-22.19
300.952	182.61
301.166	250.19
301.381	-71.34
301.595	-149.16
301.809	104.79
302.024	153.94
302.238	-52.91
302.452	100.69
302.667	141.65
302.881	311.63
303.095	20.82
303.309	43.35
303.524	123.22
303.738	100.69
303.952	8.53
304.166	24.92
304.381	-124.58
304.595	272.72
304.809	22.87
305.023	-71.34
305.237	127.32
305.452	90.45
305.666	-52.91
305.88	24.92
306.094	287.06
306.308	227.67
306.522	-61.1
306.736	104.79
306.95	231.76
307.164	-13.99
307.379	8.53
307.593	127.32
307.807	299.34
308.021	272.72
308.235	90.45
308.449	-89.77
308.663	106.84
308.877	465.23
309.091	35.16
309.305	14.68
309.519	-151.21
309.733	188.75
309.947	-61.1
310.161	-81.58
310.374	174.42
310.588	323.92
310.802	-91.82
311.016	10.58
311.23	213.33
311.444	-9.9
311.658	20.82
311.872	135.51
312.085	282.96
312.299	260.43
312.513	155.99
312.727	-63.15
312.941	67.92
313.154	133.46
313.368	43.35
313.582	-1.71
313.796	198.99
314.009	153.94
314.223	117.08
314.437	84.31
314.651	203.09
314.864	106.84
315.078	-59.05
315.292	-151.21
315.505	82.26
315.719	145.75
315.933	201.04
316.146	-95.91
316.36	0.34
316.573	233.81
316.787	96.6
317.001	117.08
317.214	-11.95
317.428	201.04
317.641	-67.24
317.855	-11.95
318.068	162.13
318.282	211.28
318.495	106.84
318.709	-28.33
318.922	168.27
319.136	295.25
319.349	18.77
319.563	-28.33
319.776	293.2
319.99	-69.29
320.203	8.53
320.417	-7.85
320.63	112.98
320.843	278.87
321.057	96.6
321.27	-95.91
321.483	246.1
321.697	188.75
321.91	-52.91
322.124	74.07
322.337	190.8
322.55	82.26
322.763	24.92
322.977	-54.95
323.19	57.68
323.403	176.47
323.617	-38.57
323.83	139.6
324.043	162.13
324.256	184.66
324.469	-241.32
324.683	86.36
324.896	121.17
325.109	8.53
325.322	-46.76
325.535	100.69
325.748	266.58
325.962	133.46
326.175	20.82
326.388	20.82
326.601	190.8
326.814	125.27
327.027	24.92
327.24	67.92
327.453	-38.57
327.666	96.6
327.879	180.56
328.092	37.2
328.305	215.38
328.518	69.97
328.731	-77.48
328.944	-79.53
329.157	174.42
329.37	80.21
329.583	162.13
329.796	67.92
330.009	-32.43
330.222	246.1
330.435	86.36
330.648	-5.8
330.861	198.99
331.073	153.94
331.286	39.25
331.499	31.06
331.712	31.06
331.925	90.45
332.138	-59.05
332.35	10.58
332.563	45.4
332.776	334.16
332.989	55.64
333.202	-138.92
333.414	184.66
333.627	53.59
333.84	-42.67
334.053	37.2
334.265	69.97
334.478	82.26
334.691	-7.85
334.903	104.79
335.116	125.27
335.329	119.12
335.541	16.73
335.754	166.23
335.966	119.12
336.179	127.32
336.392	6.49
336.604	-11.95
336.817	201.04
337.029	162.13
337.242	-54.95
337.454	-28.33
337.667	149.84
337.88	317.78
338.092	24.92
338.305	55.64
338.517	96.6
338.729	260.43
338.942	49.49
339.154	-54.95
339.367	-24.23
339.579	176.47
339.792	-155.3
340.004	2.39
340.217	160.08
340.429	196.95
340.641	-91.82
340.854	-151.21
341.066	194.9
341.278	213.33
341.491	145.75
341.703	31.06
341.915	98.64
342.128	258.39
342.34	76.12
342.552	-91.82
342.764	153.94
342.977	39.25
343.189	63.83
343.401	108.88
343.613	35.16
343.826	108.88
344.038	-44.71
344.25	98.64
344.462	51.54
344.674	143.7
344.886	-40.62
345.099	-50.86
345.311	170.32
345.523	6.49
345.735	-130.73
345.947	98.64
346.159	158.03
346.371	129.36
346.583	-65.19
346.795	127.32
347.007	22.87
347.219	137.56
347.431	51.54
347.643	170.32
347.855	14.68
348.067	254.29
348.279	10.58
348.491	-63.15
348.703	274.77
348.915	108.88
349.127	-42.67
349.339	-61.1
349.551	145.75
349.763	260.43
349.975	-18.09
350.187	14.68
350.399	311.63
350.61	231.76
350.822	2.39
351.034	-13.99
351.246	229.71
351.458	98.64
351.669	143.7
351.881	-102.06
352.093	323.92
352.305	264.53
352.517	-3.75
352.728	92.5
352.94	112.98
353.152	227.67
353.363	-93.87
353.575	78.16
353.787	446.8
353.999	252.24
354.21	112.98
354.422	-46.76
354.633	127.32
354.845	225.62
355.057	12.63
355.268	20.82
355.48	270.67
355.692	-30.38
355.903	31.06
356.115	-149.16
356.326	-112.3
356.538	383.31
356.749	76.12
356.961	110.93
357.172	155.99
357.384	14.68
357.595	225.62
357.807	-18.09
358.018	67.92
358.23	221.52
358.441	-54.95
358.653	-3.75
358.864	67.92
359.075	41.3
359.287	-9.9
359.498	117.08
359.709	248.15
359.921	147.8
360.132	45.4
360.344	-114.34
360.555	65.88
360.766	158.03
360.977	-59.05
361.189	147.8
361.4	117.08
361.611	207.19
361.823	84.31
362.034	20.82
362.245	-100.01
362.456	47.44
362.667	94.55
362.879	-54.95
363.09	227.67
363.301	205.14
363.512	-38.57
363.723	-54.95
363.935	133.46
364.146	239.95
364.357	-28.33
364.568	-42.67
364.779	-26.28
364.99	291.15
365.201	-11.95
365.412	98.64
365.623	10.58
365.834	211.28
366.045	-3.75
366.256	29.01
366.467	207.19
366.678	94.55
366.889	78.16
367.1	-85.67
367.311	237.91
367.522	31.06
367.733	131.41
367.944	26.96
368.155	196.95
368.366	139.6
368.577	98.64
368.788	184.66
368.999	110.93
369.209	151.89
369.42	102.74
369.631	395.6
369.842	188.75
370.053	145.75
370.264	22.87
370.474	-114.34
370.685	260.43
370.896	117.08
371.107	115.03
371.317	-36.52
371.528	137.56
371.739	289.1
371.95	29.01
372.16	69.97
372.371	-38.57
372.582	135.51
372.792	2.39
373.003	29.01
373.214	102.74
373.424	186.71
373.635	-44.71
373.846	145.75
374.056	209.23
374.267	67.92
374.477	49.49
374.688	-20.14
374.898	248.15
375.109	194.9
375.319	33.11
375.53	31.06
375.74	209.23
375.951	49.49
376.161	39.25
376.372	61.78
376.582	-3.75
376.793	162.13
377.003	-71.34
377.214	-48.81
377.424	252.24
377.635	112.98
377.845	6.49
378.055	170.32
378.266	-22.19
378.476	176.47
378.686	80.21
378.897	20.82
379.107	285.01
379.317	256.34
379.528	-120.49
379.738	74.07
379.948	-26.28
380.158	250.19
380.369	82.26
380.579	133.46
380.789	233.81
380.999	151.89
381.21	215.38
381.42	180.56
381.63	190.8
381.84	262.48
382.05	65.88
382.261	145.75
382.471	252.24
382.681	72.02
382.891	94.55
383.101	104.79
383.311	22.87
383.521	115.03
383.731	-48.81
383.941	94.55
384.151	170.32
384.361	43.35
384.571	-22.19
384.781	45.4
384.991	207.19
385.201	387.41
385.411	188.75
385.621	29.01
385.831	135.51
386.041	180.56
386.251	51.54
386.461	57.68
386.671	180.56
386.881	106.84
387.091	-89.77
387.301	141.65
387.511	119.12
387.72	153.94
387.93	16.73
388.14	-97.96
388.35	192.85
388.56	334.16
388.769	67.92
388.979	16.73
389.189	45.4
389.399	160.08
389.609	16.73
389.818	10.58
390.028	221.52
390.238	190.8
390.447	-59.05
390.657	10.58
390.867	151.89
391.076	-67.24
391.286	-18.09
391.496	20.82
391.705	123.22
391.915	274.77
392.125	-5.8
392.334	92.5
392.544	340.3
392.753	55.64
392.963	-26.28
393.172	-24.23
393.382	131.41
393.591	256.34
393.801	18.77
394.01	2.39
394.22	153.94
394.429	160.08
394.639	153.94
394.848	43.35
395.058	266.58
395.267	96.6
395.477	14.68
395.686	57.68
395.895	416.08
396.105	299.34
396.314	-13.99
396.524	10.58
396.733	149.84
396.942	260.43
397.152	-20.14
397.361	170.32
397.57	121.17
397.78	84.31
397.989	98.64
398.198	215.38
398.407	78.16
398.617	125.27
398.826	18.77
399.035	-30.38
399.244	221.52
399.453	170.32
399.663	-7.85
399.872	-20.14
400.081	18.77
400.29	268.63
400.499	-40.62
400.708	33.11
400.917	139.6
401.127	90.45
401.336	-81.58
401.545	282.96
401.754	332.11
401.963	293.2
402.172	-11.95
402.381	-7.85
402.59	110.93
402.799	137.56
403.008	201.04
403.217	-42.67
403.426	160.08
403.635	-30.38
403.844	-67.24
404.053	-89.77
404.262	143.7
404.471	295.25
404.68	29.01
404.888	24.92
405.097	92.5
405.306	88.4
405.515	102.74
405.724	-16.04
405.933	293.2
406.142	215.38
406.35	47.44
406.559	20.82
406.768	112.98
406.977	405.84
407.185	72.02
407.394	80.21
407.603	41.3
407.812	123.22
408.02	121.17
408.229	-9.9
408.438	231.76
408.646	-30.38
408.855	-102.06
409.064	-28.33
409.272	94.55
409.481	231.76
409.69	-42.67
409.898	10.58
410.107	182.61
410.315	221.52
410.524	78.16
410.733	-20.14
410.941	188.75
411.15	239.95
411.358	-5.8
411.567	158.03
411.775	188.75
411.984	92.5
412.192	121.17
412.401	104.79
412.609	397.65
412.818	299.34
413.026	100.69
413.234	6.49
413.443	135.51
413.651	84.31
413.86	-120.49
414.068	198.99
414.276	407.89
414.485	43.35
414.693	135.51
414.901	250.19
415.11	201.04
415.318	215.38
415.526	18.77
415.734	176.47
415.943	162.13
416.151	239.95
416.359	45.4
416.567	96.6
416.776	282.96
416.984	207.19
417.192	155.99
417.4	-59.05
417.608	110.93
417.817	57.68
418.025	201.04
418.233	-7.85
418.441	69.97
418.649	-114.34
418.857	69.97
419.065	153.94
419.273	108.88
419.481	158.03
419.689	53.59
419.897	-16.04
420.105	51.54
420.313	248.15
420.521	147.8
420.729	147.8
420.937	170.32
421.145	-32.43
421.353	47.44
421.561	119.12
421.769	209.23
421.977	67.92
422.185	67.92
422.393	12.63
422.601	227.67
422.809	166.23
423.017	106.84
423.224	69.97
423.432	303.44
423.64	133.46
423.848	-48.81
424.056	-50.86
424.263	256.34
424.471	55.64
424.679	135.51
424.887	-77.48
425.094	328.02
425.302	205.14
425.51	-100.01
425.718	2.39
425.925	192.85
426.133	-77.48
426.341	158.03
426.548	26.96
426.756	108.88
426.964	176.47
427.171	43.35
427.379	69.97
427.586	229.71
427.794	196.95
428.001	143.7
428.209	108.88
428.417	364.88
428.624	244.05
428.832	104.79
429.039	137.56
429.247	141.65
429.454	211.28
429.662	82.26
429.869	55.64
430.076	215.38
430.284	158.03
430.491	69.97
430.699	166.23
430.906	368.98
431.114	153.94
431.321	69.97
431.528	121.17
431.736	180.56
431.943	182.61
432.15	22.87
432.358	72.02
432.565	397.65
432.772	-112.3
432.979	145.75
433.187	84.31
433.394	373.07
433.601	78.16
433.808	139.6
434.016	143.7
434.223	256.34
434.43	244.05
434.637	45.4
434.844	198.99
435.052	231.76
435.259	219.47
435.466	110.93
435.673	119.12
435.88	258.39
436.087	379.22
436.294	311.63
436.501	180.56
436.708	262.48
436.915	282.96
437.122	233.81
437.329	-52.91
437.537	166.23
437.743	217.43
437.95	270.67
438.157	92.5
438.364	225.62
438.571	160.08
438.778	100.69
438.985	119.12
439.192	305.49
439.399	264.53
439.606	143.7
439.813	192.85
440.02	475.47
440.227	491.85
440.433	278.87
440.64	198.99
440.847	295.25
441.054	258.39
441.261	231.76
441.467	182.61
441.674	221.52
441.881	323.92
442.088	65.88
442.294	225.62
442.501	387.41
442.708	506.19
442.914	143.7
443.121	180.56
443.328	332.11
443.534	489.81
443.741	184.66
443.948	74.07
444.154	360.78
444.361	530.77
444.568	198.99
444.774	323.92
444.981	203.09
445.187	512.33
445.394	233.81
445.6	276.82
445.807	381.26
446.013	385.36
446.22	125.27
446.426	311.63
446.633	387.41
446.839	573.77
447.046	129.36
447.252	401.74
447.459	405.84
447.665	436.56
447.871	323.92
448.078	635.21
448.284	573.77
448.491	543.05
448.697	508.24
448.903	495.95
449.11	651.6
449.316	473.42
449.522	643.4
449.728	518.48
449.935	608.59
450.141	627.02
450.347	592.2
450.553	516.43
450.76	643.4
450.966	592.2
451.172	684.36
451.378	602.44
451.584	825.67
451.791	948.55
451.997	676.17
452.203	606.54
452.409	1059.14
452.615	1065.29
452.821	710.99
453.027	713.03
453.233	1126.72
453.44	885.06
453.646	782.67
453.852	854.34
454.058	780.62
454.264	1059.14
454.47	995.65
454.676	893.26
454.882	1077.57
455.088	1175.88
455.294	907.59
455.5	1134.92
455.705	1096
455.911	1151.3
456.117	905.54
456.323	997.7
456.529	1128.77
456.735	1186.12
456.941	1059.14
457.147	1120.58
457.352	1200.45
457.558	1108.29
457.764	1085.76
457.97	1024.33
458.176	1192.26
458.381	1116.48
458.587	1179.97
458.793	1263.94
458.999	1083.72
459.204	1184.07
459.41	1022.28
459.616	1134.92
459.821	1288.51
460.027	966.98
460.233	1182.02
460.438	1079.62
460.644	1177.92
460.85	1155.4
461.055	1202.5
461.261	1128.77
461.466	1034.57
461.672	1141.06
461.878	921.93
462.083	1063.24
462.289	948.55
