Data from USB4F104151__2__11-39-33-136.txt Node

Date: Wed Feb 19 11:39:33 EST 2025
User: louis
Spectrometer: USB4F10415
Trigger mode: 4
Integration Time (sec): 2.250200E-1
Scans to average: 1
Electric dark correction enabled: true
Nonlinearity correction enabled: false
Boxcar width: 0
XAxis mode: Wavelengths
Number of Pixels in Spectrum: 3648
>>>>>Begin Spectral Data<<<<<
178.204	-762.53
178.424	-762.53
178.644	-762.53
178.864	-846.49
179.084	-809.63
179.304	148.82
179.524	109.91
179.744	-19.11
179.964	-158.38
180.184	152.91
180.404	118.1
180.624	-271.01
180.844	-131.75
181.064	46.42
181.283	220.5
181.503	-158.38
181.723	-58.03
181.943	-70.31
182.163	527.69
182.383	-201.38
182.602	-113.32
182.822	435.53
183.042	165.2
183.262	-172.71
183.482	-187.05
183.701	253.27
183.921	245.07
184.141	-107.18
184.361	-162.47
184.58	240.98
184.8	197.97
185.02	-203.43
185.239	-58.03
185.459	243.03
185.679	466.25
185.898	-240.3
186.118	-158.38
186.338	181.59
186.557	326.99
186.777	-225.96
186.997	-185
187.216	177.49
187.436	470.35
187.655	-148.14
187.875	-15.02
188.095	181.59
188.314	449.87
188.534	-62.12
188.753	-223.91
188.973	374.1
189.192	509.26
189.412	-154.28
189.631	-213.67
189.851	376.14
190.07	417.1
190.29	-172.71
190.509	-250.53
190.729	212.31
190.948	402.77
191.168	-21.16
191.387	-158.38
191.607	234.83
191.826	261.46
192.045	-92.84
192.265	-201.38
192.484	353.62
192.704	210.26
192.923	-125.61
193.142	30.04
193.362	331.09
193.581	398.67
193.8	-23.21
194.02	-96.94
194.239	312.66
194.458	357.71
194.678	-82.6
194.897	-199.34
195.116	247.12
195.335	261.46
195.555	-101.03
195.774	-268.97
195.993	294.22
196.212	195.92
196.432	-68.27
196.651	-268.97
196.87	214.35
197.089	603.47
197.308	-92.84
197.528	-172.71
197.747	81.24
197.966	167.25
198.185	-27.31
198.404	-217.77
198.623	337.23
198.842	302.42
199.062	-101.03
199.281	-64.17
199.5	218.45
199.719	316.75
199.938	-170.66
200.157	-131.75
200.376	367.95
200.595	228.69
200.814	-84.65
201.033	-152.23
201.252	470.35
201.471	240.98
201.69	-152.23
201.909	-58.03
202.128	294.22
202.347	263.51
202.566	-119.46
202.785	-258.73
203.004	66.9
203.223	562.51
203.442	-150.18
203.661	-232.1
203.879	302.42
204.098	312.66
204.317	-191.14
204.536	-25.26
204.755	351.57
204.974	308.56
205.193	-215.72
205.411	-66.22
205.63	410.96
205.849	195.92
206.068	-178.86
206.287	-279.21
206.505	398.67
206.724	228.69
206.943	-139.94
207.162	-174.76
207.381	238.93
207.599	120.15
207.818	-113.32
208.037	-279.21
208.255	210.26
208.474	269.65
208.693	-115.37
208.911	-148.14
209.13	374.1
209.349	312.66
209.567	-0.68
209.786	-178.86
210.005	351.57
210.223	214.35
210.442	-381.6
210.661	-318.12
210.879	247.12
211.098	228.69
211.316	-123.56
211.535	-162.47
211.753	263.51
211.972	286.03
212.191	-105.13
212.409	-23.21
212.628	316.75
212.846	56.66
213.065	-203.43
213.283	-129.7
213.502	212.31
213.72	173.39
213.938	-187.05
214.157	-144.04
214.375	357.71
214.594	77.14
214.812	-101.03
215.031	-121.51
215.249	208.21
215.467	275.79
215.686	-47.79
215.904	-182.95
216.122	245.07
216.341	386.38
216.559	75.09
216.778	-109.22
216.996	431.44
217.214	95.57
217.432	-115.37
217.651	-244.39
217.869	240.98
218.087	189.78
218.306	-176.81
218.524	-168.62
218.742	197.97
218.96	374.1
219.179	-166.57
219.397	-225.96
219.615	429.39
219.833	279.89
220.051	-207.53
220.27	-103.08
220.488	380.24
220.706	349.52
220.924	-164.52
221.142	-160.42
221.36	218.45
221.578	236.88
221.796	-185
222.015	-70.31
222.233	157.01
222.451	349.52
222.669	-129.7
222.887	-68.27
223.105	167.25
223.323	193.87
223.541	-205.48
223.759	-125.61
223.977	183.63
224.195	421.2
224.413	-68.27
224.631	-203.43
224.849	238.93
225.067	554.32
225.285	-135.85
225.503	-166.57
225.721	-76.46
225.939	365.9
226.157	-96.94
226.375	-10.92
226.592	171.35
226.81	216.4
227.028	23.89
227.246	-176.81
227.464	261.46
227.682	312.66
227.9	-111.27
228.117	-60.07
228.335	286.03
228.553	163.15
228.771	-223.91
228.989	-107.18
229.206	294.22
229.424	75.09
229.642	-119.46
229.86	-137.9
230.077	365.9
230.295	191.83
230.513	-53.93
230.731	-78.51
230.948	447.82
231.166	349.52
231.384	-60.07
231.601	-137.9
231.819	404.82
232.037	165.2
232.254	-19.11
232.472	-117.42
232.689	193.87
232.907	302.42
233.125	-187.05
233.342	-234.15
233.56	138.58
233.777	120.15
233.995	-191.14
234.213	-60.07
234.43	294.22
234.648	114
234.865	-148.14
235.083	-25.26
235.3	195.92
235.518	339.28
235.735	-45.74
235.953	-123.56
236.17	243.03
236.388	154.96
236.605	7.51
236.822	-123.56
237.04	400.72
237.257	236.88
237.475	-121.51
237.692	-170.66
237.909	349.52
238.127	157.01
238.344	-19.11
238.562	-98.99
238.779	40.28
238.996	93.52
239.214	-21.16
239.431	-144.04
239.648	79.19
239.865	294.22
240.083	-37.55
240.3	-225.96
240.517	146.77
240.735	189.78
240.952	89.43
241.169	-217.77
241.386	267.6
241.603	212.31
241.821	-148.14
242.038	-58.03
242.255	376.14
242.472	77.14
242.689	-27.31
242.907	-137.9
243.124	191.83
243.341	130.39
243.558	-43.69
243.775	-203.43
243.992	17.75
244.209	257.36
244.426	-49.83
244.643	-84.65
244.86	159.06
245.078	353.62
245.295	-80.55
245.512	-168.62
245.729	56.66
245.946	308.56
246.163	-74.41
246.38	-123.56
246.597	206.16
246.814	230.74
247.031	15.7
247.248	-207.53
247.464	318.8
247.681	171.35
247.898	-10.92
248.115	-43.69
248.332	75.09
248.549	355.66
248.766	66.9
248.983	-96.94
249.2	257.36
249.417	232.79
249.633	-121.51
249.85	-60.07
250.067	185.68
250.284	214.35
250.501	-182.95
250.717	-146.09
250.934	52.56
251.151	150.87
251.368	-74.41
251.585	-43.69
251.801	202.07
252.018	81.24
252.235	-29.35
252.451	-148.14
252.668	138.58
252.885	218.45
253.102	-51.88
253.318	-94.89
253.535	165.2
253.752	50.52
253.968	-141.99
254.185	-271.01
254.401	245.07
254.618	290.13
254.835	-109.22
255.051	-35.5
255.268	312.66
255.484	232.79
255.701	-66.22
255.917	-133.8
256.134	122.2
256.351	179.54
256.567	-170.66
256.784	-8.87
257	-17.07
257.217	349.52
257.433	107.86
257.65	-72.36
257.866	386.38
258.082	19.8
258.299	-115.37
258.515	-148.14
258.732	179.54
258.948	89.43
259.165	-41.64
259.381	-223.91
259.597	324.94
259.814	132.44
260.03	-197.29
260.246	-125.61
260.463	306.51
260.679	218.45
260.895	-62.12
261.112	9.56
261.328	136.53
261.544	7.51
261.761	-92.84
261.977	-197.29
262.193	50.52
262.409	283.98
262.626	62.8
262.842	-109.22
263.058	95.57
263.274	324.94
263.49	-86.7
263.707	-86.7
263.923	314.7
264.139	-51.88
264.355	-62.12
264.571	-72.36
264.787	290.13
265.004	357.71
265.22	-27.31
265.436	-141.99
265.652	109.91
265.868	265.55
266.084	-158.38
266.3	-45.74
266.516	56.66
266.732	165.2
266.948	-90.79
267.164	-113.32
267.38	234.83
267.596	279.89
267.812	-15.02
268.028	-70.31
268.244	144.72
268.46	243.03
268.676	-51.88
268.892	-21.16
269.108	157.01
269.324	32.08
269.54	-123.56
269.756	-84.65
269.972	-19.11
270.188	93.52
270.403	-76.46
270.619	-98.99
270.835	251.22
271.051	150.87
271.267	-98.99
271.483	-131.75
271.698	329.04
271.914	263.51
272.13	-78.51
272.346	-76.46
272.562	351.57
272.777	355.66
272.993	-10.92
273.209	-90.79
273.425	343.38
273.64	46.42
273.856	-25.26
274.072	-215.72
274.287	64.85
274.503	294.22
274.719	17.75
274.934	-152.23
275.15	-27.31
275.366	169.3
275.581	-94.89
275.797	-25.26
276.012	195.92
276.228	105.81
276.444	-70.31
276.659	44.37
276.875	89.43
277.09	185.68
277.306	-17.07
277.521	3.41
277.737	120.15
277.952	157.01
278.168	-129.7
278.383	-17.07
278.599	93.52
278.814	335.18
279.03	-156.33
279.245	-12.97
279.461	136.53
279.676	208.21
279.892	-66.22
280.107	-80.55
280.322	107.86
280.538	243.03
280.753	-191.14
280.969	-92.84
281.184	228.69
281.399	331.09
281.615	-10.92
281.83	79.19
282.045	15.7
282.26	7.51
282.476	-107.18
282.691	114
282.906	200.02
283.122	189.78
283.337	-0.68
283.552	71
283.767	107.86
283.983	210.26
284.198	5.46
284.413	-109.22
284.628	83.28
284.843	243.03
285.058	-43.69
285.274	-68.27
285.489	101.72
285.704	126.29
285.919	-92.84
286.134	54.61
286.349	197.97
286.564	-8.87
286.779	36.18
286.995	62.8
287.21	81.24
287.425	183.63
287.64	-70.31
287.855	58.71
288.07	13.65
288.285	300.37
288.5	-35.5
288.715	-47.79
288.93	134.48
289.145	71
289.36	-64.17
289.575	-29.35
289.79	341.33
290.004	13.65
290.219	-33.45
290.434	-123.56
290.649	179.54
290.864	87.38
291.079	-15.02
291.294	95.57
291.509	187.73
291.724	62.8
291.938	30.04
292.153	-64.17
292.368	171.35
292.583	226.64
292.798	40.28
293.012	-2.73
293.227	247.12
293.442	95.57
293.657	103.76
293.871	21.84
294.086	281.94
294.301	306.51
294.516	40.28
294.73	85.33
294.945	68.95
295.16	159.06
295.374	40.28
295.589	62.8
295.804	62.8
296.018	161.11
296.233	-27.31
296.447	85.33
296.662	89.43
296.877	345.42
297.091	79.19
297.306	-23.21
297.52	60.76
297.735	265.55
297.949	118.1
298.164	-174.76
298.378	187.73
298.593	-72.36
298.807	-98.99
299.022	-27.31
299.236	259.41
299.451	79.19
299.665	75.09
299.88	68.95
300.094	304.46
300.309	161.11
300.523	-60.07
300.737	3.41
300.952	204.11
301.166	163.15
301.381	-70.31
301.595	-133.8
301.809	181.59
302.024	66.9
302.238	-68.27
302.452	105.81
302.667	173.39
302.881	253.27
303.095	30.04
303.309	1.37
303.524	122.2
303.738	95.57
303.952	58.71
304.166	-19.11
304.381	-144.04
304.595	302.42
304.809	-15.02
305.023	-41.64
305.237	114
305.452	91.48
305.666	-51.88
305.88	-33.45
306.094	286.03
306.308	269.65
306.522	-94.89
306.736	75.09
306.95	230.74
307.164	120.15
307.379	32.08
307.593	81.24
307.807	279.89
308.021	281.94
308.235	193.87
308.449	-15.02
308.663	54.61
308.877	474.45
309.091	5.46
309.305	159.06
309.519	11.61
309.733	281.94
309.947	-90.79
310.161	-60.07
310.374	191.83
310.588	302.42
310.802	-41.64
311.016	-45.74
311.23	210.26
311.444	68.95
311.658	44.37
311.872	173.39
312.085	189.78
312.299	292.18
312.513	27.99
312.727	13.65
312.941	23.89
313.154	89.43
313.368	7.51
313.582	7.51
313.796	224.59
314.009	34.13
314.223	183.63
314.437	54.61
314.651	177.49
314.864	58.71
315.078	-47.79
315.292	-60.07
315.505	101.72
315.719	144.72
315.933	68.95
316.146	-82.6
316.36	7.51
316.573	197.97
316.787	183.63
317.001	9.56
317.214	-4.78
317.428	144.72
317.641	-19.11
317.855	32.08
318.068	197.97
318.282	122.2
318.495	128.34
318.709	7.51
318.922	111.96
319.136	322.9
319.349	114
319.563	-4.78
319.776	206.16
319.99	-98.99
320.203	91.48
320.417	-29.35
320.63	97.62
320.843	351.57
321.057	95.57
321.27	-8.87
321.483	302.42
321.697	171.35
321.91	-68.27
322.124	25.94
322.337	191.83
322.55	30.04
322.763	25.94
322.977	-58.03
323.19	27.99
323.403	169.3
323.617	25.94
323.83	208.21
324.043	197.97
324.256	109.91
324.469	-254.63
324.683	161.11
324.896	157.01
325.109	169.3
325.322	-174.76
325.535	87.38
325.748	277.84
325.962	132.44
326.175	15.7
326.388	-2.73
326.601	210.26
326.814	107.86
327.027	56.66
327.24	99.67
327.453	-8.87
327.666	185.68
327.879	183.63
328.092	-6.83
328.305	159.06
328.518	122.2
328.731	11.61
328.944	-82.6
329.157	204.11
329.37	-2.73
329.583	226.64
329.796	77.14
330.009	-10.92
330.222	218.45
330.435	36.18
330.648	-39.59
330.861	234.83
331.073	173.39
331.286	36.18
331.499	-64.17
331.712	62.8
331.925	202.07
332.138	154.96
332.35	-4.78
332.563	87.38
332.776	300.37
332.989	-62.12
333.202	-72.36
333.414	97.62
333.627	226.64
333.84	-53.93
334.053	58.71
334.265	130.39
334.478	50.52
334.691	-23.21
334.903	122.2
335.116	60.76
335.329	87.38
335.541	13.65
335.754	238.93
335.966	17.75
336.179	193.87
336.392	17.75
336.604	56.66
336.817	165.2
337.029	179.54
337.242	-55.98
337.454	54.61
337.667	154.96
337.88	318.8
338.092	107.86
338.305	62.8
338.517	126.29
338.729	124.24
338.942	25.94
339.154	-66.22
339.367	11.61
339.579	142.68
339.792	-127.66
340.004	50.52
340.217	136.53
340.429	171.35
340.641	-68.27
340.854	-62.12
341.066	193.87
341.278	257.36
341.491	146.77
341.703	-90.79
341.915	27.99
342.128	200.02
342.34	36.18
342.552	56.66
342.764	234.83
342.977	128.34
343.189	9.56
343.401	109.91
343.613	-43.69
343.826	171.35
344.038	-10.92
344.25	-6.83
344.462	62.8
344.674	132.44
344.886	-146.09
345.099	-6.83
345.311	187.73
345.523	95.57
345.735	-152.23
345.947	54.61
346.159	150.87
346.371	175.44
346.583	11.61
346.795	73.04
347.007	105.81
347.219	222.55
347.431	62.8
347.643	120.15
347.855	77.14
348.067	347.47
348.279	-127.66
348.491	-74.41
348.703	218.45
348.915	193.87
349.127	-58.03
349.339	-31.4
349.551	220.5
349.763	288.08
349.975	7.51
350.187	97.62
350.399	376.14
350.61	208.21
350.822	-21.16
351.034	60.76
351.246	220.5
351.458	171.35
351.669	48.47
351.881	48.47
352.093	363.86
352.305	187.73
352.517	-29.35
352.728	105.81
352.94	175.44
353.152	243.03
353.363	-123.56
353.575	44.37
353.787	460.11
353.999	210.26
354.21	122.2
354.422	-117.42
354.633	208.21
354.845	105.81
355.057	73.04
355.268	5.46
355.48	238.93
355.692	-84.65
355.903	9.56
356.115	-76.46
356.326	-113.32
356.538	320.85
356.749	-64.17
356.961	103.76
357.172	173.39
357.384	25.94
357.595	273.75
357.807	-10.92
358.018	62.8
358.23	124.24
358.441	1.37
358.653	-31.4
358.864	136.53
359.075	38.23
359.287	-23.21
359.498	111.96
359.709	234.83
359.921	169.3
360.132	30.04
360.344	-68.27
360.555	7.51
360.766	177.49
360.977	-23.21
361.189	114
361.4	193.87
361.611	245.07
361.823	64.85
362.034	-35.5
362.245	25.94
362.456	144.72
362.667	105.81
362.879	-94.89
363.09	238.93
363.301	214.35
363.512	-74.41
363.723	-113.32
363.935	173.39
364.146	236.88
364.357	-45.74
364.568	-0.68
364.779	17.75
364.99	234.83
365.201	3.41
365.412	120.15
365.623	-25.26
365.834	185.68
366.045	60.76
366.256	50.52
366.467	288.08
366.678	97.62
366.889	68.95
367.1	13.65
367.311	286.03
367.522	91.48
367.733	17.75
367.944	48.47
368.155	175.44
368.366	216.4
368.577	68.95
368.788	140.63
368.999	99.67
369.209	159.06
369.42	120.15
369.631	421.2
369.842	220.5
370.053	142.68
370.264	-27.31
370.474	-76.46
370.685	195.92
370.896	73.04
371.107	120.15
371.317	-8.87
371.528	175.44
371.739	234.83
371.95	50.52
372.16	46.42
372.371	-8.87
372.582	109.91
372.792	79.19
373.003	64.85
373.214	214.35
373.424	218.45
373.635	-37.55
373.846	107.86
374.056	177.49
374.267	120.15
374.477	93.52
374.688	15.7
374.898	189.78
375.109	169.3
375.319	128.34
375.53	13.65
375.74	347.47
375.951	73.04
376.161	111.96
376.372	17.75
376.582	120.15
376.793	253.27
377.003	-84.65
377.214	-10.92
377.424	212.31
377.635	93.52
377.845	-43.69
378.055	71
378.266	-64.17
378.476	144.72
378.686	-10.92
378.897	103.76
379.107	304.46
379.317	267.6
379.528	-80.55
379.738	128.34
379.948	1.37
380.158	300.37
380.369	77.14
380.579	23.89
380.789	124.24
380.999	216.4
381.21	95.57
381.42	183.63
381.63	152.91
381.84	212.31
382.05	126.29
382.261	114
382.471	271.7
382.681	75.09
382.891	60.76
383.101	136.53
383.311	11.61
383.521	23.89
383.731	-62.12
383.941	118.1
384.151	134.48
384.361	17.75
384.571	-10.92
384.781	77.14
384.991	277.84
385.201	433.49
385.411	146.77
385.621	-27.31
385.831	87.38
386.041	216.4
386.251	25.94
386.461	154.96
386.671	159.06
386.881	167.25
387.091	13.65
387.301	95.57
387.511	154.96
387.72	167.25
387.93	101.72
388.14	-105.13
388.35	73.04
388.56	333.14
388.769	89.43
388.979	62.8
389.189	122.2
389.399	171.35
389.609	25.94
389.818	11.61
390.028	259.41
390.238	216.4
390.447	-123.56
390.657	-43.69
390.867	130.39
391.076	-39.59
391.286	-55.98
391.496	-51.88
391.705	142.68
391.915	267.6
392.125	-23.21
392.334	21.84
392.544	376.14
392.753	79.19
392.963	13.65
393.172	21.84
393.382	87.38
393.591	296.27
393.801	-39.59
394.01	30.04
394.22	179.54
394.429	111.96
394.639	11.61
394.848	118.1
395.058	204.11
395.267	154.96
395.477	136.53
395.686	93.52
395.895	591.18
396.105	351.57
396.314	134.48
396.524	128.34
396.733	52.56
396.942	277.84
397.152	-15.02
397.361	263.51
397.57	136.53
397.78	152.91
397.989	120.15
398.198	247.12
398.407	50.52
398.617	89.43
398.826	30.04
399.035	-12.97
399.244	200.02
399.453	132.44
399.663	9.56
399.872	-82.6
400.081	73.04
400.29	230.74
400.499	1.37
400.708	105.81
400.917	150.87
401.127	83.28
401.336	46.42
401.545	234.83
401.754	310.61
401.963	218.45
402.172	54.61
402.381	-15.02
402.59	120.15
402.799	77.14
403.008	103.76
403.217	66.9
403.426	255.31
403.635	-53.93
403.844	-135.85
404.053	-33.45
404.262	40.28
404.471	304.46
404.68	91.48
404.888	68.95
405.097	71
405.306	214.35
405.515	111.96
405.724	3.41
405.933	281.94
406.142	197.97
406.35	44.37
406.559	-35.5
406.768	187.73
406.977	400.72
407.185	116.05
407.394	-17.07
407.603	5.46
407.812	163.15
408.02	177.49
408.229	54.61
408.438	202.07
408.646	30.04
408.855	-123.56
409.064	27.99
409.272	118.1
409.481	195.92
409.69	-2.73
409.898	-23.21
410.107	251.22
410.315	197.97
410.524	40.28
410.733	-29.35
410.941	251.22
411.15	220.5
411.358	58.71
411.567	202.07
411.775	263.51
411.984	191.83
412.192	68.95
412.401	-25.26
412.609	374.1
412.818	277.84
413.026	91.48
413.234	-4.78
413.443	281.94
413.651	103.76
413.86	-76.46
414.068	214.35
414.276	433.49
414.485	132.44
414.693	101.72
414.901	154.96
415.11	193.87
415.318	120.15
415.526	71
415.734	124.24
415.943	240.98
416.151	300.37
416.359	66.9
416.567	89.43
416.776	283.98
416.984	247.12
417.192	144.72
417.4	-19.11
417.608	150.87
417.817	-2.73
418.025	150.87
418.233	21.84
418.441	7.51
418.649	40.28
418.857	42.32
419.065	167.25
419.273	83.28
419.481	171.35
419.689	73.04
419.897	-31.4
420.105	25.94
420.313	236.88
420.521	122.2
420.729	124.24
420.937	150.87
421.145	52.56
421.353	36.18
421.561	177.49
421.769	202.07
421.977	73.04
422.185	167.25
422.393	60.76
422.601	208.21
422.809	204.11
423.017	93.52
423.224	-17.07
423.432	378.19
423.64	128.34
423.848	-10.92
424.056	-107.18
424.263	298.32
424.471	134.48
424.679	208.21
424.887	-4.78
425.094	333.14
425.302	243.03
425.51	-62.12
425.718	64.85
425.925	185.68
426.133	32.08
426.341	200.02
426.548	-23.21
426.756	157.01
426.964	181.59
427.171	19.8
427.379	66.9
427.586	200.02
427.794	269.65
428.001	128.34
428.209	42.32
428.417	300.37
428.624	314.7
428.832	-0.68
429.039	122.2
429.247	228.69
429.454	195.92
429.662	130.39
429.869	130.39
430.076	191.83
430.284	269.65
430.491	3.41
430.699	54.61
430.906	337.23
431.114	204.11
431.321	87.38
431.528	109.91
431.736	193.87
431.943	249.17
432.15	58.71
432.358	111.96
432.565	423.25
432.772	-68.27
432.979	136.53
433.187	-27.31
433.394	339.28
433.601	105.81
433.808	27.99
434.016	144.72
434.223	185.68
434.43	152.91
434.637	71
434.844	179.54
435.052	214.35
435.259	269.65
435.466	202.07
435.673	128.34
435.88	394.58
436.087	318.8
436.294	251.22
436.501	214.35
436.708	283.98
436.915	210.26
437.122	240.98
437.329	60.76
437.537	218.45
437.743	320.85
437.95	259.41
438.157	89.43
438.364	152.91
438.571	159.06
438.778	99.67
438.985	187.73
439.192	339.28
439.399	265.55
439.606	136.53
439.813	193.87
440.02	458.06
440.227	441.68
440.433	144.72
440.64	126.29
440.847	163.15
441.054	271.7
441.261	138.58
441.467	206.16
441.674	234.83
441.881	427.34
442.088	181.59
442.294	263.51
442.501	431.44
442.708	365.9
442.914	169.3
443.121	116.05
443.328	380.24
443.534	501.07
443.741	210.26
443.948	93.52
444.154	458.06
444.361	550.22
444.568	275.79
444.774	195.92
444.981	148.82
445.187	542.03
445.394	249.17
445.6	277.84
445.807	423.25
446.013	380.24
446.22	97.62
446.426	367.95
446.633	468.3
446.839	695.63
447.046	189.78
447.252	382.29
447.459	460.11
447.665	359.76
447.871	320.85
448.078	539.98
448.284	646.48
448.491	603.47
448.697	376.14
448.903	443.73
449.11	644.43
449.316	447.82
449.522	519.5
449.728	437.58
449.935	599.37
450.141	488.78
450.347	552.27
450.553	480.59
450.76	654.67
450.966	634.19
451.172	621.9
451.378	542.03
451.584	646.48
451.791	785.74
451.997	705.87
452.203	613.71
452.409	791.88
452.615	787.79
452.821	597.32
453.027	736.59
453.233	1033.54
453.44	795.98
453.646	611.66
453.852	748.87
454.058	718.15
454.264	965.96
454.47	908.62
454.676	750.92
454.882	994.63
455.088	916.81
455.294	927.05
455.5	1019.21
455.705	1072.45
455.911	980.29
456.117	800.07
456.323	888.14
456.529	935.24
456.735	1054.02
456.941	931.14
457.147	1021.25
457.352	1176.9
457.558	1021.25
457.764	965.96
457.97	929.1
458.176	1189.19
458.381	1060.17
458.587	1019.21
458.793	1074.5
458.999	1062.21
459.204	994.63
459.41	1019.21
459.616	1017.16
459.821	1158.47
460.027	931.14
460.233	1062.21
460.438	1021.25
460.644	1041.73
460.85	1127.75
461.055	1064.26
461.261	1054.02
461.466	920.9
461.672	996.68
461.878	789.83
462.083	998.73
462.289	826.7
462.494	939.34
462.7	945.48
462.905	863.56
463.111	1262.91
