Data from USB4F104151__0__12-54-15-542.txt Node

Date: Wed Feb 19 12:54:15 EST 2025
User: louis
Spectrometer: USB4F10415
Trigger mode: 4
Integration Time (sec): 1.000000E-1
Scans to average: 1
Electric dark correction enabled: true
Nonlinearity correction enabled: false
Boxcar width: 0
XAxis mode: Wavelengths
Number of Pixels in Spectrum: 3648
>>>>>Begin Spectral Data<<<<<
178.204	-237.74
178.424	-237.74
178.644	-237.74
178.864	-360.61
179.084	-370.85
179.304	53.08
179.524	-57.51
179.744	-28.84
179.964	16.21
180.184	48.98
180.404	-8.36
180.624	-4.27
180.844	-18.6
181.064	-30.89
181.283	40.79
181.503	-49.32
181.723	38.74
181.943	-123.05
182.163	165.71
182.383	10.07
182.602	118.61
182.822	73.56
183.042	12.12
183.262	32.6
183.482	38.74
183.701	44.88
183.921	81.75
184.141	-28.84
184.361	28.5
184.58	53.08
184.8	40.79
185.02	-24.75
185.239	106.32
185.459	24.4
185.679	40.79
185.898	-37.03
186.118	98.13
186.338	-8.36
186.557	71.51
186.777	1.88
186.997	8.02
187.216	-6.31
187.436	147.28
187.655	73.56
187.875	24.4
188.095	57.17
188.314	32.6
188.534	91.99
188.753	-41.13
188.973	71.51
189.192	130.9
189.412	46.93
189.631	-4.27
189.851	81.75
190.07	122.71
190.29	-84.14
190.509	-10.41
190.729	83.8
190.948	137.04
191.168	259.92
191.387	57.17
191.607	-61.61
191.826	32.6
192.045	-65.71
192.265	-39.08
192.484	34.64
192.704	-4.27
192.923	-24.75
193.142	188.24
193.362	38.74
193.581	126.8
193.8	32.6
194.02	96.08
194.239	36.69
194.458	57.17
194.678	83.8
194.897	8.02
195.116	12.12
195.335	59.22
195.555	73.56
195.774	5.97
195.993	-8.36
196.212	5.97
196.432	22.36
196.651	-24.75
196.87	-26.79
197.089	147.28
197.308	61.27
197.528	73.56
197.747	-51.37
197.966	12.12
198.185	116.56
198.404	-32.94
198.623	16.21
198.842	34.64
199.062	53.08
199.281	120.66
199.5	22.36
199.719	71.51
199.938	51.03
200.157	98.13
200.376	40.79
200.595	110.42
200.814	1.88
201.033	-10.41
201.252	139.09
201.471	89.94
201.69	63.32
201.909	48.98
202.128	53.08
202.347	94.04
202.566	42.84
202.785	-47.27
203.004	77.65
203.223	188.24
203.442	65.36
203.661	-16.55
203.879	-4.27
204.098	98.13
204.317	-20.65
204.536	40.79
204.755	94.04
204.974	55.12
205.193	14.17
205.411	159.57
205.63	65.36
205.849	32.6
206.068	3.93
206.287	16.21
206.505	3.93
206.724	69.46
206.943	24.4
207.162	32.6
207.381	81.75
207.599	30.55
207.818	-20.65
208.037	-45.23
208.255	42.84
208.474	-10.41
208.693	18.26
208.911	-8.36
209.13	57.17
209.349	89.94
209.567	48.98
209.786	53.08
210.005	110.42
210.223	12.12
210.442	8.02
210.661	128.85
210.879	22.36
211.098	-4.27
211.316	-32.94
211.535	16.21
211.753	65.36
211.972	65.36
212.191	18.26
212.409	-32.94
212.628	-4.27
212.846	-41.13
213.065	44.88
213.283	85.84
213.502	22.36
213.72	32.6
213.938	5.97
214.157	48.98
214.375	34.64
214.594	12.12
214.812	73.56
215.031	-41.13
215.249	12.12
215.467	-2.22
215.686	24.4
215.904	114.52
216.122	14.17
216.341	122.71
216.559	8.02
216.778	163.67
216.996	22.36
217.214	30.55
217.432	-2.22
217.651	-53.42
217.869	5.97
218.087	-2.22
218.306	32.6
218.524	61.27
218.742	16.21
218.96	32.6
219.179	24.4
219.397	8.02
219.615	94.04
219.833	48.98
220.051	-0.17
220.27	24.4
220.488	83.8
220.706	153.43
220.924	18.26
221.142	5.97
221.36	36.69
221.578	44.88
221.796	-16.55
222.015	87.89
222.233	71.51
222.451	159.57
222.669	-75.95
222.887	32.6
223.105	-26.79
223.323	5.97
223.541	-57.51
223.759	57.17
223.977	22.36
224.195	112.47
224.413	85.84
224.631	155.47
224.849	28.5
225.067	227.15
225.285	3.93
225.503	-8.36
225.721	-102.57
225.939	32.6
226.157	36.69
226.375	188.24
226.592	-80.04
226.81	34.64
227.028	40.79
227.246	145.24
227.464	118.61
227.682	106.32
227.9	24.4
228.117	22.36
228.335	22.36
228.553	-12.46
228.771	36.69
228.989	71.51
229.206	36.69
229.424	18.26
229.642	-8.36
229.86	-71.85
230.077	102.23
230.295	20.31
230.513	40.79
230.731	-28.84
230.948	159.57
231.166	118.61
231.384	8.02
231.601	-73.9
231.819	114.52
232.037	-37.03
232.254	-45.23
232.472	-24.75
232.689	-57.51
232.907	69.46
233.125	-12.46
233.342	18.26
233.56	-12.46
233.777	65.36
233.995	5.97
234.213	77.65
234.43	65.36
234.648	16.21
234.865	-59.56
235.083	57.17
235.3	24.4
235.518	8.02
235.735	132.95
235.953	69.46
236.17	53.08
236.388	83.8
236.605	-18.6
236.822	87.89
237.04	96.08
237.257	40.79
237.475	-14.51
237.692	139.09
237.909	36.69
238.127	16.21
238.344	-10.41
238.562	28.5
238.779	-49.32
238.996	-0.17
239.214	-8.36
239.431	100.18
239.648	14.17
239.865	91.99
240.083	34.64
240.3	-20.65
240.517	-20.65
240.735	-16.55
240.952	83.8
241.169	114.52
241.386	-22.7
241.603	16.21
241.821	16.21
242.038	16.21
242.255	77.65
242.472	-102.57
242.689	40.79
242.907	28.5
243.124	-0.17
243.341	-16.55
243.558	-61.61
243.775	48.98
243.992	8.02
244.209	104.28
244.426	130.9
244.643	32.6
244.86	10.07
245.078	40.79
245.295	-4.27
245.512	32.6
245.729	-43.18
245.946	20.31
246.163	65.36
246.38	-32.94
246.597	63.32
246.814	53.08
247.031	-41.13
247.248	-24.75
247.464	44.88
247.681	-8.36
247.898	40.79
248.115	18.26
248.332	-45.23
248.549	104.28
248.766	130.9
248.983	73.56
249.2	89.94
249.417	96.08
249.633	53.08
249.85	63.32
250.067	-47.27
250.284	48.98
250.501	55.12
250.717	139.09
250.934	-10.41
251.151	34.64
251.368	-10.41
251.585	108.37
251.801	32.6
252.018	-86.19
252.235	114.52
252.451	-69.8
252.668	-45.23
252.885	79.7
253.102	38.74
253.318	-65.71
253.535	-26.79
253.752	32.6
253.968	18.26
254.185	-14.51
254.401	-0.17
254.618	5.97
254.835	-0.17
255.051	106.32
255.268	40.79
255.484	32.6
255.701	48.98
255.917	63.32
256.134	-28.84
256.351	24.4
256.567	-69.8
256.784	-51.37
257	-32.94
257.217	67.41
257.433	65.36
257.65	79.7
257.866	182.1
258.082	-8.36
258.299	-32.94
258.515	34.64
258.732	-20.65
258.948	-20.65
259.165	57.17
259.381	28.5
259.597	73.56
259.814	-14.51
260.03	65.36
260.246	46.93
260.463	38.74
260.679	67.41
260.895	10.07
261.112	34.64
261.328	20.31
261.544	-69.8
261.761	120.66
261.977	57.17
262.193	-63.66
262.409	14.17
262.626	24.4
262.842	61.27
263.058	-18.6
263.274	98.13
263.49	44.88
263.707	65.36
263.923	-0.17
264.139	-53.42
264.355	32.6
264.571	75.6
264.787	73.56
265.004	12.12
265.22	-8.36
265.436	24.4
265.652	38.74
265.868	38.74
266.084	-26.79
266.3	-28.84
266.516	20.31
266.732	-45.23
266.948	73.56
267.164	-16.55
267.38	89.94
267.596	28.5
267.812	161.62
268.028	-51.37
268.244	-4.27
268.46	20.31
268.676	8.02
268.892	26.45
269.108	30.55
269.324	-24.75
269.54	-20.65
269.756	65.36
269.972	-24.75
270.188	28.5
270.403	-49.32
270.619	53.08
270.835	81.75
271.051	22.36
271.267	-75.95
271.483	-4.27
271.698	53.08
271.914	44.88
272.13	-18.6
272.346	-10.41
272.562	8.02
272.777	59.22
272.993	61.27
273.209	16.21
273.425	28.5
273.64	-53.42
273.856	73.56
274.072	-90.28
274.287	16.21
274.503	-34.99
274.719	-18.6
274.934	-4.27
275.15	-10.41
275.366	22.36
275.581	1.88
275.797	-12.46
276.012	42.84
276.228	-69.8
276.444	16.21
276.659	20.31
276.875	-41.13
277.09	40.79
277.306	-22.7
277.521	73.56
277.737	32.6
277.952	112.47
278.168	36.69
278.383	16.21
278.599	38.74
278.814	40.79
279.03	-43.18
279.245	147.28
279.461	48.98
279.676	73.56
279.892	-22.7
280.107	8.02
280.322	-8.36
280.538	57.17
280.753	20.31
280.969	42.84
281.184	40.79
281.399	139.09
281.615	46.93
281.83	61.27
282.045	-67.75
282.26	22.36
282.476	40.79
282.691	46.93
282.906	94.04
283.122	48.98
283.337	-65.71
283.552	-14.51
283.767	-110.76
283.983	48.98
284.198	14.17
284.413	46.93
284.628	-80.04
284.843	-12.46
285.058	122.71
285.274	-8.36
285.489	22.36
285.704	28.5
285.919	-26.79
286.134	67.41
286.349	-32.94
286.564	81.75
286.779	89.94
286.995	73.56
287.21	-108.71
287.425	22.36
287.64	40.79
287.855	59.22
288.07	-65.71
288.285	75.6
288.5	104.28
288.715	24.4
288.93	-32.94
289.145	1.88
289.36	87.89
289.575	-8.36
289.79	83.8
290.004	-8.36
290.219	91.99
290.434	-18.6
290.649	10.07
290.864	-34.99
291.079	-37.03
291.294	98.13
291.509	40.79
291.724	32.6
291.938	-34.99
292.153	69.46
292.368	-45.23
292.583	40.79
292.798	28.5
293.012	-32.94
293.227	22.36
293.442	-12.46
293.657	75.6
293.871	63.32
294.086	40.79
294.301	155.47
294.516	87.89
294.73	44.88
294.945	-37.03
295.16	5.97
295.374	122.71
295.589	24.4
295.804	-8.36
296.018	100.18
296.233	151.38
296.447	65.36
296.662	34.64
296.877	77.65
297.091	24.4
297.306	89.94
297.52	-20.65
297.735	48.98
297.949	96.08
298.164	-10.41
298.378	44.88
298.593	-59.56
298.807	-28.84
299.022	-14.51
299.236	44.88
299.451	46.93
299.665	-0.17
299.88	22.36
300.094	122.71
300.309	-24.75
300.523	-0.17
300.737	89.94
300.952	122.71
301.166	28.5
301.381	-49.32
301.595	-2.22
301.809	22.36
302.024	-2.22
302.238	16.21
302.452	137.04
302.667	-26.79
302.881	48.98
303.095	22.36
303.309	5.97
303.524	-4.27
303.738	24.4
303.952	-102.57
304.166	-10.41
304.381	-14.51
304.595	143.19
304.809	-14.51
305.023	48.98
305.237	-20.65
305.452	1.88
305.666	114.52
305.88	-6.31
306.094	1.88
306.308	30.55
306.522	22.36
306.736	-0.17
306.95	77.65
307.164	-12.46
307.379	-8.36
307.593	94.04
307.807	106.32
308.021	51.03
308.235	94.04
308.449	-57.51
308.663	12.12
308.877	85.84
309.091	67.41
309.305	81.75
309.519	-125.1
309.733	110.42
309.947	-37.03
310.161	22.36
310.374	139.09
310.588	59.22
310.802	79.7
311.016	32.6
311.23	-32.94
311.444	5.97
311.658	20.31
311.872	46.93
312.085	24.4
312.299	67.41
312.513	46.93
312.727	3.93
312.941	-53.42
313.154	81.75
313.368	51.03
313.582	18.26
313.796	40.79
314.009	-67.75
314.223	135
314.437	-12.46
314.651	65.36
314.864	-0.17
315.078	-2.22
315.292	-94.38
315.505	-0.17
315.719	-8.36
315.933	-2.22
316.146	14.17
316.36	-59.56
316.573	110.42
316.787	79.7
317.001	48.98
317.214	24.4
317.428	63.32
317.641	-4.27
317.855	-22.7
318.068	73.56
318.282	28.5
318.495	32.6
318.709	-20.65
318.922	-16.55
319.136	57.17
319.349	8.02
319.563	14.17
319.776	12.12
319.99	-123.05
320.203	126.8
320.417	-71.85
320.63	79.7
320.843	124.76
321.057	5.97
321.27	14.17
321.483	48.98
321.697	190.29
321.91	59.22
322.124	-41.13
322.337	104.28
322.55	-0.17
322.763	30.55
322.977	30.55
323.19	-16.55
323.403	36.69
323.617	65.36
323.83	110.42
324.043	-0.17
324.256	3.93
324.469	-102.57
324.683	71.51
324.896	46.93
325.109	5.97
325.322	-106.67
325.535	69.46
325.748	98.13
325.962	-26.79
326.175	1.88
326.388	71.51
326.601	57.17
326.814	12.12
327.027	3.93
327.24	46.93
327.453	-61.61
327.666	-4.27
327.879	98.13
328.092	87.89
328.305	12.12
328.518	-12.46
328.731	-16.55
328.944	42.84
329.157	94.04
329.37	26.45
329.583	91.99
329.796	114.52
330.009	44.88
330.222	69.46
330.435	48.98
330.648	-20.65
330.861	65.36
331.073	65.36
331.286	135
331.499	1.88
331.712	5.97
331.925	-24.75
332.138	77.65
332.35	59.22
332.563	-59.56
332.776	24.4
332.989	-73.9
333.202	32.6
333.414	8.02
333.627	28.5
333.84	-14.51
334.053	65.36
334.265	-2.22
334.478	-30.89
334.691	5.97
334.903	89.94
335.116	-49.32
335.329	-16.55
335.541	30.55
335.754	73.56
335.966	-57.51
336.179	-39.08
336.392	-32.94
336.604	12.12
336.817	61.27
337.029	53.08
337.242	55.12
337.454	81.75
337.667	73.56
337.88	112.47
338.092	61.27
338.305	48.98
338.517	-0.17
338.729	14.17
338.942	126.8
339.154	-57.51
339.367	46.93
339.579	46.93
339.792	-73.9
340.004	20.31
340.217	38.74
340.429	110.42
340.641	-32.94
340.854	8.02
341.066	69.46
341.278	106.32
341.491	147.28
341.703	73.56
341.915	-53.42
342.128	69.46
342.34	28.5
342.552	-53.42
342.764	-39.08
342.977	40.79
343.189	65.36
343.401	8.02
343.613	12.12
343.826	-71.85
344.038	-41.13
344.25	110.42
344.462	-49.32
344.674	65.36
344.886	10.07
345.099	130.9
345.311	26.45
345.523	-65.71
345.735	-86.19
345.947	3.93
346.159	55.12
346.371	44.88
346.583	-34.99
346.795	151.38
347.007	24.4
347.219	46.93
347.431	-49.32
347.643	81.75
347.855	3.93
348.067	130.9
348.279	-61.61
348.491	44.88
348.703	36.69
348.915	-37.03
349.127	-32.94
349.339	-18.6
349.551	-6.31
349.763	65.36
349.975	-80.04
350.187	53.08
350.399	61.27
350.61	48.98
350.822	32.6
351.034	77.65
351.246	122.71
351.458	3.93
351.669	87.89
351.881	-63.66
352.093	5.97
352.305	36.69
352.517	-16.55
352.728	63.32
352.94	106.32
353.152	14.17
353.363	-43.18
353.575	65.36
353.787	104.28
353.999	-4.27
354.21	85.84
354.422	8.02
354.633	106.32
354.845	-53.42
355.057	100.18
355.268	28.5
355.48	14.17
355.692	-92.33
355.903	40.79
356.115	-32.94
356.326	-41.13
356.538	32.6
356.749	-8.36
356.961	124.76
357.172	40.79
357.384	-8.36
357.595	96.08
357.807	65.36
358.018	3.93
358.23	53.08
358.441	81.75
358.653	122.71
358.864	-4.27
359.075	30.55
359.287	65.36
359.498	44.88
359.709	-41.13
359.921	73.56
360.132	67.41
360.344	16.21
360.555	-2.22
360.766	22.36
360.977	-10.41
361.189	18.26
361.4	-26.79
361.611	128.85
361.823	110.42
362.034	18.26
362.245	24.4
362.456	16.21
362.667	104.28
362.879	-2.22
363.09	24.4
363.301	-8.36
363.512	73.56
363.723	-20.65
363.935	-18.6
364.146	77.65
364.357	44.88
364.568	32.6
364.779	-59.56
364.99	63.32
365.201	-39.08
365.412	65.36
365.623	8.02
365.834	51.03
366.045	-16.55
366.256	75.6
366.467	-14.51
366.678	28.5
366.889	77.65
367.1	-26.79
367.311	40.79
367.522	-51.37
367.733	-2.22
367.944	22.36
368.155	-26.79
368.366	102.23
368.577	44.88
368.788	40.79
368.999	-59.56
369.209	-18.6
369.42	130.9
369.631	216.91
369.842	3.93
370.053	3.93
370.264	102.23
370.474	3.93
370.685	122.71
370.896	57.17
371.107	73.56
371.317	94.04
371.528	46.93
371.739	87.89
371.95	106.32
372.16	48.98
372.371	-8.36
372.582	-18.6
372.792	34.64
373.003	-6.31
373.214	79.7
373.424	77.65
373.635	-12.46
373.846	96.08
374.056	79.7
374.267	-6.31
374.477	104.28
374.688	5.97
374.898	32.6
375.109	-6.31
375.319	-0.17
375.53	118.61
375.74	55.12
375.951	-0.17
376.161	24.4
376.372	5.97
376.582	-10.41
376.793	-14.51
377.003	-65.71
377.214	-26.79
377.424	44.88
377.635	-41.13
377.845	-2.22
378.055	71.51
378.266	-53.42
378.476	3.93
378.686	-41.13
378.897	48.98
379.107	32.6
379.317	18.26
379.528	28.5
379.738	24.4
379.948	-75.95
380.158	40.79
380.369	61.27
380.579	57.17
380.789	16.21
380.999	69.46
381.21	20.31
381.42	139.09
381.63	24.4
381.84	30.55
382.05	10.07
382.261	16.21
382.471	67.41
382.681	-49.32
382.891	42.84
383.101	102.23
383.311	36.69
383.521	22.36
383.731	106.32
383.941	89.94
384.151	34.64
384.361	-32.94
384.571	46.93
384.781	87.89
384.991	167.76
385.201	85.84
385.411	24.4
385.621	-45.23
385.831	-43.18
386.041	40.79
386.251	1.88
386.461	44.88
386.671	-8.36
386.881	89.94
387.091	40.79
387.301	12.12
387.511	-10.41
387.72	-20.65
387.93	-8.36
388.14	-24.75
388.35	48.98
388.56	63.32
388.769	44.88
388.979	63.32
389.189	-41.13
389.399	30.55
389.609	61.27
389.818	51.03
390.028	1.88
390.238	-8.36
390.447	8.02
390.657	34.64
390.867	10.07
391.076	-41.13
391.286	-10.41
391.496	10.07
391.705	-16.55
391.915	44.88
392.125	106.32
392.334	-26.79
392.544	71.51
392.753	71.51
392.963	-82.09
393.172	-26.79
393.382	-0.17
393.591	91.99
393.801	-65.71
394.01	81.75
394.22	65.36
394.429	3.93
394.639	8.02
394.848	14.17
395.058	-4.27
395.267	-59.56
395.477	59.22
395.686	-18.6
395.895	139.09
396.105	214.87
396.314	44.88
396.524	89.94
396.733	-53.42
396.942	63.32
397.152	40.79
397.361	104.28
397.57	73.56
397.78	-41.13
397.989	81.75
398.198	165.71
398.407	73.56
398.617	-8.36
398.826	5.97
399.035	-4.27
399.244	128.85
399.453	38.74
399.663	14.17
399.872	73.56
400.081	-86.19
400.29	12.12
400.499	32.6
400.708	65.36
400.917	38.74
401.127	3.93
401.336	3.93
401.545	169.81
401.754	20.31
401.963	38.74
402.172	40.79
402.381	-65.71
402.59	24.4
402.799	32.6
403.008	161.62
403.217	24.4
403.426	-18.6
403.635	30.55
403.844	16.21
404.053	-51.37
404.262	-8.36
404.471	32.6
404.68	22.36
404.888	-12.46
405.097	-4.27
405.306	-12.46
405.515	-0.17
405.724	5.97
405.933	212.82
406.142	79.7
406.35	106.32
406.559	24.4
406.768	46.93
406.977	75.6
407.185	73.56
407.394	120.66
407.603	-32.94
407.812	18.26
408.02	135
408.229	57.17
408.438	77.65
408.646	-47.27
408.855	-18.6
409.064	73.56
409.272	-47.27
409.481	40.79
409.69	-49.32
409.898	32.6
410.107	22.36
410.315	104.28
410.524	-4.27
410.733	79.7
410.941	-2.22
411.15	94.04
411.358	65.36
411.567	89.94
411.775	57.17
411.984	87.89
412.192	65.36
412.401	-14.51
412.609	77.65
412.818	175.95
413.026	65.36
413.234	-20.65
413.443	89.94
413.651	1.88
413.86	67.41
414.068	89.94
414.276	155.47
414.485	26.45
414.693	53.08
414.901	202.58
415.11	44.88
415.318	87.89
415.526	48.98
415.734	32.6
415.943	81.75
416.151	65.36
416.359	55.12
416.567	48.98
416.776	147.28
416.984	120.66
417.192	186.19
417.4	36.69
417.608	3.93
417.817	32.6
418.025	122.71
418.233	87.89
418.441	69.46
418.649	-24.75
418.857	110.42
419.065	137.04
419.273	63.32
419.481	98.13
419.689	128.85
419.897	46.93
420.105	61.27
420.313	135
420.521	98.13
420.729	147.28
420.937	89.94
421.145	40.79
421.353	178
421.561	143.19
421.769	89.94
421.977	46.93
422.185	81.75
422.393	104.28
422.601	157.52
422.809	139.09
423.017	73.56
423.224	141.14
423.432	137.04
423.64	130.9
423.848	216.91
424.056	40.79
424.263	155.47
424.471	159.57
424.679	235.35
424.887	53.08
425.094	171.86
425.302	214.87
425.51	155.47
425.718	296.78
425.925	208.72
426.133	139.09
426.341	347.98
426.548	155.47
426.756	120.66
426.964	210.77
427.171	194.39
427.379	190.29
427.586	272.21
427.794	278.35
428.001	266.07
428.209	247.63
428.417	212.82
428.624	208.72
428.832	243.54
429.039	245.59
429.247	251.73
429.454	315.22
429.662	323.41
429.869	268.11
430.076	319.31
430.284	417.61
430.491	376.66
430.699	356.18
430.906	405.33
431.114	327.5
431.321	401.23
431.528	372.56
431.736	335.7
431.943	390.99
432.15	411.47
432.358	399.18
432.565	464.72
432.772	370.51
432.979	462.67
433.187	446.29
433.394	452.43
433.601	350.03
433.808	530.25
434.016	511.82
434.223	522.06
434.43	548.68
434.637	556.88
434.844	581.45
435.052	526.16
435.259	692.04
435.466	634.7
435.673	532.3
435.88	556.88
436.087	669.52
436.294	702.28
436.501	726.86
436.708	595.79
436.915	663.37
437.122	765.77
437.329	802.63
437.537	620.36
437.743	776.01
437.95	825.16
438.157	880.46
438.364	829.26
438.571	896.84
438.778	884.55
438.985	892.74
439.192	966.47
439.399	945.99
439.606	892.74
439.813	1081.16
440.02	1019.72
440.227	1138.5
440.433	1228.61
440.64	1201.99
440.847	1079.11
441.054	1146.69
441.261	1210.18
441.467	1081.16
441.674	1146.69
441.881	1314.63
442.088	1154.88
442.294	1210.18
442.501	1341.25
442.708	1337.15
442.914	1355.58
443.121	1472.32
443.328	1406.78
443.534	1539.9
443.741	1453.89
443.948	1376.06
444.154	1529.66
444.361	1748.79
444.568	1496.89
444.774	1580.86
444.981	1437.5
445.187	1670.97
445.394	1701.69
445.6	1648.44
445.807	1912.63
446.013	1779.51
446.22	1752.89
446.426	1867.58
446.633	1955.64
446.839	2160.44
447.046	1922.87
447.252	2182.96
447.459	2094.9
447.665	2072.37
447.871	2228.02
448.078	2436.91
448.284	2363.19
448.491	2445.1
448.697	2463.54
448.903	2545.45
449.11	2547.5
449.316	2469.68
449.522	2801.45
449.728	2778.92
449.935	2866.99
450.141	2860.84
450.347	3036.97
450.553	2873.13
450.76	2965.29
450.966	3174.18
451.172	3120.93
451.378	3217.19
451.584	3299.11
451.791	3503.9
451.997	3579.68
452.203	3624.73
452.409	3759.9
452.615	3565.34
452.821	3571.49
453.027	3399.46
453.233	3864.35
453.44	3737.37
453.646	3776.28
453.852	3927.83
454.058	3997.46
454.264	4052.76
454.47	4200.21
454.676	4058.9
454.882	4372.24
455.088	4085.53
455.294	4296.47
455.5	4327.19
455.705	4497.17
455.911	4382.48
456.117	4325.14
456.323	4345.62
456.529	4259.6
456.735	4472.59
456.941	4554.51
457.147	4431.63
457.352	4486.93
457.558	4511.5
457.764	4673.29
457.97	4581.14
458.176	4587.28
458.381	4527.89
458.587	4517.65
458.793	4552.46
458.999	4333.33
459.204	4579.09
459.41	4396.82
459.616	4304.66
459.821	4470.55
460.027	4226.84
460.233	4185.88
460.438	4280.08
460.644	4173.59
460.85	4251.41
461.055	4063
461.261	4251.41
461.466	3921.69
461.672	3776.28
461.878	3976.98
462.083	3841.82
462.289	3639.07
462.494	3657.5
462.7	3489.57
462.905	3395.36
463.111	3692.32
463.316	3700.51
463.522	3571.49
463.727	3602.21
463.932	3667.74
464.138	3618.59
464.343	3571.49
464.549	3571.49
464.754	3741.47
464.959	3577.63
465.165	3522.34
465.37	3487.52
465.575	3292.96
465.781	3385.12
465.986	3397.41
466.191	3348.26
466.397	3364.64
466.602	3135.27
466.807	3211.04
467.012	3309.35
467.218	3243.81
467.423	3235.62
467.628	3305.25
467.833	3405.6
468.038	3274.53
468.244	3178.28
468.449	3290.92
468.654	3325.73
468.859	3301.15
469.064	3335.97
469.269	3237.67
469.474	3200.8
469.679	3366.69
469.885	3415.84
470.09	3387.17
470.295	3184.42
