Data from USB4F104151__28__11-30-05-015.txt Node

Date: Fri Mar 14 11:30:05 EDT 2025
User: louis
Spectrometer: USB4F10415
Trigger mode: 4
Integration Time (sec): 5.000000E-2
Scans to average: 1
Electric dark correction enabled: true
Nonlinearity correction enabled: false
Boxcar width: 0
XAxis mode: Wavelengths
Number of Pixels in Spectrum: 3648
>>>>>Begin Spectral Data<<<<<
178.204	-150.87
178.424	-150.87
178.644	-150.87
178.864	-126.29
179.084	-97.62
179.304	-75.09
179.524	31.4
179.744	12.97
179.964	-13.65
180.184	23.21
180.404	68.27
180.624	-3.41
180.844	6.83
181.064	-9.56
181.283	-9.56
181.503	-15.7
181.723	-15.7
181.943	-15.7
182.163	82.6
182.383	-1.37
182.602	119.46
182.822	62.12
183.042	31.4
183.262	6.83
183.482	17.07
183.701	-7.51
183.921	4.78
184.141	-13.65
184.361	133.8
184.58	17.07
184.8	47.79
185.02	58.03
185.239	60.07
185.459	55.98
185.679	47.79
185.898	17.07
186.118	74.41
186.338	6.83
186.557	-38.23
186.777	45.74
186.997	37.55
187.216	4.78
187.436	49.83
187.655	-5.46
187.875	53.93
188.095	25.26
188.314	135.85
188.534	78.51
188.753	-40.28
188.973	92.84
189.192	82.6
189.412	64.17
189.631	80.55
189.851	25.26
190.07	58.03
190.29	-40.28
190.509	-64.85
190.729	78.51
190.948	-7.51
191.168	201.38
191.387	80.55
191.607	-7.51
191.826	-7.51
192.045	74.41
192.265	23.21
192.484	98.99
192.704	39.59
192.923	41.64
193.142	113.32
193.362	78.51
193.581	12.97
193.8	49.83
194.02	105.13
194.239	49.83
194.458	80.55
194.678	10.92
194.897	-7.51
195.116	31.4
195.335	107.18
195.555	80.55
195.774	84.65
195.993	125.61
196.212	37.55
196.432	31.4
196.651	74.41
196.87	33.45
197.089	94.89
197.308	25.26
197.528	74.41
197.747	-17.75
197.966	37.55
198.185	58.03
198.404	60.07
198.623	129.7
198.842	103.08
199.062	90.79
199.281	62.12
199.5	23.21
199.719	-17.75
199.938	98.99
200.157	139.94
200.376	2.73
200.595	72.36
200.814	72.36
201.033	23.21
201.252	90.79
201.471	29.35
201.69	74.41
201.909	96.94
202.128	58.03
202.347	86.7
202.566	25.26
202.785	39.59
203.004	37.55
203.223	90.79
203.442	-11.61
203.661	10.92
203.879	29.35
204.098	39.59
204.317	-34.13
204.536	111.27
204.755	25.26
204.974	66.22
205.193	12.97
205.411	68.27
205.63	10.92
205.849	76.46
206.068	6.83
206.287	-1.37
206.505	58.03
206.724	66.22
206.943	-17.75
207.162	58.03
207.381	51.88
207.599	4.78
207.818	8.87
208.037	-23.89
208.255	82.6
208.474	62.12
208.693	45.74
208.911	53.93
209.13	90.79
209.349	39.59
209.567	25.26
209.786	64.17
210.005	29.35
210.223	41.64
210.442	-60.76
210.661	31.4
210.879	6.83
211.098	21.16
211.316	74.41
211.535	12.97
211.753	-15.7
211.972	62.12
212.191	98.99
212.409	-1.37
212.628	27.31
212.846	49.83
213.065	105.13
213.283	80.55
213.502	-3.41
213.72	58.03
213.938	31.4
214.157	-46.42
214.375	33.45
214.594	-56.66
214.812	-7.51
215.031	-25.94
215.249	82.6
215.467	74.41
215.686	-44.37
215.904	107.18
216.122	72.36
216.341	49.83
216.559	39.59
216.778	33.45
216.996	47.79
217.214	-3.41
217.432	-17.75
217.651	-27.99
217.869	-15.7
218.087	49.83
218.306	4.78
218.524	70.31
218.742	31.4
218.96	101.03
219.179	80.55
219.397	15.02
219.615	135.85
219.833	21.16
220.051	74.41
220.27	80.55
220.488	86.7
220.706	45.74
220.924	25.26
221.142	-7.51
221.36	103.08
221.578	23.21
221.796	-77.14
222.015	8.87
222.233	15.02
222.451	74.41
222.669	-3.41
222.887	58.03
223.105	8.87
223.323	70.31
223.541	31.4
223.759	43.69
223.977	-44.37
224.195	139.94
224.413	12.97
224.631	78.51
224.849	49.83
225.067	203.43
225.285	27.31
225.503	29.35
225.721	-60.76
225.939	35.5
226.157	62.12
226.375	74.41
226.592	0.68
226.81	76.46
227.028	53.93
227.246	119.46
227.464	0.68
227.682	41.64
227.9	60.07
228.117	74.41
228.335	64.17
228.553	-7.51
228.771	98.99
228.989	68.27
229.206	-7.51
229.424	58.03
229.642	-36.18
229.86	-15.7
230.077	62.12
230.295	45.74
230.513	72.36
230.731	47.79
230.948	51.88
231.166	148.14
231.384	39.59
231.601	33.45
231.819	101.03
232.037	6.83
232.254	-15.7
232.472	15.02
232.689	-58.71
232.907	66.22
233.125	23.21
233.342	68.27
233.56	17.07
233.777	35.5
233.995	37.55
234.213	82.6
234.43	47.79
234.648	49.83
234.865	47.79
235.083	0.68
235.3	39.59
235.518	133.8
235.735	107.18
235.953	51.88
236.17	88.75
236.388	21.16
236.605	49.83
236.822	62.12
237.04	31.4
237.257	4.78
237.475	25.26
237.692	29.35
237.909	55.98
238.127	23.21
238.344	41.64
238.562	41.64
238.779	-34.13
238.996	-1.37
239.214	55.98
239.431	90.79
239.648	2.73
239.865	80.55
240.083	109.22
240.3	25.26
240.517	74.41
240.735	6.83
240.952	39.59
241.169	74.41
241.386	33.45
241.603	39.59
241.821	-56.66
242.038	49.83
242.255	96.94
242.472	33.45
242.689	180.9
242.907	119.46
243.124	31.4
243.341	-44.37
243.558	-7.51
243.775	-30.04
243.992	-93.52
244.209	47.79
244.426	62.12
244.643	27.31
244.86	25.26
245.078	51.88
245.295	33.45
245.512	17.07
245.729	15.02
245.946	64.17
246.163	62.12
246.38	84.65
246.597	47.79
246.814	88.75
247.031	33.45
247.248	66.22
247.464	17.07
247.681	45.74
247.898	4.78
248.115	51.88
248.332	-7.51
248.549	107.18
248.766	98.99
248.983	58.03
249.2	90.79
249.417	92.84
249.633	0.68
249.85	41.64
250.067	94.89
250.284	55.98
250.501	33.45
250.717	8.87
250.934	0.68
251.151	90.79
251.368	47.79
251.585	8.87
251.801	80.55
252.018	-11.61
252.235	17.07
252.451	-3.41
252.668	17.07
252.885	64.17
253.102	90.79
253.318	45.74
253.535	41.64
253.752	39.59
253.968	23.21
254.185	-15.7
254.401	23.21
254.618	127.66
254.835	90.79
255.051	78.51
255.268	12.97
255.484	107.18
255.701	78.51
255.917	66.22
256.134	105.13
256.351	55.98
256.567	55.98
256.784	25.26
257	0.68
257.217	0.68
257.433	64.17
257.65	27.31
257.866	111.27
258.082	-27.99
258.299	6.83
258.515	90.79
258.732	55.98
258.948	53.93
259.165	96.94
259.381	53.93
259.597	39.59
259.814	33.45
260.03	-15.7
260.246	148.14
260.463	49.83
260.679	107.18
260.895	-7.51
261.112	103.08
261.328	25.26
261.544	27.31
261.761	98.99
261.977	-48.47
262.193	-15.7
262.409	80.55
262.626	74.41
262.842	47.79
263.058	17.07
263.274	49.83
263.49	-7.51
263.707	53.93
263.923	-15.7
264.139	-40.28
264.355	-27.99
264.571	98.99
264.787	41.64
265.004	98.99
265.22	45.74
265.436	86.7
265.652	21.16
265.868	164.52
266.084	17.07
266.3	43.69
266.516	33.45
266.732	21.16
266.948	64.17
267.164	70.31
267.38	-7.51
267.596	25.26
267.812	115.37
268.028	4.78
268.244	31.4
268.46	64.17
268.676	4.78
268.892	80.55
269.108	-32.08
269.324	58.03
269.54	33.45
269.756	96.94
269.972	45.74
270.188	55.98
270.403	-23.89
270.619	0.68
270.835	23.21
271.051	35.5
271.267	23.21
271.483	49.83
271.698	90.79
271.914	66.22
272.13	41.64
272.346	-40.28
272.562	84.65
272.777	117.42
272.993	39.59
273.209	39.59
273.425	15.02
273.64	25.26
273.856	96.94
274.072	64.17
274.287	74.41
274.503	92.84
274.719	33.45
274.934	21.16
275.15	-73.04
275.366	23.21
275.581	23.21
275.797	-7.51
276.012	-17.75
276.228	15.02
276.444	109.22
276.659	70.31
276.875	-1.37
277.09	70.31
277.306	25.26
277.521	43.69
277.737	15.02
277.952	72.36
278.168	78.51
278.383	62.12
278.599	76.46
278.814	37.55
279.03	60.07
279.245	37.55
279.461	60.07
279.676	35.5
279.892	-19.8
280.107	-1.37
280.322	-25.94
280.538	55.98
280.753	17.07
280.969	66.22
281.184	74.41
281.399	31.4
281.615	8.87
281.83	37.55
282.045	45.74
282.26	72.36
282.476	25.26
282.691	64.17
282.906	-48.47
283.122	45.74
283.337	33.45
283.552	12.97
283.767	35.5
283.983	111.27
284.198	-11.61
284.413	-1.37
284.628	74.41
284.843	80.55
285.058	74.41
285.274	55.98
285.489	-23.89
285.704	90.79
285.919	-1.37
286.134	25.26
286.349	-1.37
286.564	49.83
286.779	76.46
286.995	49.83
287.21	-3.41
287.425	66.22
287.64	0.68
287.855	45.74
288.07	53.93
288.285	98.99
288.5	-17.75
288.715	94.89
288.93	45.74
289.145	98.99
289.36	80.55
289.575	-15.7
289.79	23.21
290.004	82.6
290.219	105.13
290.434	31.4
290.649	-1.37
290.864	21.16
291.079	66.22
291.294	10.92
291.509	47.79
291.724	-36.18
291.938	62.12
292.153	80.55
292.368	-9.56
292.583	39.59
292.798	121.51
293.012	33.45
293.227	0.68
293.442	-34.13
293.657	96.94
293.871	144.04
294.086	35.5
294.301	86.7
294.516	41.64
294.73	53.93
294.945	-15.7
295.16	82.6
295.374	47.79
295.589	107.18
295.804	6.83
296.018	72.36
296.233	94.89
296.447	58.03
296.662	12.97
296.877	121.51
297.091	74.41
297.306	49.83
297.52	-36.18
297.735	66.22
297.949	37.55
298.164	103.08
298.378	49.83
298.593	-9.56
298.807	86.7
299.022	4.78
299.236	158.38
299.451	51.88
299.665	-25.94
299.88	117.42
300.094	0.68
300.309	4.78
300.523	41.64
300.737	33.45
300.952	78.51
301.166	70.31
301.381	23.21
301.595	21.16
301.809	0.68
302.024	82.6
302.238	12.97
302.452	58.03
302.667	64.17
302.881	103.08
303.095	162.47
303.309	-40.28
303.524	-23.89
303.738	49.83
303.952	66.22
304.166	31.4
304.381	-68.95
304.595	51.88
304.809	-13.65
305.023	119.46
305.237	49.83
305.452	27.31
305.666	39.59
305.88	-54.61
306.094	68.27
306.308	60.07
306.522	23.21
306.736	72.36
306.95	6.83
307.164	-7.51
307.379	68.27
307.593	119.46
307.807	29.35
308.021	33.45
308.235	41.64
308.449	70.31
308.663	98.99
308.877	137.9
309.091	139.94
309.305	-1.37
309.519	15.02
309.733	37.55
309.947	4.78
310.161	80.55
310.374	53.93
310.588	51.88
310.802	-75.09
311.016	23.21
311.23	15.02
311.444	49.83
311.658	66.22
311.872	70.31
312.085	62.12
312.299	78.51
312.513	35.5
312.727	66.22
312.941	41.64
313.154	27.31
313.368	125.61
313.582	70.31
313.796	70.31
314.009	58.03
314.223	60.07
314.437	37.55
314.651	-52.56
314.864	53.93
315.078	8.87
315.292	-56.66
315.505	137.9
315.719	80.55
315.933	6.83
316.146	-11.61
316.36	17.07
316.573	66.22
316.787	25.26
317.001	27.31
317.214	-25.94
317.428	55.98
317.641	58.03
317.855	19.11
318.068	8.87
318.282	107.18
318.495	41.64
318.709	-11.61
318.922	96.94
319.136	127.66
319.349	115.37
319.563	113.32
319.776	43.69
319.99	82.6
320.203	131.75
320.417	41.64
320.63	29.35
320.843	33.45
321.057	74.41
321.27	58.03
321.483	6.83
321.697	33.45
321.91	45.74
322.124	19.11
322.337	0.68
322.55	-56.66
322.763	8.87
322.977	23.21
323.19	72.36
323.403	21.16
323.617	21.16
323.83	105.13
324.043	55.98
324.256	-19.8
324.469	-3.41
324.683	103.08
324.896	80.55
325.109	33.45
325.322	39.59
325.535	107.18
325.748	105.13
325.962	-21.85
326.175	-1.37
326.388	103.08
326.601	70.31
326.814	-1.37
327.027	25.26
327.24	70.31
327.453	-32.08
327.666	51.88
327.879	41.64
328.092	-11.61
328.305	60.07
328.518	8.87
328.731	4.78
328.944	-52.56
329.157	53.93
329.37	45.74
329.583	88.75
329.796	66.22
330.009	-66.9
330.222	88.75
330.435	78.51
330.648	98.99
330.861	-23.89
331.073	47.79
331.286	66.22
331.499	0.68
331.712	53.93
331.925	131.75
332.138	41.64
332.35	70.31
332.563	41.64
332.776	111.27
332.989	53.93
333.202	15.02
333.414	33.45
333.627	64.17
333.84	78.51
334.053	33.45
334.265	78.51
334.478	-3.41
334.691	35.5
334.903	27.31
335.116	-15.7
335.329	60.07
335.541	29.35
335.754	53.93
335.966	25.26
336.179	74.41
336.392	-9.56
336.604	74.41
336.817	82.6
337.029	4.78
337.242	15.02
337.454	55.98
337.667	15.02
337.88	82.6
338.092	33.45
338.305	0.68
338.517	21.16
338.729	72.36
338.942	39.59
339.154	-17.75
339.367	25.26
339.579	96.94
339.792	25.26
340.004	94.89
340.217	-75.09
340.429	8.87
340.641	-36.18
340.854	-64.85
341.066	47.79
341.278	94.89
341.491	170.66
341.703	86.7
341.915	-27.99
342.128	51.88
342.34	51.88
342.552	66.22
342.764	66.22
342.977	55.98
343.189	111.27
343.401	27.31
343.613	-40.28
343.826	84.65
344.038	15.02
344.25	94.89
344.462	8.87
344.674	98.99
344.886	70.31
345.099	-5.46
345.311	101.03
345.523	41.64
345.735	-48.47
345.947	74.41
346.159	55.98
346.371	33.45
346.583	29.35
346.795	144.04
347.007	-40.28
347.219	33.45
347.431	-15.7
347.643	109.22
347.855	47.79
348.067	115.37
348.279	8.87
348.491	12.97
348.703	41.64
348.915	8.87
349.127	-11.61
349.339	60.07
349.551	25.26
349.763	17.07
349.975	39.59
350.187	10.92
350.399	115.37
350.61	90.79
350.822	115.37
351.034	45.74
351.246	94.89
351.458	82.6
351.669	103.08
351.881	23.21
352.093	103.08
352.305	21.16
352.517	60.07
352.728	76.46
352.94	33.45
353.152	47.79
353.363	33.45
353.575	31.4
353.787	17.07
353.999	55.98
354.21	72.36
354.422	4.78
354.633	12.97
354.845	10.92
355.057	49.83
355.268	45.74
355.48	66.22
355.692	-32.08
355.903	41.64
356.115	-48.47
356.326	-27.99
356.538	49.83
356.749	25.26
356.961	82.6
357.172	51.88
357.384	58.03
357.595	82.6
357.807	78.51
358.018	53.93
358.23	-3.41
358.441	-3.41
358.653	74.41
358.864	146.09
359.075	10.92
359.287	123.56
359.498	15.02
359.709	-9.56
359.921	45.74
360.132	21.16
360.344	31.4
360.555	45.74
360.766	90.79
360.977	41.64
361.189	84.65
361.4	80.55
361.611	58.03
361.823	33.45
362.034	41.64
362.245	82.6
362.456	-1.37
362.667	15.02
362.879	-11.61
363.09	58.03
363.301	131.75
363.512	90.79
363.723	88.75
363.935	-19.8
364.146	70.31
364.357	115.37
364.568	39.59
364.779	0.68
364.99	25.26
365.201	-7.51
365.412	78.51
365.623	-40.28
365.834	90.79
366.045	21.16
366.256	41.64
366.467	-21.85
366.678	29.35
366.889	80.55
367.1	-34.13
367.311	21.16
367.522	0.68
367.733	41.64
367.944	27.31
368.155	129.7
368.366	64.17
368.577	119.46
368.788	17.07
368.999	8.87
369.209	98.99
369.42	82.6
369.631	197.29
369.842	105.13
370.053	33.45
370.264	41.64
370.474	23.21
370.685	111.27
370.896	78.51
371.107	82.6
371.317	62.12
371.528	35.5
371.739	101.03
371.95	82.6
372.16	82.6
372.371	10.92
372.582	49.83
372.792	55.98
373.003	25.26
373.214	74.41
373.424	98.99
373.635	31.4
373.846	127.66
374.056	66.22
374.267	41.64
374.477	74.41
374.688	-3.41
374.898	82.6
375.109	78.51
375.319	15.02
375.53	74.41
375.74	82.6
375.951	55.98
376.161	88.75
376.372	135.85
376.582	12.97
376.793	25.26
377.003	53.93
377.214	123.56
377.424	129.7
377.635	68.27
377.845	-23.89
378.055	180.9
378.266	-40.28
378.476	25.26
378.686	6.83
378.897	84.65
379.107	141.99
379.317	-5.46
379.528	8.87
379.738	109.22
379.948	-15.7
380.158	43.69
380.369	47.79
380.579	107.18
380.789	131.75
380.999	37.55
381.21	55.98
381.42	113.32
381.63	-17.75
381.84	58.03
382.05	123.56
382.261	109.22
382.471	80.55
382.681	86.7
382.891	94.89
383.101	98.99
383.311	25.26
383.521	29.35
383.731	0.68
383.941	105.13
384.151	72.36
384.361	41.64
384.571	47.79
384.781	66.22
384.991	98.99
385.201	123.56
385.411	19.11
385.621	150.18
385.831	-15.7
386.041	123.56
386.251	17.07
386.461	25.26
386.671	58.03
386.881	15.02
387.091	31.4
387.301	123.56
387.511	29.35
387.72	103.08
387.93	82.6
388.14	-15.7
388.35	8.87
388.56	105.13
388.769	107.18
388.979	55.98
389.189	15.02
389.399	113.32
389.609	51.88
389.818	37.55
390.028	90.79
390.238	84.65
390.447	25.26
390.657	82.6
390.867	82.6
391.076	70.31
391.286	139.94
391.496	8.87
391.705	82.6
391.915	60.07
392.125	41.64
392.334	66.22
392.544	119.46
392.753	74.41
392.963	90.79
393.172	98.99
393.382	115.37
393.591	70.31
393.801	2.73
394.01	82.6
394.22	80.55
394.429	107.18
394.639	72.36
394.848	66.22
395.058	88.75
395.267	113.32
395.477	62.12
395.686	88.75
395.895	86.7
396.105	115.37
396.314	68.27
396.524	103.08
396.733	131.75
396.942	127.66
397.152	70.31
397.361	103.08
397.57	127.66
397.78	115.37
397.989	123.56
398.198	154.28
398.407	121.51
398.617	92.84
398.826	49.83
399.035	156.33
399.244	113.32
399.453	53.93
399.663	23.21
399.872	113.32
400.081	76.46
400.29	148.14
400.499	10.92
400.708	162.47
400.917	29.35
401.127	105.13
401.336	98.99
401.545	178.86
401.754	84.65
401.963	148.14
402.172	90.79
402.381	113.32
402.59	64.17
402.799	64.17
403.008	105.13
403.217	164.52
403.426	98.99
403.635	96.94
403.844	113.32
404.053	45.74
404.262	86.7
404.471	162.47
404.68	111.27
404.888	107.18
405.097	185
405.306	107.18
405.515	123.56
405.724	191.14
405.933	115.37
406.142	115.37
406.35	205.48
406.559	185
406.768	119.46
406.977	250.53
407.185	185
407.394	162.47
407.603	152.23
407.812	246.44
408.02	283.3
408.229	119.46
408.438	205.48
408.646	168.62
408.855	203.43
409.064	219.82
409.272	189.1
409.481	305.83
409.69	232.1
409.898	264.87
410.107	281.25
410.315	332.45
410.524	254.63
410.733	232.1
410.941	262.82
411.15	416.42
411.358	332.45
411.567	332.45
411.775	332.45
411.984	359.08
412.192	377.51
412.401	410.28
412.609	418.47
412.818	369.32
413.026	410.28
413.234	367.27
413.443	457.38
413.651	475.81
413.86	441
414.068	533.15
414.276	506.53
414.485	508.58
414.693	565.92
414.901	588.45
415.11	541.35
415.318	606.88
415.526	570.02
415.734	580.26
415.943	623.27
416.151	737.95
416.359	713.38
416.567	684.7
416.776	729.76
416.984	864.93
417.192	889.5
417.4	860.83
417.608	789.15
417.817	811.68
418.025	1008.28
418.233	1047.19
418.441	940.7
418.649	1024.67
418.857	1102.49
419.065	1084.06
419.273	1039
419.481	1106.59
419.689	1303.19
419.897	1202.84
420.105	1321.62
420.313	1225.37
420.521	1251.99
420.729	1426.07
420.937	1311.38
421.145	1442.45
421.353	1655.44
421.561	1677.97
421.769	1573.52
421.977	1682.06
422.185	1653.39
422.393	1706.64
422.601	1827.47
422.809	1925.77
423.017	1899.15
423.224	1981.07
423.432	2040.46
423.64	2105.99
423.848	2306.7
424.056	2206.35
424.263	2351.75
424.471	2374.28
424.679	2392.71
424.887	2566.79
425.094	2648.71
425.302	2656.9
425.51	2749.06
425.718	2908.8
425.925	2876.03
426.133	2998.91
426.341	2996.86
426.548	3193.47
426.756	3256.95
426.964	3316.34
427.171	3422.84
427.379	3580.53
427.586	3555.96
427.794	3744.37
428.001	3838.58
428.209	4141.68
428.417	4037.23
428.624	4272.75
428.832	4285.03
429.039	4383.34
429.247	4401.77
429.454	4723.3
429.662	4905.57
429.869	4600.42
430.076	5022.3
430.284	4770.4
430.491	5028.45
430.699	5263.96
430.906	5358.17
431.114	5399.13
431.321	5732.95
431.528	5782.1
431.736	6144.59
431.943	6414.92
432.15	6181.45
432.358	6259.28
432.565	6470.22
432.772	6529.61
432.979	6783.56
433.187	7000.64
433.394	7170.62
433.601	7615.03
433.808	7557.69
434.016	7576.12
434.223	7840.31
434.43	8419.88
434.637	8344.11
434.844	8706.6
435.052	8710.69
435.259	9013.79
435.466	8917.54
435.673	8821.28
435.88	9331.23
436.087	9988.63
436.294	9906.71
436.501	9712.15
436.708	9658.9
436.915	10187.28
437.122	10789.38
437.329	10680.84
437.537	10748.42
437.743	11043.33
437.95	11076.1
438.157	11469.31
438.364	11942.39
438.571	11991.54
438.778	11950.58
438.985	13132.26
439.192	12278.26
439.399	13023.72
439.606	13017.57
439.813	13371.87
440.02	14234.07
440.227	14002.64
440.433	13890.01
440.64	14426.57
440.847	14328.27
441.054	14592.46
441.261	15821.24
441.467	15290.82
441.674	15835.58
441.881	16296.37
442.088	16392.62
442.294	16173.49
442.501	16753.07
442.708	16826.79
442.914	17643.93
443.121	18215.32
443.328	17709.47
443.534	19085.7
443.741	18385.3
443.948	18221.46
444.154	19503.49
444.361	19552.64
444.568	19888.51
444.774	19794.3
444.981	19769.73
445.187	20449.65
445.394	21442.92
445.6	21119.34
445.807	23079.24
446.013	22258.01
446.22	22511.96
446.426	23525.7
446.633	23744.83
446.839	23978.3
447.046	23355.72
447.252	24588.6
447.459	24674.61
447.665	24389.94
447.871	25440.55
448.078	26513.69
448.284	25293.1
448.491	26372.38
448.697	27101.45
448.903	27570.44
449.11	27490.57
449.316	27185.42
449.522	27853.06
449.728	28504.31
449.935	28752.12
450.141	28555.51
450.347	29341.93
450.553	28221.69
450.76	28600.57
450.966	29866.21
451.172	29155.57
451.378	29700.33
451.584	28936.43
451.791	30273.76
451.997	29849.83
452.203	30206.17
452.409	30525.66
452.615	30185.69
452.821	28844.27
453.027	28889.33
453.233	30257.37
453.44	29059.31
453.646	29362.41
453.852	29593.83
454.058	29937.89
454.264	29087.98
454.47	29393.13
454.676	28705.01
454.882	29874.4
455.088	27236.62
455.294	27732.23
455.5	27867.39
455.705	28532.98
455.911	27244.81
456.117	26521.88
456.323	26380.57
456.529	24871.22
456.735	25907.49
456.941	25264.43
457.147	25016.62
457.352	24107.32
457.558	23742.78
457.764	23728.45
457.97	23263.56
458.176	22534.48
458.381	22659.41
458.587	21451.11
458.793	21520.74
458.999	20302.2
459.204	21862.75
459.41	21223.78
459.616	20083.06
459.821	19943.8
460.027	19650.94
460.233	19503.49
460.438	18491.79
460.644	18692.49
460.85	17746.33
461.055	17834.39
461.261	17502.62
461.466	16249.27
461.672	15798.71
461.878	16755.12
462.083	15864.25
462.289	15569.34
462.494	15126.98
462.7	14578.12
462.905	14090.71
463.111	14731.72
463.316	14647.76
463.522	14318.03
463.727	14225.87
463.932	14522.83
464.138	14301.65
464.343	14389.71
464.549	13851.1
464.754	14389.71
464.959	14324.18
465.165	14107.09
465.37	13486.56
465.575	13205.99
465.781	13531.61
465.986	13591
466.191	13130.21
466.397	13025.76
466.602	12419.57
466.807	12718.57
467.012	13046.24
467.218	12876.26
467.423	12603.88
