Data from USB4F104151__8__11-29-36-767.txt Node

Date: Fri Mar 14 11:29:36 EDT 2025
User: louis
Spectrometer: USB4F10415
Trigger mode: 4
Integration Time (sec): 5.000000E-2
Scans to average: 1
Electric dark correction enabled: true
Nonlinearity correction enabled: false
Boxcar width: 0
XAxis mode: Wavelengths
Number of Pixels in Spectrum: 3648
>>>>>Begin Spectral Data<<<<<
178.204	-178
178.424	-178
178.644	-178
178.864	-167.76
179.084	-151.38
179.304	57.51
179.524	0.17
179.744	6.31
179.964	-36.69
180.184	37.03
180.404	-69.46
180.624	69.8
180.844	-3.93
181.064	-110.42
181.283	-32.6
181.503	59.56
181.723	22.7
181.943	-53.08
182.163	69.8
182.383	30.89
182.602	4.27
182.822	82.09
183.042	-3.93
183.262	4.27
183.482	45.23
183.701	41.13
183.921	-8.02
184.141	4.27
184.361	49.32
184.58	-14.17
184.8	-18.26
185.02	-57.17
185.239	82.09
185.459	2.22
185.679	28.84
185.898	-145.24
186.118	37.03
186.338	18.6
186.557	67.75
186.777	57.51
186.997	-61.27
187.216	32.94
187.436	55.47
187.655	53.42
187.875	22.7
188.095	-57.17
188.314	45.23
188.534	39.08
188.753	51.37
188.973	53.42
189.192	43.18
189.412	67.75
189.631	8.36
189.851	39.08
190.07	53.42
190.29	24.75
190.509	28.84
190.729	34.99
190.948	45.23
191.168	118.95
191.387	45.23
191.607	12.46
191.826	26.79
192.045	-24.4
192.265	26.79
192.484	26.79
192.704	106.67
192.923	-5.97
193.142	94.38
193.362	39.08
193.581	69.8
193.8	12.46
194.02	94.38
194.239	20.65
194.458	28.84
194.678	55.47
194.897	39.08
195.116	49.32
195.335	51.37
195.555	59.56
195.774	2.22
195.993	86.19
196.212	53.42
196.432	75.95
196.651	-32.6
196.87	24.75
197.089	69.8
197.308	28.84
197.528	20.65
197.747	-36.69
197.966	26.79
198.185	28.84
198.404	43.18
198.623	32.94
198.842	108.71
199.062	84.14
199.281	86.19
199.5	18.6
199.719	53.42
199.938	84.14
200.157	61.61
200.376	12.46
200.595	77.99
200.814	69.8
201.033	37.03
201.252	82.09
201.471	14.51
201.69	61.61
201.909	63.66
202.128	20.65
202.347	-20.31
202.566	28.84
202.785	45.23
203.004	37.03
203.223	102.57
203.442	-24.4
203.661	8.36
203.879	18.6
204.098	69.8
204.317	37.03
204.536	61.61
204.755	69.8
204.974	57.51
205.193	20.65
205.411	65.71
205.63	59.56
205.849	-16.21
206.068	37.03
206.287	12.46
206.505	94.38
206.724	-59.22
206.943	34.99
207.162	26.79
207.381	51.37
207.599	69.8
207.818	53.42
208.037	-3.93
208.255	106.67
208.474	0.17
208.693	-20.31
208.911	51.37
209.13	84.14
209.349	32.94
209.567	69.8
209.786	102.57
210.005	-14.17
210.223	4.27
210.442	-46.93
210.661	49.32
210.879	-14.17
211.098	-3.93
211.316	37.03
211.535	125.1
211.753	32.94
211.972	90.28
212.191	20.65
212.409	34.99
212.628	10.41
212.846	65.71
213.065	59.56
213.283	161.96
213.502	-28.5
213.72	86.19
213.938	104.62
214.157	-71.51
214.375	45.23
214.594	20.65
214.812	61.61
215.031	14.51
215.249	-12.12
215.467	4.27
215.686	67.75
215.904	53.42
216.122	-40.79
216.341	73.9
216.559	24.75
216.778	77.99
216.996	39.08
217.214	-24.4
217.432	37.03
217.651	-63.32
217.869	-8.02
218.087	28.84
218.306	67.75
218.524	116.9
218.742	47.27
218.96	67.75
219.179	-18.26
219.397	41.13
219.615	123.05
219.833	49.32
220.051	32.94
220.27	125.1
220.488	22.7
220.706	14.51
220.924	53.42
221.142	-3.93
221.36	92.33
221.578	45.23
221.796	61.61
222.015	67.75
222.233	22.7
222.451	69.8
222.669	-3.93
222.887	90.28
223.105	127.14
223.323	-3.93
223.541	20.65
223.759	82.09
223.977	28.84
224.195	37.03
224.413	47.27
224.631	69.8
224.849	100.52
225.067	53.42
225.285	0.17
225.503	98.47
225.721	-12.12
225.939	26.79
226.157	26.79
226.375	129.19
226.592	10.41
226.81	57.51
227.028	71.85
227.246	59.56
227.464	20.65
227.682	80.04
227.9	37.03
228.117	65.71
228.335	45.23
228.553	32.94
228.771	16.55
228.989	77.99
229.206	12.46
229.424	20.65
229.642	26.79
229.86	45.23
230.077	51.37
230.295	30.89
230.513	82.09
230.731	-69.46
230.948	75.95
231.166	65.71
231.384	18.6
231.601	-12.12
231.819	84.14
232.037	-10.07
232.254	-22.36
232.472	34.99
232.689	69.8
232.907	71.85
233.125	-3.93
233.342	-12.12
233.56	49.32
233.777	32.94
233.995	4.27
234.213	2.22
234.43	47.27
234.648	-18.26
234.865	45.23
235.083	45.23
235.3	32.94
235.518	51.37
235.735	65.71
235.953	16.55
236.17	55.47
236.388	14.51
236.605	37.03
236.822	168.1
237.04	-48.98
237.257	18.6
237.475	65.71
237.692	75.95
237.909	20.65
238.127	10.41
238.344	59.56
238.562	41.13
238.779	12.46
238.996	2.22
239.214	12.46
239.431	16.55
239.648	18.6
239.865	28.84
240.083	12.46
240.3	-24.4
240.517	-89.94
240.735	-16.21
240.952	125.1
241.169	37.03
241.386	-3.93
241.603	-3.93
241.821	-8.02
242.038	98.47
242.255	61.61
242.472	6.31
242.689	12.46
242.907	22.7
243.124	20.65
243.341	12.46
243.558	47.27
243.775	0.17
243.992	26.79
244.209	75.95
244.426	45.23
244.643	-36.69
244.86	30.89
245.078	28.84
245.295	-10.07
245.512	12.46
245.729	-20.31
245.946	20.65
246.163	10.41
246.38	98.47
246.597	32.94
246.814	2.22
247.031	-28.5
247.248	24.75
247.464	65.71
247.681	45.23
247.898	6.31
248.115	59.56
248.332	-34.64
248.549	86.19
248.766	127.14
248.983	37.03
249.2	55.47
249.417	26.79
249.633	-30.55
249.85	102.57
250.067	12.46
250.284	102.57
250.501	65.71
250.717	12.46
250.934	-32.6
251.151	32.94
251.368	-8.02
251.585	26.79
251.801	94.38
252.018	10.41
252.235	26.79
252.451	-53.08
252.668	18.6
252.885	69.8
253.102	100.52
253.318	10.41
253.535	-8.02
253.752	34.99
253.968	65.71
254.185	45.23
254.401	34.99
254.618	28.84
254.835	12.46
255.051	61.61
255.268	53.42
255.484	18.6
255.701	4.27
255.917	-30.55
256.134	45.23
256.351	4.27
256.567	-5.97
256.784	43.18
257	-40.79
257.217	63.66
257.433	69.8
257.65	-24.4
257.866	73.9
258.082	-12.12
258.299	57.51
258.515	67.75
258.732	37.03
258.948	20.65
259.165	-28.5
259.381	-38.74
259.597	59.56
259.814	43.18
260.03	37.03
260.246	2.22
260.463	24.75
260.679	110.76
260.895	22.7
261.112	69.8
261.328	4.27
261.544	16.55
261.761	47.27
261.977	-20.31
262.193	45.23
262.409	94.38
262.626	16.55
262.842	0.17
263.058	-32.6
263.274	61.61
263.49	41.13
263.707	102.57
263.923	26.79
264.139	-12.12
264.355	-24.4
264.571	34.99
264.787	12.46
265.004	0.17
265.22	43.18
265.436	106.67
265.652	-5.97
265.868	26.79
266.084	-32.6
266.3	32.94
266.516	-5.97
266.732	73.9
266.948	-5.97
267.164	18.6
267.38	37.03
267.596	16.55
267.812	94.38
268.028	73.9
268.244	-18.26
268.46	37.03
268.676	-36.69
268.892	-10.07
269.108	106.67
269.324	28.84
269.54	45.23
269.756	49.32
269.972	28.84
270.188	71.85
270.403	-46.93
270.619	49.32
270.835	12.46
271.051	-3.93
271.267	28.84
271.483	-8.02
271.698	37.03
271.914	28.84
272.13	77.99
272.346	-53.08
272.562	77.99
272.777	20.65
272.993	-67.41
273.209	8.36
273.425	67.75
273.64	-48.98
273.856	73.9
274.072	12.46
274.287	14.51
274.503	73.9
274.719	-3.93
274.934	32.94
275.15	-36.69
275.366	51.37
275.581	20.65
275.797	45.23
276.012	6.31
276.228	-32.6
276.444	26.79
276.659	57.51
276.875	53.42
277.09	16.55
277.306	61.61
277.521	61.61
277.737	8.36
277.952	20.65
278.168	-40.79
278.383	34.99
278.599	26.79
278.814	45.23
279.03	22.7
279.245	45.23
279.461	10.41
279.676	37.03
279.892	-16.21
280.107	-57.17
280.322	18.6
280.538	49.32
280.753	43.18
280.969	28.84
281.184	45.23
281.399	53.42
281.615	8.36
281.83	73.9
282.045	-8.02
282.26	18.6
282.476	53.42
282.691	67.75
282.906	84.14
283.122	110.76
283.337	4.27
283.552	55.47
283.767	6.31
283.983	57.51
284.198	24.75
284.413	-5.97
284.628	-16.21
284.843	41.13
285.058	18.6
285.274	-83.8
285.489	34.99
285.704	12.46
285.919	-46.93
286.134	18.6
286.349	47.27
286.564	20.65
286.779	28.84
286.995	77.99
287.21	-38.74
287.425	12.46
287.64	24.75
287.855	39.08
288.07	-28.5
288.285	18.6
288.5	92.33
288.715	80.04
288.93	37.03
289.145	77.99
289.36	26.79
289.575	57.51
289.79	22.7
290.004	-32.6
290.219	49.32
290.434	86.19
290.649	28.84
290.864	-46.93
291.079	16.55
291.294	94.38
291.509	53.42
291.724	12.46
291.938	12.46
292.153	-28.5
292.368	45.23
292.583	53.42
292.798	12.46
293.012	69.8
293.227	28.84
293.442	-16.21
293.657	67.75
293.871	92.33
294.086	12.46
294.301	59.56
294.516	57.51
294.73	-36.69
294.945	0.17
295.16	10.41
295.374	108.71
295.589	47.27
295.804	16.55
296.018	8.36
296.233	75.95
296.447	63.66
296.662	22.7
296.877	-3.93
297.091	-34.64
297.306	45.23
297.52	43.18
297.735	45.23
297.949	6.31
298.164	114.86
298.378	26.79
298.593	20.65
298.807	69.8
299.022	57.51
299.236	88.23
299.451	77.99
299.665	55.47
299.88	-32.6
300.094	96.43
300.309	59.56
300.523	59.56
300.737	61.61
300.952	98.47
301.166	26.79
301.381	57.51
301.595	-38.74
301.809	30.89
302.024	4.27
302.238	24.75
302.452	10.41
302.667	39.08
302.881	92.33
303.095	39.08
303.309	-3.93
303.524	55.47
303.738	-5.97
303.952	-8.02
304.166	67.75
304.381	-42.84
304.595	159.91
304.809	49.32
305.023	77.99
305.237	61.61
305.452	43.18
305.666	106.67
305.88	49.32
306.094	-16.21
306.308	53.42
306.522	69.8
306.736	61.61
306.95	77.99
307.164	-40.79
307.379	59.56
307.593	4.27
307.807	37.03
308.021	45.23
308.235	65.71
308.449	-5.97
308.663	39.08
308.877	133.29
309.091	51.37
309.305	53.42
309.519	-51.03
309.733	86.19
309.947	-12.12
310.161	20.65
310.374	4.27
310.588	135.34
310.802	-3.93
311.016	14.51
311.23	125.1
311.444	63.66
311.658	63.66
311.872	37.03
312.085	61.61
312.299	86.19
312.513	102.57
312.727	49.32
312.941	73.9
313.154	30.89
313.368	143.53
313.582	26.79
313.796	100.52
314.009	67.75
314.223	22.7
314.437	-28.5
314.651	77.99
314.864	10.41
315.078	2.22
315.292	-28.5
315.505	0.17
315.719	28.84
315.933	20.65
316.146	67.75
316.36	2.22
316.573	49.32
316.787	61.61
317.001	41.13
317.214	22.7
317.428	69.8
317.641	53.42
317.855	43.18
318.068	77.99
318.282	-5.97
318.495	80.04
318.709	57.51
318.922	82.09
319.136	69.8
319.349	24.75
319.563	75.95
319.776	-3.93
319.99	-51.03
320.203	59.56
320.417	57.51
320.63	63.66
320.843	86.19
321.057	65.71
321.27	-24.4
321.483	86.19
321.697	86.19
321.91	28.84
322.124	53.42
322.337	-20.31
322.55	43.18
322.763	18.6
322.977	24.75
323.19	90.28
323.403	100.52
323.617	0.17
323.83	59.56
324.043	-32.6
324.256	61.61
324.469	2.22
324.683	37.03
324.896	59.56
325.109	20.65
325.322	-85.84
325.535	22.7
325.748	59.56
325.962	10.41
326.175	37.03
326.388	57.51
326.601	110.76
326.814	12.46
327.027	110.76
327.24	41.13
327.453	-5.97
327.666	131.24
327.879	69.8
328.092	34.99
328.305	30.89
328.518	34.99
328.731	2.22
328.944	45.23
329.157	18.6
329.37	-24.4
329.583	63.66
329.796	114.86
330.009	45.23
330.222	53.42
330.435	30.89
330.648	49.32
330.861	24.75
331.073	20.65
331.286	135.34
331.499	-14.17
331.712	-53.08
331.925	-12.12
332.138	-34.64
332.35	43.18
332.563	47.27
332.776	59.56
332.989	-40.79
333.202	37.03
333.414	41.13
333.627	-8.02
333.84	32.94
334.053	59.56
334.265	20.65
334.478	-20.31
334.691	67.75
334.903	37.03
335.116	51.37
335.329	45.23
335.541	80.04
335.754	57.51
335.966	4.27
336.179	-38.74
336.392	22.7
336.604	26.79
336.817	45.23
337.029	49.32
337.242	4.27
337.454	102.57
337.667	43.18
337.88	110.76
338.092	53.42
338.305	84.14
338.517	-12.12
338.729	24.75
338.942	37.03
339.154	43.18
339.367	51.37
339.579	55.47
339.792	86.19
340.004	102.57
340.217	49.32
340.429	28.84
340.641	2.22
340.854	12.46
341.066	43.18
341.278	116.9
341.491	90.28
341.703	77.99
341.915	14.51
342.128	61.61
342.34	112.81
342.552	16.55
342.764	41.13
342.977	37.03
343.189	108.71
343.401	8.36
343.613	6.31
343.826	65.71
344.038	-12.12
344.25	94.38
344.462	-3.93
344.674	34.99
344.886	24.75
345.099	90.28
345.311	41.13
345.523	6.31
345.735	-3.93
345.947	8.36
346.159	82.09
346.371	77.99
346.583	26.79
346.795	123.05
347.007	20.65
347.219	104.62
347.431	41.13
347.643	51.37
347.855	-5.97
348.067	172.2
348.279	26.79
348.491	28.84
348.703	84.14
348.915	20.65
349.127	10.41
349.339	45.23
349.551	6.31
349.763	8.36
349.975	-30.55
350.187	125.1
350.399	67.75
350.61	37.03
350.822	37.03
351.034	28.84
351.246	61.61
351.458	61.61
351.669	30.89
351.881	108.71
352.093	63.66
352.305	118.95
352.517	18.6
352.728	26.79
352.94	16.55
353.152	34.99
353.363	41.13
353.575	18.6
353.787	61.61
353.999	8.36
354.21	12.46
354.422	28.84
354.633	12.46
354.845	2.22
355.057	65.71
355.268	53.42
355.48	-12.12
355.692	28.84
355.903	-10.07
356.115	-1.88
356.326	41.13
356.538	20.65
356.749	102.57
356.961	63.66
357.172	45.23
357.384	53.42
357.595	96.43
357.807	10.41
358.018	-18.26
358.23	12.46
358.441	110.76
358.653	61.61
358.864	28.84
359.075	-14.17
359.287	32.94
359.498	43.18
359.709	-3.93
359.921	4.27
360.132	-85.84
360.344	67.75
360.555	-22.36
360.766	12.46
360.977	69.8
361.189	90.28
361.4	86.19
361.611	143.53
361.823	37.03
362.034	102.57
362.245	28.84
362.456	10.41
362.667	-61.27
362.879	-44.88
363.09	-36.69
363.301	16.55
363.512	77.99
363.723	43.18
363.935	20.65
364.146	67.75
364.357	86.19
364.568	77.99
364.779	22.7
364.99	92.33
365.201	4.27
365.412	98.47
365.623	-36.69
365.834	90.28
366.045	20.65
366.256	41.13
366.467	71.85
366.678	12.46
366.889	4.27
367.1	45.23
367.311	28.84
367.522	32.94
367.733	127.14
367.944	18.6
368.155	39.08
368.366	151.72
368.577	77.99
368.788	73.9
368.999	-24.4
369.209	82.09
369.42	75.95
369.631	116.9
369.842	94.38
370.053	51.37
370.264	77.99
370.474	2.22
370.685	55.47
370.896	65.71
371.107	43.18
371.317	69.8
371.528	2.22
371.739	131.24
371.95	41.13
372.16	102.57
372.371	57.51
372.582	63.66
372.792	20.65
373.003	80.04
373.214	26.79
373.424	94.38
373.635	90.28
373.846	82.09
374.056	51.37
374.267	-3.93
374.477	34.99
374.688	41.13
374.898	4.27
375.109	2.22
375.319	86.19
375.53	41.13
375.74	16.55
375.951	18.6
376.161	28.84
376.372	47.27
376.582	37.03
376.793	86.19
377.003	6.31
377.214	-8.02
377.424	61.61
377.635	75.95
377.845	2.22
378.055	151.72
378.266	2.22
378.476	-3.93
378.686	92.33
378.897	77.99
379.107	37.03
379.317	106.67
379.528	94.38
379.738	86.19
379.948	-12.12
380.158	-12.12
380.369	43.18
380.579	65.71
380.789	26.79
380.999	67.75
381.21	-3.93
381.42	112.81
381.63	86.19
381.84	22.7
382.05	12.46
382.261	90.28
382.471	45.23
382.681	73.9
382.891	55.47
383.101	59.56
383.311	22.7
383.521	-3.93
383.731	106.67
383.941	51.37
384.151	65.71
384.361	-14.17
384.571	88.23
384.781	49.32
384.991	141.48
385.201	133.29
385.411	59.56
385.621	22.7
385.831	96.43
386.041	34.99
386.251	20.65
386.461	61.61
386.671	16.55
386.881	127.14
387.091	12.46
387.301	102.57
387.511	84.14
387.72	28.84
387.93	49.32
388.14	28.84
388.35	94.38
388.56	77.99
388.769	69.8
388.979	-5.97
389.189	51.37
389.399	86.19
389.609	61.61
389.818	82.09
390.028	102.57
390.238	82.09
390.447	77.99
390.657	45.23
390.867	12.46
391.076	82.09
391.286	45.23
391.496	-5.97
391.705	57.51
391.915	92.33
392.125	100.52
392.334	90.28
392.544	135.34
392.753	90.28
392.963	84.14
393.172	114.86
393.382	73.9
393.591	164.01
393.801	82.09
394.01	110.76
394.22	80.04
394.429	86.19
394.639	61.61
394.848	26.79
395.058	123.05
395.267	94.38
395.477	86.19
395.686	104.62
395.895	184.49
396.105	137.38
396.314	45.23
396.524	26.79
396.733	98.47
396.942	45.23
397.152	151.72
397.361	147.62
397.57	65.71
397.78	98.47
397.989	102.57
398.198	133.29
398.407	57.51
398.617	69.8
398.826	143.53
399.035	51.37
399.244	129.19
399.453	100.52
399.663	114.86
399.872	110.76
400.081	37.03
400.29	57.51
400.499	71.85
400.708	221.35
400.917	104.62
401.127	116.9
401.336	86.19
401.545	141.48
401.754	157.86
401.963	143.53
402.172	159.91
402.381	53.42
402.59	106.67
402.799	59.56
403.008	114.86
403.217	114.86
403.426	53.42
403.635	73.9
403.844	80.04
404.053	161.96
404.262	176.3
404.471	145.58
404.68	229.54
404.888	125.1
405.097	137.38
405.306	131.24
405.515	114.86
405.724	159.91
405.933	125.1
406.142	166.06
406.35	190.63
406.559	204.97
406.768	184.49
406.977	209.06
407.185	190.63
407.394	172.2
407.603	166.06
407.812	235.69
408.02	274.6
408.229	264.36
408.438	237.74
408.646	233.64
408.855	213.16
409.064	293.03
409.272	192.68
409.481	262.31
409.69	204.97
409.898	221.35
410.107	266.41
410.315	364.71
410.524	321.7
410.733	315.56
410.941	327.85
411.15	315.56
411.358	364.71
411.567	352.42
411.775	411.81
411.984	307.37
412.192	389.28
412.401	428.2
412.609	411.81
412.818	463.01
413.026	409.76
413.234	460.96
413.443	520.35
413.651	446.63
413.86	460.96
414.068	571.55
414.276	438.44
414.485	567.46
414.693	561.31
414.901	643.23
415.11	569.51
415.318	616.61
415.526	649.38
415.734	727.2
415.943	649.38
416.151	807.07
416.359	802.97
416.567	747.68
416.776	821.41
416.984	899.23
417.192	905.37
417.4	774.3
417.608	839.84
417.817	944.28
418.025	1001.63
418.233	1122.46
418.441	1050.78
418.649	1036.44
418.857	1151.13
419.065	1183.9
419.273	1233.05
419.481	1208.47
419.689	1388.69
419.897	1460.37
420.105	1286.3
420.313	1403.03
420.521	1509.52
420.729	1548.44
420.937	1542.29
421.145	1513.62
421.353	1695.89
421.561	1783.95
421.769	1896.59
421.977	1804.43
422.185	1904.78
422.393	2007.18
422.601	2052.24
422.809	2111.63
423.017	2052.24
423.224	2125.96
423.432	2293.9
423.64	2308.23
423.848	2494.6
424.056	2396.29
424.263	2625.67
424.471	2656.39
424.679	2660.48
424.887	2678.91
425.094	2826.37
425.302	2771.07
425.51	2994.3
425.718	3074.17
425.925	3182.71
426.133	3160.19
426.341	3434.61
426.548	3518.58
426.756	3596.4
426.964	3756.15
427.171	3838.06
427.379	3909.74
427.586	3870.83
427.794	4190.31
428.001	4378.73
428.209	4499.56
428.417	4345.96
428.624	4771.94
428.832	4833.38
429.039	4616.29
429.247	4673.64
429.454	5075.04
429.662	5541.97
429.869	5165.15
430.076	5435.48
430.284	5312.6
430.491	5644.37
430.699	5976.14
430.906	5986.38
431.114	6027.34
431.321	6355.02
431.528	6334.54
431.736	6750.28
431.943	7063.61
432.15	6938.69
432.358	7131.2
432.565	7358.52
432.772	7307.32
432.979	7745.59
433.187	7809.08
433.394	7811.12
433.601	8306.73
433.808	8380.46
434.016	8249.39
434.223	8689.7
434.43	9381.92
434.637	9160.73
434.844	9539.61
435.052	9613.34
435.259	9703.45
435.466	9889.81
435.673	9738.26
435.88	10622.98
436.087	10917.89
436.294	10891.27
436.501	10645.51
436.708	10784.77
436.915	11403.26
437.122	11825.14
437.329	11751.42
437.537	11960.31
437.743	12306.41
437.95	12222.45
438.157	12781.54
438.364	13242.34
438.571	13160.42
438.778	13184.99
438.985	14657.48
439.192	14241.75
439.399	14536.65
439.606	13952.98
439.813	14993.35
440.02	15910.84
440.227	15667.13
440.433	15357.89
440.64	15863.74
440.847	15806.39
441.054	16011.19
441.261	17069.99
441.467	17119.14
441.674	17665.95
441.881	18313.11
442.088	18081.69
442.294	17983.38
442.501	18497.42
442.708	18827.15
442.914	19521.41
443.121	20338.55
443.328	19795.84
443.534	21006.19
443.741	20664.18
443.948	20352.88
444.154	21794.65
444.361	21948.25
444.568	21845.85
444.774	21696.35
444.981	22064.99
445.187	23011.15
445.394	23680.83
445.6	23424.84
445.807	25542.44
446.013	24602.42
446.22	25284.39
446.426	26124.06
446.633	26545.94
446.839	26986.25
447.046	25859.87
447.252	27297.55
447.459	27258.63
447.665	27410.18
447.871	28452.6
448.078	29572.84
448.284	28550.9
448.491	29306.6
448.697	30189.28
448.903	30633.69
449.11	30508.76
449.316	30068.45
449.522	30746.33
449.728	31733.45
449.935	31991.49
450.141	31497.93
450.347	32425.66
450.553	31391.44
450.76	31862.47
450.966	32861.88
451.172	32542.39
451.378	33187.5
451.584	32550.59
451.791	33138.35
451.997	33580.71
452.203	33562.28
452.409	33760.94
452.615	33308.33
452.821	32247.49
453.027	32024.26
453.233	33762.98
453.44	32372.41
453.646	32587.45
453.852	33031.86
454.058	33294
454.264	32118.46
454.47	32552.63
454.676	31717.06
454.882	33201.84
455.088	30267.1
455.294	30392.03
455.5	30944.98
455.705	31301.33
455.911	30101.22
456.117	29091.57
456.323	28901.11
456.529	27385.61
456.735	28831.47
456.941	27715.33
457.147	27389.7
457.352	26777.36
457.558	26349.34
457.764	26543.89
457.97	25947.93
458.176	25095.98
458.381	25225
458.587	23799.62
458.793	23881.53
458.999	22683.47
459.204	24518.45
459.41	23564.1
459.616	22167.38
459.821	22407
460.027	21852
460.233	21430.12
460.438	20293.49
460.644	20721.52
460.85	19738.49
461.055	19554.18
461.261	19435.39
461.466	18016.15
461.672	17569.69
461.878	18472.85
462.083	17303.46
462.289	17160.1
462.494	17006.5
462.7	16203.7
462.905	15706.04
463.111	15949.75
463.316	16195.51
463.522	16025.53
463.727	16041.91
463.932	16019.38
464.138	15830.97
464.343	15929.27
464.549	15243.2
464.754	15904.7
464.959	15773.63
465.165	15396.8
465.37	15085.51
465.575	14426.06
465.781	14907.34
465.986	15366.08
466.191	14735.31
466.397	14526.41
466.602	14008.28
466.807	14315.47
467.012	14172.11
467.218	14061.52
467.423	13754.33
467.628	13957.08
467.833	14458.83
