Data from USB4F104151__43__11-30-24-862.txt Node

Date: Fri Mar 14 11:30:24 EDT 2025
User: louis
Spectrometer: USB4F10415
Trigger mode: 4
Integration Time (sec): 5.000000E-2
Scans to average: 1
Electric dark correction enabled: true
Nonlinearity correction enabled: false
Boxcar width: 0
XAxis mode: Wavelengths
Number of Pixels in Spectrum: 3648
>>>>>Begin Spectral Data<<<<<
178.204	-83.28
178.424	-83.28
178.644	-83.28
178.864	-140.63
179.084	-197.97
179.304	21.16
179.524	-68.95
179.744	-38.23
179.964	21.16
180.184	19.11
180.404	29.35
180.624	-17.75
180.844	-36.18
181.064	47.79
181.283	-9.56
181.503	15.02
181.723	17.07
181.943	-7.51
182.163	101.03
182.383	23.21
182.602	80.55
182.822	76.46
183.042	15.02
183.262	53.93
183.482	92.84
183.701	39.59
183.921	23.21
184.141	-3.41
184.361	43.69
184.58	39.59
184.8	23.21
185.02	0.68
185.239	92.84
185.459	4.78
185.679	80.55
185.898	-13.65
186.118	43.69
186.338	72.36
186.557	105.13
186.777	12.97
186.997	12.97
187.216	4.78
187.436	105.13
187.655	10.92
187.875	58.03
188.095	70.31
188.314	43.69
188.534	84.65
188.753	23.21
188.973	80.55
189.192	115.37
189.412	131.75
189.631	86.7
189.851	53.93
190.07	70.31
190.29	-44.37
190.509	23.21
190.729	29.35
190.948	47.79
191.168	262.82
191.387	121.51
191.607	39.59
191.826	41.64
192.045	2.73
192.265	12.97
192.484	31.4
192.704	25.26
192.923	29.35
193.142	174.76
193.362	19.11
193.581	15.02
193.8	47.79
194.02	-15.7
194.239	-50.52
194.458	60.07
194.678	58.03
194.897	109.22
195.116	-3.41
195.335	80.55
195.555	31.4
195.774	19.11
195.993	94.89
196.212	21.16
196.432	-23.89
196.651	15.02
196.87	2.73
197.089	51.88
197.308	86.7
197.528	109.22
197.747	39.59
197.966	60.07
198.185	105.13
198.404	41.64
198.623	185
198.842	35.5
199.062	101.03
199.281	33.45
199.5	-17.75
199.719	17.07
199.938	68.27
200.157	76.46
200.376	105.13
200.595	62.12
200.814	47.79
201.033	27.31
201.252	88.75
201.471	129.7
201.69	12.97
201.909	92.84
202.128	117.42
202.347	55.98
202.566	35.5
202.785	47.79
203.004	12.97
203.223	123.56
203.442	23.21
203.661	31.4
203.879	80.55
204.098	64.17
204.317	-25.94
204.536	141.99
204.755	23.21
204.974	74.41
205.193	39.59
205.411	150.18
205.63	41.64
205.849	101.03
206.068	66.22
206.287	31.4
206.505	45.74
206.724	23.21
206.943	-9.56
207.162	55.98
207.381	49.83
207.599	6.83
207.818	72.36
208.037	-54.61
208.255	33.45
208.474	41.64
208.693	58.03
208.911	150.18
209.13	17.07
209.349	125.61
209.567	27.31
209.786	12.97
210.005	76.46
210.223	-3.41
210.442	-52.56
210.661	94.89
210.879	76.46
211.098	53.93
211.316	31.4
211.535	109.22
211.753	37.55
211.972	58.03
212.191	-21.85
212.409	109.22
212.628	-58.71
212.846	23.21
213.065	80.55
213.283	111.27
213.502	39.59
213.72	88.75
213.938	-21.85
214.157	-15.7
214.375	12.97
214.594	0.68
214.812	49.83
215.031	15.02
215.249	43.69
215.467	-13.65
215.686	12.97
215.904	80.55
216.122	-5.46
216.341	117.42
216.559	19.11
216.778	144.04
216.996	-25.94
217.214	74.41
217.432	62.12
217.651	10.92
217.869	29.35
218.087	31.4
218.306	74.41
218.524	6.83
218.742	19.11
218.96	86.7
219.179	80.55
219.397	6.83
219.615	84.65
219.833	29.35
220.051	0.68
220.27	68.27
220.488	92.84
220.706	27.31
220.924	72.36
221.142	2.73
221.36	51.88
221.578	123.56
221.796	-3.41
222.015	-9.56
222.233	10.92
222.451	49.83
222.669	-19.8
222.887	96.94
223.105	-23.89
223.323	6.83
223.541	-27.99
223.759	23.21
223.977	72.36
224.195	84.65
224.413	111.27
224.631	-1.37
224.849	64.17
225.067	109.22
225.285	-44.37
225.503	23.21
225.721	-3.41
225.939	72.36
226.157	60.07
226.375	123.56
226.592	-19.8
226.81	31.4
227.028	72.36
227.246	51.88
227.464	64.17
227.682	101.03
227.9	47.79
228.117	66.22
228.335	88.75
228.553	144.04
228.771	6.83
228.989	76.46
229.206	53.93
229.424	51.88
229.642	-21.85
229.86	6.83
230.077	45.74
230.295	15.02
230.513	103.08
230.731	10.92
230.948	129.7
231.166	76.46
231.384	53.93
231.601	82.6
231.819	98.99
232.037	35.5
232.254	6.83
232.472	15.02
232.689	-19.8
232.907	55.98
233.125	111.27
233.342	0.68
233.56	39.59
233.777	6.83
233.995	43.69
234.213	64.17
234.43	27.31
234.648	62.12
234.865	70.31
235.083	27.31
235.3	-21.85
235.518	76.46
235.735	23.21
235.953	29.35
236.17	68.27
236.388	55.98
236.605	125.61
236.822	80.55
237.04	119.46
237.257	55.98
237.475	-50.52
237.692	55.98
237.909	55.98
238.127	39.59
238.344	109.22
238.562	62.12
238.779	-15.7
238.996	33.45
239.214	101.03
239.431	41.64
239.648	121.51
239.865	25.26
240.083	45.74
240.3	-42.32
240.517	41.64
240.735	96.94
240.952	101.03
241.169	62.12
241.386	6.83
241.603	41.64
241.821	-5.46
242.038	55.98
242.255	43.69
242.472	23.21
242.689	76.46
242.907	117.42
243.124	-1.37
243.341	45.74
243.558	-21.85
243.775	43.69
243.992	-34.13
244.209	35.5
244.426	144.04
244.643	6.83
244.86	-19.8
245.078	33.45
245.295	27.31
245.512	45.74
245.729	29.35
245.946	49.83
246.163	88.75
246.38	-9.56
246.597	0.68
246.814	45.74
247.031	72.36
247.248	6.83
247.464	-38.23
247.681	29.35
247.898	29.35
248.115	47.79
248.332	31.4
248.549	101.03
248.766	105.13
248.983	80.55
249.2	-13.65
249.417	74.41
249.633	51.88
249.85	43.69
250.067	-5.46
250.284	51.88
250.501	47.79
250.717	68.27
250.934	-13.65
251.151	127.66
251.368	37.55
251.585	25.26
251.801	17.07
252.018	94.89
252.235	150.18
252.451	23.21
252.668	58.03
252.885	123.56
253.102	94.89
253.318	21.16
253.535	31.4
253.752	-38.23
253.968	76.46
254.185	-5.46
254.401	15.02
254.618	31.4
254.835	19.11
255.051	41.64
255.268	31.4
255.484	15.02
255.701	101.03
255.917	0.68
256.134	-3.41
256.351	-15.7
256.567	47.79
256.784	15.02
257	4.78
257.217	78.51
257.433	144.04
257.65	10.92
257.866	70.31
258.082	23.21
258.299	55.98
258.515	152.23
258.732	-19.8
258.948	58.03
259.165	80.55
259.381	-1.37
259.597	12.97
259.814	80.55
260.03	66.22
260.246	70.31
260.463	92.84
260.679	62.12
260.895	17.07
261.112	88.75
261.328	-3.41
261.544	21.16
261.761	152.23
261.977	21.16
262.193	12.97
262.409	39.59
262.626	8.87
262.842	68.27
263.058	12.97
263.274	119.46
263.49	23.21
263.707	29.35
263.923	27.31
264.139	19.11
264.355	55.98
264.571	109.22
264.787	-11.61
265.004	103.08
265.22	39.59
265.436	27.31
265.652	33.45
265.868	2.73
266.084	35.5
266.3	-25.94
266.516	-19.8
266.732	55.98
266.948	19.11
267.164	88.75
267.38	72.36
267.596	64.17
267.812	119.46
268.028	109.22
268.244	-11.61
268.46	-21.85
268.676	45.74
268.892	80.55
269.108	47.79
269.324	-15.7
269.54	-75.09
269.756	25.26
269.972	0.68
270.188	-19.8
270.403	27.31
270.619	58.03
270.835	-17.75
271.051	-23.89
271.267	33.45
271.483	-1.37
271.698	51.88
271.914	21.16
272.13	55.98
272.346	45.74
272.562	39.59
272.777	43.69
272.993	39.59
273.209	84.65
273.425	86.7
273.64	2.73
273.856	137.9
274.072	45.74
274.287	29.35
274.503	43.69
274.719	121.51
274.934	4.78
275.15	-19.8
275.366	19.11
275.581	47.79
275.797	23.21
276.012	-25.94
276.228	-1.37
276.444	37.55
276.659	148.14
276.875	117.42
277.09	62.12
277.306	80.55
277.521	76.46
277.737	51.88
277.952	72.36
278.168	23.21
278.383	103.08
278.599	39.59
278.814	47.79
279.03	92.84
279.245	88.75
279.461	88.75
279.676	72.36
279.892	35.5
280.107	31.4
280.322	-17.75
280.538	43.69
280.753	19.11
280.969	72.36
281.184	6.83
281.399	117.42
281.615	39.59
281.83	86.7
282.045	0.68
282.26	64.17
282.476	31.4
282.691	68.27
282.906	103.08
283.122	4.78
283.337	-32.08
283.552	23.21
283.767	-9.56
283.983	64.17
284.198	23.21
284.413	39.59
284.628	55.98
284.843	88.75
285.058	96.94
285.274	58.03
285.489	27.31
285.704	109.22
285.919	-21.85
286.134	49.83
286.349	55.98
286.564	2.73
286.779	115.37
286.995	47.79
287.21	92.84
287.425	78.51
287.64	-1.37
287.855	105.13
288.07	-19.8
288.285	23.21
288.5	78.51
288.715	35.5
288.93	35.5
289.145	31.4
289.36	31.4
289.575	55.98
289.79	8.87
290.004	12.97
290.219	123.56
290.434	47.79
290.649	29.35
290.864	47.79
291.079	53.93
291.294	39.59
291.509	72.36
291.724	80.55
291.938	31.4
292.153	35.5
292.368	84.65
292.583	33.45
292.798	92.84
293.012	64.17
293.227	29.35
293.442	60.07
293.657	37.55
293.871	96.94
294.086	141.99
294.301	98.99
294.516	60.07
294.73	2.73
294.945	49.83
295.16	72.36
295.374	27.31
295.589	127.66
295.804	82.6
296.018	21.16
296.233	43.69
296.447	68.27
296.662	21.16
296.877	29.35
297.091	47.79
297.306	-15.7
297.52	29.35
297.735	25.26
297.949	72.36
298.164	21.16
298.378	31.4
298.593	-38.23
298.807	-36.18
299.022	96.94
299.236	113.32
299.451	39.59
299.665	35.5
299.88	68.27
300.094	80.55
300.309	60.07
300.523	55.98
300.737	-23.89
300.952	103.08
301.166	27.31
301.381	53.93
301.595	21.16
301.809	94.89
302.024	4.78
302.238	33.45
302.452	60.07
302.667	17.07
302.881	76.46
303.095	76.46
303.309	80.55
303.524	80.55
303.738	86.7
303.952	21.16
304.166	-48.47
304.381	33.45
304.595	162.47
304.809	70.31
305.023	4.78
305.237	55.98
305.452	96.94
305.666	-1.37
305.88	8.87
306.094	55.98
306.308	70.31
306.522	51.88
306.736	23.21
306.95	84.65
307.164	64.17
307.379	-13.65
307.593	107.18
307.807	62.12
308.021	66.22
308.235	88.75
308.449	-9.56
308.663	60.07
308.877	123.56
309.091	80.55
309.305	6.83
309.519	98.99
309.733	47.79
309.947	-48.47
310.161	125.61
310.374	51.88
310.588	101.03
310.802	0.68
311.016	-13.65
311.23	86.7
311.444	-1.37
311.658	88.75
311.872	23.21
312.085	113.32
312.299	129.7
312.513	80.55
312.727	-1.37
312.941	80.55
313.154	51.88
313.368	55.98
313.582	21.16
313.796	68.27
314.009	74.41
314.223	-11.61
314.437	15.02
314.651	68.27
314.864	51.88
315.078	4.78
315.292	60.07
315.505	31.4
315.719	47.79
315.933	55.98
316.146	-17.75
316.36	58.03
316.573	92.84
316.787	58.03
317.001	84.65
317.214	-9.56
317.428	4.78
317.641	68.27
317.855	51.88
318.068	64.17
318.282	141.99
318.495	98.99
318.709	-27.99
318.922	-3.41
319.136	133.8
319.349	96.94
319.563	-19.8
319.776	51.88
319.99	6.83
320.203	29.35
320.417	41.64
320.63	19.11
320.843	129.7
321.057	74.41
321.27	39.59
321.483	21.16
321.697	64.17
321.91	55.98
322.124	19.11
322.337	70.31
322.55	55.98
322.763	53.93
322.977	105.13
323.19	-9.56
323.403	47.79
323.617	21.16
323.83	113.32
324.043	107.18
324.256	45.74
324.469	12.97
324.683	103.08
324.896	-3.41
325.109	88.75
325.322	-3.41
325.535	51.88
325.748	45.74
325.962	39.59
326.175	47.79
326.388	105.13
326.601	4.78
326.814	15.02
327.027	70.31
327.24	64.17
327.453	12.97
327.666	107.18
327.879	6.83
328.092	96.94
328.305	15.02
328.518	10.92
328.731	105.13
328.944	-13.65
329.157	55.98
329.37	10.92
329.583	121.51
329.796	125.61
330.009	45.74
330.222	72.36
330.435	76.46
330.648	31.4
330.861	70.31
331.073	37.55
331.286	-17.75
331.499	27.31
331.712	-5.46
331.925	-15.7
332.138	25.26
332.35	135.85
332.563	-15.7
332.776	55.98
332.989	-9.56
333.202	76.46
333.414	-38.23
333.627	43.69
333.84	6.83
334.053	111.27
334.265	39.59
334.478	6.83
334.691	-19.8
334.903	41.64
335.116	-62.8
335.329	12.97
335.541	76.46
335.754	86.7
335.966	35.5
336.179	92.84
336.392	23.21
336.604	74.41
336.817	137.9
337.029	6.83
337.242	4.78
337.454	51.88
337.667	-9.56
337.88	64.17
338.092	64.17
338.305	111.27
338.517	119.46
338.729	60.07
338.942	84.65
339.154	29.35
339.367	29.35
339.579	33.45
339.792	45.74
340.004	96.94
340.217	72.36
340.429	-17.75
340.641	49.83
340.854	0.68
341.066	55.98
341.278	39.59
341.491	78.51
341.703	64.17
341.915	-56.66
342.128	60.07
342.34	35.5
342.552	39.59
342.764	-15.7
342.977	94.89
343.189	-17.75
343.401	90.79
343.613	23.21
343.826	78.51
344.038	31.4
344.25	51.88
344.462	-52.56
344.674	29.35
344.886	70.31
345.099	86.7
345.311	96.94
345.523	33.45
345.735	-50.52
345.947	37.55
346.159	23.21
346.371	37.55
346.583	35.5
346.795	96.94
347.007	21.16
347.219	123.56
347.431	23.21
347.643	88.75
347.855	41.64
348.067	113.32
348.279	10.92
348.491	68.27
348.703	78.51
348.915	2.73
349.127	-5.46
349.339	84.65
349.551	6.83
349.763	133.8
349.975	64.17
350.187	51.88
350.399	109.22
350.61	135.85
350.822	-40.28
351.034	-19.8
351.246	51.88
351.458	15.02
351.669	47.79
351.881	74.41
352.093	58.03
352.305	70.31
352.517	74.41
352.728	47.79
352.94	31.4
353.152	53.93
353.363	12.97
353.575	133.8
353.787	55.98
353.999	64.17
354.21	96.94
354.422	2.73
354.633	-5.46
354.845	39.59
355.057	62.12
355.268	98.99
355.48	101.03
355.692	80.55
355.903	35.5
356.115	51.88
356.326	-68.95
356.538	80.55
356.749	-34.13
356.961	103.08
357.172	55.98
357.384	-13.65
357.595	96.94
357.807	47.79
358.018	51.88
358.23	-5.46
358.441	117.42
358.653	84.65
358.864	47.79
359.075	-1.37
359.287	68.27
359.498	96.94
359.709	166.57
359.921	78.51
360.132	94.89
360.344	43.69
360.555	41.64
360.766	55.98
360.977	35.5
361.189	62.12
361.4	53.93
361.611	29.35
361.823	15.02
362.034	146.09
362.245	-60.76
362.456	37.55
362.667	88.75
362.879	33.45
363.09	6.83
363.301	72.36
363.512	88.75
363.723	31.4
363.935	45.74
364.146	101.03
364.357	23.21
364.568	78.51
364.779	12.97
364.99	103.08
365.201	45.74
365.412	131.75
365.623	39.59
365.834	43.69
366.045	12.97
366.256	121.51
366.467	113.32
366.678	-9.56
366.889	6.83
367.1	64.17
367.311	101.03
367.522	90.79
367.733	64.17
367.944	6.83
368.155	53.93
368.366	68.27
368.577	80.55
368.788	80.55
368.999	53.93
369.209	37.55
369.42	199.34
369.631	121.51
369.842	60.07
370.053	39.59
370.264	58.03
370.474	-3.41
370.685	15.02
370.896	72.36
371.107	82.6
371.317	55.98
371.528	23.21
371.739	60.07
371.95	21.16
372.16	133.8
372.371	19.11
372.582	47.79
372.792	115.37
373.003	35.5
373.214	29.35
373.424	103.08
373.635	10.92
373.846	23.21
374.056	51.88
374.267	53.93
374.477	55.98
374.688	-1.37
374.898	47.79
375.109	37.55
375.319	125.61
375.53	-25.94
375.74	101.03
375.951	39.59
376.161	133.8
376.372	105.13
376.582	35.5
376.793	58.03
377.003	62.12
377.214	-11.61
377.424	19.11
377.635	-23.89
377.845	39.59
378.055	15.02
378.266	-32.08
378.476	17.07
378.686	101.03
378.897	72.36
379.107	68.27
379.317	60.07
379.528	2.73
379.738	80.55
379.948	47.79
380.158	80.55
380.369	121.51
380.579	53.93
380.789	55.98
380.999	96.94
381.21	27.31
381.42	103.08
381.63	-9.56
381.84	78.51
382.05	47.79
382.261	76.46
382.471	86.7
382.681	21.16
382.891	80.55
383.101	64.17
383.311	-11.61
383.521	51.88
383.731	47.79
383.941	86.7
384.151	39.59
384.361	-11.61
384.571	105.13
384.781	76.46
384.991	62.12
385.201	193.19
385.411	68.27
385.621	70.31
385.831	31.4
386.041	107.18
386.251	137.9
386.461	51.88
386.671	15.02
386.881	98.99
387.091	15.02
387.301	113.32
387.511	12.97
387.72	72.36
387.93	15.02
388.14	8.87
388.35	19.11
388.56	43.69
388.769	115.37
388.979	94.89
389.189	35.5
389.399	84.65
389.609	72.36
389.818	121.51
390.028	94.89
390.238	94.89
390.447	-11.61
390.657	113.32
390.867	27.31
391.076	23.21
391.286	105.13
391.496	21.16
391.705	154.28
391.915	90.79
392.125	105.13
392.334	39.59
392.544	111.27
392.753	76.46
392.963	111.27
393.172	103.08
393.382	-9.56
393.591	119.46
393.801	35.5
394.01	148.14
394.22	113.32
394.429	15.02
394.639	105.13
394.848	119.46
395.058	60.07
395.267	15.02
395.477	37.55
395.686	78.51
395.895	135.85
396.105	109.22
396.314	70.31
396.524	78.51
396.733	84.65
396.942	105.13
397.152	105.13
397.361	105.13
397.57	29.35
397.78	72.36
397.989	78.51
398.198	185
398.407	84.65
398.617	64.17
398.826	94.89
399.035	66.22
399.244	72.36
399.453	23.21
399.663	141.99
399.872	148.14
400.081	109.22
400.29	129.7
400.499	23.21
400.708	146.09
400.917	111.27
401.127	92.84
401.336	62.12
401.545	121.51
401.754	174.76
401.963	113.32
402.172	55.98
402.381	37.55
402.59	68.27
402.799	96.94
403.008	127.66
403.217	96.94
403.426	137.9
403.635	64.17
403.844	217.77
404.053	76.46
404.262	158.38
404.471	144.04
404.68	76.46
404.888	113.32
405.097	135.85
405.306	187.05
405.515	94.89
405.724	162.47
405.933	127.66
406.142	170.66
406.35	154.28
406.559	146.09
406.768	127.66
406.977	187.05
407.185	170.66
407.394	160.42
407.603	127.66
407.812	158.38
408.02	115.37
408.229	148.14
408.438	168.62
408.646	244.39
408.855	135.85
409.064	193.19
409.272	217.77
409.481	228.01
409.69	248.49
409.898	234.15
410.107	273.06
410.315	240.29
410.524	303.78
410.733	256.68
410.941	287.4
411.15	346.79
411.358	334.5
411.567	373.41
411.775	285.35
411.984	383.65
412.192	416.42
412.401	344.74
412.609	391.84
412.818	400.04
413.026	414.37
413.234	363.17
413.443	389.8
413.651	365.22
413.86	451.24
414.068	492.2
414.276	488.1
414.485	449.19
414.693	598.69
414.901	486.05
415.11	492.2
415.318	488.1
415.526	643.74
415.734	592.55
415.943	602.79
416.151	625.31
416.359	666.27
416.567	643.74
416.776	690.85
416.984	793.25
417.192	752.29
417.4	615.07
417.608	785.05
417.817	895.64
418.025	891.55
418.233	965.28
418.441	834.21
418.649	842.4
418.857	1012.38
419.065	998.04
419.273	973.47
419.481	1096.35
419.689	1061.53
419.897	1100.44
420.105	1129.11
420.313	1165.98
420.521	1282.71
420.729	1249.94
420.937	1227.42
421.145	1342.1
421.353	1366.68
421.561	1438.36
421.769	1497.75
421.977	1653.39
422.185	1446.55
422.393	1677.97
422.601	1698.45
422.809	1694.35
423.017	1813.13
423.224	1856.14
423.432	1854.09
423.64	1872.53
423.848	2042.51
424.056	1878.67
424.263	2026.12
424.471	2034.32
424.679	2226.82
424.887	2216.58
425.094	2407.05
425.302	2390.66
425.51	2405
425.718	2536.07
425.925	2538.12
426.133	2691.71
426.341	2849.41
426.548	2912.89
426.756	2830.98
426.964	2964.09
427.171	2996.86
427.379	3119.74
427.586	3166.84
427.794	3328.63
428.001	3482.23
428.209	3648.11
428.417	3652.21
428.624	3865.2
428.832	3955.31
429.039	3773.04
429.247	3859.06
429.454	4264.55
429.662	4518.5
429.869	4237.93
430.076	4579.94
430.284	4434.53
430.491	4631.14
430.699	4815.46
430.906	4837.98
431.114	4952.67
431.321	4973.15
431.528	5229.15
431.736	5667.41
431.943	5655.12
432.15	5573.21
432.358	5681.75
432.565	6111.82
432.772	5947.98
432.979	6181.45
433.187	6394.44
433.394	6363.72
433.601	7004.74
433.808	7062.08
434.016	6949.44
434.223	7025.22
434.43	7594.55
434.637	7545.4
434.844	7717.43
435.052	8124.97
435.259	7862.83
435.466	8137.26
435.673	7782.96
435.88	8358.44
436.087	8780.32
436.294	8802.85
436.501	8671.78
436.708	8985.12
436.915	9280.03
437.122	9533.98
437.329	9669.14
437.537	9861.65
437.743	9787.93
437.95	9933.33
438.157	10406.41
438.364	10813.96
438.571	10725.9
438.778	10967.56
438.985	11930.1
439.192	11282.94
439.399	11909.62
439.606	11319.81
439.813	12128.75
440.02	12925.41
440.227	12730.86
440.433	12444.14
440.64	12937.7
440.847	12870.12
441.054	13122.02
441.261	14027.22
441.467	13851.1
441.674	14189.01
441.881	14805.45
442.088	14664.14
442.294	14737.87
442.501	15208.9
442.708	15307.2
442.914	15786.43
443.121	16366
443.328	16226.74
443.534	16904.62
443.741	16722.35
443.948	16400.82
444.154	17527.2
444.361	17529.25
444.568	17639.84
444.774	17785.24
444.981	17799.58
445.187	18696.59
445.394	18938.25
445.6	18919.82
445.807	20752.75
446.013	19904.89
446.22	20173.17
446.426	20894.06
446.633	21170.54
446.839	21934.43
447.046	20935.02
447.252	22391.12
447.459	21930.33
447.665	22356.31
447.871	23081.29
448.078	23996.73
448.284	22872.4
448.491	23753.02
448.697	24111.42
448.903	24664.37
449.11	24848.69
449.316	24469.81
449.522	24795.44
449.728	25600.29
449.935	26022.17
450.141	25770.27
450.347	26108.19
450.553	25393.45
450.76	25706.79
450.966	26863.89
451.172	26353.94
451.378	26966.29
451.584	26618.13
451.791	27238.67
451.997	26956.05
452.203	27574.53
452.409	27218.19
452.615	27228.43
452.821	26312.99
453.027	25876.77
453.233	27377.93
453.44	26231.07
453.646	26380.57
453.852	26427.67
454.058	26779.92
454.264	25811.23
454.47	26790.16
454.676	25975.07
454.882	27089.17
455.088	24621.36
455.294	24975.66
455.5	25098.54
455.705	25301.29
455.911	24379.7
456.117	24025.4
456.323	23515.46
456.529	22198.62
456.735	23388.49
456.941	22729.04
457.147	22368.6
457.352	21698.91
457.558	21178.73
457.764	21422.44
457.97	20789.61
458.176	20416.88
458.381	20576.62
458.587	19728.77
458.793	19394.95
458.999	18620.81
459.204	19532.16
459.41	19095.94
459.616	18059.67
459.821	17824.15
460.027	17844.63
460.233	17758.62
460.438	16789.93
460.644	16732.59
460.85	15892.92
461.055	15860.15
461.261	15800.76
461.466	14412.24
461.672	14307.79
461.878	15151.56
462.083	14195.15
462.289	13963.73
462.494	13591
462.7	13126.11
462.905	12880.36
463.111	13230.56
463.316	13052.39
463.522	13205.99
463.727	12730.86
463.932	12878.31
464.138	12659.18
464.343	12775.91
464.549	12595.69
464.754	12892.65
464.959	12607.98
465.165	12806.63
465.37	11971.06
465.575	11954.68
465.781	12325.36
465.986	12261.87
466.191	12038.64
466.397	11803.13
466.602	11264.51
466.807	11764.22
467.012	11383.29
467.218	11545.08
