Data from USB4F104151__34__11-30-10-852.txt Node

Date: Fri Mar 14 11:30:10 EDT 2025
User: louis
Spectrometer: USB4F10415
Trigger mode: 4
Integration Time (sec): 5.000000E-2
Scans to average: 1
Electric dark correction enabled: true
Nonlinearity correction enabled: false
Boxcar width: 0
XAxis mode: Wavelengths
Number of Pixels in Spectrum: 3648
>>>>>Begin Spectral Data<<<<<
178.204	-141.65
178.424	-141.65
178.644	-141.65
178.864	-131.41
179.084	-63.83
179.304	46.76
179.524	-20.82
179.744	57
179.964	22.19
180.184	1.71
180.404	-26.96
180.624	32.43
180.844	30.38
181.064	-26.96
181.283	-18.77
181.503	-69.97
181.723	-26.96
181.943	1.71
182.163	1.71
182.383	71.34
182.602	1.71
182.822	-8.53
183.042	9.9
183.262	36.52
183.482	-2.39
183.701	46.76
183.921	-0.34
184.141	-2.39
184.361	38.57
184.58	91.82
184.8	38.57
185.02	3.75
185.239	77.48
185.459	30.38
185.679	77.48
185.898	13.99
186.118	38.57
186.338	42.67
186.557	7.85
186.777	-22.87
186.997	7.85
187.216	13.99
187.436	-2.39
187.655	75.43
187.875	67.24
188.095	91.82
188.314	61.1
188.534	61.1
188.753	7.85
188.973	11.95
189.192	89.77
189.412	-10.58
189.631	28.33
189.851	30.38
190.07	87.72
190.29	1.71
190.509	20.14
190.729	32.43
190.948	-4.44
191.168	188.07
191.387	-8.53
191.607	26.28
191.826	24.23
192.045	-18.77
192.265	3.75
192.484	38.57
192.704	-10.58
192.923	-43.35
193.142	85.67
193.362	77.48
193.581	34.47
193.8	11.95
194.02	36.52
194.239	13.99
194.458	-6.49
194.678	46.76
194.897	26.28
195.116	22.19
195.335	61.1
195.555	30.38
195.774	-16.73
195.993	71.34
196.212	13.99
196.432	110.25
196.651	97.96
196.87	-39.25
197.089	75.43
197.308	67.24
197.528	-2.39
197.747	-84.31
197.966	34.47
198.185	30.38
198.404	5.8
198.623	-2.39
198.842	108.2
199.062	153.26
199.281	11.95
199.5	69.29
199.719	3.75
199.938	83.63
200.157	32.43
200.376	-12.63
200.595	95.91
200.814	44.71
201.033	32.43
201.252	75.43
201.471	13.99
201.69	87.72
201.909	11.95
202.128	11.95
202.347	-33.11
202.566	22.19
202.785	11.95
203.004	-45.4
203.223	75.43
203.442	11.95
203.661	5.8
203.879	18.09
204.098	26.28
204.317	-45.4
204.536	108.2
204.755	46.76
204.974	38.57
205.193	69.29
205.411	81.58
205.63	18.09
205.849	71.34
206.068	100.01
206.287	36.52
206.505	52.91
206.724	36.52
206.943	85.67
207.162	95.91
207.381	100.01
207.599	52.91
207.818	34.47
208.037	20.14
208.255	5.8
208.474	36.52
208.693	-0.34
208.911	11.95
209.13	36.52
209.349	52.91
209.567	54.95
209.786	73.39
210.005	38.57
210.223	22.19
210.442	69.29
210.661	100.01
210.879	22.19
211.098	-22.87
211.316	-51.54
211.535	83.63
211.753	44.71
211.972	28.33
212.191	1.71
212.409	-55.64
212.628	18.09
212.846	-26.96
213.065	13.99
213.283	95.91
213.502	26.28
213.72	13.99
213.938	-45.4
214.157	26.28
214.375	48.81
214.594	-6.49
214.812	30.38
215.031	-4.44
215.249	110.25
215.467	38.57
215.686	63.15
215.904	50.86
216.122	50.86
216.341	38.57
216.559	26.28
216.778	95.91
216.996	79.53
217.214	71.34
217.432	-35.16
217.651	46.76
217.869	63.15
218.087	71.34
218.306	-67.92
218.524	9.9
218.742	-2.39
218.96	-29.01
219.179	67.24
219.397	54.95
219.615	106.15
219.833	5.8
220.051	11.95
220.27	85.67
220.488	36.52
220.706	73.39
220.924	13.99
221.142	16.04
221.36	18.09
221.578	34.47
221.796	83.63
222.015	69.29
222.233	151.21
222.451	52.91
222.669	-16.73
222.887	13.99
223.105	38.57
223.323	50.86
223.541	36.52
223.759	-6.49
223.977	-43.35
224.195	42.67
224.413	-29.01
224.631	5.8
224.849	54.95
225.067	38.57
225.285	36.52
225.503	42.67
225.721	1.71
225.939	87.72
226.157	59.05
226.375	61.1
226.592	11.95
226.81	-6.49
227.028	73.39
227.246	95.91
227.464	-18.77
227.682	83.63
227.9	-4.44
228.117	67.24
228.335	32.43
228.553	20.14
228.771	-2.39
228.989	67.24
229.206	38.57
229.424	-82.26
229.642	54.95
229.86	9.9
230.077	61.1
230.295	63.15
230.513	77.48
230.731	159.4
230.948	77.48
231.166	65.19
231.384	-12.63
231.601	36.52
231.819	85.67
232.037	-2.39
232.254	-37.2
232.472	83.63
232.689	30.38
232.907	85.67
233.125	36.52
233.342	36.52
233.56	42.67
233.777	-8.53
233.995	-18.77
234.213	87.72
234.43	-6.49
234.648	13.99
234.865	1.71
235.083	-18.77
235.3	85.67
235.518	34.47
235.735	108.2
235.953	63.15
236.17	59.05
236.388	54.95
236.605	79.53
236.822	36.52
237.04	61.1
237.257	52.91
237.475	24.23
237.692	20.14
237.909	79.53
238.127	22.19
238.344	100.01
238.562	-4.44
238.779	22.19
238.996	85.67
239.214	26.28
239.431	-4.44
239.648	-18.77
239.865	77.48
240.083	28.33
240.3	87.72
240.517	5.8
240.735	26.28
240.952	44.71
241.169	28.33
241.386	50.86
241.603	9.9
241.821	3.75
242.038	91.82
242.255	30.38
242.472	3.75
242.689	71.34
242.907	26.28
243.124	32.43
243.341	71.34
243.558	-10.58
243.775	-51.54
243.992	1.71
244.209	38.57
244.426	136.87
244.643	11.95
244.86	-72.02
245.078	65.19
245.295	18.09
245.512	36.52
245.729	54.95
245.946	44.71
246.163	28.33
246.38	22.19
246.597	34.47
246.814	52.91
247.031	26.28
247.248	69.29
247.464	77.48
247.681	46.76
247.898	-22.87
248.115	61.1
248.332	54.95
248.549	124.58
248.766	110.25
248.983	48.81
249.2	44.71
249.417	95.91
249.633	22.19
249.85	48.81
250.067	11.95
250.284	36.52
250.501	5.8
250.717	22.19
250.934	30.38
251.151	13.99
251.368	-37.2
251.585	52.91
251.801	13.99
252.018	63.15
252.235	30.38
252.451	-22.87
252.668	48.81
252.885	-10.58
253.102	30.38
253.318	54.95
253.535	5.8
253.752	-45.4
253.968	79.53
254.185	28.33
254.401	9.9
254.618	73.39
254.835	63.15
255.051	69.29
255.268	57
255.484	50.86
255.701	83.63
255.917	34.47
256.134	-37.2
256.351	38.57
256.567	-61.78
256.784	87.72
257	46.76
257.217	-24.92
257.433	1.71
257.65	-18.77
257.866	28.33
258.082	-43.35
258.299	-10.58
258.515	26.28
258.732	36.52
258.948	-2.39
259.165	30.38
259.381	40.62
259.597	79.53
259.814	-10.58
260.03	22.19
260.246	20.14
260.463	87.72
260.679	3.75
260.895	40.62
261.112	75.43
261.328	9.9
261.544	13.99
261.761	136.87
261.977	30.38
262.193	30.38
262.409	120.49
262.626	-2.39
262.842	-26.96
263.058	46.76
263.274	128.68
263.49	-6.49
263.707	38.57
263.923	79.53
264.139	18.09
264.355	71.34
264.571	87.72
264.787	18.09
265.004	124.58
265.22	-12.63
265.436	67.24
265.652	30.38
265.868	30.38
266.084	59.05
266.3	42.67
266.516	-10.58
266.732	114.34
266.948	54.95
267.164	5.8
267.38	54.95
267.596	30.38
267.812	59.05
268.028	3.75
268.244	9.9
268.46	54.95
268.676	-2.39
268.892	30.38
269.108	69.29
269.324	38.57
269.54	-18.77
269.756	13.99
269.972	-12.63
270.188	81.58
270.403	30.38
270.619	46.76
270.835	3.75
271.051	69.29
271.267	-37.2
271.483	-61.78
271.698	93.87
271.914	91.82
272.13	22.19
272.346	11.95
272.562	79.53
272.777	104.11
272.993	38.57
273.209	83.63
273.425	18.09
273.64	-41.3
273.856	26.28
274.072	38.57
274.287	-10.58
274.503	-8.53
274.719	48.81
274.934	61.1
275.15	13.99
275.366	36.52
275.581	34.47
275.797	28.33
276.012	63.15
276.228	71.34
276.444	20.14
276.659	46.76
276.875	5.8
277.09	40.62
277.306	54.95
277.521	40.62
277.737	9.9
277.952	18.09
278.168	50.86
278.383	46.76
278.599	-10.58
278.814	79.53
279.03	-16.73
279.245	95.91
279.461	18.09
279.676	61.1
279.892	9.9
280.107	73.39
280.322	-20.82
280.538	63.15
280.753	-6.49
280.969	52.91
281.184	22.19
281.399	110.25
281.615	57
281.83	-86.36
282.045	-18.77
282.26	38.57
282.476	67.24
282.691	13.99
282.906	54.95
283.122	48.81
283.337	22.19
283.552	71.34
283.767	73.39
283.983	46.76
284.198	-4.44
284.413	44.71
284.628	-24.92
284.843	38.57
285.058	69.29
285.274	61.1
285.489	-14.68
285.704	52.91
285.919	34.47
286.134	95.91
286.349	34.47
286.564	50.86
286.779	20.14
286.995	-2.39
287.21	-26.96
287.425	22.19
287.64	13.99
287.855	69.29
288.07	-35.16
288.285	104.11
288.5	108.2
288.715	-22.87
288.93	-31.06
289.145	34.47
289.36	30.38
289.575	38.57
289.79	13.99
290.004	26.28
290.219	79.53
290.434	7.85
290.649	34.47
290.864	30.38
291.079	16.04
291.294	65.19
291.509	34.47
291.724	28.33
291.938	26.28
292.153	112.3
292.368	5.8
292.583	34.47
292.798	83.63
293.012	65.19
293.227	69.29
293.442	38.57
293.657	44.71
293.871	83.63
294.086	5.8
294.301	118.44
294.516	63.15
294.73	89.77
294.945	1.71
295.16	1.71
295.374	120.49
295.589	132.78
295.804	13.99
296.018	13.99
296.233	130.73
296.447	75.43
296.662	30.38
296.877	97.96
297.091	18.09
297.306	63.15
297.52	-26.96
297.735	69.29
297.949	9.9
298.164	112.3
298.378	28.33
298.593	69.29
298.807	83.63
299.022	30.38
299.236	100.01
299.451	91.82
299.665	-8.53
299.88	28.33
300.094	104.11
300.309	-4.44
300.523	13.99
300.737	89.77
300.952	79.53
301.166	91.82
301.381	-6.49
301.595	22.19
301.809	50.86
302.024	18.09
302.238	5.8
302.452	67.24
302.667	32.43
302.881	38.57
303.095	61.1
303.309	36.52
303.524	63.15
303.738	5.8
303.952	-29.01
304.166	69.29
304.381	-29.01
304.595	112.3
304.809	85.67
305.023	120.49
305.237	57
305.452	1.71
305.666	34.47
305.88	61.1
306.094	97.96
306.308	44.71
306.522	75.43
306.736	79.53
306.95	100.01
307.164	34.47
307.379	77.48
307.593	38.57
307.807	75.43
308.021	110.25
308.235	50.86
308.449	-37.2
308.663	69.29
308.877	87.72
309.091	63.15
309.305	63.15
309.519	22.19
309.733	83.63
309.947	20.14
310.161	63.15
310.374	97.96
310.588	120.49
310.802	20.14
311.016	52.91
311.23	61.1
311.444	54.95
311.658	30.38
311.872	89.77
312.085	52.91
312.299	93.87
312.513	61.1
312.727	91.82
312.941	13.99
313.154	-22.87
313.368	83.63
313.582	44.71
313.796	46.76
314.009	-2.39
314.223	120.49
314.437	67.24
314.651	-20.82
314.864	52.91
315.078	13.99
315.292	-29.01
315.505	28.33
315.719	50.86
315.933	54.95
316.146	-10.58
316.36	-53.59
316.573	38.57
316.787	-22.87
317.001	77.48
317.214	-26.96
317.428	5.8
317.641	34.47
317.855	67.24
318.068	122.54
318.282	-14.68
318.495	75.43
318.709	140.97
318.922	71.34
319.136	120.49
319.349	102.06
319.563	1.71
319.776	102.06
319.99	102.06
320.203	157.35
320.417	13.99
320.63	11.95
320.843	118.44
321.057	11.95
321.27	-0.34
321.483	69.29
321.697	89.77
321.91	69.29
322.124	20.14
322.337	63.15
322.55	40.62
322.763	59.05
322.977	13.99
323.19	22.19
323.403	20.14
323.617	91.82
323.83	34.47
324.043	22.19
324.256	54.95
324.469	-55.64
324.683	83.63
324.896	-18.77
325.109	67.24
325.322	13.99
325.535	7.85
325.748	77.48
325.962	26.28
326.175	30.38
326.388	104.11
326.601	102.06
326.814	18.09
327.027	91.82
327.24	169.64
327.453	61.1
327.666	114.34
327.879	87.72
328.092	71.34
328.305	77.48
328.518	75.43
328.731	3.75
328.944	46.76
329.157	91.82
329.37	16.04
329.583	36.52
329.796	75.43
330.009	13.99
330.222	9.9
330.435	100.01
330.648	44.71
330.861	38.57
331.073	54.95
331.286	26.28
331.499	118.44
331.712	22.19
331.925	-33.11
332.138	104.11
332.35	-29.01
332.563	44.71
332.776	71.34
332.989	38.57
333.202	-6.49
333.414	95.91
333.627	3.75
333.84	95.91
334.053	40.62
334.265	-39.25
334.478	-6.49
334.691	20.14
334.903	46.76
335.116	61.1
335.329	65.19
335.541	5.8
335.754	116.39
335.966	13.99
336.179	57
336.392	11.95
336.604	63.15
336.817	97.96
337.029	42.67
337.242	83.63
337.454	124.58
337.667	63.15
337.88	65.19
338.092	50.86
338.305	69.29
338.517	46.76
338.729	18.09
338.942	112.3
339.154	-20.82
339.367	28.33
339.579	140.97
339.792	69.29
340.004	77.48
340.217	46.76
340.429	102.06
340.641	3.75
340.854	9.9
341.066	77.48
341.278	114.34
341.491	67.24
341.703	85.67
341.915	3.75
342.128	16.04
342.34	46.76
342.552	-12.63
342.764	38.57
342.977	46.76
343.189	73.39
343.401	13.99
343.613	-14.68
343.826	1.71
344.038	-2.39
344.25	75.43
344.462	54.95
344.674	22.19
344.886	38.57
345.099	83.63
345.311	100.01
345.523	97.96
345.735	48.81
345.947	46.76
346.159	11.95
346.371	5.8
346.583	22.19
346.795	112.3
347.007	3.75
347.219	102.06
347.431	38.57
347.643	28.33
347.855	40.62
348.067	128.68
348.279	32.43
348.491	40.62
348.703	7.85
348.915	42.67
349.127	40.62
349.339	87.72
349.551	67.24
349.763	42.67
349.975	20.14
350.187	61.1
350.399	118.44
350.61	-12.63
350.822	30.38
351.034	7.85
351.246	16.04
351.458	85.67
351.669	20.14
351.881	5.8
352.093	73.39
352.305	71.34
352.517	71.34
352.728	95.91
352.94	30.38
353.152	71.34
353.363	1.71
353.575	83.63
353.787	136.87
353.999	69.29
354.21	28.33
354.422	-51.54
354.633	93.87
354.845	-24.92
355.057	3.75
355.268	108.2
355.48	81.58
355.692	3.75
355.903	112.3
356.115	20.14
356.326	46.76
356.538	112.3
356.749	28.33
356.961	114.34
357.172	67.24
357.384	-20.82
357.595	81.58
357.807	22.19
358.018	20.14
358.23	28.33
358.441	54.95
358.653	85.67
358.864	71.34
359.075	-6.49
359.287	-16.73
359.498	67.24
359.709	77.48
359.921	-18.77
360.132	-10.58
360.344	69.29
360.555	32.43
360.766	100.01
360.977	73.39
361.189	130.73
361.4	-2.39
361.611	95.91
361.823	59.05
362.034	-10.58
362.245	48.81
362.456	77.48
362.667	104.11
362.879	-6.49
363.09	38.57
363.301	79.53
363.512	95.91
363.723	-10.58
363.935	108.2
364.146	61.1
364.357	-18.77
364.568	106.15
364.779	54.95
364.99	140.97
365.201	-18.77
365.412	79.53
365.623	42.67
365.834	110.25
366.045	36.52
366.256	83.63
366.467	38.57
366.678	38.57
366.889	95.91
367.1	9.9
367.311	-4.44
367.522	36.52
367.733	87.72
367.944	1.71
368.155	140.97
368.366	48.81
368.577	54.95
368.788	71.34
368.999	11.95
369.209	38.57
369.42	175.78
369.631	110.25
369.842	75.43
370.053	110.25
370.264	132.78
370.474	38.57
370.685	42.67
370.896	30.38
371.107	112.3
371.317	97.96
371.528	5.8
371.739	110.25
371.95	91.82
372.16	71.34
372.371	16.04
372.582	134.82
372.792	71.34
373.003	118.44
373.214	63.15
373.424	97.96
373.635	44.71
373.846	69.29
374.056	63.15
374.267	22.19
374.477	26.28
374.688	63.15
374.898	42.67
375.109	54.95
375.319	79.53
375.53	85.67
375.74	83.63
375.951	38.57
376.161	120.49
376.372	61.1
376.582	-26.96
376.793	50.86
377.003	24.23
377.214	38.57
377.424	50.86
377.635	63.15
377.845	69.29
378.055	112.3
378.266	52.91
378.476	67.24
378.686	34.47
378.897	32.43
379.107	16.04
379.317	7.85
379.528	79.53
379.738	61.1
379.948	46.76
380.158	145.06
380.369	87.72
380.579	42.67
380.789	71.34
380.999	69.29
381.21	52.91
381.42	177.83
381.63	38.57
381.84	79.53
382.05	85.67
382.261	106.15
382.471	63.15
382.681	11.95
382.891	114.34
383.101	118.44
383.311	9.9
383.521	95.91
383.731	69.29
383.941	149.16
384.151	91.82
384.361	46.76
384.571	46.76
384.781	42.67
384.991	102.06
385.201	120.49
385.411	87.72
385.621	83.63
385.831	102.06
386.041	61.1
386.251	73.39
386.461	143.02
386.671	50.86
386.881	13.99
387.091	11.95
387.301	128.68
387.511	18.09
387.72	69.29
387.93	95.91
388.14	40.62
388.35	59.05
388.56	-22.87
388.769	13.99
388.979	52.91
389.189	1.71
389.399	73.39
389.609	106.15
389.818	11.95
390.028	34.47
390.238	110.25
390.447	85.67
390.657	73.39
390.867	54.95
391.076	28.33
391.286	61.1
391.496	95.91
391.705	50.86
391.915	89.77
392.125	71.34
392.334	79.53
392.544	100.01
392.753	87.72
392.963	20.14
393.172	50.86
393.382	-10.58
393.591	155.3
393.801	59.05
394.01	112.3
394.22	52.91
394.429	52.91
394.639	9.9
394.848	46.76
395.058	104.11
395.267	108.2
395.477	87.72
395.686	81.58
395.895	183.98
396.105	112.3
396.314	118.44
396.524	151.21
396.733	104.11
396.942	147.11
397.152	134.82
397.361	79.53
397.57	108.2
397.78	91.82
397.989	140.97
398.198	200.36
398.407	87.72
398.617	130.73
398.826	79.53
399.035	77.48
399.244	165.54
399.453	102.06
399.663	91.82
399.872	112.3
400.081	110.25
400.29	190.12
400.499	67.24
400.708	143.02
400.917	165.54
401.127	151.21
401.336	159.4
401.545	177.83
401.754	71.34
401.963	183.98
402.172	108.2
402.381	122.54
402.59	190.12
402.799	161.45
403.008	130.73
403.217	126.63
403.426	153.26
403.635	69.29
403.844	79.53
404.053	124.58
404.262	102.06
404.471	255.65
404.68	194.22
404.888	145.06
405.097	226.98
405.306	161.45
405.515	145.06
405.724	173.74
405.933	249.51
406.142	161.45
406.35	210.6
406.559	163.5
406.768	200.36
406.977	308.9
407.185	218.79
407.394	243.37
407.603	122.54
407.812	181.93
408.02	296.61
408.229	226.98
408.438	255.65
408.646	198.31
408.855	249.51
409.064	353.96
409.272	343.72
409.481	325.29
409.69	272.04
409.898	325.29
410.107	353.96
410.315	308.9
410.524	362.15
410.733	392.87
410.941	403.11
411.15	343.72
411.358	413.35
411.567	452.26
411.775	437.92
411.984	480.93
412.192	474.79
412.401	497.32
412.609	589.47
412.818	597.67
413.026	534.18
413.234	538.27
413.443	544.42
413.651	675.49
413.86	562.85
414.068	708.26
414.276	601.76
414.485	689.82
414.693	712.35
414.901	769.69
415.11	722.59
415.318	695.97
415.526	722.59
415.734	849.57
415.943	884.38
416.151	884.38
416.359	913.05
416.567	937.63
416.776	911
416.984	1037.98
417.192	1076.89
417.4	1046.17
417.608	1070.75
417.817	1107.61
418.025	1185.43
418.233	1283.74
418.441	1107.61
418.649	1236.63
418.857	1455.76
419.065	1445.52
419.273	1414.81
419.481	1476.24
419.689	1570.45
419.897	1609.36
420.105	1683.09
420.313	1820.3
420.521	1750.67
420.729	1922.7
420.937	1959.56
421.145	1930.89
421.353	2027.15
421.561	2133.64
421.769	2100.87
421.977	2303.62
422.185	2297.48
422.393	2352.77
422.601	2426.5
422.809	2385.54
423.017	2438.79
423.224	2657.92
423.432	2700.93
423.64	2635.39
423.848	3151.48
424.056	2780.8
424.263	3204.73
424.471	3149.43
424.679	3319.42
424.887	3319.42
425.094	3599.99
425.302	3509.88
425.51	3589.75
425.718	3761.78
425.925	3769.97
426.133	3843.7
426.341	4167.28
426.548	4339.3
426.756	4361.83
426.964	4216.43
427.171	4634.21
427.379	4675.17
427.586	4822.63
427.794	4886.11
428.001	5203.55
428.209	5396.06
428.417	5371.48
428.624	5832.27
428.832	5666.39
429.039	5580.37
429.247	5645.91
429.454	6198.86
429.662	6714.95
429.869	6127.18
430.076	6821.44
430.284	6440.52
430.491	6567.49
430.699	7116.35
430.906	7091.77
431.114	7153.21
431.321	7497.27
431.528	7630.39
431.736	8146.48
431.943	8443.43
432.15	8410.67
432.358	8255.02
432.565	8828.45
432.772	8828.45
432.979	9143.84
433.187	9387.55
433.394	9508.38
433.601	10188.3
433.808	10102.29
434.016	10096.14
434.223	10477.07
434.43	10980.87
434.637	10915.33
434.844	11392.51
435.052	11867.64
435.259	11597.31
435.466	12060.15
435.673	11773.43
435.88	12277.23
436.087	13151.71
436.294	13043.17
436.501	12785.13
436.708	13037.03
436.915	13616.6
437.122	14097.88
437.329	14011.86
437.537	14798.28
437.743	14785.99
437.95	15037.89
438.157	15386.05
438.364	16092.6
438.571	15676.86
438.778	16129.46
438.985	17345.95
439.192	16706.99
439.399	17302.95
439.606	16856.49
439.813	17825.18
440.02	18951.56
440.227	18541.97
440.433	18531.73
440.64	19090.82
440.847	18978.19
441.054	19262.85
441.261	20800.88
441.467	20632.94
441.674	20979.05
441.881	21595.49
442.088	21620.06
442.294	21189.99
442.501	21945.69
442.708	22594.9
442.914	23457.09
443.121	24159.55
443.328	23958.85
443.534	25273.64
443.741	24630.58
443.948	24192.31
444.154	26152.22
444.361	25845.02
444.568	26158.36
444.774	26277.15
444.981	26469.65
445.187	27342.09
445.394	28173.56
445.6	28241.15
445.807	30868.69
446.013	29349.1
446.22	29568.23
446.426	31112.4
446.633	31278.29
446.839	32210.11
447.046	30817.49
447.252	32570.55
447.459	32853.17
447.665	32763.06
447.871	33846.44
448.078	35359.89
448.284	33572.01
448.491	34426.01
448.697	35964.04
448.903	36717.69
449.11	36791.42
449.316	36156.55
449.522	36668.54
449.728	37559.41
449.935	37815.4
450.141	37786.73
450.347	38689.88
450.553	37487.73
450.76	37989.48
450.966	39083.09
451.172	38886.49
451.378	39846.99
451.584	38839.39
451.791	39439.44
451.997	39617.61
452.203	40356.93
452.409	40201.29
452.615	39752.78
452.821	39017.56
453.027	37885.03
453.233	40184.9
453.44	38253.67
453.646	38837.34
453.852	38909.02
454.058	39640.14
454.264	38493.28
454.47	39062.61
454.676	38124.64
454.882	39582.8
455.088	35896.45
455.294	36682.87
455.5	36707.45
455.705	37223.54
455.911	35521.68
456.117	34593.95
456.323	34526.36
456.529	33023.15
456.735	34010.28
456.941	33375.41
457.147	32388.28
457.352	31689.93
457.558	31407.31
457.764	31294.67
457.97	30651.61
458.176	29953.25
458.381	30381.28
458.587	28751.09
458.793	28439.8
458.999	26449.18
459.204	29238.51
459.41	28103.93
459.616	26289.43
459.821	26318.11
460.027	26008.86
460.233	25769.25
460.438	24704.31
460.644	24888.62
460.85	23117.13
461.055	23086.41
461.261	22865.23
461.466	21341.54
461.672	20755.82
461.878	22381.91
462.083	20610.42
462.289	20393.33
462.494	19963.26
462.7	19322.24
462.905	18969.99
463.111	19660.16
463.316	19557.76
463.522	19000.71
463.727	19123.59
463.932	19072.39
464.138	18791.82
464.343	18986.38
464.549	18271.64
464.754	19234.18
464.959	18652.56
465.165	18638.22
465.37	17819.03
465.575	17311.14
465.781	18277.78
465.986	18318.74
466.191	17501.6
466.397	17423.78
466.602	16326.07
466.807	16983.46
467.012	17089.96
467.218	16911.78
