Data from USB4F104151__11__11-29-43-917.txt Node

Date: Fri Mar 14 11:29:43 EDT 2025
User: louis
Spectrometer: USB4F10415
Trigger mode: 4
Integration Time (sec): 5.000000E-2
Scans to average: 1
Electric dark correction enabled: true
Nonlinearity correction enabled: false
Boxcar width: 0
XAxis mode: Wavelengths
Number of Pixels in Spectrum: 3648
>>>>>Begin Spectral Data<<<<<
178.204	-164.18
178.424	-164.18
178.644	-164.18
178.864	-168.27
179.084	-155.99
179.304	-16.73
179.524	-20.82
179.744	-69.97
179.964	48.81
180.184	32.43
180.404	-8.53
180.624	-29.01
180.844	-0.34
181.064	-57.68
181.283	89.77
181.503	-12.63
181.723	44.71
181.943	-92.5
182.163	11.95
182.383	-86.36
182.602	9.9
182.822	13.99
183.042	28.33
183.262	5.8
183.482	-18.77
183.701	-18.77
183.921	-24.92
184.141	20.14
184.361	54.95
184.58	-35.16
184.8	-6.49
185.02	-45.4
185.239	79.53
185.459	-24.92
185.679	28.33
185.898	-29.01
186.118	44.71
186.338	24.23
186.557	40.62
186.777	40.62
186.997	-33.11
187.216	-0.34
187.436	54.95
187.655	1.71
187.875	77.48
188.095	-22.87
188.314	34.47
188.534	20.14
188.753	-24.92
188.973	57
189.192	65.19
189.412	-0.34
189.631	16.04
189.851	42.67
190.07	50.86
190.29	38.57
190.509	-16.73
190.729	-20.82
190.948	48.81
191.168	177.83
191.387	-45.4
191.607	-12.63
191.826	54.95
192.045	-22.87
192.265	16.04
192.484	22.19
192.704	54.95
192.923	-47.44
193.142	120.49
193.362	5.8
193.581	63.15
193.8	46.76
194.02	46.76
194.239	48.81
194.458	13.99
194.678	-45.4
194.897	77.48
195.116	-8.53
195.335	38.57
195.555	52.91
195.774	34.47
195.993	-29.01
196.212	50.86
196.432	-20.82
196.651	-0.34
196.87	-35.16
197.089	104.11
197.308	26.28
197.528	-2.39
197.747	-12.63
197.966	-43.35
198.185	11.95
198.404	-6.49
198.623	7.85
198.842	44.71
199.062	42.67
199.281	46.76
199.5	-51.54
199.719	89.77
199.938	81.58
200.157	-14.68
200.376	79.53
200.595	36.52
200.814	-49.49
201.033	3.75
201.252	46.76
201.471	-0.34
201.69	102.06
201.909	48.81
202.128	38.57
202.347	-35.16
202.566	38.57
202.785	-22.87
203.004	7.85
203.223	61.1
203.442	-2.39
203.661	24.23
203.879	71.34
204.098	57
204.317	28.33
204.536	30.38
204.755	22.19
204.974	-2.39
205.193	38.57
205.411	87.72
205.63	13.99
205.849	5.8
206.068	50.86
206.287	-57.68
206.505	-12.63
206.724	11.95
206.943	-82.26
207.162	73.39
207.381	54.95
207.599	-39.25
207.818	61.1
208.037	5.8
208.255	-45.4
208.474	71.34
208.693	-10.58
208.911	-39.25
209.13	-69.97
209.349	16.04
209.567	7.85
209.786	28.33
210.005	24.23
210.223	-0.34
210.442	-76.12
210.661	-2.39
210.879	-20.82
211.098	-22.87
211.316	57
211.535	81.58
211.753	-24.92
211.972	36.52
212.191	-16.73
212.409	-4.44
212.628	24.23
212.846	40.62
213.065	59.05
213.283	138.92
213.502	-18.77
213.72	-18.77
213.938	20.14
214.157	24.23
214.375	104.11
214.594	-29.01
214.812	104.11
215.031	9.9
215.249	-12.63
215.467	32.43
215.686	36.52
215.904	71.34
216.122	3.75
216.341	32.43
216.559	38.57
216.778	-10.58
216.996	7.85
217.214	-33.11
217.432	-12.63
217.651	20.14
217.869	-39.25
218.087	-0.34
218.306	89.77
218.524	50.86
218.742	-4.44
218.96	28.33
219.179	7.85
219.397	9.9
219.615	-16.73
219.833	24.23
220.051	-24.92
220.27	18.09
220.488	16.04
220.706	57
220.924	28.33
221.142	24.23
221.36	28.33
221.578	20.14
221.796	28.33
222.015	-4.44
222.233	1.71
222.451	-12.63
222.669	-29.01
222.887	32.43
223.105	85.67
223.323	40.62
223.541	-57.68
223.759	63.15
223.977	65.19
224.195	32.43
224.413	61.1
224.631	-51.54
224.849	1.71
225.067	100.01
225.285	48.81
225.503	5.8
225.721	-78.16
225.939	13.99
226.157	85.67
226.375	89.77
226.592	-8.53
226.81	-49.49
227.028	7.85
227.246	48.81
227.464	7.85
227.682	-65.88
227.9	7.85
228.117	36.52
228.335	57
228.553	16.04
228.771	-84.31
228.989	-4.44
229.206	5.8
229.424	-16.73
229.642	16.04
229.86	-8.53
230.077	22.19
230.295	-41.3
230.513	61.1
230.731	24.23
230.948	122.54
231.166	108.2
231.384	-51.54
231.601	22.19
231.819	77.48
232.037	-33.11
232.254	36.52
232.472	32.43
232.689	-123.22
232.907	24.23
233.125	54.95
233.342	-37.2
233.56	-35.16
233.777	-2.39
233.995	9.9
234.213	52.91
234.43	87.72
234.648	-59.73
234.865	28.33
235.083	87.72
235.3	-41.3
235.518	-74.07
235.735	57
235.953	-26.96
236.17	7.85
236.388	-8.53
236.605	-0.34
236.822	28.33
237.04	75.43
237.257	32.43
237.475	3.75
237.692	9.9
237.909	22.19
238.127	3.75
238.344	18.09
238.562	34.47
238.779	-10.58
238.996	-37.2
239.214	48.81
239.431	40.62
239.648	-45.4
239.865	32.43
240.083	-20.82
240.3	26.28
240.517	18.09
240.735	-41.3
240.952	63.15
241.169	16.04
241.386	-0.34
241.603	-0.34
241.821	3.75
242.038	-78.16
242.255	30.38
242.472	1.71
242.689	42.67
242.907	112.3
243.124	-78.16
243.341	89.77
243.558	-57.68
243.775	-20.82
243.992	-61.78
244.209	22.19
244.426	97.96
244.643	32.43
244.86	-24.92
245.078	-37.2
245.295	-2.39
245.512	-2.39
245.729	13.99
245.946	40.62
246.163	16.04
246.38	1.71
246.597	48.81
246.814	22.19
247.031	-10.58
247.248	32.43
247.464	-61.78
247.681	18.09
247.898	-82.26
248.115	46.76
248.332	-24.92
248.549	20.14
248.766	63.15
248.983	24.23
249.2	9.9
249.417	28.33
249.633	-86.36
249.85	50.86
250.067	-63.83
250.284	-8.53
250.501	-18.77
250.717	44.71
250.934	-53.59
251.151	-14.68
251.368	44.71
251.585	20.14
251.801	16.04
252.018	-45.4
252.235	-8.53
252.451	40.62
252.668	-18.77
252.885	32.43
253.102	65.19
253.318	16.04
253.535	-20.82
253.752	-2.39
253.968	-35.16
254.185	-24.92
254.401	-94.55
254.618	54.95
254.835	-16.73
255.051	20.14
255.268	38.57
255.484	-16.73
255.701	40.62
255.917	59.05
256.134	-16.73
256.351	-33.11
256.567	-4.44
256.784	-78.16
257	-108.88
257.217	108.2
257.433	30.38
257.65	-43.35
257.866	-35.16
258.082	-61.78
258.299	-8.53
258.515	81.58
258.732	-20.82
258.948	-0.34
259.165	40.62
259.381	-18.77
259.597	-4.44
259.814	3.75
260.03	28.33
260.246	42.67
260.463	79.53
260.679	54.95
260.895	28.33
261.112	85.67
261.328	-18.77
261.544	-39.25
261.761	69.29
261.977	46.76
262.193	11.95
262.409	93.87
262.626	26.28
262.842	-26.96
263.058	11.95
263.274	3.75
263.49	-8.53
263.707	65.19
263.923	-10.58
264.139	-16.73
264.355	30.38
264.571	-4.44
264.787	-4.44
265.004	-78.16
265.22	24.23
265.436	-10.58
265.652	16.04
265.868	65.19
266.084	-22.87
266.3	-43.35
266.516	-18.77
266.732	16.04
266.948	40.62
267.164	24.23
267.38	-59.73
267.596	-8.53
267.812	59.05
268.028	16.04
268.244	93.87
268.46	-16.73
268.676	3.75
268.892	42.67
269.108	20.14
269.324	3.75
269.54	-8.53
269.756	65.19
269.972	-20.82
270.188	-37.2
270.403	26.28
270.619	69.29
270.835	81.58
271.051	-26.96
271.267	-76.12
271.483	34.47
271.698	54.95
271.914	-14.68
272.13	57
272.346	-4.44
272.562	5.8
272.777	110.25
272.993	40.62
273.209	-49.49
273.425	24.23
273.64	-41.3
273.856	-24.92
274.072	18.09
274.287	-20.82
274.503	9.9
274.719	-43.35
274.934	7.85
275.15	-61.78
275.366	-26.96
275.581	-0.34
275.797	114.34
276.012	46.76
276.228	-12.63
276.444	32.43
276.659	65.19
276.875	-41.3
277.09	24.23
277.306	52.91
277.521	36.52
277.737	-0.34
277.952	18.09
278.168	-20.82
278.383	7.85
278.599	67.24
278.814	95.91
279.03	22.19
279.245	13.99
279.461	24.23
279.676	20.14
279.892	81.58
280.107	16.04
280.322	-10.58
280.538	75.43
280.753	-69.97
280.969	-14.68
281.184	32.43
281.399	97.96
281.615	1.71
281.83	11.95
282.045	-31.06
282.26	40.62
282.476	-67.92
282.691	5.8
282.906	-31.06
283.122	26.28
283.337	11.95
283.552	32.43
283.767	-37.2
283.983	63.15
284.198	-16.73
284.413	63.15
284.628	-127.32
284.843	63.15
285.058	85.67
285.274	-0.34
285.489	-29.01
285.704	20.14
285.919	-16.73
286.134	-10.58
286.349	-37.2
286.564	3.75
286.779	-26.96
286.995	9.9
287.21	-80.21
287.425	28.33
287.64	-29.01
287.855	52.91
288.07	36.52
288.285	22.19
288.5	44.71
288.715	-22.87
288.93	-49.49
289.145	7.85
289.36	1.71
289.575	32.43
289.79	24.23
290.004	36.52
290.219	36.52
290.434	-10.58
290.649	-4.44
290.864	18.09
291.079	50.86
291.294	-65.88
291.509	48.81
291.724	-2.39
291.938	22.19
292.153	22.19
292.368	-16.73
292.583	50.86
292.798	7.85
293.012	13.99
293.227	-69.97
293.442	-12.63
293.657	36.52
293.871	61.1
294.086	-35.16
294.301	16.04
294.516	50.86
294.73	1.71
294.945	-8.53
295.16	22.19
295.374	9.9
295.589	11.95
295.804	118.44
296.018	42.67
296.233	40.62
296.447	-16.73
296.662	28.33
296.877	93.87
297.091	38.57
297.306	5.8
297.52	-14.68
297.735	-24.92
297.949	-16.73
298.164	73.39
298.378	11.95
298.593	22.19
298.807	-35.16
299.022	57
299.236	48.81
299.451	65.19
299.665	-2.39
299.88	-0.34
300.094	-16.73
300.309	13.99
300.523	38.57
300.737	-12.63
300.952	122.54
301.166	69.29
301.381	-35.16
301.595	28.33
301.809	7.85
302.024	3.75
302.238	-59.73
302.452	44.71
302.667	-72.02
302.881	48.81
303.095	-20.82
303.309	24.23
303.524	36.52
303.738	44.71
303.952	50.86
304.166	16.04
304.381	-10.58
304.595	145.06
304.809	3.75
305.023	28.33
305.237	1.71
305.452	-76.12
305.666	30.38
305.88	69.29
306.094	-41.3
306.308	-10.58
306.522	36.52
306.736	-8.53
306.95	57
307.164	-14.68
307.379	-76.12
307.593	73.39
307.807	-0.34
308.021	57
308.235	40.62
308.449	-61.78
308.663	57
308.877	11.95
309.091	102.06
309.305	69.29
309.519	-100.69
309.733	44.71
309.947	-16.73
310.161	89.77
310.374	-4.44
310.588	28.33
310.802	-43.35
311.016	-20.82
311.23	54.95
311.444	13.99
311.658	46.76
311.872	32.43
312.085	16.04
312.299	89.77
312.513	13.99
312.727	38.57
312.941	-41.3
313.154	65.19
313.368	18.09
313.582	52.91
313.796	44.71
314.009	38.57
314.223	22.19
314.437	16.04
314.651	-61.78
314.864	59.05
315.078	61.1
315.292	40.62
315.505	3.75
315.719	20.14
315.933	3.75
316.146	-45.4
316.36	-49.49
316.573	28.33
316.787	-80.21
317.001	52.91
317.214	3.75
317.428	91.82
317.641	-51.54
317.855	50.86
318.068	-12.63
318.282	28.33
318.495	118.44
318.709	46.76
318.922	16.04
319.136	57
319.349	138.92
319.563	-49.49
319.776	7.85
319.99	-29.01
320.203	13.99
320.417	-24.92
320.63	30.38
320.843	-26.96
321.057	-10.58
321.27	136.87
321.483	81.58
321.697	7.85
321.91	24.23
322.124	5.8
322.337	42.67
322.55	13.99
322.763	-12.63
322.977	48.81
323.19	48.81
323.403	-53.59
323.617	36.52
323.83	52.91
324.043	-65.88
324.256	40.62
324.469	-26.96
324.683	54.95
324.896	7.85
325.109	87.72
325.322	-86.36
325.535	65.19
325.748	7.85
325.962	7.85
326.175	1.71
326.388	-8.53
326.601	63.15
326.814	97.96
327.027	-8.53
327.24	71.34
327.453	46.76
327.666	24.23
327.879	38.57
328.092	24.23
328.305	36.52
328.518	40.62
328.731	18.09
328.944	3.75
329.157	30.38
329.37	-18.77
329.583	38.57
329.796	13.99
330.009	-35.16
330.222	11.95
330.435	36.52
330.648	30.38
330.861	9.9
331.073	48.81
331.286	-20.82
331.499	-41.3
331.712	16.04
331.925	50.86
332.138	-12.63
332.35	48.81
332.563	13.99
332.776	-24.92
332.989	-18.77
333.202	13.99
333.414	16.04
333.627	-24.92
333.84	-8.53
334.053	-0.34
334.265	3.75
334.478	-20.82
334.691	7.85
334.903	38.57
335.116	-76.12
335.329	-49.49
335.541	28.33
335.754	-0.34
335.966	16.04
336.179	-0.34
336.392	46.76
336.604	16.04
336.817	40.62
337.029	57
337.242	32.43
337.454	7.85
337.667	57
337.88	28.33
338.092	26.28
338.305	46.76
338.517	-22.87
338.729	-10.58
338.942	71.34
339.154	30.38
339.367	-29.01
339.579	-8.53
339.792	-16.73
340.004	30.38
340.217	-29.01
340.429	32.43
340.641	38.57
340.854	13.99
341.066	-43.35
341.278	63.15
341.491	122.54
341.703	102.06
341.915	-20.82
342.128	67.24
342.34	11.95
342.552	40.62
342.764	9.9
342.977	28.33
343.189	24.23
343.401	-78.16
343.613	-18.77
343.826	32.43
344.038	-4.44
344.25	-37.2
344.462	13.99
344.674	16.04
344.886	63.15
345.099	65.19
345.311	69.29
345.523	-0.34
345.735	-20.82
345.947	26.28
346.159	22.19
346.371	30.38
346.583	-18.77
346.795	79.53
347.007	-49.49
347.219	26.28
347.431	61.1
347.643	83.63
347.855	-31.06
348.067	48.81
348.279	-33.11
348.491	-26.96
348.703	16.04
348.915	-16.73
349.127	46.76
349.339	13.99
349.551	38.57
349.763	79.53
349.975	32.43
350.187	-6.49
350.399	89.77
350.61	-37.2
350.822	-49.49
351.034	20.14
351.246	7.85
351.458	71.34
351.669	81.58
351.881	52.91
352.093	-10.58
352.305	130.73
352.517	32.43
352.728	-6.49
352.94	-14.68
353.152	85.67
353.363	-10.58
353.575	65.19
353.787	40.62
353.999	30.38
354.21	87.72
354.422	-24.92
354.633	134.82
354.845	22.19
355.057	-33.11
355.268	32.43
355.48	28.33
355.692	34.47
355.903	38.57
356.115	-51.54
356.326	-57.68
356.538	24.23
356.749	34.47
356.961	118.44
357.172	-12.63
357.384	-8.53
357.595	122.54
357.807	44.71
358.018	-57.68
358.23	95.91
358.441	59.05
358.653	120.49
358.864	18.09
359.075	9.9
359.287	32.43
359.498	120.49
359.709	-2.39
359.921	24.23
360.132	-4.44
360.344	67.24
360.555	-4.44
360.766	128.68
360.977	57
361.189	-24.92
361.4	-82.26
361.611	44.71
361.823	42.67
362.034	65.19
362.245	-18.77
362.456	48.81
362.667	-18.77
362.879	-49.49
363.09	3.75
363.301	67.24
363.512	30.38
363.723	-0.34
363.935	24.23
364.146	7.85
364.357	22.19
364.568	11.95
364.779	24.23
364.99	73.39
365.201	22.19
365.412	122.54
365.623	7.85
365.834	48.81
366.045	65.19
366.256	-12.63
366.467	65.19
366.678	13.99
366.889	77.48
367.1	-22.87
367.311	-49.49
367.522	-33.11
367.733	85.67
367.944	40.62
368.155	-12.63
368.366	69.29
368.577	1.71
368.788	48.81
368.999	-33.11
369.209	3.75
369.42	61.1
369.631	106.15
369.842	-0.34
370.053	61.1
370.264	65.19
370.474	-6.49
370.685	30.38
370.896	-2.39
371.107	97.96
371.317	57
371.528	24.23
371.739	-0.34
371.95	22.19
372.16	20.14
372.371	-33.11
372.582	52.91
372.792	48.81
373.003	67.24
373.214	-4.44
373.424	118.44
373.635	11.95
373.846	9.9
374.056	24.23
374.267	61.1
374.477	38.57
374.688	-8.53
374.898	46.76
375.109	-41.3
375.319	36.52
375.53	147.11
375.74	85.67
375.951	-20.82
376.161	20.14
376.372	40.62
376.582	7.85
376.793	1.71
377.003	-74.07
377.214	32.43
377.424	34.47
377.635	44.71
377.845	32.43
378.055	104.11
378.266	9.9
378.476	97.96
378.686	-0.34
378.897	81.58
379.107	48.81
379.317	18.09
379.528	-57.68
379.738	108.2
379.948	-61.78
380.158	38.57
380.369	95.91
380.579	40.62
380.789	24.23
380.999	83.63
381.21	73.39
381.42	50.86
381.63	5.8
381.84	-16.73
382.05	32.43
382.261	61.1
382.471	63.15
382.681	-16.73
382.891	5.8
383.101	34.47
383.311	-37.2
383.521	40.62
383.731	95.91
383.941	63.15
384.151	108.2
384.361	52.91
384.571	40.62
384.781	46.76
384.991	36.52
385.201	81.58
385.411	13.99
385.621	-8.53
385.831	65.19
386.041	52.91
386.251	-22.87
386.461	44.71
386.671	-41.3
386.881	57
387.091	63.15
387.301	32.43
387.511	28.33
387.72	79.53
387.93	20.14
388.14	63.15
388.35	22.19
388.56	77.48
388.769	-0.34
388.979	57
389.189	40.62
389.399	16.04
389.609	73.39
389.818	71.34
390.028	57
390.238	83.63
390.447	-37.2
390.657	73.39
390.867	36.52
391.076	7.85
391.286	50.86
391.496	79.53
391.705	38.57
391.915	48.81
392.125	89.77
392.334	57
392.544	61.1
392.753	57
392.963	-24.92
393.172	-24.92
393.382	112.3
393.591	128.68
393.801	7.85
394.01	95.91
394.22	73.39
394.429	32.43
394.639	13.99
394.848	28.33
395.058	1.71
395.267	71.34
395.477	71.34
395.686	71.34
395.895	89.77
396.105	89.77
396.314	28.33
396.524	95.91
396.733	16.04
396.942	97.96
397.152	52.91
397.361	63.15
397.57	83.63
397.78	71.34
397.989	52.91
398.198	122.54
398.407	54.95
398.617	87.72
398.826	106.15
399.035	32.43
399.244	71.34
399.453	143.02
399.663	93.87
399.872	54.95
400.081	87.72
400.29	175.78
400.499	95.91
400.708	132.78
400.917	132.78
401.127	67.24
401.336	171.69
401.545	147.11
401.754	173.74
401.963	155.3
402.172	157.35
402.381	91.82
402.59	91.82
402.799	104.11
403.008	102.06
403.217	32.43
403.426	124.58
403.635	188.07
403.844	114.34
404.053	126.63
404.262	124.58
404.471	224.94
404.68	143.02
404.888	87.72
405.097	122.54
405.306	128.68
405.515	163.5
405.724	134.82
405.933	179.88
406.142	104.11
406.35	188.07
406.559	224.94
406.768	218.79
406.977	245.41
407.185	216.74
407.394	278.18
407.603	114.34
407.812	282.28
408.02	292.52
408.229	233.13
408.438	216.74
408.646	177.83
408.855	302.76
409.064	274.09
409.272	288.42
409.481	296.61
409.69	292.52
409.898	231.08
410.107	265.89
410.315	331.43
410.524	376.48
410.733	335.53
410.941	392.87
411.15	442.02
411.358	368.29
411.567	482.98
411.775	335.53
411.984	374.44
412.192	442.02
412.401	390.82
412.609	470.69
412.818	515.75
413.026	564.9
413.234	616.1
413.443	454.31
413.651	554.66
413.86	620.19
414.068	648.86
414.276	614.05
414.485	657.06
414.693	710.3
414.901	769.69
415.11	687.78
415.318	728.74
415.526	700.06
415.734	761.5
415.943	831.13
416.151	880.29
416.359	872.09
416.567	949.92
416.776	1015.45
416.984	999.07
417.192	1048.22
417.4	1064.6
417.608	1126.04
417.817	1138.33
418.025	1210.01
418.233	1232.54
418.441	1234.58
418.649	1375.89
418.857	1410.71
419.065	1496.72
419.273	1359.51
419.481	1506.96
419.689	1531.54
419.897	1502.87
420.105	1625.75
420.313	1646.23
420.521	1791.63
420.729	1896.08
420.937	1744.53
421.145	1830.54
421.353	1932.94
421.561	2119.31
421.769	2070.16
421.977	2291.34
422.185	2158.22
422.393	2315.91
422.601	2518.66
422.809	2528.9
423.017	2346.63
423.224	2588.29
423.432	2719.36
423.64	2743.94
423.848	2940.54
424.056	2834.05
424.263	3098.24
424.471	3065.47
424.679	3202.68
424.887	3346.04
425.094	3384.95
425.302	3358.33
425.51	3636.85
425.718	3602.04
425.925	3837.55
426.133	4030.06
426.341	4148.84
426.548	4322.92
426.756	4357.74
426.964	4343.4
427.171	4576.87
427.379	4748.9
427.586	4812.39
427.794	4943.46
428.001	5162.59
428.209	5389.91
428.417	5293.66
428.624	5756.5
428.832	5910.1
429.039	5717.59
429.247	5703.25
429.454	6311.5
429.662	6678.08
429.869	6245.96
430.076	6659.65
430.284	6641.22
430.491	6725.19
430.699	7147.07
430.906	7255.61
431.114	7261.76
431.321	7519.8
431.528	7740.98
431.736	8085.04
431.943	8543.78
432.15	8287.79
432.358	8314.41
432.565	8975.91
432.772	8797.73
432.979	9221.66
433.187	9598.49
433.394	9475.61
433.601	10141.2
433.808	10055.19
434.016	10124.82
434.223	10432.01
434.43	11048.45
434.637	11140.61
434.844	11574.78
435.052	11894.26
435.259	11658.74
435.466	12066.29
435.673	11847.16
435.88	12643.82
436.087	13282.78
436.294	13039.08
436.501	12762.6
436.708	13071.84
436.915	13706.71
437.122	14288.34
437.329	14204.37
437.537	14794.18
437.743	14816.71
437.95	14671.31
438.157	15519.17
438.364	15922.62
438.571	15900.09
438.778	16047.54
438.985	17714.59
439.192	17186.21
439.399	17477.02
439.606	17268.13
439.813	18367.89
440.02	19230.09
440.227	19025.29
440.433	18929.03
440.64	19318.15
440.847	19428.74
441.054	19740.03
441.261	20917.61
441.467	20770.16
441.674	20929.9
441.881	21912.92
442.088	21679.46
442.294	21644.64
442.501	21996.89
442.708	22934.86
442.914	23467.33
443.121	24403.25
443.328	23876.93
443.534	25572.64
443.741	24954.16
443.948	24550.71
444.154	26387.74
444.361	26223.9
444.568	26449.18
444.774	26121.5
444.981	26776.85
445.187	27532.55
445.394	28546.3
445.6	28478.71
445.807	31349.96
446.013	29938.91
446.22	30225.63
446.426	31560.91
446.633	31732.93
446.839	32990.39
447.046	31306.96
447.252	33109.17
447.459	33301.68
447.665	33277.1
447.871	34583.71
448.078	35779.72
448.284	34317.47
448.491	35239.06
448.697	36433.02
448.903	36963.45
449.11	37213.3
449.316	36451.45
449.522	37223.54
449.728	38325.35
449.935	38519.9
450.141	38407.26
450.347	39285.84
450.553	38020.2
450.76	38624.35
450.966	39760.97
451.172	39765.07
451.378	40270.92
451.584	39662.67
451.791	40612.93
451.997	40424.51
452.203	40539.2
452.409	40629.31
452.615	40606.78
452.821	39619.66
453.027	38761.56
453.233	40502.34
453.44	38949.98
453.646	39285.84
453.852	39920.71
454.058	39996.49
454.264	38859.87
454.47	39724.11
454.676	38794.33
454.882	40113.22
455.088	36744.31
455.294	36902.01
455.5	37852.27
455.705	38169.7
455.911	36678.78
456.117	35693.71
456.323	35361.94
456.529	33055.92
456.735	34708.63
456.941	33670.31
457.147	33203.38
457.352	32376
457.558	31696.07
457.764	32173.25
457.97	31407.31
458.176	30237.92
458.381	30405.85
458.587	28773.62
458.793	28820.72
458.999	27862.27
459.204	29381.87
459.41	28583.16
459.616	26817.81
459.821	26520.85
460.027	26696.98
460.233	26084.64
460.438	24689.97
460.644	25343.27
460.85	23995.71
461.055	23645.51
461.261	23725.38
461.466	21929.31
461.672	20915.56
461.878	22715.73
462.083	21321.06
462.289	20612.46
462.494	20551.03
462.7	19834.24
462.905	19275.14
463.111	19520.9
463.316	19570.05
463.522	19352.96
463.727	19459.46
463.932	19340.68
464.138	19074.44
464.343	19551.62
464.549	18890.12
464.754	19430.79
464.959	19490.18
465.165	19264.9
465.37	18417.04
465.575	17847.71
465.781	18269.59
465.986	18468.24
466.191	17984.92
466.397	17526.18
466.602	16610.73
