Data from USB4F104151__69__11-31-05-458.txt Node

Date: Fri Mar 14 11:31:05 EDT 2025
User: louis
Spectrometer: USB4F10415
Trigger mode: 4
Integration Time (sec): 5.000000E-2
Scans to average: 1
Electric dark correction enabled: true
Nonlinearity correction enabled: false
Boxcar width: 0
XAxis mode: Wavelengths
Number of Pixels in Spectrum: 3648
>>>>>Begin Spectral Data<<<<<
178.204	-131.75
178.424	-131.75
178.644	-131.75
178.864	-182.95
179.084	-127.66
179.304	56.66
179.524	-25.26
179.744	-35.5
179.964	-47.79
180.184	54.61
180.404	34.13
180.624	-62.12
180.844	11.61
181.064	25.94
181.283	7.51
181.503	-47.79
181.723	27.99
181.943	-86.7
182.163	109.91
182.383	9.56
182.602	58.71
182.822	-4.78
183.042	11.61
183.262	-41.64
183.482	38.23
183.701	11.61
183.921	48.47
184.141	-55.98
184.361	56.66
184.58	60.76
184.8	48.47
185.02	3.41
185.239	56.66
185.459	19.8
185.679	32.08
185.898	-62.12
186.118	130.39
186.338	27.99
186.557	19.8
186.777	-47.79
186.997	-0.68
187.216	21.84
187.436	-12.97
187.655	44.37
187.875	42.32
188.095	7.51
188.314	52.56
188.534	23.89
188.753	27.99
188.973	19.8
189.192	36.18
189.412	64.85
189.631	11.61
189.851	19.8
190.07	11.61
190.29	-86.7
190.509	15.7
190.729	-10.92
190.948	3.41
191.168	132.44
191.387	-4.78
191.607	7.51
191.826	-21.16
192.045	17.75
192.265	3.41
192.484	27.99
192.704	19.8
192.923	-53.93
193.142	71
193.362	73.04
193.581	93.52
193.8	36.18
194.02	134.48
194.239	34.13
194.458	-12.97
194.678	15.7
194.897	-8.87
195.116	-12.97
195.335	-21.16
195.555	23.89
195.774	-4.78
195.993	30.04
196.212	11.61
196.432	44.37
196.651	-17.07
196.87	40.28
197.089	77.14
197.308	73.04
197.528	73.04
197.747	-78.51
197.966	-19.11
198.185	19.8
198.404	7.51
198.623	17.75
198.842	3.41
199.062	93.52
199.281	83.28
199.5	-6.83
199.719	9.56
199.938	126.29
200.157	60.76
200.376	34.13
200.595	36.18
200.814	-55.98
201.033	-4.78
201.252	23.89
201.471	9.56
201.69	40.28
201.909	-62.12
202.128	97.62
202.347	140.63
202.566	-43.69
202.785	19.8
203.004	-45.74
203.223	87.38
203.442	-31.4
203.661	-12.97
203.879	-4.78
204.098	56.66
204.317	-66.22
204.536	48.47
204.755	7.51
204.974	52.56
205.193	19.8
205.411	64.85
205.63	66.9
205.849	-4.78
206.068	60.76
206.287	-15.02
206.505	34.13
206.724	89.43
206.943	-0.68
207.162	19.8
207.381	30.04
207.599	-17.07
207.818	68.95
208.037	56.66
208.255	5.46
208.474	11.61
208.693	107.86
208.911	48.47
209.13	60.76
209.349	-25.26
209.567	23.89
209.786	85.33
210.005	48.47
210.223	44.37
210.442	-49.83
210.661	68.95
210.879	-21.16
211.098	-10.92
211.316	11.61
211.535	46.42
211.753	19.8
211.972	25.94
212.191	66.9
212.409	9.56
212.628	-55.98
212.846	-49.83
213.065	-19.11
213.283	48.47
213.502	-62.12
213.72	42.32
213.938	9.56
214.157	32.08
214.375	40.28
214.594	52.56
214.812	27.99
215.031	19.8
215.249	-25.26
215.467	36.18
215.686	15.7
215.904	77.14
216.122	13.65
216.341	32.08
216.559	25.94
216.778	73.04
216.996	11.61
217.214	-6.83
217.432	-62.12
217.651	-37.55
217.869	-72.36
218.087	25.94
218.306	36.18
218.524	25.94
218.742	42.32
218.96	58.71
219.179	89.43
219.397	36.18
219.615	52.56
219.833	42.32
220.051	11.61
220.27	19.8
220.488	52.56
220.706	21.84
220.924	50.52
221.142	-39.59
221.36	-4.78
221.578	-31.4
221.796	-33.45
222.015	17.75
222.233	42.32
222.451	85.33
222.669	-8.87
222.887	77.14
223.105	-25.26
223.323	-4.78
223.541	-17.07
223.759	64.85
223.977	-21.16
224.195	124.24
224.413	48.47
224.631	-37.55
224.849	44.37
225.067	11.61
225.285	7.51
225.503	7.51
225.721	11.61
225.939	1.37
226.157	66.9
226.375	175.44
226.592	-15.02
226.81	-10.92
227.028	56.66
227.246	27.99
227.464	23.89
227.682	3.41
227.9	91.48
228.117	9.56
228.335	73.04
228.553	13.65
228.771	7.51
228.989	15.7
229.206	40.28
229.424	-58.03
229.642	-43.69
229.86	-51.88
230.077	17.75
230.295	40.28
230.513	62.8
230.731	27.99
230.948	105.81
231.166	83.28
231.384	-8.87
231.601	-6.83
231.819	101.72
232.037	64.85
232.254	-27.31
232.472	-31.4
232.689	-4.78
232.907	27.99
233.125	7.51
233.342	-0.68
233.56	-12.97
233.777	27.99
233.995	27.99
234.213	52.56
234.43	56.66
234.648	13.65
234.865	-101.03
235.083	34.13
235.3	-21.16
235.518	-23.21
235.735	68.95
235.953	25.94
236.17	-17.07
236.388	-12.97
236.605	11.61
236.822	36.18
237.04	-21.16
237.257	60.76
237.475	-84.65
237.692	79.19
237.909	40.28
238.127	79.19
238.344	42.32
238.562	77.14
238.779	-8.87
238.996	32.08
239.214	-23.21
239.431	32.08
239.648	15.7
239.865	97.62
240.083	58.71
240.3	11.61
240.517	-4.78
240.735	-17.07
240.952	93.52
241.169	77.14
241.386	-4.78
241.603	-12.97
241.821	15.7
242.038	48.47
242.255	19.8
242.472	-21.16
242.689	46.42
242.907	66.9
243.124	-21.16
243.341	30.04
243.558	-12.97
243.775	9.56
243.992	-80.55
244.209	38.23
244.426	75.09
244.643	38.23
244.86	-43.69
245.078	-12.97
245.295	81.24
245.512	1.37
245.729	-35.5
245.946	27.99
246.163	34.13
246.38	-0.68
246.597	13.65
246.814	23.89
247.031	48.47
247.248	40.28
247.464	11.61
247.681	60.76
247.898	64.85
248.115	36.18
248.332	34.13
248.549	60.76
248.766	60.76
248.983	77.14
249.2	23.89
249.417	30.04
249.633	-45.74
249.85	17.75
250.067	27.99
250.284	-12.97
250.501	-51.88
250.717	44.37
250.934	-29.35
251.151	5.46
251.368	36.18
251.585	50.52
251.801	-33.45
252.018	23.89
252.235	93.52
252.451	-17.07
252.668	25.94
252.885	23.89
253.102	54.61
253.318	54.61
253.535	-37.55
253.752	-45.74
253.968	-33.45
254.185	3.41
254.401	44.37
254.618	97.62
254.835	-39.59
255.051	23.89
255.268	71
255.484	48.47
255.701	-2.73
255.917	-0.68
256.134	-17.07
256.351	73.04
256.567	27.99
256.784	-0.68
257	-47.79
257.217	36.18
257.433	48.47
257.65	66.9
257.866	23.89
258.082	-12.97
258.299	-21.16
258.515	52.56
258.732	-4.78
258.948	-55.98
259.165	54.61
259.381	-41.64
259.597	36.18
259.814	-4.78
260.03	1.37
260.246	111.96
260.463	40.28
260.679	-25.26
260.895	7.51
261.112	5.46
261.328	15.7
261.544	-25.26
261.761	163.15
261.977	25.94
262.193	36.18
262.409	15.7
262.626	-8.87
262.842	56.66
263.058	-4.78
263.274	-23.21
263.49	23.89
263.707	23.89
263.923	27.99
264.139	19.8
264.355	79.19
264.571	42.32
264.787	9.56
265.004	89.43
265.22	118.1
265.436	-8.87
265.652	44.37
265.868	44.37
266.084	25.94
266.3	36.18
266.516	-33.45
266.732	-8.87
266.948	48.47
267.164	-47.79
267.38	75.09
267.596	25.94
267.812	44.37
268.028	7.51
268.244	-53.93
268.46	-0.68
268.676	9.56
268.892	36.18
269.108	23.89
269.324	-4.78
269.54	-12.97
269.756	42.32
269.972	-41.64
270.188	19.8
270.403	91.48
270.619	-45.74
270.835	44.37
271.051	27.99
271.267	-35.5
271.483	42.32
271.698	-31.4
271.914	11.61
272.13	36.18
272.346	-0.68
272.562	-4.78
272.777	93.52
272.993	-17.07
273.209	-33.45
273.425	27.99
273.64	34.13
273.856	85.33
274.072	5.46
274.287	11.61
274.503	25.94
274.719	-31.4
274.934	42.32
275.15	-72.36
275.366	25.94
275.581	9.56
275.797	34.13
276.012	7.51
276.228	-29.35
276.444	3.41
276.659	-23.21
276.875	-41.64
277.09	58.71
277.306	36.18
277.521	23.89
277.737	27.99
277.952	81.24
278.168	-8.87
278.383	25.94
278.599	-37.55
278.814	-29.35
279.03	60.76
279.245	60.76
279.461	9.56
279.676	73.04
279.892	-27.31
280.107	30.04
280.322	-35.5
280.538	34.13
280.753	-43.69
280.969	81.24
281.184	-4.78
281.399	64.85
281.615	3.41
281.83	-17.07
282.045	-45.74
282.26	-80.55
282.476	56.66
282.691	36.18
282.906	27.99
283.122	30.04
283.337	-55.98
283.552	36.18
283.767	25.94
283.983	109.91
284.198	-21.16
284.413	7.51
284.628	-8.87
284.843	36.18
285.058	66.9
285.274	91.48
285.489	-15.02
285.704	68.95
285.919	19.8
286.134	9.56
286.349	48.47
286.564	-64.17
286.779	44.37
286.995	11.61
287.21	-78.51
287.425	25.94
287.64	1.37
287.855	5.46
288.07	-37.55
288.285	-17.07
288.5	60.76
288.715	66.9
288.93	-29.35
289.145	62.8
289.36	85.33
289.575	19.8
289.79	30.04
290.004	30.04
290.219	-15.02
290.434	-2.73
290.649	50.52
290.864	3.41
291.079	34.13
291.294	32.08
291.509	-2.73
291.724	-17.07
291.938	32.08
292.153	73.04
292.368	-21.16
292.583	66.9
292.798	44.37
293.012	40.28
293.227	44.37
293.442	34.13
293.657	75.09
293.871	36.18
294.086	-60.07
294.301	15.7
294.516	85.33
294.73	48.47
294.945	17.75
295.16	-74.41
295.374	93.52
295.589	60.76
295.804	58.71
296.018	111.96
296.233	101.72
296.447	-51.88
296.662	-58.03
296.877	50.52
297.091	17.75
297.306	97.62
297.52	-29.35
297.735	32.08
297.949	93.52
298.164	99.67
298.378	-25.26
298.593	-49.83
298.807	-37.55
299.022	68.95
299.236	34.13
299.451	-27.31
299.665	-35.5
299.88	-41.64
300.094	-29.35
300.309	42.32
300.523	30.04
300.737	7.51
300.952	36.18
301.166	-80.55
301.381	68.95
301.595	-47.79
301.809	48.47
302.024	40.28
302.238	5.46
302.452	5.46
302.667	-12.97
302.881	50.52
303.095	23.89
303.309	116.05
303.524	1.37
303.738	7.51
303.952	21.84
304.166	17.75
304.381	36.18
304.595	17.75
304.809	-0.68
305.023	23.89
305.237	-6.83
305.452	44.37
305.666	17.75
305.88	64.85
306.094	50.52
306.308	58.71
306.522	11.61
306.736	89.43
306.95	48.47
307.164	7.51
307.379	-17.07
307.593	77.14
307.807	-8.87
308.021	7.51
308.235	36.18
308.449	21.84
308.663	-21.16
308.877	77.14
309.091	71
309.305	19.8
309.519	11.61
309.733	62.8
309.947	-41.64
310.161	85.33
310.374	77.14
310.588	101.72
310.802	91.48
311.016	66.9
311.23	52.56
311.444	-37.55
311.658	85.33
311.872	27.99
312.085	-8.87
312.299	89.43
312.513	66.9
312.727	7.51
312.941	38.23
313.154	-0.68
313.368	38.23
313.582	-39.59
313.796	5.46
314.009	36.18
314.223	66.9
314.437	19.8
314.651	27.99
314.864	17.75
315.078	-29.35
315.292	-23.21
315.505	-47.79
315.719	9.56
315.933	52.56
316.146	11.61
316.36	-49.83
316.573	111.96
316.787	17.75
317.001	62.8
317.214	44.37
317.428	-94.89
317.641	21.84
317.855	-35.5
318.068	-0.68
318.282	-10.92
318.495	77.14
318.709	60.76
318.922	93.52
319.136	81.24
319.349	122.2
319.563	-45.74
319.776	46.42
319.99	-4.78
320.203	34.13
320.417	5.46
320.63	50.52
320.843	68.95
321.057	46.42
321.27	77.14
321.483	-21.16
321.697	118.1
321.91	56.66
322.124	81.24
322.337	-29.35
322.55	7.51
322.763	68.95
322.977	36.18
323.19	19.8
323.403	-23.21
323.617	34.13
323.83	23.89
324.043	48.47
324.256	-2.73
324.469	-49.83
324.683	50.52
324.896	3.41
325.109	23.89
325.322	-29.35
325.535	87.38
325.748	73.04
325.962	17.75
326.175	17.75
326.388	58.71
326.601	114
326.814	-0.68
327.027	3.41
327.24	40.28
327.453	-15.02
327.666	-15.02
327.879	68.95
328.092	68.95
328.305	-27.31
328.518	23.89
328.731	68.95
328.944	11.61
329.157	-21.16
329.37	34.13
329.583	60.76
329.796	52.56
330.009	-10.92
330.222	-0.68
330.435	-19.11
330.648	-27.31
330.861	-39.59
331.073	-49.83
331.286	11.61
331.499	36.18
331.712	-35.5
331.925	68.95
332.138	1.37
332.35	101.72
332.563	-29.35
332.776	-21.16
332.989	44.37
333.202	13.65
333.414	-4.78
333.627	27.99
333.84	25.94
334.053	68.95
334.265	19.8
334.478	-37.55
334.691	-2.73
334.903	11.61
335.116	40.28
335.329	-15.02
335.541	83.28
335.754	50.52
335.966	25.94
336.179	-8.87
336.392	3.41
336.604	68.95
336.817	44.37
337.029	3.41
337.242	1.37
337.454	52.56
337.667	44.37
337.88	3.41
338.092	50.52
338.305	40.28
338.517	-15.02
338.729	23.89
338.942	11.61
339.154	-66.22
339.367	-45.74
339.579	11.61
339.792	-0.68
340.004	60.76
340.217	58.71
340.429	73.04
340.641	21.84
340.854	1.37
341.066	19.8
341.278	71
341.491	36.18
341.703	-45.74
341.915	25.94
342.128	105.81
342.34	56.66
342.552	-45.74
342.764	21.84
342.977	-0.68
343.189	21.84
343.401	1.37
343.613	13.65
343.826	3.41
344.038	9.56
344.25	1.37
344.462	-8.87
344.674	9.56
344.886	79.19
345.099	-8.87
345.311	91.48
345.523	56.66
345.735	-55.98
345.947	-12.97
346.159	54.61
346.371	36.18
346.583	-19.11
346.795	114
347.007	15.7
347.219	73.04
347.431	1.37
347.643	95.57
347.855	44.37
348.067	25.94
348.279	-25.26
348.491	-39.59
348.703	9.56
348.915	-8.87
349.127	-45.74
349.339	87.38
349.551	23.89
349.763	60.76
349.975	30.04
350.187	48.47
350.399	73.04
350.61	105.81
350.822	1.37
351.034	27.99
351.246	40.28
351.458	36.18
351.669	62.8
351.881	93.52
352.093	85.33
352.305	46.42
352.517	89.43
352.728	144.72
352.94	64.85
353.152	23.89
353.363	3.41
353.575	52.56
353.787	138.58
353.999	58.71
354.21	91.48
354.422	48.47
354.633	-12.97
354.845	-43.69
355.057	-4.78
355.268	32.08
355.48	7.51
355.692	32.08
355.903	36.18
356.115	89.43
356.326	-12.97
356.538	42.32
356.749	60.76
356.961	23.89
357.172	56.66
357.384	-15.02
357.595	77.14
357.807	52.56
358.018	-23.21
358.23	15.7
358.441	107.86
358.653	134.48
358.864	75.09
359.075	23.89
359.287	-6.83
359.498	21.84
359.709	107.86
359.921	23.89
360.132	99.67
360.344	25.94
360.555	-0.68
360.766	62.8
360.977	46.42
361.189	19.8
361.4	-23.21
361.611	85.33
361.823	66.9
362.034	27.99
362.245	68.95
362.456	-23.21
362.667	91.48
362.879	71
363.09	9.56
363.301	-25.26
363.512	73.04
363.723	-39.59
363.935	19.8
364.146	54.61
364.357	52.56
364.568	44.37
364.779	-58.03
364.99	73.04
365.201	-45.74
365.412	83.28
365.623	-15.02
365.834	-31.4
366.045	25.94
366.256	36.18
366.467	77.14
366.678	34.13
366.889	89.43
367.1	-37.55
367.311	48.47
367.522	19.8
367.733	66.9
367.944	44.37
368.155	52.56
368.366	-8.87
368.577	85.33
368.788	48.47
368.999	13.65
369.209	109.91
369.42	89.43
369.631	126.29
369.842	48.47
370.053	19.8
370.264	111.96
370.474	58.71
370.685	46.42
370.896	3.41
371.107	62.8
371.317	9.56
371.528	62.8
371.739	99.67
371.95	44.37
372.16	101.72
372.371	19.8
372.582	75.09
372.792	36.18
373.003	1.37
373.214	15.7
373.424	-21.16
373.635	-33.45
373.846	77.14
374.056	25.94
374.267	36.18
374.477	38.23
374.688	-29.35
374.898	-4.78
375.109	-23.21
375.319	62.8
375.53	68.95
375.74	48.47
375.951	17.75
376.161	71
376.372	93.52
376.582	-31.4
376.793	68.95
377.003	21.84
377.214	3.41
377.424	34.13
377.635	3.41
377.845	32.08
378.055	-0.68
378.266	-8.87
378.476	9.56
378.686	56.66
378.897	-29.35
379.107	58.71
379.317	66.9
379.528	107.86
379.738	25.94
379.948	-2.73
380.158	56.66
380.369	-66.22
380.579	93.52
380.789	-17.07
380.999	109.91
381.21	116.05
381.42	68.95
381.63	34.13
381.84	44.37
382.05	-31.4
382.261	36.18
382.471	3.41
382.681	13.65
382.891	71
383.101	93.52
383.311	17.75
383.521	11.61
383.731	99.67
383.941	30.04
384.151	-25.26
384.361	13.65
384.571	36.18
384.781	7.51
384.991	126.29
385.201	107.86
385.411	101.72
385.621	34.13
385.831	38.23
386.041	134.48
386.251	-10.92
386.461	62.8
386.671	36.18
386.881	17.75
387.091	34.13
387.301	77.14
387.511	36.18
387.72	32.08
387.93	52.56
388.14	11.61
388.35	89.43
388.56	38.23
388.769	79.19
388.979	73.04
389.189	-0.68
389.399	-29.35
389.609	32.08
389.818	109.91
390.028	109.91
390.238	64.85
390.447	27.99
390.657	-12.97
390.867	-66.22
391.076	-47.79
391.286	81.24
391.496	71
391.705	58.71
391.915	157.01
392.125	124.24
392.334	13.65
392.544	97.62
392.753	73.04
392.963	-21.16
393.172	7.51
393.382	7.51
393.591	128.34
393.801	15.7
394.01	73.04
394.22	5.46
394.429	-4.78
394.639	19.8
394.848	52.56
395.058	64.85
395.267	17.75
395.477	140.63
395.686	87.38
395.895	148.82
396.105	124.24
396.314	50.52
396.524	-23.21
396.733	-0.68
396.942	95.57
397.152	71
397.361	101.72
397.57	3.41
397.78	27.99
397.989	68.95
398.198	87.38
398.407	52.56
398.617	75.09
398.826	99.67
399.035	101.72
399.244	83.28
399.453	89.43
399.663	105.81
399.872	107.86
400.081	77.14
400.29	122.2
400.499	-25.26
400.708	87.38
400.917	73.04
401.127	13.65
401.336	93.52
401.545	163.15
401.754	17.75
401.963	64.85
402.172	124.24
402.381	75.09
402.59	62.8
402.799	109.91
403.008	126.29
403.217	122.2
403.426	97.62
403.635	93.52
403.844	97.62
404.053	114
404.262	73.04
404.471	157.01
404.68	159.06
404.888	159.06
405.097	126.29
405.306	150.87
405.515	185.68
405.724	171.35
405.933	154.96
406.142	124.24
406.35	134.48
406.559	148.82
406.768	124.24
406.977	191.83
407.185	101.72
407.394	150.87
407.603	134.48
407.812	232.79
408.02	204.11
408.229	150.87
408.438	216.4
408.646	136.53
408.855	212.31
409.064	167.25
409.272	214.35
409.481	232.79
409.69	265.55
409.898	224.59
410.107	271.7
410.315	267.6
410.524	249.17
410.733	240.98
410.941	322.9
411.15	347.47
411.358	271.7
411.567	423.25
411.775	365.9
411.984	304.46
412.192	265.55
412.401	316.75
412.609	361.81
412.818	419.15
413.026	415.05
413.234	380.24
413.443	398.67
413.651	470.35
413.86	515.41
414.068	515.41
414.276	533.84
414.485	533.84
414.693	507.21
414.901	615.76
415.11	550.22
415.318	562.51
415.526	615.76
415.734	720.2
415.943	658.76
416.151	740.68
416.359	691.53
416.567	654.67
416.776	802.12
416.984	777.55
417.192	806.22
417.4	822.6
417.608	793.93
417.817	879.94
418.025	986.44
418.233	1109.32
418.441	933.19
418.649	980.29
418.857	1004.87
419.065	1092.93
419.273	1054.02
419.481	1148.23
419.689	1279.3
419.897	1115.46
420.105	1256.77
420.313	1336.64
420.521	1387.84
420.729	1393.98
420.937	1436.99
421.145	1369.41
421.353	1600.83
421.561	1613.12
421.769	1623.36
421.977	1649.98
422.185	1688.89
422.393	1797.43
422.601	1887.54
422.809	1836.35
423.017	1953.08
423.224	2006.33
423.432	2190.64
423.64	2049.33
423.848	2217.27
424.056	2194.74
424.263	2471.22
424.471	2379.06
424.679	2469.17
424.887	2579.76
425.094	2665.77
425.302	2590
425.51	2798.89
425.718	2845.99
425.925	2815.27
426.133	2833.71
426.341	3312.93
426.548	3360.03
426.756	3165.48
426.964	3286.31
427.171	3482.91
427.379	3564.83
427.586	3583.26
427.794	3802.4
428.001	4093.21
428.209	4189.46
428.417	4091.16
428.624	4310.29
428.832	4492.56
429.039	4373.78
429.247	4365.59
429.454	4846.86
429.662	5121.29
429.869	4791.56
430.076	5176.58
430.284	4840.72
430.491	5248.26
430.699	5422.34
430.906	5442.82
431.114	5604.61
431.321	5768.45
431.528	5786.88
431.736	6188.28
431.943	6518
432.15	6376.69
432.358	6565.11
432.565	6917.36
432.772	6677.74
432.979	7089.39
433.187	7199.98
433.394	7263.46
433.601	7761.12
433.808	7830.75
434.016	7650.53
434.223	8137.95
434.43	8654.03
434.637	8269.02
434.844	8873.17
435.052	9123.02
435.259	8887.5
435.466	9258.18
435.673	9086.15
435.88	9317.58
436.087	10034.36
436.294	10007.74
436.501	9911.49
436.708	10255.54
436.915	10607.8
437.122	11039.92
437.329	10947.76
437.537	11308.2
437.743	11361.45
437.95	11226.28
438.157	11736.23
438.364	12450.97
438.571	12389.53
438.778	12262.55
438.985	13452.42
439.192	12915.86
439.399	13427.85
439.606	13106.32
439.813	13892.74
440.02	14572.66
440.227	14394.49
440.433	14331
440.64	14724.21
440.847	14355.58
441.054	15105.13
441.261	15983.71
441.467	16018.53
441.674	15926.37
441.881	16600.15
442.088	16665.69
442.294	16522.33
442.501	17222.73
442.708	17427.53
442.914	18058.31
443.121	18662.46
443.328	18029.63
443.534	19532.84
443.741	19006.52
443.948	18752.57
444.154	20450.33
444.361	20194.34
444.568	20196.39
444.774	20243.49
444.981	20448.29
445.187	20886.55
445.394	21916.68
445.6	21593.1
445.807	23864.3
446.013	22762.49
446.22	23081.97
446.426	23841.77
446.633	24497.12
446.839	24949.72
447.046	23823.34
447.252	25218
447.459	25048.02
447.665	25007.06
447.871	26176.45
448.078	27503.54
448.284	25910.22
448.491	26932.15
448.697	27618.22
448.903	27941.8
449.11	28494.75
449.316	27718.57
449.522	28404.64
449.728	29131.67
449.935	29772.69
450.141	28867.48
450.347	30006.16
450.553	29244.31
450.76	29160.34
450.966	30589.83
451.172	30083.98
451.378	30649.22
451.584	30120.84
451.791	31030.14
451.997	30641.03
452.203	31202.17
452.409	31466.36
452.615	30802.82
452.821	29901.71
453.027	29598.61
453.233	31390.58
453.44	29967.24
453.646	30409.61
453.852	30161.8
454.058	30897.02
454.264	29709.2
454.47	30307.21
454.676	29655.95
454.882	30749.57
455.088	28076.97
455.294	28388.26
455.5	28636.06
455.705	29045.66
455.911	27872.17
456.117	27399.09
456.323	27378.61
456.529	25535.44
456.735	26835.9
456.941	26250.18
457.147	25367.51
457.352	24878.04
457.558	24540.13
457.764	24499.17
457.97	24206.31
458.176	23329.78
458.381	23227.38
458.587	22293.51
458.793	22551.55
458.999	21087.25
459.204	23102.45
459.41	22088.71
459.616	20380.7
459.821	20673.56
460.027	20685.85
460.233	19952.68
460.438	19242.03
460.644	19065.91
460.85	18543.67
461.055	18144.32
461.261	18066.5
461.466	16686.17
461.672	16438.36
461.878	17511.5
462.083	16276.57
462.289	15762.53
462.494	15715.43
462.7	15137.9
462.905	14697.59
463.111	15377.51
463.316	15344.75
463.522	14822.52
463.727	15008.88
463.932	14869.62
464.138	14728.31
464.343	14883.95
464.549	14437.5
464.754	14722.16
464.959	14924.91
465.165	14556.28
465.37	13870.21
465.575	13593.73
465.781	14122.11
465.986	14361.72
466.191	13737.09
466.397	13405.32
466.602	12733.59
466.807	13474.95
467.012	13225.1
467.218	13444.23
467.423	13221
