Data from USB4F104151__85__11-32-00-802.txt Node

Date: Fri Mar 14 11:32:00 EDT 2025
User: louis
Spectrometer: USB4F10415
Trigger mode: 4
Integration Time (sec): 5.000000E-2
Scans to average: 1
Electric dark correction enabled: true
Nonlinearity correction enabled: false
Boxcar width: 0
XAxis mode: Wavelengths
Number of Pixels in Spectrum: 3648
>>>>>Begin Spectral Data<<<<<
178.204	-154.45
178.424	-154.45
178.644	-154.45
178.864	-121.68
179.084	-189.27
179.304	17.58
179.524	-27.48
179.744	31.91
179.964	62.63
180.184	17.58
180.404	-25.43
180.624	5.29
180.844	-27.48
181.064	-50
181.283	-15.19
181.503	-50
181.723	60.59
181.943	-11.09
182.163	93.35
182.383	-82.77
182.602	113.83
182.822	68.78
183.042	19.63
183.262	17.58
183.482	-17.24
183.701	23.72
183.921	27.82
184.141	-15.19
184.361	48.3
184.58	17.58
184.8	76.97
185.02	46.25
185.239	87.21
185.459	36.01
185.679	72.87
185.898	38.06
186.118	83.11
186.338	25.77
186.557	119.98
186.777	74.92
186.997	-7
187.216	40.11
187.436	99.5
187.655	95.4
187.875	56.49
188.095	21.67
188.314	23.72
188.534	52.39
188.753	1.19
188.973	72.87
189.192	113.83
189.412	138.41
189.631	23.72
189.851	13.48
190.07	66.73
190.29	1.19
190.509	79.02
190.729	17.58
190.948	111.78
191.168	113.83
191.387	23.72
191.607	-23.38
191.826	66.73
192.045	1.19
192.265	58.54
192.484	62.63
192.704	56.49
192.923	-41.81
193.142	95.4
193.362	7.34
193.581	126.12
193.8	42.15
194.02	13.48
194.239	74.92
194.458	42.15
194.678	-23.38
194.897	1.19
195.116	36.01
195.335	5.29
195.555	15.53
195.774	40.11
195.993	-43.86
196.212	56.49
196.432	74.92
196.651	42.15
196.87	3.24
197.089	83.11
197.308	70.83
197.528	76.97
197.747	-4.95
197.966	7.34
198.185	132.26
198.404	7.34
198.623	99.5
198.842	124.07
199.062	81.07
199.281	91.31
199.5	1.19
199.719	89.26
199.938	58.54
200.157	128.17
200.376	122.02
200.595	29.87
200.814	58.54
201.033	38.06
201.252	85.16
201.471	70.83
201.69	70.83
201.909	70.83
202.128	64.68
202.347	50.35
202.566	60.59
202.785	56.49
203.004	-7
203.223	113.83
203.442	42.15
203.661	19.63
203.879	124.07
204.098	95.4
204.317	99.5
204.536	66.73
204.755	-15.19
204.974	62.63
205.193	56.49
205.411	138.41
205.63	66.73
205.849	48.3
206.068	31.91
206.287	9.39
206.505	126.12
206.724	62.63
206.943	25.77
207.162	13.48
207.381	-7
207.599	-43.86
207.818	72.87
208.037	115.88
208.255	11.43
208.474	40.11
208.693	81.07
208.911	111.78
209.13	42.15
209.349	87.21
209.567	46.25
209.786	83.11
210.005	97.45
210.223	87.21
210.442	-23.38
210.661	64.68
210.879	17.58
211.098	38.06
211.316	52.39
211.535	-11.09
211.753	25.77
211.972	115.88
212.191	-11.09
212.409	81.07
212.628	85.16
212.846	31.91
213.065	74.92
213.283	50.35
213.502	64.68
213.72	-56.15
213.938	48.3
214.157	-11.09
214.375	91.31
214.594	40.11
214.812	95.4
215.031	23.72
215.249	-25.43
215.467	42.15
215.686	38.06
215.904	52.39
216.122	-15.19
216.341	107.69
216.559	99.5
216.778	140.46
216.996	105.64
217.214	-43.86
217.432	83.11
217.651	33.96
217.869	42.15
218.087	50.35
218.306	1.19
218.524	89.26
218.742	23.72
218.96	48.3
219.179	-2.9
219.397	109.74
219.615	132.26
219.833	9.39
220.051	-7
220.27	38.06
220.488	50.35
220.706	15.53
220.924	-21.33
221.142	58.54
221.36	72.87
221.578	70.83
221.796	76.97
222.015	17.58
222.233	40.11
222.451	122.02
222.669	111.78
222.887	17.58
223.105	64.68
223.323	74.92
223.541	-45.91
223.759	48.3
223.977	33.96
224.195	50.35
224.413	1.19
224.631	93.35
224.849	13.48
225.067	109.74
225.285	23.72
225.503	64.68
225.721	-74.58
225.939	-35.67
226.157	74.92
226.375	144.55
226.592	23.72
226.81	33.96
227.028	29.87
227.246	97.45
227.464	31.91
227.682	33.96
227.9	74.92
228.117	58.54
228.335	21.67
228.553	79.02
228.771	54.44
228.989	83.11
229.206	21.67
229.424	42.15
229.642	40.11
229.86	13.48
230.077	79.02
230.295	-0.85
230.513	113.83
230.731	46.25
230.948	87.21
231.166	33.96
231.384	-47.96
231.601	31.91
231.819	79.02
232.037	19.63
232.254	-43.86
232.472	-2.9
232.689	48.3
232.907	95.4
233.125	15.53
233.342	-9.05
233.56	42.15
233.777	-17.24
233.995	9.39
234.213	25.77
234.43	42.15
234.648	7.34
234.865	31.91
235.083	64.68
235.3	95.4
235.518	74.92
235.735	113.83
235.953	132.26
236.17	17.58
236.388	-23.38
236.605	1.19
236.822	115.88
237.04	7.34
237.257	99.5
237.475	13.48
237.692	31.91
237.909	38.06
238.127	5.29
238.344	-7
238.562	7.34
238.779	42.15
238.996	-86.87
239.214	48.3
239.431	89.26
239.648	-7
239.865	42.15
240.083	48.3
240.3	1.19
240.517	25.77
240.735	-15.19
240.952	115.88
241.169	56.49
241.386	99.5
241.603	-7
241.821	66.73
242.038	81.07
242.255	15.53
242.472	1.19
242.689	21.67
242.907	169.13
243.124	42.15
243.341	70.83
243.558	42.15
243.775	9.39
243.992	-76.63
244.209	33.96
244.426	74.92
244.643	117.93
244.86	-13.14
245.078	42.15
245.295	60.59
245.512	23.72
245.729	15.53
245.946	58.54
246.163	21.67
246.38	33.96
246.597	46.25
246.814	46.25
247.031	103.59
247.248	91.31
247.464	7.34
247.681	48.3
247.898	56.49
248.115	150.7
248.332	25.77
248.549	46.25
248.766	54.44
248.983	81.07
249.2	38.06
249.417	68.78
249.633	-9.05
249.85	115.88
250.067	46.25
250.284	13.48
250.501	66.73
250.717	107.69
250.934	58.54
251.151	46.25
251.368	33.96
251.585	58.54
251.801	66.73
252.018	52.39
252.235	42.15
252.451	29.87
252.668	62.63
252.885	74.92
253.102	1.19
253.318	66.73
253.535	9.39
253.752	87.21
253.968	7.34
254.185	97.45
254.401	17.58
254.618	1.19
254.835	-25.43
255.051	111.78
255.268	89.26
255.484	103.59
255.701	15.53
255.917	46.25
256.134	50.35
256.351	119.98
256.567	54.44
256.784	29.87
257	-39.76
257.217	19.63
257.433	23.72
257.65	83.11
257.866	74.92
258.082	87.21
258.299	38.06
258.515	40.11
258.732	72.87
258.948	21.67
259.165	83.11
259.381	1.19
259.597	50.35
259.814	7.34
260.03	-0.85
260.246	33.96
260.463	62.63
260.679	113.83
260.895	54.44
261.112	115.88
261.328	66.73
261.544	23.72
261.761	40.11
261.977	50.35
262.193	3.24
262.409	33.96
262.626	179.37
262.842	68.78
263.058	17.58
263.274	99.5
263.49	95.4
263.707	17.58
263.923	74.92
264.139	50.35
264.355	15.53
264.571	44.2
264.787	66.73
265.004	105.64
265.22	136.36
265.436	-52.05
265.652	1.19
265.868	89.26
266.084	29.87
266.3	124.07
266.516	-15.19
266.732	126.12
266.948	25.77
267.164	17.58
267.38	81.07
267.596	113.83
267.812	33.96
268.028	91.31
268.244	-41.81
268.46	130.22
268.676	-66.39
268.892	68.78
269.108	64.68
269.324	87.21
269.54	42.15
269.756	165.03
269.972	15.53
270.188	126.12
270.403	-23.38
270.619	74.92
270.835	44.2
271.051	74.92
271.267	-0.85
271.483	5.29
271.698	-9.05
271.914	107.69
272.13	48.3
272.346	95.4
272.562	56.49
272.777	105.64
272.993	15.53
273.209	56.49
273.425	83.11
273.64	-33.62
273.856	56.49
274.072	29.87
274.287	58.54
274.503	9.39
274.719	56.49
274.934	33.96
275.15	50.35
275.366	21.67
275.581	17.58
275.797	-0.85
276.012	79.02
276.228	74.92
276.444	7.34
276.659	95.4
276.875	66.73
277.09	40.11
277.306	-15.19
277.521	25.77
277.737	19.63
277.952	79.02
278.168	33.96
278.383	33.96
278.599	42.15
278.814	93.35
279.03	17.58
279.245	124.07
279.461	17.58
279.676	29.87
279.892	7.34
280.107	-4.95
280.322	-9.05
280.538	50.35
280.753	11.43
280.969	89.26
281.184	13.48
281.399	105.64
281.615	15.53
281.83	54.44
282.045	-11.09
282.26	56.49
282.476	11.43
282.691	38.06
282.906	-15.19
283.122	58.54
283.337	19.63
283.552	109.74
283.767	11.43
283.983	66.73
284.198	81.07
284.413	-54.1
284.628	13.48
284.843	5.29
285.058	33.96
285.274	25.77
285.489	19.63
285.704	40.11
285.919	62.63
286.134	7.34
286.349	-33.62
286.564	91.31
286.779	50.35
286.995	68.78
287.21	66.73
287.425	66.73
287.64	42.15
287.855	62.63
288.07	38.06
288.285	31.91
288.5	64.68
288.715	29.87
288.93	85.16
289.145	25.77
289.36	83.11
289.575	7.34
289.79	58.54
290.004	-23.38
290.219	124.07
290.434	72.87
290.649	3.24
290.864	99.5
291.079	15.53
291.294	72.87
291.509	-2.9
291.724	33.96
291.938	38.06
292.153	136.36
292.368	13.48
292.583	70.83
292.798	87.21
293.012	91.31
293.227	48.3
293.442	25.77
293.657	54.44
293.871	29.87
294.086	50.35
294.301	33.96
294.516	25.77
294.73	70.83
294.945	70.83
295.16	-13.14
295.374	68.78
295.589	29.87
295.804	-23.38
296.018	76.97
296.233	58.54
296.447	23.72
296.662	-7
296.877	21.67
297.091	117.93
297.306	91.31
297.52	-37.72
297.735	17.58
297.949	74.92
298.164	56.49
298.378	93.35
298.593	-23.38
298.807	33.96
299.022	60.59
299.236	181.42
299.451	21.67
299.665	79.02
299.88	-0.85
300.094	91.31
300.309	52.39
300.523	79.02
300.737	-11.09
300.952	31.91
301.166	66.73
301.381	60.59
301.595	58.54
301.809	66.73
302.024	15.53
302.238	38.06
302.452	107.69
302.667	70.83
302.881	93.35
303.095	29.87
303.309	5.29
303.524	33.96
303.738	-2.9
303.952	50.35
304.166	83.11
304.381	9.39
304.595	167.08
304.809	31.91
305.023	38.06
305.237	38.06
305.452	19.63
305.666	136.36
305.88	70.83
306.094	1.19
306.308	42.15
306.522	70.83
306.736	91.31
306.95	62.63
307.164	15.53
307.379	15.53
307.593	89.26
307.807	17.58
308.021	33.96
308.235	79.02
308.449	15.53
308.663	13.48
308.877	25.77
309.091	58.54
309.305	15.53
309.519	13.48
309.733	66.73
309.947	-52.05
310.161	68.78
310.374	-15.19
310.588	83.11
310.802	21.67
311.016	48.3
311.23	7.34
311.444	31.91
311.658	13.48
311.872	50.35
312.085	66.73
312.299	7.34
312.513	50.35
312.727	48.3
312.941	38.06
313.154	74.92
313.368	25.77
313.582	99.5
313.796	-0.85
314.009	33.96
314.223	72.87
314.437	107.69
314.651	91.31
314.864	38.06
315.078	64.68
315.292	103.59
315.505	21.67
315.719	72.87
315.933	99.5
316.146	21.67
316.36	9.39
316.573	107.69
316.787	17.58
317.001	25.77
317.214	74.92
317.428	62.63
317.641	17.58
317.855	42.15
318.068	70.83
318.282	33.96
318.495	99.5
318.709	74.92
318.922	128.17
319.136	107.69
319.349	42.15
319.563	9.39
319.776	42.15
319.99	3.24
320.203	48.3
320.417	83.11
320.63	74.92
320.843	54.44
321.057	91.31
321.27	52.39
321.483	89.26
321.697	74.92
321.91	58.54
322.124	40.11
322.337	87.21
322.55	17.58
322.763	66.73
322.977	76.97
323.19	9.39
323.403	19.63
323.617	119.98
323.83	89.26
324.043	52.39
324.256	64.68
324.469	-35.67
324.683	33.96
324.896	13.48
325.109	68.78
325.322	-7
325.535	93.35
325.748	60.59
325.962	42.15
326.175	40.11
326.388	58.54
326.601	117.93
326.814	50.35
327.027	134.31
327.24	64.68
327.453	33.96
327.666	74.92
327.879	103.59
328.092	87.21
328.305	99.5
328.518	81.07
328.731	-35.67
328.944	83.11
329.157	44.2
329.37	95.4
329.583	115.88
329.796	60.59
330.009	42.15
330.222	31.91
330.435	50.35
330.648	126.12
330.861	40.11
331.073	23.72
331.286	54.44
331.499	23.72
331.712	83.11
331.925	-23.38
332.138	17.58
332.35	140.46
332.563	48.3
332.776	27.82
332.989	-9.05
333.202	91.31
333.414	27.82
333.627	62.63
333.84	23.72
334.053	-35.67
334.265	17.58
334.478	23.72
334.691	21.67
334.903	85.16
335.116	97.45
335.329	15.53
335.541	85.16
335.754	138.41
335.966	-17.24
336.179	9.39
336.392	52.39
336.604	25.77
336.817	29.87
337.029	9.39
337.242	56.49
337.454	56.49
337.667	42.15
337.88	66.73
338.092	58.54
338.305	7.34
338.517	33.96
338.729	48.3
338.942	83.11
339.154	76.97
339.367	66.73
339.579	66.73
339.792	21.67
340.004	81.07
340.217	-31.57
340.429	13.48
340.641	-23.38
340.854	25.77
341.066	9.39
341.278	105.64
341.491	60.59
341.703	64.68
341.915	-41.81
342.128	66.73
342.34	27.82
342.552	38.06
342.764	62.63
342.977	44.2
343.189	62.63
343.401	-27.48
343.613	-9.05
343.826	89.26
344.038	46.25
344.25	-7
344.462	48.3
344.674	81.07
344.886	15.53
345.099	44.2
345.311	46.25
345.523	60.59
345.735	-2.9
345.947	50.35
346.159	79.02
346.371	95.4
346.583	-25.43
346.795	83.11
347.007	33.96
347.219	119.98
347.431	72.87
347.643	115.88
347.855	140.46
348.067	91.31
348.279	-37.72
348.491	83.11
348.703	74.92
348.915	1.19
349.127	31.91
349.339	124.07
349.551	-0.85
349.763	79.02
349.975	58.54
350.187	91.31
350.399	148.65
350.61	42.15
350.822	1.19
351.034	81.07
351.246	107.69
351.458	58.54
351.669	36.01
351.881	177.32
352.093	99.5
352.305	81.07
352.517	72.87
352.728	76.97
352.94	105.64
353.152	124.07
353.363	25.77
353.575	54.44
353.787	165.03
353.999	15.53
354.21	74.92
354.422	-4.95
354.633	42.15
354.845	46.25
355.057	33.96
355.268	68.78
355.48	132.26
355.692	50.35
355.903	48.3
356.115	19.63
356.326	64.68
356.538	66.73
356.749	66.73
356.961	62.63
357.172	38.06
357.384	25.77
357.595	140.46
357.807	-56.15
358.018	50.35
358.23	29.87
358.441	140.46
358.653	103.59
358.864	60.59
359.075	62.63
359.287	79.02
359.498	169.13
359.709	64.68
359.921	56.49
360.132	81.07
360.344	185.51
360.555	-93.01
360.766	83.11
360.977	42.15
361.189	97.45
361.4	91.31
361.611	99.5
361.823	130.22
362.034	89.26
362.245	25.77
362.456	72.87
362.667	42.15
362.879	17.58
363.09	46.25
363.301	128.17
363.512	74.92
363.723	83.11
363.935	25.77
364.146	-4.95
364.357	58.54
364.568	64.68
364.779	-9.05
364.99	68.78
365.201	15.53
365.412	107.69
365.623	1.19
365.834	62.63
366.045	-11.09
366.256	40.11
366.467	83.11
366.678	83.11
366.889	33.96
367.1	36.01
367.311	62.63
367.522	7.34
367.733	105.64
367.944	124.07
368.155	113.83
368.366	124.07
368.577	113.83
368.788	89.26
368.999	-7
369.209	11.43
369.42	169.13
369.631	181.42
369.842	56.49
370.053	-25.43
370.264	89.26
370.474	21.67
370.685	76.97
370.896	44.2
371.107	146.6
371.317	56.49
371.528	38.06
371.739	72.87
371.95	54.44
372.16	105.64
372.371	-15.19
372.582	74.92
372.792	27.82
373.003	79.02
373.214	117.93
373.424	70.83
373.635	-31.57
373.846	103.59
374.056	79.02
374.267	91.31
374.477	185.51
374.688	5.29
374.898	50.35
375.109	66.73
375.319	124.07
375.53	115.88
375.74	79.02
375.951	72.87
376.161	64.68
376.372	130.22
376.582	21.67
376.793	115.88
377.003	17.58
377.214	-2.9
377.424	111.78
377.635	25.77
377.845	115.88
378.055	91.31
378.266	-39.76
378.476	-2.9
378.686	17.58
378.897	66.73
379.107	79.02
379.317	-25.43
379.528	21.67
379.738	119.98
379.948	38.06
380.158	38.06
380.369	97.45
380.579	154.79
380.789	54.44
380.999	56.49
381.21	7.34
381.42	89.26
381.63	-11.09
381.84	113.83
382.05	126.12
382.261	167.08
382.471	89.26
382.681	109.74
382.891	99.5
383.101	56.49
383.311	13.48
383.521	-35.67
383.731	162.98
383.941	46.25
384.151	-11.09
384.361	111.78
384.571	140.46
384.781	124.07
384.991	111.78
385.201	160.94
385.411	132.26
385.621	56.49
385.831	56.49
386.041	136.36
386.251	42.15
386.461	64.68
386.671	91.31
386.881	54.44
387.091	52.39
387.301	68.78
387.511	42.15
387.72	107.69
387.93	79.02
388.14	-50
388.35	58.54
388.56	31.91
388.769	124.07
388.979	89.26
389.189	74.92
389.399	117.93
389.609	146.6
389.818	48.3
390.028	17.58
390.238	138.41
390.447	13.48
390.657	115.88
390.867	23.72
391.076	11.43
391.286	181.42
391.496	126.12
391.705	17.58
391.915	42.15
392.125	62.63
392.334	46.25
392.544	181.42
392.753	62.63
392.963	21.67
393.172	58.54
393.382	54.44
393.591	130.22
393.801	5.29
394.01	142.5
394.22	148.65
394.429	87.21
394.639	89.26
394.848	124.07
395.058	152.74
395.267	74.92
395.477	107.69
395.686	122.02
395.895	134.31
396.105	128.17
396.314	138.41
396.524	64.68
396.733	72.87
396.942	171.18
397.152	144.55
397.361	122.02
397.57	50.35
397.78	119.98
397.989	31.91
398.198	261.29
398.407	99.5
398.617	115.88
398.826	140.46
399.035	142.5
399.244	167.08
399.453	85.16
399.663	101.55
399.872	167.08
400.081	144.55
400.29	126.12
400.499	99.5
400.708	162.98
400.917	31.91
401.127	154.79
401.336	152.74
401.545	212.14
401.754	187.56
401.963	138.41
402.172	150.7
402.381	160.94
402.59	124.07
402.799	95.4
403.008	132.26
403.217	132.26
403.426	177.32
403.635	97.45
403.844	189.61
404.053	156.84
404.262	122.02
404.471	230.57
404.68	212.14
404.888	140.46
405.097	122.02
405.306	152.74
405.515	160.94
405.724	177.32
405.933	195.75
406.142	138.41
406.35	230.57
406.559	226.47
406.768	244.9
406.977	230.57
407.185	238.76
407.394	201.9
407.603	140.46
407.812	216.23
408.02	292.01
408.229	238.76
408.438	255.14
408.646	228.52
408.855	246.95
409.064	238.76
409.272	203.94
409.481	349.35
409.69	220.33
409.898	242.85
410.107	263.33
410.315	253.09
410.524	335.01
410.733	263.33
410.941	312.49
411.15	253.09
411.358	410.79
411.567	423.08
411.775	279.72
411.984	423.08
412.192	455.84
412.401	468.13
412.609	398.5
412.818	556.19
413.026	498.85
413.234	484.52
413.443	527.52
413.651	492.71
413.86	576.67
414.068	541.86
414.276	597.15
414.485	511.14
414.693	588.96
414.901	672.93
415.11	681.12
415.318	732.32
415.526	742.56
415.734	646.3
415.943	656.54
416.151	820.38
416.359	728.22
416.567	804
416.776	867.49
416.984	887.97
417.192	916.64
417.4	918.68
417.608	947.36
417.817	996.51
418.025	1049.75
418.233	1152.15
418.441	1023.13
418.649	1129.63
418.857	1176.73
419.065	1211.54
419.273	1166.49
419.481	1297.56
419.689	1365.14
419.897	1391.77
420.105	1385.62
420.313	1541.27
420.521	1514.64
420.729	1594.51
420.937	1580.18
421.145	1576.08
421.353	1690.77
421.561	1764.5
421.769	1721.49
421.977	1846.41
422.185	1815.69
422.393	2102.41
422.601	2053.26
422.809	2024.59
423.017	2176.14
423.224	2190.47
423.432	2331.78
423.64	2311.3
423.848	2391.17
424.056	2438.28
424.263	2581.64
424.471	2628.74
424.679	2636.93
424.887	2841.73
425.094	2917.5
425.302	3062.91
425.51	3009.66
425.718	3107.96
425.925	3212.41
426.133	3208.31
426.341	3488.89
426.548	3556.47
426.756	3652.72
426.964	3687.54
427.171	3884.14
427.379	3980.4
427.586	4013.17
427.794	4080.75
428.001	4351.08
428.209	4461.67
428.417	4533.35
428.624	4664.42
428.832	4789.35
429.039	4615.27
429.247	4684.9
429.454	5350.49
429.662	5545.05
429.869	5209.18
430.076	5499.99
430.284	5454.94
430.491	5766.23
430.699	6020.17
430.906	5985.36
431.114	5971.02
431.321	6132.81
431.528	6456.39
431.736	6687.81
431.943	6937.66
432.15	6968.38
432.358	6988.86
432.565	7255.1
432.772	7396.41
432.979	7605.3
433.187	7799.86
433.394	7797.81
433.601	8412.2
433.808	8440.87
434.016	8205.36
434.223	8762.4
434.43	9331.74
434.637	8827.94
434.844	9606.17
435.052	9788.44
435.259	9833.49
435.466	9864.21
435.673	9819.16
435.88	10542.09
436.087	10781.7
436.294	11056.13
436.501	10595.34
436.708	10863.62
436.915	11312.13
437.122	11885.56
437.329	11682.81
437.537	12182.51
437.743	12375.02
437.95	12018.68
438.157	12882.92
438.364	13298.66
438.571	13251.55
438.778	13210.59
438.985	14355.41
439.192	14025.68
439.399	14466
439.606	14052.31
439.813	14795.72
440.02	15645.63
440.227	15508.41
440.433	15354.82
440.64	15875
440.847	15836.09
441.054	16004.02
441.261	17064.87
441.467	17128.36
441.674	17499.04
441.881	17783.71
442.088	17802.14
442.294	17601.44
442.501	18140.05
442.708	18547.6
442.914	19151.75
443.121	20030.33
443.328	19862.4
443.534	21228.39
443.741	20224.89
443.948	20233.08
444.154	21494.63
444.361	21674.85
444.568	21613.41
444.774	21568.35
444.981	22102.87
445.187	22610.77
445.394	23470.92
445.6	23042.89
445.807	25266.99
446.013	24421.17
446.22	24650.55
446.426	25977.63
446.633	25969.44
446.839	26792.72
447.046	25842.46
447.252	26964.75
447.459	27226.89
447.665	27153.16
447.871	28154.62
448.078	29295.34
448.284	27998.98
448.491	28965.62
448.697	29563.62
448.903	30337.76
449.11	30221.02
449.316	30137.05
449.522	30591.7
449.728	31345.36
449.935	31361.74
450.141	31673.03
450.347	32129.73
450.553	30823.12
450.76	31541.96
450.966	32561.85
451.172	32058.05
451.378	32520.89
451.584	32133.82
451.791	32991.92
451.997	33024.69
452.203	33555.11
452.409	33725.1
452.615	33188.53
452.821	32111.3
453.027	31623.88
453.233	33862.31
453.44	31963.84
453.646	32680.63
453.852	32559.8
454.058	33200.82
454.264	31791.81
454.47	32418.49
454.676	31775.43
454.882	33118.9
455.088	30135.01
455.294	30462.68
455.5	31077.07
455.705	31365.84
455.911	30184.16
456.117	29256.43
456.323	28816.11
456.529	27761.41
456.735	28584.69
456.941	27816.71
457.147	27405.06
457.352	26403.61
457.558	26489.62
457.764	26254.11
457.97	25971.49
458.176	25461.54
458.381	25582.37
458.587	24019.77
458.793	24351.54
458.999	23104.33
459.204	24359.73
459.41	23614.27
459.616	22192.98
459.821	22209.37
460.027	22049.63
460.233	21508.96
460.438	20544.37
460.644	20845.42
460.85	19530.62
461.055	19696.51
461.261	19628.93
461.466	18205.59
461.672	17492.9
461.878	18684.81
462.083	17761.18
462.289	17007.53
462.494	17105.83
462.7	16243.63
462.905	15899.58
463.111	16479.15
463.316	16573.36
463.522	16249.78
463.727	15977.4
463.932	16124.85
464.138	15958.97
464.343	15819.71
464.549	15506.37
464.754	15862.71
464.959	15852.47
465.165	15721.4
465.37	15012.81
465.575	14709.71
465.781	15074.24
465.986	15401.92
466.191	14779.34
466.397	14447.57
466.602	14005.2
466.807	14466
467.012	14363.6
467.218	14136.27
