Data from USB4F104151__65__11-31-00-709.txt Node

Date: Fri Mar 14 11:31:00 EDT 2025
User: louis
Spectrometer: USB4F10415
Trigger mode: 4
Integration Time (sec): 5.000000E-2
Scans to average: 1
Electric dark correction enabled: true
Nonlinearity correction enabled: false
Boxcar width: 0
XAxis mode: Wavelengths
Number of Pixels in Spectrum: 3648
>>>>>Begin Spectral Data<<<<<
178.204	-153.43
178.424	-153.43
178.644	-153.43
178.864	-137.04
179.084	-102.23
179.304	-51.03
179.524	-22.36
179.744	22.7
179.964	67.75
180.184	-51.03
180.404	45.23
180.624	-8.02
180.844	-18.26
181.064	0.17
181.283	22.7
181.503	-28.5
181.723	20.65
181.943	6.31
182.163	106.67
182.383	2.22
182.602	22.7
182.822	55.47
183.042	12.46
183.262	6.31
183.482	-44.88
183.701	26.79
183.921	37.03
184.141	6.31
184.361	75.95
184.58	65.71
184.8	53.42
185.02	-34.64
185.239	133.29
185.459	6.31
185.679	14.51
185.898	-16.21
186.118	145.58
186.338	4.27
186.557	108.71
186.777	18.6
186.997	28.84
187.216	43.18
187.436	133.29
187.655	80.04
187.875	30.89
188.095	75.95
188.314	26.79
188.534	114.86
188.753	-26.45
188.973	28.84
189.192	53.42
189.412	14.51
189.631	8.36
189.851	-8.02
190.07	63.66
190.29	-75.6
190.509	39.08
190.729	12.46
190.948	55.47
191.168	166.06
191.387	34.99
191.607	2.22
191.826	61.61
192.045	-14.17
192.265	-1.88
192.484	-57.17
192.704	26.79
192.923	30.89
193.142	139.43
193.362	20.65
193.581	16.55
193.8	39.08
194.02	37.03
194.239	32.94
194.458	59.56
194.678	49.32
194.897	102.57
195.116	12.46
195.335	114.86
195.555	43.18
195.774	47.27
195.993	69.8
196.212	22.7
196.432	-22.36
196.651	37.03
196.87	47.27
197.089	104.62
197.308	73.9
197.528	112.81
197.747	14.51
197.966	22.7
198.185	96.43
198.404	-38.74
198.623	71.85
198.842	67.75
199.062	18.6
199.281	55.47
199.5	-75.6
199.719	0.17
199.938	61.61
200.157	37.03
200.376	45.23
200.595	67.75
200.814	22.7
201.033	43.18
201.252	96.43
201.471	28.84
201.69	121
201.909	100.52
202.128	37.03
202.347	49.32
202.566	20.65
202.785	45.23
203.004	59.56
203.223	86.19
203.442	110.76
203.661	-24.4
203.879	71.85
204.098	100.52
204.317	63.66
204.536	86.19
204.755	6.31
204.974	69.8
205.193	39.08
205.411	133.29
205.63	57.51
205.849	88.23
206.068	0.17
206.287	45.23
206.505	137.38
206.724	71.85
206.943	26.79
207.162	-5.97
207.381	-18.26
207.599	22.7
207.818	20.65
208.037	16.55
208.255	6.31
208.474	30.89
208.693	59.56
208.911	55.47
209.13	77.99
209.349	77.99
209.567	2.22
209.786	110.76
210.005	47.27
210.223	51.37
210.442	-55.12
210.661	39.08
210.879	10.41
211.098	45.23
211.316	14.51
211.535	84.14
211.753	67.75
211.972	-69.46
212.191	65.71
212.409	47.27
212.628	28.84
212.846	-18.26
213.065	55.47
213.283	108.71
213.502	-10.07
213.72	12.46
213.938	55.47
214.157	4.27
214.375	116.9
214.594	-3.93
214.812	82.09
215.031	139.43
215.249	26.79
215.467	26.79
215.686	41.13
215.904	41.13
216.122	-5.97
216.341	63.66
216.559	86.19
216.778	88.23
216.996	14.51
217.214	39.08
217.432	14.51
217.651	20.65
217.869	26.79
218.087	71.85
218.306	-63.32
218.524	131.24
218.742	24.75
218.96	67.75
219.179	26.79
219.397	110.76
219.615	186.54
219.833	104.62
220.051	16.55
220.27	65.71
220.488	51.37
220.706	26.79
220.924	10.41
221.142	59.56
221.36	10.41
221.578	24.75
221.796	-8.02
222.015	-10.07
222.233	55.47
222.451	67.75
222.669	104.62
222.887	110.76
223.105	34.99
223.323	47.27
223.541	-51.03
223.759	34.99
223.977	55.47
224.195	112.81
224.413	14.51
224.631	51.37
224.849	18.6
225.067	116.9
225.285	30.89
225.503	37.03
225.721	18.6
225.939	18.6
226.157	2.22
226.375	84.14
226.592	-1.88
226.81	63.66
227.028	53.42
227.246	65.71
227.464	82.09
227.682	51.37
227.9	55.47
228.117	-1.88
228.335	94.38
228.553	24.75
228.771	121
228.989	110.76
229.206	43.18
229.424	8.36
229.642	32.94
229.86	30.89
230.077	47.27
230.295	86.19
230.513	100.52
230.731	39.08
230.948	92.33
231.166	71.85
231.384	28.84
231.601	-3.93
231.819	37.03
232.037	77.99
232.254	39.08
232.472	57.51
232.689	28.84
232.907	37.03
233.125	32.94
233.342	41.13
233.56	-3.93
233.777	104.62
233.995	-1.88
234.213	59.56
234.43	53.42
234.648	-77.65
234.865	47.27
235.083	53.42
235.3	112.81
235.518	59.56
235.735	143.53
235.953	88.23
236.17	65.71
236.388	22.7
236.605	73.9
236.822	110.76
237.04	67.75
237.257	41.13
237.475	16.55
237.692	28.84
237.909	12.46
238.127	49.32
238.344	-3.93
238.562	34.99
238.779	14.51
238.996	2.22
239.214	-73.56
239.431	53.42
239.648	51.37
239.865	28.84
240.083	67.75
240.3	80.04
240.517	30.89
240.735	94.38
240.952	47.27
241.169	149.67
241.386	114.86
241.603	73.9
241.821	22.7
242.038	71.85
242.255	80.04
242.472	-71.51
242.689	110.76
242.907	67.75
243.124	-5.97
243.341	59.56
243.558	8.36
243.775	-75.6
243.992	-61.27
244.209	55.47
244.426	131.24
244.643	-8.02
244.86	2.22
245.078	65.71
245.295	34.99
245.512	2.22
245.729	-18.26
245.946	53.42
246.163	-3.93
246.38	14.51
246.597	61.61
246.814	20.65
247.031	59.56
247.248	57.51
247.464	-20.31
247.681	-1.88
247.898	77.99
248.115	118.95
248.332	71.85
248.549	22.7
248.766	135.34
248.983	12.46
249.2	90.28
249.417	100.52
249.633	-10.07
249.85	67.75
250.067	10.41
250.284	55.47
250.501	-34.64
250.717	127.14
250.934	30.89
251.151	80.04
251.368	96.43
251.585	82.09
251.801	63.66
252.018	47.27
252.235	18.6
252.451	39.08
252.668	49.32
252.885	63.66
253.102	-20.31
253.318	-22.36
253.535	32.94
253.752	0.17
253.968	71.85
254.185	-46.93
254.401	22.7
254.618	22.7
254.835	-14.17
255.051	88.23
255.268	75.95
255.484	61.61
255.701	-75.6
255.917	61.61
256.134	55.47
256.351	26.79
256.567	-46.93
256.784	55.47
257	6.31
257.217	86.19
257.433	37.03
257.65	65.71
257.866	49.32
258.082	14.51
258.299	-24.4
258.515	80.04
258.732	-26.45
258.948	86.19
259.165	55.47
259.381	26.79
259.597	104.62
259.814	51.37
260.03	26.79
260.246	-20.31
260.463	71.85
260.679	67.75
260.895	80.04
261.112	86.19
261.328	82.09
261.544	2.22
261.761	133.29
261.977	30.89
262.193	67.75
262.409	84.14
262.626	141.48
262.842	67.75
263.058	-18.26
263.274	88.23
263.49	100.52
263.707	82.09
263.923	-1.88
264.139	8.36
264.355	92.33
264.571	129.19
264.787	30.89
265.004	102.57
265.22	34.99
265.436	22.7
265.652	14.51
265.868	43.18
266.084	22.7
266.3	84.14
266.516	-34.64
266.732	28.84
266.948	30.89
267.164	53.42
267.38	55.47
267.596	45.23
267.812	129.19
268.028	-42.84
268.244	61.61
268.46	4.27
268.676	30.89
268.892	61.61
269.108	18.6
269.324	45.23
269.54	-5.97
269.756	22.7
269.972	-26.45
270.188	96.43
270.403	16.55
270.619	45.23
270.835	-3.93
271.051	18.6
271.267	-20.31
271.483	18.6
271.698	41.13
271.914	18.6
272.13	-18.26
272.346	63.66
272.562	39.08
272.777	51.37
272.993	-28.5
273.209	37.03
273.425	-38.74
273.64	-10.07
273.856	57.51
274.072	55.47
274.287	-5.97
274.503	96.43
274.719	6.31
274.934	-28.5
275.15	8.36
275.366	67.75
275.581	-22.36
275.797	2.22
276.012	30.89
276.228	14.51
276.444	30.89
276.659	82.09
276.875	12.46
277.09	65.71
277.306	-59.22
277.521	71.85
277.737	-22.36
277.952	47.27
278.168	-10.07
278.383	24.75
278.599	96.43
278.814	67.75
279.03	100.52
279.245	55.47
279.461	43.18
279.676	30.89
279.892	32.94
280.107	14.51
280.322	-26.45
280.538	47.27
280.753	-96.08
280.969	61.61
281.184	104.62
281.399	69.8
281.615	-18.26
281.83	26.79
282.045	30.89
282.26	10.41
282.476	61.61
282.691	96.43
282.906	94.38
283.122	41.13
283.337	-46.93
283.552	-12.12
283.767	-5.97
283.983	131.24
284.198	20.65
284.413	24.75
284.628	0.17
284.843	75.95
285.058	22.7
285.274	69.8
285.489	22.7
285.704	102.57
285.919	20.65
286.134	104.62
286.349	61.61
286.564	10.41
286.779	-12.12
286.995	47.27
287.21	-10.07
287.425	45.23
287.64	34.99
287.855	53.42
288.07	61.61
288.285	39.08
288.5	28.84
288.715	24.75
288.93	22.7
289.145	8.36
289.36	12.46
289.575	57.51
289.79	135.34
290.004	-22.36
290.219	73.9
290.434	-79.7
290.649	22.7
290.864	20.65
291.079	39.08
291.294	88.23
291.509	-34.64
291.724	49.32
291.938	20.65
292.153	37.03
292.368	-5.97
292.583	94.38
292.798	63.66
293.012	63.66
293.227	98.47
293.442	39.08
293.657	20.65
293.871	61.61
294.086	77.99
294.301	137.38
294.516	61.61
294.73	-30.55
294.945	55.47
295.16	30.89
295.374	135.34
295.589	110.76
295.804	34.99
296.018	84.14
296.233	59.56
296.447	63.66
296.662	-8.02
296.877	59.56
297.091	45.23
297.306	92.33
297.52	0.17
297.735	88.23
297.949	80.04
298.164	86.19
298.378	10.41
298.593	12.46
298.807	-10.07
299.022	14.51
299.236	53.42
299.451	2.22
299.665	43.18
299.88	37.03
300.094	51.37
300.309	84.14
300.523	118.95
300.737	-30.55
300.952	55.47
301.166	116.9
301.381	12.46
301.595	53.42
301.809	116.9
302.024	-34.64
302.238	22.7
302.452	102.57
302.667	8.36
302.881	57.51
303.095	51.37
303.309	61.61
303.524	28.84
303.738	22.7
303.952	-14.17
304.166	53.42
304.381	-10.07
304.595	67.75
304.809	43.18
305.023	90.28
305.237	-3.93
305.452	20.65
305.666	26.79
305.88	-22.36
306.094	80.04
306.308	55.47
306.522	45.23
306.736	133.29
306.95	102.57
307.164	47.27
307.379	127.14
307.593	125.1
307.807	26.79
308.021	-3.93
308.235	86.19
308.449	-38.74
308.663	30.89
308.877	47.27
309.091	96.43
309.305	28.84
309.519	51.37
309.733	2.22
309.947	-44.88
310.161	86.19
310.374	34.99
310.588	69.8
310.802	37.03
311.016	12.46
311.23	14.51
311.444	-12.12
311.658	92.33
311.872	104.62
312.085	69.8
312.299	88.23
312.513	65.71
312.727	67.75
312.941	53.42
313.154	-38.74
313.368	-22.36
313.582	-1.88
313.796	32.94
314.009	-20.31
314.223	86.19
314.437	59.56
314.651	82.09
314.864	2.22
315.078	55.47
315.292	77.99
315.505	28.84
315.719	32.94
315.933	41.13
316.146	-26.45
316.36	-5.97
316.573	121
316.787	14.51
317.001	10.41
317.214	59.56
317.428	-10.07
317.641	-5.97
317.855	45.23
318.068	26.79
318.282	96.43
318.495	94.38
318.709	67.75
318.922	61.61
319.136	110.76
319.349	61.61
319.563	176.3
319.776	55.47
319.99	28.84
320.203	121
320.417	63.66
320.63	22.7
320.843	170.15
321.057	-5.97
321.27	-8.02
321.483	6.31
321.697	30.89
321.91	57.51
322.124	71.85
322.337	61.61
322.55	45.23
322.763	45.23
322.977	32.94
323.19	20.65
323.403	45.23
323.617	12.46
323.83	63.66
324.043	-30.55
324.256	73.9
324.469	94.38
324.683	73.9
324.896	75.95
325.109	20.65
325.322	61.61
325.535	43.18
325.748	90.28
325.962	30.89
326.175	12.46
326.388	71.85
326.601	90.28
326.814	63.66
327.027	55.47
327.24	90.28
327.453	-1.88
327.666	4.27
327.879	37.03
328.092	16.55
328.305	69.8
328.518	-10.07
328.731	30.89
328.944	34.99
329.157	102.57
329.37	12.46
329.583	77.99
329.796	65.71
330.009	47.27
330.222	80.04
330.435	102.57
330.648	96.43
330.861	-5.97
331.073	22.7
331.286	65.71
331.499	59.56
331.712	75.95
331.925	77.99
332.138	2.22
332.35	75.95
332.563	-12.12
332.776	135.34
332.989	41.13
333.202	22.7
333.414	84.14
333.627	39.08
333.84	30.89
334.053	59.56
334.265	-14.17
334.478	32.94
334.691	43.18
334.903	63.66
335.116	59.56
335.329	106.67
335.541	45.23
335.754	61.61
335.966	-3.93
336.179	100.52
336.392	118.95
336.604	39.08
336.817	34.99
337.029	69.8
337.242	22.7
337.454	6.31
337.667	39.08
337.88	116.9
338.092	69.8
338.305	121
338.517	53.42
338.729	106.67
338.942	100.52
339.154	80.04
339.367	39.08
339.579	45.23
339.792	39.08
340.004	53.42
340.217	10.41
340.429	63.66
340.641	-20.31
340.854	-8.02
341.066	30.89
341.278	57.51
341.491	43.18
341.703	-1.88
341.915	-18.26
342.128	24.75
342.34	22.7
342.552	61.61
342.764	47.27
342.977	63.66
343.189	34.99
343.401	45.23
343.613	75.95
343.826	51.37
344.038	-3.93
344.25	24.75
344.462	14.51
344.674	14.51
344.886	-26.45
345.099	94.38
345.311	14.51
345.523	12.46
345.735	22.7
345.947	20.65
346.159	41.13
346.371	14.51
346.583	28.84
346.795	102.57
347.007	51.37
347.219	53.42
347.431	22.7
347.643	8.36
347.855	4.27
348.067	32.94
348.279	63.66
348.491	37.03
348.703	18.6
348.915	22.7
349.127	61.61
349.339	51.37
349.551	75.95
349.763	96.43
349.975	22.7
350.187	22.7
350.399	100.52
350.61	30.89
350.822	-1.88
351.034	112.81
351.246	47.27
351.458	77.99
351.669	12.46
351.881	24.75
352.093	112.81
352.305	67.75
352.517	4.27
352.728	14.51
352.94	98.47
353.152	108.71
353.363	39.08
353.575	45.23
353.787	71.85
353.999	96.43
354.21	84.14
354.422	10.41
354.633	90.28
354.845	71.85
355.057	161.96
355.268	51.37
355.48	37.03
355.692	0.17
355.903	51.37
356.115	-10.07
356.326	-3.93
356.538	194.73
356.749	100.52
356.961	118.95
357.172	28.84
357.384	104.62
357.595	139.43
357.807	-22.36
358.018	-44.88
358.23	20.65
358.441	63.66
358.653	90.28
358.864	28.84
359.075	53.42
359.287	71.85
359.498	80.04
359.709	51.37
359.921	14.51
360.132	22.7
360.344	-14.17
360.555	-30.55
360.766	57.51
360.977	20.65
361.189	88.23
361.4	-8.02
361.611	24.75
361.823	67.75
362.034	51.37
362.245	47.27
362.456	47.27
362.667	80.04
362.879	14.51
363.09	22.7
363.301	88.23
363.512	18.6
363.723	20.65
363.935	61.61
364.146	32.94
364.357	22.7
364.568	8.36
364.779	6.31
364.99	121
365.201	63.66
365.412	112.81
365.623	-18.26
365.834	12.46
366.045	2.22
366.256	86.19
366.467	20.65
366.678	32.94
366.889	100.52
367.1	34.99
367.311	84.14
367.522	34.99
367.733	51.37
367.944	30.89
368.155	53.42
368.366	77.99
368.577	71.85
368.788	114.86
368.999	63.66
369.209	37.03
369.42	145.58
369.631	170.15
369.842	96.43
370.053	55.47
370.264	69.8
370.474	30.89
370.685	49.32
370.896	100.52
371.107	53.42
371.317	61.61
371.528	86.19
371.739	55.47
371.95	73.9
372.16	129.19
372.371	-1.88
372.582	30.89
372.792	22.7
373.003	53.42
373.214	10.41
373.424	116.9
373.635	123.05
373.846	34.99
374.056	88.23
374.267	71.85
374.477	37.03
374.688	34.99
374.898	57.51
375.109	24.75
375.319	55.47
375.53	34.99
375.74	32.94
375.951	75.95
376.161	96.43
376.372	100.52
376.582	-5.97
376.793	127.14
377.003	86.19
377.214	73.9
377.424	55.47
377.635	49.32
377.845	34.99
378.055	121
378.266	-10.07
378.476	61.61
378.686	108.71
378.897	22.7
379.107	86.19
379.317	77.99
379.528	77.99
379.738	102.57
379.948	24.75
380.158	141.48
380.369	104.62
380.579	92.33
380.789	-36.69
380.999	137.38
381.21	88.23
381.42	82.09
381.63	34.99
381.84	80.04
382.05	82.09
382.261	86.19
382.471	47.27
382.681	-14.17
382.891	110.76
383.101	80.04
383.311	-14.17
383.521	34.99
383.731	104.62
383.941	47.27
384.151	47.27
384.361	14.51
384.571	67.75
384.781	86.19
384.991	143.53
385.201	137.38
385.411	55.47
385.621	-5.97
385.831	41.13
386.041	65.71
386.251	94.38
386.461	135.34
386.671	24.75
386.881	-1.88
387.091	69.8
387.301	6.31
387.511	47.27
387.72	45.23
387.93	96.43
388.14	-18.26
388.35	57.51
388.56	59.56
388.769	30.89
388.979	59.56
389.189	71.85
389.399	61.61
389.609	47.27
389.818	104.62
390.028	65.71
390.238	32.94
390.447	-67.41
390.657	39.08
390.867	96.43
391.076	43.18
391.286	45.23
391.496	-18.26
391.705	30.89
391.915	90.28
392.125	43.18
392.334	84.14
392.544	153.77
392.753	22.7
392.963	92.33
393.172	77.99
393.382	112.81
393.591	108.71
393.801	41.13
394.01	129.19
394.22	47.27
394.429	110.76
394.639	-22.36
394.848	88.23
395.058	45.23
395.267	34.99
395.477	121
395.686	94.38
395.895	123.05
396.105	141.48
396.314	96.43
396.524	20.65
396.733	129.19
396.942	129.19
397.152	96.43
397.361	123.05
397.57	75.95
397.78	133.29
397.989	80.04
398.198	159.91
398.407	86.19
398.617	151.72
398.826	80.04
399.035	123.05
399.244	133.29
399.453	137.38
399.663	129.19
399.872	116.9
400.081	75.95
400.29	153.77
400.499	57.51
400.708	182.44
400.917	63.66
401.127	121
401.336	45.23
401.545	164.01
401.754	147.62
401.963	108.71
402.172	104.62
402.381	110.76
402.59	73.9
402.799	65.71
403.008	104.62
403.217	141.48
403.426	209.06
403.635	84.14
403.844	61.61
404.053	67.75
404.262	71.85
404.471	178.34
404.68	141.48
404.888	153.77
405.097	77.99
405.306	153.77
405.515	106.67
405.724	86.19
405.933	178.34
406.142	133.29
406.35	227.5
406.559	80.04
406.768	198.82
406.977	153.77
407.185	157.86
407.394	116.9
407.603	174.25
407.812	137.38
408.02	176.3
408.229	196.78
408.438	141.48
408.646	225.45
408.855	211.11
409.064	190.63
409.272	151.72
409.481	290.98
409.69	229.54
409.898	221.35
410.107	247.97
410.315	301.22
410.524	215.21
410.733	333.99
410.941	264.36
411.15	262.31
411.358	309.41
411.567	309.41
411.775	325.8
411.984	344.23
412.192	362.66
412.401	362.66
412.609	389.28
412.818	381.09
413.026	428.2
413.234	295.08
413.443	362.66
413.651	344.23
413.86	438.44
414.068	563.36
414.276	506.02
414.485	553.12
414.693	536.74
414.901	614.56
415.11	522.4
415.318	581.79
415.526	579.75
415.734	589.99
415.943	688.29
416.151	710.82
416.359	612.51
416.567	708.77
416.776	698.53
416.984	762.02
417.192	854.17
417.4	764.06
417.608	696.48
417.817	755.87
418.025	925.85
418.233	946.33
418.441	858.27
418.649	841.89
418.857	960.67
419.065	995.48
419.273	989.34
419.481	907.42
419.689	1110.17
419.897	1169.56
420.105	1253.53
420.313	1122.46
420.521	1222.81
420.729	1388.69
420.937	1284.25
421.145	1380.5
421.353	1317.01
421.561	1452.18
421.769	1511.57
421.977	1599.63
422.185	1566.87
422.393	1665.17
422.601	1779.86
422.809	1816.72
423.017	1714.32
423.224	1837.2
423.432	1939.6
423.64	1917.07
423.848	2089.1
424.056	2082.95
424.263	2142.35
424.471	2238.6
424.679	2324.62
424.887	2353.29
425.094	2476.16
425.302	2367.62
425.51	2531.46
425.718	2693.25
425.925	2603.14
426.133	2627.71
426.341	2809.98
426.548	2939.01
426.756	2928.77
426.964	3078.27
427.171	3266.68
427.379	3371.13
427.586	3319.93
427.794	3657.84
428.001	3668.08
428.209	3799.15
428.417	3586.16
428.624	3993.71
428.832	4100.2
429.039	3981.42
429.247	3930.22
429.454	4368.49
429.662	4618.34
429.869	4370.54
430.076	4710.5
430.284	4649.06
430.491	4724.83
430.699	4952.16
430.906	5042.27
431.114	4974.69
431.321	5228.63
431.528	5195.87
431.736	5494.87
431.943	5789.78
432.15	5709.91
432.358	5845.07
432.565	6248.52
432.772	6062.16
432.979	6662.21
433.187	6682.69
433.394	6371.4
433.601	6948.93
433.808	6985.79
434.016	6987.84
434.223	7387.19
434.43	7647.29
434.637	7481.4
434.844	8101.94
435.052	8026.16
435.259	8194.09
435.466	8163.37
435.673	8081.46
435.88	8599.59
436.087	9009.19
436.294	9091.1
436.501	8988.71
436.708	9029.66
436.915	9308.19
437.122	9818.13
437.329	9586.71
437.537	10002.45
437.743	10252.3
437.95	10369.04
438.157	10698.76
438.364	10958.85
438.571	10985.48
438.778	10911.75
438.985	12161.01
439.192	11849.72
439.399	12060.66
439.606	11751.42
439.813	12509.16
440.02	13350.88
440.227	12769.26
440.433	12957.67
440.64	13096.93
440.847	13039.59
441.054	13479.9
441.261	14305.23
441.467	14104.53
441.674	14448.59
441.881	14991.3
442.088	15003.59
442.294	14909.38
442.501	15103.94
442.708	15513.53
442.914	16324.53
443.121	16932.78
443.328	16322.48
443.534	17477.54
443.741	16781.23
443.948	16627.63
444.154	17967
444.361	17905.56
444.568	18327.44
444.774	18007.96
444.981	18149.27
445.187	19087.24
445.394	19412.87
445.6	19359.62
445.807	21438.31
446.013	20395.89
446.22	20754.29
446.426	21544.8
446.633	21729.12
446.839	22402.9
447.046	21288.81
447.252	22507.35
447.459	22918.99
447.665	22372.18
447.871	23584.58
448.078	24643.38
448.284	23531.33
448.491	24274.74
448.697	24975.15
448.903	25198.38
449.11	25550.63
449.316	24782.64
449.522	25786.15
449.728	26267.42
449.935	26361.62
450.141	26230.55
450.347	27109.13
450.553	26279.71
450.76	26586.9
450.966	27105.04
451.172	27240.2
451.378	27553.54
451.584	27098.89
451.791	27557.64
451.997	27762.44
452.203	28301.05
452.409	28022.53
452.615	27647.75
452.821	26748.69
453.027	26574.61
453.233	27797.25
453.44	26715.92
453.646	26937.1
453.852	27191.05
454.058	27502.34
454.264	26806.03
454.47	27057.93
454.676	26578.71
454.882	27537.16
455.088	24801.07
455.294	25593.64
455.5	25745.19
455.705	26373.91
455.911	25225
456.117	24366.9
456.323	23955.26
456.529	22777.68
456.735	23895.87
456.941	23277.38
457.147	22658.9
457.352	22239.06
457.558	21862.24
457.764	22105.95
457.97	21444.45
458.176	20729.71
458.381	20932.46
458.587	20062.07
458.793	20096.89
458.999	18866.06
459.204	20178.81
459.41	19593.09
459.616	18507.66
459.821	18403.22
460.027	18296.72
460.233	17751.96
460.438	17180.58
460.644	17250.21
460.85	16555.95
461.055	16183.22
461.261	16418.74
461.466	15132.61
461.672	14503.89
461.878	15544.25
462.083	14565.32
462.289	14139.35
462.494	14094.29
462.7	13651.93
462.905	13068.26
463.111	13563.87
463.316	13371.36
463.522	13373.41
463.727	13385.69
463.932	13254.62
464.138	13299.68
464.343	13123.55
464.549	12922.85
464.754	13295.58
464.959	13309.92
465.165	13045.73
465.37	12466.16
465.575	12269.55
465.781	12802.02
465.986	12824.55
466.191	12445.68
466.397	12126.19
466.602	11386.88
466.807	11843.57
467.012	11941.88
467.218	11823.09
467.423	11806.71
