Data from USB4F104151__72__11-31-35-655.txt Node

Date: Fri Mar 14 11:31:35 EDT 2025
User: louis
Spectrometer: USB4F10415
Trigger mode: 4
Integration Time (sec): 5.000000E-2
Scans to average: 1
Electric dark correction enabled: true
Nonlinearity correction enabled: false
Boxcar width: 0
XAxis mode: Wavelengths
Number of Pixels in Spectrum: 3648
>>>>>Begin Spectral Data<<<<<
178.204	-97.45
178.424	-97.45
178.644	-97.45
178.864	-220.33
179.084	-179.37
179.304	-19.63
179.524	-17.58
179.744	7
179.964	68.44
180.184	-44.2
180.404	-1.19
180.624	27.48
180.844	-38.06
181.064	9.05
181.283	-29.87
181.503	2.9
181.723	35.67
181.943	-146.6
182.163	47.96
182.383	-58.54
182.602	107.35
182.822	25.43
183.042	33.62
183.262	35.67
183.482	-25.77
183.701	-40.11
183.921	-1.19
184.141	19.29
184.361	-48.3
184.58	15.19
184.8	41.81
185.02	45.91
185.239	17.24
185.459	25.43
185.679	41.81
185.898	-70.83
186.118	84.82
186.338	66.39
186.557	11.09
186.777	-29.87
186.997	-81.07
187.216	0.85
187.436	113.49
187.655	2.9
187.875	86.87
188.095	7
188.314	-3.24
188.534	56.15
188.753	-5.29
188.973	68.44
189.192	21.33
189.412	133.97
189.631	27.48
189.851	2.9
190.07	2.9
190.29	-23.72
190.509	-38.06
190.729	76.63
190.948	27.48
191.168	146.26
191.387	9.05
191.607	-13.48
191.826	-15.53
192.045	-7.34
192.265	-1.19
192.484	35.67
192.704	78.68
192.923	-56.49
193.142	58.2
193.362	78.68
193.581	52.05
193.8	-83.11
194.02	29.52
194.239	19.29
194.458	43.86
194.678	11.09
194.897	33.62
195.116	-64.68
195.335	-15.53
195.555	-15.53
195.774	11.09
195.993	-5.29
196.212	64.34
196.432	27.48
196.651	41.81
196.87	11.09
197.089	45.91
197.308	117.59
197.528	27.48
197.747	11.09
197.966	-13.48
198.185	70.48
198.404	-128.17
198.623	37.72
198.842	33.62
199.062	70.48
199.281	146.26
199.5	-27.82
199.719	60.24
199.938	7
200.157	66.39
200.376	52.05
200.595	35.67
200.814	-54.44
201.033	-13.48
201.252	66.39
201.471	68.44
201.69	-23.72
201.909	45.91
202.128	11.09
202.347	64.34
202.566	7
202.785	0.85
203.004	-50.35
203.223	88.92
203.442	25.43
203.661	-9.39
203.879	54.1
204.098	52.05
204.317	-29.87
204.536	101.2
204.755	56.15
204.974	60.24
205.193	45.91
205.411	74.58
205.63	35.67
205.849	-11.43
206.068	33.62
206.287	58.2
206.505	-9.39
206.724	21.33
206.943	80.72
207.162	29.52
207.381	70.48
207.599	33.62
207.818	-11.43
208.037	39.76
208.255	-46.25
208.474	27.48
208.693	-29.87
208.911	-33.96
209.13	-19.63
209.349	7
209.567	74.58
209.786	41.81
210.005	76.63
210.223	33.62
210.442	-7.34
210.661	29.52
210.879	-46.25
211.098	-29.87
211.316	37.72
211.535	101.2
211.753	103.25
211.972	21.33
212.191	-3.24
212.409	-46.25
212.628	-42.15
212.846	2.9
213.065	93.01
213.283	66.39
213.502	35.67
213.72	31.57
213.938	50
214.157	-9.39
214.375	27.48
214.594	-7.34
214.812	93.01
215.031	-52.39
215.249	-9.39
215.467	76.63
215.686	-1.19
215.904	68.44
216.122	43.86
216.341	-29.87
216.559	13.14
216.778	84.82
216.996	50
217.214	-21.67
217.432	-5.29
217.651	-38.06
217.869	-17.58
218.087	17.24
218.306	58.2
218.524	31.57
218.742	-27.82
218.96	39.76
219.179	7
219.397	-1.19
219.615	109.4
219.833	70.48
220.051	27.48
220.27	70.48
220.488	84.82
220.706	2.9
220.924	31.57
221.142	-7.34
221.36	80.72
221.578	101.2
221.796	21.33
222.015	11.09
222.233	23.38
222.451	66.39
222.669	35.67
222.887	33.62
223.105	-23.72
223.323	19.29
223.541	11.09
223.759	97.11
223.977	68.44
224.195	101.2
224.413	43.86
224.631	78.68
224.849	19.29
225.067	113.49
225.285	-54.44
225.503	-29.87
225.721	35.67
225.939	21.33
226.157	21.33
226.375	109.4
226.592	33.62
226.81	33.62
227.028	35.67
227.246	47.96
227.464	27.48
227.682	-21.67
227.9	-29.87
228.117	15.19
228.335	-38.06
228.553	-62.63
228.771	62.29
228.989	15.19
229.206	82.77
229.424	13.14
229.642	-21.67
229.86	9.05
230.077	11.09
230.295	7
230.513	27.48
230.731	-17.58
230.948	60.24
231.166	58.2
231.384	29.52
231.601	15.19
231.819	39.76
232.037	43.86
232.254	23.38
232.472	-70.83
232.689	-23.72
232.907	4.95
233.125	-29.87
233.342	27.48
233.56	-38.06
233.777	-15.53
233.995	-5.29
234.213	-21.67
234.43	-1.19
234.648	35.67
234.865	15.19
235.083	45.91
235.3	70.48
235.518	7
235.735	154.45
235.953	86.87
236.17	17.24
236.388	-23.72
236.605	2.9
236.822	62.29
237.04	133.97
237.257	7
237.475	15.19
237.692	31.57
237.909	15.19
238.127	-9.39
238.344	-7.34
238.562	41.81
238.779	-109.74
238.996	-17.58
239.214	2.9
239.431	43.86
239.648	68.44
239.865	-15.53
240.083	11.09
240.3	7
240.517	-33.96
240.735	27.48
240.952	78.68
241.169	-50.35
241.386	-9.39
241.603	82.77
241.821	7
242.038	50
242.255	72.53
242.472	23.38
242.689	29.52
242.907	50
243.124	35.67
243.341	-11.43
243.558	-5.29
243.775	43.86
243.992	11.09
244.209	-19.63
244.426	41.81
244.643	35.67
244.86	-58.54
245.078	60.24
245.295	95.06
245.512	-3.24
245.729	4.95
245.946	93.01
246.163	39.76
246.38	-33.96
246.597	23.38
246.814	33.62
247.031	80.72
247.248	43.86
247.464	-7.34
247.681	0.85
247.898	43.86
248.115	-3.24
248.332	-72.87
248.549	117.59
248.766	82.77
248.983	27.48
249.2	31.57
249.417	35.67
249.633	-29.87
249.85	39.76
250.067	-11.43
250.284	13.14
250.501	54.1
250.717	13.14
250.934	-33.96
251.151	-5.29
251.368	7
251.585	11.09
251.801	19.29
252.018	4.95
252.235	58.2
252.451	27.48
252.668	-13.48
252.885	80.72
253.102	-15.53
253.318	37.72
253.535	68.44
253.752	-1.19
253.968	19.29
254.185	-56.49
254.401	31.57
254.618	13.14
254.835	50
255.051	90.96
255.268	105.3
255.484	-9.39
255.701	13.14
255.917	52.05
256.134	7
256.351	7
256.567	90.96
256.784	-11.43
257	15.19
257.217	27.48
257.433	60.24
257.65	41.81
257.866	109.4
258.082	-64.68
258.299	35.67
258.515	101.2
258.732	52.05
258.948	-11.43
259.165	54.1
259.381	-13.48
259.597	29.52
259.814	39.76
260.03	58.2
260.246	76.63
260.463	76.63
260.679	70.48
260.895	-29.87
261.112	54.1
261.328	25.43
261.544	56.15
261.761	19.29
261.977	-42.15
262.193	-21.67
262.409	37.72
262.626	105.3
262.842	88.92
263.058	-5.29
263.274	88.92
263.49	-7.34
263.707	95.06
263.923	74.58
264.139	-31.91
264.355	7
264.571	64.34
264.787	9.05
265.004	60.24
265.22	11.09
265.436	-15.53
265.652	-21.67
265.868	19.29
266.084	2.9
266.3	13.14
266.516	27.48
266.732	4.95
266.948	19.29
267.164	33.62
267.38	-9.39
267.596	43.86
267.812	88.92
268.028	-23.72
268.244	17.24
268.46	15.19
268.676	13.14
268.892	15.19
269.108	-54.44
269.324	2.9
269.54	2.9
269.756	13.14
269.972	-29.87
270.188	19.29
270.403	56.15
270.619	-15.53
270.835	-17.58
271.051	0.85
271.267	-72.87
271.483	11.09
271.698	39.76
271.914	4.95
272.13	78.68
272.346	-17.58
272.562	25.43
272.777	56.15
272.993	11.09
273.209	-36.01
273.425	72.53
273.64	-62.63
273.856	60.24
274.072	35.67
274.287	33.62
274.503	2.9
274.719	-23.72
274.934	33.62
275.15	-79.02
275.366	-21.67
275.581	-13.48
275.797	43.86
276.012	60.24
276.228	-54.44
276.444	0.85
276.659	58.2
276.875	35.67
277.09	-38.06
277.306	43.86
277.521	144.21
277.737	19.29
277.952	58.2
278.168	4.95
278.383	33.62
278.599	-1.19
278.814	50
279.03	21.33
279.245	88.92
279.461	9.05
279.676	97.11
279.892	-25.77
280.107	45.91
280.322	-3.24
280.538	-9.39
280.753	-5.29
280.969	78.68
281.184	2.9
281.399	90.96
281.615	58.2
281.83	-1.19
282.045	-33.96
282.26	-81.07
282.476	56.15
282.691	43.86
282.906	-31.91
283.122	17.24
283.337	64.34
283.552	88.92
283.767	-11.43
283.983	27.48
284.198	-42.15
284.413	17.24
284.628	-29.87
284.843	101.2
285.058	97.11
285.274	60.24
285.489	-74.92
285.704	39.76
285.919	2.9
286.134	37.72
286.349	-9.39
286.564	19.29
286.779	27.48
286.995	11.09
287.21	-87.21
287.425	64.34
287.64	-13.48
287.855	80.72
288.07	-23.72
288.285	-7.34
288.5	56.15
288.715	39.76
288.93	15.19
289.145	-46.25
289.36	-17.58
289.575	105.3
289.79	68.44
290.004	-15.53
290.219	84.82
290.434	-13.48
290.649	-50.35
290.864	-21.67
291.079	47.96
291.294	37.72
291.509	50
291.724	-79.02
291.938	-5.29
292.153	68.44
292.368	-25.77
292.583	78.68
292.798	52.05
293.012	2.9
293.227	58.2
293.442	17.24
293.657	47.96
293.871	-23.72
294.086	82.77
294.301	97.11
294.516	11.09
294.73	74.58
294.945	60.24
295.16	72.53
295.374	7
295.589	68.44
295.804	-23.72
296.018	-1.19
296.233	95.06
296.447	21.33
296.662	-3.24
296.877	29.52
297.091	31.57
297.306	9.05
297.52	-17.58
297.735	45.91
297.949	-21.67
298.164	33.62
298.378	-5.29
298.593	2.9
298.807	25.43
299.022	19.29
299.236	33.62
299.451	54.1
299.665	0.85
299.88	2.9
300.094	68.44
300.309	72.53
300.523	99.16
300.737	-13.48
300.952	7
301.166	29.52
301.381	35.67
301.595	47.96
301.809	47.96
302.024	-38.06
302.238	45.91
302.452	82.77
302.667	-74.92
302.881	27.48
303.095	64.34
303.309	58.2
303.524	35.67
303.738	-11.43
303.952	29.52
304.166	33.62
304.381	-27.82
304.595	107.35
304.809	-5.29
305.023	33.62
305.237	0.85
305.452	-13.48
305.666	-5.29
305.88	17.24
306.094	29.52
306.308	27.48
306.522	23.38
306.736	93.01
306.95	76.63
307.164	-23.72
307.379	-27.82
307.593	76.63
307.807	93.01
308.021	33.62
308.235	31.57
308.449	-1.19
308.663	-11.43
308.877	142.16
309.091	84.82
309.305	54.1
309.519	-17.58
309.733	-21.67
309.947	93.01
310.161	23.38
310.374	68.44
310.588	117.59
310.802	-29.87
311.016	39.76
311.23	-13.48
311.444	-50.35
311.658	15.19
311.872	47.96
312.085	60.24
312.299	58.2
312.513	105.3
312.727	35.67
312.941	-38.06
313.154	-25.77
313.368	17.24
313.582	29.52
313.796	23.38
314.009	-23.72
314.223	117.59
314.437	31.57
314.651	43.86
314.864	11.09
315.078	17.24
315.292	-1.19
315.505	23.38
315.719	90.96
315.933	9.05
316.146	-48.3
316.36	23.38
316.573	11.09
316.787	105.3
317.001	7
317.214	-42.15
317.428	9.05
317.641	-33.96
317.855	19.29
318.068	11.09
318.282	-9.39
318.495	41.81
318.709	27.48
318.922	35.67
319.136	72.53
319.349	33.62
319.563	0.85
319.776	70.48
319.99	-81.07
320.203	-31.91
320.417	-58.54
320.63	37.72
320.843	84.82
321.057	50
321.27	-27.82
321.483	43.86
321.697	86.87
321.91	-5.29
322.124	35.67
322.337	7
322.55	-5.29
322.763	45.91
322.977	-27.82
323.19	19.29
323.403	-15.53
323.617	113.49
323.83	56.15
324.043	88.92
324.256	25.43
324.469	78.68
324.683	54.1
324.896	0.85
325.109	90.96
325.322	-17.58
325.535	19.29
325.748	56.15
325.962	-25.77
326.175	72.53
326.388	101.2
326.601	35.67
326.814	-17.58
327.027	-48.3
327.24	80.72
327.453	-72.87
327.666	47.96
327.879	29.52
328.092	41.81
328.305	43.86
328.518	43.86
328.731	17.24
328.944	27.48
329.157	-7.34
329.37	-17.58
329.583	47.96
329.796	45.91
330.009	35.67
330.222	50
330.435	17.24
330.648	80.72
330.861	2.9
331.073	52.05
331.286	111.44
331.499	33.62
331.712	9.05
331.925	-38.06
332.138	-5.29
332.35	60.24
332.563	-62.63
332.776	70.48
332.989	-21.67
333.202	-17.58
333.414	31.57
333.627	35.67
333.84	27.48
334.053	9.05
334.265	17.24
334.478	-11.43
334.691	45.91
334.903	78.68
335.116	43.86
335.329	70.48
335.541	68.44
335.754	31.57
335.966	-48.3
336.179	0.85
336.392	-62.63
336.604	25.43
336.817	27.48
337.029	80.72
337.242	27.48
337.454	103.25
337.667	-29.87
337.88	27.48
338.092	50
338.305	11.09
338.517	-1.19
338.729	-15.53
338.942	70.48
339.154	25.43
339.367	15.19
339.579	43.86
339.792	-1.19
340.004	64.34
340.217	21.33
340.429	54.1
340.641	-5.29
340.854	15.19
341.066	11.09
341.278	99.16
341.491	9.05
341.703	29.52
341.915	2.9
342.128	19.29
342.34	47.96
342.552	15.19
342.764	19.29
342.977	41.81
343.189	13.14
343.401	29.52
343.613	25.43
343.826	2.9
344.038	-56.49
344.25	62.29
344.462	27.48
344.674	-1.19
344.886	-7.34
345.099	52.05
345.311	19.29
345.523	-23.72
345.735	-62.63
345.947	76.63
346.159	25.43
346.371	62.29
346.583	29.52
346.795	45.91
347.007	-19.63
347.219	-17.58
347.431	-13.48
347.643	15.19
347.855	-11.43
348.067	129.88
348.279	45.91
348.491	-25.77
348.703	-5.29
348.915	-1.19
349.127	-9.39
349.339	15.19
349.551	-19.63
349.763	43.86
349.975	41.81
350.187	70.48
350.399	56.15
350.61	2.9
350.822	15.19
351.034	23.38
351.246	39.76
351.458	17.24
351.669	60.24
351.881	9.05
352.093	70.48
352.305	72.53
352.517	78.68
352.728	78.68
352.94	-15.53
353.152	29.52
353.363	-38.06
353.575	9.05
353.787	52.05
353.999	52.05
354.21	62.29
354.422	43.86
354.633	27.48
354.845	39.76
355.057	2.9
355.268	43.86
355.48	23.38
355.692	7
355.903	-54.44
356.115	-17.58
356.326	-21.67
356.538	115.54
356.749	80.72
356.961	19.29
357.172	15.19
357.384	-42.15
357.595	86.87
357.807	-19.63
358.018	-29.87
358.23	35.67
358.441	52.05
358.653	41.81
358.864	0.85
359.075	-54.44
359.287	19.29
359.498	58.2
359.709	-29.87
359.921	15.19
360.132	9.05
360.344	56.15
360.555	70.48
360.766	47.96
360.977	15.19
361.189	84.82
361.4	-13.48
361.611	35.67
361.823	29.52
362.034	47.96
362.245	15.19
362.456	-7.34
362.667	15.19
362.879	-5.29
363.09	15.19
363.301	-29.87
363.512	-9.39
363.723	84.82
363.935	37.72
364.146	37.72
364.357	15.19
364.568	37.72
364.779	113.49
364.99	133.97
365.201	29.52
365.412	27.48
365.623	2.9
365.834	9.05
366.045	45.91
366.256	43.86
366.467	54.1
366.678	-29.87
366.889	19.29
367.1	60.24
367.311	39.76
367.522	2.9
367.733	-17.58
367.944	105.3
368.155	15.19
368.366	35.67
368.577	93.01
368.788	70.48
368.999	31.57
369.209	82.77
369.42	115.54
369.631	80.72
369.842	27.48
370.053	-9.39
370.264	-3.24
370.474	41.81
370.685	60.24
370.896	17.24
371.107	84.82
371.317	25.43
371.528	111.44
371.739	107.35
371.95	52.05
372.16	27.48
372.371	-70.83
372.582	25.43
372.792	127.83
373.003	33.62
373.214	-7.34
373.424	15.19
373.635	-19.63
373.846	-9.39
374.056	43.86
374.267	60.24
374.477	37.72
374.688	47.96
374.898	-7.34
375.109	2.9
375.319	19.29
375.53	86.87
375.74	0.85
375.951	54.1
376.161	31.57
376.372	23.38
376.582	-36.01
376.793	41.81
377.003	54.1
377.214	70.48
377.424	0.85
377.635	11.09
377.845	-46.25
378.055	111.44
378.266	9.05
378.476	115.54
378.686	17.24
378.897	25.43
379.107	43.86
379.317	45.91
379.528	-79.02
379.738	109.4
379.948	43.86
380.158	60.24
380.369	9.05
380.579	80.72
380.789	-5.29
380.999	86.87
381.21	-27.82
381.42	154.45
381.63	-27.82
381.84	160.59
382.05	76.63
382.261	76.63
382.471	74.58
382.681	15.19
382.891	27.48
383.101	37.72
383.311	23.38
383.521	74.58
383.731	35.67
383.941	90.96
384.151	-21.67
384.361	37.72
384.571	47.96
384.781	121.68
384.991	154.45
385.201	52.05
385.411	88.92
385.621	31.57
385.831	27.48
386.041	23.38
386.251	39.76
386.461	115.54
386.671	35.67
386.881	90.96
387.091	-9.39
387.301	43.86
387.511	60.24
387.72	27.48
387.93	72.53
388.14	-5.29
388.35	70.48
388.56	4.95
388.769	109.4
388.979	56.15
389.189	0.85
389.399	76.63
389.609	35.67
389.818	-46.25
390.028	9.05
390.238	27.48
390.447	4.95
390.657	93.01
390.867	19.29
391.076	23.38
391.286	88.92
391.496	9.05
391.705	9.05
391.915	39.76
392.125	76.63
392.334	39.76
392.544	19.29
392.753	50
392.963	68.44
393.172	21.33
393.382	56.15
393.591	43.86
393.801	0.85
394.01	86.87
394.22	68.44
394.429	11.09
394.639	72.53
394.848	101.2
395.058	99.16
395.267	82.77
395.477	70.48
395.686	74.58
395.895	70.48
396.105	131.92
396.314	41.81
396.524	52.05
396.733	80.72
396.942	140.12
397.152	84.82
397.361	74.58
397.57	52.05
397.78	109.4
397.989	66.39
398.198	121.68
398.407	17.24
398.617	93.01
398.826	50
399.035	117.59
399.244	105.3
399.453	-7.34
399.663	68.44
399.872	25.43
400.081	50
400.29	74.58
400.499	93.01
400.708	39.76
400.917	70.48
401.127	148.31
401.336	37.72
401.545	162.64
401.754	166.74
401.963	113.49
402.172	31.57
402.381	47.96
402.59	60.24
402.799	54.1
403.008	131.92
403.217	93.01
403.426	2.9
403.635	93.01
403.844	136.02
404.053	68.44
404.262	82.77
404.471	148.31
404.68	99.16
404.888	170.83
405.097	101.2
405.306	187.22
405.515	193.36
405.724	99.16
405.933	93.01
406.142	152.4
406.35	197.46
406.559	172.88
406.768	35.67
406.977	224.08
407.185	187.22
407.394	191.31
407.603	123.73
407.812	183.12
408.02	308.05
408.229	224.08
408.438	111.44
408.646	105.3
408.855	156.5
409.064	152.4
409.272	191.31
409.481	213.84
409.69	222.03
409.898	205.65
410.107	281.43
410.315	314.19
410.524	224.08
410.733	234.32
410.941	232.27
411.15	326.48
411.358	285.52
411.567	344.91
411.775	387.92
411.984	273.23
412.192	363.34
412.401	273.23
412.609	338.77
412.818	424.78
413.026	371.54
413.234	330.58
413.443	412.5
413.651	361.3
413.86	361.3
414.068	435.02
414.276	506.7
414.485	482.13
414.693	551.76
414.901	510.8
415.11	576.33
415.318	437.07
415.526	582.48
415.734	617.29
415.943	625.48
416.151	617.29
416.359	721.74
416.567	703.31
416.776	605
416.984	648.01
417.192	785.23
417.4	805.71
417.608	762.7
417.817	754.51
418.025	807.75
418.233	971.59
418.441	838.47
418.649	932.68
418.857	959.3
419.065	1084.23
419.273	1004.36
419.481	1082.18
419.689	1076.04
419.897	1143.62
420.105	1209.15
420.313	1221.44
420.521	1248.07
420.729	1272.64
420.937	1395.52
421.145	1309.51
421.353	1395.52
421.561	1504.06
421.769	1661.76
421.977	1588.03
422.185	1667.9
422.393	1672
422.601	1911.61
422.809	1809.21
423.017	1817.4
423.224	1872.7
423.432	2050.87
423.64	1975.1
423.848	2108.21
424.056	2016.05
424.263	2061.11
424.471	2108.21
424.679	2181.94
424.887	2386.74
425.094	2417.46
425.302	2368.31
425.51	2560.81
425.718	2689.84
425.925	2526
426.133	2749.23
426.341	2915.11
426.548	2976.55
426.756	2974.5
426.964	3099.43
427.171	3271.46
427.379	3365.67
427.586	3420.96
427.794	3504.93
428.001	3537.7
428.209	3781.4
428.417	3834.65
428.624	3957.53
428.832	3959.58
429.039	3838.75
429.247	3967.77
429.454	4383.51
429.662	4688.65
429.869	4317.97
430.076	4580.11
430.284	4653.84
430.491	4864.78
430.699	4946.7
430.906	4967.18
431.114	5040.9
431.321	5180.17
431.528	5444.35
431.736	5569.28
431.943	5778.17
432.15	5769.98
432.358	5954.3
432.565	6275.83
432.772	6116.09
432.979	6216.44
433.187	6632.18
433.394	6335.22
433.601	7011.05
433.808	7150.31
434.016	6857.45
434.223	7488.23
434.43	7770.85
434.637	7477.99
434.844	8125.15
435.052	8346.33
435.259	7951.07
435.466	8233.69
435.673	7985.88
435.88	8669.91
436.087	9145.03
436.294	8921.81
436.501	9097.93
436.708	9020.11
436.915	9507.52
437.122	9765.57
437.329	9872.06
437.537	10097.34
437.743	10238.65
437.95	10154.68
438.157	10885.81
438.364	11166.38
438.571	10980.01
438.778	11528.87
438.985	12120.73
439.192	11766.43
439.399	11928.22
439.606	11836.06
439.813	12556.95
440.02	13312.65
440.227	12989.07
440.433	12853.91
440.64	13310.6
440.847	13195.92
441.054	13453.96
441.261	14279.29
441.467	14269.05
441.674	14441.08
441.881	15018.61
442.088	15002.22
442.294	14908.02
442.501	15391.34
442.708	15864.42
442.914	16317.02
443.121	16814.68
443.328	16495.19
443.534	17496.65
443.741	17164.88
443.948	16755.29
444.154	18274.88
444.361	17816.13
444.568	18043.46
444.774	18235.97
444.981	18307.65
445.187	18723.38
445.394	19632.68
445.6	19589.67
445.807	21129.75
446.013	20214.3
446.22	20441.63
446.426	21582.35
446.633	22034.95
446.839	22442.49
447.046	21512.72
447.252	22469.12
447.459	22780.41
447.665	22456.83
447.871	23667.18
448.078	24728.03
448.284	23671.28
448.491	24048.1
448.697	24775.13
448.903	25389.52
449.11	25543.12
449.316	24791.52
449.522	25690.57
449.728	26169.8
449.935	26282.44
450.141	26245.57
450.347	26900.92
450.553	25848.27
450.76	26229.19
450.966	27294.13
451.172	27290.04
451.378	27670.96
451.584	27068.86
451.791	27996.59
451.997	27679.15
452.203	28330.41
452.409	27974.06
452.615	27998.63
452.821	26864.06
453.027	26902.97
453.233	28232.1
453.44	26958.27
453.646	27396.53
453.852	27394.48
454.058	27861.42
454.264	26755.52
454.47	27595.18
454.676	26524.1
454.882	27734.45
455.088	25323.99
455.294	25625.04
455.5	25956.81
455.705	26548.67
455.911	25143.77
456.117	24844.76
456.323	24443.36
456.529	23245.3
456.735	24224.23
456.941	23386.61
457.147	23030.26
457.352	22376.96
457.558	22088.2
457.764	21914.12
457.97	21649.93
458.176	21250.58
458.381	21187.09
458.587	20077.09
458.793	20062.76
458.999	19067.44
459.204	20603.42
459.41	20001.32
459.616	18446.91
459.821	18545.21
460.027	18629.18
460.233	18174.53
460.438	17408.59
460.644	17506.89
460.85	16829.01
461.055	16308.83
461.261	16280.16
461.466	15182.45
461.672	14469.75
461.878	15667.81
462.083	14658.17
462.289	14232.19
462.494	14037.63
462.7	13791.87
462.905	13165.2
463.111	13703.81
463.316	14013.06
463.522	13472.39
463.727	13533.83
463.932	13388.43
464.138	13251.21
464.343	13535.88
464.549	12774.03
464.754	13329.03
464.959	13429.38
465.165	13216.4
465.37	12493.46
465.575	12346.01
465.781	12794.51
465.986	12831.38
466.191	12311.19
466.397	12372.63
466.602	11580.07
466.807	11862.69
467.012	11881.12
467.218	11877.02
467.423	11725.47
467.628	11782.82
467.833	12259.99
468.038	11770.53
468.244	11573.92
468.449	12040.86
