Data from USB4F104151__94__11-32-08-690.txt Node

Date: Fri Mar 14 11:32:08 EDT 2025
User: louis
Spectrometer: USB4F10415
Trigger mode: 4
Integration Time (sec): 5.000000E-2
Scans to average: 1
Electric dark correction enabled: true
Nonlinearity correction enabled: false
Boxcar width: 0
XAxis mode: Wavelengths
Number of Pixels in Spectrum: 3648
>>>>>Begin Spectral Data<<<<<
178.204	-123.05
178.424	-123.05
178.644	-123.05
178.864	-112.81
179.084	-100.52
179.304	-6.31
179.524	-30.89
179.744	57.17
179.964	77.65
180.184	-0.17
180.404	59.22
180.624	-47.27
180.844	-65.71
181.064	-51.37
181.283	-18.6
181.503	-24.75
181.723	51.03
181.943	1.88
182.163	128.85
182.383	55.12
182.602	55.12
182.822	126.8
183.042	63.32
183.262	14.17
183.482	1.88
183.701	-12.46
183.921	1.88
184.141	-20.65
184.361	83.8
184.58	26.45
184.8	81.75
185.02	14.17
185.239	116.56
185.459	-22.7
185.679	42.84
185.898	36.69
186.118	63.32
186.338	-2.22
186.557	67.41
186.777	-45.23
186.997	-2.22
187.216	51.03
187.436	34.64
187.655	1.88
187.875	65.36
188.095	-80.04
188.314	81.75
188.534	104.28
188.753	100.18
188.973	42.84
189.192	122.71
189.412	10.07
189.631	18.26
189.851	53.08
190.07	91.99
190.29	-22.7
190.509	32.6
190.729	30.55
190.948	67.41
191.168	149.33
191.387	38.74
191.607	-32.94
191.826	44.88
192.045	48.98
192.265	-71.85
192.484	26.45
192.704	42.84
192.923	-30.89
193.142	106.32
193.362	79.7
193.581	67.41
193.8	149.33
194.02	83.8
194.239	122.71
194.458	14.17
194.678	18.26
194.897	18.26
195.116	10.07
195.335	28.5
195.555	5.97
195.774	-41.13
195.993	-10.41
196.212	141.14
196.432	-49.32
196.651	42.84
196.87	-20.65
197.089	132.95
197.308	28.5
197.528	137.04
197.747	-8.36
197.966	22.36
198.185	89.94
198.404	-0.17
198.623	32.6
198.842	-14.51
199.062	-39.08
199.281	75.6
199.5	36.69
199.719	63.32
199.938	55.12
200.157	57.17
200.376	128.85
200.595	120.66
200.814	51.03
201.033	-32.94
201.252	116.56
201.471	5.97
201.69	59.22
201.909	61.27
202.128	42.84
202.347	63.32
202.566	26.45
202.785	51.03
203.004	-41.13
203.223	108.37
203.442	-43.18
203.661	71.51
203.879	16.21
204.098	59.22
204.317	65.36
204.536	44.88
204.755	51.03
204.974	65.36
205.193	-6.31
205.411	100.18
205.63	118.61
205.849	46.93
206.068	51.03
206.287	26.45
206.505	116.56
206.724	32.6
206.943	-28.84
207.162	10.07
207.381	87.89
207.599	20.31
207.818	57.17
208.037	102.23
208.255	67.41
208.474	34.64
208.693	51.03
208.911	16.21
209.13	36.69
209.349	16.21
209.567	-2.22
209.786	1.88
210.005	51.03
210.223	-2.22
210.442	-28.84
210.661	87.89
210.879	5.97
211.098	67.41
211.316	73.56
211.535	83.8
211.753	1.88
211.972	89.94
212.191	-65.71
212.409	5.97
212.628	59.22
212.846	83.8
213.065	59.22
213.283	100.18
213.502	-26.79
213.72	8.02
213.938	40.79
214.157	26.45
214.375	57.17
214.594	10.07
214.812	61.27
215.031	83.8
215.249	-22.7
215.467	18.26
215.686	96.08
215.904	44.88
216.122	69.46
216.341	124.76
216.559	24.4
216.778	38.74
216.996	128.85
217.214	-8.36
217.432	22.36
217.651	5.97
217.869	114.52
218.087	89.94
218.306	-12.46
218.524	22.36
218.742	91.99
218.96	63.32
219.179	22.36
219.397	67.41
219.615	71.51
219.833	38.74
220.051	1.88
220.27	87.89
220.488	38.74
220.706	-14.51
220.924	5.97
221.142	44.88
221.36	-6.31
221.578	28.5
221.796	67.41
222.015	-6.31
222.233	48.98
222.451	118.61
222.669	10.07
222.887	28.5
223.105	12.12
223.323	-47.27
223.541	-24.75
223.759	91.99
223.977	10.07
224.195	81.75
224.413	-32.94
224.631	53.08
224.849	-59.56
225.067	81.75
225.285	59.22
225.503	53.08
225.721	1.88
225.939	38.74
226.157	110.42
226.375	198.48
226.592	42.84
226.81	71.51
227.028	63.32
227.246	51.03
227.464	14.17
227.682	100.18
227.9	75.6
228.117	83.8
228.335	51.03
228.553	-2.22
228.771	73.56
228.989	77.65
229.206	102.23
229.424	-32.94
229.642	96.08
229.86	34.64
230.077	75.6
230.295	63.32
230.513	161.62
230.731	153.43
230.948	132.95
231.166	116.56
231.384	85.84
231.601	-26.79
231.819	85.84
232.037	-2.22
232.254	-24.75
232.472	-47.27
232.689	24.4
232.907	122.71
233.125	59.22
233.342	-47.27
233.56	122.71
233.777	87.89
233.995	83.8
234.213	61.27
234.43	67.41
234.648	28.5
234.865	59.22
235.083	48.98
235.3	1.88
235.518	1.88
235.735	-8.36
235.953	63.32
236.17	48.98
236.388	-65.71
236.605	-18.6
236.822	51.03
237.04	108.37
237.257	71.51
237.475	-16.55
237.692	30.55
237.909	106.32
238.127	38.74
238.344	59.22
238.562	81.75
238.779	-104.62
238.996	-8.36
239.214	10.07
239.431	48.98
239.648	57.17
239.865	75.6
240.083	40.79
240.3	63.32
240.517	24.4
240.735	106.32
240.952	51.03
241.169	91.99
241.386	-4.27
241.603	16.21
241.821	-12.46
242.038	63.32
242.255	53.08
242.472	-2.22
242.689	57.17
242.907	87.89
243.124	91.99
243.341	-20.65
243.558	-14.51
243.775	46.93
243.992	-18.6
244.209	12.12
244.426	108.37
244.643	-4.27
244.86	-26.79
245.078	26.45
245.295	83.8
245.512	61.27
245.729	71.51
245.946	77.65
246.163	10.07
246.38	5.97
246.597	116.56
246.814	-30.89
247.031	48.98
247.248	75.6
247.464	8.02
247.681	44.88
247.898	75.6
248.115	48.98
248.332	-47.27
248.549	71.51
248.766	87.89
248.983	8.02
249.2	34.64
249.417	155.47
249.633	46.93
249.85	53.08
250.067	38.74
250.284	-8.36
250.501	-6.31
250.717	98.13
250.934	36.69
251.151	53.08
251.368	26.45
251.585	34.64
251.801	55.12
252.018	24.4
252.235	36.69
252.451	-30.89
252.668	-34.99
252.885	91.99
253.102	71.51
253.318	-49.32
253.535	-0.17
253.752	36.69
253.968	46.93
254.185	22.36
254.401	12.12
254.618	-37.03
254.835	1.88
255.051	8.02
255.268	-39.08
255.484	71.51
255.701	89.94
255.917	32.6
256.134	-75.95
256.351	65.36
256.567	-30.89
256.784	48.98
257	-92.33
257.217	94.04
257.433	36.69
257.65	42.84
257.866	-18.6
258.082	-28.84
258.299	-24.75
258.515	34.64
258.732	-39.08
258.948	26.45
259.165	32.6
259.381	16.21
259.597	75.6
259.814	81.75
260.03	48.98
260.246	63.32
260.463	108.37
260.679	87.89
260.895	59.22
261.112	165.71
261.328	34.64
261.544	1.88
261.761	135
261.977	-14.51
262.193	-2.22
262.409	71.51
262.626	10.07
262.842	24.4
263.058	20.31
263.274	46.93
263.49	59.22
263.707	48.98
263.923	42.84
264.139	24.4
264.355	18.26
264.571	153.43
264.787	65.36
265.004	30.55
265.22	71.51
265.436	40.79
265.652	8.02
265.868	83.8
266.084	124.76
266.3	81.75
266.516	-0.17
266.732	-10.41
266.948	51.03
267.164	63.32
267.38	-30.89
267.596	124.76
267.812	67.41
268.028	30.55
268.244	-22.7
268.46	16.21
268.676	-32.94
268.892	108.37
269.108	59.22
269.324	-32.94
269.54	-18.6
269.756	67.41
269.972	-26.79
270.188	-22.7
270.403	32.6
270.619	42.84
270.835	110.42
271.051	5.97
271.267	-20.65
271.483	87.89
271.698	55.12
271.914	116.56
272.13	-10.41
272.346	63.32
272.562	16.21
272.777	1.88
272.993	83.8
273.209	48.98
273.425	83.8
273.64	83.8
273.856	48.98
274.072	16.21
274.287	104.28
274.503	63.32
274.719	79.7
274.934	26.45
275.15	12.12
275.366	14.17
275.581	-41.13
275.797	40.79
276.012	51.03
276.228	81.75
276.444	30.55
276.659	61.27
276.875	-30.89
277.09	61.27
277.306	10.07
277.521	42.84
277.737	63.32
277.952	46.93
278.168	81.75
278.383	57.17
278.599	96.08
278.814	32.6
279.03	38.74
279.245	106.32
279.461	59.22
279.676	83.8
279.892	3.93
280.107	-2.22
280.322	40.79
280.538	-26.79
280.753	46.93
280.969	44.88
281.184	108.37
281.399	116.56
281.615	-14.51
281.83	-8.36
282.045	61.27
282.26	69.46
282.476	1.88
282.691	87.89
282.906	51.03
283.122	-32.94
283.337	128.85
283.552	94.04
283.767	16.21
283.983	44.88
284.198	112.47
284.413	46.93
284.628	-2.22
284.843	8.02
285.058	51.03
285.274	36.69
285.489	-0.17
285.704	157.52
285.919	44.88
286.134	42.84
286.349	-18.6
286.564	51.03
286.779	122.71
286.995	46.93
287.21	-8.36
287.425	34.64
287.64	10.07
287.855	38.74
288.07	-26.79
288.285	5.97
288.5	42.84
288.715	100.18
288.93	20.31
289.145	65.36
289.36	16.21
289.575	-18.6
289.79	87.89
290.004	-12.46
290.219	100.18
290.434	20.31
290.649	36.69
290.864	36.69
291.079	34.64
291.294	5.97
291.509	16.21
291.724	44.88
291.938	5.97
292.153	46.93
292.368	34.64
292.583	65.36
292.798	98.13
293.012	61.27
293.227	75.6
293.442	-43.18
293.657	51.03
293.871	67.41
294.086	91.99
294.301	55.12
294.516	46.93
294.73	18.26
294.945	-14.51
295.16	40.79
295.374	79.7
295.589	77.65
295.804	-39.08
296.018	81.75
296.233	108.37
296.447	-0.17
296.662	81.75
296.877	73.56
297.091	69.46
297.306	26.45
297.52	42.84
297.735	67.41
297.949	24.4
298.164	10.07
298.378	-0.17
298.593	85.84
298.807	59.22
299.022	73.56
299.236	34.64
299.451	16.21
299.665	-32.94
299.88	126.8
300.094	14.17
300.309	10.07
300.523	32.6
300.737	65.36
300.952	96.08
301.166	51.03
301.381	-6.31
301.595	30.55
301.809	69.46
302.024	57.17
302.238	-4.27
302.452	63.32
302.667	71.51
302.881	22.36
303.095	124.76
303.309	63.32
303.524	75.6
303.738	-2.22
303.952	38.74
304.166	100.18
304.381	-24.75
304.595	98.13
304.809	55.12
305.023	28.5
305.237	34.64
305.452	34.64
305.666	108.37
305.88	51.03
306.094	71.51
306.308	-0.17
306.522	67.41
306.736	16.21
306.95	38.74
307.164	46.93
307.379	10.07
307.593	57.17
307.807	116.56
308.021	46.93
308.235	83.8
308.449	18.26
308.663	87.89
308.877	104.28
309.091	46.93
309.305	-26.79
309.519	16.21
309.733	100.18
309.947	24.4
310.161	51.03
310.374	63.32
310.588	98.13
310.802	42.84
311.016	-30.89
311.23	-0.17
311.444	18.26
311.658	108.37
311.872	130.9
312.085	89.94
312.299	120.66
312.513	139.09
312.727	5.97
312.941	26.45
313.154	63.32
313.368	36.69
313.582	55.12
313.796	69.46
314.009	63.32
314.223	96.08
314.437	91.99
314.651	169.81
314.864	26.45
315.078	-30.89
315.292	-32.94
315.505	20.31
315.719	63.32
315.933	53.08
316.146	3.93
316.36	65.36
316.573	147.28
316.787	51.03
317.001	85.84
317.214	-43.18
317.428	-14.51
317.641	1.88
317.855	-6.31
318.068	48.98
318.282	-10.41
318.495	91.99
318.709	157.52
318.922	124.76
319.136	106.32
319.349	108.37
319.563	1.88
319.776	91.99
319.99	30.55
320.203	26.45
320.417	98.13
320.63	42.84
320.843	87.89
321.057	18.26
321.27	16.21
321.483	73.56
321.697	114.52
321.91	51.03
322.124	18.26
322.337	67.41
322.55	51.03
322.763	42.84
322.977	51.03
323.19	24.4
323.403	8.02
323.617	61.27
323.83	55.12
324.043	57.17
324.256	34.64
324.469	16.21
324.683	91.99
324.896	-0.17
325.109	55.12
325.322	-30.89
325.535	48.98
325.748	108.37
325.962	46.93
326.175	34.64
326.388	63.32
326.601	51.03
326.814	5.97
327.027	34.64
327.24	89.94
327.453	5.97
327.666	91.99
327.879	89.94
328.092	124.76
328.305	32.6
328.518	10.07
328.731	34.64
328.944	69.46
329.157	75.6
329.37	-12.46
329.583	173.91
329.796	73.56
330.009	-49.32
330.222	-8.36
330.435	98.13
330.648	73.56
330.861	44.88
331.073	-20.65
331.286	132.95
331.499	100.18
331.712	44.88
331.925	38.74
332.138	-0.17
332.35	83.8
332.563	53.08
332.776	130.9
332.989	-55.47
333.202	110.42
333.414	-10.41
333.627	16.21
333.84	-10.41
334.053	75.6
334.265	14.17
334.478	63.32
334.691	18.26
334.903	75.6
335.116	75.6
335.329	100.18
335.541	46.93
335.754	91.99
335.966	59.22
336.179	5.97
336.392	-26.79
336.604	1.88
336.817	108.37
337.029	3.93
337.242	87.89
337.454	61.27
337.667	106.32
337.88	63.32
338.092	8.02
338.305	34.64
338.517	32.6
338.729	65.36
338.942	120.66
339.154	44.88
339.367	14.17
339.579	98.13
339.792	42.84
340.004	104.28
340.217	87.89
340.429	75.6
340.641	-49.32
340.854	44.88
341.066	48.98
341.278	104.28
341.491	73.56
341.703	28.5
341.915	40.79
342.128	108.37
342.34	59.22
342.552	53.08
342.764	-34.99
342.977	-39.08
343.189	81.75
343.401	69.46
343.613	-6.31
343.826	81.75
344.038	42.84
344.25	34.64
344.462	1.88
344.674	81.75
344.886	14.17
345.099	65.36
345.311	75.6
345.523	5.97
345.735	30.55
345.947	73.56
346.159	75.6
346.371	57.17
346.583	-26.79
346.795	100.18
347.007	14.17
347.219	38.74
347.431	57.17
347.643	104.28
347.855	48.98
348.067	165.71
348.279	-59.56
348.491	46.93
348.703	-2.22
348.915	38.74
349.127	14.17
349.339	10.07
349.551	44.88
349.763	102.23
349.975	71.51
350.187	132.95
350.399	67.41
350.61	48.98
350.822	-14.51
351.034	55.12
351.246	34.64
351.458	65.36
351.669	87.89
351.881	14.17
352.093	61.27
352.305	71.51
352.517	100.18
352.728	102.23
352.94	65.36
353.152	106.32
353.363	32.6
353.575	63.32
353.787	104.28
353.999	38.74
354.21	124.76
354.422	-41.13
354.633	91.99
354.845	18.26
355.057	38.74
355.268	79.7
355.48	108.37
355.692	46.93
355.903	36.69
356.115	34.64
356.326	-22.7
356.538	132.95
356.749	-10.41
356.961	55.12
357.172	63.32
357.384	10.07
357.595	145.24
357.807	40.79
358.018	59.22
358.23	34.64
358.441	73.56
358.653	30.55
358.864	24.4
359.075	100.18
359.287	83.8
359.498	87.89
359.709	44.88
359.921	67.41
360.132	71.51
360.344	75.6
360.555	51.03
360.766	26.45
360.977	-4.27
361.189	59.22
361.4	38.74
361.611	124.76
361.823	98.13
362.034	46.93
362.245	32.6
362.456	10.07
362.667	34.64
362.879	53.08
363.09	16.21
363.301	-10.41
363.512	16.21
363.723	91.99
363.935	26.45
364.146	94.04
364.357	24.4
364.568	51.03
364.779	53.08
364.99	16.21
365.201	18.26
365.412	59.22
365.623	51.03
365.834	79.7
366.045	-47.27
366.256	96.08
366.467	16.21
366.678	75.6
366.889	26.45
367.1	46.93
367.311	-16.55
367.522	30.55
367.733	59.22
367.944	59.22
368.155	40.79
368.366	46.93
368.577	91.99
368.788	91.99
368.999	42.84
369.209	85.84
369.42	106.32
369.631	178
369.842	94.04
370.053	63.32
370.264	118.61
370.474	104.28
370.685	79.7
370.896	-28.84
371.107	120.66
371.317	12.12
371.528	28.5
371.739	116.56
371.95	26.45
372.16	71.51
372.371	38.74
372.582	83.8
372.792	53.08
373.003	12.12
373.214	91.99
373.424	81.75
373.635	24.4
373.846	130.9
374.056	57.17
374.267	124.76
374.477	63.32
374.688	91.99
374.898	116.56
375.109	16.21
375.319	16.21
375.53	81.75
375.74	63.32
375.951	18.26
376.161	67.41
376.372	67.41
376.582	-12.46
376.793	83.8
377.003	26.45
377.214	16.21
377.424	96.08
377.635	46.93
377.845	55.12
378.055	85.84
378.266	34.64
378.476	-26.79
378.686	104.28
378.897	71.51
379.107	161.62
379.317	36.69
379.528	-18.6
379.738	42.84
379.948	-14.51
380.158	32.6
380.369	12.12
380.579	73.56
380.789	83.8
380.999	51.03
381.21	137.04
381.42	149.33
381.63	8.02
381.84	110.42
382.05	1.88
382.261	28.5
382.471	81.75
382.681	26.45
382.891	94.04
383.101	42.84
383.311	1.88
383.521	83.8
383.731	89.94
383.941	124.76
384.151	51.03
384.361	89.94
384.571	83.8
384.781	81.75
384.991	108.37
385.201	130.9
385.411	75.6
385.621	12.12
385.831	77.65
386.041	100.18
386.251	40.79
386.461	75.6
386.671	65.36
386.881	30.55
387.091	59.22
387.301	108.37
387.511	12.12
387.72	145.24
387.93	126.8
388.14	69.46
388.35	91.99
388.56	106.32
388.769	104.28
388.979	48.98
389.189	18.26
389.399	83.8
389.609	51.03
389.818	116.56
390.028	108.37
390.238	40.79
390.447	5.97
390.657	40.79
390.867	132.95
391.076	8.02
391.286	63.32
391.496	102.23
391.705	110.42
391.915	79.7
392.125	151.38
392.334	132.95
392.544	53.08
392.753	98.13
392.963	63.32
393.172	112.47
393.382	77.65
393.591	116.56
393.801	26.45
394.01	151.38
394.22	112.47
394.429	73.56
394.639	87.89
394.848	135
395.058	122.71
395.267	65.36
395.477	163.67
395.686	73.56
395.895	124.76
396.105	122.71
396.314	145.24
396.524	77.65
396.733	94.04
396.942	139.09
397.152	112.47
397.361	163.67
397.57	149.33
397.78	91.99
397.989	110.42
398.198	186.19
398.407	175.95
398.617	161.62
398.826	151.38
399.035	98.13
399.244	212.82
399.453	83.8
399.663	110.42
399.872	124.76
400.081	161.62
400.29	137.04
400.499	94.04
400.708	116.56
400.917	116.56
401.127	53.08
401.336	130.9
401.545	85.84
401.754	212.82
401.963	100.18
402.172	132.95
402.381	124.76
402.59	182.1
402.799	104.28
403.008	161.62
403.217	132.95
403.426	91.99
403.635	87.89
403.844	206.67
404.053	171.86
404.262	188.24
404.471	218.96
404.68	171.86
404.888	122.71
405.097	130.9
405.306	161.62
405.515	214.87
405.724	239.44
405.933	206.67
406.142	155.47
406.35	161.62
406.559	182.1
406.768	202.58
406.977	182.1
407.185	239.44
407.394	202.58
407.603	157.52
407.812	221.01
408.02	304.98
408.229	149.33
408.438	239.44
408.646	284.5
408.855	241.49
409.064	210.77
409.272	268.11
409.481	282.45
409.69	296.78
409.898	288.59
410.107	268.11
410.315	372.56
410.524	368.46
410.733	331.6
410.941	329.55
411.15	388.94
411.358	415.57
411.567	296.78
411.775	450.38
411.984	374.61
412.192	452.43
412.401	464.72
412.609	485.2
412.818	470.86
413.026	423.76
413.234	468.81
413.443	493.39
413.651	491.34
413.86	528.21
414.068	649.04
414.276	542.54
414.485	540.49
414.693	649.04
414.901	712.52
415.11	661.32
415.318	673.61
415.526	710.47
415.734	743.24
415.943	681.8
416.151	802.63
416.359	730.95
416.567	800.59
416.776	880.46
416.984	968.52
417.192	1003.33
417.4	784.2
417.608	864.07
417.817	958.28
418.025	1062.73
418.233	1089.35
418.441	991.05
418.649	1058.63
418.857	1230.66
419.065	1210.18
419.273	1206.08
419.481	1306.43
419.689	1378.11
419.897	1296.19
420.105	1400.64
420.313	1423.17
420.521	1550.14
420.729	1480.51
420.937	1601.34
421.145	1564.48
421.353	1799.99
421.561	1734.46
421.769	1773.37
421.977	1937.21
422.185	1886.01
422.393	1953.59
422.601	2150.2
422.809	2096.95
423.017	2082.61
423.224	2234.16
423.432	2393.9
423.64	2250.55
423.848	2479.92
424.056	2303.79
424.263	2580.27
424.471	2590.51
424.679	2692.91
424.887	2866.99
425.094	2916.14
425.302	2924.33
425.51	2918.18
425.718	3016.49
425.925	3233.57
426.133	3233.57
426.341	3520.29
426.548	3600.16
426.756	3532.58
426.964	3655.45
427.171	3878.68
427.379	4034.33
427.586	3921.69
427.794	4114.2
428.001	4310.8
428.209	4546.32
428.417	4495.12
428.624	4775.69
428.832	4650.77
429.039	4675.34
429.247	4630.29
429.454	5181.19
429.662	5422.85
429.869	5076.74
430.076	5568.26
430.284	5396.23
430.491	5672.7
430.699	5981.95
430.906	5850.88
431.114	6072.06
431.321	6176.5
431.528	6455.03
431.736	6706.93
431.943	7104.23
432.15	6788.85
432.358	6932.2
432.565	7259.88
432.772	7128.81
432.979	7616.23
433.187	7767.77
433.394	7853.79
433.601	8247
433.808	8523.48
434.016	8279.77
434.223	8861.39
434.43	9072.33
434.637	9103.05
434.844	9432.77
435.052	9703.11
435.259	9723.58
435.466	9737.92
435.673	9688.77
435.88	10282.68
436.087	11105.96
436.294	10817.2
436.501	10544.82
436.708	10743.47
436.915	11202.22
437.122	11589.28
437.329	11615.91
437.537	12035.74
437.743	12183.2
437.95	12230.3
438.157	12861.07
438.364	13420.17
438.571	13000.33
438.778	13198.99
438.985	14710.39
439.192	13747.84
439.399	14249.6
439.606	14227.07
439.813	14780.02
440.02	15867.49
440.227	15330.92
440.433	15162.99
440.64	15799.91
440.847	15605.35
441.054	16279.13
441.261	17350.22
441.467	16948.82
441.674	17198.67
441.881	17761.86
442.088	17802.82
442.294	17753.67
442.501	18251.33
442.708	18429.5
442.914	19164.72
443.121	20194.85
443.328	19527.21
443.534	20893.21
443.741	20543
443.948	19912.23
444.154	21386.77
444.361	21513.74
444.568	21689.87
444.774	21657.1
444.981	21327.38
445.187	22320.64
445.394	23358.96
445.6	23113.2
445.807	25503.18
446.013	24294.88
446.22	24188.39
446.426	25427.41
446.633	25728.46
446.839	26594.75
447.046	25279.96
447.252	27203
447.459	27016.63
447.665	26871.23
447.871	28341.67
448.078	29189.53
448.284	27882.92
448.491	28681.63
448.697	29681.04
448.903	30176.65
449.11	30311.81
449.316	29715.86
449.522	30664.07
449.728	31415.67
449.935	31470.97
450.141	31405.43
450.347	32230.76
450.553	31468.92
450.76	31556.98
450.966	32378.22
451.172	32302.44
451.378	33303.9
451.584	32079.21
451.791	33109.34
451.997	33035.61
452.203	33650
452.409	33627.48
452.615	33234.27
452.821	32275.82
453.027	32054.64
453.233	33307.99
453.44	32249.19
453.646	32683.36
453.852	32744.8
454.058	33066.33
454.264	32079.21
454.47	32685.41
454.676	31812.98
454.882	32802.14
455.088	29865.36
455.294	30741.89
455.5	31253.88
455.705	31378.81
455.911	30117.26
456.117	29652.37
456.323	28911
456.529	27635.12
456.735	28769.69
456.941	27884.97
457.147	27792.81
457.352	26809.79
457.558	26252.74
457.764	26596.8
457.97	25806.28
458.176	25470.42
458.381	25239
458.587	24079.85
458.793	23817.71
458.999	22666.75
459.204	24585.69
459.41	23619.05
459.616	22437.37
459.821	21890.57
460.027	21913.09
460.233	21685.77
460.438	20289.06
460.644	20708.89
460.85	19889.7
461.055	19844.65
461.261	19408.43
461.466	18075.2
461.672	17528.39
461.878	18703.93
462.083	17307.21
462.289	17135.18
462.494	16907.86
462.7	16397.92
462.905	15832.68
463.111	16297.56
463.316	16356.96
463.522	16049.76
463.727	16033.38
463.932	15920.74
464.138	15795.81
464.343	15877.73
464.549	15201.9
464.754	16193.12
464.959	15855.2
465.165	15509.1
465.37	15046.26
465.575	14769.78
465.781	15298.16
465.986	15304.3
466.191	14798.45
466.397	14288.51
466.602	13827.71
466.807	14292.6
