Data from USB4F104151__66__11-31-01-149.txt Node

Date: Fri Mar 14 11:31:01 EDT 2025
User: louis
Spectrometer: USB4F10415
Trigger mode: 4
Integration Time (sec): 5.000000E-2
Scans to average: 1
Electric dark correction enabled: true
Nonlinearity correction enabled: false
Boxcar width: 0
XAxis mode: Wavelengths
Number of Pixels in Spectrum: 3648
>>>>>Begin Spectral Data<<<<<
178.204	-147.97
178.424	-147.97
178.644	-147.97
178.864	-145.92
179.084	-174.59
179.304	-23.04
179.524	5.63
179.744	-14.85
179.964	22.02
180.184	-47.62
180.404	-31.23
180.624	9.73
180.844	1.54
181.064	-31.23
181.283	46.59
181.503	-18.94
181.723	81.41
181.943	-39.42
182.163	-31.23
182.383	9.73
182.602	122.37
182.822	30.21
183.042	36.35
183.262	13.82
183.482	120.32
183.701	79.36
183.921	28.16
184.141	-37.38
184.361	52.74
184.58	-16.9
184.8	-20.99
185.02	50.69
185.239	54.78
185.459	-20.99
185.679	58.88
185.898	34.3
186.118	165.37
186.338	71.17
186.557	3.58
186.777	-20.99
186.997	15.87
187.216	48.64
187.436	79.36
187.655	85.5
187.875	19.97
188.095	30.21
188.314	32.26
188.534	105.98
188.753	22.02
188.973	40.45
189.192	83.45
189.412	26.11
189.631	114.17
189.851	19.97
190.07	95.74
190.29	-18.94
190.509	19.97
190.729	38.4
190.948	95.74
191.168	116.22
191.387	83.45
191.607	56.83
191.826	75.26
192.045	19.97
192.265	34.3
192.484	7.68
192.704	-55.81
192.923	-8.7
193.142	124.41
193.362	56.83
193.581	124.41
193.8	50.69
194.02	122.37
194.239	34.3
194.458	105.98
194.678	52.74
194.897	32.26
195.116	-10.75
195.335	40.45
195.555	1.54
195.774	22.02
195.993	116.22
196.212	65.02
196.432	5.63
196.651	32.26
196.87	65.02
197.089	155.13
197.308	67.07
197.528	124.41
197.747	-23.04
197.966	30.21
198.185	69.12
198.404	-35.33
198.623	67.07
198.842	120.32
199.062	151.04
199.281	177.66
199.5	17.92
199.719	97.79
199.938	120.32
200.157	-0.51
200.376	36.35
200.595	97.79
200.814	13.82
201.033	34.3
201.252	79.36
201.471	-23.04
201.69	142.85
201.909	50.69
202.128	71.17
202.347	65.02
202.566	36.35
202.785	-20.99
203.004	22.02
203.223	167.42
203.442	28.16
203.661	36.35
203.879	26.11
204.098	122.37
204.317	17.92
204.536	87.55
204.755	19.97
204.974	36.35
205.193	62.98
205.411	50.69
205.63	50.69
205.849	36.35
206.068	-16.9
206.287	-35.33
206.505	67.07
206.724	67.07
206.943	17.92
207.162	1.54
207.381	22.02
207.599	83.45
207.818	56.83
208.037	32.26
208.255	-41.47
208.474	-2.56
208.693	108.03
208.911	83.45
209.13	17.92
209.349	9.73
209.567	1.54
209.786	34.3
210.005	-16.9
210.223	75.26
210.442	-31.23
210.661	54.78
210.879	87.55
211.098	13.82
211.316	1.54
211.535	116.22
211.753	62.98
211.972	54.78
212.191	-0.51
212.409	17.92
212.628	-20.99
212.846	22.02
213.065	28.16
213.283	67.07
213.502	40.45
213.72	9.73
213.938	42.5
214.157	-23.04
214.375	48.64
214.594	26.11
214.812	91.65
215.031	44.54
215.249	69.12
215.467	32.26
215.686	30.21
215.904	118.27
216.122	103.93
216.341	67.07
216.559	17.92
216.778	79.36
216.996	28.16
217.214	-35.33
217.432	40.45
217.651	13.82
217.869	-2.56
218.087	-49.66
218.306	87.55
218.524	108.03
218.742	58.88
218.96	9.73
219.179	75.26
219.397	67.07
219.615	122.37
219.833	69.12
220.051	69.12
220.27	91.65
220.488	75.26
220.706	89.6
220.924	-29.18
221.142	30.21
221.36	71.17
221.578	101.89
221.796	114.17
222.015	42.5
222.233	83.45
222.451	44.54
222.669	15.87
222.887	85.5
223.105	46.59
223.323	1.54
223.541	9.73
223.759	54.78
223.977	9.73
224.195	128.51
224.413	103.93
224.631	58.88
224.849	32.26
225.067	157.18
225.285	22.02
225.503	-10.75
225.721	5.63
225.939	-0.51
226.157	73.21
226.375	132.61
226.592	32.26
226.81	114.17
227.028	114.17
227.246	165.37
227.464	89.6
227.682	65.02
227.9	87.55
228.117	-31.23
228.335	54.78
228.553	42.5
228.771	50.69
228.989	122.37
229.206	62.98
229.424	38.4
229.642	15.87
229.86	-16.9
230.077	36.35
230.295	81.41
230.513	87.55
230.731	65.02
230.948	89.6
231.166	40.45
231.384	22.02
231.601	-0.51
231.819	54.78
232.037	48.64
232.254	89.6
232.472	69.12
232.689	32.26
232.907	101.89
233.125	85.5
233.342	75.26
233.56	67.07
233.777	-43.52
233.995	81.41
234.213	48.64
234.43	99.84
234.648	34.3
234.865	-6.66
235.083	87.55
235.3	9.73
235.518	26.11
235.735	24.06
235.953	42.5
236.17	-8.7
236.388	93.69
236.605	-20.99
236.822	58.88
237.04	54.78
237.257	71.17
237.475	28.16
237.692	-0.51
237.909	91.65
238.127	-10.75
238.344	62.98
238.562	136.7
238.779	-6.66
238.996	11.78
239.214	38.4
239.431	48.64
239.648	40.45
239.865	32.26
240.083	48.64
240.3	15.87
240.517	-2.56
240.735	38.4
240.952	50.69
241.169	116.22
241.386	112.13
241.603	32.26
241.821	75.26
242.038	50.69
242.255	-18.94
242.472	24.06
242.689	46.59
242.907	124.41
243.124	38.4
243.341	-49.66
243.558	24.06
243.775	-4.61
243.992	-14.85
244.209	24.06
244.426	67.07
244.643	124.41
244.86	50.69
245.078	50.69
245.295	1.54
245.512	19.97
245.729	-33.28
245.946	22.02
246.163	99.84
246.38	95.74
246.597	56.83
246.814	62.98
247.031	-8.7
247.248	17.92
247.464	81.41
247.681	62.98
247.898	91.65
248.115	54.78
248.332	30.21
248.549	42.5
248.766	95.74
248.983	50.69
249.2	79.36
249.417	81.41
249.633	32.26
249.85	62.98
250.067	17.92
250.284	79.36
250.501	73.21
250.717	116.22
250.934	73.21
251.151	42.5
251.368	-18.94
251.585	32.26
251.801	50.69
252.018	40.45
252.235	9.73
252.451	67.07
252.668	48.64
252.885	32.26
253.102	56.83
253.318	-41.47
253.535	13.82
253.752	-6.66
253.968	79.36
254.185	73.21
254.401	77.31
254.618	-23.04
254.835	26.11
255.051	71.17
255.268	105.98
255.484	93.69
255.701	134.65
255.917	38.4
256.134	-6.66
256.351	50.69
256.567	99.84
256.784	30.21
257	-25.09
257.217	75.26
257.433	32.26
257.65	26.11
257.866	67.07
258.082	22.02
258.299	7.68
258.515	7.68
258.732	67.07
258.948	50.69
259.165	46.59
259.381	7.68
259.597	73.21
259.814	17.92
260.03	50.69
260.246	9.73
260.463	67.07
260.679	42.5
260.895	122.37
261.112	-8.7
261.328	-2.56
261.544	1.54
261.761	128.51
261.977	26.11
262.193	42.5
262.409	99.84
262.626	50.69
262.842	-2.56
263.058	17.92
263.274	30.21
263.49	99.84
263.707	126.46
263.923	124.41
264.139	7.68
264.355	79.36
264.571	1.54
264.787	11.78
265.004	91.65
265.22	67.07
265.436	62.98
265.652	-47.62
265.868	58.88
266.084	9.73
266.3	75.26
266.516	58.88
266.732	54.78
266.948	48.64
267.164	79.36
267.38	103.93
267.596	40.45
267.812	105.98
268.028	48.64
268.244	42.5
268.46	75.26
268.676	40.45
268.892	56.83
269.108	26.11
269.324	81.41
269.54	15.87
269.756	99.84
269.972	42.5
270.188	17.92
270.403	50.69
270.619	-47.62
270.835	58.88
271.051	56.83
271.267	22.02
271.483	46.59
271.698	97.79
271.914	38.4
272.13	-6.66
272.346	-8.7
272.562	32.26
272.777	50.69
272.993	22.02
273.209	9.73
273.425	54.78
273.64	26.11
273.856	99.84
274.072	48.64
274.287	-31.23
274.503	108.03
274.719	-6.66
274.934	40.45
275.15	-59.9
275.366	38.4
275.581	-33.28
275.797	73.21
276.012	-12.8
276.228	79.36
276.444	17.92
276.659	28.16
276.875	58.88
277.09	75.26
277.306	42.5
277.521	65.02
277.737	22.02
277.952	83.45
278.168	40.45
278.383	44.54
278.599	67.07
278.814	73.21
279.03	15.87
279.245	79.36
279.461	42.5
279.676	87.55
279.892	75.26
280.107	-6.66
280.322	38.4
280.538	38.4
280.753	17.92
280.969	1.54
281.184	58.88
281.399	95.74
281.615	95.74
281.83	22.02
282.045	-16.9
282.26	15.87
282.476	50.69
282.691	75.26
282.906	136.7
283.122	73.21
283.337	7.68
283.552	79.36
283.767	15.87
283.983	42.5
284.198	50.69
284.413	89.6
284.628	15.87
284.843	75.26
285.058	54.78
285.274	42.5
285.489	-23.04
285.704	26.11
285.919	1.54
286.134	30.21
286.349	-10.75
286.564	17.92
286.779	89.6
286.995	-2.56
287.21	-27.14
287.425	46.59
287.64	65.02
287.855	28.16
288.07	65.02
288.285	52.74
288.5	48.64
288.715	73.21
288.93	67.07
289.145	24.06
289.36	44.54
289.575	13.82
289.79	69.12
290.004	-6.66
290.219	136.7
290.434	40.45
290.649	22.02
290.864	-10.75
291.079	22.02
291.294	69.12
291.509	11.78
291.724	5.63
291.938	85.5
292.153	91.65
292.368	50.69
292.583	67.07
292.798	120.32
293.012	32.26
293.227	-12.8
293.442	44.54
293.657	48.64
293.871	122.37
294.086	44.54
294.301	144.89
294.516	46.59
294.73	46.59
294.945	11.78
295.16	24.06
295.374	116.22
295.589	71.17
295.804	13.82
296.018	-4.61
296.233	42.5
296.447	75.26
296.662	56.83
296.877	75.26
297.091	79.36
297.306	77.31
297.52	56.83
297.735	165.37
297.949	148.99
298.164	120.32
298.378	67.07
298.593	32.26
298.807	-59.9
299.022	46.59
299.236	75.26
299.451	87.55
299.665	-4.61
299.88	83.45
300.094	32.26
300.309	42.5
300.523	105.98
300.737	48.64
300.952	1.54
301.166	15.87
301.381	-31.23
301.595	73.21
301.809	58.88
302.024	46.59
302.238	26.11
302.452	-25.09
302.667	-0.51
302.881	95.74
303.095	26.11
303.309	65.02
303.524	-51.71
303.738	28.16
303.952	-8.7
304.166	99.84
304.381	46.59
304.595	124.41
304.809	-25.09
305.023	9.73
305.237	83.45
305.452	65.02
305.666	99.84
305.88	120.32
306.094	81.41
306.308	83.45
306.522	73.21
306.736	132.61
306.95	108.03
307.164	-27.14
307.379	56.83
307.593	155.13
307.807	32.26
308.021	69.12
308.235	17.92
308.449	-6.66
308.663	-29.18
308.877	65.02
309.091	13.82
309.305	108.03
309.519	3.58
309.733	73.21
309.947	9.73
310.161	108.03
310.374	85.5
310.588	50.69
310.802	-31.23
311.016	-6.66
311.23	19.97
311.444	54.78
311.658	65.02
311.872	89.6
312.085	116.22
312.299	52.74
312.513	220.67
312.727	54.78
312.941	85.5
313.154	32.26
313.368	30.21
313.582	75.26
313.796	54.78
314.009	13.82
314.223	118.27
314.437	42.5
314.651	34.3
314.864	85.5
315.078	1.54
315.292	44.54
315.505	58.88
315.719	-6.66
315.933	40.45
316.146	22.02
316.36	93.69
316.573	42.5
316.787	24.06
317.001	26.11
317.214	120.32
317.428	15.87
317.641	-39.42
317.855	-14.85
318.068	54.78
318.282	58.88
318.495	97.79
318.709	91.65
318.922	11.78
319.136	97.79
319.349	103.93
319.563	38.4
319.776	40.45
319.99	65.02
320.203	124.41
320.417	50.69
320.63	83.45
320.843	120.32
321.057	40.45
321.27	173.57
321.483	22.02
321.697	97.79
321.91	9.73
322.124	79.36
322.337	112.13
322.55	1.54
322.763	54.78
322.977	22.02
323.19	30.21
323.403	65.02
323.617	62.98
323.83	75.26
324.043	9.73
324.256	42.5
324.469	-27.14
324.683	132.61
324.896	24.06
325.109	69.12
325.322	-47.62
325.535	99.84
325.748	50.69
325.962	-23.04
326.175	34.3
326.388	34.3
326.601	73.21
326.814	11.78
327.027	42.5
327.24	83.45
327.453	17.92
327.666	77.31
327.879	108.03
328.092	97.79
328.305	58.88
328.518	89.6
328.731	17.92
328.944	7.68
329.157	58.88
329.37	40.45
329.583	5.63
329.796	124.41
330.009	19.97
330.222	116.22
330.435	93.69
330.648	24.06
330.861	58.88
331.073	67.07
331.286	65.02
331.499	3.58
331.712	-6.66
331.925	-31.23
332.138	52.74
332.35	91.65
332.563	-43.52
332.776	91.65
332.989	-0.51
333.202	17.92
333.414	50.69
333.627	9.73
333.84	95.74
334.053	7.68
334.265	17.92
334.478	34.3
334.691	99.84
334.903	44.54
335.116	105.98
335.329	-10.75
335.541	26.11
335.754	75.26
335.966	99.84
336.179	71.17
336.392	3.58
336.604	44.54
336.817	17.92
337.029	73.21
337.242	73.21
337.454	56.83
337.667	50.69
337.88	99.84
338.092	60.93
338.305	62.98
338.517	-12.8
338.729	17.92
338.942	105.98
339.154	46.59
339.367	13.82
339.579	71.17
339.792	22.02
340.004	30.21
340.217	71.17
340.429	-2.56
340.641	24.06
340.854	34.3
341.066	65.02
341.278	1.54
341.491	73.21
341.703	40.45
341.915	17.92
342.128	46.59
342.34	44.54
342.552	56.83
342.764	22.02
342.977	93.69
343.189	50.69
343.401	-6.66
343.613	1.54
343.826	105.98
344.038	17.92
344.25	-12.8
344.462	5.63
344.674	77.31
344.886	-43.52
345.099	77.31
345.311	52.74
345.523	-14.85
345.735	-53.76
345.947	56.83
346.159	157.18
346.371	-0.51
346.583	65.02
346.795	71.17
347.007	13.82
347.219	95.74
347.431	-12.8
347.643	87.55
347.855	5.63
348.067	32.26
348.279	36.35
348.491	79.36
348.703	67.07
348.915	-31.23
349.127	1.54
349.339	62.98
349.551	-39.42
349.763	40.45
349.975	26.11
350.187	40.45
350.399	132.61
350.61	34.3
350.822	5.63
351.034	112.13
351.246	71.17
351.458	32.26
351.669	91.65
351.881	148.99
352.093	89.6
352.305	114.17
352.517	83.45
352.728	99.84
352.94	65.02
353.152	97.79
353.363	46.59
353.575	116.22
353.787	48.64
353.999	75.26
354.21	114.17
354.422	-6.66
354.633	-6.66
354.845	34.3
355.057	50.69
355.268	91.65
355.48	34.3
355.692	40.45
355.903	138.75
356.115	60.93
356.326	50.69
356.538	89.6
356.749	50.69
356.961	46.59
357.172	36.35
357.384	19.97
357.595	134.65
357.807	67.07
358.018	26.11
358.23	38.4
358.441	48.64
358.653	26.11
358.864	48.64
359.075	46.59
359.287	48.64
359.498	79.36
359.709	54.78
359.921	34.3
360.132	73.21
360.344	62.98
360.555	32.26
360.766	81.41
360.977	52.74
361.189	99.84
361.4	75.26
361.611	138.75
361.823	87.55
362.034	50.69
362.245	24.06
362.456	15.87
362.667	122.37
362.879	50.69
363.09	1.54
363.301	75.26
363.512	62.98
363.723	67.07
363.935	89.6
364.146	38.4
364.357	50.69
364.568	85.5
364.779	-64
364.99	17.92
365.201	26.11
365.412	1.54
365.623	24.06
365.834	58.88
366.045	44.54
366.256	22.02
366.467	65.02
366.678	52.74
366.889	54.78
367.1	36.35
367.311	108.03
367.522	32.26
367.733	112.13
367.944	73.21
368.155	-6.66
368.366	50.69
368.577	128.51
368.788	95.74
368.999	132.61
369.209	48.64
369.42	99.84
369.631	79.36
369.842	50.69
370.053	28.16
370.264	101.89
370.474	40.45
370.685	42.5
370.896	71.17
371.107	67.07
371.317	46.59
371.528	24.06
371.739	83.45
371.95	34.3
372.16	157.18
372.371	9.73
372.582	146.94
372.792	24.06
373.003	34.3
373.214	46.59
373.424	42.5
373.635	38.4
373.846	112.13
374.056	28.16
374.267	56.83
374.477	85.5
374.688	40.45
374.898	58.88
375.109	140.8
375.319	56.83
375.53	130.56
375.74	83.45
375.951	32.26
376.161	116.22
376.372	58.88
376.582	34.3
376.793	87.55
377.003	17.92
377.214	15.87
377.424	71.17
377.635	32.26
377.845	62.98
378.055	62.98
378.266	24.06
378.476	114.17
378.686	79.36
378.897	34.3
379.107	79.36
379.317	24.06
379.528	50.69
379.738	114.17
379.948	56.83
380.158	85.5
380.369	83.45
380.579	65.02
380.789	40.45
380.999	83.45
381.21	83.45
381.42	91.65
381.63	40.45
381.84	77.31
382.05	24.06
382.261	95.74
382.471	126.46
382.681	56.83
382.891	157.18
383.101	142.85
383.311	26.11
383.521	7.68
383.731	50.69
383.941	34.3
384.151	13.82
384.361	11.78
384.571	60.93
384.781	67.07
384.991	-35.33
385.201	83.45
385.411	15.87
385.621	75.26
385.831	40.45
386.041	89.6
386.251	146.94
386.461	87.55
386.671	56.83
386.881	97.79
387.091	62.98
387.301	105.98
387.511	34.3
387.72	58.88
387.93	114.17
388.14	50.69
388.35	87.55
388.56	95.74
388.769	99.84
388.979	144.89
389.189	58.88
389.399	97.79
389.609	89.6
389.818	44.54
390.028	9.73
390.238	79.36
390.447	32.26
390.657	83.45
390.867	7.68
391.076	5.63
391.286	48.64
391.496	97.79
391.705	24.06
391.915	153.09
392.125	67.07
392.334	60.93
392.544	15.87
392.753	69.12
392.963	46.59
393.172	112.13
393.382	65.02
393.591	202.24
393.801	73.21
394.01	105.98
394.22	122.37
394.429	79.36
394.639	118.27
394.848	124.41
395.058	65.02
395.267	128.51
395.477	99.84
395.686	81.41
395.895	120.32
396.105	89.6
396.314	67.07
396.524	153.09
396.733	15.87
396.942	198.14
397.152	79.36
397.361	144.89
397.57	105.98
397.78	99.84
397.989	157.18
398.198	95.74
398.407	116.22
398.617	44.54
398.826	40.45
399.035	93.69
399.244	65.02
399.453	114.17
399.663	-0.51
399.872	105.98
400.081	87.55
400.29	91.65
400.499	97.79
400.708	105.98
400.917	118.27
401.127	99.84
401.336	50.69
401.545	144.89
401.754	108.03
401.963	112.13
402.172	89.6
402.381	97.79
402.59	81.41
402.799	69.12
403.008	83.45
403.217	165.37
403.426	52.74
403.635	151.04
403.844	79.36
404.053	126.46
404.262	138.75
404.471	181.76
404.68	65.02
404.888	87.55
405.097	124.41
405.306	179.71
405.515	239.1
405.724	214.52
405.933	161.28
406.142	161.28
406.35	148.99
406.559	175.61
406.768	204.28
406.977	212.48
407.185	140.8
407.394	226.81
407.603	163.33
407.812	228.86
408.02	255.48
408.229	189.95
408.438	157.18
408.646	235
408.855	196.09
409.064	177.66
409.272	261.63
409.481	226.81
409.69	230.91
409.898	226.81
410.107	239.1
410.315	275.96
410.524	237.05
410.733	304.64
410.941	288.25
411.15	325.12
411.358	370.17
411.567	300.54
411.775	253.44
411.984	318.97
412.192	415.23
412.401	370.17
412.609	484.86
412.818	370.17
413.026	480.76
413.234	323.07
413.443	396.79
413.651	382.46
413.86	402.94
414.068	484.86
414.276	552.44
414.485	396.79
414.693	521.72
414.901	585.21
415.11	568.82
415.318	460.28
415.526	624.12
415.734	605.69
415.943	671.22
416.151	617.97
416.359	681.46
416.567	691.7
416.776	792.05
416.984	738.8
417.192	716.28
417.4	747
417.608	767.48
417.817	794.1
418.025	863.73
418.233	941.55
418.441	937.46
418.649	949.75
418.857	1107.44
419.065	1058.29
419.273	916.98
419.481	1025.52
419.689	1168.88
419.897	1132.01
420.105	1201.65
420.313	1213.93
420.521	1326.57
420.729	1322.48
420.937	1293.8
421.145	1261.04
421.353	1424.87
421.561	1469.93
421.769	1529.32
421.977	1629.67
422.185	1467.88
422.393	1764.84
422.601	1809.89
422.809	1734.12
423.017	1754.6
423.224	1826.28
423.432	1975.78
423.64	1912.29
423.848	2078.18
424.056	2004.45
424.263	2215.39
424.471	2260.45
424.679	2209.25
424.887	2440.67
425.094	2467.29
425.302	2405.85
425.51	2442.71
425.718	2569.69
425.925	2688.47
426.133	2754.01
426.341	2950.61
426.548	2893.27
426.756	3067.35
426.964	3007.95
427.171	3145.17
427.379	3335.63
427.586	3376.59
427.794	3540.43
428.001	3573.19
428.209	3683.78
428.417	3757.51
428.624	3933.64
428.832	4144.58
429.039	3945.92
429.247	3896.77
429.454	4349.37
429.662	4500.92
429.869	4308.41
430.076	4715.96
430.284	4543.93
430.491	4711.86
430.699	5195.18
430.906	4951.48
431.114	5098.93
431.321	5154.23
431.528	5295.54
431.736	5731.75
431.943	5911.97
432.15	5780.9
432.358	5772.71
432.565	6120.87
432.772	6016.42
432.979	6464.93
433.187	6530.46
433.394	6628.76
433.601	7142.8
433.808	7128.47
434.016	7024.02
434.223	7288.21
434.43	7732.62
434.637	7421.33
434.844	8099.2
435.052	8211.84
435.259	8131.97
435.466	8113.54
435.673	8164.74
435.88	8717.69
436.087	9176.44
436.294	9225.59
436.501	8932.73
436.708	9028.98
436.915	9446.77
437.122	9796.97
437.329	9741.68
437.537	10073.45
437.743	10478.94
437.95	10155.37
438.157	10569.05
438.364	10906.97
438.571	10966.36
438.778	11019.61
438.985	12221.77
439.192	11593.04
439.399	11961.67
439.606	11640.14
439.813	12223.81
440.02	13159.74
440.227	12830.01
440.433	12825.92
440.64	13315.38
440.847	12977.47
441.054	13364.53
441.261	14476.58
441.467	14056.75
441.674	14499.11
441.881	14894.36
442.088	14871.84
442.294	14961.95
442.501	15021.34
442.708	15731.98
442.914	16334.09
443.121	17032.44
443.328	16438.53
443.534	17401.08
443.741	17018.11
443.948	16958.72
444.154	18132.2
444.361	17741.04
444.568	18130.16
444.774	17923.31
444.981	18177.26
445.187	18937.06
445.394	19711.19
445.6	19014.88
445.807	21116.09
446.013	20323.53
446.22	20645.06
446.426	21820.6
446.633	21564.6
446.839	22383.79
447.046	21316.79
447.252	22805.67
447.459	22822.05
447.665	22596.78
447.871	23540.89
448.078	24679.56
448.284	23581.85
448.491	24118.42
448.697	25046.15
448.903	25537.66
449.11	25842.81
449.316	25275.52
449.522	25379.96
449.728	26066.03
449.935	26264.69
450.141	26584.17
450.347	26967.14
450.553	26262.64
450.76	26631.27
450.966	27542.62
451.172	26739.82
451.378	27497.56
451.584	27202.66
451.791	27784.28
451.997	27559
452.203	27970.65
452.409	28177.49
452.615	28154.96
452.821	26999.91
453.027	26821.73
453.233	27761.75
453.44	26793.06
453.646	27049.06
453.852	27386.97
454.058	27692.12
454.264	26661.99
454.47	27186.27
454.676	26522.73
454.882	27634.78
455.088	24919.17
455.294	25273.47
455.5	25785.46
455.705	26072.18
455.911	24849.54
456.117	24552.59
456.323	24149.14
456.529	22920.35
456.735	24112.27
456.941	23114.91
457.147	22727.85
457.352	22043.82
457.558	21750.96
457.764	21894.32
457.97	21750.96
458.176	20931.78
458.381	21099.71
458.587	20012.24
458.793	20049.1
458.999	18758.88
459.204	20298.95
459.41	19678.42
459.616	18488.55
459.821	18537.7
460.027	18132.2
460.233	17927.41
460.438	16925.95
460.644	17495.29
460.85	16542.98
461.055	16088.33
461.261	16006.41
461.466	15052.06
461.672	14476.58
461.878	15484.18
462.083	14681.38
462.289	14089.51
462.494	14087.47
462.7	13483.31
462.905	13245.75
463.111	13425.97
463.316	13937.96
463.522	13411.64
463.727	13241.65
463.932	13579.57
464.138	13165.88
464.343	13251.89
464.549	12846.4
464.754	13331.76
464.959	13133.11
465.165	13215.03
465.37	12707.13
465.575	12236.1
465.781	12535.1
465.986	12592.45
466.191	12313.92
466.397	12094.79
466.602	11404.63
466.807	12064.07
467.012	11763.02
467.218	11783.5
467.423	11879.75
467.628	11803.98
