Data from USB4F104151__76__11-31-38-104.txt Node

Date: Fri Mar 14 11:31:38 EDT 2025
User: louis
Spectrometer: USB4F10415
Trigger mode: 4
Integration Time (sec): 5.000000E-2
Scans to average: 1
Electric dark correction enabled: true
Nonlinearity correction enabled: false
Boxcar width: 0
XAxis mode: Wavelengths
Number of Pixels in Spectrum: 3648
>>>>>Begin Spectral Data<<<<<
178.204	-159.4
178.424	-159.4
178.644	-159.4
178.864	-167.59
179.084	-179.88
179.304	4.44
179.524	4.44
179.744	-24.23
179.964	-44.71
180.184	55.64
180.404	-13.99
180.624	-54.95
180.844	14.68
181.064	-1.71
181.283	12.63
181.503	20.82
181.723	26.96
181.943	-36.52
182.163	84.31
182.383	-7.85
182.602	88.4
182.822	149.84
183.042	12.63
183.262	-26.28
183.482	37.2
183.701	10.58
183.921	8.53
184.141	-63.15
184.361	63.83
184.58	20.82
184.8	-3.75
185.02	-36.52
185.239	-11.95
185.459	59.73
185.679	92.5
185.898	-71.34
186.118	37.2
186.338	16.73
186.557	43.35
186.777	-87.72
186.997	35.16
187.216	53.59
187.436	53.59
187.655	100.69
187.875	69.97
188.095	51.54
188.314	51.54
188.534	119.12
188.753	37.2
188.973	-11.95
189.192	86.36
189.412	35.16
189.631	29.01
189.851	61.78
190.07	6.49
190.29	-5.8
190.509	-38.57
190.729	22.87
190.948	92.5
191.168	215.38
191.387	67.92
191.607	74.07
191.826	8.53
192.045	4.44
192.265	69.97
192.484	65.88
192.704	-11.95
192.923	6.49
193.142	92.5
193.362	10.58
193.581	63.83
193.8	74.07
194.02	4.44
194.239	-11.95
194.458	80.21
194.678	35.16
194.897	49.49
195.116	-44.71
195.335	10.58
195.555	24.92
195.774	16.73
195.993	45.4
196.212	-30.38
196.432	10.58
196.651	51.54
196.87	51.54
197.089	59.73
197.308	26.96
197.528	6.49
197.747	-48.81
197.966	16.73
198.185	82.26
198.404	0.34
198.623	37.2
198.842	12.63
199.062	45.4
199.281	0.34
199.5	53.59
199.719	35.16
199.938	63.83
200.157	31.06
200.376	57.68
200.595	49.49
200.814	53.59
201.033	-59.05
201.252	102.74
201.471	69.97
201.69	45.4
201.909	35.16
202.128	57.68
202.347	10.58
202.566	20.82
202.785	-28.33
203.004	16.73
203.223	98.64
203.442	53.59
203.661	0.34
203.879	-3.75
204.098	102.74
204.317	2.39
204.536	37.2
204.755	37.2
204.974	-24.23
205.193	18.77
205.411	100.69
205.63	-44.71
205.849	22.87
206.068	12.63
206.287	-11.95
206.505	53.59
206.724	10.58
206.943	33.11
207.162	-11.95
207.381	39.25
207.599	-42.67
207.818	20.82
208.037	8.53
208.255	74.07
208.474	61.78
208.693	53.59
208.911	-63.15
209.13	12.63
209.349	41.3
209.567	20.82
209.786	84.31
210.005	47.44
210.223	37.2
210.442	-48.81
210.661	-1.71
210.879	8.53
211.098	-34.47
211.316	41.3
211.535	88.4
211.753	45.4
211.972	102.74
212.191	-24.23
212.409	67.92
212.628	53.59
212.846	-91.82
213.065	72.02
213.283	72.02
213.502	84.31
213.72	53.59
213.938	61.78
214.157	-61.1
214.375	35.16
214.594	-1.71
214.812	4.44
215.031	6.49
215.249	-46.76
215.467	14.68
215.686	37.2
215.904	100.69
216.122	-3.75
216.341	102.74
216.559	37.2
216.778	141.65
216.996	-36.52
217.214	35.16
217.432	37.2
217.651	4.44
217.869	8.53
218.087	-16.04
218.306	26.96
218.524	65.88
218.742	20.82
218.96	4.44
219.179	12.63
219.397	35.16
219.615	82.26
219.833	82.26
220.051	33.11
220.27	102.74
220.488	94.55
220.706	41.3
220.924	-46.76
221.142	24.92
221.36	26.96
221.578	82.26
221.796	4.44
222.015	18.77
222.233	20.82
222.451	131.41
222.669	31.06
222.887	43.35
223.105	18.77
223.323	-28.33
223.541	-61.1
223.759	72.02
223.977	-24.23
224.195	43.35
224.413	69.97
224.631	82.26
224.849	47.44
225.067	143.7
225.285	-36.52
225.503	14.68
225.721	-7.85
225.939	-18.09
226.157	4.44
226.375	92.5
226.592	31.06
226.81	-11.95
227.028	-7.85
227.246	65.88
227.464	43.35
227.682	57.68
227.9	69.97
228.117	47.44
228.335	59.73
228.553	53.59
228.771	61.78
228.989	69.97
229.206	-9.9
229.424	-34.47
229.642	-26.28
229.86	-3.75
230.077	18.77
230.295	69.97
230.513	45.4
230.731	92.5
230.948	41.3
231.166	45.4
231.384	-7.85
231.601	-3.75
231.819	74.07
232.037	29.01
232.254	2.39
232.472	31.06
232.689	-36.52
232.907	31.06
233.125	35.16
233.342	8.53
233.56	4.44
233.777	49.49
233.995	65.88
234.213	76.12
234.43	-5.8
234.648	-9.9
234.865	-16.04
235.083	69.97
235.3	39.25
235.518	41.3
235.735	51.54
235.953	125.27
236.17	72.02
236.388	-16.04
236.605	29.01
236.822	12.63
237.04	82.26
237.257	61.78
237.475	57.68
237.692	-54.95
237.909	-3.75
238.127	39.25
238.344	78.16
238.562	63.83
238.779	37.2
238.996	10.58
239.214	-32.43
239.431	108.88
239.648	31.06
239.865	143.7
240.083	55.64
240.3	10.58
240.517	-18.09
240.735	-24.23
240.952	94.55
241.169	45.4
241.386	26.96
241.603	67.92
241.821	-5.8
242.038	20.82
242.255	57.68
242.472	8.53
242.689	43.35
242.907	102.74
243.124	74.07
243.341	24.92
243.558	-24.23
243.775	-34.47
243.992	-63.15
244.209	69.97
244.426	86.36
244.643	86.36
244.86	-11.95
245.078	10.58
245.295	45.4
245.512	55.64
245.729	-22.19
245.946	123.22
246.163	6.49
246.38	16.73
246.597	-11.95
246.814	-7.85
247.031	35.16
247.248	43.35
247.464	-46.76
247.681	47.44
247.898	2.39
248.115	53.59
248.332	-1.71
248.549	20.82
248.766	115.03
248.983	84.31
249.2	80.21
249.417	151.89
249.633	69.97
249.85	63.83
250.067	-44.71
250.284	86.36
250.501	94.55
250.717	96.6
250.934	10.58
251.151	61.78
251.368	-20.14
251.585	31.06
251.801	57.68
252.018	-11.95
252.235	20.82
252.451	-11.95
252.668	29.01
252.885	-11.95
253.102	2.39
253.318	20.82
253.535	76.12
253.752	-52.91
253.968	18.77
254.185	63.83
254.401	92.5
254.618	61.78
254.835	-26.28
255.051	74.07
255.268	0.34
255.484	45.4
255.701	26.96
255.917	-1.71
256.134	16.73
256.351	8.53
256.567	20.82
256.784	-44.71
257	-28.33
257.217	10.58
257.433	43.35
257.65	-30.38
257.866	2.39
258.082	-1.71
258.299	-9.9
258.515	61.78
258.732	78.16
258.948	76.12
259.165	78.16
259.381	37.2
259.597	39.25
259.814	-40.62
260.03	33.11
260.246	45.4
260.463	86.36
260.679	8.53
260.895	76.12
261.112	84.31
261.328	-7.85
261.544	72.02
261.761	94.55
261.977	-44.71
262.193	57.68
262.409	35.16
262.626	-20.14
262.842	-5.8
263.058	86.36
263.274	129.36
263.49	16.73
263.707	65.88
263.923	63.83
264.139	29.01
264.355	-11.95
264.571	41.3
264.787	35.16
265.004	72.02
265.22	63.83
265.436	37.2
265.652	20.82
265.868	43.35
266.084	14.68
266.3	-16.04
266.516	43.35
266.732	33.11
266.948	31.06
267.164	20.82
267.38	4.44
267.596	12.63
267.812	49.49
268.028	57.68
268.244	49.49
268.46	-11.95
268.676	53.59
268.892	-50.86
269.108	-63.15
269.324	-26.28
269.54	-5.8
269.756	78.16
269.972	-11.95
270.188	37.2
270.403	43.35
270.619	76.12
270.835	49.49
271.051	53.59
271.267	12.63
271.483	6.49
271.698	37.2
271.914	-11.95
272.13	78.16
272.346	47.44
272.562	29.01
272.777	29.01
272.993	59.73
273.209	43.35
273.425	51.54
273.64	12.63
273.856	84.31
274.072	12.63
274.287	-16.04
274.503	80.21
274.719	18.77
274.934	-3.75
275.15	2.39
275.366	-7.85
275.581	4.44
275.797	4.44
276.012	22.87
276.228	18.77
276.444	67.92
276.659	33.11
276.875	-20.14
277.09	47.44
277.306	8.53
277.521	55.64
277.737	29.01
277.952	98.64
278.168	53.59
278.383	53.59
278.599	-5.8
278.814	26.96
279.03	80.21
279.245	86.36
279.461	2.39
279.676	-13.99
279.892	-3.75
280.107	45.4
280.322	37.2
280.538	59.73
280.753	-32.43
280.969	-52.91
281.184	29.01
281.399	92.5
281.615	8.53
281.83	-20.14
282.045	-61.1
282.26	57.68
282.476	106.84
282.691	86.36
282.906	-11.95
283.122	33.11
283.337	8.53
283.552	-13.99
283.767	-69.29
283.983	45.4
284.198	59.73
284.413	149.84
284.628	-20.14
284.843	16.73
285.058	37.2
285.274	51.54
285.489	-63.15
285.704	26.96
285.919	88.4
286.134	4.44
286.349	92.5
286.564	67.92
286.779	94.55
286.995	76.12
287.21	12.63
287.425	43.35
287.64	-3.75
287.855	16.73
288.07	-24.23
288.285	-7.85
288.5	110.93
288.715	110.93
288.93	-26.28
289.145	-67.24
289.36	59.73
289.575	49.49
289.79	43.35
290.004	20.82
290.219	12.63
290.434	14.68
290.649	-11.95
290.864	-7.85
291.079	37.2
291.294	-36.52
291.509	51.54
291.724	-77.48
291.938	24.92
292.153	67.92
292.368	24.92
292.583	51.54
292.798	72.02
293.012	76.12
293.227	78.16
293.442	20.82
293.657	84.31
293.871	92.5
294.086	10.58
294.301	51.54
294.516	61.78
294.73	2.39
294.945	-18.09
295.16	-44.71
295.374	57.68
295.589	92.5
295.804	35.16
296.018	20.82
296.233	69.97
296.447	31.06
296.662	-7.85
296.877	86.36
297.091	12.63
297.306	-1.71
297.52	41.3
297.735	55.64
297.949	6.49
298.164	119.12
298.378	-30.38
298.593	-16.04
298.807	-11.95
299.022	-3.75
299.236	98.64
299.451	-36.52
299.665	-30.38
299.88	-95.91
300.094	61.78
300.309	29.01
300.523	12.63
300.737	49.49
300.952	84.31
301.166	41.3
301.381	37.2
301.595	-11.95
301.809	-22.19
302.024	-20.14
302.238	-11.95
302.452	90.45
302.667	-11.95
302.881	94.55
303.095	14.68
303.309	35.16
303.524	61.78
303.738	55.64
303.952	-3.75
304.166	80.21
304.381	-11.95
304.595	106.84
304.809	39.25
305.023	20.82
305.237	41.3
305.452	29.01
305.666	26.96
305.88	61.78
306.094	-36.52
306.308	18.77
306.522	53.59
306.736	182.61
306.95	-3.75
307.164	22.87
307.379	-28.33
307.593	26.96
307.807	82.26
308.021	67.92
308.235	12.63
308.449	-26.28
308.663	-11.95
308.877	145.75
309.091	-20.14
309.305	31.06
309.519	-24.23
309.733	88.4
309.947	-38.57
310.161	33.11
310.374	94.55
310.588	67.92
310.802	-65.19
311.016	26.96
311.23	106.84
311.444	57.68
311.658	29.01
311.872	45.4
312.085	72.02
312.299	131.41
312.513	45.4
312.727	26.96
312.941	8.53
313.154	8.53
313.368	16.73
313.582	65.88
313.796	37.2
314.009	41.3
314.223	67.92
314.437	84.31
314.651	16.73
314.864	-28.33
315.078	51.54
315.292	-32.43
315.505	-32.43
315.719	100.69
315.933	49.49
316.146	108.88
316.36	24.92
316.573	84.31
316.787	37.2
317.001	78.16
317.214	16.73
317.428	53.59
317.641	84.31
317.855	20.82
318.068	55.64
318.282	2.39
318.495	115.03
318.709	104.79
318.922	-73.39
319.136	125.27
319.349	37.2
319.563	12.63
319.776	47.44
319.99	0.34
320.203	37.2
320.417	0.34
320.63	98.64
320.843	78.16
321.057	69.97
321.27	20.82
321.483	61.78
321.697	139.6
321.91	10.58
322.124	41.3
322.337	12.63
322.55	31.06
322.763	53.59
322.977	86.36
323.19	67.92
323.403	-18.09
323.617	115.03
323.83	37.2
324.043	-3.75
324.256	35.16
324.469	2.39
324.683	141.65
324.896	24.92
325.109	33.11
325.322	-44.71
325.535	33.11
325.748	78.16
325.962	53.59
326.175	29.01
326.388	96.6
326.601	0.34
326.814	115.03
327.027	59.73
327.24	78.16
327.453	-38.57
327.666	49.49
327.879	53.59
328.092	61.78
328.305	61.78
328.518	69.97
328.731	35.16
328.944	31.06
329.157	43.35
329.37	-20.14
329.583	74.07
329.796	121.17
330.009	-44.71
330.222	106.84
330.435	108.88
330.648	59.73
330.861	43.35
331.073	51.54
331.286	59.73
331.499	39.25
331.712	10.58
331.925	104.79
332.138	35.16
332.35	112.98
332.563	12.63
332.776	78.16
332.989	29.01
333.202	-20.14
333.414	-1.71
333.627	24.92
333.84	47.44
334.053	61.78
334.265	29.01
334.478	61.78
334.691	18.77
334.903	86.36
335.116	26.96
335.329	78.16
335.541	127.32
335.754	108.88
335.966	20.82
336.179	43.35
336.392	2.39
336.604	-1.71
336.817	26.96
337.029	143.7
337.242	-20.14
337.454	80.21
337.667	69.97
337.88	53.59
338.092	20.82
338.305	92.5
338.517	12.63
338.729	147.8
338.942	43.35
339.154	57.68
339.367	-52.91
339.579	10.58
339.792	43.35
340.004	88.4
340.217	18.77
340.429	-3.75
340.641	2.39
340.854	-24.23
341.066	-3.75
341.278	45.4
341.491	155.99
341.703	16.73
341.915	26.96
342.128	61.78
342.34	4.44
342.552	24.92
342.764	8.53
342.977	61.78
343.189	22.87
343.401	4.44
343.613	51.54
343.826	51.54
344.038	-20.14
344.25	61.78
344.462	18.77
344.674	57.68
344.886	16.73
345.099	49.49
345.311	117.08
345.523	53.59
345.735	18.77
345.947	78.16
346.159	51.54
346.371	14.68
346.583	43.35
346.795	88.4
347.007	57.68
347.219	69.97
347.431	29.01
347.643	86.36
347.855	59.73
348.067	98.64
348.279	4.44
348.491	133.46
348.703	12.63
348.915	51.54
349.127	29.01
349.339	121.17
349.551	20.82
349.763	41.3
349.975	59.73
350.187	172.37
350.399	98.64
350.61	47.44
350.822	74.07
351.034	37.2
351.246	10.58
351.458	86.36
351.669	24.92
351.881	53.59
352.093	69.97
352.305	119.12
352.517	76.12
352.728	82.26
352.94	49.49
353.152	33.11
353.363	29.01
353.575	78.16
353.787	-3.75
353.999	47.44
354.21	108.88
354.422	53.59
354.633	33.11
354.845	39.25
355.057	45.4
355.268	119.12
355.48	78.16
355.692	-28.33
355.903	12.63
356.115	35.16
356.326	49.49
356.538	104.79
356.749	53.59
356.961	96.6
357.172	35.16
357.384	18.77
357.595	61.78
357.807	18.77
358.018	-1.71
358.23	53.59
358.441	49.49
358.653	49.49
358.864	65.88
359.075	16.73
359.287	69.97
359.498	92.5
359.709	35.16
359.921	26.96
360.132	59.73
360.344	92.5
360.555	-11.95
360.766	104.79
360.977	16.73
361.189	151.89
361.4	29.01
361.611	49.49
361.823	8.53
362.034	88.4
362.245	61.78
362.456	24.92
362.667	35.16
362.879	49.49
363.09	102.74
363.301	49.49
363.512	53.59
363.723	-7.85
363.935	-24.23
364.146	47.44
364.357	86.36
364.568	33.11
364.779	-28.33
364.99	72.02
365.201	49.49
365.412	55.64
365.623	35.16
365.834	33.11
366.045	14.68
366.256	84.31
366.467	37.2
366.678	135.51
366.889	6.49
367.1	43.35
367.311	10.58
367.522	8.53
367.733	4.44
367.944	69.97
368.155	16.73
368.366	37.2
368.577	96.6
368.788	158.03
368.999	98.64
369.209	63.83
369.42	69.97
369.631	125.27
369.842	110.93
370.053	53.59
370.264	65.88
370.474	-7.85
370.685	45.4
370.896	102.74
371.107	117.08
371.317	22.87
371.528	51.54
371.739	61.78
371.95	35.16
372.16	-3.75
372.371	-59.05
372.582	41.3
372.792	31.06
373.003	147.8
373.214	74.07
373.424	78.16
373.635	69.97
373.846	84.31
374.056	78.16
374.267	41.3
374.477	106.84
374.688	20.82
374.898	24.92
375.109	82.26
375.319	14.68
375.53	67.92
375.74	57.68
375.951	49.49
376.161	-57
376.372	86.36
376.582	18.77
376.793	65.88
377.003	37.2
377.214	59.73
377.424	74.07
377.635	41.3
377.845	-3.75
378.055	174.42
378.266	-13.99
378.476	96.6
378.686	135.51
378.897	-24.23
379.107	-3.75
379.317	80.21
379.528	33.11
379.738	26.96
379.948	-54.95
380.158	53.59
380.369	45.4
380.579	-3.75
380.789	20.82
380.999	29.01
381.21	125.27
381.42	35.16
381.63	29.01
381.84	37.2
382.05	53.59
382.261	78.16
382.471	-24.23
382.681	35.16
382.891	98.64
383.101	26.96
383.311	43.35
383.521	-5.8
383.731	94.55
383.941	61.78
384.151	65.88
384.361	94.55
384.571	84.31
384.781	-30.38
384.991	129.36
385.201	119.12
385.411	90.45
385.621	53.59
385.831	-3.75
386.041	100.69
386.251	29.01
386.461	90.45
386.671	37.2
386.881	29.01
387.091	69.97
387.301	110.93
387.511	61.78
387.72	102.74
387.93	106.84
388.14	2.39
388.35	47.44
388.56	63.83
388.769	72.02
388.979	102.74
389.189	-28.33
389.399	84.31
389.609	92.5
389.818	45.4
390.028	57.68
390.238	51.54
390.447	88.4
390.657	74.07
390.867	20.82
391.076	8.53
391.286	18.77
391.496	33.11
391.705	100.69
391.915	33.11
392.125	182.61
392.334	24.92
392.544	63.83
392.753	76.12
392.963	47.44
393.172	69.97
393.382	26.96
393.591	108.88
393.801	-77.48
394.01	10.58
394.22	92.5
394.429	117.08
394.639	37.2
394.848	72.02
395.058	106.84
395.267	123.22
395.477	94.55
395.686	149.84
395.895	143.7
396.105	76.12
396.314	67.92
396.524	33.11
396.733	18.77
396.942	90.45
397.152	20.82
397.361	12.63
397.57	45.4
397.78	102.74
397.989	125.27
398.198	112.98
398.407	51.54
398.617	61.78
398.826	78.16
399.035	57.68
399.244	133.46
399.453	51.54
399.663	135.51
399.872	88.4
400.081	59.73
400.29	104.79
400.499	37.2
400.708	104.79
400.917	115.03
401.127	20.82
401.336	-7.85
401.545	135.51
401.754	92.5
401.963	180.56
402.172	29.01
402.381	92.5
402.59	49.49
402.799	76.12
403.008	115.03
403.217	153.94
403.426	63.83
403.635	143.7
403.844	106.84
404.053	98.64
404.262	143.7
404.471	196.95
404.68	160.08
404.888	119.12
405.097	92.5
405.306	135.51
405.515	90.45
405.724	139.6
405.933	117.08
406.142	104.79
406.35	180.56
406.559	137.56
406.768	160.08
406.977	190.8
407.185	237.91
407.394	160.08
407.603	102.74
407.812	258.39
408.02	217.43
408.229	231.76
408.438	209.23
408.646	131.41
408.855	127.32
409.064	174.42
409.272	209.23
409.481	233.81
409.69	211.28
409.898	246.1
410.107	211.28
410.315	272.72
410.524	176.47
410.733	223.57
410.941	272.72
411.15	340.3
411.358	231.76
411.567	289.1
411.775	301.39
411.984	297.3
412.192	336.21
412.401	276.82
412.609	407.89
412.818	332.11
413.026	377.17
413.234	387.41
413.443	457.04
413.651	430.41
413.86	444.75
414.068	440.65
414.276	491.85
414.485	477.52
414.693	418.13
414.901	598.35
415.11	524.62
415.318	594.25
415.526	512.33
415.734	575.82
415.943	651.6
416.151	659.79
416.359	633.16
416.567	743.75
416.776	807.24
416.984	776.52
417.192	698.7
417.4	692.55
417.608	676.17
417.817	797
418.025	813.38
418.233	979.27
418.441	823.62
418.649	788.81
418.857	958.79
419.065	979.27
419.273	1040.71
419.481	1012.04
419.689	1122.63
419.897	1198.4
420.105	1184.07
420.313	1177.92
420.521	1349.95
420.729	1308.99
420.937	1323.33
421.145	1323.33
421.353	1454.4
421.561	1470.78
421.769	1556.8
421.977	1534.27
422.185	1560.89
422.393	1704.25
422.601	1685.82
422.809	1757.5
423.017	1732.92
423.224	1857.85
423.432	1970.49
423.64	1923.38
423.848	2066.74
424.056	1997.11
424.263	2089.27
424.471	2230.58
424.679	2285.87
424.887	2353.46
425.094	2402.61
425.302	2505.01
425.51	2523.44
425.718	2541.87
425.925	2709.8
426.133	2814.25
426.341	2926.89
426.548	2973.99
426.756	2994.47
426.964	2961.7
427.171	3297.57
427.379	3383.59
427.586	3324.19
427.794	3305.76
428.001	3676.45
428.209	3748.12
428.417	3674.4
428.624	4102.42
428.832	4083.99
429.039	3844.38
429.247	4045.08
429.454	4495.63
429.662	4604.18
429.869	4448.53
430.076	4720.91
430.284	4538.64
430.491	4862.22
430.699	5011.72
430.906	5067.02
431.114	4974.86
431.321	5198.09
431.528	5251.33
431.736	5599.49
431.943	6007.03
432.15	5646.59
432.358	5841.15
432.565	6017.27
432.772	6019.32
432.979	6406.39
433.187	6461.68
433.394	6516.98
433.601	6828.27
433.808	7053.55
434.016	6957.29
434.223	7287.01
434.43	7715.04
434.637	7756
434.844	8206.55
435.052	8196.31
435.259	8073.43
435.466	8292.57
435.673	8141.02
435.88	8716.5
436.087	9119.95
436.294	9156.81
436.501	8923.34
436.708	9072.84
436.915	9445.57
437.122	9887.93
437.329	9576.64
437.537	10016.96
437.743	10373.3
437.95	10092.73
438.157	10768.56
438.364	11057.32
438.571	10977.45
438.778	11278.51
438.985	12181.66
439.192	11651.24
439.399	12218.52
439.606	11825.31
439.813	12273.82
440.02	13117.58
440.227	12943.5
440.433	12906.64
440.64	13316.23
440.847	13226.12
441.054	13430.92
441.261	14438.52
441.467	14334.07
441.674	14504.06
441.881	15018.1
442.088	14991.47
442.294	14870.64
442.501	15528.04
442.708	15482.99
442.914	16298.08
443.121	16828.5
443.328	16392.28
443.534	17440.84
443.741	16957.52
443.948	16867.41
444.154	18016.32
444.361	17780.81
444.568	18026.56
444.774	17989.7
444.981	18145.34
445.187	19103.79
445.394	19648.55
445.6	19517.48
445.807	21223.44
446.013	20041.76
446.22	20754.46
446.426	21465.1
446.633	21587.98
446.839	22722.55
447.046	21293.07
447.252	23017.46
447.459	22771.71
447.665	22732.79
447.871	23160.82
448.078	24674.27
448.284	23334.9
448.491	24088.55
448.697	25044.95
448.903	25415.63
449.11	25653.2
449.316	25100.25
449.522	25458.64
449.728	26339.27
449.935	26523.58
450.141	26505.15
450.347	27146.17
450.553	26232.77
450.76	26517.44
450.966	27191.22
451.172	26830.78
451.378	27705.26
451.584	27035.58
451.791	27789.23
451.997	27742.13
452.203	28252.07
452.409	28053.42
452.615	28114.86
452.821	27111.35
453.027	26556.35
453.233	28151.72
453.44	27125.69
453.646	27199.41
453.852	27506.61
454.058	27944.87
454.264	26732.48
454.47	27271.09
454.676	26998.71
454.882	27692.97
455.088	25264.08
455.294	25606.09
455.5	25999.3
455.705	26492.87
455.911	25227.22
456.117	24868.83
456.323	24645.6
456.529	23185.4
456.735	24147.94
456.941	23431.15
457.147	22947.83
457.352	22405.12
457.558	22194.18
457.764	22099.97
457.97	21483.53
458.176	21196.82
458.381	21248.02
458.587	20121.63
458.793	19892.26
458.999	19288.11
459.204	20588.57
459.41	20023.33
459.616	18671.67
459.821	18542.65
460.027	18602.04
460.233	18073.67
460.438	17064.02
460.644	17659.98
460.85	16482.39
461.055	16248.93
461.261	16592.98
461.466	15126.64
461.672	14895.22
461.878	15796.32
462.083	14678.13
462.289	14626.93
462.494	14039.17
462.7	13707.4
462.905	13279.37
463.111	13830.27
463.316	13756.55
463.522	13570.18
463.727	13404.3
463.932	13428.87
464.138	13426.82
464.343	13209.74
464.549	12828.82
464.754	13516.94
464.959	13285.51
465.165	13293.71
465.37	12660.88
465.575	12112.03
465.781	12796.05
465.986	12783.76
466.191	12355.74
466.397	11925.66
466.602	11411.62
466.807	12046.49
467.012	11894.94
467.218	11890.85
467.423	11669.67
467.628	11800.74
