Data from USB4F104151__51__11-30-34-861.txt Node

Date: Fri Mar 14 11:30:34 EDT 2025
User: louis
Spectrometer: USB4F10415
Trigger mode: 4
Integration Time (sec): 5.000000E-2
Scans to average: 1
Electric dark correction enabled: true
Nonlinearity correction enabled: false
Boxcar width: 0
XAxis mode: Wavelengths
Number of Pixels in Spectrum: 3648
>>>>>Begin Spectral Data<<<<<
178.204	-199.16
178.424	-199.16
178.644	-199.16
178.864	-152.06
179.084	-190.97
179.304	-18.94
179.524	-27.14
179.744	-4.61
179.964	22.02
180.184	-45.57
180.404	17.92
180.624	40.45
180.844	5.63
181.064	-6.66
181.283	22.02
181.503	-14.85
181.723	9.73
181.943	-78.33
182.163	28.16
182.383	-23.04
182.602	44.54
182.822	73.21
183.042	-10.75
183.262	-35.33
183.482	-10.75
183.701	-12.8
183.921	13.82
184.141	11.78
184.361	-4.61
184.58	-10.75
184.8	38.4
185.02	54.78
185.239	79.36
185.459	-35.33
185.679	67.07
185.898	-88.57
186.118	101.89
186.338	-8.7
186.557	50.69
186.777	38.4
186.997	-23.04
187.216	-39.42
187.436	65.02
187.655	5.63
187.875	38.4
188.095	13.82
188.314	79.36
188.534	46.59
188.753	-10.75
188.973	28.16
189.192	83.45
189.412	38.4
189.631	-37.38
189.851	32.26
190.07	54.78
190.29	-12.8
190.509	-16.9
190.729	-31.23
190.948	79.36
191.168	95.74
191.387	38.4
191.607	9.73
191.826	30.21
192.045	93.69
192.265	13.82
192.484	-2.56
192.704	-47.62
192.923	-61.95
193.142	36.35
193.362	28.16
193.581	26.11
193.8	13.82
194.02	69.12
194.239	-51.71
194.458	60.93
194.678	-2.56
194.897	15.87
195.116	-35.33
195.335	11.78
195.555	28.16
195.774	-16.9
195.993	62.98
196.212	54.78
196.432	46.59
196.651	22.02
196.87	-18.94
197.089	58.88
197.308	30.21
197.528	-18.94
197.747	19.97
197.966	62.98
198.185	30.21
198.404	-2.56
198.623	62.98
198.842	17.92
199.062	54.78
199.281	11.78
199.5	22.02
199.719	91.65
199.938	7.68
200.157	54.78
200.376	13.82
200.595	-16.9
200.814	103.93
201.033	11.78
201.252	36.35
201.471	36.35
201.69	46.59
201.909	83.45
202.128	30.21
202.347	46.59
202.566	28.16
202.785	-16.9
203.004	-35.33
203.223	148.99
203.442	34.3
203.661	67.07
203.879	28.16
204.098	-57.86
204.317	-25.09
204.536	62.98
204.755	28.16
204.974	22.02
205.193	-43.52
205.411	11.78
205.63	40.45
205.849	34.3
206.068	19.97
206.287	-14.85
206.505	46.59
206.724	38.4
206.943	60.93
207.162	-53.76
207.381	46.59
207.599	17.92
207.818	65.02
208.037	-18.94
208.255	22.02
208.474	22.02
208.693	79.36
208.911	15.87
209.13	32.26
209.349	71.17
209.567	-8.7
209.786	-31.23
210.005	22.02
210.223	-8.7
210.442	22.02
210.661	22.02
210.879	7.68
211.098	9.73
211.316	87.55
211.535	50.69
211.753	36.35
211.972	52.74
212.191	5.63
212.409	56.83
212.628	7.68
212.846	34.3
213.065	28.16
213.283	52.74
213.502	67.07
213.72	46.59
213.938	-4.61
214.157	30.21
214.375	36.35
214.594	30.21
214.812	62.98
215.031	50.69
215.249	-37.38
215.467	-6.66
215.686	-10.75
215.904	28.16
216.122	5.63
216.341	36.35
216.559	56.83
216.778	85.5
216.996	-18.94
217.214	-10.75
217.432	19.97
217.651	-39.42
217.869	-16.9
218.087	7.68
218.306	13.82
218.524	3.58
218.742	54.78
218.96	9.73
219.179	-2.56
219.397	22.02
219.615	58.88
219.833	60.93
220.051	40.45
220.27	83.45
220.488	-29.18
220.706	15.87
220.924	26.11
221.142	87.55
221.36	48.64
221.578	62.98
221.796	36.35
222.015	-2.56
222.233	19.97
222.451	46.59
222.669	-2.56
222.887	28.16
223.105	19.97
223.323	-76.29
223.541	52.74
223.759	30.21
223.977	-4.61
224.195	30.21
224.413	46.59
224.631	9.73
224.849	46.59
225.067	46.59
225.285	11.78
225.503	46.59
225.721	-72.19
225.939	3.58
226.157	-2.56
226.375	112.13
226.592	-16.9
226.81	13.82
227.028	28.16
227.246	50.69
227.464	46.59
227.682	89.6
227.9	22.02
228.117	-0.51
228.335	-59.9
228.553	30.21
228.771	30.21
228.989	32.26
229.206	-6.66
229.424	34.3
229.642	42.5
229.86	52.74
230.077	42.5
230.295	-10.75
230.513	7.68
230.731	54.78
230.948	32.26
231.166	44.54
231.384	46.59
231.601	5.63
231.819	93.69
232.037	-8.7
232.254	93.69
232.472	36.35
232.689	-23.04
232.907	-12.8
233.125	9.73
233.342	73.21
233.56	-4.61
233.777	-29.18
233.995	-16.9
234.213	79.36
234.43	44.54
234.648	42.5
234.865	22.02
235.083	95.74
235.3	28.16
235.518	3.58
235.735	36.35
235.953	48.64
236.17	40.45
236.388	36.35
236.605	11.78
236.822	110.08
237.04	-25.09
237.257	36.35
237.475	-29.18
237.692	62.98
237.909	24.06
238.127	11.78
238.344	5.63
238.562	91.65
238.779	60.93
238.996	-59.9
239.214	73.21
239.431	56.83
239.648	-45.57
239.865	34.3
240.083	83.45
240.3	-43.52
240.517	-2.56
240.735	46.59
240.952	24.06
241.169	38.4
241.386	26.11
241.603	28.16
241.821	-43.52
242.038	-6.66
242.255	62.98
242.472	-45.57
242.689	50.69
242.907	79.36
243.124	-18.94
243.341	69.12
243.558	-14.85
243.775	50.69
243.992	-64
244.209	26.11
244.426	103.93
244.643	34.3
244.86	71.17
245.078	42.5
245.295	9.73
245.512	-23.04
245.729	-20.99
245.946	11.78
246.163	-18.94
246.38	7.68
246.597	62.98
246.814	19.97
247.031	-18.94
247.248	50.69
247.464	38.4
247.681	65.02
247.898	77.31
248.115	17.92
248.332	54.78
248.549	42.5
248.766	110.08
248.983	50.69
249.2	-2.56
249.417	67.07
249.633	-4.61
249.85	83.45
250.067	62.98
250.284	-2.56
250.501	32.26
250.717	-68.09
250.934	22.02
251.151	69.12
251.368	30.21
251.585	5.63
251.801	1.54
252.018	-4.61
252.235	69.12
252.451	-6.66
252.668	42.5
252.885	54.78
253.102	-18.94
253.318	140.8
253.535	17.92
253.752	-2.56
253.968	52.74
254.185	-51.71
254.401	-96.77
254.618	17.92
254.835	40.45
255.051	134.65
255.268	48.64
255.484	48.64
255.701	11.78
255.917	-10.75
256.134	11.78
256.351	30.21
256.567	58.88
256.784	42.5
257	-8.7
257.217	69.12
257.433	105.98
257.65	105.98
257.866	62.98
258.082	19.97
258.299	50.69
258.515	-2.56
258.732	-18.94
258.948	-10.75
259.165	62.98
259.381	79.36
259.597	62.98
259.814	36.35
260.03	11.78
260.246	62.98
260.463	52.74
260.679	142.85
260.895	22.02
261.112	69.12
261.328	44.54
261.544	5.63
261.761	62.98
261.977	-55.81
262.193	-23.04
262.409	83.45
262.626	34.3
262.842	46.59
263.058	26.11
263.274	87.55
263.49	24.06
263.707	17.92
263.923	62.98
264.139	-27.14
264.355	17.92
264.571	40.45
264.787	60.93
265.004	71.17
265.22	13.82
265.436	-27.14
265.652	46.59
265.868	-2.56
266.084	-0.51
266.3	67.07
266.516	-35.33
266.732	-29.18
266.948	38.4
267.164	38.4
267.38	101.89
267.596	-8.7
267.812	103.93
268.028	95.74
268.244	17.92
268.46	77.31
268.676	-53.76
268.892	26.11
269.108	-47.62
269.324	-39.42
269.54	22.02
269.756	77.31
269.972	-55.81
270.188	-4.61
270.403	11.78
270.619	38.4
270.835	38.4
271.051	11.78
271.267	-16.9
271.483	-20.99
271.698	52.74
271.914	36.35
272.13	30.21
272.346	38.4
272.562	22.02
272.777	71.17
272.993	13.82
273.209	36.35
273.425	9.73
273.64	-43.52
273.856	38.4
274.072	9.73
274.287	19.97
274.503	116.22
274.719	34.3
274.934	-31.23
275.15	67.07
275.366	15.87
275.581	-29.18
275.797	26.11
276.012	34.3
276.228	7.68
276.444	83.45
276.659	30.21
276.875	-23.04
277.09	-2.56
277.306	-2.56
277.521	30.21
277.737	73.21
277.952	-8.7
278.168	60.93
278.383	-0.51
278.599	26.11
278.814	34.3
279.03	-10.75
279.245	87.55
279.461	-12.8
279.676	38.4
279.892	19.97
280.107	13.82
280.322	-16.9
280.538	13.82
280.753	13.82
280.969	79.36
281.184	3.58
281.399	-27.14
281.615	-27.14
281.83	26.11
282.045	5.63
282.26	26.11
282.476	36.35
282.691	136.7
282.906	30.21
283.122	-4.61
283.337	17.92
283.552	67.07
283.767	26.11
283.983	79.36
284.198	-37.38
284.413	34.3
284.628	-35.33
284.843	1.54
285.058	60.93
285.274	13.82
285.489	-45.57
285.704	11.78
285.919	-37.38
286.134	50.69
286.349	34.3
286.564	28.16
286.779	83.45
286.995	36.35
287.21	75.26
287.425	-23.04
287.64	52.74
287.855	-18.94
288.07	-31.23
288.285	38.4
288.5	-29.18
288.715	83.45
288.93	-2.56
289.145	5.63
289.36	52.74
289.575	24.06
289.79	67.07
290.004	-29.18
290.219	22.02
290.434	54.78
290.649	-53.76
290.864	-51.71
291.079	36.35
291.294	136.7
291.509	-41.47
291.724	-20.99
291.938	1.54
292.153	44.54
292.368	-4.61
292.583	38.4
292.798	67.07
293.012	26.11
293.227	17.92
293.442	-41.47
293.657	-16.9
293.871	85.5
294.086	67.07
294.301	116.22
294.516	71.17
294.73	-18.94
294.945	-47.62
295.16	13.82
295.374	-10.75
295.589	99.84
295.804	26.11
296.018	91.65
296.233	95.74
296.447	-18.94
296.662	38.4
296.877	44.54
297.091	-4.61
297.306	60.93
297.52	58.88
297.735	79.36
297.949	26.11
298.164	26.11
298.378	13.82
298.593	5.63
298.807	-18.94
299.022	62.98
299.236	71.17
299.451	28.16
299.665	38.4
299.88	-33.28
300.094	69.12
300.309	-92.67
300.523	54.78
300.737	13.82
300.952	34.3
301.166	69.12
301.381	73.21
301.595	-4.61
301.809	-18.94
302.024	34.3
302.238	-31.23
302.452	26.11
302.667	-2.56
302.881	15.87
303.095	50.69
303.309	22.02
303.524	30.21
303.738	46.59
303.952	5.63
304.166	69.12
304.381	-80.38
304.595	120.32
304.809	15.87
305.023	73.21
305.237	-43.52
305.452	11.78
305.666	56.83
305.88	44.54
306.094	69.12
306.308	19.97
306.522	101.89
306.736	54.78
306.95	101.89
307.164	26.11
307.379	19.97
307.593	89.6
307.807	146.94
308.021	71.17
308.235	-29.18
308.449	-33.28
308.663	19.97
308.877	126.46
309.091	32.26
309.305	13.82
309.519	-33.28
309.733	-10.75
309.947	3.58
310.161	13.82
310.374	13.82
310.588	77.31
310.802	-20.99
311.016	22.02
311.23	38.4
311.444	60.93
311.658	9.73
311.872	95.74
312.085	54.78
312.299	75.26
312.513	30.21
312.727	22.02
312.941	-49.66
313.154	30.21
313.368	44.54
313.582	-33.28
313.796	46.59
314.009	62.98
314.223	28.16
314.437	-18.94
314.651	13.82
314.864	71.17
315.078	58.88
315.292	71.17
315.505	17.92
315.719	9.73
315.933	79.36
316.146	17.92
316.36	3.58
316.573	108.03
316.787	-20.99
317.001	42.5
317.214	1.54
317.428	40.45
317.641	1.54
317.855	-2.56
318.068	-39.42
318.282	42.5
318.495	118.27
318.709	54.78
318.922	62.98
319.136	120.32
319.349	93.69
319.563	-29.18
319.776	112.13
319.99	-84.48
320.203	58.88
320.417	-61.95
320.63	65.02
320.843	19.97
321.057	30.21
321.27	69.12
321.483	-4.61
321.697	60.93
321.91	1.54
322.124	24.06
322.337	42.5
322.55	-88.57
322.763	-35.33
322.977	-27.14
323.19	56.83
323.403	40.45
323.617	46.59
323.83	105.98
324.043	7.68
324.256	19.97
324.469	17.92
324.683	87.55
324.896	13.82
325.109	46.59
325.322	-29.18
325.535	9.73
325.748	46.59
325.962	5.63
326.175	-72.19
326.388	56.83
326.601	77.31
326.814	17.92
327.027	67.07
327.24	22.02
327.453	-96.77
327.666	-0.51
327.879	46.59
328.092	71.17
328.305	83.45
328.518	26.11
328.731	-14.85
328.944	26.11
329.157	60.93
329.37	42.5
329.583	71.17
329.796	42.5
330.009	52.74
330.222	5.63
330.435	48.64
330.648	11.78
330.861	-20.99
331.073	103.93
331.286	52.74
331.499	19.97
331.712	52.74
331.925	26.11
332.138	36.35
332.35	58.88
332.563	30.21
332.776	38.4
332.989	-70.14
333.202	26.11
333.414	50.69
333.627	-27.14
333.84	-2.56
334.053	71.17
334.265	60.93
334.478	30.21
334.691	22.02
334.903	-8.7
335.116	-12.8
335.329	58.88
335.541	26.11
335.754	95.74
335.966	3.58
336.179	-35.33
336.392	-27.14
336.604	69.12
336.817	140.8
337.029	30.21
337.242	1.54
337.454	40.45
337.667	56.83
337.88	77.31
338.092	56.83
338.305	60.93
338.517	11.78
338.729	69.12
338.942	52.74
339.154	50.69
339.367	-18.94
339.579	58.88
339.792	34.3
340.004	95.74
340.217	30.21
340.429	-12.8
340.641	-43.52
340.854	-6.66
341.066	7.68
341.278	71.17
341.491	50.69
341.703	44.54
341.915	38.4
342.128	91.65
342.34	32.26
342.552	19.97
342.764	-18.94
342.977	60.93
343.189	46.59
343.401	105.98
343.613	9.73
343.826	83.45
344.038	-10.75
344.25	-29.18
344.462	-29.18
344.674	91.65
344.886	-43.52
345.099	54.78
345.311	54.78
345.523	-23.04
345.735	-6.66
345.947	13.82
346.159	-10.75
346.371	38.4
346.583	-2.56
346.795	110.08
347.007	7.68
347.219	69.12
347.431	17.92
347.643	103.93
347.855	-0.51
348.067	67.07
348.279	-84.48
348.491	103.93
348.703	124.41
348.915	24.06
349.127	44.54
349.339	-6.66
349.551	95.74
349.763	71.17
349.975	-23.04
350.187	95.74
350.399	95.74
350.61	93.69
350.822	22.02
351.034	95.74
351.246	46.59
351.458	103.93
351.669	9.73
351.881	101.89
352.093	79.36
352.305	56.83
352.517	58.88
352.728	38.4
352.94	75.26
353.152	-8.7
353.363	38.4
353.575	60.93
353.787	28.16
353.999	24.06
354.21	103.93
354.422	-27.14
354.633	22.02
354.845	34.3
355.057	19.97
355.268	62.98
355.48	69.12
355.692	-27.14
355.903	48.64
356.115	-27.14
356.326	11.78
356.538	-45.57
356.749	95.74
356.961	91.65
357.172	22.02
357.384	-41.47
357.595	69.12
357.807	-10.75
358.018	-27.14
358.23	46.59
358.441	42.5
358.653	103.93
358.864	114.17
359.075	22.02
359.287	91.65
359.498	28.16
359.709	67.07
359.921	-35.33
360.132	46.59
360.344	28.16
360.555	-51.71
360.766	52.74
360.977	19.97
361.189	38.4
361.4	-10.75
361.611	161.28
361.823	3.58
362.034	48.64
362.245	73.21
362.456	-86.53
362.667	30.21
362.879	-6.66
363.09	87.55
363.301	42.5
363.512	28.16
363.723	-18.94
363.935	-10.75
364.146	77.31
364.357	-0.51
364.568	52.74
364.779	30.21
364.99	77.31
365.201	28.16
365.412	40.45
365.623	17.92
365.834	67.07
366.045	13.82
366.256	19.97
366.467	26.11
366.678	97.79
366.889	71.17
367.1	62.98
367.311	54.78
367.522	46.59
367.733	28.16
367.944	44.54
368.155	46.59
368.366	60.93
368.577	118.27
368.788	69.12
368.999	22.02
369.209	26.11
369.42	38.4
369.631	75.26
369.842	71.17
370.053	30.21
370.264	87.55
370.474	-31.23
370.685	11.78
370.896	42.5
371.107	81.41
371.317	28.16
371.528	22.02
371.739	110.08
371.95	28.16
372.16	5.63
372.371	9.73
372.582	19.97
372.792	7.68
373.003	58.88
373.214	-51.71
373.424	-12.8
373.635	22.02
373.846	34.3
374.056	1.54
374.267	34.3
374.477	93.69
374.688	44.54
374.898	34.3
375.109	67.07
375.319	19.97
375.53	93.69
375.74	112.13
375.951	60.93
376.161	136.7
376.372	30.21
376.582	54.78
376.793	28.16
377.003	19.97
377.214	-23.04
377.424	54.78
377.635	40.45
377.845	-6.66
378.055	28.16
378.266	-37.38
378.476	75.26
378.686	42.5
378.897	75.26
379.107	42.5
379.317	124.41
379.528	60.93
379.738	75.26
379.948	44.54
380.158	58.88
380.369	40.45
380.579	71.17
380.789	58.88
380.999	13.82
381.21	36.35
381.42	85.5
381.63	22.02
381.84	79.36
382.05	36.35
382.261	46.59
382.471	142.85
382.681	13.82
382.891	165.37
383.101	62.98
383.311	5.63
383.521	13.82
383.731	19.97
383.941	79.36
384.151	3.58
384.361	108.03
384.571	44.54
384.781	71.17
384.991	93.69
385.201	75.26
385.411	60.93
385.621	79.36
385.831	13.82
386.041	17.92
386.251	11.78
386.461	15.87
386.671	38.4
386.881	13.82
387.091	46.59
387.301	83.45
387.511	75.26
387.72	44.54
387.93	79.36
388.14	58.88
388.35	-33.28
388.56	56.83
388.769	52.74
388.979	85.5
389.189	3.58
389.399	-0.51
389.609	30.21
389.818	101.89
390.028	65.02
390.238	13.82
390.447	54.78
390.657	22.02
390.867	-31.23
391.076	30.21
391.286	85.5
391.496	91.65
391.705	17.92
391.915	30.21
392.125	-4.61
392.334	5.63
392.544	26.11
392.753	77.31
392.963	-23.04
393.172	44.54
393.382	67.07
393.591	146.94
393.801	95.74
394.01	99.84
394.22	67.07
394.429	83.45
394.639	67.07
394.848	38.4
395.058	52.74
395.267	99.84
395.477	71.17
395.686	3.58
395.895	134.65
396.105	144.89
396.314	87.55
396.524	83.45
396.733	79.36
396.942	132.61
397.152	134.65
397.361	148.99
397.57	75.26
397.78	161.28
397.989	126.46
398.198	42.5
398.407	112.13
398.617	153.09
398.826	95.74
399.035	9.73
399.244	134.65
399.453	93.69
399.663	105.98
399.872	105.98
400.081	44.54
400.29	93.69
400.499	67.07
400.708	89.6
400.917	120.32
401.127	142.85
401.336	110.08
401.545	128.51
401.754	144.89
401.963	142.85
402.172	3.58
402.381	-6.66
402.59	60.93
402.799	124.41
403.008	124.41
403.217	83.45
403.426	99.84
403.635	17.92
403.844	95.74
404.053	157.18
404.262	116.22
404.471	216.57
404.68	126.46
404.888	124.41
405.097	159.23
405.306	120.32
405.515	85.5
405.724	85.5
405.933	136.7
406.142	136.7
406.35	151.04
406.559	71.17
406.768	87.55
406.977	148.99
407.185	185.85
407.394	194.05
407.603	112.13
407.812	134.65
408.02	220.67
408.229	224.76
408.438	206.33
408.646	210.43
408.855	155.13
409.064	245.24
409.272	257.53
409.481	224.76
409.69	192
409.898	210.43
410.107	263.68
410.315	292.35
410.524	237.05
410.733	226.81
410.941	296.44
411.15	286.2
411.358	261.63
411.567	341.5
411.775	282.11
411.984	325.12
412.192	359.93
412.401	261.63
412.609	339.45
412.818	355.83
413.026	323.07
413.234	361.98
413.443	321.02
413.651	300.54
413.86	464.38
414.068	396.79
414.276	558.58
414.485	462.33
414.693	513.53
414.901	517.62
415.11	435.71
415.318	513.53
415.526	472.57
415.734	591.35
415.943	628.21
416.151	624.12
416.359	595.45
416.567	658.93
416.776	714.23
416.984	738.8
417.192	724.47
417.4	816.63
417.608	720.37
417.817	779.76
418.025	830.96
418.233	931.31
418.441	783.86
418.649	869.87
418.857	847.35
419.065	1084.91
419.273	1046
419.481	1054.19
419.689	1103.34
419.897	1029.62
420.105	1074.67
420.313	1179.12
420.521	1183.21
420.729	1250.8
420.937	1193.45
421.145	1365.48
421.353	1406.44
421.561	1410.54
421.769	1461.74
421.977	1576.42
422.185	1494.51
422.393	1684.97
422.601	1668.58
422.809	1646.05
423.017	1742.31
423.224	1820.13
423.432	1879.52
423.64	1895.91
423.848	2090.46
424.056	2102.75
424.263	2090.46
424.471	2096.61
424.679	2223.58
424.887	2217.44
425.094	2381.28
425.302	2381.28
425.51	2498.01
425.718	2389.47
425.925	2643.42
426.133	2575.83
426.341	2860.5
426.548	2840.02
426.756	2971.09
426.964	2952.66
427.171	3149.26
427.379	3274.19
427.586	3362.25
427.794	3411.4
428.001	3562.95
428.209	3644.87
428.417	3849.67
428.624	3845.57
428.832	3878.34
429.039	3902.92
429.247	3954.12
429.454	4287.93
429.662	4634.04
429.869	4242.88
430.076	4494.78
430.284	4355.52
430.491	4586.94
430.699	4910.52
430.906	4818.36
431.114	5008.82
431.321	5195.18
431.528	5213.62
431.736	5596.59
431.943	5785
432.15	5586.35
432.358	5670.31
432.565	5971.36
432.772	5934.5
432.979	6137.25
433.187	6337.95
433.394	6466.97
433.601	7013.78
433.808	6933.91
434.016	6780.31
434.223	7173.52
434.43	7650.7
434.637	7361.94
434.844	7783.82
435.052	7974.28
435.259	7992.71
435.466	7853.45
435.673	7900.55
435.88	8500.61
436.087	9012.6
436.294	8988.02
436.501	8852.86
436.708	8998.26
436.915	9379.18
437.122	9594.22
437.329	9639.28
437.537	10057.06
437.743	9979.24
437.95	9774.44
438.157	10671.45
438.364	10827.1
438.571	10786.14
438.778	10792.28
438.985	11924.81
439.192	11453.78
439.399	11765.07
439.606	11595.09
439.813	12381.51
440.02	12993.85
440.227	12567.87
440.433	12602.69
440.64	13165.88
440.847	12950.84
441.054	13268.28
441.261	14230.82
441.467	13923.63
441.674	14234.92
441.881	14816.54
442.088	14585.12
442.294	14791.97
442.501	15142.17
442.708	15463.7
442.914	15789.33
443.121	16446.73
443.328	15930.64
443.534	17157.37
443.741	16700.67
443.948	16596.23
444.154	18023.66
444.361	17902.83
444.568	17978.61
444.774	17962.22
444.981	18171.11
445.187	18629.86
445.394	19125.47
445.6	19254.49
445.807	20937.92
446.013	20276.43
446.22	20462.79
446.426	21259.45
446.633	21437.62
446.839	21937.33
447.046	21259.45
447.252	22308.01
447.459	22293.68
447.665	22320.3
447.871	23082.14
448.078	24235.15
448.284	23284.89
448.491	23616.66
448.697	24726.66
448.903	24958.08
449.11	24896.64
449.316	24620.17
449.522	25087.11
449.728	25764.98
449.935	25996.4
450.141	26047.6
450.347	26549.35
450.553	25922.68
450.76	26186.86
450.966	27053.16
451.172	26473.58
451.378	27575.39
451.584	26754.15
451.791	27694.17
451.997	27130.98
452.203	27720.79
452.409	27501.66
452.615	27569.24
452.821	26571.88
453.027	26406
453.233	28044.37
453.44	26616.94
453.646	26666.09
453.852	26907.75
454.058	27290.72
454.264	26401.9
454.47	27180.13
454.676	26236.02
454.882	27079.78
455.088	24841.35
455.294	25287.81
455.5	25756.79
455.705	25982.07
455.911	25003.14
456.117	24261.77
456.323	24054.93
456.529	22637.73
456.735	23727.25
456.941	23377.05
457.147	22836.39
457.352	21882.03
457.558	21882.03
457.764	21826.74
457.97	21396.67
458.176	20917.44
458.381	20911.3
458.587	19938.51
458.793	20047.05
458.999	18642.15
459.204	20012.24
459.41	19600.6
459.616	18257.13
459.821	18195.69
460.027	18154.73
460.233	18150.64
460.438	17009.92
460.644	17304.82
460.85	16403.72
461.055	16209.16
461.261	15938.83
461.466	14761.25
461.672	14406.95
461.878	15414.55
462.083	14624.03
462.289	14034.22
462.494	13962.54
462.7	13503.79
462.905	12965.18
463.111	13511.99
463.316	13458.74
463.522	13286.71
463.727	13055.29
463.932	13212.98
464.138	12801.34
464.343	12774.72
464.549	12911.93
464.754	13155.64
464.959	13188.41
465.165	12846.4
465.37	12352.84
465.575	12311.88
465.781	12625.22
465.986	12592.45
466.191	12326.21
466.397	11887.95
466.602	11396.43
466.807	11752.78
467.012	11672.91
467.218	11988.3
467.423	11464.02
