Data from USB4F104151__12__11-29-44-418.txt Node

Date: Fri Mar 14 11:29:44 EDT 2025
User: louis
Spectrometer: USB4F10415
Trigger mode: 4
Integration Time (sec): 5.000000E-2
Scans to average: 1
Electric dark correction enabled: true
Nonlinearity correction enabled: false
Boxcar width: 0
XAxis mode: Wavelengths
Number of Pixels in Spectrum: 3648
>>>>>Begin Spectral Data<<<<<
178.204	-93.35
178.424	-93.35
178.644	-93.35
178.864	-177.32
179.084	-154.79
179.304	27.48
179.524	9.05
179.744	-70.83
179.964	109.4
180.184	7
180.404	-9.39
180.624	13.14
180.844	-38.06
181.064	4.95
181.283	-36.01
181.503	-74.92
181.723	58.2
181.943	21.33
182.163	50
182.383	25.43
182.602	99.16
182.822	78.68
183.042	17.24
183.262	66.39
183.482	-44.2
183.701	13.14
183.921	37.72
184.141	4.95
184.361	123.73
184.58	13.14
184.8	11.09
185.02	76.63
185.239	101.2
185.459	66.39
185.679	93.01
185.898	-11.43
186.118	84.82
186.338	35.67
186.557	80.72
186.777	29.52
186.997	86.87
187.216	105.3
187.436	78.68
187.655	78.68
187.875	105.3
188.095	56.15
188.314	39.76
188.534	95.06
188.753	99.16
188.973	60.24
189.192	142.16
189.412	84.82
189.631	109.4
189.851	80.72
190.07	74.58
190.29	-19.63
190.509	17.24
190.729	29.52
190.948	21.33
191.168	248.66
191.387	84.82
191.607	-5.29
191.826	54.1
192.045	27.48
192.265	54.1
192.484	2.9
192.704	25.43
192.923	31.57
193.142	80.72
193.362	60.24
193.581	115.54
193.8	101.2
194.02	2.9
194.239	21.33
194.458	-27.82
194.678	-3.24
194.897	103.25
195.116	84.82
195.335	4.95
195.555	99.16
195.774	25.43
195.993	52.05
196.212	86.87
196.432	82.77
196.651	-11.43
196.87	11.09
197.089	78.68
197.308	62.29
197.528	111.44
197.747	39.76
197.966	27.48
198.185	84.82
198.404	-40.11
198.623	-21.67
198.842	68.44
199.062	93.01
199.281	29.52
199.5	-11.43
199.719	9.05
199.938	45.91
200.157	64.34
200.376	25.43
200.595	136.02
200.814	54.1
201.033	17.24
201.252	86.87
201.471	-21.67
201.69	43.86
201.909	54.1
202.128	93.01
202.347	66.39
202.566	19.29
202.785	-44.2
203.004	7
203.223	64.34
203.442	15.19
203.661	37.72
203.879	25.43
204.098	47.96
204.317	2.9
204.536	31.57
204.755	21.33
204.974	52.05
205.193	54.1
205.411	21.33
205.63	41.81
205.849	33.62
206.068	74.58
206.287	-13.48
206.505	140.12
206.724	2.9
206.943	13.14
207.162	39.76
207.381	19.29
207.599	-7.34
207.818	-15.53
208.037	95.06
208.255	27.48
208.474	68.44
208.693	27.48
208.911	2.9
209.13	54.1
209.349	64.34
209.567	21.33
209.786	74.58
210.005	37.72
210.223	52.05
210.442	-60.59
210.661	97.11
210.879	70.48
211.098	7
211.316	62.29
211.535	33.62
211.753	70.48
211.972	50
212.191	9.05
212.409	54.1
212.628	23.38
212.846	82.77
213.065	93.01
213.283	97.11
213.502	41.81
213.72	-9.39
213.938	27.48
214.157	62.29
214.375	27.48
214.594	70.48
214.812	127.83
215.031	31.57
215.249	17.24
215.467	93.01
215.686	60.24
215.904	80.72
216.122	52.05
216.341	113.49
216.559	76.63
216.778	35.67
216.996	37.72
217.214	-11.43
217.432	60.24
217.651	45.91
217.869	123.73
218.087	88.92
218.306	17.24
218.524	-19.63
218.742	-44.2
218.96	29.52
219.179	82.77
219.397	62.29
219.615	66.39
219.833	21.33
220.051	13.14
220.27	78.68
220.488	21.33
220.706	62.29
220.924	123.73
221.142	33.62
221.36	107.35
221.578	68.44
221.796	62.29
222.015	90.96
222.233	21.33
222.451	109.4
222.669	-19.63
222.887	64.34
223.105	-11.43
223.323	-19.63
223.541	-44.2
223.759	125.78
223.977	21.33
224.195	107.35
224.413	25.43
224.631	123.73
224.849	74.58
225.067	148.31
225.285	29.52
225.503	56.15
225.721	-13.48
225.939	54.1
226.157	136.02
226.375	99.16
226.592	62.29
226.81	17.24
227.028	101.2
227.246	199.51
227.464	52.05
227.682	52.05
227.9	50
228.117	86.87
228.335	19.29
228.553	43.86
228.771	93.01
228.989	84.82
229.206	-13.48
229.424	64.34
229.642	17.24
229.86	7
230.077	111.44
230.295	90.96
230.513	62.29
230.731	-17.58
230.948	64.34
231.166	7
231.384	-19.63
231.601	54.1
231.819	74.58
232.037	62.29
232.254	-27.82
232.472	47.96
232.689	11.09
232.907	68.44
233.125	86.87
233.342	25.43
233.56	-44.2
233.777	66.39
233.995	74.58
234.213	119.64
234.43	86.87
234.648	37.72
234.865	95.06
235.083	111.44
235.3	95.06
235.518	62.29
235.735	125.78
235.953	95.06
236.17	76.63
236.388	41.81
236.605	11.09
236.822	56.15
237.04	109.4
237.257	62.29
237.475	0.85
237.692	70.48
237.909	37.72
238.127	29.52
238.344	11.09
238.562	125.78
238.779	4.95
238.996	-46.25
239.214	21.33
239.431	148.31
239.648	25.43
239.865	54.1
240.083	27.48
240.3	45.91
240.517	-19.63
240.735	70.48
240.952	62.29
241.169	68.44
241.386	29.52
241.603	-19.63
241.821	54.1
242.038	109.4
242.255	93.01
242.472	43.86
242.689	33.62
242.907	76.63
243.124	27.48
243.341	41.81
243.558	-23.72
243.775	-33.96
243.992	9.05
244.209	37.72
244.426	78.68
244.643	60.24
244.86	-31.91
245.078	129.88
245.295	54.1
245.512	72.53
245.729	-56.49
245.946	84.82
246.163	103.25
246.38	64.34
246.597	-48.3
246.814	35.67
247.031	-7.34
247.248	29.52
247.464	9.05
247.681	35.67
247.898	90.96
248.115	58.2
248.332	-15.53
248.549	76.63
248.766	119.64
248.983	101.2
249.2	95.06
249.417	80.72
249.633	107.35
249.85	64.34
250.067	50
250.284	-7.34
250.501	78.68
250.717	66.39
250.934	13.14
251.151	-33.96
251.368	84.82
251.585	35.67
251.801	109.4
252.018	127.83
252.235	45.91
252.451	15.19
252.668	95.06
252.885	70.48
253.102	133.97
253.318	19.29
253.535	37.72
253.752	62.29
253.968	-11.43
254.185	2.9
254.401	62.29
254.618	111.44
254.835	68.44
255.051	93.01
255.268	109.4
255.484	31.57
255.701	21.33
255.917	103.25
256.134	4.95
256.351	25.43
256.567	35.67
256.784	54.1
257	19.29
257.217	43.86
257.433	29.52
257.65	113.49
257.866	31.57
258.082	60.24
258.299	45.91
258.515	74.58
258.732	41.81
258.948	-11.43
259.165	4.95
259.381	0.85
259.597	70.48
259.814	35.67
260.03	86.87
260.246	54.1
260.463	33.62
260.679	45.91
260.895	54.1
261.112	74.58
261.328	54.1
261.544	2.9
261.761	127.83
261.977	21.33
262.193	-46.25
262.409	9.05
262.626	54.1
262.842	103.25
263.058	27.48
263.274	142.16
263.49	74.58
263.707	111.44
263.923	21.33
264.139	84.82
264.355	52.05
264.571	93.01
264.787	45.91
265.004	64.34
265.22	27.48
265.436	-23.72
265.652	-31.91
265.868	84.82
266.084	21.33
266.3	78.68
266.516	78.68
266.732	25.43
266.948	78.68
267.164	52.05
267.38	93.01
267.596	4.95
267.812	52.05
268.028	105.3
268.244	74.58
268.46	60.24
268.676	103.25
268.892	101.2
269.108	47.96
269.324	11.09
269.54	9.05
269.756	29.52
269.972	45.91
270.188	70.48
270.403	70.48
270.619	-3.24
270.835	56.15
271.051	45.91
271.267	60.24
271.483	27.48
271.698	17.24
271.914	76.63
272.13	-15.53
272.346	95.06
272.562	-62.63
272.777	-1.19
272.993	97.11
273.209	29.52
273.425	125.78
273.64	43.86
273.856	107.35
274.072	50
274.287	45.91
274.503	52.05
274.719	45.91
274.934	86.87
275.15	-19.63
275.366	29.52
275.581	-42.15
275.797	54.1
276.012	-13.48
276.228	127.83
276.444	45.91
276.659	117.59
276.875	4.95
277.09	78.68
277.306	70.48
277.521	7
277.737	54.1
277.952	54.1
278.168	41.81
278.383	123.73
278.599	62.29
278.814	15.19
279.03	86.87
279.245	45.91
279.461	45.91
279.676	78.68
279.892	45.91
280.107	62.29
280.322	33.62
280.538	33.62
280.753	13.14
280.969	19.29
281.184	52.05
281.399	2.9
281.615	-19.63
281.83	25.43
282.045	74.58
282.26	39.76
282.476	29.52
282.691	58.2
282.906	-27.82
283.122	-36.01
283.337	74.58
283.552	78.68
283.767	37.72
283.983	97.11
284.198	17.24
284.413	101.2
284.628	103.25
284.843	62.29
285.058	95.06
285.274	68.44
285.489	-19.63
285.704	117.59
285.919	-19.63
286.134	93.01
286.349	15.19
286.564	-13.48
286.779	113.49
286.995	35.67
287.21	-40.11
287.425	25.43
287.64	35.67
287.855	115.54
288.07	82.77
288.285	119.64
288.5	54.1
288.715	86.87
288.93	45.91
289.145	21.33
289.36	93.01
289.575	45.91
289.79	76.63
290.004	84.82
290.219	95.06
290.434	11.09
290.649	35.67
290.864	88.92
291.079	-13.48
291.294	21.33
291.509	78.68
291.724	13.14
291.938	-3.24
292.153	23.38
292.368	-15.53
292.583	39.76
292.798	41.81
293.012	74.58
293.227	50
293.442	2.9
293.657	95.06
293.871	58.2
294.086	86.87
294.301	127.83
294.516	131.92
294.73	13.14
294.945	-15.53
295.16	93.01
295.374	115.54
295.589	68.44
295.804	13.14
296.018	15.19
296.233	66.39
296.447	64.34
296.662	54.1
296.877	60.24
297.091	47.96
297.306	68.44
297.52	84.82
297.735	93.01
297.949	125.78
298.164	76.63
298.378	37.72
298.593	25.43
298.807	-36.01
299.022	54.1
299.236	119.64
299.451	70.48
299.665	50
299.88	41.81
300.094	21.33
300.309	58.2
300.523	0.85
300.737	41.81
300.952	72.53
301.166	66.39
301.381	15.19
301.595	13.14
301.809	74.58
302.024	-7.34
302.238	43.86
302.452	41.81
302.667	33.62
302.881	111.44
303.095	88.92
303.309	43.86
303.524	54.1
303.738	7
303.952	4.95
304.166	47.96
304.381	13.14
304.595	133.97
304.809	82.77
305.023	31.57
305.237	82.77
305.452	21.33
305.666	23.38
305.88	86.87
306.094	66.39
306.308	-13.48
306.522	27.48
306.736	33.62
306.95	74.58
307.164	-40.11
307.379	9.05
307.593	93.01
307.807	109.4
308.021	35.67
308.235	-5.29
308.449	11.09
308.663	62.29
308.877	109.4
309.091	25.43
309.305	111.44
309.519	-36.01
309.733	86.87
309.947	2.9
310.161	95.06
310.374	107.35
310.588	19.29
310.802	0.85
311.016	54.1
311.23	82.77
311.444	43.86
311.658	-11.43
311.872	58.2
312.085	78.68
312.299	103.25
312.513	74.58
312.727	99.16
312.941	19.29
313.154	41.81
313.368	-9.39
313.582	45.91
313.796	70.48
314.009	43.86
314.223	74.58
314.437	90.96
314.651	25.43
314.864	115.54
315.078	29.52
315.292	33.62
315.505	39.76
315.719	62.29
315.933	27.48
316.146	60.24
316.36	31.57
316.573	109.4
316.787	99.16
317.001	70.48
317.214	43.86
317.428	78.68
317.641	50
317.855	52.05
318.068	-31.91
318.282	93.01
318.495	142.16
318.709	101.2
318.922	25.43
319.136	72.53
319.349	123.73
319.563	86.87
319.776	66.39
319.99	39.76
320.203	93.01
320.417	29.52
320.63	95.06
320.843	52.05
321.057	35.67
321.27	109.4
321.483	82.77
321.697	107.35
321.91	45.91
322.124	78.68
322.337	62.29
322.55	33.62
322.763	125.78
322.977	82.77
323.19	60.24
323.403	84.82
323.617	84.82
323.83	127.83
324.043	76.63
324.256	95.06
324.469	4.95
324.683	66.39
324.896	-5.29
325.109	74.58
325.322	45.91
325.535	136.02
325.748	150.36
325.962	29.52
326.175	107.35
326.388	21.33
326.601	54.1
326.814	74.58
327.027	4.95
327.24	156.5
327.453	-19.63
327.666	35.67
327.879	29.52
328.092	80.72
328.305	68.44
328.518	99.16
328.731	54.1
328.944	82.77
329.157	13.14
329.37	0.85
329.583	93.01
329.796	103.25
330.009	7
330.222	21.33
330.435	50
330.648	86.87
330.861	13.14
331.073	37.72
331.286	111.44
331.499	90.96
331.712	2.9
331.925	78.68
332.138	11.09
332.35	136.02
332.563	84.82
332.776	93.01
332.989	13.14
333.202	-15.53
333.414	70.48
333.627	45.91
333.84	21.33
334.053	62.29
334.265	47.96
334.478	76.63
334.691	25.43
334.903	54.1
335.116	11.09
335.329	68.44
335.541	21.33
335.754	181.07
335.966	84.82
336.179	95.06
336.392	82.77
336.604	76.63
336.817	119.64
337.029	2.9
337.242	90.96
337.454	45.91
337.667	-5.29
337.88	78.68
338.092	60.24
338.305	131.92
338.517	95.06
338.729	78.68
338.942	164.69
339.154	13.14
339.367	-17.58
339.579	43.86
339.792	11.09
340.004	74.58
340.217	99.16
340.429	152.4
340.641	27.48
340.854	82.77
341.066	58.2
341.278	62.29
341.491	226.13
341.703	74.58
341.915	62.29
342.128	131.92
342.34	125.78
342.552	-3.24
342.764	23.38
342.977	111.44
343.189	84.82
343.401	66.39
343.613	70.48
343.826	78.68
344.038	13.14
344.25	66.39
344.462	58.2
344.674	103.25
344.886	74.58
345.099	111.44
345.311	119.64
345.523	43.86
345.735	4.95
345.947	62.29
346.159	86.87
346.371	62.29
346.583	37.72
346.795	88.92
347.007	58.2
347.219	60.24
347.431	37.72
347.643	176.98
347.855	62.29
348.067	95.06
348.279	33.62
348.491	62.29
348.703	78.68
348.915	29.52
349.127	54.1
349.339	119.64
349.551	37.72
349.763	138.07
349.975	97.11
350.187	162.64
350.399	115.54
350.61	78.68
350.822	0.85
351.034	82.77
351.246	70.48
351.458	136.02
351.669	68.44
351.881	101.2
352.093	13.14
352.305	76.63
352.517	93.01
352.728	113.49
352.94	33.62
353.152	119.64
353.363	13.14
353.575	66.39
353.787	103.25
353.999	78.68
354.21	166.74
354.422	39.76
354.633	7
354.845	43.86
355.057	78.68
355.268	74.58
355.48	119.64
355.692	33.62
355.903	-3.24
356.115	103.25
356.326	15.19
356.538	111.44
356.749	93.01
356.961	101.2
357.172	66.39
357.384	17.24
357.595	138.07
357.807	54.1
358.018	37.72
358.23	76.63
358.441	138.07
358.653	62.29
358.864	41.81
359.075	123.73
359.287	95.06
359.498	142.16
359.709	101.2
359.921	86.87
360.132	41.81
360.344	107.35
360.555	39.76
360.766	152.4
360.977	95.06
361.189	70.48
361.4	103.25
361.611	125.78
361.823	86.87
362.034	66.39
362.245	0.85
362.456	56.15
362.667	68.44
362.879	29.52
363.09	95.06
363.301	72.53
363.512	45.91
363.723	127.83
363.935	70.48
364.146	109.4
364.357	82.77
364.568	136.02
364.779	27.48
364.99	123.73
365.201	99.16
365.412	86.87
365.623	66.39
365.834	64.34
366.045	103.25
366.256	70.48
366.467	58.2
366.678	95.06
366.889	60.24
367.1	45.91
367.311	131.92
367.522	62.29
367.733	86.87
367.944	129.88
368.155	25.43
368.366	78.68
368.577	90.96
368.788	82.77
368.999	97.11
369.209	90.96
369.42	131.92
369.631	160.59
369.842	54.1
370.053	82.77
370.264	45.91
370.474	-48.3
370.685	0.85
370.896	21.33
371.107	82.77
371.317	84.82
371.528	60.24
371.739	33.62
371.95	166.74
372.16	123.73
372.371	35.67
372.582	97.11
372.792	37.72
373.003	109.4
373.214	-23.72
373.424	29.52
373.635	21.33
373.846	97.11
374.056	50
374.267	123.73
374.477	103.25
374.688	-3.24
374.898	33.62
375.109	76.63
375.319	41.81
375.53	123.73
375.74	121.68
375.951	21.33
376.161	58.2
376.372	174.93
376.582	58.2
376.793	58.2
377.003	74.58
377.214	78.68
377.424	140.12
377.635	33.62
377.845	27.48
378.055	119.64
378.266	21.33
378.476	25.43
378.686	93.01
378.897	90.96
379.107	138.07
379.317	97.11
379.528	15.19
379.738	86.87
379.948	50
380.158	58.2
380.369	52.05
380.579	183.12
380.789	45.91
380.999	31.57
381.21	70.48
381.42	76.63
381.63	70.48
381.84	76.63
382.05	195.41
382.261	33.62
382.471	17.24
382.681	13.14
382.891	152.4
383.101	123.73
383.311	-7.34
383.521	97.11
383.731	82.77
383.941	115.54
384.151	127.83
384.361	17.24
384.571	80.72
384.781	109.4
384.991	123.73
385.201	191.31
385.411	148.31
385.621	54.1
385.831	115.54
386.041	115.54
386.251	117.59
386.461	70.48
386.671	107.35
386.881	84.82
387.091	37.72
387.301	117.59
387.511	88.92
387.72	107.35
387.93	74.58
388.14	47.96
388.35	93.01
388.56	158.55
388.769	115.54
388.979	50
389.189	17.24
389.399	125.78
389.609	78.68
389.818	121.68
390.028	127.83
390.238	97.11
390.447	78.68
390.657	93.01
390.867	9.05
391.076	78.68
391.286	160.59
391.496	111.44
391.705	78.68
391.915	133.97
392.125	170.83
392.334	76.63
392.544	136.02
392.753	45.91
392.963	101.2
393.172	176.98
393.382	29.52
393.591	168.79
393.801	66.39
394.01	154.45
394.22	90.96
394.429	74.58
394.639	113.49
394.848	140.12
395.058	168.79
395.267	76.63
395.477	158.55
395.686	160.59
395.895	140.12
396.105	111.44
396.314	76.63
396.524	125.78
396.733	84.82
396.942	154.45
397.152	230.23
397.361	115.54
397.57	97.11
397.78	127.83
397.989	140.12
398.198	150.36
398.407	133.97
398.617	174.93
398.826	142.16
399.035	148.31
399.244	101.2
399.453	176.98
399.663	158.55
399.872	181.07
400.081	160.59
400.29	160.59
400.499	156.5
400.708	109.4
400.917	93.01
401.127	125.78
401.336	90.96
401.545	275.28
401.754	240.47
401.963	205.65
402.172	101.2
402.381	62.29
402.59	150.36
402.799	176.98
403.008	275.28
403.217	152.4
403.426	183.12
403.635	144.21
403.844	150.36
404.053	193.36
404.262	160.59
404.471	244.56
404.68	113.49
404.888	168.79
405.097	166.74
405.306	133.97
405.515	133.97
405.724	250.71
405.933	250.71
406.142	222.03
406.35	285.52
406.559	238.42
406.768	232.27
406.977	306
407.185	201.55
407.394	240.47
407.603	217.94
407.812	265.04
408.02	297.81
408.229	310.1
408.438	283.47
408.646	246.61
408.855	332.62
409.064	279.38
409.272	273.23
409.481	328.53
409.69	291.66
409.898	326.48
410.107	361.3
410.315	314.19
410.524	389.97
410.733	422.73
410.941	394.06
411.15	394.06
411.358	406.35
411.567	492.37
411.775	475.98
411.984	420.69
412.192	349.01
412.401	525.13
412.609	590.67
412.818	521.04
413.026	521.04
413.234	578.38
413.443	586.57
413.651	541.52
413.86	588.62
414.068	695.11
414.276	676.68
414.485	715.59
414.693	734.03
414.901	678.73
415.11	832.33
415.318	797.51
415.526	811.85
415.734	750.41
415.943	910.15
416.151	955.21
416.359	955.21
416.567	994.12
416.776	1004.36
416.984	1041.22
417.192	1098.56
417.4	1143.62
417.608	1028.93
417.817	1160
418.025	1176.39
418.233	1340.22
418.441	1329.99
418.649	1323.84
418.857	1442.62
419.065	1512.25
419.273	1399.62
419.481	1590.08
419.689	1536.83
419.897	1698.62
420.105	1762.11
420.313	1684.28
420.521	1901.37
420.729	1856.31
420.937	1891.13
421.145	2007.86
421.353	1956.66
421.561	2245.43
421.769	2126.64
421.977	2179.89
422.185	2290.48
422.393	2407.22
422.601	2566.96
422.809	2513.71
423.017	2702.12
423.224	2679.6
423.432	2802.47
423.64	2845.48
423.848	2921.26
424.056	2949.93
424.263	3238.69
424.471	3191.59
424.679	3330.85
424.887	3568.41
425.094	3519.26
425.302	3523.36
425.51	3789.6
425.718	3740.44
425.925	3732.25
426.133	3998.49
426.341	4186.9
426.548	4322.07
426.756	4121.37
426.964	4471.57
427.171	4721.42
427.379	4686.61
427.586	4995.85
427.794	4977.42
428.001	5124.87
428.209	5550.85
428.417	5395.2
428.624	5649.15
428.832	5804.8
429.039	5675.77
429.247	5649.15
429.454	6204.15
429.662	6656.75
429.869	6333.17
430.076	6628.08
430.284	6570.74
430.491	6851.31
430.699	7082.73
430.906	7224.04
431.114	7187.18
431.321	7488.23
431.528	7738.08
431.736	8055.51
431.943	8598.23
432.15	8262.36
432.358	8227.54
432.565	8858.32
432.772	8915.66
432.979	9263.82
433.187	9558.72
433.394	9542.34
433.601	10058.43
433.808	10105.53
434.016	10107.58
434.223	10488.5
434.43	11186.86
434.637	10990.25
434.844	11514.53
435.052	11965.09
435.259	11760.29
435.466	11815.59
435.673	11711.14
435.88	12636.82
436.087	13388.43
436.294	13249.16
436.501	13032.08
436.708	13146.76
436.915	13513.35
437.122	14322.3
437.329	14365.31
437.537	14539.38
437.743	14695.03
437.95	14903.92
438.157	15596.14
438.364	16093.79
438.571	16050.78
438.778	16155.23
438.985	17488.46
439.192	17013.33
439.399	17662.54
439.606	17295.95
439.813	17990.21
440.02	19386.93
440.227	19046.96
440.433	18766.39
440.64	19501.61
440.847	19313.2
441.054	19700.26
441.261	20900.37
441.467	20654.62
441.674	20830.74
441.881	21977.61
442.088	21672.46
442.294	21639.69
442.501	22600.19
442.708	22753.79
442.914	23941.61
443.121	24525.28
443.328	24144.36
443.534	25854.41
443.741	24943.06
443.948	24547.81
444.154	26292.68
444.361	26300.87
444.568	26556.86
444.774	26356.16
444.981	26589.63
445.187	27902.38
445.394	28588.45
445.6	28445.09
445.807	30673.28
446.013	29989.26
446.22	29899.15
446.426	31320.44
446.633	32119.15
446.839	32948.57
447.046	31412.6
447.252	33761.62
447.459	33429.85
447.665	33145.18
447.871	34474.31
448.078	36059.44
448.284	34269.51
448.491	34971.97
448.697	36458.79
448.903	37216.54
449.11	37372.19
449.316	36821.28
449.522	37159.2
449.728	38557.96
449.935	38666.5
450.141	38576.39
450.347	39379.2
450.553	38486.28
450.76	38330.64
450.966	40091.89
451.172	39426.3
451.378	40343.79
451.584	39336.19
451.791	40390.89
451.997	40321.26
452.203	41105.63
452.409	40863.97
452.615	41054.43
452.821	39274.75
453.027	38881.54
453.233	40661.22
453.44	39149.82
453.646	39430.4
453.852	39432.44
454.058	40399.08
454.264	38658.31
454.47	40016.11
454.676	38926.6
454.882	40268.01
455.088	36794.66
455.294	37226.78
455.5	37605.66
455.705	37921.04
455.911	36049.2
456.117	35580.21
456.323	35258.68
456.529	33288.54
456.735	34441.54
456.941	33947.98
457.147	33347.93
457.352	32426.34
457.558	32110.96
457.764	32053.61
457.97	31259
458.176	30714.24
458.381	30615.94
458.587	29188.5
458.793	28883.36
458.999	27558.32
459.204	29628.82
459.41	28645.79
459.616	26587.58
459.821	27072.95
460.027	26735.04
460.233	26298.82
460.438	25100.76
460.644	25045.46
460.85	23929.32
461.055	23822.83
461.261	23593.45
461.466	21746.19
461.672	21258.77
461.878	22600.19
462.083	21340.69
462.289	20773.4
462.494	20740.63
462.7	20171.3
462.905	19067.44
463.111	19819.05
463.316	19771.94
463.522	19384.88
463.727	19661.35
463.932	19372.59
464.138	19161.65
464.343	19300.91
464.549	18817.59
464.754	19290.67
464.959	19331.63
465.165	19089.97
465.37	18051.65
465.575	17715.78
465.781	18524.73
465.986	18473.53
466.191	17967.68
466.397	17640.01
466.602	16730.71
466.807	17529.42
467.012	17265.23
