Data from USB4F104151__82__11-31-48-303.txt Node

Date: Fri Mar 14 11:31:48 EDT 2025
User: louis
Spectrometer: USB4F10415
Trigger mode: 4
Integration Time (sec): 5.000000E-2
Scans to average: 1
Electric dark correction enabled: true
Nonlinearity correction enabled: false
Boxcar width: 0
XAxis mode: Wavelengths
Number of Pixels in Spectrum: 3648
>>>>>Begin Spectral Data<<<<<
178.204	-134.82
178.424	-134.82
178.644	-134.82
178.864	-214.7
179.084	-214.7
179.304	29.01
179.524	-30.38
179.744	26.96
179.964	-1.71
180.184	14.68
180.404	-71.34
180.624	-7.85
180.844	6.49
181.064	-79.53
181.283	41.3
181.503	18.77
181.723	53.59
181.943	-13.99
182.163	74.07
182.383	-20.14
182.602	24.92
182.822	39.25
183.042	43.35
183.262	47.44
183.482	24.92
183.701	43.35
183.921	49.49
184.141	-16.04
184.361	39.25
184.58	33.11
184.8	57.68
185.02	-22.19
185.239	96.6
185.459	39.25
185.679	67.92
185.898	-54.95
186.118	104.79
186.338	-3.75
186.557	4.44
186.777	67.92
186.997	51.54
187.216	-7.85
187.436	135.51
187.655	72.02
187.875	43.35
188.095	43.35
188.314	86.36
188.534	26.96
188.753	8.53
188.973	10.58
189.192	57.68
189.412	86.36
189.631	61.78
189.851	-65.19
190.07	24.92
190.29	-108.2
190.509	-24.23
190.729	33.11
190.948	-7.85
191.168	155.99
191.387	35.16
191.607	26.96
191.826	33.11
192.045	18.77
192.265	31.06
192.484	2.39
192.704	78.16
192.923	10.58
193.142	108.88
193.362	88.4
193.581	129.36
193.8	76.12
194.02	74.07
194.239	86.36
194.458	84.31
194.678	26.96
194.897	6.49
195.116	8.53
195.335	-5.8
195.555	80.21
195.774	82.26
195.993	55.64
196.212	47.44
196.432	88.4
196.651	0.34
196.87	-13.99
197.089	108.88
197.308	-16.04
197.528	24.92
197.747	-5.8
197.966	4.44
198.185	39.25
198.404	61.78
198.623	22.87
198.842	94.55
199.062	82.26
199.281	69.97
199.5	86.36
199.719	4.44
199.938	90.45
200.157	-1.71
200.376	106.84
200.595	78.16
200.814	8.53
201.033	-3.75
201.252	108.88
201.471	26.96
201.69	80.21
201.909	-18.09
202.128	51.54
202.347	4.44
202.566	47.44
202.785	49.49
203.004	-9.9
203.223	88.4
203.442	51.54
203.661	18.77
203.879	59.73
204.098	53.59
204.317	18.77
204.536	63.83
204.755	35.16
204.974	47.44
205.193	10.58
205.411	102.74
205.63	10.58
205.849	-46.76
206.068	-38.57
206.287	41.3
206.505	84.31
206.724	96.6
206.943	-57
207.162	0.34
207.381	20.82
207.599	33.11
207.818	74.07
208.037	51.54
208.255	63.83
208.474	55.64
208.693	10.58
208.911	-5.8
209.13	51.54
209.349	20.82
209.567	63.83
209.786	106.84
210.005	67.92
210.223	6.49
210.442	-50.86
210.661	35.16
210.879	10.58
211.098	41.3
211.316	-1.71
211.535	-5.8
211.753	10.58
211.972	106.84
212.191	-50.86
212.409	-5.8
212.628	78.16
212.846	41.3
213.065	82.26
213.283	43.35
213.502	-48.81
213.72	76.12
213.938	53.59
214.157	47.44
214.375	84.31
214.594	24.92
214.812	67.92
215.031	39.25
215.249	51.54
215.467	88.4
215.686	43.35
215.904	-5.8
216.122	-34.47
216.341	92.5
216.559	33.11
216.778	43.35
216.996	59.73
217.214	4.44
217.432	22.87
217.651	-40.62
217.869	12.63
218.087	63.83
218.306	0.34
218.524	26.96
218.742	10.58
218.96	12.63
219.179	-5.8
219.397	43.35
219.615	67.92
219.833	-1.71
220.051	24.92
220.27	72.02
220.488	78.16
220.706	67.92
220.924	145.75
221.142	0.34
221.36	33.11
221.578	18.77
221.796	39.25
222.015	31.06
222.233	12.63
222.451	147.8
222.669	22.87
222.887	82.26
223.105	47.44
223.323	59.73
223.541	-50.86
223.759	63.83
223.977	0.34
224.195	88.4
224.413	69.97
224.631	37.2
224.849	-1.71
225.067	121.17
225.285	24.92
225.503	-22.19
225.721	-81.58
225.939	59.73
226.157	57.68
226.375	92.5
226.592	-5.8
226.81	82.26
227.028	125.27
227.246	84.31
227.464	31.06
227.682	59.73
227.9	57.68
228.117	8.53
228.335	-5.8
228.553	49.49
228.771	41.3
228.989	31.06
229.206	72.02
229.424	51.54
229.642	16.73
229.86	-50.86
230.077	51.54
230.295	43.35
230.513	47.44
230.731	86.36
230.948	80.21
231.166	127.32
231.384	43.35
231.601	6.49
231.819	115.03
232.037	37.2
232.254	33.11
232.472	53.59
232.689	26.96
232.907	112.98
233.125	-7.85
233.342	-5.8
233.56	2.39
233.777	37.2
233.995	22.87
234.213	84.31
234.43	59.73
234.648	55.64
234.865	49.49
235.083	80.21
235.3	-26.28
235.518	88.4
235.735	-9.9
235.953	117.08
236.17	-16.04
236.388	-3.75
236.605	-11.95
236.822	47.44
237.04	33.11
237.257	53.59
237.475	-20.14
237.692	166.23
237.909	24.92
238.127	129.36
238.344	-24.23
238.562	39.25
238.779	-40.62
238.996	-61.1
239.214	16.73
239.431	10.58
239.648	43.35
239.865	43.35
240.083	43.35
240.3	-28.33
240.517	10.58
240.735	2.39
240.952	63.83
241.169	100.69
241.386	20.82
241.603	53.59
241.821	10.58
242.038	61.78
242.255	86.36
242.472	-5.8
242.689	74.07
242.907	57.68
243.124	98.64
243.341	37.2
243.558	24.92
243.775	-38.57
243.992	-9.9
244.209	-5.8
244.426	72.02
244.643	76.12
244.86	69.97
245.078	43.35
245.295	100.69
245.512	-22.19
245.729	20.82
245.946	45.4
246.163	18.77
246.38	16.73
246.597	49.49
246.814	-18.09
247.031	26.96
247.248	-32.43
247.464	65.88
247.681	26.96
247.898	59.73
248.115	98.64
248.332	2.39
248.549	-1.71
248.766	84.31
248.983	57.68
249.2	39.25
249.417	20.82
249.633	63.83
249.85	16.73
250.067	108.88
250.284	76.12
250.501	74.07
250.717	55.64
250.934	35.16
251.151	-7.85
251.368	-9.9
251.585	22.87
251.801	-40.62
252.018	18.77
252.235	67.92
252.451	-22.19
252.668	61.78
252.885	82.26
253.102	26.96
253.318	26.96
253.535	-30.38
253.752	18.77
253.968	-7.85
254.185	14.68
254.401	10.58
254.618	65.88
254.835	82.26
255.051	33.11
255.268	41.3
255.484	106.84
255.701	-44.71
255.917	59.73
256.134	33.11
256.351	2.39
256.567	-26.28
256.784	47.44
257	-20.14
257.217	57.68
257.433	59.73
257.65	61.78
257.866	76.12
258.082	31.06
258.299	-9.9
258.515	8.53
258.732	90.45
258.948	8.53
259.165	59.73
259.381	22.87
259.597	92.5
259.814	29.01
260.03	22.87
260.246	-9.9
260.463	82.26
260.679	59.73
260.895	10.58
261.112	82.26
261.328	43.35
261.544	-3.75
261.761	123.22
261.977	41.3
262.193	65.88
262.409	80.21
262.626	10.58
262.842	59.73
263.058	18.77
263.274	33.11
263.49	55.64
263.707	76.12
263.923	47.44
264.139	8.53
264.355	55.64
264.571	47.44
264.787	76.12
265.004	-1.71
265.22	20.82
265.436	37.2
265.652	-16.04
265.868	96.6
266.084	-1.71
266.3	24.92
266.516	6.49
266.732	33.11
266.948	35.16
267.164	39.25
267.38	59.73
267.596	37.2
267.812	131.41
268.028	31.06
268.244	14.68
268.46	67.92
268.676	-30.38
268.892	74.07
269.108	0.34
269.324	59.73
269.54	49.49
269.756	55.64
269.972	-30.38
270.188	-9.9
270.403	-3.75
270.619	47.44
270.835	8.53
271.051	-26.28
271.267	-30.38
271.483	82.26
271.698	133.46
271.914	37.2
272.13	-13.99
272.346	26.96
272.562	2.39
272.777	67.92
272.993	8.53
273.209	20.82
273.425	47.44
273.64	49.49
273.856	78.16
274.072	29.01
274.287	90.45
274.503	24.92
274.719	4.44
274.934	-30.38
275.15	8.53
275.366	61.78
275.581	35.16
275.797	86.36
276.012	63.83
276.228	53.59
276.444	43.35
276.659	96.6
276.875	-16.04
277.09	45.4
277.306	-9.9
277.521	8.53
277.737	67.92
277.952	16.73
278.168	41.3
278.383	96.6
278.599	67.92
278.814	90.45
279.03	53.59
279.245	72.02
279.461	26.96
279.676	137.56
279.892	47.44
280.107	2.39
280.322	127.32
280.538	-20.14
280.753	-13.99
280.969	35.16
281.184	35.16
281.399	133.46
281.615	67.92
281.83	33.11
282.045	-9.9
282.26	100.69
282.476	69.97
282.691	153.94
282.906	6.49
283.122	-5.8
283.337	-11.95
283.552	86.36
283.767	-44.71
283.983	61.78
284.198	24.92
284.413	84.31
284.628	-46.76
284.843	39.25
285.058	55.64
285.274	31.06
285.489	31.06
285.704	86.36
285.919	51.54
286.134	41.3
286.349	31.06
286.564	24.92
286.779	-13.99
286.995	-9.9
287.21	-40.62
287.425	104.79
287.64	10.58
287.855	35.16
288.07	49.49
288.285	43.35
288.5	-1.71
288.715	94.55
288.93	57.68
289.145	35.16
289.36	57.68
289.575	82.26
289.79	76.12
290.004	14.68
290.219	92.5
290.434	-18.09
290.649	26.96
290.864	-22.19
291.079	-26.28
291.294	26.96
291.509	35.16
291.724	45.4
291.938	31.06
292.153	69.97
292.368	-13.99
292.583	-11.95
292.798	35.16
293.012	-54.95
293.227	61.78
293.442	10.58
293.657	67.92
293.871	108.88
294.086	2.39
294.301	112.98
294.516	131.41
294.73	-3.75
294.945	-59.05
295.16	22.87
295.374	112.98
295.589	-30.38
295.804	74.07
296.018	33.11
296.233	69.97
296.447	16.73
296.662	35.16
296.877	82.26
297.091	-3.75
297.306	22.87
297.52	63.83
297.735	39.25
297.949	49.49
298.164	76.12
298.378	104.79
298.593	-13.99
298.807	-20.14
299.022	33.11
299.236	-34.47
299.451	55.64
299.665	2.39
299.88	57.68
300.094	92.5
300.309	57.68
300.523	-22.19
300.737	80.21
300.952	-40.62
301.166	80.21
301.381	-71.34
301.595	82.26
301.809	2.39
302.024	22.87
302.238	0.34
302.452	41.3
302.667	10.58
302.881	53.59
303.095	10.58
303.309	26.96
303.524	35.16
303.738	22.87
303.952	47.44
304.166	76.12
304.381	-16.04
304.595	59.73
304.809	67.92
305.023	4.44
305.237	-22.19
305.452	2.39
305.666	39.25
305.88	98.64
306.094	47.44
306.308	26.96
306.522	26.96
306.736	59.73
306.95	41.3
307.164	45.4
307.379	63.83
307.593	80.21
307.807	33.11
308.021	59.73
308.235	2.39
308.449	-54.95
308.663	39.25
308.877	82.26
309.091	35.16
309.305	14.68
309.519	-57
309.733	43.35
309.947	-26.28
310.161	57.68
310.374	18.77
310.588	76.12
310.802	18.77
311.016	33.11
311.23	39.25
311.444	8.53
311.658	26.96
311.872	67.92
312.085	94.55
312.299	80.21
312.513	59.73
312.727	35.16
312.941	-18.09
313.154	22.87
313.368	-24.23
313.582	43.35
313.796	59.73
314.009	10.58
314.223	-67.24
314.437	76.12
314.651	33.11
314.864	65.88
315.078	10.58
315.292	14.68
315.505	10.58
315.719	18.77
315.933	-30.38
316.146	24.92
316.36	6.49
316.573	57.68
316.787	4.44
317.001	67.92
317.214	86.36
317.428	63.83
317.641	-42.67
317.855	24.92
318.068	-40.62
318.282	65.88
318.495	67.92
318.709	49.49
318.922	43.35
319.136	117.08
319.349	10.58
319.563	0.34
319.776	2.39
319.99	29.01
320.203	119.12
320.417	-26.28
320.63	80.21
320.843	74.07
321.057	18.77
321.27	26.96
321.483	80.21
321.697	51.54
321.91	31.06
322.124	45.4
322.337	20.82
322.55	10.58
322.763	-38.57
322.977	33.11
323.19	92.5
323.403	98.64
323.617	92.5
323.83	63.83
324.043	-81.58
324.256	74.07
324.469	-36.52
324.683	59.73
324.896	82.26
325.109	6.49
325.322	55.64
325.535	51.54
325.748	6.49
325.962	47.44
326.175	35.16
326.388	55.64
326.601	67.92
326.814	43.35
327.027	31.06
327.24	84.31
327.453	29.01
327.666	18.77
327.879	100.69
328.092	29.01
328.305	53.59
328.518	45.4
328.731	-5.8
328.944	47.44
329.157	63.83
329.37	49.49
329.583	92.5
329.796	59.73
330.009	-69.29
330.222	41.3
330.435	98.64
330.648	4.44
330.861	26.96
331.073	49.49
331.286	84.31
331.499	-1.71
331.712	82.26
331.925	-7.85
332.138	-5.8
332.35	35.16
332.563	51.54
332.776	53.59
332.989	33.11
333.202	2.39
333.414	16.73
333.627	26.96
333.84	-22.19
334.053	18.77
334.265	-30.38
334.478	14.68
334.691	67.92
334.903	6.49
335.116	55.64
335.329	29.01
335.541	98.64
335.754	86.36
335.966	-71.34
336.179	-57
336.392	24.92
336.604	108.88
336.817	24.92
337.029	39.25
337.242	100.69
337.454	65.88
337.667	76.12
337.88	155.99
338.092	2.39
338.305	-36.52
338.517	35.16
338.729	67.92
338.942	26.96
339.154	-52.91
339.367	-1.71
339.579	14.68
339.792	39.25
340.004	-9.9
340.217	-11.95
340.429	90.45
340.641	12.63
340.854	-5.8
341.066	76.12
341.278	110.93
341.491	43.35
341.703	76.12
341.915	10.58
342.128	-9.9
342.34	-13.99
342.552	-18.09
342.764	65.88
342.977	92.5
343.189	69.97
343.401	96.6
343.613	16.73
343.826	67.92
344.038	51.54
344.25	88.4
344.462	8.53
344.674	72.02
344.886	31.06
345.099	39.25
345.311	-9.9
345.523	14.68
345.735	-1.71
345.947	45.4
346.159	14.68
346.371	59.73
346.583	31.06
346.795	135.51
347.007	41.3
347.219	131.41
347.431	14.68
347.643	125.27
347.855	6.49
348.067	92.5
348.279	16.73
348.491	49.49
348.703	67.92
348.915	2.39
349.127	65.88
349.339	14.68
349.551	35.16
349.763	106.84
349.975	-22.19
350.187	127.32
350.399	18.77
350.61	127.32
350.822	24.92
351.034	123.22
351.246	47.44
351.458	61.78
351.669	26.96
351.881	72.02
352.093	63.83
352.305	24.92
352.517	-57
352.728	147.8
352.94	8.53
353.152	26.96
353.363	47.44
353.575	-5.8
353.787	133.46
353.999	96.6
354.21	47.44
354.422	51.54
354.633	39.25
354.845	65.88
355.057	139.6
355.268	49.49
355.48	117.08
355.692	-5.8
355.903	69.97
356.115	16.73
356.326	-77.48
356.538	90.45
356.749	80.21
356.961	106.84
357.172	51.54
357.384	43.35
357.595	137.56
357.807	80.21
358.018	37.2
358.23	29.01
358.441	100.69
358.653	125.27
358.864	74.07
359.075	45.4
359.287	14.68
359.498	53.59
359.709	26.96
359.921	-7.85
360.132	63.83
360.344	59.73
360.555	57.68
360.766	37.2
360.977	67.92
361.189	100.69
361.4	35.16
361.611	16.73
361.823	65.88
362.034	24.92
362.245	-46.76
362.456	84.31
362.667	110.93
362.879	26.96
363.09	51.54
363.301	82.26
363.512	45.4
363.723	-9.9
363.935	-9.9
364.146	80.21
364.357	49.49
364.568	80.21
364.779	-16.04
364.99	115.03
365.201	33.11
365.412	98.64
365.623	-54.95
365.834	55.64
366.045	26.96
366.256	84.31
366.467	112.98
366.678	47.44
366.889	8.53
367.1	39.25
367.311	74.07
367.522	41.3
367.733	115.03
367.944	29.01
368.155	74.07
368.366	33.11
368.577	59.73
368.788	57.68
368.999	51.54
369.209	57.68
369.42	149.84
369.631	147.8
369.842	49.49
370.053	-30.38
370.264	51.54
370.474	43.35
370.685	39.25
370.896	33.11
371.107	117.08
371.317	72.02
371.528	112.98
371.739	43.35
371.95	49.49
372.16	84.31
372.371	51.54
372.582	67.92
372.792	39.25
373.003	-20.14
373.214	72.02
373.424	98.64
373.635	55.64
373.846	63.83
374.056	10.58
374.267	12.63
374.477	76.12
374.688	6.49
374.898	100.69
375.109	153.94
375.319	63.83
375.53	43.35
375.74	78.16
375.951	-9.9
376.161	67.92
376.372	82.26
376.582	76.12
376.793	35.16
377.003	22.87
377.214	-13.99
377.424	92.5
377.635	74.07
377.845	10.58
378.055	102.74
378.266	-20.14
378.476	-1.71
378.686	14.68
378.897	4.44
379.107	82.26
379.317	63.83
379.528	-20.14
379.738	45.4
379.948	16.73
380.158	76.12
380.369	65.88
380.579	100.69
380.789	33.11
380.999	84.31
381.21	104.79
381.42	84.31
381.63	43.35
381.84	110.93
382.05	76.12
382.261	74.07
382.471	45.4
382.681	61.78
382.891	37.2
383.101	12.63
383.311	-5.8
383.521	92.5
383.731	55.64
383.941	18.77
384.151	-18.09
384.361	135.51
384.571	35.16
384.781	100.69
384.991	115.03
385.201	137.56
385.411	55.64
385.621	59.73
385.831	6.49
386.041	76.12
386.251	112.98
386.461	115.03
386.671	18.77
386.881	39.25
387.091	72.02
387.301	51.54
387.511	76.12
387.72	84.31
387.93	80.21
388.14	-7.85
388.35	-1.71
388.56	112.98
388.769	90.45
388.979	96.6
389.189	33.11
389.399	33.11
389.609	100.69
389.818	155.99
390.028	-22.19
390.238	115.03
390.447	-5.8
390.657	55.64
390.867	16.73
391.076	39.25
391.286	-1.71
391.496	41.3
391.705	43.35
391.915	108.88
392.125	69.97
392.334	63.83
392.544	20.82
392.753	31.06
392.963	29.01
393.172	43.35
393.382	51.54
393.591	131.41
393.801	-65.19
394.01	155.99
394.22	104.79
394.429	108.88
394.639	102.74
394.848	78.16
395.058	69.97
395.267	67.92
395.477	125.27
395.686	67.92
395.895	76.12
396.105	112.98
396.314	96.6
396.524	88.4
396.733	76.12
396.942	67.92
397.152	65.88
397.361	76.12
397.57	84.31
397.78	112.98
397.989	115.03
398.198	162.13
398.407	88.4
398.617	24.92
398.826	67.92
399.035	59.73
399.244	84.31
399.453	55.64
399.663	123.22
399.872	94.55
400.081	61.78
400.29	160.08
400.499	80.21
400.708	104.79
400.917	43.35
401.127	125.27
401.336	47.44
401.545	110.93
401.754	100.69
401.963	74.07
402.172	98.64
402.381	123.22
402.59	98.64
402.799	127.32
403.008	153.94
403.217	172.37
403.426	194.9
403.635	100.69
403.844	131.41
404.053	86.36
404.262	127.32
404.471	207.19
404.68	174.42
404.888	131.41
405.097	84.31
405.306	110.93
405.515	172.37
405.724	170.32
405.933	176.47
406.142	186.71
406.35	170.32
406.559	112.98
406.768	233.81
406.977	217.43
407.185	201.04
407.394	188.75
407.603	153.94
407.812	162.13
408.02	207.19
408.229	250.19
408.438	239.95
408.646	141.65
408.855	158.03
409.064	260.43
409.272	293.2
409.481	242
409.69	231.76
409.898	252.24
410.107	336.21
410.315	305.49
410.524	196.95
410.733	344.4
410.941	254.29
411.15	305.49
411.358	299.34
411.567	340.3
411.775	272.72
411.984	375.12
412.192	360.78
412.401	311.63
412.609	461.13
412.818	416.08
413.026	364.88
413.234	403.79
413.443	391.5
413.651	469.33
413.86	491.85
414.068	600.4
414.276	575.82
414.485	522.57
414.693	596.3
414.901	606.54
415.11	555.34
415.318	674.12
415.526	608.59
415.734	655.69
415.943	700.75
416.151	743.75
416.359	645.45
416.567	692.55
416.776	790.86
416.984	817.48
417.192	862.54
417.4	846.15
417.608	817.48
417.817	981.32
418.025	928.07
418.233	1030.47
418.441	928.07
418.649	983.37
418.857	1132.87
419.065	1149.25
419.273	1104.2
419.481	1163.59
419.689	1272.13
419.897	1329.47
420.105	1161.54
420.313	1268.03
420.521	1417.54
420.729	1403.2
420.937	1452.35
421.145	1507.65
421.353	1593.66
421.561	1575.23
421.769	1730.87
421.977	1665.34
422.185	1802.55
422.393	1810.75
422.601	1925.43
422.809	1997.11
423.017	1943.86
423.224	1937.72
423.432	2079.03
423.64	2206
423.848	2206
424.056	2257.2
424.263	2433.33
424.471	2406.7
424.679	2474.29
424.887	2519.34
425.094	2607.41
425.302	2605.36
425.51	2779.43
425.718	2838.83
425.925	2828.59
426.133	2943.27
426.341	3223.84
426.548	3324.19
426.756	3236.13
426.964	3520.8
427.171	3539.23
427.379	3668.25
427.586	3623.2
427.794	3741.98
428.001	3920.15
428.209	4196.63
428.417	4049.18
428.624	4378.9
428.832	4417.81
429.039	4315.41
429.247	4231.44
429.454	4823.31
429.662	5153.03
429.869	4835.6
430.076	5177.61
430.284	4905.23
430.491	5179.65
430.699	5566.72
430.906	5423.36
431.114	5484.8
431.321	5931.26
431.528	6037.75
431.736	6379.76
431.943	6416.63
432.15	6330.61
432.358	6211.83
432.565	6791.41
432.772	6756.59
432.979	7051.5
433.187	7123.18
433.394	7293.16
433.601	7649.5
433.808	7618.79
434.016	7788.77
434.223	8052.95
434.43	8345.81
434.637	8317.14
434.844	8722.64
435.052	8892.62
435.259	9201.86
435.466	9296.07
435.673	8945.87
435.88	9455.81
436.087	9984.19
436.294	9978.05
436.501	9943.23
436.708	9953.47
436.915	10457.27
437.122	10950.83
437.329	10627.25
437.537	11012.27
437.743	11296.94
437.95	11206.83
438.157	11843.74
438.364	12091.55
438.571	12271.77
438.778	12191.9
438.985	13193.36
439.192	12777.62
439.399	13400.2
439.606	12961.94
439.813	13897.86
440.02	14346.36
440.227	14291.07
440.433	14334.07
440.64	14610.55
440.847	14366.84
441.054	14911.6
441.261	15997.03
441.467	15640.68
441.674	15972.45
441.881	16480.35
442.088	16644.18
442.294	16320.6
442.501	16744.53
442.708	16973.91
442.914	17922.12
443.121	18583.61
443.328	17958.98
443.534	19292.21
443.741	18862.13
443.948	18554.94
444.154	19808.3
444.361	20017.19
444.568	20144.16
444.774	19943.46
444.981	19859.49
445.187	20846.62
445.394	21657.61
445.6	21194.77
445.807	23531.5
446.013	22368.26
446.22	22814.71
446.426	23863.27
446.633	24111.08
446.839	24661.98
447.046	23605.23
447.252	25276.37
447.459	24934.36
447.665	24799.19
447.871	26275.78
448.078	27267
448.284	25763.79
448.491	26570.69
448.697	27443.12
448.903	27981.74
449.11	28407.72
449.316	27850.67
449.522	28108.71
449.728	28794.78
449.935	29253.53
450.141	29050.78
450.347	29650.83
450.553	28719.01
450.76	29224.86
450.966	30246.79
451.172	29540.24
451.378	30441.35
451.584	29740.94
451.791	30465.92
451.997	30357.38
452.203	31025.02
452.409	31192.95
452.615	30869.37
452.821	29777.81
453.027	29372.31
453.233	31162.23
453.44	29843.34
453.646	29908.88
453.852	30447.49
454.058	30754.69
454.264	29396.88
454.47	30216.07
454.676	29413.27
454.882	30625.67
455.088	27744.17
455.294	28219.3
455.5	28610.46
455.705	28733.34
455.911	27844.52
456.117	27307.96
456.323	27019.19
456.529	25505.74
456.735	26730.43
456.941	25980.87
457.147	25343.95
457.352	24698.84
457.558	24147.94
457.764	24274.91
457.97	23807.98
458.176	23523.31
458.381	23277.55
458.587	22216.71
458.793	22452.22
458.999	20924.44
459.204	22630.4
459.41	21956.61
459.616	20299.81
459.821	20457.5
460.027	20158.5
460.233	20197.41
460.438	18927.67
460.644	19046.45
460.85	18303.04
461.055	17883.2
461.261	17993.79
461.466	16517.21
461.672	16109.66
461.878	17326.16
462.083	16191.58
462.289	15827.04
462.494	15816.8
462.7	15165.55
462.905	14876.79
463.111	14997.62
463.316	15050.86
463.522	14768.24
463.727	14864.5
463.932	14884.98
464.138	14641.27
464.343	14725.24
464.549	14035.07
464.754	15030.38
464.959	14753.91
465.165	14481.53
465.37	13918.34
465.575	13570.18
465.781	14192.76
465.986	14170.24
466.191	13613.19
466.397	13592.71
466.602	13006.99
466.807	13318.28
467.012	12951.7
467.218	13121.68
467.423	13004.94
467.628	12959.89
467.833	13518.98
468.038	13400.2
