Data from USB4F104151__30__11-30-06-115.txt Node

Date: Fri Mar 14 11:30:06 EDT 2025
User: louis
Spectrometer: USB4F10415
Trigger mode: 4
Integration Time (sec): 5.000000E-2
Scans to average: 1
Electric dark correction enabled: true
Nonlinearity correction enabled: false
Boxcar width: 0
XAxis mode: Wavelengths
Number of Pixels in Spectrum: 3648
>>>>>Begin Spectral Data<<<<<
178.204	-116.05
178.424	-116.05
178.644	-116.05
178.864	-99.67
179.084	-124.24
179.304	10.92
179.524	4.78
179.744	-19.8
179.964	45.74
180.184	-9.56
180.404	35.5
180.624	23.21
180.844	-1.37
181.064	-75.09
181.283	-9.56
181.503	-48.47
181.723	43.69
181.943	-50.52
182.163	141.99
182.383	2.73
182.602	58.03
182.822	64.17
183.042	15.02
183.262	0.68
183.482	76.46
183.701	31.4
183.921	12.97
184.141	33.45
184.361	76.46
184.58	-1.37
184.8	-1.37
185.02	68.27
185.239	47.79
185.459	-56.66
185.679	62.12
185.898	-30.04
186.118	94.89
186.338	23.21
186.557	88.75
186.777	-50.52
186.997	23.21
187.216	17.07
187.436	109.22
187.655	80.55
187.875	53.93
188.095	66.22
188.314	4.78
188.534	82.6
188.753	19.11
188.973	125.61
189.192	88.75
189.412	12.97
189.631	19.11
189.851	12.97
190.07	53.93
190.29	-25.94
190.509	21.16
190.729	19.11
190.948	43.69
191.168	166.57
191.387	105.13
191.607	31.4
191.826	92.84
192.045	23.21
192.265	68.27
192.484	62.12
192.704	17.07
192.923	8.87
193.142	139.94
193.362	103.08
193.581	101.03
193.8	-34.13
194.02	101.03
194.239	55.98
194.458	47.79
194.678	53.93
194.897	31.4
195.116	94.89
195.335	49.83
195.555	72.36
195.774	72.36
195.993	51.88
196.212	29.35
196.432	-13.65
196.651	84.65
196.87	84.65
197.089	86.7
197.308	58.03
197.528	84.65
197.747	-54.61
197.966	64.17
198.185	55.98
198.404	-11.61
198.623	0.68
198.842	70.31
199.062	94.89
199.281	62.12
199.5	23.21
199.719	15.02
199.938	19.11
200.157	133.8
200.376	76.46
200.595	60.07
200.814	101.03
201.033	6.83
201.252	39.59
201.471	60.07
201.69	92.84
201.909	68.27
202.128	103.08
202.347	64.17
202.566	43.69
202.785	-5.46
203.004	25.26
203.223	88.75
203.442	33.45
203.661	27.31
203.879	-7.51
204.098	68.27
204.317	60.07
204.536	86.7
204.755	10.92
204.974	23.21
205.193	103.08
205.411	92.84
205.63	66.22
205.849	-17.75
206.068	15.02
206.287	45.74
206.505	111.27
206.724	-21.85
206.943	-34.13
207.162	19.11
207.381	60.07
207.599	29.35
207.818	64.17
208.037	53.93
208.255	86.7
208.474	-13.65
208.693	58.03
208.911	72.36
209.13	17.07
209.349	84.65
209.567	-1.37
209.786	64.17
210.005	62.12
210.223	39.59
210.442	6.83
210.661	15.02
210.879	-11.61
211.098	12.97
211.316	53.93
211.535	2.73
211.753	15.02
211.972	96.94
212.191	27.31
212.409	12.97
212.628	2.73
212.846	6.83
213.065	49.83
213.283	43.69
213.502	47.79
213.72	27.31
213.938	53.93
214.157	53.93
214.375	45.74
214.594	25.26
214.812	74.41
215.031	-30.04
215.249	-25.94
215.467	51.88
215.686	-9.56
215.904	131.75
216.122	31.4
216.341	31.4
216.559	47.79
216.778	72.36
216.996	19.11
217.214	23.21
217.432	29.35
217.651	2.73
217.869	23.21
218.087	-11.61
218.306	12.97
218.524	55.98
218.742	58.03
218.96	2.73
219.179	33.45
219.397	60.07
219.615	141.99
219.833	55.98
220.051	-3.41
220.27	35.5
220.488	37.55
220.706	-9.56
220.924	64.17
221.142	-9.56
221.36	-3.41
221.578	78.51
221.796	-21.85
222.015	23.21
222.233	55.98
222.451	64.17
222.669	-21.85
222.887	21.16
223.105	121.51
223.323	39.59
223.541	-34.13
223.759	0.68
223.977	-23.89
224.195	101.03
224.413	23.21
224.631	49.83
224.849	88.75
225.067	78.51
225.285	37.55
225.503	31.4
225.721	29.35
225.939	74.41
226.157	55.98
226.375	127.66
226.592	39.59
226.81	-52.56
227.028	4.78
227.246	94.89
227.464	6.83
227.682	45.74
227.9	39.59
228.117	19.11
228.335	-25.94
228.553	-27.99
228.771	64.17
228.989	96.94
229.206	66.22
229.424	-9.56
229.642	19.11
229.86	60.07
230.077	35.5
230.295	72.36
230.513	12.97
230.731	121.51
230.948	62.12
231.166	125.61
231.384	33.45
231.601	-25.94
231.819	53.93
232.037	-46.42
232.254	-32.08
232.472	31.4
232.689	-1.37
232.907	72.36
233.125	4.78
233.342	8.87
233.56	76.46
233.777	35.5
233.995	70.31
234.213	21.16
234.43	-17.75
234.648	19.11
234.865	2.73
235.083	137.9
235.3	55.98
235.518	123.56
235.735	82.6
235.953	6.83
236.17	10.92
236.388	-3.41
236.605	6.83
236.822	15.02
237.04	64.17
237.257	-1.37
237.475	6.83
237.692	53.93
237.909	-13.65
238.127	82.6
238.344	31.4
238.562	80.55
238.779	-50.52
238.996	4.78
239.214	72.36
239.431	88.75
239.648	51.88
239.865	88.75
240.083	111.27
240.3	47.79
240.517	51.88
240.735	21.16
240.952	33.45
241.169	60.07
241.386	117.42
241.603	-44.37
241.821	31.4
242.038	-87.38
242.255	98.99
242.472	-9.56
242.689	-27.99
242.907	195.24
243.124	31.4
243.341	72.36
243.558	39.59
243.775	111.27
243.992	-91.48
244.209	88.75
244.426	80.55
244.643	39.59
244.86	41.64
245.078	82.6
245.295	35.5
245.512	6.83
245.729	-25.94
245.946	64.17
246.163	23.21
246.38	21.16
246.597	72.36
246.814	113.32
247.031	21.16
247.248	-15.7
247.464	45.74
247.681	60.07
247.898	133.8
248.115	15.02
248.332	-3.41
248.549	47.79
248.766	117.42
248.983	107.18
249.2	-5.46
249.417	25.26
249.633	64.17
249.85	45.74
250.067	2.73
250.284	64.17
250.501	70.31
250.717	6.83
250.934	107.18
251.151	-60.76
251.368	113.32
251.585	51.88
251.801	-19.8
252.018	23.21
252.235	47.79
252.451	19.11
252.668	21.16
252.885	84.65
253.102	111.27
253.318	-34.13
253.535	43.69
253.752	17.07
253.968	27.31
254.185	-21.85
254.401	39.59
254.618	125.61
254.835	8.87
255.051	86.7
255.268	-11.61
255.484	53.93
255.701	-3.41
255.917	25.26
256.134	2.73
256.351	-42.32
256.567	39.59
256.784	37.55
257	10.92
257.217	6.83
257.433	31.4
257.65	-1.37
257.866	103.08
258.082	23.21
258.299	-38.23
258.515	-1.37
258.732	43.69
258.948	10.92
259.165	23.21
259.381	35.5
259.597	15.02
259.814	55.98
260.03	8.87
260.246	60.07
260.463	96.94
260.679	43.69
260.895	15.02
261.112	78.51
261.328	29.35
261.544	17.07
261.761	80.55
261.977	-34.13
262.193	-7.51
262.409	49.83
262.626	35.5
262.842	-19.8
263.058	27.31
263.274	43.69
263.49	113.32
263.707	64.17
263.923	49.83
264.139	-19.8
264.355	105.13
264.571	86.7
264.787	27.31
265.004	109.22
265.22	21.16
265.436	-34.13
265.652	62.12
265.868	35.5
266.084	-34.13
266.3	-1.37
266.516	31.4
266.732	33.45
266.948	4.78
267.164	10.92
267.38	105.13
267.596	45.74
267.812	58.03
268.028	23.21
268.244	15.02
268.46	96.94
268.676	-17.75
268.892	-9.56
269.108	15.02
269.324	12.97
269.54	6.83
269.756	135.85
269.972	-36.18
270.188	-3.41
270.403	47.79
270.619	96.94
270.835	17.07
271.051	15.02
271.267	-19.8
271.483	141.99
271.698	39.59
271.914	68.27
272.13	31.4
272.346	62.12
272.562	10.92
272.777	-9.56
272.993	35.5
273.209	-34.13
273.425	6.83
273.64	39.59
273.856	92.84
274.072	17.07
274.287	-32.08
274.503	133.8
274.719	29.35
274.934	6.83
275.15	31.4
275.366	96.94
275.581	-58.71
275.797	45.74
276.012	96.94
276.228	70.31
276.444	29.35
276.659	101.03
276.875	47.79
277.09	62.12
277.306	78.51
277.521	109.22
277.737	-1.37
277.952	47.79
278.168	111.27
278.383	49.83
278.599	21.16
278.814	58.03
279.03	23.21
279.245	101.03
279.461	-9.56
279.676	101.03
279.892	-1.37
280.107	-3.41
280.322	43.69
280.538	29.35
280.753	64.17
280.969	-1.37
281.184	74.41
281.399	135.85
281.615	60.07
281.83	15.02
282.045	55.98
282.26	2.73
282.476	-17.75
282.691	74.41
282.906	17.07
283.122	-7.51
283.337	-1.37
283.552	25.26
283.767	4.78
283.983	111.27
284.198	47.79
284.413	68.27
284.628	12.97
284.843	-25.94
285.058	23.21
285.274	39.59
285.489	-40.28
285.704	64.17
285.919	-52.56
286.134	15.02
286.349	39.59
286.564	101.03
286.779	47.79
286.995	-15.7
287.21	-40.28
287.425	29.35
287.64	-17.75
287.855	64.17
288.07	2.73
288.285	68.27
288.5	74.41
288.715	47.79
288.93	23.21
289.145	-15.7
289.36	10.92
289.575	70.31
289.79	96.94
290.004	51.88
290.219	17.07
290.434	31.4
290.649	-11.61
290.864	2.73
291.079	-1.37
291.294	62.12
291.509	-21.85
291.724	80.55
291.938	74.41
292.153	-5.46
292.368	60.07
292.583	43.69
292.798	80.55
293.012	27.31
293.227	23.21
293.442	58.03
293.657	33.45
293.871	113.32
294.086	47.79
294.301	80.55
294.516	47.79
294.73	58.03
294.945	-5.46
295.16	23.21
295.374	60.07
295.589	121.51
295.804	-15.7
296.018	39.59
296.233	55.98
296.447	-25.94
296.662	101.03
296.877	8.87
297.091	64.17
297.306	70.31
297.52	60.07
297.735	55.98
297.949	12.97
298.164	80.55
298.378	0.68
298.593	17.07
298.807	-52.56
299.022	6.83
299.236	88.75
299.451	37.55
299.665	-3.41
299.88	31.4
300.094	58.03
300.309	72.36
300.523	43.69
300.737	-5.46
300.952	68.27
301.166	-13.65
301.381	47.79
301.595	17.07
301.809	84.65
302.024	12.97
302.238	-25.94
302.452	109.22
302.667	43.69
302.881	23.21
303.095	96.94
303.309	15.02
303.524	39.59
303.738	0.68
303.952	-7.51
304.166	37.55
304.381	29.35
304.595	45.74
304.809	-66.9
305.023	19.11
305.237	109.22
305.452	12.97
305.666	39.59
305.88	55.98
306.094	39.59
306.308	98.99
306.522	76.46
306.736	37.55
306.95	68.27
307.164	66.22
307.379	6.83
307.593	45.74
307.807	119.46
308.021	92.84
308.235	55.98
308.449	15.02
308.663	45.74
308.877	64.17
309.091	47.79
309.305	74.41
309.519	-93.52
309.733	55.98
309.947	39.59
310.161	17.07
310.374	80.55
310.588	39.59
310.802	-66.9
311.016	96.94
311.23	41.64
311.444	-25.94
311.658	47.79
311.872	39.59
312.085	41.64
312.299	111.27
312.513	17.07
312.727	39.59
312.941	-5.46
313.154	78.51
313.368	23.21
313.582	90.79
313.796	60.07
314.009	21.16
314.223	78.51
314.437	113.32
314.651	12.97
314.864	51.88
315.078	43.69
315.292	4.78
315.505	29.35
315.719	80.55
315.933	-5.46
316.146	21.16
316.36	-19.8
316.573	58.03
316.787	62.12
317.001	35.5
317.214	15.02
317.428	23.21
317.641	23.21
317.855	31.4
318.068	105.13
318.282	60.07
318.495	105.13
318.709	127.66
318.922	12.97
319.136	15.02
319.349	29.35
319.563	47.79
319.776	35.5
319.99	101.03
320.203	150.18
320.417	19.11
320.63	6.83
320.843	84.65
321.057	-3.41
321.27	92.84
321.483	66.22
321.697	125.61
321.91	10.92
322.124	129.7
322.337	49.83
322.55	-5.46
322.763	31.4
322.977	37.55
323.19	-13.65
323.403	107.18
323.617	-36.18
323.83	76.46
324.043	51.88
324.256	86.7
324.469	-25.94
324.683	94.89
324.896	137.9
325.109	49.83
325.322	-15.7
325.535	31.4
325.748	117.42
325.962	64.17
326.175	152.23
326.388	135.85
326.601	127.66
326.814	88.75
327.027	51.88
327.24	119.46
327.453	8.87
327.666	53.93
327.879	92.84
328.092	98.99
328.305	29.35
328.518	-3.41
328.731	31.4
328.944	37.55
329.157	72.36
329.37	8.87
329.583	47.79
329.796	115.37
330.009	23.21
330.222	37.55
330.435	96.94
330.648	-3.41
330.861	113.32
331.073	64.17
331.286	115.37
331.499	-25.94
331.712	-1.37
331.925	55.98
332.138	72.36
332.35	82.6
332.563	43.69
332.776	53.93
332.989	-17.75
333.202	35.5
333.414	21.16
333.627	-11.61
333.84	-17.75
334.053	92.84
334.265	45.74
334.478	-19.8
334.691	90.79
334.903	58.03
335.116	-13.65
335.329	101.03
335.541	15.02
335.754	182.95
335.966	39.59
336.179	15.02
336.392	17.07
336.604	72.36
336.817	113.32
337.029	-40.28
337.242	47.79
337.454	60.07
337.667	37.55
337.88	53.93
338.092	31.4
338.305	47.79
338.517	49.83
338.729	-36.18
338.942	23.21
339.154	-50.52
339.367	-3.41
339.579	101.03
339.792	53.93
340.004	96.94
340.217	68.27
340.429	88.75
340.641	-32.08
340.854	23.21
341.066	62.12
341.278	64.17
341.491	47.79
341.703	68.27
341.915	-9.56
342.128	72.36
342.34	90.79
342.552	-50.52
342.764	-9.56
342.977	8.87
343.189	162.47
343.401	-50.52
343.613	12.97
343.826	6.83
344.038	-13.65
344.25	35.5
344.462	68.27
344.674	111.27
344.886	23.21
345.099	35.5
345.311	101.03
345.523	2.73
345.735	-21.85
345.947	92.84
346.159	137.9
346.371	82.6
346.583	27.31
346.795	80.55
347.007	39.59
347.219	-3.41
347.431	10.92
347.643	6.83
347.855	129.7
348.067	51.88
348.279	-42.32
348.491	76.46
348.703	39.59
348.915	19.11
349.127	31.4
349.339	53.93
349.551	-1.37
349.763	146.09
349.975	58.03
350.187	150.18
350.399	8.87
350.61	74.41
350.822	17.07
351.034	62.12
351.246	17.07
351.458	-5.46
351.669	47.79
351.881	111.27
352.093	35.5
352.305	107.18
352.517	35.5
352.728	135.85
352.94	94.89
353.152	-13.65
353.363	86.7
353.575	10.92
353.787	62.12
353.999	45.74
354.21	141.99
354.422	27.31
354.633	78.51
354.845	0.68
355.057	39.59
355.268	121.51
355.48	88.75
355.692	-25.94
355.903	31.4
356.115	62.12
356.326	31.4
356.538	86.7
356.749	148.14
356.961	88.75
357.172	74.41
357.384	43.69
357.595	121.51
357.807	29.35
358.018	55.98
358.23	94.89
358.441	121.51
358.653	53.93
358.864	62.12
359.075	-50.52
359.287	27.31
359.498	86.7
359.709	49.83
359.921	17.07
360.132	66.22
360.344	135.85
360.555	-19.8
360.766	6.83
360.977	68.27
361.189	117.42
361.4	31.4
361.611	96.94
361.823	17.07
362.034	70.31
362.245	19.11
362.456	53.93
362.667	23.21
362.879	84.65
363.09	37.55
363.301	86.7
363.512	49.83
363.723	31.4
363.935	35.5
364.146	78.51
364.357	62.12
364.568	64.17
364.779	4.78
364.99	84.65
365.201	23.21
365.412	31.4
365.623	29.35
365.834	29.35
366.045	2.73
366.256	15.02
366.467	119.46
366.678	15.02
366.889	125.61
367.1	86.7
367.311	55.98
367.522	80.55
367.733	90.79
367.944	72.36
368.155	-36.18
368.366	90.79
368.577	180.9
368.788	55.98
368.999	43.69
369.209	47.79
369.42	129.7
369.631	160.42
369.842	90.79
370.053	68.27
370.264	45.74
370.474	64.17
370.685	47.79
370.896	35.5
371.107	66.22
371.317	12.97
371.528	49.83
371.739	123.56
371.95	31.4
372.16	-9.56
372.371	19.11
372.582	15.02
372.792	37.55
373.003	23.21
373.214	39.59
373.424	127.66
373.635	4.78
373.846	49.83
374.056	152.23
374.267	-5.46
374.477	64.17
374.688	39.59
374.898	78.51
375.109	58.03
375.319	29.35
375.53	90.79
375.74	4.78
375.951	45.74
376.161	90.79
376.372	109.22
376.582	72.36
376.793	154.28
377.003	15.02
377.214	86.7
377.424	35.5
377.635	43.69
377.845	35.5
378.055	33.45
378.266	58.03
378.476	76.46
378.686	27.31
378.897	-17.75
379.107	84.65
379.317	23.21
379.528	37.55
379.738	43.69
379.948	6.83
380.158	84.65
380.369	98.99
380.579	119.46
380.789	6.83
380.999	92.84
381.21	6.83
381.42	121.51
381.63	31.4
381.84	12.97
382.05	23.21
382.261	39.59
382.471	121.51
382.681	51.88
382.891	66.22
383.101	39.59
383.311	-3.41
383.521	2.73
383.731	92.84
383.941	58.03
384.151	41.64
384.361	45.74
384.571	55.98
384.781	80.55
384.991	129.7
385.201	113.32
385.411	23.21
385.621	29.35
385.831	15.02
386.041	64.17
386.251	53.93
386.461	172.71
386.671	113.32
386.881	64.17
387.091	117.42
387.301	39.59
387.511	47.79
387.72	141.99
387.93	35.5
388.14	-13.65
388.35	64.17
388.56	17.07
388.769	111.27
388.979	66.22
389.189	8.87
389.399	66.22
389.609	109.22
389.818	88.75
390.028	-25.94
390.238	-3.41
390.447	101.03
390.657	68.27
390.867	64.17
391.076	21.16
391.286	43.69
391.496	39.59
391.705	101.03
391.915	64.17
392.125	72.36
392.334	2.73
392.544	39.59
392.753	84.65
392.963	31.4
393.172	64.17
393.382	10.92
393.591	117.42
393.801	25.26
394.01	76.46
394.22	105.13
394.429	17.07
394.639	-9.56
394.848	98.99
395.058	37.55
395.267	105.13
395.477	96.94
395.686	39.59
395.895	146.09
396.105	141.99
396.314	105.13
396.524	58.03
396.733	66.22
396.942	160.42
397.152	105.13
397.361	129.7
397.57	80.55
397.78	72.36
397.989	47.79
398.198	144.04
398.407	55.98
398.617	94.89
398.826	125.61
399.035	80.55
399.244	101.03
399.453	166.57
399.663	129.7
399.872	113.32
400.081	62.12
400.29	170.66
400.499	47.79
400.708	135.85
400.917	72.36
401.127	76.46
401.336	123.56
401.545	160.42
401.754	121.51
401.963	166.57
402.172	117.42
402.381	88.75
402.59	23.21
402.799	43.69
403.008	96.94
403.217	162.47
403.426	86.7
403.635	129.7
403.844	68.27
404.053	125.61
404.262	113.32
404.471	201.38
404.68	119.46
404.888	105.13
405.097	178.86
405.306	113.32
405.515	111.27
405.724	150.18
405.933	156.33
406.142	189.1
406.35	168.62
406.559	146.09
406.768	225.96
406.977	182.95
407.185	187.05
407.394	197.29
407.603	80.55
407.812	215.72
408.02	256.68
408.229	254.63
408.438	258.73
408.646	154.28
408.855	211.62
409.064	230.06
409.272	193.19
409.481	236.2
409.69	234.15
409.898	234.15
410.107	236.2
410.315	309.93
410.524	297.64
410.733	277.16
410.941	340.65
411.15	316.07
411.358	359.08
411.567	369.32
411.775	357.03
411.984	447.14
412.192	352.93
412.401	322.21
412.609	402.08
412.818	428.71
413.026	348.84
413.234	410.28
413.443	432.8
413.651	397.99
413.86	481.96
414.068	594.59
414.276	453.28
414.485	516.77
414.693	561.83
414.901	668.32
415.11	529.06
415.318	557.73
415.526	635.55
415.734	701.09
415.943	635.55
416.151	664.22
416.359	707.23
416.567	723.62
416.776	760.48
416.984	746.14
417.192	764.57
417.4	760.48
417.608	735.9
417.817	846.49
418.025	934.56
418.233	989.85
418.441	856.73
418.649	1045.15
418.857	1116.83
419.065	1043.1
419.273	1043.1
419.481	1143.45
419.689	1137.31
419.897	1227.42
420.105	1266.33
420.313	1362.58
420.521	1299.09
420.729	1342.1
420.937	1264.28
421.145	1401.49
421.353	1555.09
421.561	1596.05
421.769	1614.48
421.977	1817.23
422.185	1755.79
422.393	1821.33
422.601	1888.91
422.809	2003.6
423.017	2042.51
423.224	1979.02
423.432	2126.47
423.64	2034.32
423.848	2292.36
424.056	2159.24
424.263	2417.29
424.471	2398.85
424.679	2419.33
424.887	2466.44
425.094	2634.37
425.302	2726.53
425.51	2648.71
425.718	2808.45
425.925	2794.11
426.133	2800.26
426.341	3215.99
426.548	3213.95
426.756	3242.62
426.964	3207.8
427.171	3431.03
427.379	3525.24
427.586	3568.24
427.794	3684.98
428.001	3914.35
428.209	3951.21
428.417	4043.37
428.624	4266.6
428.832	4305.51
429.039	4168.3
429.247	4285.03
429.454	4608.61
429.662	5001.82
429.869	4635.24
430.076	4960.86
430.284	4764.26
430.491	5104.22
430.699	5343.83
430.906	5294.68
431.114	5640.79
431.321	5581.4
431.528	5778
431.736	6099.53
431.943	6373.96
432.15	6140.49
432.358	6228.56
432.565	6683.2
432.772	6568.52
432.979	7006.78
433.187	6912.58
433.394	6988.35
433.601	7346.75
433.808	7600.69
434.016	7778.87
434.223	7795.25
434.43	8239.66
434.637	8325.68
434.844	8559.14
435.052	8886.82
435.259	8751.65
435.466	8845.86
435.673	8651.3
435.88	9251.36
436.087	9933.33
436.294	10082.83
436.501	9607.7
436.708	9777.69
436.915	10127.89
437.122	10457.61
437.329	10560.01
437.537	11037.19
437.743	11158.02
437.95	11037.19
438.157	11680.25
438.364	11971.06
438.571	11883
438.778	12052.98
438.985	13167.07
439.192	12476.91
439.399	13007.33
439.606	12671.47
439.813	13451.74
440.02	14383.57
440.227	14100.95
440.433	13834.71
440.64	14449.1
440.847	14272.98
441.054	14670.28
441.261	15497.66
441.467	15362.5
441.674	15985.08
441.881	16179.64
442.088	16259.51
442.294	16056.76
442.501	16398.77
442.708	16955.82
442.914	17461.66
443.121	18467.22
443.328	17678.75
443.534	19036.55
443.741	18569.62
443.948	18518.42
444.154	19599.74
444.361	19444.1
444.568	19634.56
444.774	19566.98
444.981	19896.7
445.187	20459.89
445.394	21297.51
445.6	21203.3
445.807	22864.21
446.013	21885.28
446.22	22458.71
446.426	23234.89
446.633	23484.74
446.839	24305.98
447.046	23269.7
447.252	24435
447.459	24373.56
447.665	24346.94
447.871	25465.13
448.078	26607.89
448.284	25631.01
448.491	26016.03
448.697	27181.32
448.903	27689.22
449.11	27422.98
449.316	27177.23
449.522	27656.45
449.728	28303.61
449.935	28541.18
450.141	28723.44
450.347	29176.05
450.553	28479.74
450.76	28506.36
450.966	29429.99
451.172	29092.08
451.378	29972.71
451.584	29346.03
451.791	30077.15
451.997	29575.4
452.203	30032.1
452.409	30095.58
452.615	30331.1
452.821	29196.53
453.027	28813.56
453.233	30255.33
453.44	28729.59
453.646	29290.73
453.852	29421.8
454.058	30097.63
454.264	28768.5
454.47	29335.79
454.676	28911.86
454.882	29796.58
455.088	27271.43
455.294	27476.23
455.5	28053.76
455.705	28135.68
455.911	27171.08
456.117	26386.71
456.323	26128.67
456.529	24729.91
456.735	25876.77
456.941	25114.92
457.147	24871.22
457.352	23906.62
457.558	23937.34
457.764	23818.56
457.97	23308.61
458.176	22833.49
458.381	22602.07
458.587	21651.81
458.793	21563.75
458.999	20420.98
459.204	22083.93
459.41	21358.95
459.616	20019.58
459.821	20074.87
460.027	19691.9
460.233	19276.16
460.438	18540.94
460.644	18729.36
460.85	17672.6
461.055	17527.2
461.261	17189.28
461.466	16120.24
461.672	15636.92
461.878	16705.96
462.083	15612.35
462.289	15514.05
462.494	15337.92
462.7	14719.43
462.905	14150.1
463.111	14586.32
463.316	14758.35
463.522	14447.05
463.727	13998.55
463.932	14475.73
464.138	14367.18
464.343	14019.03
464.549	13793.75
464.754	14211.54
464.959	14500.3
465.165	14068.18
465.37	13494.75
465.575	13128.16
465.781	13593.05
465.986	13726.17
466.191	13392.35
466.397	13128.16
466.602	12304.88
466.807	12745.19
467.012	12986.85
467.218	12636.65
467.423	12446.19
