Data from USB4F104151__64__11-31-00-159.txt Node

Date: Fri Mar 14 11:31:00 EDT 2025
User: louis
Spectrometer: USB4F10415
Trigger mode: 4
Integration Time (sec): 5.000000E-2
Scans to average: 1
Electric dark correction enabled: true
Nonlinearity correction enabled: false
Boxcar width: 0
XAxis mode: Wavelengths
Number of Pixels in Spectrum: 3648
>>>>>Begin Spectral Data<<<<<
178.204	-136.7
178.424	-136.7
178.644	-136.7
178.864	-163.33
179.084	-146.94
179.304	-54.78
179.524	-13.82
179.744	31.23
179.964	41.47
180.184	43.52
180.404	33.28
180.624	16.9
180.844	8.7
181.064	-62.98
181.283	-36.35
181.503	-34.3
181.723	27.14
181.943	-62.98
182.163	137.73
182.383	51.71
182.602	51.71
182.822	109.05
183.042	68.09
183.262	12.8
183.482	14.85
183.701	14.85
183.921	-9.73
184.141	43.52
184.361	41.47
184.58	51.71
184.8	59.9
185.02	74.24
185.239	129.53
185.459	-22.02
185.679	4.61
185.898	-32.26
186.118	23.04
186.338	-13.82
186.557	98.81
186.777	37.38
186.997	-54.78
187.216	23.04
187.436	92.67
187.655	-22.02
187.875	55.81
188.095	20.99
188.314	76.29
188.534	141.82
188.753	-13.82
188.973	-13.82
189.192	133.63
189.412	4.61
189.631	74.24
189.851	-30.21
190.07	82.43
190.29	70.14
190.509	-3.58
190.729	20.99
190.948	88.57
191.168	150.01
191.387	35.33
191.607	-15.87
191.826	-3.58
192.045	-11.78
192.265	92.67
192.484	68.09
192.704	123.39
192.923	-1.54
193.142	150.01
193.362	27.14
193.581	-28.16
193.8	125.44
194.02	-26.11
194.239	-30.21
194.458	-9.73
194.678	41.47
194.897	-38.4
195.116	2.56
195.335	64
195.555	12.8
195.774	25.09
195.993	64
196.212	-32.26
196.432	10.75
196.651	35.33
196.87	-26.11
197.089	61.95
197.308	92.67
197.528	59.9
197.747	-32.26
197.966	-9.73
198.185	84.48
198.404	-5.63
198.623	66.05
198.842	18.94
199.062	14.85
199.281	104.96
199.5	25.09
199.719	82.43
199.938	74.24
200.157	84.48
200.376	20.99
200.595	31.23
200.814	39.42
201.033	-24.06
201.252	84.48
201.471	33.28
201.69	111.1
201.909	10.75
202.128	84.48
202.347	-1.54
202.566	-1.54
202.785	-24.06
203.004	12.8
203.223	174.59
203.442	-9.73
203.661	-73.21
203.879	-5.63
204.098	66.05
204.317	20.99
204.536	100.86
204.755	98.81
204.974	35.33
205.193	51.71
205.411	80.38
205.63	76.29
205.849	10.75
206.068	57.86
206.287	12.8
206.505	61.95
206.724	-34.3
206.943	68.09
207.162	72.19
207.381	57.86
207.599	-17.92
207.818	35.33
208.037	-30.21
208.255	10.75
208.474	16.9
208.693	113.15
208.911	2.56
209.13	39.42
209.349	14.85
209.567	25.09
209.786	64
210.005	47.62
210.223	72.19
210.442	-1.54
210.661	55.81
210.879	-40.45
211.098	10.75
211.316	49.66
211.535	115.2
211.753	55.81
211.972	68.09
212.191	16.9
212.409	-62.98
212.628	27.14
212.846	64
213.065	68.09
213.283	104.96
213.502	43.52
213.72	43.52
213.938	-26.11
214.157	4.61
214.375	51.71
214.594	45.57
214.812	55.81
215.031	-38.4
215.249	70.14
215.467	-54.78
215.686	14.85
215.904	66.05
216.122	49.66
216.341	59.9
216.559	20.99
216.778	33.28
216.996	-9.73
217.214	-22.02
217.432	-15.87
217.651	2.56
217.869	2.56
218.087	98.81
218.306	-15.87
218.524	82.43
218.742	37.38
218.96	23.04
219.179	-34.3
219.397	27.14
219.615	47.62
219.833	37.38
220.051	-7.68
220.27	43.52
220.488	-11.78
220.706	29.18
220.924	4.61
221.142	2.56
221.36	-9.73
221.578	33.28
221.796	45.57
222.015	23.04
222.233	10.75
222.451	57.86
222.669	16.9
222.887	76.29
223.105	-11.78
223.323	68.09
223.541	-11.78
223.759	31.23
223.977	-9.73
224.195	57.86
224.413	-36.35
224.631	33.28
224.849	49.66
225.067	76.29
225.285	29.18
225.503	14.85
225.721	64
225.939	10.75
226.157	57.86
226.375	53.76
226.592	45.57
226.81	57.86
227.028	100.86
227.246	64
227.464	16.9
227.682	45.57
227.9	82.43
228.117	12.8
228.335	82.43
228.553	-13.82
228.771	51.71
228.989	37.38
229.206	53.76
229.424	10.75
229.642	10.75
229.86	2.56
230.077	102.91
230.295	70.14
230.513	66.05
230.731	16.9
230.948	57.86
231.166	25.09
231.384	2.56
231.601	-13.82
231.819	2.56
232.037	6.66
232.254	-13.82
232.472	-7.68
232.689	76.29
232.907	29.18
233.125	10.75
233.342	-17.92
233.56	-13.82
233.777	14.85
233.995	18.94
234.213	72.19
234.43	27.14
234.648	12.8
234.865	-65.02
235.083	64
235.3	92.67
235.518	43.52
235.735	43.52
235.953	84.48
236.17	18.94
236.388	72.19
236.605	39.42
236.822	-7.68
237.04	64
237.257	2.56
237.475	-7.68
237.692	47.62
237.909	109.05
238.127	-1.54
238.344	33.28
238.562	6.66
238.779	14.85
238.996	64
239.214	18.94
239.431	66.05
239.648	74.24
239.865	64
240.083	59.9
240.3	-42.5
240.517	-15.87
240.735	10.75
240.952	104.96
241.169	100.86
241.386	68.09
241.603	16.9
241.821	16.9
242.038	6.66
242.255	57.86
242.472	-1.54
242.689	23.04
242.907	88.57
243.124	59.9
243.341	-30.21
243.558	-26.11
243.775	25.09
243.992	-17.92
244.209	49.66
244.426	141.82
244.643	-9.73
244.86	18.94
245.078	43.52
245.295	20.99
245.512	66.05
245.729	8.7
245.946	6.66
246.163	39.42
246.38	10.75
246.597	-79.36
246.814	66.05
247.031	-11.78
247.248	74.24
247.464	33.28
247.681	18.94
247.898	33.28
248.115	76.29
248.332	23.04
248.549	49.66
248.766	84.48
248.983	43.52
249.2	123.39
249.417	6.66
249.633	-11.78
249.85	64
250.067	35.33
250.284	10.75
250.501	51.71
250.717	76.29
250.934	68.09
251.151	33.28
251.368	66.05
251.585	76.29
251.801	51.71
252.018	0.51
252.235	35.33
252.451	14.85
252.668	68.09
252.885	18.94
253.102	23.04
253.318	-22.02
253.535	8.7
253.752	18.94
253.968	35.33
254.185	-22.02
254.401	-7.68
254.618	6.66
254.835	6.66
255.051	98.81
255.268	49.66
255.484	-1.54
255.701	55.81
255.917	92.67
256.134	39.42
256.351	64
256.567	0.51
256.784	-79.36
257	23.04
257.217	109.05
257.433	51.71
257.65	-9.73
257.866	74.24
258.082	-7.68
258.299	-9.73
258.515	82.43
258.732	-67.07
258.948	10.75
259.165	23.04
259.381	35.33
259.597	41.47
259.814	2.56
260.03	29.18
260.246	4.61
260.463	-19.97
260.679	64
260.895	18.94
261.112	6.66
261.328	35.33
261.544	14.85
261.761	107.01
261.977	27.14
262.193	35.33
262.409	-3.58
262.626	74.24
262.842	-13.82
263.058	18.94
263.274	18.94
263.49	23.04
263.707	57.86
263.923	35.33
264.139	51.71
264.355	76.29
264.571	90.62
264.787	76.29
265.004	76.29
265.22	-11.78
265.436	92.67
265.652	39.42
265.868	47.62
266.084	-17.92
266.3	45.57
266.516	0.51
266.732	39.42
266.948	41.47
267.164	37.38
267.38	-7.68
267.596	51.71
267.812	96.77
268.028	51.71
268.244	-17.92
268.46	0.51
268.676	18.94
268.892	41.47
269.108	-75.26
269.324	-32.26
269.54	-22.02
269.756	14.85
269.972	51.71
270.188	-44.54
270.403	-22.02
270.619	61.95
270.835	-15.87
271.051	82.43
271.267	-13.82
271.483	88.57
271.698	0.51
271.914	6.66
272.13	70.14
272.346	64
272.562	49.66
272.777	96.77
272.993	31.23
273.209	-28.16
273.425	0.51
273.64	31.23
273.856	104.96
274.072	59.9
274.287	-17.92
274.503	31.23
274.719	64
274.934	29.18
275.15	0.51
275.366	-40.45
275.581	27.14
275.797	90.62
276.012	8.7
276.228	14.85
276.444	96.77
276.659	68.09
276.875	-48.64
277.09	66.05
277.306	37.38
277.521	-5.63
277.737	-34.3
277.952	-1.54
278.168	35.33
278.383	23.04
278.599	27.14
278.814	84.48
279.03	10.75
279.245	39.42
279.461	76.29
279.676	158.21
279.892	-24.06
280.107	-22.02
280.322	72.19
280.538	92.67
280.753	-17.92
280.969	98.81
281.184	64
281.399	76.29
281.615	33.28
281.83	49.66
282.045	-13.82
282.26	43.52
282.476	51.71
282.691	102.91
282.906	27.14
283.122	43.52
283.337	-50.69
283.552	-13.82
283.767	23.04
283.983	31.23
284.198	51.71
284.413	90.62
284.628	31.23
284.843	-46.59
285.058	-17.92
285.274	41.47
285.489	-11.78
285.704	25.09
285.919	-38.4
286.134	-32.26
286.349	35.33
286.564	76.29
286.779	113.15
286.995	64
287.21	2.56
287.425	-7.68
287.64	31.23
287.855	29.18
288.07	20.99
288.285	68.09
288.5	-22.02
288.715	35.33
288.93	61.95
289.145	-38.4
289.36	68.09
289.575	72.19
289.79	41.47
290.004	14.85
290.219	23.04
290.434	35.33
290.649	12.8
290.864	0.51
291.079	43.52
291.294	-56.83
291.509	64
291.724	16.9
291.938	-13.82
292.153	6.66
292.368	35.33
292.583	72.19
292.798	109.05
293.012	74.24
293.227	76.29
293.442	-5.63
293.657	35.33
293.871	27.14
294.086	-50.69
294.301	59.9
294.516	125.44
294.73	-13.82
294.945	-38.4
295.16	2.56
295.374	27.14
295.589	74.24
295.804	12.8
296.018	25.09
296.233	49.66
296.447	55.81
296.662	31.23
296.877	70.14
297.091	20.99
297.306	55.81
297.52	27.14
297.735	84.48
297.949	53.76
298.164	47.62
298.378	68.09
298.593	0.51
298.807	74.24
299.022	76.29
299.236	61.95
299.451	29.18
299.665	0.51
299.88	33.28
300.094	76.29
300.309	49.66
300.523	25.09
300.737	-22.02
300.952	43.52
301.166	61.95
301.381	18.94
301.595	16.9
301.809	41.47
302.024	102.91
302.238	43.52
302.452	-9.73
302.667	84.48
302.881	70.14
303.095	2.56
303.309	170.49
303.524	23.04
303.738	-32.26
303.952	-24.06
304.166	12.8
304.381	-40.45
304.595	68.09
304.809	-13.82
305.023	41.47
305.237	16.9
305.452	-19.97
305.666	41.47
305.88	33.28
306.094	74.24
306.308	25.09
306.522	18.94
306.736	113.15
306.95	-11.78
307.164	-22.02
307.379	-54.78
307.593	43.52
307.807	53.76
308.021	57.86
308.235	57.86
308.449	51.71
308.663	57.86
308.877	141.82
309.091	-17.92
309.305	0.51
309.519	-15.87
309.733	68.09
309.947	31.23
310.161	-17.92
310.374	64
310.588	98.81
310.802	-22.02
311.016	43.52
311.23	76.29
311.444	35.33
311.658	35.33
311.872	117.25
312.085	84.48
312.299	94.72
312.513	55.81
312.727	-13.82
312.941	-30.21
313.154	47.62
313.368	-5.63
313.582	59.9
313.796	49.66
314.009	-38.4
314.223	35.33
314.437	59.9
314.651	-9.73
314.864	64
315.078	-24.06
315.292	-1.54
315.505	0.51
315.719	35.33
315.933	76.29
316.146	80.38
316.36	27.14
316.573	127.49
316.787	51.71
317.001	53.76
317.214	-83.45
317.428	39.42
317.641	-79.36
317.855	64
318.068	8.7
318.282	8.7
318.495	164.35
318.709	-19.97
318.922	47.62
319.136	64
319.349	0.51
319.563	51.71
319.776	68.09
319.99	-38.4
320.203	53.76
320.417	-11.78
320.63	51.71
320.843	29.18
321.057	84.48
321.27	49.66
321.483	88.57
321.697	18.94
321.91	18.94
322.124	57.86
322.337	16.9
322.55	-13.82
322.763	-9.73
322.977	41.47
323.19	-22.02
323.403	82.43
323.617	72.19
323.83	92.67
324.043	43.52
324.256	33.28
324.469	-19.97
324.683	2.56
324.896	123.39
325.109	14.85
325.322	8.7
325.535	84.48
325.748	47.62
325.962	-79.36
326.175	6.66
326.388	70.14
326.601	53.76
326.814	-17.92
327.027	-17.92
327.24	64
327.453	-17.92
327.666	29.18
327.879	47.62
328.092	115.2
328.305	-1.54
328.518	23.04
328.731	18.94
328.944	25.09
329.157	-11.78
329.37	47.62
329.583	115.2
329.796	86.53
330.009	47.62
330.222	18.94
330.435	35.33
330.648	92.67
330.861	90.62
331.073	18.94
331.286	59.9
331.499	39.42
331.712	6.66
331.925	8.7
332.138	14.85
332.35	100.86
332.563	35.33
332.776	20.99
332.989	47.62
333.202	4.61
333.414	-5.63
333.627	66.05
333.84	6.66
334.053	68.09
334.265	-15.87
334.478	27.14
334.691	0.51
334.903	51.71
335.116	-7.68
335.329	39.42
335.541	-62.98
335.754	68.09
335.966	64
336.179	76.29
336.392	51.71
336.604	29.18
336.817	27.14
337.029	43.52
337.242	59.9
337.454	59.9
337.667	35.33
337.88	94.72
338.092	47.62
338.305	25.09
338.517	-1.54
338.729	76.29
338.942	-5.63
339.154	47.62
339.367	-75.26
339.579	74.24
339.792	59.9
340.004	16.9
340.217	0.51
340.429	-30.21
340.641	8.7
340.854	6.66
341.066	109.05
341.278	49.66
341.491	125.44
341.703	41.47
341.915	-19.97
342.128	88.57
342.34	-19.97
342.552	33.28
342.764	-36.35
342.977	72.19
343.189	31.23
343.401	115.2
343.613	-5.63
343.826	23.04
344.038	31.23
344.25	6.66
344.462	45.57
344.674	74.24
344.886	-17.92
345.099	6.66
345.311	18.94
345.523	64
345.735	8.7
345.947	92.67
346.159	2.56
346.371	23.04
346.583	59.9
346.795	80.38
347.007	39.42
347.219	49.66
347.431	31.23
347.643	88.57
347.855	-7.68
348.067	94.72
348.279	27.14
348.491	35.33
348.703	41.47
348.915	6.66
349.127	-13.82
349.339	12.8
349.551	4.61
349.763	41.47
349.975	6.66
350.187	49.66
350.399	109.05
350.61	27.14
350.822	109.05
351.034	2.56
351.246	23.04
351.458	117.25
351.669	90.62
351.881	57.86
352.093	35.33
352.305	121.34
352.517	80.38
352.728	68.09
352.94	70.14
353.152	-11.78
353.363	29.18
353.575	51.71
353.787	86.53
353.999	-17.92
354.21	176.64
354.422	-1.54
354.633	18.94
354.845	55.81
355.057	59.9
355.268	-3.58
355.48	35.33
355.692	49.66
355.903	76.29
356.115	-7.68
356.326	-79.36
356.538	33.28
356.749	-32.26
356.961	72.19
357.172	51.71
357.384	41.47
357.595	51.71
357.807	43.52
358.018	49.66
358.23	-19.97
358.441	100.86
358.653	78.33
358.864	29.18
359.075	39.42
359.287	96.77
359.498	72.19
359.709	2.56
359.921	18.94
360.132	8.7
360.344	6.66
360.555	-17.92
360.766	39.42
360.977	8.7
361.189	107.01
361.4	-24.06
361.611	123.39
361.823	72.19
362.034	33.28
362.245	43.52
362.456	14.85
362.667	18.94
362.879	51.71
363.09	92.67
363.301	33.28
363.512	76.29
363.723	23.04
363.935	-13.82
364.146	-44.54
364.357	10.75
364.568	109.05
364.779	51.71
364.99	92.67
365.201	92.67
365.412	64
365.623	-7.68
365.834	64
366.045	-5.63
366.256	68.09
366.467	131.58
366.678	47.62
366.889	6.66
367.1	8.7
367.311	86.53
367.522	-19.97
367.733	47.62
367.944	88.57
368.155	53.76
368.366	43.52
368.577	66.05
368.788	-11.78
368.999	25.09
369.209	2.56
369.42	12.8
369.631	57.86
369.842	76.29
370.053	39.42
370.264	31.23
370.474	10.75
370.685	25.09
370.896	4.61
371.107	147.97
371.317	33.28
371.528	-30.21
371.739	76.29
371.95	59.9
372.16	80.38
372.371	45.57
372.582	14.85
372.792	27.14
373.003	12.8
373.214	43.52
373.424	-15.87
373.635	-71.17
373.846	119.29
374.056	-22.02
374.267	100.86
374.477	6.66
374.688	33.28
374.898	82.43
375.109	59.9
375.319	35.33
375.53	96.77
375.74	119.29
375.951	23.04
376.161	45.57
376.372	92.67
376.582	16.9
376.793	109.05
377.003	-38.4
377.214	25.09
377.424	12.8
377.635	51.71
377.845	-22.02
378.055	129.53
378.266	-62.98
378.476	-22.02
378.686	18.94
378.897	80.38
379.107	6.66
379.317	96.77
379.528	76.29
379.738	49.66
379.948	-26.11
380.158	143.87
380.369	39.42
380.579	2.56
380.789	104.96
380.999	88.57
381.21	59.9
381.42	84.48
381.63	94.72
381.84	133.63
382.05	33.28
382.261	35.33
382.471	-1.54
382.681	20.99
382.891	129.53
383.101	37.38
383.311	27.14
383.521	-7.68
383.731	107.01
383.941	39.42
384.151	16.9
384.361	23.04
384.571	66.05
384.781	27.14
384.991	125.44
385.201	72.19
385.411	41.47
385.621	25.09
385.831	-15.87
386.041	31.23
386.251	25.09
386.461	166.4
386.671	45.57
386.881	94.72
387.091	94.72
387.301	68.09
387.511	51.71
387.72	39.42
387.93	49.66
388.14	10.75
388.35	80.38
388.56	51.71
388.769	70.14
388.979	133.63
389.189	-30.21
389.399	72.19
389.609	55.81
389.818	72.19
390.028	55.81
390.238	107.01
390.447	43.52
390.657	-19.97
390.867	152.06
391.076	23.04
391.286	139.77
391.496	84.48
391.705	64
391.915	164.35
392.125	121.34
392.334	39.42
392.544	8.7
392.753	98.81
392.963	59.9
393.172	84.48
393.382	35.33
393.591	59.9
393.801	59.9
394.01	150.01
394.22	98.81
394.429	55.81
394.639	51.71
394.848	82.43
395.058	166.4
395.267	23.04
395.477	47.62
395.686	61.95
395.895	199.16
396.105	129.53
396.314	135.68
396.524	49.66
396.733	94.72
396.942	90.62
397.152	150.01
397.361	113.15
397.57	57.86
397.78	92.67
397.989	37.38
398.198	33.28
398.407	10.75
398.617	70.14
398.826	127.49
399.035	100.86
399.244	90.62
399.453	70.14
399.663	135.68
399.872	88.57
400.081	129.53
400.29	113.15
400.499	141.82
400.708	133.63
400.917	82.43
401.127	96.77
401.336	109.05
401.545	141.82
401.754	158.21
401.963	84.48
402.172	133.63
402.381	47.62
402.59	117.25
402.799	104.96
403.008	107.01
403.217	92.67
403.426	125.44
403.635	57.86
403.844	125.44
404.053	98.81
404.262	115.2
404.471	152.06
404.68	125.44
404.888	92.67
405.097	84.48
405.306	92.67
405.515	162.3
405.724	119.29
405.933	109.05
406.142	160.25
406.35	174.59
406.559	147.97
406.768	201.21
406.977	236.03
407.185	141.82
407.394	119.29
407.603	131.58
407.812	150.01
408.02	264.7
408.229	236.03
408.438	64
408.646	184.83
408.855	170.49
409.064	221.69
409.272	164.35
409.481	260.6
409.69	248.32
409.898	199.16
410.107	178.69
410.315	360.95
410.524	289.28
410.733	381.43
410.941	320
411.15	322.04
411.358	387.58
411.567	313.85
411.775	334.33
411.984	363
412.192	363
412.401	354.81
412.609	354.81
412.818	455.16
413.026	354.81
413.234	410.11
413.443	377.34
413.651	346.62
413.86	424.44
414.068	483.83
414.276	510.46
414.485	442.87
414.693	539.13
414.901	600.57
415.11	479.74
415.318	522.74
415.526	543.22
415.734	567.8
415.943	623.09
416.151	561.66
416.359	600.57
416.567	664.05
416.776	766.45
416.984	778.74
417.192	850.42
417.4	727.54
417.608	811.51
417.817	834.04
418.025	936.43
418.233	958.96
418.441	883.19
418.649	956.91
418.857	881.14
419.065	1071.6
419.273	1022.45
419.481	1034.74
419.689	1171.95
419.897	1126.89
420.105	1057.26
420.313	1208.81
420.521	1182.19
420.729	1290.73
420.937	1268.2
421.145	1352.17
421.353	1407.47
421.561	1513.96
421.769	1513.96
421.977	1530.34
422.185	1575.4
422.393	1645.03
422.601	1767.91
422.809	1767.91
423.017	1696.23
423.224	1892.84
423.432	1956.32
423.64	1964.51
423.848	2095.58
424.056	1931.75
424.263	2181.6
424.471	2148.83
424.679	2218.46
424.887	2341.34
425.094	2433.5
425.302	2349.53
425.51	2505.18
425.718	2656.73
425.925	2673.11
426.133	2671.06
426.341	3025.36
426.548	2943.44
426.756	2982.35
426.964	2992.59
427.171	3129.81
427.379	3238.35
427.586	3367.37
427.794	3400.14
428.001	3719.62
428.209	3652.04
428.417	3797.45
428.624	4018.63
428.832	3961.28
429.039	3985.86
429.247	3836.36
429.454	4170.18
429.662	4614.59
429.869	4319.68
430.076	4684.22
430.284	4573.63
430.491	4598.2
430.699	5052.85
430.906	4907.45
431.114	5040.56
431.321	5196.21
431.528	5300.66
431.736	5552.56
431.943	5892.52
432.15	5745.06
432.358	5769.64
432.565	6082.98
432.772	6013.35
432.979	6396.32
433.187	6539.68
433.394	6506.91
433.601	6758.81
433.808	7076.24
434.016	6990.23
434.223	7322
434.43	7610.76
434.637	7451.02
434.844	7971.21
435.052	8204.67
435.259	8053.13
435.466	8106.37
435.673	8210.82
435.88	8571.26
436.087	9161.08
436.294	8952.18
436.501	8878.46
436.708	9179.51
436.915	9402.74
437.122	9832.81
437.329	9838.95
437.537	9984.36
437.743	10352.99
437.95	10287.46
438.157	10738.01
438.364	10877.27
438.571	11034.97
438.778	11184.47
438.985	12181.83
439.192	11571.54
439.399	12022.09
439.606	11854.16
439.813	12329.28
440.02	13199.67
440.227	13060.41
440.433	12640.58
440.64	13224.25
440.847	13232.44
441.054	13488.43
441.261	14315.81
441.467	14131.5
441.674	14324.01
441.881	15171.86
442.088	15028.51
442.294	14874.91
442.501	15270.17
442.708	15507.73
442.914	16042.25
443.121	16845.05
443.328	16374.02
443.534	17408.25
443.741	17201.4
443.948	16681.22
444.154	18034.92
444.361	17768.69
444.568	18288.87
444.774	17975.53
444.981	18333.93
445.187	19130.59
445.394	19585.24
445.6	19517.65
445.807	21166.27
446.013	20365.51
446.22	20701.38
446.426	21676.21
446.633	21485.75
446.839	22134.96
447.046	21403.83
447.252	22558.89
447.459	22640.81
447.665	22403.24
447.871	23492.76
448.078	24668.3
448.284	23171.23
448.491	23845.01
448.697	25139.33
448.903	25335.93
449.11	25403.52
449.316	24889.48
449.522	25561.21
449.728	25962.61
449.935	26318.96
450.141	26409.07
450.347	26775.66
450.553	25897.08
450.76	26349.68
450.966	27101.28
451.172	27156.58
451.378	27420.77
451.584	27050.08
451.791	27758.68
451.997	27603.03
452.203	27787.35
452.409	28080.21
452.615	27824.22
452.821	26884.2
453.027	26667.11
453.233	27684.95
453.44	26816.61
453.646	26892.39
453.852	27185.25
454.058	27615.32
454.264	26703.98
454.47	27342.94
454.676	26595.43
454.882	27621.47
455.088	25075.84
455.294	25481.34
455.5	25729.14
455.705	26216.56
455.911	24995.97
456.117	24465.55
456.323	24285.33
456.529	22929.57
456.735	23789.72
456.941	23079.07
457.147	22636.71
457.352	22114.48
457.558	21999.79
457.764	21815.48
457.97	21647.54
458.176	21002.43
458.381	21084.35
458.587	19949.78
458.793	20336.84
458.999	18786.53
459.204	20222.16
459.41	19542.23
459.616	18444.52
459.821	18290.92
460.027	18415.85
460.233	18112.75
460.438	17021.18
460.644	17293.56
460.85	16652.55
461.055	16269.58
461.261	16193.8
461.466	14928.16
461.672	14479.65
461.878	15730.96
462.083	14270.76
462.289	14149.93
462.494	14057.77
462.7	13476.15
462.905	13140.28
463.111	13463.86
463.316	13599.02
463.522	13412.66
463.727	13363.51
463.932	13365.56
464.138	12970.3
464.343	13162.81
464.549	12878.14
464.754	13166.9
464.959	13099.32
465.165	12982.59
465.37	12558.66
465.575	12273.99
465.781	12673.34
465.986	12736.83
466.191	12542.27
466.397	11972.94
466.602	11432.27
466.807	12003.66
467.012	11841.87
467.218	11991.37
467.423	11772.24
467.628	11735.37
467.833	11999.56
468.038	11897.16
468.244	11569.49
