Data from USB4F104151__87__11-32-01-702.txt Node

Date: Fri Mar 14 11:32:01 EDT 2025
User: louis
Spectrometer: USB4F10415
Trigger mode: 4
Integration Time (sec): 5.000000E-2
Scans to average: 1
Electric dark correction enabled: true
Nonlinearity correction enabled: false
Boxcar width: 0
XAxis mode: Wavelengths
Number of Pixels in Spectrum: 3648
>>>>>Begin Spectral Data<<<<<
178.204	-152.23
178.424	-152.23
178.644	-152.23
178.864	-105.13
179.084	-170.66
179.304	-101.03
179.524	36.18
179.744	-45.74
179.964	5.46
180.184	27.99
180.404	40.28
180.624	-21.16
180.844	3.41
181.064	75.09
181.283	9.56
181.503	-33.45
181.723	3.41
181.943	-29.35
182.163	97.62
182.383	-15.02
182.602	42.32
182.822	118.1
183.042	44.37
183.262	89.43
183.482	19.8
183.701	30.04
183.921	42.32
184.141	25.94
184.361	134.48
184.58	85.33
184.8	64.85
185.02	136.53
185.239	71
185.459	73.04
185.679	101.72
185.898	11.61
186.118	97.62
186.338	116.05
186.557	91.48
186.777	60.76
186.997	60.76
187.216	7.51
187.436	157.01
187.655	73.04
187.875	56.66
188.095	15.7
188.314	52.56
188.534	120.15
188.753	-45.74
188.973	99.67
189.192	9.56
189.412	11.61
189.631	91.48
189.851	-10.92
190.07	83.28
190.29	-41.64
190.509	60.76
190.729	75.09
190.948	64.85
191.168	167.25
191.387	44.37
191.607	23.89
191.826	-8.87
192.045	75.09
192.265	42.32
192.484	36.18
192.704	93.52
192.923	1.37
193.142	120.15
193.362	50.52
193.581	85.33
193.8	116.05
194.02	85.33
194.239	23.89
194.458	27.99
194.678	73.04
194.897	107.86
195.116	109.91
195.335	50.52
195.555	91.48
195.774	7.51
195.993	11.61
196.212	30.04
196.432	89.43
196.651	40.28
196.87	-4.78
197.089	77.14
197.308	30.04
197.528	66.9
197.747	36.18
197.966	-6.83
198.185	173.39
198.404	52.56
198.623	3.41
198.842	89.43
199.062	101.72
199.281	77.14
199.5	5.46
199.719	58.71
199.938	60.76
200.157	62.8
200.376	60.76
200.595	32.08
200.814	52.56
201.033	-66.22
201.252	56.66
201.471	109.91
201.69	109.91
201.909	44.37
202.128	52.56
202.347	126.29
202.566	81.24
202.785	21.85
203.004	52.56
203.223	197.97
203.442	-25.26
203.661	-12.97
203.879	126.29
204.098	116.05
204.317	-8.87
204.536	136.53
204.755	89.43
204.974	-29.35
205.193	44.37
205.411	212.31
205.63	32.08
205.849	44.37
206.068	75.09
206.287	21.85
206.505	79.19
206.724	77.14
206.943	52.56
207.162	56.66
207.381	64.85
207.599	66.9
207.818	75.09
208.037	56.66
208.255	36.18
208.474	60.76
208.693	9.56
208.911	58.71
209.13	79.19
209.349	38.23
209.567	-8.87
209.786	73.04
210.005	114
210.223	-4.78
210.442	-35.5
210.661	44.37
210.879	52.56
211.098	122.2
211.316	50.52
211.535	116.05
211.753	81.24
211.972	56.66
212.191	142.68
212.409	128.34
212.628	7.51
212.846	44.37
213.065	-12.97
213.283	32.08
213.502	38.23
213.72	25.94
213.938	1.37
214.157	-8.87
214.375	75.09
214.594	11.61
214.812	68.95
215.031	44.37
215.249	44.37
215.467	-6.83
215.686	11.61
215.904	126.29
216.122	36.18
216.341	36.18
216.559	109.91
216.778	95.57
216.996	81.24
217.214	73.04
217.432	11.61
217.651	3.41
217.869	107.86
218.087	36.18
218.306	-2.73
218.524	-0.68
218.742	19.8
218.96	19.8
219.179	48.47
219.397	111.96
219.615	134.48
219.833	79.19
220.051	48.47
220.27	44.37
220.488	66.9
220.706	-0.68
220.924	-15.02
221.142	91.48
221.36	-21.16
221.578	-31.4
221.796	71
222.015	101.72
222.233	99.67
222.451	89.43
222.669	1.37
222.887	50.52
223.105	17.75
223.323	32.08
223.541	-4.78
223.759	56.66
223.977	146.77
224.195	111.96
224.413	89.43
224.631	91.48
224.849	134.48
225.067	101.72
225.285	-29.35
225.503	-31.4
225.721	11.61
225.939	36.18
226.157	19.8
226.375	146.77
226.592	60.76
226.81	58.71
227.028	81.24
227.246	114
227.464	54.61
227.682	89.43
227.9	101.72
228.117	9.56
228.335	54.61
228.553	91.48
228.771	32.08
228.989	32.08
229.206	68.95
229.424	111.96
229.642	-4.78
229.86	-37.55
230.077	114
230.295	81.24
230.513	89.43
230.731	103.76
230.948	66.9
231.166	89.43
231.384	5.46
231.601	42.32
231.819	140.63
232.037	38.23
232.254	-43.69
232.472	99.67
232.689	77.14
232.907	101.72
233.125	60.76
233.342	27.99
233.56	9.56
233.777	19.8
233.995	21.85
234.213	36.18
234.43	118.1
234.648	1.37
234.865	44.37
235.083	116.05
235.3	50.52
235.518	17.75
235.735	42.32
235.953	134.48
236.17	11.61
236.388	-29.35
236.605	19.8
236.822	111.96
237.04	15.7
237.257	-15.02
237.475	21.85
237.692	85.33
237.909	44.37
238.127	48.47
238.344	109.91
238.562	73.04
238.779	68.95
238.996	-17.07
239.214	27.99
239.431	56.66
239.648	25.94
239.865	101.72
240.083	109.91
240.3	93.52
240.517	3.41
240.735	3.41
240.952	107.86
241.169	52.56
241.386	58.71
241.603	3.41
241.821	15.7
242.038	75.09
242.255	9.56
242.472	111.96
242.689	93.52
242.907	11.61
243.124	62.8
243.341	40.28
243.558	36.18
243.775	11.61
243.992	66.9
244.209	9.56
244.426	154.96
244.643	75.09
244.86	5.46
245.078	48.47
245.295	1.37
245.512	75.09
245.729	21.85
245.946	48.47
246.163	107.86
246.38	66.9
246.597	11.61
246.814	66.9
247.031	56.66
247.248	89.43
247.464	36.18
247.681	17.75
247.898	-8.87
248.115	56.66
248.332	-31.4
248.549	163.15
248.766	105.81
248.983	62.8
249.2	36.18
249.417	126.29
249.633	64.85
249.85	36.18
250.067	27.99
250.284	25.94
250.501	44.37
250.717	77.14
250.934	-19.11
251.151	54.61
251.368	38.23
251.585	11.61
251.801	11.61
252.018	-8.87
252.235	58.71
252.451	48.47
252.668	62.8
252.885	81.24
253.102	36.18
253.318	42.32
253.535	44.37
253.752	27.99
253.968	44.37
254.185	-29.35
254.401	21.85
254.618	83.28
254.835	15.7
255.051	130.39
255.268	30.04
255.484	68.95
255.701	66.9
255.917	50.52
256.134	27.99
256.351	15.7
256.567	95.57
256.784	73.04
257	-12.97
257.217	126.29
257.433	97.62
257.65	48.47
257.866	109.91
258.082	89.43
258.299	34.13
258.515	89.43
258.732	30.04
258.948	99.67
259.165	77.14
259.381	50.52
259.597	101.72
259.814	-15.02
260.03	44.37
260.246	-8.87
260.463	-37.55
260.679	11.61
260.895	38.23
261.112	58.71
261.328	19.8
261.544	71
261.761	136.53
261.977	1.37
262.193	-23.21
262.409	9.56
262.626	75.09
262.842	58.71
263.058	44.37
263.274	109.91
263.49	66.9
263.707	132.44
263.923	52.56
264.139	5.46
264.355	60.76
264.571	159.06
264.787	60.76
265.004	97.62
265.22	68.95
265.436	46.42
265.652	3.41
265.868	36.18
266.084	27.99
266.3	60.76
266.516	-17.07
266.732	42.32
266.948	68.95
267.164	11.61
267.38	89.43
267.596	30.04
267.812	60.76
268.028	60.76
268.244	-8.87
268.46	50.52
268.676	11.61
268.892	36.18
269.108	-6.83
269.324	11.61
269.54	34.13
269.756	132.44
269.972	52.56
270.188	48.47
270.403	36.18
270.619	27.99
270.835	154.96
271.051	58.71
271.267	3.41
271.483	46.42
271.698	48.47
271.914	56.66
272.13	56.66
272.346	11.61
272.562	73.04
272.777	89.43
272.993	58.71
273.209	21.85
273.425	44.37
273.64	50.52
273.856	109.91
274.072	7.51
274.287	1.37
274.503	19.8
274.719	-12.97
274.934	11.61
275.15	77.14
275.366	87.38
275.581	-72.36
275.797	109.91
276.012	36.18
276.228	11.61
276.444	44.37
276.659	52.56
276.875	-12.97
277.09	109.91
277.306	-82.6
277.521	83.28
277.737	79.19
277.952	64.85
278.168	83.28
278.383	21.85
278.599	85.33
278.814	116.05
279.03	75.09
279.245	56.66
279.461	58.71
279.676	-25.26
279.892	54.61
280.107	15.7
280.322	40.28
280.538	99.67
280.753	44.37
280.969	52.56
281.184	27.99
281.399	136.53
281.615	-4.78
281.83	64.85
282.045	25.94
282.26	-64.17
282.476	48.47
282.691	9.56
282.906	77.14
283.122	44.37
283.337	38.23
283.552	128.34
283.767	-0.68
283.983	89.43
284.198	68.95
284.413	60.76
284.628	97.62
284.843	77.14
285.058	85.33
285.274	17.75
285.489	21.85
285.704	60.76
285.919	50.52
286.134	89.43
286.349	66.9
286.564	48.47
286.779	73.04
286.995	11.61
287.21	-35.5
287.425	64.85
287.64	109.91
287.855	95.57
288.07	25.94
288.285	40.28
288.5	116.05
288.715	157.01
288.93	120.15
289.145	-15.02
289.36	93.52
289.575	21.85
289.79	3.41
290.004	68.95
290.219	142.68
290.434	52.56
290.649	85.33
290.864	-15.02
291.079	40.28
291.294	46.42
291.509	23.89
291.724	66.9
291.938	25.94
292.153	71
292.368	19.8
292.583	-21.16
292.798	23.89
293.012	54.61
293.227	83.28
293.442	36.18
293.657	81.24
293.871	140.63
294.086	21.85
294.301	91.48
294.516	52.56
294.73	97.62
294.945	85.33
295.16	64.85
295.374	73.04
295.589	118.1
295.804	-15.02
296.018	60.76
296.233	114
296.447	30.04
296.662	81.24
296.877	56.66
297.091	111.96
297.306	38.23
297.52	83.28
297.735	25.94
297.949	85.33
298.164	48.47
298.378	56.66
298.593	52.56
298.807	52.56
299.022	23.89
299.236	25.94
299.451	52.56
299.665	11.61
299.88	1.37
300.094	148.82
300.309	52.56
300.523	7.51
300.737	3.41
300.952	-15.02
301.166	15.7
301.381	62.8
301.595	75.09
301.809	68.95
302.024	68.95
302.238	27.99
302.452	109.91
302.667	105.81
302.881	122.2
303.095	38.23
303.309	73.04
303.524	5.46
303.738	64.85
303.952	-25.26
304.166	32.08
304.381	79.19
304.595	52.56
304.809	44.37
305.023	68.95
305.237	-6.83
305.452	52.56
305.666	83.28
305.88	97.62
306.094	60.76
306.308	19.8
306.522	75.09
306.736	54.61
306.95	11.61
307.164	34.13
307.379	21.85
307.593	83.28
307.807	140.63
308.021	105.81
308.235	1.37
308.449	7.51
308.663	99.67
308.877	128.34
309.091	62.8
309.305	-4.78
309.519	-15.02
309.733	130.39
309.947	-17.07
310.161	114
310.374	93.52
310.588	99.67
310.802	3.41
311.016	21.85
311.23	30.04
311.444	85.33
311.658	54.61
311.872	128.34
312.085	175.44
312.299	81.24
312.513	99.67
312.727	148.82
312.941	68.95
313.154	89.43
313.368	89.43
313.582	130.39
313.796	50.52
314.009	-23.21
314.223	101.72
314.437	77.14
314.651	54.61
314.864	23.89
315.078	134.48
315.292	64.85
315.505	52.56
315.719	23.89
315.933	83.28
316.146	-23.21
316.36	9.56
316.573	93.52
316.787	52.56
317.001	60.76
317.214	42.32
317.428	42.32
317.641	66.9
317.855	23.89
318.068	11.61
318.282	-8.87
318.495	101.72
318.709	64.85
318.922	89.43
319.136	77.14
319.349	32.08
319.563	17.75
319.776	58.71
319.99	-0.68
320.203	91.48
320.417	101.72
320.63	66.9
320.843	99.67
321.057	25.94
321.27	83.28
321.483	32.08
321.697	120.15
321.91	93.52
322.124	89.43
322.337	36.18
322.55	48.47
322.763	27.99
322.977	1.37
323.19	-39.59
323.403	32.08
323.617	68.95
323.83	83.28
324.043	3.41
324.256	56.66
324.469	-10.92
324.683	13.65
324.896	68.95
325.109	36.18
325.322	23.89
325.535	118.1
325.748	109.91
325.962	99.67
326.175	9.56
326.388	7.51
326.601	116.05
326.814	38.23
327.027	11.61
327.24	126.29
327.453	40.28
327.666	91.48
327.879	34.13
328.092	36.18
328.305	101.72
328.518	-0.68
328.731	3.41
328.944	38.23
329.157	101.72
329.37	73.04
329.583	101.72
329.796	97.62
330.009	-29.35
330.222	122.2
330.435	73.04
330.648	93.52
330.861	116.05
331.073	34.13
331.286	71
331.499	27.99
331.712	36.18
331.925	107.86
332.138	56.66
332.35	27.99
332.563	-12.97
332.776	62.8
332.989	13.65
333.202	77.14
333.414	7.51
333.627	73.04
333.84	81.24
334.053	44.37
334.265	-4.78
334.478	105.81
334.691	64.85
334.903	87.38
335.116	75.09
335.329	48.47
335.541	60.76
335.754	111.96
335.966	40.28
336.179	7.51
336.392	99.67
336.604	17.75
336.817	66.9
337.029	99.67
337.242	27.99
337.454	40.28
337.667	75.09
337.88	42.32
338.092	42.32
338.305	95.57
338.517	50.52
338.729	142.68
338.942	97.62
339.154	77.14
339.367	52.56
339.579	42.32
339.792	44.37
340.004	60.76
340.217	36.18
340.429	71
340.641	1.37
340.854	79.19
341.066	19.8
341.278	81.24
341.491	99.67
341.703	64.85
341.915	11.61
342.128	136.53
342.34	157.01
342.552	40.28
342.764	83.28
342.977	81.24
343.189	91.48
343.401	71
343.613	-8.87
343.826	60.76
344.038	11.61
344.25	77.14
344.462	93.52
344.674	9.56
344.886	17.75
345.099	60.76
345.311	101.72
345.523	34.13
345.735	21.85
345.947	81.24
346.159	50.52
346.371	97.62
346.583	44.37
346.795	93.52
347.007	71
347.219	107.86
347.431	85.33
347.643	116.05
347.855	85.33
348.067	23.89
348.279	15.7
348.491	64.85
348.703	19.8
348.915	44.37
349.127	58.71
349.339	30.04
349.551	1.37
349.763	15.7
349.975	-15.02
350.187	81.24
350.399	52.56
350.61	52.56
350.822	60.76
351.034	120.15
351.246	27.99
351.458	34.13
351.669	60.76
351.881	175.44
352.093	85.33
352.305	54.61
352.517	105.81
352.728	89.43
352.94	114
353.152	85.33
353.363	25.94
353.575	73.04
353.787	52.56
353.999	165.2
354.21	97.62
354.422	52.56
354.633	58.71
354.845	19.8
355.057	79.19
355.268	73.04
355.48	91.48
355.692	-47.79
355.903	73.04
356.115	23.89
356.326	-4.78
356.538	75.09
356.749	91.48
356.961	95.57
357.172	114
357.384	56.66
357.595	111.96
357.807	7.51
358.018	-12.97
358.23	95.57
358.441	136.53
358.653	48.47
358.864	50.52
359.075	60.76
359.287	56.66
359.498	89.43
359.709	114
359.921	77.14
360.132	38.23
360.344	54.61
360.555	60.76
360.766	58.71
360.977	66.9
361.189	25.94
361.4	75.09
361.611	40.28
361.823	138.58
362.034	36.18
362.245	-8.87
362.456	-17.07
362.667	-23.21
362.879	66.9
363.09	93.52
363.301	81.24
363.512	62.8
363.723	9.56
363.935	107.86
364.146	30.04
364.357	11.61
364.568	58.71
364.779	-10.92
364.99	120.15
365.201	44.37
365.412	140.63
365.623	91.48
365.834	60.76
366.045	-4.78
366.256	68.95
366.467	54.61
366.678	79.19
366.889	105.81
367.1	64.85
367.311	71
367.522	52.56
367.733	103.76
367.944	58.71
368.155	56.66
368.366	56.66
368.577	-29.35
368.788	140.63
368.999	27.99
369.209	68.95
369.42	138.58
369.631	152.92
369.842	62.8
370.053	73.04
370.264	134.48
370.474	52.56
370.685	50.52
370.896	32.08
371.107	142.68
371.317	91.48
371.528	97.62
371.739	89.43
371.95	44.37
372.16	52.56
372.371	40.28
372.582	34.13
372.792	85.33
373.003	13.65
373.214	101.72
373.424	99.67
373.635	79.19
373.846	128.34
374.056	97.62
374.267	81.24
374.477	64.85
374.688	62.8
374.898	161.11
375.109	-8.87
375.319	-6.83
375.53	93.52
375.74	91.48
375.951	85.33
376.161	150.87
376.372	48.47
376.582	68.95
376.793	81.24
377.003	83.28
377.214	27.99
377.424	52.56
377.635	56.66
377.845	126.29
378.055	126.29
378.266	19.8
378.476	99.67
378.686	97.62
378.897	99.67
379.107	109.91
379.317	138.58
379.528	56.66
379.738	93.52
379.948	3.41
380.158	150.87
380.369	89.43
380.579	150.87
380.789	71
380.999	124.24
381.21	68.95
381.42	142.68
381.63	11.61
381.84	146.77
382.05	44.37
382.261	77.14
382.471	109.91
382.681	60.76
382.891	107.86
383.101	71
383.311	40.28
383.521	40.28
383.731	99.67
383.941	79.19
384.151	50.52
384.361	66.9
384.571	101.72
384.781	52.56
384.991	60.76
385.201	103.76
385.411	79.19
385.621	146.77
385.831	77.14
386.041	42.32
386.251	68.95
386.461	157.01
386.671	7.51
386.881	142.68
387.091	93.52
387.301	77.14
387.511	81.24
387.72	101.72
387.93	142.68
388.14	38.23
388.35	85.33
388.56	130.39
388.769	126.29
388.979	71
389.189	25.94
389.399	77.14
389.609	27.99
389.818	167.25
390.028	62.8
390.238	97.62
390.447	122.2
390.657	68.95
390.867	13.65
391.076	34.13
391.286	27.99
391.496	107.86
391.705	91.48
391.915	91.48
392.125	116.05
392.334	81.24
392.544	150.87
392.753	85.33
392.963	15.7
393.172	87.38
393.382	27.99
393.591	128.34
393.801	83.28
394.01	105.81
394.22	146.77
394.429	68.95
394.639	38.23
394.848	99.67
395.058	95.57
395.267	93.52
395.477	101.72
395.686	52.56
395.895	159.06
396.105	195.92
396.314	89.43
396.524	157.01
396.733	132.44
396.942	175.44
397.152	138.58
397.361	154.96
397.57	85.33
397.78	126.29
397.989	165.2
398.198	243.03
398.407	114
398.617	126.29
398.826	81.24
399.035	126.29
399.244	206.16
399.453	118.1
399.663	109.91
399.872	150.87
400.081	91.48
400.29	109.91
400.499	148.82
400.708	193.87
400.917	107.86
401.127	140.63
401.336	103.76
401.545	189.78
401.754	122.2
401.963	216.4
402.172	105.81
402.381	124.24
402.59	126.29
402.799	93.52
403.008	216.4
403.217	195.92
403.426	85.33
403.635	126.29
403.844	101.72
404.053	251.22
404.262	167.25
404.471	240.98
404.68	130.39
404.888	152.92
405.097	103.76
405.306	253.27
405.515	212.31
405.724	181.59
405.933	181.59
406.142	132.44
406.35	173.39
406.559	136.53
406.768	236.88
406.977	173.39
407.185	181.59
407.394	247.12
407.603	187.73
407.812	212.31
408.02	195.92
408.229	222.55
408.438	224.59
408.646	204.11
408.855	185.68
409.064	238.93
409.272	277.84
409.481	261.46
409.69	365.9
409.898	195.92
410.107	347.47
410.315	337.23
410.524	353.62
410.733	255.31
410.941	294.22
411.15	421.2
411.358	404.82
411.567	410.96
411.775	339.28
411.984	427.34
412.192	429.39
412.401	388.43
412.609	523.6
412.818	568.65
413.026	464.21
413.234	499.02
413.443	458.06
413.651	527.69
413.86	605.52
414.068	537.93
414.276	658.76
414.485	539.98
414.693	675.15
414.901	695.63
415.11	664.91
415.318	671.05
415.526	695.63
415.734	695.63
415.943	771.4
416.151	707.91
416.359	720.2
416.567	894.28
416.776	853.32
416.984	869.7
417.192	869.7
417.4	1006.92
417.608	822.6
417.817	998.73
418.025	945.48
418.233	1084.74
418.441	1047.88
418.649	1082.69
418.857	1215.81
419.065	1320.26
419.273	1230.15
419.481	1185.09
419.689	1297.73
419.897	1246.53
420.105	1420.61
420.313	1445.18
420.521	1518.91
420.729	1523.01
420.937	1637.69
421.145	1576.25
421.353	1682.75
421.561	1797.43
421.769	1744.19
421.977	1805.63
422.185	1846.59
422.393	2004.28
422.601	2125.11
422.809	2071.86
423.017	2219.32
423.224	2247.99
423.432	2235.7
423.64	2299.19
423.848	2557.23
424.056	2372.91
424.263	2538.8
424.471	2792.75
424.679	2639.15
424.887	2876.71
425.094	2788.65
425.302	2964.78
425.51	3056.93
425.718	3101.99
425.925	3196.2
426.133	3282.21
426.341	3530.02
426.548	3499.3
426.756	3632.41
426.964	3706.14
427.171	3919.13
427.379	3929.37
427.586	4015.38
427.794	4140.31
428.001	4433.17
428.209	4490.51
428.417	4490.51
428.624	4789.52
428.832	4818.19
429.039	4766.99
429.247	4846.86
429.454	5211.4
429.662	5623.04
429.869	5221.64
430.076	5545.22
430.284	5367.04
430.491	5739.77
430.699	6049.02
430.906	5940.47
431.114	5965.05
431.321	6221.05
431.528	6395.12
431.736	6733.04
431.943	6935.79
432.15	6980.84
432.358	6900.97
432.565	7365.86
432.772	7202.02
432.979	7857.37
433.187	7609.57
433.394	7726.3
433.601	8342.74
433.808	8561.87
434.016	8260.82
434.223	8584.4
434.43	9293
434.637	8996.04
434.844	9698.5
435.052	9751.74
435.259	9819.33
435.466	9776.32
435.673	9716.93
435.88	10435.77
436.087	10955.95
436.294	11015.34
436.501	10714.29
436.708	10939.57
436.915	11254.95
437.122	11783.33
437.329	11789.47
437.537	12141.72
437.743	12414.1
437.95	12174.49
438.157	12864.66
438.364	13307.02
438.571	13173.9
438.778	13171.85
438.985	14517.37
439.192	14111.87
439.399	14437.5
439.606	14197.88
439.813	14849.14
440.02	15869.03
440.227	15346.8
440.433	15262.83
440.64	16125.02
440.847	15821.92
441.054	16100.45
441.261	17173.58
441.467	17069.14
441.674	17247.31
441.881	17724.49
442.088	17917
442.294	17806.41
442.501	18201.66
442.708	18570.3
442.914	19145.78
443.121	20073.51
443.328	19549.23
443.534	21117.97
443.741	20749.34
443.948	19997.73
444.154	21679.11
444.361	21646.35
444.568	21656.59
444.774	21623.82
444.981	21971.97
445.187	22246.4
445.394	23331.83
445.6	23041.01
445.807	25312.21
446.013	24478.69
446.22	24370.15
446.426	25549.78
446.633	25906.12
446.839	26899.39
447.046	25484.24
447.252	26719.17
447.459	27139
447.665	26960.83
447.871	27890.6
448.078	29121.43
448.284	28197.8
448.491	28763.04
448.697	30014.35
448.903	30192.52
449.11	30202.76
449.316	29883.28
449.522	30466.95
449.728	31472.5
449.935	31456.12
450.141	31468.41
450.347	32084.84
450.553	31245.18
450.76	31593.33
450.966	32324.46
451.172	32326.5
451.378	32961.37
451.584	32250.73
451.791	32691.04
451.997	33071.96
452.203	33559.38
452.409	33555.29
452.615	33250.14
452.821	31773.55
453.027	31990.64
453.233	33338.2
453.44	32185.19
453.646	32359.27
453.852	32306.02
454.058	32861.02
454.264	31937.39
454.47	32486.25
454.676	32084.84
454.882	33166.17
455.088	29778.83
455.294	30724.99
455.5	30849.92
455.705	31429.49
455.911	29893.52
456.117	29342.61
456.323	28771.23
456.529	27497.39
456.735	28482.47
456.941	27974.57
457.147	27366.32
457.352	26713.02
457.558	26274.76
457.764	26147.78
457.97	25955.27
458.176	25158.61
458.381	25310.16
458.587	24019.94
458.793	23993.32
458.999	22899.7
459.204	24726.49
459.41	23585.77
459.616	22189.06
459.821	22010.89
460.027	22006.79
460.233	21720.07
460.438	20773.91
460.644	20866.07
460.85	19745.83
461.055	19758.12
461.261	19543.08
461.466	18152.51
461.672	17572.94
461.878	18990.13
462.083	17550.41
462.289	16991.31
462.494	17228.88
462.7	16184.41
462.905	15969.38
463.111	16387.16
463.316	16467.03
463.522	16153.69
463.727	16096.35
463.932	16163.93
464.138	15821.92
464.343	15987.81
464.549	15705.19
464.754	15828.07
464.959	16141.41
465.165	15590.5
465.37	14890.1
465.575	14799.99
465.781	15033.46
465.986	15510.63
466.191	14761.08
466.397	14433.4
466.602	14025.86
466.807	14402.68
467.012	14333.05
467.218	14140.54
467.423	14109.82
