Data from USB4F104151__57__11-30-44-910.txt Node

Date: Fri Mar 14 11:30:44 EDT 2025
User: louis
Spectrometer: USB4F10415
Trigger mode: 4
Integration Time (sec): 5.000000E-2
Scans to average: 1
Electric dark correction enabled: true
Nonlinearity correction enabled: false
Boxcar width: 0
XAxis mode: Wavelengths
Number of Pixels in Spectrum: 3648
>>>>>Begin Spectral Data<<<<<
178.204	-117.42
178.424	-117.42
178.644	-117.42
178.864	-180.9
179.084	-168.62
179.304	-27.31
179.524	-45.74
179.744	-45.74
179.964	-53.93
180.184	7.51
180.404	42.32
180.624	-23.21
180.844	23.89
181.064	-2.73
181.283	-35.5
181.503	34.13
181.723	126.29
181.943	-129.7
182.163	36.18
182.383	-25.26
182.602	44.37
182.822	5.46
183.042	60.76
183.262	60.76
183.482	89.43
183.701	13.65
183.921	-29.35
184.141	-33.45
184.361	42.32
184.58	60.76
184.8	1.37
185.02	-111.27
185.239	36.18
185.459	5.46
185.679	54.61
185.898	-80.55
186.118	81.24
186.338	46.42
186.557	-21.16
186.777	42.32
186.997	38.23
187.216	13.65
187.436	77.14
187.655	-21.16
187.875	83.28
188.095	-0.68
188.314	71
188.534	60.76
188.753	36.18
188.973	3.41
189.192	48.47
189.412	36.18
189.631	-0.68
189.851	48.47
190.07	27.99
190.29	44.37
190.509	-23.21
190.729	17.75
190.948	87.38
191.168	253.27
191.387	60.76
191.607	-15.02
191.826	66.9
192.045	11.61
192.265	34.13
192.484	54.61
192.704	36.18
192.923	-58.03
193.142	79.19
193.362	-31.4
193.581	42.32
193.8	15.7
194.02	77.14
194.239	-66.22
194.458	30.04
194.678	13.65
194.897	9.56
195.116	-45.74
195.335	38.23
195.555	44.37
195.774	11.61
195.993	140.63
196.212	44.37
196.432	93.52
196.651	-51.88
196.87	-17.07
197.089	109.91
197.308	32.08
197.528	68.95
197.747	-6.83
197.966	36.18
198.185	109.91
198.404	34.13
198.623	-37.55
198.842	95.57
199.062	97.62
199.281	36.18
199.5	3.41
199.719	50.52
199.938	-23.21
200.157	50.52
200.376	30.04
200.595	11.61
200.814	23.89
201.033	-4.78
201.252	50.52
201.471	21.84
201.69	17.75
201.909	42.32
202.128	15.7
202.347	-43.69
202.566	68.95
202.785	17.75
203.004	3.41
203.223	124.24
203.442	13.65
203.661	52.56
203.879	23.89
204.098	83.28
204.317	11.61
204.536	101.72
204.755	7.51
204.974	48.47
205.193	-25.26
205.411	142.68
205.63	32.08
205.849	-31.4
206.068	66.9
206.287	71
206.505	9.56
206.724	-0.68
206.943	13.65
207.162	-8.87
207.381	3.41
207.599	-37.55
207.818	99.67
208.037	3.41
208.255	3.41
208.474	-70.31
208.693	42.32
208.911	62.8
209.13	42.32
209.349	52.56
209.567	32.08
209.786	48.47
210.005	60.76
210.223	-0.68
210.442	-21.16
210.661	23.89
210.879	1.37
211.098	-2.73
211.316	-0.68
211.535	77.14
211.753	36.18
211.972	46.42
212.191	60.76
212.409	27.99
212.628	99.67
212.846	27.99
213.065	17.75
213.283	89.43
213.502	-4.78
213.72	1.37
213.938	32.08
214.157	-25.26
214.375	58.71
214.594	17.75
214.812	19.8
215.031	66.9
215.249	-6.83
215.467	-25.26
215.686	40.28
215.904	56.66
216.122	9.56
216.341	50.52
216.559	105.81
216.778	118.1
216.996	36.18
217.214	17.75
217.432	44.37
217.651	32.08
217.869	7.51
218.087	77.14
218.306	13.65
218.524	-19.11
218.742	48.47
218.96	77.14
219.179	58.71
219.397	81.24
219.615	25.94
219.833	58.71
220.051	-15.02
220.27	91.48
220.488	25.94
220.706	-39.59
220.924	15.7
221.142	40.28
221.36	-23.21
221.578	60.76
221.796	36.18
222.015	3.41
222.233	-12.97
222.451	71
222.669	-70.31
222.887	107.86
223.105	-4.78
223.323	-29.35
223.541	38.23
223.759	42.32
223.977	77.14
224.195	118.1
224.413	107.86
224.631	79.19
224.849	-12.97
225.067	173.39
225.285	11.61
225.503	36.18
225.721	38.23
225.939	-31.4
226.157	19.8
226.375	85.33
226.592	58.71
226.81	9.56
227.028	56.66
227.246	73.04
227.464	9.56
227.682	19.8
227.9	46.42
228.117	-62.12
228.335	-8.87
228.553	54.61
228.771	-4.78
228.989	89.43
229.206	27.99
229.424	-74.41
229.642	19.8
229.86	-45.74
230.077	68.95
230.295	-47.79
230.513	50.52
230.731	32.08
230.948	11.61
231.166	75.09
231.384	52.56
231.601	-15.02
231.819	52.56
232.037	-4.78
232.254	7.51
232.472	1.37
232.689	42.32
232.907	44.37
233.125	-19.11
233.342	34.13
233.56	-72.36
233.777	-68.27
233.995	-4.78
234.213	114
234.43	34.13
234.648	66.9
234.865	42.32
235.083	73.04
235.3	-25.26
235.518	66.9
235.735	107.86
235.953	32.08
236.17	9.56
236.388	91.48
236.605	-23.21
236.822	93.52
237.04	48.47
237.257	17.75
237.475	-2.73
237.692	-10.92
237.909	36.18
238.127	-8.87
238.344	-10.92
238.562	17.75
238.779	9.56
238.996	9.56
239.214	25.94
239.431	107.86
239.648	13.65
239.865	77.14
240.083	-10.92
240.3	-19.11
240.517	15.7
240.735	-17.07
240.952	77.14
241.169	36.18
241.386	23.89
241.603	11.61
241.821	27.99
242.038	93.52
242.255	52.56
242.472	23.89
242.689	60.76
242.907	71
243.124	23.89
243.341	85.33
243.558	-29.35
243.775	-29.35
243.992	-53.93
244.209	95.57
244.426	-29.35
244.643	-31.4
244.86	-12.97
245.078	50.52
245.295	44.37
245.512	-0.68
245.729	-39.59
245.946	60.76
246.163	11.61
246.38	52.56
246.597	-21.16
246.814	52.56
247.031	-33.45
247.248	3.41
247.464	-17.07
247.681	15.7
247.898	44.37
248.115	50.52
248.332	-12.97
248.549	30.04
248.766	154.96
248.983	75.09
249.2	40.28
249.417	21.84
249.633	1.37
249.85	25.94
250.067	97.62
250.284	34.13
250.501	52.56
250.717	38.23
250.934	-4.78
251.151	-4.78
251.368	58.71
251.585	32.08
251.801	-12.97
252.018	-2.73
252.235	62.8
252.451	-25.26
252.668	19.8
252.885	25.94
253.102	60.76
253.318	-21.16
253.535	77.14
253.752	9.56
253.968	-8.87
254.185	-0.68
254.401	44.37
254.618	73.04
254.835	32.08
255.051	-2.73
255.268	30.04
255.484	62.8
255.701	11.61
255.917	54.61
256.134	-33.45
256.351	-15.02
256.567	5.46
256.784	64.85
257	1.37
257.217	-27.31
257.433	40.28
257.65	-19.11
257.866	11.61
258.082	66.9
258.299	-80.55
258.515	36.18
258.732	-4.78
258.948	-53.93
259.165	52.56
259.381	-25.26
259.597	60.76
259.814	32.08
260.03	19.8
260.246	23.89
260.463	36.18
260.679	87.38
260.895	-17.07
261.112	66.9
261.328	44.37
261.544	58.71
261.761	44.37
261.977	-45.74
262.193	9.56
262.409	21.84
262.626	15.7
262.842	13.65
263.058	42.32
263.274	27.99
263.49	91.48
263.707	3.41
263.923	81.24
264.139	40.28
264.355	52.56
264.571	44.37
264.787	50.52
265.004	81.24
265.22	-49.83
265.436	-0.68
265.652	-47.79
265.868	58.71
266.084	-12.97
266.3	87.38
266.516	-47.79
266.732	40.28
266.948	-49.83
267.164	23.89
267.38	62.8
267.596	7.51
267.812	17.75
268.028	15.7
268.244	-31.4
268.46	17.75
268.676	3.41
268.892	87.38
269.108	122.2
269.324	11.61
269.54	-19.11
269.756	32.08
269.972	-29.35
270.188	15.7
270.403	15.7
270.619	75.09
270.835	7.51
271.051	44.37
271.267	7.51
271.483	-2.73
271.698	-17.07
271.914	68.95
272.13	66.9
272.346	3.41
272.562	32.08
272.777	17.75
272.993	128.34
273.209	13.65
273.425	83.28
273.64	85.33
273.856	-12.97
274.072	68.95
274.287	-74.41
274.503	19.8
274.719	-37.55
274.934	44.37
275.15	40.28
275.366	-27.31
275.581	-88.75
275.797	23.89
276.012	66.9
276.228	-25.26
276.444	-37.55
276.659	40.28
276.875	-2.73
277.09	68.95
277.306	36.18
277.521	46.42
277.737	34.13
277.952	60.76
278.168	58.71
278.383	-4.78
278.599	60.76
278.814	34.13
279.03	60.76
279.245	93.52
279.461	40.28
279.676	36.18
279.892	-15.02
280.107	3.41
280.322	-21.16
280.538	83.28
280.753	7.51
280.969	19.8
281.184	3.41
281.399	56.66
281.615	-51.88
281.83	36.18
282.045	27.99
282.26	-4.78
282.476	71
282.691	48.47
282.906	46.42
283.122	-21.16
283.337	5.46
283.552	36.18
283.767	32.08
283.983	77.14
284.198	27.99
284.413	56.66
284.628	32.08
284.843	48.47
285.058	60.76
285.274	52.56
285.489	-33.45
285.704	75.09
285.919	-12.97
286.134	11.61
286.349	9.56
286.564	-12.97
286.779	122.2
286.995	44.37
287.21	52.56
287.425	-0.68
287.64	-12.97
287.855	58.71
288.07	48.47
288.285	89.43
288.5	91.48
288.715	56.66
288.93	-25.26
289.145	13.65
289.36	52.56
289.575	1.37
289.79	81.24
290.004	32.08
290.219	87.38
290.434	60.76
290.649	-15.02
290.864	-15.02
291.079	40.28
291.294	77.14
291.509	87.38
291.724	-2.73
291.938	60.76
292.153	68.95
292.368	-45.74
292.583	-53.93
292.798	23.89
293.012	48.47
293.227	27.99
293.442	32.08
293.657	122.2
293.871	68.95
294.086	25.94
294.301	109.91
294.516	40.28
294.73	25.94
294.945	-4.78
295.16	34.13
295.374	97.62
295.589	52.56
295.804	7.51
296.018	27.99
296.233	87.38
296.447	-17.07
296.662	77.14
296.877	126.29
297.091	60.76
297.306	13.65
297.52	42.32
297.735	7.51
297.949	3.41
298.164	66.9
298.378	77.14
298.593	-21.16
298.807	19.8
299.022	-27.31
299.236	75.09
299.451	3.41
299.665	-74.41
299.88	27.99
300.094	50.52
300.309	11.61
300.523	150.87
300.737	-15.02
300.952	9.56
301.166	66.9
301.381	58.71
301.595	46.42
301.809	64.85
302.024	32.08
302.238	11.61
302.452	52.56
302.667	64.85
302.881	85.33
303.095	99.67
303.309	7.51
303.524	42.32
303.738	11.61
303.952	17.75
304.166	36.18
304.381	-53.93
304.595	95.57
304.809	-21.16
305.023	36.18
305.237	64.85
305.452	40.28
305.666	118.1
305.88	77.14
306.094	60.76
306.308	77.14
306.522	44.37
306.736	77.14
306.95	109.91
307.164	-2.73
307.379	-0.68
307.593	114
307.807	81.24
308.021	11.61
308.235	75.09
308.449	25.94
308.663	25.94
308.877	122.2
309.091	-4.78
309.305	97.62
309.519	-17.07
309.733	52.56
309.947	34.13
310.161	-12.97
310.374	101.72
310.588	54.61
310.802	-15.02
311.016	68.95
311.23	36.18
311.444	-17.07
311.658	68.95
311.872	5.46
312.085	85.33
312.299	79.19
312.513	122.2
312.727	-2.73
312.941	36.18
313.154	25.94
313.368	44.37
313.582	-19.11
313.796	11.61
314.009	23.89
314.223	36.18
314.437	75.09
314.651	44.37
314.864	-4.78
315.078	32.08
315.292	-37.55
315.505	-45.74
315.719	-62.12
315.933	-4.78
316.146	93.52
316.36	19.8
316.573	75.09
316.787	93.52
317.001	75.09
317.214	-39.59
317.428	46.42
317.641	32.08
317.855	5.46
318.068	-15.02
318.282	7.51
318.495	27.99
318.709	36.18
318.922	-12.97
319.136	89.43
319.349	27.99
319.563	-96.94
319.776	42.32
319.99	7.51
320.203	87.38
320.417	32.08
320.63	11.61
320.843	77.14
321.057	75.09
321.27	42.32
321.483	-17.07
321.697	97.62
321.91	5.46
322.124	52.56
322.337	-6.83
322.55	25.94
322.763	-45.74
322.977	23.89
323.19	-15.02
323.403	60.76
323.617	93.52
323.83	77.14
324.043	46.42
324.256	11.61
324.469	11.61
324.683	44.37
324.896	93.52
325.109	32.08
325.322	-4.78
325.535	58.71
325.748	34.13
325.962	101.72
326.175	-53.93
326.388	40.28
326.601	-25.26
326.814	-37.55
327.027	71
327.24	97.62
327.453	-17.07
327.666	3.41
327.879	44.37
328.092	97.62
328.305	73.04
328.518	36.18
328.731	36.18
328.944	32.08
329.157	11.61
329.37	38.23
329.583	66.9
329.796	50.52
330.009	-27.31
330.222	77.14
330.435	54.61
330.648	17.75
330.861	17.75
331.073	19.8
331.286	36.18
331.499	11.61
331.712	-4.78
331.925	-8.87
332.138	11.61
332.35	99.67
332.563	77.14
332.776	85.33
332.989	44.37
333.202	58.71
333.414	126.29
333.627	11.61
333.84	-10.92
334.053	-2.73
334.265	3.41
334.478	-23.21
334.691	23.89
334.903	56.66
335.116	-12.97
335.329	27.99
335.541	25.94
335.754	79.19
335.966	-12.97
336.179	-45.74
336.392	27.99
336.604	40.28
336.817	-21.16
337.029	52.56
337.242	3.41
337.454	81.24
337.667	50.52
337.88	81.24
338.092	32.08
338.305	52.56
338.517	25.94
338.729	1.37
338.942	66.9
339.154	-45.74
339.367	-27.31
339.579	62.8
339.792	5.46
340.004	83.28
340.217	34.13
340.429	89.43
340.641	68.95
340.854	36.18
341.066	44.37
341.278	38.23
341.491	73.04
341.703	32.08
341.915	13.65
342.128	73.04
342.34	66.9
342.552	48.47
342.764	91.48
342.977	-35.5
343.189	130.39
343.401	58.71
343.613	-55.98
343.826	25.94
344.038	36.18
344.25	60.76
344.462	36.18
344.674	30.04
344.886	11.61
345.099	50.52
345.311	3.41
345.523	56.66
345.735	25.94
345.947	150.87
346.159	34.13
346.371	3.41
346.583	-29.35
346.795	114
347.007	42.32
347.219	85.33
347.431	-21.16
347.643	150.87
347.855	68.95
348.067	124.24
348.279	7.51
348.491	77.14
348.703	89.43
348.915	60.76
349.127	68.95
349.339	36.18
349.551	11.61
349.763	122.2
349.975	-25.26
350.187	36.18
350.399	30.04
350.61	-58.03
350.822	5.46
351.034	60.76
351.246	25.94
351.458	128.34
351.669	3.41
351.881	36.18
352.093	66.9
352.305	21.84
352.517	7.51
352.728	68.95
352.94	25.94
353.152	66.9
353.363	11.61
353.575	73.04
353.787	54.61
353.999	32.08
354.21	212.31
354.422	36.18
354.633	32.08
354.845	19.8
355.057	-17.07
355.268	75.09
355.48	52.56
355.692	-8.87
355.903	56.66
356.115	11.61
356.326	-2.73
356.538	64.85
356.749	3.41
356.961	58.71
357.172	75.09
357.384	11.61
357.595	157.01
357.807	-47.79
358.018	-23.21
358.23	32.08
358.441	107.86
358.653	52.56
358.864	-17.07
359.075	68.95
359.287	148.82
359.498	27.99
359.709	50.52
359.921	5.46
360.132	40.28
360.344	93.52
360.555	21.84
360.766	48.47
360.977	11.61
361.189	32.08
361.4	54.61
361.611	25.94
361.823	122.2
362.034	42.32
362.245	11.61
362.456	25.94
362.667	58.71
362.879	-4.78
363.09	38.23
363.301	42.32
363.512	44.37
363.723	23.89
363.935	27.99
364.146	-4.78
364.357	32.08
364.568	77.14
364.779	-58.03
364.99	66.9
365.201	-15.02
365.412	-12.97
365.623	-45.74
365.834	27.99
366.045	60.76
366.256	183.63
366.467	36.18
366.678	15.7
366.889	60.76
367.1	17.75
367.311	-10.92
367.522	68.95
367.733	81.24
367.944	85.33
368.155	77.14
368.366	124.24
368.577	91.48
368.788	118.1
368.999	-12.97
369.209	99.67
369.42	118.1
369.631	118.1
369.842	5.46
370.053	42.32
370.264	44.37
370.474	-58.03
370.685	77.14
370.896	50.52
371.107	56.66
371.317	36.18
371.528	58.71
371.739	134.48
371.95	109.91
372.16	64.85
372.371	68.95
372.582	77.14
372.792	60.76
373.003	1.37
373.214	25.94
373.424	157.01
373.635	25.94
373.846	64.85
374.056	103.76
374.267	85.33
374.477	50.52
374.688	34.13
374.898	-15.02
375.109	62.8
375.319	44.37
375.53	52.56
375.74	95.57
375.951	42.32
376.161	68.95
376.372	109.91
376.582	25.94
376.793	-58.03
377.003	-6.83
377.214	34.13
377.424	109.91
377.635	-17.07
377.845	77.14
378.055	81.24
378.266	71
378.476	150.87
378.686	75.09
378.897	15.7
379.107	105.81
379.317	101.72
379.528	7.51
379.738	138.58
379.948	136.53
380.158	1.37
380.369	81.24
380.579	58.71
380.789	91.48
380.999	77.14
381.21	126.29
381.42	68.95
381.63	48.47
381.84	85.33
382.05	64.85
382.261	30.04
382.471	66.9
382.681	36.18
382.891	134.48
383.101	30.04
383.311	99.67
383.521	-8.87
383.731	81.24
383.941	152.91
384.151	-10.92
384.361	83.28
384.571	62.8
384.781	11.61
384.991	99.67
385.201	200.02
385.411	83.28
385.621	105.81
385.831	87.38
386.041	17.75
386.251	116.05
386.461	114
386.671	32.08
386.881	109.91
387.091	-37.55
387.301	118.1
387.511	81.24
387.72	85.33
387.93	91.48
388.14	52.56
388.35	-37.55
388.56	75.09
388.769	89.43
388.979	52.56
389.189	-25.26
389.399	36.18
389.609	99.67
389.818	38.23
390.028	58.71
390.238	85.33
390.447	-12.97
390.657	107.86
390.867	-29.35
391.076	-12.97
391.286	58.71
391.496	91.48
391.705	44.37
391.915	208.21
392.125	140.63
392.334	122.2
392.544	128.34
392.753	101.72
392.963	73.04
393.172	107.86
393.382	105.81
393.591	75.09
393.801	40.28
394.01	161.11
394.22	77.14
394.429	27.99
394.639	23.89
394.848	99.67
395.058	128.34
395.267	34.13
395.477	101.72
395.686	85.33
395.895	157.01
396.105	154.96
396.314	165.2
396.524	85.33
396.733	99.67
396.942	165.2
397.152	132.44
397.361	142.68
397.57	95.57
397.78	85.33
397.989	124.24
398.198	177.49
398.407	114
398.617	148.82
398.826	13.65
399.035	77.14
399.244	85.33
399.453	83.28
399.663	107.86
399.872	208.21
400.081	134.48
400.29	120.15
400.499	68.95
400.708	183.63
400.917	157.01
401.127	126.29
401.336	89.43
401.545	197.97
401.754	142.68
401.963	111.96
402.172	81.24
402.381	140.63
402.59	11.61
402.799	83.28
403.008	148.82
403.217	101.72
403.426	148.82
403.635	99.67
403.844	111.96
404.053	140.63
404.262	111.96
404.471	200.02
404.68	134.48
404.888	124.24
405.097	91.48
405.306	167.25
405.515	138.58
405.724	150.87
405.933	138.58
406.142	167.25
406.35	224.59
406.559	169.3
406.768	138.58
406.977	249.17
407.185	269.65
407.394	195.92
407.603	230.74
407.812	191.83
408.02	197.97
408.229	277.84
408.438	253.27
408.646	263.51
408.855	206.16
409.064	273.75
409.272	249.17
409.481	281.94
409.69	347.47
409.898	322.9
410.107	372.05
410.315	365.9
410.524	372.05
410.733	359.76
410.941	384.34
411.15	335.18
411.358	490.83
411.567	367.95
411.775	443.73
411.984	394.58
412.192	468.3
412.401	437.58
412.609	527.69
412.818	587.08
413.026	550.22
413.234	544.08
413.443	542.03
413.651	597.32
413.86	617.8
414.068	693.58
414.276	720.2
414.485	656.72
414.693	757.07
414.901	765.26
415.11	730.44
415.318	773.45
415.526	765.26
415.734	812.36
415.943	861.51
416.151	941.38
416.359	945.48
416.567	894.28
416.776	953.67
416.984	984.39
417.192	1025.35
417.4	1051.97
417.608	994.63
417.817	1133.89
418.025	1203.52
418.233	1224
418.441	1172.8
418.649	1273.15
418.857	1297.73
419.065	1426.75
419.273	1326.4
419.481	1404.22
419.689	1486.14
419.897	1609.02
420.105	1576.25
420.313	1563.97
420.521	1697.08
420.729	1817.91
420.937	1776.95
421.145	1881.4
421.353	1963.32
421.561	2008.37
421.769	2092.34
421.977	2102.58
422.185	2254.13
422.393	2346.29
422.601	2506.03
422.809	2440.5
423.017	2444.59
423.224	2460.98
423.432	2690.35
423.64	2555.18
423.848	2972.97
424.056	2923.82
424.263	3040.55
424.471	2968.87
424.679	3210.53
424.887	3249.44
425.094	3370.27
425.302	3466.53
425.51	3632.41
425.718	3671.33
425.925	3771.68
426.133	3829.02
426.341	3960.09
426.548	4248.85
426.756	4273.43
426.964	4226.32
427.171	4441.36
427.379	4541.71
427.586	4662.54
427.794	4836.62
428.001	5203.21
428.209	5266.69
428.417	5223.69
428.624	5557.5
428.832	5584.13
429.039	5561.6
429.247	5428.48
429.454	6006.01
429.662	6477.04
429.869	5983.48
430.076	6419.7
430.284	6417.65
430.491	6604.02
430.699	7027.95
430.906	6909.16
431.114	7058.67
431.321	7372
431.528	7451.88
431.736	7963.87
431.943	8293.59
432.15	8094.94
432.358	8039.64
432.565	8469.72
432.772	8346.84
432.979	8938.7
433.187	9135.31
433.394	9186.51
433.601	9884.86
433.808	9761.98
434.016	9772.22
434.223	10271.93
434.43	10757.3
434.637	10515.64
434.844	11414.7
435.052	11365.54
435.259	11324.58
435.466	11558.05
435.673	11840.67
435.88	12049.57
436.087	12715.16
436.294	12645.52
436.501	12430.49
436.708	12876.94
436.915	13155.47
437.122	13554.82
437.329	13716.61
437.537	14005.38
437.743	14546.04
437.95	14443.64
438.157	14957.68
438.364	15826.02
438.571	15246.44
438.778	15645.8
438.985	17095.76
439.192	16237.66
439.399	16841.81
439.606	16655.45
439.813	17482.83
440.02	18463.8
440.227	18484.28
440.433	18240.57
440.64	18668.6
440.847	18568.25
441.054	18895.92
441.261	20245.54
441.467	20302.88
441.674	20341.79
441.881	21134.35
442.088	20798.49
442.294	20741.14
442.501	21308.43
442.708	21847.05
442.914	22871.03
443.121	23915.5
443.328	23139.32
443.534	24366.05
443.741	24011.75
443.948	23735.28
444.154	25289.68
444.361	25404.37
444.568	25162.71
444.774	25261.01
444.981	25773
445.187	26409.92
445.394	27704.24
445.6	26993.59
445.807	29768.59
446.013	28441.51
446.22	29172.63
446.426	30153.61
446.633	30495.62
446.839	31402.87
447.046	30182.28
447.252	31796.08
447.459	32039.79
447.665	32043.88
447.871	33370.97
448.078	34493.26
448.284	33057.63
448.491	34038.61
448.697	35205.95
448.903	35558.2
449.11	36008.75
449.316	35380.03
449.522	36016.94
449.728	36703.01
449.935	36885.28
450.141	36942.63
450.347	37632.79
450.553	36655.91
450.76	37135.13
450.966	38232.85
451.172	37841.68
451.378	38914.82
451.584	37833.49
451.791	39359.23
451.997	38947.59
452.203	39344.89
452.409	39482.11
452.615	39283.45
452.821	37962.51
453.027	37278.49
453.233	39547.64
453.44	37774.1
453.646	38138.64
453.852	38378.25
454.058	38791.94
454.264	37600.02
454.47	38644.49
454.676	37837.59
454.882	38953.73
455.088	35365.69
455.294	36076.33
455.5	36707.11
455.705	37024.54
455.911	35812.15
456.117	34622.28
456.323	34220.88
456.529	32269.16
456.735	33819.47
456.941	32889.7
457.147	32308.07
457.352	31171.45
457.558	30890.88
457.764	31335.29
457.97	30575.49
458.176	30012.3
458.381	29750.16
458.587	28490.66
458.793	28081.06
458.999	27063.22
459.204	28674.98
459.41	28038.06
459.616	26078.15
459.821	26035.14
460.027	25975.75
460.233	25306.07
460.438	24142.82
460.644	24441.82
460.85	23317.49
461.055	22920.18
461.261	22799.35
461.466	21124.11
461.672	20882.45
461.878	22191.11
462.083	20456.48
462.289	20200.48
462.494	20126.75
462.7	19121.2
462.905	18629.69
463.111	19178.54
463.316	19555.37
463.522	18703.42
463.727	19096.63
463.932	19024.95
464.138	18543.67
464.343	18707.51
464.549	18099.27
464.754	18928.69
464.959	18451.52
465.165	18453.56
465.37	17699.91
465.575	17075.28
465.781	17808.45
465.986	18148.42
466.191	17357.9
466.397	17091.66
466.602	16041.06
466.807	17214.54
