Data from USB4F104151__13__11-29-44-967.txt Node

Date: Fri Mar 14 11:29:44 EDT 2025
User: louis
Spectrometer: USB4F10415
Trigger mode: 4
Integration Time (sec): 5.000000E-2
Scans to average: 1
Electric dark correction enabled: true
Nonlinearity correction enabled: false
Boxcar width: 0
XAxis mode: Wavelengths
Number of Pixels in Spectrum: 3648
>>>>>Begin Spectral Data<<<<<
178.204	-71.34
178.424	-71.34
178.644	-71.34
178.864	-116.39
179.084	-57
179.304	4.44
179.524	-13.99
179.744	-22.19
179.964	-52.91
180.184	65.88
180.404	-40.62
180.624	63.83
180.844	33.11
181.064	-110.25
181.283	33.11
181.503	-11.95
181.723	51.54
181.943	-11.95
182.163	123.22
182.383	-36.52
182.602	57.68
182.822	37.2
183.042	10.58
183.262	78.16
183.482	-7.85
183.701	24.92
183.921	49.49
184.141	33.11
184.361	88.4
184.58	-52.91
184.8	92.5
185.02	-30.38
185.239	20.82
185.459	61.78
185.679	26.96
185.898	20.82
186.118	61.78
186.338	82.26
186.557	102.74
186.777	-24.23
186.997	47.44
187.216	61.78
187.436	108.88
187.655	29.01
187.875	51.54
188.095	4.44
188.314	112.98
188.534	59.73
188.753	31.06
188.973	18.77
189.192	160.08
189.412	72.02
189.631	26.96
189.851	20.82
190.07	80.21
190.29	45.4
190.509	98.64
190.729	-3.75
190.948	61.78
191.168	207.19
191.387	86.36
191.607	-22.19
191.826	33.11
192.045	2.39
192.265	37.2
192.484	-28.33
192.704	31.06
192.923	-59.05
193.142	125.27
193.362	29.01
193.581	63.83
193.8	47.44
194.02	102.74
194.239	20.82
194.458	20.82
194.678	22.87
194.897	51.54
195.116	-5.8
195.335	18.77
195.555	41.3
195.774	33.11
195.993	39.25
196.212	55.64
196.432	8.53
196.651	47.44
196.87	63.83
197.089	86.36
197.308	18.77
197.528	20.82
197.747	-89.77
197.966	-3.75
198.185	43.35
198.404	45.4
198.623	14.68
198.842	78.16
199.062	78.16
199.281	96.6
199.5	53.59
199.719	100.69
199.938	10.58
200.157	145.75
200.376	-5.8
200.595	41.3
200.814	12.63
201.033	8.53
201.252	65.88
201.471	45.4
201.69	49.49
201.909	41.3
202.128	8.53
202.347	12.63
202.566	69.97
202.785	-48.81
203.004	35.16
203.223	139.6
203.442	69.97
203.661	-28.33
203.879	-3.75
204.098	57.68
204.317	41.3
204.536	26.96
204.755	92.5
204.974	53.59
205.193	35.16
205.411	110.93
205.63	61.78
205.849	45.4
206.068	-3.75
206.287	69.97
206.505	119.12
206.724	2.39
206.943	29.01
207.162	12.63
207.381	94.55
207.599	43.35
207.818	69.97
208.037	-63.15
208.255	-36.52
208.474	43.35
208.693	29.01
208.911	33.11
209.13	37.2
209.349	69.97
209.567	108.88
209.786	29.01
210.005	45.4
210.223	37.2
210.442	-5.8
210.661	37.2
210.879	69.97
211.098	10.58
211.316	59.73
211.535	63.83
211.753	-18.09
211.972	61.78
212.191	92.5
212.409	-7.85
212.628	53.59
212.846	-9.9
213.065	33.11
213.283	74.07
213.502	43.35
213.72	51.54
213.938	53.59
214.157	-7.85
214.375	29.01
214.594	37.2
214.812	86.36
215.031	78.16
215.249	84.31
215.467	-9.9
215.686	26.96
215.904	80.21
216.122	90.45
216.341	90.45
216.559	49.49
216.778	37.2
216.996	96.6
217.214	14.68
217.432	-5.8
217.651	6.49
217.869	61.78
218.087	41.3
218.306	16.73
218.524	88.4
218.742	20.82
218.96	61.78
219.179	-22.19
219.397	67.92
219.615	72.02
219.833	33.11
220.051	-1.71
220.27	43.35
220.488	10.58
220.706	16.73
220.924	12.63
221.142	43.35
221.36	45.4
221.578	14.68
221.796	55.64
222.015	51.54
222.233	0.34
222.451	37.2
222.669	-26.28
222.887	6.49
223.105	-18.09
223.323	86.36
223.541	59.73
223.759	67.92
223.977	18.77
224.195	94.55
224.413	29.01
224.631	2.39
224.849	78.16
225.067	147.8
225.285	-16.04
225.503	29.01
225.721	-11.95
225.939	-36.52
226.157	78.16
226.375	211.28
226.592	-7.85
226.81	12.63
227.028	86.36
227.246	102.74
227.464	33.11
227.682	-11.95
227.9	86.36
228.117	76.12
228.335	45.4
228.553	47.44
228.771	31.06
228.989	112.98
229.206	92.5
229.424	-5.8
229.642	41.3
229.86	-11.95
230.077	43.35
230.295	45.4
230.513	106.84
230.731	43.35
230.948	69.97
231.166	37.2
231.384	43.35
231.601	74.07
231.819	131.41
232.037	-34.47
232.254	-28.33
232.472	18.77
232.689	43.35
232.907	2.39
233.125	104.79
233.342	49.49
233.56	-9.9
233.777	29.01
233.995	74.07
234.213	84.31
234.43	-24.23
234.648	59.73
234.865	-3.75
235.083	78.16
235.3	4.44
235.518	63.83
235.735	106.84
235.953	65.88
236.17	16.73
236.388	49.49
236.605	53.59
236.822	55.64
237.04	115.03
237.257	10.58
237.475	43.35
237.692	37.2
237.909	123.22
238.127	8.53
238.344	96.6
238.562	51.54
238.779	22.87
238.996	41.3
239.214	12.63
239.431	143.7
239.648	47.44
239.865	29.01
240.083	127.32
240.3	41.3
240.517	-3.75
240.735	123.22
240.952	92.5
241.169	76.12
241.386	94.55
241.603	33.11
241.821	10.58
242.038	88.4
242.255	67.92
242.472	82.26
242.689	39.25
242.907	78.16
243.124	6.49
243.341	78.16
243.558	2.39
243.775	14.68
243.992	67.92
244.209	86.36
244.426	96.6
244.643	29.01
244.86	29.01
245.078	-9.9
245.295	14.68
245.512	4.44
245.729	2.39
245.946	80.21
246.163	29.01
246.38	49.49
246.597	61.78
246.814	-11.95
247.031	-20.14
247.248	98.64
247.464	12.63
247.681	37.2
247.898	33.11
248.115	37.2
248.332	31.06
248.549	108.88
248.766	80.21
248.983	82.26
249.2	94.55
249.417	96.6
249.633	57.68
249.85	8.53
250.067	49.49
250.284	2.39
250.501	119.12
250.717	65.88
250.934	26.96
251.151	14.68
251.368	69.97
251.585	43.35
251.801	59.73
252.018	24.92
252.235	69.97
252.451	37.2
252.668	10.58
252.885	67.92
253.102	72.02
253.318	59.73
253.535	-50.86
253.752	18.77
253.968	-3.75
254.185	43.35
254.401	37.2
254.618	43.35
254.835	-7.85
255.051	69.97
255.268	78.16
255.484	-20.14
255.701	92.5
255.917	90.45
256.134	-3.75
256.351	49.49
256.567	6.49
256.784	-16.04
257	4.44
257.217	125.27
257.433	57.68
257.65	43.35
257.866	65.88
258.082	49.49
258.299	12.63
258.515	74.07
258.732	31.06
258.948	63.83
259.165	-24.23
259.381	33.11
259.597	57.68
259.814	29.01
260.03	86.36
260.246	-24.23
260.463	94.55
260.679	76.12
260.895	69.97
261.112	53.59
261.328	74.07
261.544	-11.95
261.761	61.78
261.977	80.21
262.193	-40.62
262.409	92.5
262.626	90.45
262.842	61.78
263.058	59.73
263.274	-28.33
263.49	43.35
263.707	82.26
263.923	29.01
264.139	20.82
264.355	20.82
264.571	160.08
264.787	53.59
265.004	61.78
265.22	-11.95
265.436	24.92
265.652	117.08
265.868	53.59
266.084	41.3
266.3	59.73
266.516	53.59
266.732	88.4
266.948	29.01
267.164	125.27
267.38	33.11
267.596	69.97
267.812	108.88
268.028	-26.28
268.244	26.96
268.46	-9.9
268.676	53.59
268.892	61.78
269.108	0.34
269.324	39.25
269.54	74.07
269.756	24.92
269.972	33.11
270.188	53.59
270.403	12.63
270.619	72.02
270.835	57.68
271.051	20.82
271.267	33.11
271.483	86.36
271.698	20.82
271.914	29.01
272.13	82.26
272.346	108.88
272.562	12.63
272.777	43.35
272.993	-20.14
273.209	53.59
273.425	98.64
273.64	8.53
273.856	69.97
274.072	86.36
274.287	6.49
274.503	51.54
274.719	100.69
274.934	-3.75
275.15	-54.95
275.366	-36.52
275.581	24.92
275.797	-11.95
276.012	65.88
276.228	63.83
276.444	78.16
276.659	90.45
276.875	20.82
277.09	4.44
277.306	69.97
277.521	63.83
277.737	80.21
277.952	61.78
278.168	29.01
278.383	41.3
278.599	12.63
278.814	69.97
279.03	141.65
279.245	-3.75
279.461	41.3
279.676	14.68
279.892	43.35
280.107	-28.33
280.322	35.16
280.538	2.39
280.753	-22.19
280.969	117.08
281.184	57.68
281.399	86.36
281.615	10.58
281.83	76.12
282.045	37.2
282.26	35.16
282.476	12.63
282.691	67.92
282.906	100.69
283.122	-13.99
283.337	78.16
283.552	-30.38
283.767	-59.05
283.983	90.45
284.198	53.59
284.413	61.78
284.628	24.92
284.843	20.82
285.058	76.12
285.274	88.4
285.489	-28.33
285.704	104.79
285.919	72.02
286.134	86.36
286.349	37.2
286.564	41.3
286.779	69.97
286.995	65.88
287.21	18.77
287.425	61.78
287.64	16.73
287.855	57.68
288.07	67.92
288.285	143.7
288.5	88.4
288.715	51.54
288.93	110.93
289.145	43.35
289.36	78.16
289.575	-20.14
289.79	39.25
290.004	-16.04
290.219	117.08
290.434	26.96
290.649	37.2
290.864	2.39
291.079	82.26
291.294	110.93
291.509	88.4
291.724	10.58
291.938	67.92
292.153	115.03
292.368	92.5
292.583	18.77
292.798	2.39
293.012	2.39
293.227	43.35
293.442	-20.14
293.657	4.44
293.871	104.79
294.086	43.35
294.301	168.27
294.516	-20.14
294.73	-1.71
294.945	33.11
295.16	43.35
295.374	94.55
295.589	41.3
295.804	135.51
296.018	76.12
296.233	65.88
296.447	0.34
296.662	0.34
296.877	86.36
297.091	16.73
297.306	39.25
297.52	57.68
297.735	123.22
297.949	18.77
298.164	59.73
298.378	43.35
298.593	-61.1
298.807	61.78
299.022	117.08
299.236	-5.8
299.451	69.97
299.665	72.02
299.88	59.73
300.094	76.12
300.309	26.96
300.523	59.73
300.737	69.97
300.952	8.53
301.166	51.54
301.381	0.34
301.595	78.16
301.809	74.07
302.024	63.83
302.238	20.82
302.452	51.54
302.667	53.59
302.881	90.45
303.095	45.4
303.309	20.82
303.524	84.31
303.738	-3.75
303.952	61.78
304.166	-5.8
304.381	6.49
304.595	37.2
304.809	67.92
305.023	37.2
305.237	18.77
305.452	37.2
305.666	41.3
305.88	94.55
306.094	55.64
306.308	57.68
306.522	55.64
306.736	29.01
306.95	47.44
307.164	82.26
307.379	31.06
307.593	4.44
307.807	41.3
308.021	90.45
308.235	67.92
308.449	-42.67
308.663	53.59
308.877	135.51
309.091	92.5
309.305	106.84
309.519	-63.15
309.733	61.78
309.947	33.11
310.161	29.01
310.374	8.53
310.588	57.68
310.802	51.54
311.016	59.73
311.23	26.96
311.444	29.01
311.658	65.88
311.872	127.32
312.085	92.5
312.299	160.08
312.513	12.63
312.727	43.35
312.941	14.68
313.154	82.26
313.368	166.23
313.582	61.78
313.796	4.44
314.009	63.83
314.223	143.7
314.437	86.36
314.651	82.26
314.864	45.4
315.078	-38.57
315.292	61.78
315.505	33.11
315.719	153.94
315.933	4.44
316.146	94.55
316.36	20.82
316.573	112.98
316.787	-16.04
317.001	72.02
317.214	20.82
317.428	57.68
317.641	-20.14
317.855	29.01
318.068	20.82
318.282	31.06
318.495	61.78
318.709	72.02
318.922	49.49
319.136	24.92
319.349	45.4
319.563	-16.04
319.776	53.59
319.99	26.96
320.203	102.74
320.417	12.63
320.63	43.35
320.843	153.94
321.057	4.44
321.27	14.68
321.483	45.4
321.697	135.51
321.91	45.4
322.124	86.36
322.337	108.88
322.55	41.3
322.763	125.27
322.977	94.55
323.19	20.82
323.403	115.03
323.617	-7.85
323.83	72.02
324.043	-40.62
324.256	100.69
324.469	16.73
324.683	82.26
324.896	61.78
325.109	22.87
325.322	33.11
325.535	65.88
325.748	65.88
325.962	61.78
326.175	45.4
326.388	61.78
326.601	67.92
326.814	-13.99
327.027	10.58
327.24	94.55
327.453	-28.33
327.666	26.96
327.879	82.26
328.092	51.54
328.305	69.97
328.518	43.35
328.731	-13.99
328.944	29.01
329.157	45.4
329.37	51.54
329.583	155.99
329.796	123.22
330.009	45.4
330.222	4.44
330.435	110.93
330.648	45.4
330.861	12.63
331.073	12.63
331.286	84.31
331.499	43.35
331.712	86.36
331.925	35.16
332.138	84.31
332.35	110.93
332.563	-20.14
332.776	80.21
332.989	49.49
333.202	121.17
333.414	55.64
333.627	45.4
333.84	76.12
334.053	-36.52
334.265	69.97
334.478	12.63
334.691	57.68
334.903	69.97
335.116	-3.75
335.329	16.73
335.541	-13.99
335.754	106.84
335.966	49.49
336.179	76.12
336.392	43.35
336.604	61.78
336.817	57.68
337.029	61.78
337.242	33.11
337.454	-11.95
337.667	-13.99
337.88	100.69
338.092	102.74
338.305	119.12
338.517	61.78
338.729	-20.14
338.942	78.16
339.154	-11.95
339.367	86.36
339.579	45.4
339.792	84.31
340.004	92.5
340.217	125.27
340.429	61.78
340.641	86.36
340.854	49.49
341.066	-20.14
341.278	102.74
341.491	135.51
341.703	39.25
341.915	65.88
342.128	14.68
342.34	26.96
342.552	33.11
342.764	53.59
342.977	37.2
343.189	100.69
343.401	49.49
343.613	37.2
343.826	45.4
344.038	35.16
344.25	61.78
344.462	51.54
344.674	131.41
344.886	16.73
345.099	35.16
345.311	106.84
345.523	41.3
345.735	-16.04
345.947	115.03
346.159	94.55
346.371	51.54
346.583	119.12
346.795	90.45
347.007	51.54
347.219	49.49
347.431	33.11
347.643	92.5
347.855	-9.9
348.067	49.49
348.279	12.63
348.491	61.78
348.703	43.35
348.915	106.84
349.127	-3.75
349.339	39.25
349.551	41.3
349.763	-7.85
349.975	26.96
350.187	78.16
350.399	45.4
350.61	76.12
350.822	67.92
351.034	67.92
351.246	123.22
351.458	82.26
351.669	92.5
351.881	84.31
352.093	65.88
352.305	135.51
352.517	37.2
352.728	29.01
352.94	84.31
353.152	112.98
353.363	45.4
353.575	37.2
353.787	94.55
353.999	24.92
354.21	26.96
354.422	45.4
354.633	12.63
354.845	49.49
355.057	-28.33
355.268	20.82
355.48	29.01
355.692	10.58
355.903	37.2
356.115	6.49
356.326	12.63
356.538	106.84
356.749	69.97
356.961	110.93
357.172	-54.95
357.384	-3.75
357.595	186.71
357.807	82.26
358.018	20.82
358.23	47.44
358.441	135.51
358.653	45.4
358.864	78.16
359.075	129.36
359.287	49.49
359.498	29.01
359.709	84.31
359.921	59.73
360.132	-9.9
360.344	33.11
360.555	61.78
360.766	133.46
360.977	63.83
361.189	115.03
361.4	65.88
361.611	125.27
361.823	78.16
362.034	86.36
362.245	-13.99
362.456	69.97
362.667	61.78
362.879	61.78
363.09	90.45
363.301	100.69
363.512	127.32
363.723	24.92
363.935	108.88
364.146	108.88
364.357	10.58
364.568	45.4
364.779	76.12
364.99	115.03
365.201	2.39
365.412	69.97
365.623	18.77
365.834	119.12
366.045	59.73
366.256	96.6
366.467	2.39
366.678	69.97
366.889	37.2
367.1	86.36
367.311	43.35
367.522	47.44
367.733	86.36
367.944	135.51
368.155	78.16
368.366	86.36
368.577	-11.95
368.788	74.07
368.999	-7.85
369.209	53.59
369.42	100.69
369.631	149.84
369.842	104.79
370.053	41.3
370.264	53.59
370.474	100.69
370.685	16.73
370.896	29.01
371.107	69.97
371.317	49.49
371.528	92.5
371.739	59.73
371.95	45.4
372.16	65.88
372.371	24.92
372.582	98.64
372.792	31.06
373.003	63.83
373.214	102.74
373.424	102.74
373.635	127.32
373.846	82.26
374.056	192.85
374.267	110.93
374.477	37.2
374.688	29.01
374.898	94.55
375.109	37.2
375.319	57.68
375.53	92.5
375.74	102.74
375.951	96.6
376.161	43.35
376.372	78.16
376.582	-24.23
376.793	69.97
377.003	29.01
377.214	74.07
377.424	131.41
377.635	84.31
377.845	94.55
378.055	151.89
378.266	29.01
378.476	76.12
378.686	51.54
378.897	-3.75
379.107	100.69
379.317	26.96
379.528	49.49
379.738	82.26
379.948	106.84
380.158	67.92
380.369	78.16
380.579	53.59
380.789	69.97
380.999	49.49
381.21	135.51
381.42	90.45
381.63	-16.04
381.84	88.4
382.05	117.08
382.261	100.69
382.471	131.41
382.681	78.16
382.891	67.92
383.101	16.73
383.311	6.49
383.521	51.54
383.731	61.78
383.941	127.32
384.151	86.36
384.361	82.26
384.571	80.21
384.781	69.97
384.991	123.22
385.201	135.51
385.411	49.49
385.621	59.73
385.831	84.31
386.041	59.73
386.251	20.82
386.461	39.25
386.671	12.63
386.881	90.45
387.091	61.78
387.301	94.55
387.511	100.69
387.72	112.98
387.93	117.08
388.14	24.92
388.35	102.74
388.56	20.82
388.769	59.73
388.979	90.45
389.189	29.01
389.399	80.21
389.609	151.89
389.818	92.5
390.028	131.41
390.238	127.32
390.447	35.16
390.657	61.78
390.867	110.93
391.076	18.77
391.286	76.12
391.496	35.16
391.705	108.88
391.915	92.5
392.125	72.02
392.334	76.12
392.544	168.27
392.753	155.99
392.963	69.97
393.172	45.4
393.382	55.64
393.591	76.12
393.801	127.32
394.01	61.78
394.22	69.97
394.429	61.78
394.639	149.84
394.848	112.98
395.058	78.16
395.267	78.16
395.477	49.49
395.686	160.08
395.895	168.27
396.105	180.56
396.314	10.58
396.524	57.68
396.733	45.4
396.942	196.95
397.152	78.16
397.361	158.03
397.57	125.27
397.78	100.69
397.989	123.22
398.198	151.89
398.407	100.69
398.617	143.7
398.826	57.68
399.035	155.99
399.244	143.7
399.453	133.46
399.663	74.07
399.872	84.31
400.081	65.88
400.29	164.18
400.499	86.36
400.708	164.18
400.917	143.7
401.127	110.93
401.336	143.7
401.545	229.71
401.754	201.04
401.963	166.23
402.172	158.03
402.381	145.75
402.59	160.08
402.799	162.13
403.008	127.32
403.217	106.84
403.426	123.22
403.635	160.08
403.844	108.88
404.053	123.22
404.262	198.99
404.471	174.42
404.68	123.22
404.888	172.37
405.097	166.23
405.306	174.42
405.515	225.62
405.724	119.12
405.933	207.19
406.142	217.43
406.35	141.65
406.559	201.04
406.768	209.23
406.977	305.49
407.185	170.32
407.394	264.53
407.603	209.23
407.812	268.63
408.02	287.06
408.229	291.15
408.438	168.27
408.646	86.36
408.855	307.54
409.064	242
409.272	319.82
409.481	344.4
409.69	307.54
409.898	278.87
410.107	307.54
410.315	354.64
410.524	356.69
410.733	352.59
410.941	379.22
411.15	405.84
411.358	414.03
411.567	526.67
411.775	457.04
411.984	446.8
412.192	467.28
412.401	526.67
412.609	504.14
412.818	567.63
413.026	655.69
413.234	553.29
413.443	559.44
413.651	631.12
413.86	575.82
414.068	635.21
414.276	753.99
414.485	526.67
414.693	729.42
414.901	815.43
415.11	815.43
415.318	821.58
415.526	860.49
415.734	807.24
415.943	833.86
416.151	856.39
416.359	966.98
416.567	1048.9
416.776	979.27
416.984	1118.53
417.192	1091.91
417.4	1050.95
417.608	1102.15
417.817	1208.64
418.025	1143.11
418.233	1290.56
418.441	1335.62
418.649	1315.14
418.857	1352
419.065	1493.31
419.273	1343.81
419.481	1495.36
419.689	1558.85
419.897	1618.24
420.105	1567.04
420.313	1716.54
420.521	1732.92
420.729	1782.07
420.937	1798.46
421.145	1882.42
421.353	2085.17
421.561	2130.23
421.769	2222.39
421.977	2371.89
422.185	2253.11
422.393	2386.22
422.601	2582.83
422.809	2380.08
423.017	2584.88
423.224	2591.02
423.432	2697.52
423.64	2763.05
423.848	3033.38
424.056	2861.35
424.263	3205.41
424.471	3219.75
424.679	3232.04
424.887	3420.45
425.094	3488.03
425.302	3518.75
425.51	3600.67
425.718	3774.75
425.925	3739.93
426.133	3936.54
426.341	4264.21
426.548	4342.04
426.756	4387.09
426.964	4370.71
427.171	4638.99
427.379	4722.96
427.586	4862.22
427.794	4956.43
428.001	5247.24
428.209	5402.88
428.417	5263.62
428.624	5820.67
428.832	5843.2
429.039	5609.73
429.247	5708.03
429.454	6328.56
429.662	6564.08
429.869	6281.46
430.076	6756.59
430.284	6641.9
430.491	6682.86
430.699	7049.45
430.906	7192.81
431.114	7385.32
431.321	7504.1
431.528	7712.99
431.736	8274.14
431.943	8546.51
432.15	8411.35
432.358	8390.87
432.565	8947.92
432.772	8763.6
432.979	9171.15
433.187	9349.32
433.394	9488.58
433.601	10080.44
433.808	10035.39
434.016	10260.66
434.223	10258.62
434.43	11370.66
434.637	10973.36
434.844	11798.69
435.052	12062.88
435.259	11698.34
435.466	12011.68
435.673	11684
435.88	12474.52
436.087	13113.49
436.294	13193.36
436.501	13160.59
436.708	13031.57
436.915	13777.03
437.122	14278.78
437.329	14280.83
437.537	14770.29
437.743	14954.61
437.95	14942.32
438.157	15827.04
438.364	16011.36
438.571	16025.7
438.778	16242.78
438.985	17735.75
439.192	17342.54
439.399	17612.87
439.606	17109.07
439.813	18114.62
440.02	19327.02
440.227	18968.63
440.433	18651.19
440.64	19304.49
440.847	19222.58
441.054	19800.1
441.261	20924.44
441.467	20727.83
441.674	21139.47
441.881	22128.64
442.088	21907.46
442.294	21749.77
442.501	22456.32
442.708	22636.54
442.914	23578.61
443.121	24788.96
443.328	23875.56
443.534	25653.2
443.741	24838.11
443.948	24555.49
444.154	26476.48
444.361	26224.58
444.568	26347.46
444.774	26556.35
444.981	26869.69
445.187	27180.98
445.394	28340.13
445.6	28516.26
445.807	31029.12
446.013	29742.99
446.22	30404.49
446.426	31768.43
446.633	31838.06
446.839	32743.27
447.046	31401.85
447.252	33169.24
447.459	33195.87
447.665	33187.67
447.871	33931.09
448.078	36144.94
448.284	34035.53
448.491	35264.32
448.697	36626.21
448.903	36853.54
449.11	37216.03
449.316	36495.14
449.522	37662.49
449.728	38547.21
449.935	38674.18
450.141	38489.87
450.347	39089.92
450.553	38303.5
450.76	38596.36
450.966	39687.93
451.172	38897.41
451.378	40206.06
451.584	39307.01
451.791	40330.99
451.997	40392.43
452.203	40621.8
452.409	41109.22
452.615	40333.04
452.821	38975.23
453.027	38901.51
453.233	40576.75
453.44	38876.93
453.646	39745.27
453.852	39696.12
454.058	40345.33
454.264	38762.25
454.47	39515.9
454.676	39112.45
454.882	40337.13
455.088	36562.73
455.294	37187.36
455.5	37388.06
455.705	37723.93
455.911	36378.41
456.117	35788.6
456.323	35385.15
456.529	33664.85
456.735	34973.5
456.941	33558.36
457.147	33429.34
457.352	32153.45
457.558	31614.83
457.764	32067.44
457.97	31659.89
458.176	30664.58
458.381	30508.93
458.587	29104.03
458.793	29218.71
458.999	27856.81
459.204	29380.5
459.41	28579.75
459.616	26658.75
459.821	26611.65
460.027	26675.13
460.233	26419.14
460.438	25298.9
460.644	25249.75
460.85	24020.97
461.055	23453.68
461.261	23951.34
461.466	21620.75
461.672	21155.86
461.878	22812.67
462.083	21213.2
462.289	20770.84
462.494	20531.23
462.7	19914.79
462.905	19372.08
463.111	19922.98
463.316	20111.39
463.522	19548.2
463.727	19286.06
463.932	19484.72
464.138	19200.05
464.343	19251.25
464.549	18839.61
464.754	19275.82
464.959	19114.03
465.165	19025.97
465.37	18157.63
465.575	17846.34
465.781	18368.57
465.986	18589.75
466.191	17825.86
466.397	17446.99
466.602	16799.83
466.807	17389.64
467.012	17297.49
