Data from USB4F104151__50__11-30-31-762.txt Node

Date: Fri Mar 14 11:30:31 EDT 2025
User: louis
Spectrometer: USB4F10415
Trigger mode: 4
Integration Time (sec): 5.000000E-2
Scans to average: 1
Electric dark correction enabled: true
Nonlinearity correction enabled: false
Boxcar width: 0
XAxis mode: Wavelengths
Number of Pixels in Spectrum: 3648
>>>>>Begin Spectral Data<<<<<
178.204	-85.16
178.424	-85.16
178.644	-85.16
178.864	-103.59
179.084	-165.03
179.304	13.14
179.524	-7.34
179.744	45.91
179.964	17.24
180.184	-11.43
180.404	-21.67
180.624	-3.24
180.844	41.81
181.064	13.14
181.283	-23.72
181.503	-105.64
181.723	41.81
181.943	86.87
182.163	80.72
182.383	-19.63
182.602	62.29
182.822	78.68
183.042	-3.24
183.262	-11.43
183.482	-19.63
183.701	93.01
183.921	-29.87
184.141	17.24
184.361	35.67
184.58	76.63
184.8	31.57
185.02	37.72
185.239	84.82
185.459	29.52
185.679	58.2
185.898	2.9
186.118	43.86
186.338	50
186.557	43.86
186.777	11.09
186.997	43.86
187.216	74.58
187.436	45.91
187.655	29.52
187.875	45.91
188.095	21.33
188.314	41.81
188.534	103.25
188.753	-29.87
188.973	90.96
189.192	35.67
189.412	41.81
189.631	17.24
189.851	4.95
190.07	97.11
190.29	-11.43
190.509	29.52
190.729	60.24
190.948	68.44
191.168	142.16
191.387	39.76
191.607	41.81
191.826	41.81
192.045	29.52
192.265	29.52
192.484	66.39
192.704	52.05
192.923	-21.67
193.142	37.72
193.362	107.35
193.581	21.33
193.8	-81.07
194.02	123.73
194.239	21.33
194.458	50
194.678	-11.43
194.897	54.1
195.116	4.95
195.335	45.91
195.555	37.72
195.774	-31.91
195.993	35.67
196.212	27.48
196.432	41.81
196.651	29.52
196.87	72.53
197.089	129.88
197.308	109.4
197.528	47.96
197.747	-36.01
197.966	72.53
198.185	86.87
198.404	45.91
198.623	74.58
198.842	66.39
199.062	140.12
199.281	27.48
199.5	80.72
199.719	35.67
199.938	62.29
200.157	62.29
200.376	43.86
200.595	70.48
200.814	52.05
201.033	41.81
201.252	43.86
201.471	54.1
201.69	62.29
201.909	70.48
202.128	41.81
202.347	37.72
202.566	52.05
202.785	27.48
203.004	13.14
203.223	168.79
203.442	29.52
203.661	82.77
203.879	56.15
204.098	56.15
204.317	-29.87
204.536	58.2
204.755	39.76
204.974	70.48
205.193	93.01
205.411	117.59
205.63	19.29
205.849	25.43
206.068	37.72
206.287	15.19
206.505	-17.58
206.724	62.29
206.943	-3.24
207.162	-25.77
207.381	74.58
207.599	93.01
207.818	54.1
208.037	-46.25
208.255	-19.63
208.474	-46.25
208.693	37.72
208.911	35.67
209.13	33.62
209.349	93.01
209.567	62.29
209.786	-5.29
210.005	52.05
210.223	7
210.442	-5.29
210.661	54.1
210.879	41.81
211.098	-11.43
211.316	80.72
211.535	82.77
211.753	97.11
211.972	-3.24
212.191	62.29
212.409	27.48
212.628	-40.11
212.846	4.95
213.065	86.87
213.283	72.53
213.502	13.14
213.72	78.68
213.938	21.33
214.157	4.95
214.375	103.25
214.594	21.33
214.812	54.1
215.031	72.53
215.249	41.81
215.467	41.81
215.686	-5.29
215.904	90.96
216.122	21.33
216.341	50
216.559	131.92
216.778	13.14
216.996	64.34
217.214	129.88
217.432	21.33
217.651	21.33
217.869	58.2
218.087	60.24
218.306	39.76
218.524	99.16
218.742	-3.24
218.96	35.67
219.179	-21.67
219.397	-29.87
219.615	117.59
219.833	50
220.051	-38.06
220.27	93.01
220.488	13.14
220.706	-3.24
220.924	4.95
221.142	70.48
221.36	25.43
221.578	27.48
221.796	31.57
222.015	19.29
222.233	-23.72
222.451	66.39
222.669	-15.53
222.887	107.35
223.105	-1.19
223.323	37.72
223.541	13.14
223.759	41.81
223.977	4.95
224.195	97.11
224.413	70.48
224.631	52.05
224.849	-15.53
225.067	160.59
225.285	25.43
225.503	9.05
225.721	39.76
225.939	52.05
226.157	-23.72
226.375	133.97
226.592	60.24
226.81	78.68
227.028	66.39
227.246	78.68
227.464	-1.19
227.682	-31.91
227.9	7
228.117	62.29
228.335	74.58
228.553	82.77
228.771	27.48
228.989	70.48
229.206	43.86
229.424	-11.43
229.642	25.43
229.86	17.24
230.077	-5.29
230.295	64.34
230.513	21.33
230.731	47.96
230.948	142.16
231.166	74.58
231.384	-40.11
231.601	-7.34
231.819	123.73
232.037	-60.59
232.254	-23.72
232.472	127.83
232.689	-11.43
232.907	74.58
233.125	-21.67
233.342	76.63
233.56	-27.82
233.777	-27.82
233.995	25.43
234.213	70.48
234.43	95.06
234.648	19.29
234.865	50
235.083	45.91
235.3	0.85
235.518	27.48
235.735	37.72
235.953	-33.96
236.17	15.19
236.388	37.72
236.605	37.72
236.822	62.29
237.04	140.12
237.257	62.29
237.475	15.19
237.692	-5.29
237.909	103.25
238.127	27.48
238.344	50
238.562	27.48
238.779	-44.2
238.996	-5.29
239.214	25.43
239.431	82.77
239.648	-3.24
239.865	29.52
240.083	103.25
240.3	-9.39
240.517	19.29
240.735	70.48
240.952	115.54
241.169	123.73
241.386	-5.29
241.603	-27.82
241.821	-5.29
242.038	117.59
242.255	35.67
242.472	39.76
242.689	15.19
242.907	117.59
243.124	-60.59
243.341	-40.11
243.558	21.33
243.775	107.35
243.992	-21.67
244.209	9.05
244.426	117.59
244.643	7
244.86	25.43
245.078	33.62
245.295	13.14
245.512	70.48
245.729	45.91
245.946	29.52
246.163	35.67
246.38	68.44
246.597	62.29
246.814	23.38
247.031	37.72
247.248	0.85
247.464	21.33
247.681	64.34
247.898	103.25
248.115	172.88
248.332	13.14
248.549	76.63
248.766	50
248.983	41.81
249.2	56.15
249.417	29.52
249.633	-11.43
249.85	-21.67
250.067	31.57
250.284	39.76
250.501	15.19
250.717	152.4
250.934	47.96
251.151	4.95
251.368	62.29
251.585	41.81
251.801	93.01
252.018	21.33
252.235	95.06
252.451	52.05
252.668	13.14
252.885	27.48
253.102	45.91
253.318	103.25
253.535	4.95
253.752	7
253.968	13.14
254.185	-36.01
254.401	62.29
254.618	62.29
254.835	25.43
255.051	35.67
255.268	76.63
255.484	19.29
255.701	-44.2
255.917	103.25
256.134	13.14
256.351	50
256.567	0.85
256.784	86.87
257	4.95
257.217	29.52
257.433	39.76
257.65	27.48
257.866	47.96
258.082	19.29
258.299	35.67
258.515	27.48
258.732	-11.43
258.948	23.38
259.165	11.09
259.381	-70.83
259.597	41.81
259.814	2.9
260.03	54.1
260.246	41.81
260.463	86.87
260.679	43.86
260.895	70.48
261.112	70.48
261.328	-23.72
261.544	82.77
261.761	95.06
261.977	-7.34
262.193	-44.2
262.409	17.24
262.626	84.82
262.842	31.57
263.058	-19.63
263.274	62.29
263.49	50
263.707	29.52
263.923	86.87
264.139	-23.72
264.355	103.25
264.571	37.72
264.787	70.48
265.004	62.29
265.22	86.87
265.436	19.29
265.652	45.91
265.868	-3.24
266.084	-54.44
266.3	-3.24
266.516	133.97
266.732	15.19
266.948	-33.96
267.164	86.87
267.38	68.44
267.596	37.72
267.812	119.64
268.028	29.52
268.244	43.86
268.46	-23.72
268.676	82.77
268.892	4.95
269.108	11.09
269.324	-19.63
269.54	2.9
269.756	109.4
269.972	29.52
270.188	41.81
270.403	4.95
270.619	74.58
270.835	-11.43
271.051	25.43
271.267	-23.72
271.483	68.44
271.698	62.29
271.914	62.29
272.13	45.91
272.346	27.48
272.562	70.48
272.777	-36.01
272.993	25.43
273.209	74.58
273.425	111.44
273.64	19.29
273.856	29.52
274.072	25.43
274.287	-109.74
274.503	-36.01
274.719	95.06
274.934	90.96
275.15	43.86
275.366	23.38
275.581	21.33
275.797	11.09
276.012	95.06
276.228	82.77
276.444	45.91
276.659	66.39
276.875	-52.39
277.09	21.33
277.306	56.15
277.521	86.87
277.737	-11.43
277.952	70.48
278.168	29.52
278.383	62.29
278.599	-36.01
278.814	29.52
279.03	54.1
279.245	119.64
279.461	54.1
279.676	62.29
279.892	82.77
280.107	9.05
280.322	0.85
280.538	-7.34
280.753	11.09
280.969	41.81
281.184	37.72
281.399	62.29
281.615	50
281.83	37.72
282.045	-7.34
282.26	56.15
282.476	-15.53
282.691	41.81
282.906	101.2
283.122	29.52
283.337	93.01
283.552	103.25
283.767	-52.39
283.983	129.88
284.198	0.85
284.413	52.05
284.628	-79.02
284.843	35.67
285.058	125.78
285.274	82.77
285.489	15.19
285.704	54.1
285.919	29.52
286.134	60.24
286.349	35.67
286.564	31.57
286.779	88.92
286.995	17.24
287.21	39.76
287.425	105.3
287.64	-15.53
287.855	80.72
288.07	-31.91
288.285	127.83
288.5	70.48
288.715	84.82
288.93	43.86
289.145	25.43
289.36	37.72
289.575	29.52
289.79	78.68
290.004	52.05
290.219	56.15
290.434	60.24
290.649	25.43
290.864	-27.82
291.079	29.52
291.294	52.05
291.509	35.67
291.724	82.77
291.938	23.38
292.153	95.06
292.368	72.53
292.583	4.95
292.798	103.25
293.012	95.06
293.227	70.48
293.442	41.81
293.657	-9.39
293.871	103.25
294.086	125.78
294.301	131.92
294.516	29.52
294.73	111.44
294.945	-11.43
295.16	33.62
295.374	-11.43
295.589	43.86
295.804	39.76
296.018	31.57
296.233	109.4
296.447	37.72
296.662	7
296.877	109.4
297.091	21.33
297.306	-3.24
297.52	-72.87
297.735	-13.48
297.949	37.72
298.164	125.78
298.378	-3.24
298.593	54.1
298.807	19.29
299.022	17.24
299.236	37.72
299.451	52.05
299.665	-33.96
299.88	70.48
300.094	62.29
300.309	93.01
300.523	70.48
300.737	-11.43
300.952	58.2
301.166	-13.48
301.381	41.81
301.595	-7.34
301.809	11.09
302.024	45.91
302.238	105.3
302.452	80.72
302.667	68.44
302.881	78.68
303.095	29.52
303.309	62.29
303.524	17.24
303.738	35.67
303.952	45.91
304.166	29.52
304.381	4.95
304.595	101.2
304.809	-44.2
305.023	43.86
305.237	-19.63
305.452	13.14
305.666	25.43
305.88	41.81
306.094	70.48
306.308	-3.24
306.522	33.62
306.736	84.82
306.95	29.52
307.164	7
307.379	72.53
307.593	136.02
307.807	80.72
308.021	50
308.235	111.44
308.449	-25.77
308.663	11.09
308.877	93.01
309.091	21.33
309.305	74.58
309.519	-44.2
309.733	52.05
309.947	-40.11
310.161	105.3
310.374	13.14
310.588	68.44
310.802	35.67
311.016	13.14
311.23	52.05
311.444	68.44
311.658	70.48
311.872	52.05
312.085	62.29
312.299	95.06
312.513	52.05
312.727	2.9
312.941	68.44
313.154	-1.19
313.368	70.48
313.582	47.96
313.796	58.2
314.009	-5.29
314.223	58.2
314.437	15.19
314.651	66.39
314.864	4.95
315.078	68.44
315.292	-33.96
315.505	25.43
315.719	11.09
315.933	33.62
316.146	19.29
316.36	21.33
316.573	99.16
316.787	82.77
317.001	37.72
317.214	13.14
317.428	78.68
317.641	-19.63
317.855	78.68
318.068	74.58
318.282	-3.24
318.495	76.63
318.709	76.63
318.922	17.24
319.136	80.72
319.349	29.52
319.563	78.68
319.776	19.29
319.99	-1.19
320.203	97.11
320.417	56.15
320.63	62.29
320.843	140.12
321.057	21.33
321.27	45.91
321.483	84.82
321.697	95.06
321.91	-5.29
322.124	64.34
322.337	39.76
322.55	70.48
322.763	86.87
322.977	45.91
323.19	13.14
323.403	66.39
323.617	50
323.83	117.59
324.043	0.85
324.256	58.2
324.469	33.62
324.683	19.29
324.896	-11.43
325.109	84.82
325.322	-3.24
325.535	17.24
325.748	66.39
325.962	111.44
326.175	37.72
326.388	19.29
326.601	74.58
326.814	41.81
327.027	60.24
327.24	54.1
327.453	4.95
327.666	-13.48
327.879	68.44
328.092	90.96
328.305	-27.82
328.518	37.72
328.731	72.53
328.944	41.81
329.157	60.24
329.37	66.39
329.583	86.87
329.796	82.77
330.009	-36.01
330.222	88.92
330.435	103.25
330.648	-15.53
330.861	90.96
331.073	109.4
331.286	76.63
331.499	50
331.712	31.57
331.925	29.52
332.138	62.29
332.35	23.38
332.563	25.43
332.776	80.72
332.989	-13.48
333.202	0.85
333.414	29.52
333.627	0.85
333.84	-11.43
334.053	117.59
334.265	17.24
334.478	17.24
334.691	103.25
334.903	2.9
335.116	-1.19
335.329	13.14
335.541	-7.34
335.754	86.87
335.966	2.9
336.179	86.87
336.392	2.9
336.604	-3.24
336.817	86.87
337.029	50
337.242	37.72
337.454	86.87
337.667	29.52
337.88	39.76
338.092	76.63
338.305	68.44
338.517	19.29
338.729	37.72
338.942	80.72
339.154	-23.72
339.367	13.14
339.579	58.2
339.792	-9.39
340.004	86.87
340.217	-33.96
340.429	127.83
340.641	115.54
340.854	11.09
341.066	4.95
341.278	97.11
341.491	136.02
341.703	54.1
341.915	15.19
342.128	109.4
342.34	99.16
342.552	62.29
342.764	70.48
342.977	29.52
343.189	58.2
343.401	70.48
343.613	41.81
343.826	11.09
344.038	54.1
344.25	31.57
344.462	-27.82
344.674	27.48
344.886	-23.72
345.099	-29.87
345.311	54.1
345.523	47.96
345.735	-5.29
345.947	72.53
346.159	54.1
346.371	68.44
346.583	21.33
346.795	90.96
347.007	29.52
347.219	56.15
347.431	56.15
347.643	19.29
347.855	35.67
348.067	47.96
348.279	45.91
348.491	103.25
348.703	2.9
348.915	-29.87
349.127	-5.29
349.339	52.05
349.551	2.9
349.763	68.44
349.975	11.09
350.187	95.06
350.399	66.39
350.61	25.43
350.822	35.67
351.034	25.43
351.246	64.34
351.458	99.16
351.669	86.87
351.881	121.68
352.093	119.64
352.305	66.39
352.517	95.06
352.728	64.34
352.94	82.77
353.152	115.54
353.363	-38.06
353.575	29.52
353.787	193.36
353.999	54.1
354.21	103.25
354.422	-56.49
354.633	25.43
354.845	54.1
355.057	0.85
355.268	37.72
355.48	41.81
355.692	43.86
355.903	27.48
356.115	74.58
356.326	111.44
356.538	119.64
356.749	23.38
356.961	37.72
357.172	68.44
357.384	37.72
357.595	74.58
357.807	70.48
358.018	117.59
358.23	68.44
358.441	43.86
358.653	68.44
358.864	35.67
359.075	43.86
359.287	13.14
359.498	158.55
359.709	66.39
359.921	54.1
360.132	31.57
360.344	70.48
360.555	68.44
360.766	54.1
360.977	13.14
361.189	62.29
361.4	-11.43
361.611	33.62
361.823	41.81
362.034	47.96
362.245	-7.34
362.456	74.58
362.667	117.59
362.879	31.57
363.09	99.16
363.301	17.24
363.512	37.72
363.723	99.16
363.935	15.19
364.146	19.29
364.357	15.19
364.568	35.67
364.779	-48.3
364.99	60.24
365.201	21.33
365.412	107.35
365.623	2.9
365.834	50
366.045	-11.43
366.256	41.81
366.467	78.68
366.678	27.48
366.889	29.52
367.1	-5.29
367.311	52.05
367.522	-11.43
367.733	39.76
367.944	4.95
368.155	13.14
368.366	105.3
368.577	168.79
368.788	119.64
368.999	39.76
369.209	66.39
369.42	125.78
369.631	144.21
369.842	82.77
370.053	82.77
370.264	95.06
370.474	43.86
370.685	72.53
370.896	35.67
371.107	88.92
371.317	60.24
371.528	37.72
371.739	78.68
371.95	93.01
372.16	84.82
372.371	156.5
372.582	-9.39
372.792	103.25
373.003	41.81
373.214	86.87
373.424	58.2
373.635	70.48
373.846	103.25
374.056	54.1
374.267	144.21
374.477	103.25
374.688	43.86
374.898	88.92
375.109	70.48
375.319	88.92
375.53	86.87
375.74	35.67
375.951	33.62
376.161	70.48
376.372	37.72
376.582	68.44
376.793	82.77
377.003	-44.2
377.214	37.72
377.424	117.59
377.635	45.91
377.845	-1.19
378.055	74.58
378.266	27.48
378.476	29.52
378.686	35.67
378.897	31.57
379.107	136.02
379.317	140.12
379.528	-5.29
379.738	52.05
379.948	9.05
380.158	164.69
380.369	76.63
380.579	78.68
380.789	4.95
380.999	93.01
381.21	66.39
381.42	74.58
381.63	66.39
381.84	-1.19
382.05	93.01
382.261	70.48
382.471	52.05
382.681	-5.29
382.891	95.06
383.101	119.64
383.311	37.72
383.521	37.72
383.731	31.57
383.941	74.58
384.151	19.29
384.361	50
384.571	2.9
384.781	19.29
384.991	70.48
385.201	109.4
385.411	138.07
385.621	54.1
385.831	45.91
386.041	54.1
386.251	99.16
386.461	127.83
386.671	58.2
386.881	33.62
387.091	119.64
387.301	66.39
387.511	70.48
387.72	162.64
387.93	93.01
388.14	-44.2
388.35	82.77
388.56	90.96
388.769	86.87
388.979	70.48
389.189	66.39
389.399	43.86
389.609	156.5
389.818	125.78
390.028	33.62
390.238	31.57
390.447	-9.39
390.657	142.16
390.867	-23.72
391.076	25.43
391.286	54.1
391.496	13.14
391.705	-1.19
391.915	105.3
392.125	136.02
392.334	54.1
392.544	43.86
392.753	78.68
392.963	43.86
393.172	119.64
393.382	107.35
393.591	117.59
393.801	43.86
394.01	88.92
394.22	62.29
394.429	50
394.639	50
394.848	115.54
395.058	109.4
395.267	58.2
395.477	78.68
395.686	125.78
395.895	133.97
396.105	150.36
396.314	123.73
396.524	131.92
396.733	62.29
396.942	103.25
397.152	90.96
397.361	84.82
397.57	117.59
397.78	27.48
397.989	127.83
398.198	127.83
398.407	133.97
398.617	78.68
398.826	21.33
399.035	123.73
399.244	144.21
399.453	80.72
399.663	82.77
399.872	213.84
400.081	66.39
400.29	127.83
400.499	70.48
400.708	84.82
400.917	136.02
401.127	72.53
401.336	101.2
401.545	150.36
401.754	101.2
401.963	129.88
402.172	29.52
402.381	11.09
402.59	86.87
402.799	123.73
403.008	181.07
403.217	136.02
403.426	111.44
403.635	111.44
403.844	123.73
404.053	111.44
404.262	111.44
404.471	172.88
404.68	152.4
404.888	133.97
405.097	68.44
405.306	164.69
405.515	152.4
405.724	144.21
405.933	176.98
406.142	168.79
406.35	160.59
406.559	160.59
406.768	185.17
406.977	197.46
407.185	234.32
407.394	219.99
407.603	183.12
407.812	166.74
408.02	230.23
408.229	185.17
408.438	222.03
408.646	189.27
408.855	238.42
409.064	219.99
409.272	146.26
409.481	346.96
409.69	269.14
409.898	312.14
410.107	269.14
410.315	254.8
410.524	248.66
410.733	346.96
410.941	289.62
411.15	324.43
411.358	371.54
411.567	320.34
411.775	258.9
411.984	299.86
412.192	344.91
412.401	359.25
412.609	463.69
412.818	432.97
413.026	437.07
413.234	459.6
413.443	430.93
413.651	467.79
413.86	527.18
414.068	559.95
414.276	557.9
414.485	533.33
414.693	551.76
414.901	627.53
415.11	635.72
415.318	619.34
415.526	662.35
415.734	697.16
415.943	684.87
416.151	660.3
416.359	738.12
416.567	656.2
416.776	695.11
416.984	799.56
417.192	836.42
417.4	799.56
417.608	869.19
417.817	861
418.025	1000.26
418.233	1030.98
418.441	932.68
418.649	934.73
418.857	1151.81
419.065	1172.29
419.273	1157.96
419.481	1200.96
419.689	1248.07
419.897	1256.26
420.105	1217.35
420.313	1291.07
420.521	1459.01
420.729	1491.77
420.937	1436.48
421.145	1506.11
421.353	1581.89
421.561	1614.65
421.769	1702.72
421.977	1807.16
422.185	1733.43
422.393	1737.53
422.601	1930.04
422.809	1913.66
423.017	1895.22
423.224	1915.7
423.432	1989.43
423.64	2044.73
423.848	2257.71
424.056	2288.43
424.263	2487.09
424.471	2374.45
424.679	2437.94
424.887	2679.6
425.094	2687.79
425.302	2827.05
425.51	2669.36
425.718	2777.9
425.925	2771.76
426.133	2929.45
426.341	3300.13
426.548	3308.32
426.756	3380
426.964	3423.01
427.171	3541.79
427.379	3625.76
427.586	3642.14
427.794	3781.4
428.001	4076.31
428.209	4090.65
428.417	4166.42
428.624	4432.66
428.832	4541.2
429.039	4557.58
429.247	4293.4
429.454	4764.43
429.662	4999.95
429.869	4721.42
430.076	5108.49
430.284	5124.87
430.491	5051.14
430.699	5448.45
430.906	5411.59
431.114	5362.44
431.321	5735.17
431.528	5747.45
431.736	6083.32
431.943	6494.96
432.15	6253.3
432.358	6550.26
432.565	6693.62
432.772	6783.73
432.979	7049.96
433.187	7252.71
433.394	7154.41
433.601	7805.66
433.808	7744.22
434.016	7901.92
434.223	7942.88
434.43	8278.74
434.637	8237.78
434.844	8796.88
435.052	8944.33
435.259	8811.21
435.466	9089.74
435.673	8848.08
435.88	9548.48
436.087	10095.29
436.294	10040
436.501	9900.73
436.708	10162.87
436.915	10207.93
437.122	10752.69
437.329	10678.96
437.537	10881.71
437.743	11389.61
437.95	11242.15
438.157	11903.65
438.364	12321.43
438.571	12077.73
438.778	12155.55
438.985	13341.32
439.192	12980.88
439.399	13189.77
439.606	13013.65
439.813	13771.4
440.02	14639.73
440.227	14404.22
440.433	14283.39
440.64	14287.48
440.847	14457.46
441.054	15028.85
441.261	15897.19
441.467	15473.26
441.674	16114.27
441.881	16786.01
442.088	16466.52
442.294	16306.78
442.501	16929.36
442.708	17093.2
442.914	17879.62
443.121	18825.78
443.328	17992.26
443.534	19278.38
443.741	18836.02
443.948	18620.99
444.154	19810.86
444.361	19765.8
444.568	20140.58
444.774	20042.28
444.981	20199.97
445.187	20843.03
445.394	21633.55
445.6	21092.88
445.807	23253.49
446.013	22467.07
446.22	22766.07
446.426	23966.18
446.633	23943.66
446.839	24941.02
447.046	23644.65
447.252	25063.89
447.459	24891.87
447.665	24938.97
447.871	25856.46
448.078	27292.08
448.284	25758.16
448.491	26540.48
448.697	27421.11
448.903	28166.57
449.11	28225.96
449.316	27787.69
449.522	28166.57
449.728	28864.92
449.935	29295
450.141	29239.7
450.347	29772.18
450.553	28737.95
450.76	29548.95
450.966	29907.34
451.172	29923.72
451.378	30665.09
451.584	30181.77
451.791	30435.72
451.997	30652.8
452.203	30880.13
452.409	31293.82
452.615	30914.94
452.821	29972.88
453.027	29487.51
453.233	31072.64
453.44	29780.37
453.646	30134.67
453.852	29794.7
454.058	30448
454.264	29559.19
454.47	30265.74
454.676	29497.75
454.882	30488.96
455.088	27910.57
455.294	28180.9
455.5	28551.59
455.705	28967.32
455.911	27580.85
456.117	27320.76
456.323	27144.63
456.529	25219.54
456.735	26679.74
456.941	25618.89
457.147	25344.47
457.352	24486.37
457.558	23712.24
457.764	24185.32
457.97	24052.2
458.176	23333.36
458.381	23269.87
458.587	22192.64
458.793	21938.69
458.999	20855.32
459.204	22190.59
459.41	21602.83
459.616	20222.5
459.821	20394.53
460.027	20265.5
460.233	19804.71
460.438	18854.45
460.644	19231.28
460.85	17834.57
461.055	18031.17
461.261	17814.09
461.466	16652.89
461.672	16042.59
461.878	17201.74
462.083	16263.77
462.289	15880.8
462.494	15473.26
462.7	14979.7
462.905	14506.62
463.111	15020.66
463.316	15198.83
463.522	15002.22
463.727	14807.67
463.932	14785.14
464.138	14627.45
464.343	14656.12
464.549	14367.35
464.754	14606.97
464.959	14658.17
465.165	14629.49
465.37	13564.55
465.575	13703.81
465.781	14058.11
465.986	14127.74
466.191	13447.82
466.397	13204.11
466.602	12739.22
466.807	13275.79
467.012	13263.5
467.218	13200.01
467.423	12761.75
467.628	13019.79
467.833	13494.92
