Data from USB4F104151__99__11-32-16-300.txt Node

Date: Fri Mar 14 11:32:16 EDT 2025
User: louis
Spectrometer: USB4F10415
Trigger mode: 4
Integration Time (sec): 5.000000E-2
Scans to average: 1
Electric dark correction enabled: true
Nonlinearity correction enabled: false
Boxcar width: 0
XAxis mode: Wavelengths
Number of Pixels in Spectrum: 3648
>>>>>Begin Spectral Data<<<<<
178.204	-183.98
178.424	-183.98
178.644	-183.98
178.864	-181.93
179.084	-224.94
179.304	4.44
179.524	-36.52
179.744	10.58
179.964	16.73
180.184	2.39
180.404	78.16
180.624	-77.48
180.844	-13.99
181.064	0.34
181.283	8.53
181.503	41.3
181.723	-34.47
181.943	-13.99
182.163	135.51
182.383	-22.19
182.602	35.16
182.822	110.93
183.042	59.73
183.262	-63.15
183.482	-50.86
183.701	49.49
183.921	4.44
184.141	-3.75
184.361	69.97
184.58	78.16
184.8	8.53
185.02	78.16
185.239	119.12
185.459	-32.43
185.679	47.44
185.898	10.58
186.118	53.59
186.338	10.58
186.557	43.35
186.777	-7.85
186.997	-3.75
187.216	0.34
187.436	131.41
187.655	72.02
187.875	74.07
188.095	65.88
188.314	43.35
188.534	108.88
188.753	-3.75
188.973	65.88
189.192	76.12
189.412	4.44
189.631	33.11
189.851	41.3
190.07	41.3
190.29	-52.91
190.509	-28.33
190.729	51.54
190.948	47.44
191.168	119.12
191.387	57.68
191.607	16.73
191.826	76.12
192.045	-65.19
192.265	-30.38
192.484	29.01
192.704	8.53
192.923	-44.71
193.142	82.26
193.362	-3.75
193.581	-3.75
193.8	92.5
194.02	20.82
194.239	-77.48
194.458	26.96
194.678	16.73
194.897	4.44
195.116	-5.8
195.335	80.21
195.555	29.01
195.774	10.58
195.993	61.78
196.212	67.92
196.432	29.01
196.651	43.35
196.87	20.82
197.089	151.89
197.308	37.2
197.528	94.55
197.747	-61.1
197.966	-16.04
198.185	104.79
198.404	18.77
198.623	35.16
198.842	37.2
199.062	82.26
199.281	0.34
199.5	53.59
199.719	2.39
199.938	45.4
200.157	51.54
200.376	-3.75
200.595	168.27
200.814	61.78
201.033	2.39
201.252	41.3
201.471	-5.8
201.69	41.3
201.909	65.88
202.128	45.4
202.347	35.16
202.566	35.16
202.785	61.78
203.004	-20.14
203.223	104.79
203.442	96.6
203.661	-28.33
203.879	35.16
204.098	59.73
204.317	49.49
204.536	115.03
204.755	45.4
204.974	94.55
205.193	-36.52
205.411	59.73
205.63	90.45
205.849	14.68
206.068	31.06
206.287	0.34
206.505	6.49
206.724	-42.67
206.943	-7.85
207.162	18.77
207.381	33.11
207.599	2.39
207.818	16.73
208.037	41.3
208.255	33.11
208.474	88.4
208.693	29.01
208.911	18.77
209.13	29.01
209.349	41.3
209.567	4.44
209.786	0.34
210.005	26.96
210.223	24.92
210.442	-1.71
210.661	31.06
210.879	69.97
211.098	24.92
211.316	84.31
211.535	86.36
211.753	-3.75
211.972	53.59
212.191	12.63
212.409	8.53
212.628	10.58
212.846	18.77
213.065	26.96
213.283	112.98
213.502	-44.71
213.72	12.63
213.938	49.49
214.157	39.25
214.375	37.2
214.594	29.01
214.812	43.35
215.031	37.2
215.249	4.44
215.467	33.11
215.686	37.2
215.904	104.79
216.122	45.4
216.341	20.82
216.559	63.83
216.778	12.63
216.996	84.31
217.214	-122.54
217.432	43.35
217.651	57.68
217.869	29.01
218.087	16.73
218.306	84.31
218.524	80.21
218.742	-40.62
218.96	133.46
219.179	-30.38
219.397	33.11
219.615	67.92
219.833	37.2
220.051	33.11
220.27	69.97
220.488	2.39
220.706	49.49
220.924	51.54
221.142	-1.71
221.36	12.63
221.578	-3.75
221.796	2.39
222.015	20.82
222.233	110.93
222.451	-9.9
222.669	22.87
222.887	45.4
223.105	-26.28
223.323	84.31
223.541	20.82
223.759	0.34
223.977	-20.14
224.195	117.08
224.413	45.4
224.631	26.96
224.849	-20.14
225.067	135.51
225.285	-13.99
225.503	8.53
225.721	-112.3
225.939	10.58
226.157	-26.28
226.375	82.26
226.592	-20.14
226.81	2.39
227.028	35.16
227.246	-3.75
227.464	33.11
227.682	18.77
227.9	2.39
228.117	39.25
228.335	31.06
228.553	-42.67
228.771	45.4
228.989	82.26
229.206	65.88
229.424	-13.99
229.642	47.44
229.86	35.16
230.077	-38.57
230.295	20.82
230.513	-3.75
230.731	47.44
230.948	41.3
231.166	102.74
231.384	51.54
231.601	12.63
231.819	-1.71
232.037	26.96
232.254	12.63
232.472	-30.38
232.689	20.82
232.907	10.58
233.125	-11.95
233.342	39.25
233.56	67.92
233.777	31.06
233.995	51.54
234.213	39.25
234.43	8.53
234.648	63.83
234.865	16.73
235.083	10.58
235.3	24.92
235.518	24.92
235.735	72.02
235.953	76.12
236.17	-54.95
236.388	-44.71
236.605	47.44
236.822	72.02
237.04	-1.71
237.257	29.01
237.475	53.59
237.692	4.44
237.909	49.49
238.127	45.4
238.344	33.11
238.562	33.11
238.779	-44.71
238.996	-11.95
239.214	-13.99
239.431	61.78
239.648	8.53
239.865	33.11
240.083	57.68
240.3	22.87
240.517	-77.48
240.735	96.6
240.952	131.41
241.169	37.2
241.386	41.3
241.603	2.39
241.821	-5.8
242.038	4.44
242.255	92.5
242.472	-5.8
242.689	76.12
242.907	20.82
243.124	31.06
243.341	35.16
243.558	-104.11
243.775	45.4
243.992	43.35
244.209	37.2
244.426	86.36
244.643	135.51
244.86	-20.14
245.078	59.73
245.295	29.01
245.512	61.78
245.729	-13.99
245.946	-20.14
246.163	29.01
246.38	-38.57
246.597	-38.57
246.814	20.82
247.031	61.78
247.248	57.68
247.464	12.63
247.681	-63.15
247.898	-24.23
248.115	51.54
248.332	-1.71
248.549	57.68
248.766	141.65
248.983	45.4
249.2	-44.71
249.417	80.21
249.633	88.4
249.85	4.44
250.067	33.11
250.284	16.73
250.501	-7.85
250.717	20.82
250.934	24.92
251.151	12.63
251.368	-11.95
251.585	119.12
251.801	59.73
252.018	-40.62
252.235	-26.28
252.451	-83.63
252.668	-7.85
252.885	67.92
253.102	94.55
253.318	-16.04
253.535	20.82
253.752	-13.99
253.968	20.82
254.185	16.73
254.401	37.2
254.618	-5.8
254.835	16.73
255.051	106.84
255.268	4.44
255.484	12.63
255.701	-63.15
255.917	102.74
256.134	39.25
256.351	-20.14
256.567	41.3
256.784	6.49
257	-18.09
257.217	41.3
257.433	24.92
257.65	84.31
257.866	98.64
258.082	-81.58
258.299	26.96
258.515	8.53
258.732	-52.91
258.948	18.77
259.165	53.59
259.381	4.44
259.597	26.96
259.814	-48.81
260.03	-22.19
260.246	-22.19
260.463	14.68
260.679	74.07
260.895	18.77
261.112	-38.57
261.328	2.39
261.544	0.34
261.761	121.17
261.977	47.44
262.193	4.44
262.409	-13.99
262.626	24.92
262.842	20.82
263.058	35.16
263.274	-22.19
263.49	18.77
263.707	26.96
263.923	12.63
264.139	6.49
264.355	2.39
264.571	18.77
264.787	2.39
265.004	84.31
265.22	26.96
265.436	33.11
265.652	-22.19
265.868	-16.04
266.084	16.73
266.3	43.35
266.516	-44.71
266.732	0.34
266.948	67.92
267.164	10.58
267.38	6.49
267.596	22.87
267.812	24.92
268.028	49.49
268.244	-3.75
268.46	2.39
268.676	8.53
268.892	16.73
269.108	-52.91
269.324	24.92
269.54	31.06
269.756	29.01
269.972	-50.86
270.188	-3.75
270.403	-42.67
270.619	33.11
270.835	51.54
271.051	78.16
271.267	51.54
271.483	12.63
271.698	2.39
271.914	94.55
272.13	115.03
272.346	10.58
272.562	53.59
272.777	80.21
272.993	-5.8
273.209	-11.95
273.425	37.2
273.64	-44.71
273.856	-20.14
274.072	82.26
274.287	-18.09
274.503	51.54
274.719	-5.8
274.934	10.58
275.15	-48.81
275.366	47.44
275.581	-24.23
275.797	10.58
276.012	41.3
276.228	-20.14
276.444	78.16
276.659	76.12
276.875	16.73
277.09	-22.19
277.306	-22.19
277.521	37.2
277.737	37.2
277.952	96.6
278.168	-3.75
278.383	31.06
278.599	86.36
278.814	-24.23
279.03	90.45
279.245	59.73
279.461	-1.71
279.676	47.44
279.892	-1.71
280.107	12.63
280.322	31.06
280.538	67.92
280.753	43.35
280.969	26.96
281.184	-28.33
281.399	29.01
281.615	12.63
281.83	18.77
282.045	51.54
282.26	14.68
282.476	139.6
282.691	26.96
282.906	24.92
283.122	2.39
283.337	-69.29
283.552	2.39
283.767	-13.99
283.983	35.16
284.198	-44.71
284.413	82.26
284.628	-46.76
284.843	78.16
285.058	45.4
285.274	29.01
285.489	51.54
285.704	67.92
285.919	26.96
286.134	33.11
286.349	63.83
286.564	20.82
286.779	90.45
286.995	55.64
287.21	41.3
287.425	35.16
287.64	-30.38
287.855	90.45
288.07	4.44
288.285	59.73
288.5	16.73
288.715	41.3
288.93	41.3
289.145	41.3
289.36	-20.14
289.575	6.49
289.79	16.73
290.004	47.44
290.219	94.55
290.434	-16.04
290.649	-1.71
290.864	-3.75
291.079	-48.81
291.294	43.35
291.509	90.45
291.724	-11.95
291.938	-5.8
292.153	39.25
292.368	12.63
292.583	98.64
292.798	16.73
293.012	8.53
293.227	29.01
293.442	12.63
293.657	51.54
293.871	61.78
294.086	43.35
294.301	67.92
294.516	41.3
294.73	67.92
294.945	59.73
295.16	57.68
295.374	67.92
295.589	55.64
295.804	26.96
296.018	8.53
296.233	47.44
296.447	0.34
296.662	53.59
296.877	61.78
297.091	86.36
297.306	-16.04
297.52	22.87
297.735	51.54
297.949	-9.9
298.164	35.16
298.378	43.35
298.593	12.63
298.807	-28.33
299.022	88.4
299.236	47.44
299.451	-3.75
299.665	-16.04
299.88	-18.09
300.094	8.53
300.309	-36.52
300.523	0.34
300.737	41.3
300.952	10.58
301.166	4.44
301.381	61.78
301.595	112.98
301.809	31.06
302.024	45.4
302.238	51.54
302.452	67.92
302.667	41.3
302.881	-26.28
303.095	69.97
303.309	82.26
303.524	-16.04
303.738	10.58
303.952	33.11
304.166	-34.47
304.381	-79.53
304.595	49.49
304.809	45.4
305.023	4.44
305.237	18.77
305.452	14.68
305.666	67.92
305.88	10.58
306.094	26.96
306.308	100.69
306.522	2.39
306.736	61.78
306.95	18.77
307.164	16.73
307.379	20.82
307.593	86.36
307.807	65.88
308.021	69.97
308.235	20.82
308.449	-50.86
308.663	-38.57
308.877	33.11
309.091	51.54
309.305	14.68
309.519	-34.47
309.733	125.27
309.947	14.68
310.161	78.16
310.374	-20.14
310.588	88.4
310.802	18.77
311.016	-67.24
311.23	-11.95
311.444	-18.09
311.658	-3.75
311.872	8.53
312.085	76.12
312.299	-9.9
312.513	47.44
312.727	24.92
312.941	-57
313.154	20.82
313.368	6.49
313.582	18.77
313.796	49.49
314.009	24.92
314.223	86.36
314.437	61.78
314.651	-36.52
314.864	67.92
315.078	104.79
315.292	61.78
315.505	43.35
315.719	51.54
315.933	33.11
316.146	-52.91
316.36	-91.82
316.573	-9.9
316.787	78.16
317.001	33.11
317.214	-24.23
317.428	63.83
317.641	-11.95
317.855	69.97
318.068	55.64
318.282	14.68
318.495	170.32
318.709	-11.95
318.922	69.97
319.136	94.55
319.349	86.36
319.563	-52.91
319.776	4.44
319.99	18.77
320.203	59.73
320.417	-30.38
320.63	51.54
320.843	141.65
321.057	53.59
321.27	-7.85
321.483	35.16
321.697	90.45
321.91	72.02
322.124	29.01
322.337	47.44
322.55	37.2
322.763	18.77
322.977	-7.85
323.19	-13.99
323.403	88.4
323.617	94.55
323.83	16.73
324.043	84.31
324.256	88.4
324.469	-63.15
324.683	69.97
324.896	-22.19
325.109	41.3
325.322	24.92
325.535	98.64
325.748	26.96
325.962	41.3
326.175	-11.95
326.388	45.4
326.601	12.63
326.814	16.73
327.027	78.16
327.24	92.5
327.453	14.68
327.666	12.63
327.879	18.77
328.092	55.64
328.305	53.59
328.518	-7.85
328.731	47.44
328.944	-3.75
329.157	-20.14
329.37	80.21
329.583	98.64
329.796	29.01
330.009	33.11
330.222	94.55
330.435	59.73
330.648	-32.43
330.861	24.92
331.073	61.78
331.286	-3.75
331.499	41.3
331.712	35.16
331.925	35.16
332.138	31.06
332.35	39.25
332.563	67.92
332.776	-3.75
332.989	-3.75
333.202	-7.85
333.414	35.16
333.627	67.92
333.84	94.55
334.053	37.2
334.265	69.97
334.478	-40.62
334.691	-13.99
334.903	8.53
335.116	-30.38
335.329	18.77
335.541	94.55
335.754	67.92
335.966	4.44
336.179	14.68
336.392	24.92
336.604	33.11
336.817	78.16
337.029	2.39
337.242	12.63
337.454	53.59
337.667	12.63
337.88	104.79
338.092	-22.19
338.305	47.44
338.517	-30.38
338.729	55.64
338.942	115.03
339.154	26.96
339.367	45.4
339.579	96.6
339.792	-16.04
340.004	-1.71
340.217	41.3
340.429	84.31
340.641	-13.99
340.854	-11.95
341.066	-20.14
341.278	84.31
341.491	51.54
341.703	-67.24
341.915	12.63
342.128	18.77
342.34	53.59
342.552	-42.67
342.764	18.77
342.977	4.44
343.189	43.35
343.401	-3.75
343.613	12.63
343.826	59.73
344.038	-28.33
344.25	67.92
344.462	-13.99
344.674	69.97
344.886	86.36
345.099	61.78
345.311	61.78
345.523	61.78
345.735	-28.33
345.947	84.31
346.159	12.63
346.371	16.73
346.583	-28.33
346.795	102.74
347.007	24.92
347.219	67.92
347.431	20.82
347.643	88.4
347.855	-13.99
348.067	31.06
348.279	24.92
348.491	16.73
348.703	12.63
348.915	14.68
349.127	0.34
349.339	61.78
349.551	-57
349.763	55.64
349.975	98.64
350.187	92.5
350.399	117.08
350.61	37.2
350.822	16.73
351.034	2.39
351.246	-28.33
351.458	-7.85
351.669	6.49
351.881	-1.71
352.093	78.16
352.305	127.32
352.517	35.16
352.728	102.74
352.94	22.87
353.152	96.6
353.363	-42.67
353.575	74.07
353.787	18.77
353.999	49.49
354.21	106.84
354.422	-61.1
354.633	61.78
354.845	86.36
355.057	-48.81
355.268	57.68
355.48	63.83
355.692	-28.33
355.903	96.6
356.115	106.84
356.326	-7.85
356.538	55.64
356.749	84.31
356.961	98.64
357.172	37.2
357.384	-3.75
357.595	45.4
357.807	24.92
358.018	0.34
358.23	14.68
358.441	145.75
358.653	117.08
358.864	24.92
359.075	-16.04
359.287	-5.8
359.498	67.92
359.709	65.88
359.921	37.2
360.132	61.78
360.344	-57
360.555	49.49
360.766	4.44
360.977	12.63
361.189	41.3
361.4	29.01
361.611	-11.95
361.823	184.66
362.034	4.44
362.245	47.44
362.456	18.77
362.667	45.4
362.879	29.01
363.09	6.49
363.301	98.64
363.512	63.83
363.723	-38.57
363.935	8.53
364.146	61.78
364.357	55.64
364.568	33.11
364.779	37.2
364.99	65.88
365.201	-3.75
365.412	18.77
365.623	16.73
365.834	20.82
366.045	4.44
366.256	84.31
366.467	4.44
366.678	-28.33
366.889	57.68
367.1	49.49
367.311	90.45
367.522	-7.85
367.733	4.44
367.944	29.01
368.155	20.82
368.366	29.01
368.577	86.36
368.788	123.22
368.999	-44.71
369.209	4.44
369.42	78.16
369.631	139.6
369.842	20.82
370.053	12.63
370.264	55.64
370.474	65.88
370.685	53.59
370.896	16.73
371.107	20.82
371.317	51.54
371.528	76.12
371.739	117.08
371.95	115.03
372.16	45.4
372.371	47.44
372.582	-3.75
372.792	41.3
373.003	41.3
373.214	16.73
373.424	16.73
373.635	29.01
373.846	-11.95
374.056	0.34
374.267	143.7
374.477	20.82
374.688	-24.23
374.898	92.5
375.109	12.63
375.319	65.88
375.53	57.68
375.74	26.96
375.951	29.01
376.161	33.11
376.372	112.98
376.582	43.35
376.793	94.55
377.003	-3.75
377.214	4.44
377.424	43.35
377.635	37.2
377.845	74.07
378.055	106.84
378.266	0.34
378.476	18.77
378.686	49.49
378.897	78.16
379.107	-38.57
379.317	22.87
379.528	-26.28
379.738	65.88
379.948	57.68
380.158	-13.99
380.369	53.59
380.579	84.31
380.789	53.59
380.999	8.53
381.21	59.73
381.42	86.36
381.63	-24.23
381.84	110.93
382.05	51.54
382.261	43.35
382.471	63.83
382.681	24.92
382.891	37.2
383.101	76.12
383.311	-30.38
383.521	18.77
383.731	82.26
383.941	121.17
384.151	-3.75
384.361	4.44
384.571	41.3
384.781	61.78
384.991	16.73
385.201	112.98
385.411	29.01
385.621	18.77
385.831	4.44
386.041	63.83
386.251	-11.95
386.461	-5.8
386.671	96.6
386.881	49.49
387.091	-63.15
387.301	57.68
387.511	53.59
387.72	63.83
387.93	41.3
388.14	-13.99
388.35	24.92
388.56	117.08
388.769	115.03
388.979	84.31
389.189	37.2
389.399	51.54
389.609	57.68
389.818	61.78
390.028	67.92
390.238	29.01
390.447	-30.38
390.657	98.64
390.867	92.5
391.076	18.77
391.286	110.93
391.496	43.35
391.705	26.96
391.915	123.22
392.125	94.55
392.334	102.74
392.544	84.31
392.753	78.16
392.963	53.59
393.172	14.68
393.382	22.87
393.591	143.7
393.801	-18.09
394.01	59.73
394.22	16.73
394.429	86.36
394.639	39.25
394.848	121.17
395.058	2.39
395.267	100.69
395.477	69.97
395.686	37.2
395.895	102.74
396.105	123.22
396.314	65.88
396.524	37.2
396.733	69.97
396.942	92.5
397.152	129.36
397.361	133.46
397.57	139.6
397.78	90.45
397.989	20.82
398.198	86.36
398.407	100.69
398.617	102.74
398.826	53.59
399.035	39.25
399.244	108.88
399.453	86.36
399.663	-1.71
399.872	61.78
400.081	49.49
400.29	51.54
400.499	-24.23
400.708	135.51
400.917	98.64
401.127	10.58
401.336	51.54
401.545	129.36
401.754	63.83
401.963	137.56
402.172	94.55
402.381	74.07
402.59	29.01
402.799	86.36
403.008	69.97
403.217	98.64
403.426	115.03
403.635	94.55
403.844	98.64
404.053	61.78
404.262	53.59
404.471	168.27
404.68	149.84
404.888	84.31
405.097	65.88
405.306	92.5
405.515	162.13
405.724	86.36
405.933	133.46
406.142	108.88
406.35	110.93
406.559	133.46
406.768	110.93
406.977	229.71
407.185	213.33
407.394	168.27
407.603	160.08
407.812	215.38
408.02	182.61
408.229	137.56
408.438	104.79
408.646	78.16
408.855	205.14
409.064	254.29
409.272	207.19
409.481	282.96
409.69	201.04
409.898	110.93
410.107	242
410.315	186.71
410.524	317.78
410.733	192.85
410.941	237.91
411.15	278.87
411.358	215.38
411.567	346.45
411.775	313.68
411.984	334.16
412.192	291.15
412.401	346.45
412.609	422.22
412.818	389.46
413.026	348.5
413.234	350.54
413.443	373.07
413.651	362.83
413.86	373.07
414.068	459.09
414.276	532.81
414.485	442.7
414.693	512.33
414.901	600.4
415.11	551.24
415.318	522.57
415.526	520.53
415.734	504.14
415.943	508.24
416.151	571.72
416.359	594.25
416.567	618.83
416.776	614.73
416.984	700.75
417.192	747.85
417.4	698.7
417.608	684.36
417.817	702.79
418.025	776.52
418.233	827.72
418.441	770.38
418.649	837.96
418.857	897.35
419.065	1075.52
419.273	981.32
419.481	934.22
419.689	999.75
419.897	1048.9
420.105	1065.29
420.313	1167.68
420.521	1206.59
420.729	1175.88
420.937	1147.2
421.145	1272.13
421.353	1261.89
421.561	1384.77
421.769	1347.9
421.977	1427.78
422.185	1466.69
422.393	1585.47
422.601	1708.35
422.809	1593.66
423.017	1593.66
423.224	1734.97
423.432	1763.64
423.64	1761.59
423.848	1976.63
424.056	1755.45
424.263	1947.96
424.471	1970.49
424.679	2040.12
424.887	2113.85
425.094	2128.18
425.302	2380.08
425.51	2347.31
425.718	2418.99
425.925	2382.13
426.133	2525.49
426.341	2785.58
426.548	2797.87
426.756	2812.2
426.964	2748.72
427.171	3017
427.379	3043.62
427.586	3074.34
427.794	3217.7
428.001	3424.55
428.209	3412.26
428.417	3445.02
428.624	3764.51
428.832	3698.97
429.039	3641.63
429.247	3629.34
429.454	3989.78
429.662	4280.6
429.869	3975.45
430.076	4161.81
430.284	4122.9
430.491	4374.8
430.699	4538.64
430.906	4604.18
431.114	4643.09
431.321	4815.12
431.528	4890.89
431.736	5130.5
431.943	5331.2
432.15	5239.05
432.358	5361.92
432.565	5687.55
432.772	5718.27
432.979	5933.31
433.187	6115.58
433.394	5968.12
433.601	6424.82
433.808	6332.66
434.016	6408.44
434.223	6725.87
434.43	7121.13
434.637	6959.34
434.844	7270.63
435.052	7594.21
435.259	7420.13
435.466	7567.59
435.673	7457
435.88	7930.08
436.087	8368.34
436.294	8237.27
436.501	8106.2
436.708	8224.98
436.915	8693.97
437.122	9015.5
437.329	8880.33
437.537	9095.37
437.743	9418.95
437.95	9337.03
438.157	9867.45
438.364	10143.93
438.571	9955.52
438.778	10213.56
438.985	10856.62
439.192	10725.55
439.399	11090.09
439.606	10944.69
439.813	11356.33
440.02	11917.47
440.227	11770.02
440.433	11802.79
440.64	11999.39
440.847	11917.47
441.054	12441.75
441.261	13058.19
441.467	13150.35
441.674	13324.43
441.881	13801.6
442.088	13801.6
442.294	13588.61
442.501	13936.77
442.708	14289.02
442.914	14723.19
443.121	15333.48
443.328	15005.81
443.534	16167.01
443.741	15685.73
443.948	15200.37
444.154	16566.36
444.361	16492.63
444.568	16466.01
444.774	16611.42
444.981	16885.84
445.187	17094.74
445.394	18030.66
445.6	17633.35
445.807	19220.53
446.013	18634.81
446.22	18925.62
446.426	19613.74
446.633	19583.02
446.839	20449.31
447.046	19402.8
447.252	20588.57
447.459	20791.32
447.665	20699.16
447.871	21467.15
448.078	22458.37
448.284	21479.44
448.491	21991.43
448.697	22843.38
448.903	23093.24
449.11	23486.45
449.316	23078.9
449.522	23451.63
449.728	24127.46
449.935	24082.41
450.141	24096.74
450.347	24733.66
450.553	23928.81
450.76	24166.37
450.966	25286.61
451.172	24504.29
451.378	25122.77
451.584	25014.23
451.791	25530.32
451.997	25280.47
452.203	25802.7
452.409	25937.87
452.615	25548.75
452.821	24821.72
453.027	24360.93
453.233	25638.86
453.44	24694.75
453.646	24854.49
453.852	24889.31
454.058	25288.66
454.264	24829.91
454.47	24999.9
454.676	24664.03
454.882	24975.32
455.088	23013.37
455.294	23396.34
455.5	23959.53
455.705	24039.4
455.911	23113.72
456.117	22552.57
456.323	22384.64
456.529	21104.66
456.735	21747.72
456.941	21581.84
457.147	21116.95
457.352	20346.91
457.558	20228.13
457.764	20082.72
457.97	19898.41
458.176	19427.37
458.381	19193.9
458.587	18524.22
458.793	18651.19
458.999	17471.56
459.204	18761.78
459.41	18284.61
459.616	17236.05
459.821	17027.15
460.027	17166.42
460.233	16558.17
460.438	15796.32
460.644	16087.14
460.85	15413.35
461.055	14819.44
461.261	15067.25
461.466	13873.28
461.672	13529.22
461.878	14323.83
462.083	13574.28
462.289	13097.1
462.494	13088.91
462.7	12488.85
462.905	11942.05
463.111	12421.27
463.316	12728.47
463.522	12341.4
463.727	12406.94
463.932	12062.88
464.138	12146.84
464.343	12290.2
464.549	11776.16
464.754	12490.9
464.959	12023.97
465.165	12048.54
465.37	11679.91
465.575	11280.55
465.781	11569.32
465.986	11733.15
466.191	11344.04
466.397	11114.67
466.602	10512.56
466.807	11047.08
467.012	11149.48
467.218	11018.41
467.423	10811.57
467.628	10580.15
467.833	11227.31
468.038	11008.17
