Data from USB4F104151__15__11-29-46-017.txt Node

Date: Fri Mar 14 11:29:46 EDT 2025
User: louis
Spectrometer: USB4F10415
Trigger mode: 4
Integration Time (sec): 5.000000E-2
Scans to average: 1
Electric dark correction enabled: true
Nonlinearity correction enabled: false
Boxcar width: 0
XAxis mode: Wavelengths
Number of Pixels in Spectrum: 3648
>>>>>Begin Spectral Data<<<<<
178.204	-166.74
178.424	-166.74
178.644	-166.74
178.864	-123.73
179.084	-127.83
179.304	-76.63
179.524	-29.52
179.744	-21.33
179.964	72.87
180.184	-21.33
180.404	13.48
180.624	23.72
180.844	27.82
181.064	1.19
181.283	50.35
181.503	-68.44
181.723	27.82
181.943	21.67
182.163	126.12
182.383	52.39
182.602	3.24
182.822	29.87
183.042	66.73
183.262	-97.11
183.482	40.11
183.701	68.78
183.921	3.24
184.141	-21.33
184.361	99.5
184.58	68.78
184.8	62.63
185.02	33.96
185.239	87.21
185.459	56.49
185.679	128.17
185.898	-33.62
186.118	44.2
186.338	54.44
186.557	83.11
186.777	40.11
186.997	58.54
187.216	-15.19
187.436	36.01
187.655	68.78
187.875	70.83
188.095	5.29
188.314	48.3
188.534	52.39
188.753	5.29
188.973	-4.95
189.192	70.83
189.412	15.53
189.631	11.43
189.851	68.78
190.07	25.77
190.29	54.44
190.509	79.02
190.729	13.48
190.948	83.11
191.168	154.79
191.387	13.48
191.607	36.01
191.826	74.92
192.045	46.25
192.265	25.77
192.484	-54.1
192.704	42.15
192.923	-13.14
193.142	79.02
193.362	-31.57
193.581	52.39
193.8	5.29
194.02	52.39
194.239	21.67
194.458	68.78
194.678	29.87
194.897	85.16
195.116	29.87
195.335	109.74
195.555	15.53
195.774	3.24
195.993	31.91
196.212	21.67
196.432	-23.38
196.651	36.01
196.87	27.82
197.089	138.41
197.308	111.78
197.528	126.12
197.747	17.58
197.966	21.67
198.185	111.78
198.404	27.82
198.623	79.02
198.842	83.11
199.062	68.78
199.281	23.72
199.5	27.82
199.719	74.92
199.938	126.12
200.157	81.07
200.376	56.49
200.595	21.67
200.814	70.83
201.033	52.39
201.252	95.4
201.471	23.72
201.69	85.16
201.909	107.69
202.128	25.77
202.347	107.69
202.566	62.63
202.785	-64.34
203.004	23.72
203.223	126.12
203.442	111.78
203.661	-43.86
203.879	25.77
204.098	9.39
204.317	-64.34
204.536	83.11
204.755	11.43
204.974	36.01
205.193	85.16
205.411	124.07
205.63	1.19
205.849	17.58
206.068	93.35
206.287	-11.09
206.505	29.87
206.724	54.44
206.943	-23.38
207.162	-39.76
207.381	-11.09
207.599	-52.05
207.818	52.39
208.037	-11.09
208.255	29.87
208.474	13.48
208.693	-11.09
208.911	115.88
209.13	5.29
209.349	64.68
209.567	36.01
209.786	142.5
210.005	-17.24
210.223	9.39
210.442	36.01
210.661	74.92
210.879	33.96
211.098	13.48
211.316	-11.09
211.535	54.44
211.753	13.48
211.972	5.29
212.191	62.63
212.409	25.77
212.628	21.67
212.846	-56.15
213.065	68.78
213.283	76.97
213.502	9.39
213.72	3.24
213.938	33.96
214.157	1.19
214.375	66.73
214.594	-0.85
214.812	85.16
215.031	25.77
215.249	-27.48
215.467	46.25
215.686	85.16
215.904	33.96
216.122	-31.57
216.341	33.96
216.559	68.78
216.778	95.4
216.996	74.92
217.214	-4.95
217.432	21.67
217.651	54.44
217.869	97.45
218.087	42.15
218.306	-31.57
218.524	74.92
218.742	19.63
218.96	105.64
219.179	-31.57
219.397	48.3
219.615	66.73
219.833	11.43
220.051	13.48
220.27	79.02
220.488	13.48
220.706	38.06
220.924	-0.85
221.142	-11.09
221.36	54.44
221.578	-11.09
221.796	13.48
222.015	36.01
222.233	-29.52
222.451	128.17
222.669	-11.09
222.887	74.92
223.105	58.54
223.323	-35.67
223.541	29.87
223.759	36.01
223.977	-11.09
224.195	111.78
224.413	117.93
224.631	21.67
224.849	54.44
225.067	76.97
225.285	21.67
225.503	21.67
225.721	-45.91
225.939	99.5
226.157	70.83
226.375	169.13
226.592	93.35
226.81	-13.14
227.028	152.74
227.246	68.78
227.464	56.49
227.682	21.67
227.9	64.68
228.117	-13.14
228.335	46.25
228.553	-62.29
228.771	52.39
228.989	-47.96
229.206	109.74
229.424	23.72
229.642	17.58
229.86	36.01
230.077	76.97
230.295	11.43
230.513	91.31
230.731	42.15
230.948	128.17
231.166	38.06
231.384	95.4
231.601	54.44
231.819	27.82
232.037	-11.09
232.254	21.67
232.472	56.49
232.689	33.96
232.907	83.11
233.125	29.87
233.342	-19.29
233.56	-60.24
233.777	-4.95
233.995	9.39
234.213	44.2
234.43	29.87
234.648	70.83
234.865	-58.2
235.083	74.92
235.3	60.59
235.518	62.63
235.735	56.49
235.953	29.87
236.17	74.92
236.388	38.06
236.605	-47.96
236.822	111.78
237.04	38.06
237.257	29.87
237.475	27.82
237.692	13.48
237.909	7.34
238.127	58.54
238.344	42.15
238.562	107.69
238.779	42.15
238.996	29.87
239.214	85.16
239.431	62.63
239.648	87.21
239.865	62.63
240.083	11.43
240.3	-47.96
240.517	95.4
240.735	29.87
240.952	111.78
241.169	117.93
241.386	-0.85
241.603	5.29
241.821	9.39
242.038	97.45
242.255	136.36
242.472	-45.91
242.689	76.97
242.907	-7
243.124	-2.9
243.341	25.77
243.558	19.63
243.775	46.25
243.992	66.73
244.209	79.02
244.426	117.93
244.643	15.53
244.86	46.25
245.078	50.35
245.295	62.63
245.512	19.63
245.729	19.63
245.946	29.87
246.163	146.6
246.38	95.4
246.597	91.31
246.814	62.63
247.031	-0.85
247.248	-39.76
247.464	38.06
247.681	44.2
247.898	54.44
248.115	119.98
248.332	-7
248.549	93.35
248.766	99.5
248.983	81.07
249.2	17.58
249.417	19.63
249.633	38.06
249.85	117.93
250.067	74.92
250.284	87.21
250.501	54.44
250.717	74.92
250.934	107.69
251.151	111.78
251.368	-21.33
251.585	101.55
251.801	128.17
252.018	60.59
252.235	52.39
252.451	46.25
252.668	-2.9
252.885	33.96
253.102	54.44
253.318	29.87
253.535	64.68
253.752	-31.57
253.968	-27.48
254.185	-45.91
254.401	-11.09
254.618	25.77
254.835	46.25
255.051	7.34
255.268	103.59
255.484	50.35
255.701	33.96
255.917	52.39
256.134	54.44
256.351	68.78
256.567	44.2
256.784	58.54
257	42.15
257.217	142.5
257.433	42.15
257.65	95.4
257.866	124.07
258.082	68.78
258.299	25.77
258.515	62.63
258.732	76.97
258.948	64.68
259.165	66.73
259.381	23.72
259.597	85.16
259.814	25.77
260.03	95.4
260.246	50.35
260.463	111.78
260.679	89.26
260.895	3.24
261.112	79.02
261.328	13.48
261.544	-60.24
261.761	181.42
261.977	85.16
262.193	-47.96
262.409	36.01
262.626	66.73
262.842	-19.29
263.058	17.58
263.274	58.54
263.49	-15.19
263.707	46.25
263.923	103.59
264.139	-7
264.355	-13.14
264.571	101.55
264.787	89.26
265.004	70.83
265.22	68.78
265.436	-27.48
265.652	11.43
265.868	-4.95
266.084	11.43
266.3	36.01
266.516	-11.09
266.732	54.44
266.948	21.67
267.164	52.39
267.38	1.19
267.596	85.16
267.812	76.97
268.028	38.06
268.244	15.53
268.46	46.25
268.676	5.29
268.892	33.96
269.108	31.91
269.324	42.15
269.54	25.77
269.756	48.3
269.972	54.44
270.188	-2.9
270.403	56.49
270.619	68.78
270.835	-11.09
271.051	83.11
271.267	83.11
271.483	13.48
271.698	48.3
271.914	58.54
272.13	21.67
272.346	81.07
272.562	56.49
272.777	87.21
272.993	27.82
273.209	29.87
273.425	66.73
273.64	5.29
273.856	109.74
274.072	38.06
274.287	95.4
274.503	52.39
274.719	70.83
274.934	7.34
275.15	-23.38
275.366	-2.9
275.581	29.87
275.797	62.63
276.012	29.87
276.228	66.73
276.444	87.21
276.659	42.15
276.875	-29.52
277.09	33.96
277.306	44.2
277.521	83.11
277.737	-13.14
277.952	60.59
278.168	17.58
278.383	-2.9
278.599	-35.67
278.814	52.39
279.03	52.39
279.245	74.92
279.461	33.96
279.676	44.2
279.892	-27.48
280.107	-60.24
280.322	60.59
280.538	85.16
280.753	25.77
280.969	54.44
281.184	21.67
281.399	27.82
281.615	79.02
281.83	103.59
282.045	11.43
282.26	48.3
282.476	72.87
282.691	54.44
282.906	111.78
283.122	-23.38
283.337	9.39
283.552	79.02
283.767	27.82
283.983	97.45
284.198	-7
284.413	15.53
284.628	58.54
284.843	-7
285.058	19.63
285.274	42.15
285.489	-17.24
285.704	46.25
285.919	91.31
286.134	70.83
286.349	95.4
286.564	13.48
286.779	56.49
286.995	31.91
287.21	-11.09
287.425	9.39
287.64	27.82
287.855	54.44
288.07	-31.57
288.285	58.54
288.5	191.66
288.715	-50
288.93	87.21
289.145	105.64
289.36	140.46
289.575	19.63
289.79	38.06
290.004	29.87
290.219	21.67
290.434	29.87
290.649	21.67
290.864	21.67
291.079	29.87
291.294	79.02
291.509	60.59
291.724	79.02
291.938	-19.29
292.153	52.39
292.368	19.63
292.583	25.77
292.798	138.41
293.012	42.15
293.227	44.2
293.442	13.48
293.657	87.21
293.871	124.07
294.086	-17.24
294.301	83.11
294.516	83.11
294.73	64.68
294.945	-45.91
295.16	38.06
295.374	48.3
295.589	99.5
295.804	33.96
296.018	70.83
296.233	117.93
296.447	83.11
296.662	58.54
296.877	119.98
297.091	3.24
297.306	76.97
297.52	70.83
297.735	70.83
297.949	-19.29
298.164	109.74
298.378	83.11
298.593	1.19
298.807	-9.05
299.022	31.91
299.236	99.5
299.451	50.35
299.665	29.87
299.88	-2.9
300.094	91.31
300.309	42.15
300.523	60.59
300.737	-9.05
300.952	-4.95
301.166	79.02
301.381	11.43
301.595	-15.19
301.809	111.78
302.024	36.01
302.238	-29.52
302.452	107.69
302.667	-23.38
302.881	74.92
303.095	21.67
303.309	64.68
303.524	38.06
303.738	79.02
303.952	83.11
304.166	62.63
304.381	5.29
304.595	103.59
304.809	36.01
305.023	46.25
305.237	36.01
305.452	79.02
305.666	97.45
305.88	70.83
306.094	91.31
306.308	81.07
306.522	111.78
306.736	42.15
306.95	11.43
307.164	46.25
307.379	50.35
307.593	21.67
307.807	36.01
308.021	99.5
308.235	29.87
308.449	38.06
308.663	-35.67
308.877	58.54
309.091	-9.05
309.305	99.5
309.519	-13.14
309.733	81.07
309.947	29.87
310.161	56.49
310.374	-39.76
310.588	48.3
310.802	23.72
311.016	29.87
311.23	60.59
311.444	25.77
311.658	23.72
311.872	152.74
312.085	29.87
312.299	79.02
312.513	58.54
312.727	31.91
312.941	52.39
313.154	111.78
313.368	119.98
313.582	-11.09
313.796	-15.19
314.009	44.2
314.223	72.87
314.437	27.82
314.651	97.45
314.864	15.53
315.078	-15.19
315.292	-33.62
315.505	-19.29
315.719	109.74
315.933	-2.9
316.146	93.35
316.36	111.78
316.573	76.97
316.787	54.44
317.001	115.88
317.214	7.34
317.428	25.77
317.641	-47.96
317.855	56.49
318.068	62.63
318.282	38.06
318.495	107.69
318.709	50.35
318.922	46.25
319.136	124.07
319.349	103.59
319.563	13.48
319.776	5.29
319.99	-2.9
320.203	3.24
320.417	-9.05
320.63	85.16
320.843	119.98
321.057	126.12
321.27	36.01
321.483	74.92
321.697	29.87
321.91	76.97
322.124	21.67
322.337	38.06
322.55	31.91
322.763	117.93
322.977	15.53
323.19	-15.19
323.403	58.54
323.617	46.25
323.83	195.75
324.043	-43.86
324.256	99.5
324.469	11.43
324.683	62.63
324.896	60.59
325.109	72.87
325.322	87.21
325.535	89.26
325.748	70.83
325.962	5.29
326.175	44.2
326.388	-2.9
326.601	103.59
326.814	-21.33
327.027	54.44
327.24	33.96
327.453	-4.95
327.666	19.63
327.879	48.3
328.092	74.92
328.305	76.97
328.518	-2.9
328.731	-13.14
328.944	60.59
329.157	33.96
329.37	36.01
329.583	79.02
329.796	169.13
330.009	40.11
330.222	72.87
330.435	68.78
330.648	42.15
330.861	15.53
331.073	95.4
331.286	-21.33
331.499	54.44
331.712	48.3
331.925	19.63
332.138	-4.95
332.35	17.58
332.563	3.24
332.776	93.35
332.989	58.54
333.202	-11.09
333.414	-4.95
333.627	111.78
333.84	66.73
334.053	36.01
334.265	-37.72
334.478	36.01
334.691	52.39
334.903	36.01
335.116	-4.95
335.329	9.39
335.541	111.78
335.754	60.59
335.966	21.67
336.179	58.54
336.392	38.06
336.604	21.67
336.817	52.39
337.029	21.67
337.242	-13.14
337.454	119.98
337.667	3.24
337.88	48.3
338.092	70.83
338.305	99.5
338.517	76.97
338.729	70.83
338.942	99.5
339.154	5.29
339.367	-7
339.579	62.63
339.792	44.2
340.004	19.63
340.217	79.02
340.429	-11.09
340.641	-13.14
340.854	-41.81
341.066	-19.29
341.278	52.39
341.491	23.72
341.703	9.39
341.915	52.39
342.128	44.2
342.34	79.02
342.552	31.91
342.764	79.02
342.977	66.73
343.189	103.59
343.401	46.25
343.613	17.58
343.826	29.87
344.038	50.35
344.25	11.43
344.462	5.29
344.674	54.44
344.886	95.4
345.099	66.73
345.311	60.59
345.523	52.39
345.735	-43.86
345.947	68.78
346.159	64.68
346.371	9.39
346.583	21.67
346.795	136.36
347.007	76.97
347.219	40.11
347.431	60.59
347.643	54.44
347.855	-7
348.067	128.17
348.279	13.48
348.491	91.31
348.703	-4.95
348.915	-29.52
349.127	95.4
349.339	46.25
349.551	-52.05
349.763	58.54
349.975	70.83
350.187	79.02
350.399	85.16
350.61	91.31
350.822	70.83
351.034	1.19
351.246	87.21
351.458	48.3
351.669	62.63
351.881	117.93
352.093	111.78
352.305	60.59
352.517	60.59
352.728	87.21
352.94	52.39
353.152	68.78
353.363	38.06
353.575	107.69
353.787	66.73
353.999	70.83
354.21	103.59
354.422	46.25
354.633	31.91
354.845	115.88
355.057	46.25
355.268	62.63
355.48	23.72
355.692	-2.9
355.903	89.26
356.115	44.2
356.326	1.19
356.538	48.3
356.749	93.35
356.961	38.06
357.172	42.15
357.384	21.67
357.595	138.41
357.807	85.16
358.018	40.11
358.23	87.21
358.441	126.12
358.653	60.59
358.864	111.78
359.075	36.01
359.287	50.35
359.498	62.63
359.709	42.15
359.921	62.63
360.132	31.91
360.344	126.12
360.555	23.72
360.766	72.87
360.977	109.74
361.189	50.35
361.4	-2.9
361.611	25.77
361.823	42.15
362.034	44.2
362.245	48.3
362.456	99.5
362.667	62.63
362.879	33.96
363.09	27.82
363.301	27.82
363.512	138.41
363.723	-31.57
363.935	83.11
364.146	152.74
364.357	79.02
364.568	74.92
364.779	-56.15
364.99	148.65
365.201	13.48
365.412	54.44
365.623	44.2
365.834	95.4
366.045	54.44
366.256	54.44
366.467	68.78
366.678	21.67
366.889	42.15
367.1	52.39
367.311	74.92
367.522	46.25
367.733	44.2
367.944	119.98
368.155	87.21
368.366	36.01
368.577	113.83
368.788	142.5
368.999	-52.05
369.209	19.63
369.42	103.59
369.631	107.69
369.842	128.17
370.053	38.06
370.264	40.11
370.474	68.78
370.685	54.44
370.896	38.06
371.107	79.02
371.317	38.06
371.528	-2.9
371.739	134.31
371.95	72.87
372.16	87.21
372.371	38.06
372.582	29.87
372.792	93.35
373.003	58.54
373.214	107.69
373.424	74.92
373.635	91.31
373.846	103.59
374.056	52.39
374.267	-7
374.477	42.15
374.688	87.21
374.898	83.11
375.109	87.21
375.319	62.63
375.53	95.4
375.74	29.87
375.951	62.63
376.161	62.63
376.372	64.68
376.582	42.15
376.793	89.26
377.003	48.3
377.214	-31.57
377.424	117.93
377.635	29.87
377.845	83.11
378.055	70.83
378.266	111.78
378.476	62.63
378.686	136.36
378.897	91.31
379.107	70.83
379.317	27.82
379.528	33.96
379.738	70.83
379.948	46.25
380.158	152.74
380.369	42.15
380.579	27.82
380.789	52.39
380.999	124.07
381.21	76.97
381.42	91.31
381.63	93.35
381.84	29.87
382.05	-15.19
382.261	132.26
382.471	66.73
382.681	97.45
382.891	36.01
383.101	83.11
383.311	103.59
383.521	13.48
383.731	136.36
383.941	87.21
384.151	23.72
384.361	136.36
384.571	87.21
384.781	62.63
384.991	124.07
385.201	134.31
385.411	101.55
385.621	70.83
385.831	62.63
386.041	50.35
386.251	13.48
386.461	89.26
386.671	11.43
386.881	117.93
387.091	144.55
387.301	27.82
387.511	101.55
387.72	70.83
387.93	70.83
388.14	-19.29
388.35	42.15
388.56	156.84
388.769	85.16
388.979	138.41
389.189	46.25
389.399	136.36
389.609	144.55
389.818	58.54
390.028	70.83
390.238	148.65
390.447	13.48
390.657	46.25
390.867	130.22
391.076	27.82
391.286	54.44
391.496	56.49
391.705	64.68
391.915	111.78
392.125	72.87
392.334	156.84
392.544	85.16
392.753	17.58
392.963	99.5
393.172	136.36
393.382	101.55
393.591	181.42
393.801	99.5
394.01	119.98
394.22	115.88
394.429	62.63
394.639	68.78
394.848	193.7
395.058	85.16
395.267	62.63
395.477	119.98
395.686	74.92
395.895	169.13
396.105	173.22
396.314	191.66
396.524	154.79
396.733	136.36
396.942	36.01
397.152	136.36
397.361	62.63
397.57	177.32
397.78	91.31
397.989	70.83
398.198	214.18
398.407	119.98
398.617	126.12
398.826	74.92
399.035	148.65
399.244	36.01
399.453	169.13
399.663	85.16
399.872	134.31
400.081	70.83
400.29	148.65
400.499	103.59
400.708	142.5
400.917	167.08
401.127	132.26
401.336	70.83
401.545	156.84
401.754	152.74
401.963	150.7
402.172	183.46
402.381	165.03
402.59	173.22
402.799	136.36
403.008	224.42
403.217	158.89
403.426	162.98
403.635	146.6
403.844	199.85
404.053	128.17
404.262	144.55
404.471	267.43
404.68	83.11
404.888	56.49
405.097	158.89
405.306	193.7
405.515	134.31
405.724	152.74
405.933	234.66
406.142	265.38
406.35	152.74
406.559	187.56
406.768	249
406.977	253.09
407.185	265.38
407.394	199.85
407.603	197.8
407.812	232.62
408.02	257.19
408.229	242.85
408.438	308.39
408.646	261.29
408.855	226.47
409.064	312.49
409.272	269.48
409.481	349.35
409.69	292.01
409.898	255.14
410.107	308.39
410.315	371.88
410.524	283.81
410.733	382.12
410.941	320.68
411.15	371.88
411.358	404.64
411.567	472.23
411.775	443.56
411.984	490.66
412.192	470.18
412.401	502.95
412.609	488.61
412.818	578.72
413.026	595.11
413.234	595.11
413.443	627.87
413.651	595.11
413.86	623.78
414.068	697.5
414.276	660.64
414.485	619.68
414.693	750.75
414.901	793.76
415.11	808.09
415.318	857.25
415.526	902.3
415.734	754.85
415.943	896.16
416.151	894.11
416.359	980.12
416.567	945.31
416.776	939.16
416.984	1021.08
417.192	1141.91
417.4	1129.63
417.608	1086.62
417.817	1182.87
418.025	1182.87
418.233	1270.94
418.441	1281.18
418.649	1352.85
418.857	1381.53
419.065	1477.78
419.273	1397.91
419.481	1551.51
419.689	1645.71
419.897	1713.3
420.105	1627.28
420.313	1688.72
420.521	1698.96
420.729	1723.54
420.937	1922.19
421.145	1885.33
421.353	2069.64
421.561	2096.27
421.769	2124.94
421.977	2290.82
422.185	2215.05
422.393	2348.17
422.601	2370.69
422.809	2448.52
423.017	2528.39
423.224	2700.42
423.432	2724.99
423.64	2749.57
423.848	2962.56
424.056	2870.4
424.263	3241.08
424.471	3208.31
424.679	3196.03
424.887	3400.82
425.094	3437.69
425.302	3617.91
425.51	3730.55
425.718	3679.35
425.925	3794.03
426.133	3943.53
426.341	4252.78
426.548	4383.85
426.756	4220.01
426.964	4416.62
427.171	4645.99
427.379	4844.64
427.586	4928.61
427.794	4953.18
428.001	5141.6
428.209	5346.39
428.417	5280.86
428.624	5712.98
428.832	5657.68
429.039	5743.7
429.247	5856.34
429.454	6374.47
429.662	6599.75
429.869	6460.49
430.076	6734.92
430.284	6556.74
430.491	6861.89
430.699	7138.37
430.906	7171.13
431.114	7234.62
431.321	7500.86
431.528	7713.84
431.736	7881.78
431.943	8498.22
432.15	8442.92
432.358	8418.35
432.565	8864.8
432.772	8852.52
432.979	9477.15
433.187	9534.49
433.394	9442.33
433.601	10128.4
433.808	10077.2
434.016	10173.46
434.223	10646.54
434.43	11256.83
434.637	11109.38
434.844	11570.17
435.052	11883.51
435.259	11789.3
435.466	11877.37
435.673	11811.83
435.88	12489.71
436.087	13333.47
436.294	13188.07
436.501	12854.25
436.708	13126.63
436.915	13622.23
437.122	14586.83
437.329	14367.7
437.537	14701.51
437.743	14986.18
437.95	14824.39
438.157	15651.77
438.364	16063.41
438.571	15893.43
438.778	16192.44
438.985	17621.92
439.192	17052.58
439.399	17468.32
439.606	17322.91
439.813	18176.92
440.02	19202.95
440.227	18697.1
440.433	18523.02
440.64	19217.29
440.847	19217.29
441.054	19657.6
441.261	20783.98
441.467	20652.91
441.674	20972.39
441.881	21826.4
442.088	21869.4
442.294	21457.76
442.501	22463.32
442.708	22844.24
442.914	23532.36
443.121	24595.25
443.328	24107.83
443.534	25631.52
443.741	24996.65
443.948	24537.91
444.154	26643.22
444.361	26127.13
444.568	26372.89
444.774	26651.41
444.981	26340.12
445.187	27607.81
445.394	28506.87
445.6	28345.08
445.807	31048.4
446.013	29823.72
446.22	30233.31
446.426	31498.95
446.633	32025.28
446.839	32793.27
447.046	31611.59
447.252	32901.81
447.459	33036.98
447.665	33127.09
447.871	34634.39
448.078	35877.51
448.284	34579.1
448.491	34996.88
448.697	36268.67
448.903	37184.12
449.11	37386.86
449.316	36403.84
449.522	37130.87
449.728	38232.68
449.935	38453.86
450.141	38648.41
450.347	39725.64
450.553	37724.78
450.76	38961.75
450.966	39854.67
451.172	39381.59
451.378	40178.25
451.584	39750.22
451.791	40301.12
451.997	40286.79
452.203	40653.37
452.409	40589.89
452.615	40892.99
452.821	38697.56
453.027	38861.4
453.233	40608.32
453.44	38992.47
453.646	39307.86
453.852	39713.36
454.058	40366.66
454.264	39248.47
454.47	39748.17
454.676	38761.05
454.882	40120.9
455.088	36553.34
455.294	37169.78
455.5	37620.33
455.705	37718.64
455.911	36389.5
456.117	35584.65
456.323	35130
456.529	33579.69
456.735	34620.06
456.941	33919.65
457.147	33587.88
457.352	32490.17
457.558	31507.15
457.764	31832.77
457.97	31138.51
458.176	30653.14
458.381	30419.67
458.587	29555.43
458.793	29225.71
458.999	27532.04
459.204	29557.48
459.41	28850.93
459.616	26477.33
459.821	27179.79
460.027	26899.22
460.233	26116.89
460.438	25027.37
460.644	25123.63
460.85	24214.33
461.055	23845.69
461.261	23647.04
461.466	21904.22
461.672	21078.89
461.878	22850.38
462.083	21166.95
462.289	20636.53
462.494	20665.2
462.7	19547.01
462.905	19016.58
463.111	19864.44
463.316	19837.82
463.522	19430.27
463.727	19323.78
463.932	19407.75
464.138	19043.21
464.343	19454.85
464.549	18697.1
464.754	19258.24
464.959	19118.98
465.165	18836.36
465.37	18213.78
465.575	17777.56
465.781	18619.28
465.986	18578.32
466.191	17935.26
466.397	17662.88
