Data from USB4F104151__75__11-31-37-504.txt Node

Date: Fri Mar 14 11:31:37 EDT 2025
User: louis
Spectrometer: USB4F10415
Trigger mode: 4
Integration Time (sec): 5.000000E-2
Scans to average: 1
Electric dark correction enabled: true
Nonlinearity correction enabled: false
Boxcar width: 0
XAxis mode: Wavelengths
Number of Pixels in Spectrum: 3648
>>>>>Begin Spectral Data<<<<<
178.204	-180.22
178.424	-180.22
178.644	-180.22
178.864	-147.45
179.084	-143.36
179.304	26.62
179.524	-61.44
179.744	-6.14
179.964	8.19
180.184	12.29
180.404	18.43
180.624	24.58
180.844	36.86
181.064	-28.67
181.283	-20.48
181.503	-38.91
181.723	28.67
181.943	-38.91
182.163	106.49
182.383	12.29
182.602	-30.72
182.822	59.39
183.042	-30.72
183.262	-38.91
183.482	-90.11
183.701	30.72
183.921	-20.48
184.141	-36.86
184.361	22.53
184.58	38.91
184.8	34.82
185.02	2.05
185.239	49.15
185.459	26.62
185.679	26.62
185.898	28.67
186.118	-6.14
186.338	40.96
186.557	-8.19
186.777	-47.1
186.997	-4.1
187.216	-14.34
187.436	122.88
187.655	0
187.875	-16.38
188.095	-6.14
188.314	51.2
188.534	49.15
188.753	69.63
188.973	18.43
189.192	118.78
189.412	-28.67
189.631	90.11
189.851	0
190.07	8.19
190.29	-22.53
190.509	-4.1
190.729	53.25
190.948	77.82
191.168	176.13
191.387	20.48
191.607	-12.29
191.826	38.91
192.045	22.53
192.265	59.39
192.484	-28.67
192.704	71.68
192.923	-36.86
193.142	131.07
193.362	94.21
193.581	98.3
193.8	92.16
194.02	20.48
194.239	57.34
194.458	-30.72
194.678	-4.1
194.897	90.11
195.116	36.86
195.335	45.06
195.555	-12.29
195.774	8.19
195.993	43.01
196.212	-30.72
196.432	12.29
196.651	2.05
196.87	-20.48
197.089	116.73
197.308	49.15
197.528	86.01
197.747	57.34
197.966	86.01
198.185	40.96
198.404	20.48
198.623	18.43
198.842	69.63
199.062	100.35
199.281	110.59
199.5	-36.86
199.719	12.29
199.938	-8.19
200.157	0
200.376	61.44
200.595	81.92
200.814	12.29
201.033	0
201.252	94.21
201.471	36.86
201.69	67.58
201.909	61.44
202.128	34.82
202.347	83.97
202.566	100.35
202.785	24.58
203.004	4.1
203.223	67.58
203.442	4.1
203.661	-2.05
203.879	-30.72
204.098	-28.67
204.317	20.48
204.536	49.15
204.755	133.12
204.974	32.77
205.193	43.01
205.411	96.25
205.63	63.49
205.849	-12.29
206.068	53.25
206.287	0
206.505	12.29
206.724	61.44
206.943	0
207.162	69.63
207.381	12.29
207.599	22.53
207.818	75.77
208.037	24.58
208.255	-34.82
208.474	59.39
208.693	69.63
208.911	18.43
209.13	-14.34
209.349	83.97
209.567	-6.14
209.786	79.87
210.005	94.21
210.223	-38.91
210.442	18.43
210.661	4.1
210.879	16.38
211.098	-12.29
211.316	-14.34
211.535	43.01
211.753	-20.48
211.972	53.25
212.191	16.38
212.409	28.67
212.628	49.15
212.846	-12.29
213.065	55.3
213.283	10.24
213.502	-36.86
213.72	-12.29
213.938	40.96
214.157	4.1
214.375	-20.48
214.594	43.01
214.812	36.86
215.031	-40.96
215.249	77.82
215.467	-4.1
215.686	26.62
215.904	129.02
216.122	4.1
216.341	16.38
216.559	36.86
216.778	94.21
216.996	28.67
217.214	18.43
217.432	-24.58
217.651	-18.43
217.869	43.01
218.087	10.24
218.306	12.29
218.524	49.15
218.742	102.4
218.96	71.68
219.179	-24.58
219.397	16.38
219.615	77.82
219.833	12.29
220.051	-69.63
220.27	69.63
220.488	2.05
220.706	28.67
220.924	-12.29
221.142	38.91
221.36	30.72
221.578	-38.91
221.796	100.35
222.015	96.25
222.233	16.38
222.451	124.93
222.669	20.48
222.887	26.62
223.105	-12.29
223.323	83.97
223.541	-40.96
223.759	28.67
223.977	-32.77
224.195	67.58
224.413	149.5
224.631	10.24
224.849	45.06
225.067	83.97
225.285	-26.62
225.503	51.2
225.721	-40.96
225.939	18.43
226.157	20.48
226.375	22.53
226.592	45.06
226.81	57.34
227.028	20.48
227.246	122.88
227.464	22.53
227.682	30.72
227.9	92.16
228.117	45.06
228.335	-8.19
228.553	81.92
228.771	-28.67
228.989	-61.44
229.206	45.06
229.424	26.62
229.642	12.29
229.86	-57.34
230.077	32.77
230.295	51.2
230.513	43.01
230.731	18.43
230.948	43.01
231.166	81.92
231.384	43.01
231.601	-49.15
231.819	141.31
232.037	-49.15
232.254	-16.38
232.472	-12.29
232.689	4.1
232.907	77.82
233.125	36.86
233.342	20.48
233.56	-69.63
233.777	-49.15
233.995	-38.91
234.213	88.06
234.43	53.25
234.648	69.63
234.865	53.25
235.083	-10.24
235.3	4.1
235.518	61.44
235.735	65.54
235.953	8.19
236.17	28.67
236.388	69.63
236.605	36.86
236.822	69.63
237.04	100.35
237.257	-26.62
237.475	-57.34
237.692	88.06
237.909	106.49
238.127	-45.06
238.344	12.29
238.562	102.4
238.779	-30.72
238.996	45.06
239.214	12.29
239.431	77.82
239.648	43.01
239.865	94.21
240.083	77.82
240.3	16.38
240.517	43.01
240.735	67.58
240.952	12.29
241.169	106.49
241.386	51.2
241.603	4.1
241.821	-28.67
242.038	81.92
242.255	-16.38
242.472	-63.49
242.689	75.77
242.907	2.05
243.124	86.01
243.341	6.14
243.558	6.14
243.775	16.38
243.992	-8.19
244.209	75.77
244.426	112.64
244.643	32.77
244.86	-8.19
245.078	67.58
245.295	24.58
245.512	34.82
245.729	24.58
245.946	77.82
246.163	14.34
246.38	32.77
246.597	-10.24
246.814	4.1
247.031	-28.67
247.248	18.43
247.464	114.69
247.681	67.58
247.898	-4.1
248.115	40.96
248.332	10.24
248.549	69.63
248.766	86.01
248.983	67.58
249.2	-36.86
249.417	38.91
249.633	-34.82
249.85	10.24
250.067	-49.15
250.284	40.96
250.501	86.01
250.717	10.24
250.934	6.14
251.151	53.25
251.368	12.29
251.585	73.73
251.801	4.1
252.018	-26.62
252.235	18.43
252.451	-77.82
252.668	16.38
252.885	43.01
253.102	-65.53
253.318	53.25
253.535	90.11
253.752	-18.43
253.968	-32.77
254.185	2.05
254.401	22.53
254.618	81.92
254.835	36.86
255.051	38.91
255.268	61.44
255.484	28.67
255.701	45.06
255.917	57.34
256.134	-71.68
256.351	6.14
256.567	-102.4
256.784	65.54
257	-20.48
257.217	61.44
257.433	53.25
257.65	79.87
257.866	141.31
258.082	61.44
258.299	-12.29
258.515	-4.1
258.732	-4.1
258.948	18.43
259.165	45.06
259.381	-36.86
259.597	59.39
259.814	-14.34
260.03	57.34
260.246	-24.58
260.463	10.24
260.679	69.63
260.895	-4.1
261.112	26.62
261.328	16.38
261.544	-32.77
261.761	79.87
261.977	-10.24
262.193	-4.1
262.409	108.54
262.626	-20.48
262.842	4.1
263.058	65.54
263.274	77.82
263.49	20.48
263.707	24.58
263.923	16.38
264.139	-65.53
264.355	122.88
264.571	-26.62
264.787	-4.1
265.004	53.25
265.22	43.01
265.436	20.48
265.652	65.54
265.868	145.41
266.084	-10.24
266.3	-45.06
266.516	-36.86
266.732	20.48
266.948	83.97
267.164	47.1
267.38	47.1
267.596	67.58
267.812	143.36
268.028	34.82
268.244	16.38
268.46	98.3
268.676	-8.19
268.892	86.01
269.108	-81.92
269.324	32.77
269.54	12.29
269.756	4.1
269.972	22.53
270.188	49.15
270.403	-4.1
270.619	-16.38
270.835	6.14
271.051	57.34
271.267	-36.86
271.483	12.29
271.698	92.16
271.914	12.29
272.13	36.86
272.346	24.58
272.562	45.06
272.777	57.34
272.993	51.2
273.209	12.29
273.425	45.06
273.64	32.77
273.856	135.17
274.072	40.96
274.287	12.29
274.503	6.14
274.719	135.17
274.934	-10.24
275.15	40.96
275.366	90.11
275.581	59.39
275.797	53.25
276.012	-36.86
276.228	-24.58
276.444	51.2
276.659	28.67
276.875	-18.43
277.09	28.67
277.306	-32.77
277.521	-8.19
277.737	22.53
277.952	92.16
278.168	59.39
278.383	51.2
278.599	26.62
278.814	-26.62
279.03	51.2
279.245	75.77
279.461	-12.29
279.676	69.63
279.892	-22.53
280.107	-71.68
280.322	49.15
280.538	67.58
280.753	-6.14
280.969	53.25
281.184	-4.1
281.399	124.93
281.615	-12.29
281.83	43.01
282.045	-6.14
282.26	28.67
282.476	-22.53
282.691	83.97
282.906	83.97
283.122	-38.91
283.337	-43.01
283.552	86.01
283.767	45.06
283.983	43.01
284.198	-61.44
284.413	49.15
284.628	-106.49
284.843	75.77
285.058	61.44
285.274	20.48
285.489	4.1
285.704	53.25
285.919	83.97
286.134	20.48
286.349	-47.1
286.564	49.15
286.779	77.82
286.995	-12.29
287.21	63.49
287.425	36.86
287.64	26.62
287.855	100.35
288.07	0
288.285	-10.24
288.5	55.3
288.715	20.48
288.93	86.01
289.145	-32.77
289.36	24.58
289.575	-57.34
289.79	-2.05
290.004	28.67
290.219	51.2
290.434	22.53
290.649	14.34
290.864	49.15
291.079	6.14
291.294	-10.24
291.509	77.82
291.724	-45.06
291.938	6.14
292.153	-26.62
292.368	-6.14
292.583	-28.67
292.798	57.34
293.012	-49.15
293.227	69.63
293.442	26.62
293.657	61.44
293.871	16.38
294.086	20.48
294.301	75.77
294.516	59.39
294.73	28.67
294.945	-14.34
295.16	-6.14
295.374	8.19
295.589	4.1
295.804	-6.14
296.018	-20.48
296.233	28.67
296.447	28.67
296.662	10.24
296.877	16.38
297.091	20.48
297.306	55.3
297.52	-47.1
297.735	79.87
297.949	51.2
298.164	45.06
298.378	-26.62
298.593	16.38
298.807	32.77
299.022	77.82
299.236	69.63
299.451	28.67
299.665	-4.1
299.88	61.44
300.094	57.34
300.309	4.1
300.523	-2.05
300.737	-4.1
300.952	-12.29
301.166	92.16
301.381	32.77
301.595	18.43
301.809	0
302.024	4.1
302.238	16.38
302.452	-22.53
302.667	-28.67
302.881	10.24
303.095	16.38
303.309	-4.1
303.524	22.53
303.738	-4.1
303.952	-53.25
304.166	24.58
304.381	-14.34
304.595	92.16
304.809	53.25
305.023	36.86
305.237	26.62
305.452	24.58
305.666	-12.29
305.88	8.19
306.094	-4.1
306.308	47.1
306.522	53.25
306.736	38.91
306.95	63.49
307.164	-16.38
307.379	-12.29
307.593	100.35
307.807	26.62
308.021	122.88
308.235	28.67
308.449	-28.67
308.663	-6.14
308.877	124.93
309.091	16.38
309.305	59.39
309.519	-61.44
309.733	43.01
309.947	2.05
310.161	40.96
310.374	77.82
310.588	114.69
310.802	-45.06
311.016	-2.05
311.23	47.1
311.444	4.1
311.658	-45.06
311.872	49.15
312.085	77.82
312.299	94.21
312.513	92.16
312.727	102.4
312.941	-45.06
313.154	51.2
313.368	59.39
313.582	43.01
313.796	69.63
314.009	43.01
314.223	45.06
314.437	8.19
314.651	4.1
314.864	40.96
315.078	8.19
315.292	-26.62
315.505	-20.48
315.719	0
315.933	57.34
316.146	-61.44
316.36	-18.43
316.573	28.67
316.787	47.1
317.001	-2.05
317.214	26.62
317.428	45.06
317.641	0
317.855	34.82
318.068	47.1
318.282	53.25
318.495	53.25
318.709	-30.72
318.922	-40.96
319.136	86.01
319.349	34.82
319.563	28.67
319.776	38.91
319.99	-10.24
320.203	10.24
320.417	45.06
320.63	45.06
320.843	69.63
321.057	43.01
321.27	47.1
321.483	28.67
321.697	96.25
321.91	61.44
322.124	73.73
322.337	24.58
322.55	-16.38
322.763	-14.34
322.977	65.54
323.19	112.64
323.403	14.34
323.617	-16.38
323.83	126.97
324.043	32.77
324.256	32.77
324.469	-71.68
324.683	-12.29
324.896	61.44
325.109	22.53
325.322	-8.19
325.535	118.78
325.748	28.67
325.962	20.48
326.175	-12.29
326.388	57.34
326.601	45.06
326.814	86.01
327.027	16.38
327.24	45.06
327.453	-30.72
327.666	-4.1
327.879	49.15
328.092	26.62
328.305	8.19
328.518	40.96
328.731	-8.19
328.944	24.58
329.157	10.24
329.37	8.19
329.583	126.97
329.796	28.67
330.009	-38.91
330.222	88.06
330.435	-43.01
330.648	40.96
330.861	-2.05
331.073	34.82
331.286	61.44
331.499	45.06
331.712	-57.34
331.925	10.24
332.138	43.01
332.35	83.97
332.563	-2.05
332.776	98.3
332.989	61.44
333.202	26.62
333.414	-6.14
333.627	57.34
333.84	43.01
334.053	59.39
334.265	-36.86
334.478	-6.14
334.691	4.1
334.903	32.77
335.116	20.48
335.329	-65.53
335.541	40.96
335.754	106.49
335.966	14.34
336.179	57.34
336.392	0
336.604	53.25
336.817	79.87
337.029	36.86
337.242	28.67
337.454	14.34
337.667	67.58
337.88	0
338.092	69.63
338.305	40.96
338.517	12.29
338.729	28.67
338.942	55.3
339.154	-8.19
339.367	34.82
339.579	36.86
339.792	0
340.004	110.59
340.217	49.15
340.429	61.44
340.641	28.67
340.854	-65.53
341.066	-63.49
341.278	102.4
341.491	36.86
341.703	34.82
341.915	-14.34
342.128	118.78
342.34	22.53
342.552	10.24
342.764	65.54
342.977	51.2
343.189	12.29
343.401	0
343.613	-20.48
343.826	28.67
344.038	49.15
344.25	36.86
344.462	75.77
344.674	2.05
344.886	28.67
345.099	-4.1
345.311	12.29
345.523	-2.05
345.735	-14.34
345.947	22.53
346.159	-51.2
346.371	20.48
346.583	-6.14
346.795	86.01
347.007	-30.72
347.219	67.58
347.431	-4.1
347.643	26.62
347.855	2.05
348.067	86.01
348.279	34.82
348.491	108.54
348.703	26.62
348.915	83.97
349.127	6.14
349.339	34.82
349.551	61.44
349.763	45.06
349.975	49.15
350.187	55.3
350.399	10.24
350.61	108.54
350.822	45.06
351.034	-4.1
351.246	6.14
351.458	43.01
351.669	49.15
351.881	139.26
352.093	114.69
352.305	69.63
352.517	12.29
352.728	69.63
352.94	24.58
353.152	-16.38
353.363	22.53
353.575	57.34
353.787	49.15
353.999	38.91
354.21	100.35
354.422	-16.38
354.633	4.1
354.845	14.34
355.057	61.44
355.268	12.29
355.48	49.15
355.692	0
355.903	18.43
356.115	-22.53
356.326	47.1
356.538	36.86
356.749	-36.86
356.961	40.96
357.172	-36.86
357.384	-30.72
357.595	77.82
357.807	-49.15
358.018	-49.15
358.23	59.39
358.441	90.11
358.653	61.44
358.864	45.06
359.075	53.25
359.287	98.3
359.498	61.44
359.709	4.1
359.921	-40.96
360.132	-6.14
360.344	75.77
360.555	18.43
360.766	24.58
360.977	26.62
361.189	69.63
361.4	28.67
361.611	36.86
361.823	57.34
362.034	83.97
362.245	-32.77
362.456	47.1
362.667	22.53
362.879	59.39
363.09	94.21
363.301	45.06
363.512	34.82
363.723	45.06
363.935	2.05
364.146	49.15
364.357	43.01
364.568	40.96
364.779	-14.34
364.99	71.68
365.201	-67.58
365.412	28.67
365.623	8.19
365.834	69.63
366.045	86.01
366.256	38.91
366.467	12.29
366.678	71.68
366.889	-53.25
367.1	63.49
367.311	77.82
367.522	10.24
367.733	61.44
367.944	67.58
368.155	12.29
368.366	61.44
368.577	86.01
368.788	110.59
368.999	-81.92
369.209	67.58
369.42	92.16
369.631	45.06
369.842	96.25
370.053	-8.19
370.264	10.24
370.474	22.53
370.685	-4.1
370.896	73.73
371.107	114.69
371.317	36.86
371.528	-12.29
371.739	28.67
371.95	43.01
372.16	38.91
372.371	-53.25
372.582	57.34
372.792	24.58
373.003	-38.91
373.214	28.67
373.424	67.58
373.635	45.06
373.846	88.06
374.056	73.73
374.267	49.15
374.477	43.01
374.688	40.96
374.898	86.01
375.109	-47.1
375.319	18.43
375.53	45.06
375.74	-53.25
375.951	-8.19
376.161	-53.25
376.372	129.02
376.582	8.19
376.793	-28.67
377.003	-18.43
377.214	-36.86
377.424	8.19
377.635	139.26
377.845	-69.63
378.055	34.82
378.266	-34.82
378.476	30.72
378.686	43.01
378.897	28.67
379.107	75.77
379.317	12.29
379.528	32.77
379.738	63.49
379.948	57.34
380.158	57.34
380.369	51.2
380.579	98.3
380.789	-8.19
380.999	108.54
381.21	-6.14
381.42	69.63
381.63	63.49
381.84	94.21
382.05	61.44
382.261	86.01
382.471	38.91
382.681	20.48
382.891	-12.29
383.101	51.2
383.311	-12.29
383.521	36.86
383.731	40.96
383.941	61.44
384.151	4.1
384.361	49.15
384.571	133.12
384.781	18.43
384.991	18.43
385.201	81.92
385.411	98.3
385.621	45.06
385.831	63.49
386.041	45.06
386.251	-32.77
386.461	22.53
386.671	14.34
386.881	61.44
387.091	36.86
387.301	65.54
387.511	-24.58
387.72	36.86
387.93	-12.29
388.14	-12.29
388.35	51.2
388.56	34.82
388.769	108.54
388.979	-20.48
389.189	-20.48
389.399	-6.14
389.609	106.49
389.818	57.34
390.028	69.63
390.238	96.25
390.447	10.24
390.657	67.58
390.867	12.29
391.076	57.34
391.286	81.92
391.496	88.06
391.705	49.15
391.915	18.43
392.125	83.97
392.334	12.29
392.544	51.2
392.753	43.01
392.963	-20.48
393.172	55.3
393.382	12.29
393.591	110.59
393.801	53.25
394.01	184.32
394.22	108.54
394.429	14.34
394.639	69.63
394.848	55.3
395.058	90.11
395.267	28.67
395.477	-2.05
395.686	102.4
395.895	114.69
396.105	141.31
396.314	147.45
396.524	96.25
396.733	65.54
396.942	65.54
397.152	116.73
397.361	122.88
397.57	-10.24
397.78	69.63
397.989	135.17
398.198	167.93
398.407	57.34
398.617	71.68
398.826	81.92
399.035	92.16
399.244	114.69
399.453	43.01
399.663	126.97
399.872	147.45
400.081	51.2
400.29	26.62
400.499	51.2
400.708	122.88
400.917	141.31
401.127	53.25
401.336	69.63
401.545	129.02
401.754	106.49
401.963	110.59
402.172	131.07
402.381	81.92
402.59	65.54
402.799	69.63
403.008	153.6
403.217	118.78
403.426	116.73
403.635	38.91
403.844	163.84
404.053	161.79
404.262	118.78
404.471	141.31
404.68	135.17
404.888	118.78
405.097	92.16
405.306	227.32
405.515	139.26
405.724	190.46
405.933	106.49
406.142	155.65
406.35	208.89
406.559	176.13
406.768	200.7
406.977	159.74
407.185	174.08
407.394	172.03
407.603	100.35
407.812	200.7
408.02	235.52
408.229	241.66
408.438	139.26
408.646	129.02
408.855	223.23
409.064	196.61
409.272	251.9
409.481	169.98
409.69	253.95
409.898	245.76
410.107	268.28
410.315	251.9
410.524	249.85
410.733	258.04
410.941	247.8
411.15	315.39
411.358	290.81
411.567	370.68
411.775	274.43
411.984	380.92
412.192	274.43
412.401	374.78
412.609	395.26
412.818	360.44
413.026	495.61
413.234	339.96
413.443	393.21
413.651	335.87
413.86	446.46
414.068	489.46
414.276	528.38
414.485	385.02
414.693	479.22
414.901	632.82
415.11	509.94
415.318	514.04
415.526	632.82
415.734	561.14
415.943	585.72
416.151	716.79
416.359	671.73
416.567	585.72
416.776	722.93
416.984	802.8
417.192	835.57
417.4	724.98
417.608	761.84
417.817	802.8
418.025	802.8
418.233	870.39
418.441	763.89
418.649	925.68
418.857	944.11
419.065	1083.38
419.273	1011.7
419.481	1062.9
419.689	1034.22
419.897	1077.23
420.105	1118.19
420.313	1306.6
420.521	1302.51
420.729	1241.07
420.937	1277.93
421.145	1413.1
421.353	1404.91
421.561	1312.75
421.769	1544.17
421.977	1558.5
422.185	1535.98
422.393	1673.19
422.601	1716.2
422.809	1787.88
423.017	1775.59
423.224	1853.41
423.432	1978.34
423.64	1839.08
423.848	2056.16
424.056	2066.4
424.263	2222.05
424.471	2191.33
424.679	2258.91
424.887	2279.39
425.094	2428.89
425.302	2539.48
425.51	2652.12
425.718	2721.75
425.925	2650.07
426.133	2682.84
426.341	2994.13
426.548	3051.47
426.756	2959.31
426.964	3033.04
427.171	3143.63
427.379	3184.59
427.586	3336.14
427.794	3330
428.001	3631.05
428.209	3805.13
428.417	3690.44
428.624	4024.26
428.832	3944.39
429.039	3862.47
429.247	3868.61
429.454	4345.79
429.662	4558.78
429.869	4321.21
430.076	4511.68
430.284	4587.45
430.491	4779.96
430.699	4902.84
430.906	5005.24
431.114	4939.7
431.321	5228.46
431.528	5269.42
431.736	5664.68
431.943	6014.88
432.15	5732.26
432.358	5830.57
432.565	6109.09
432.772	6254.5
432.979	6469.53
433.187	6750.11
433.394	6713.24
433.601	6789.02
433.808	7083.92
434.016	7022.48
434.223	7106.45
434.43	7706.51
434.637	7720.84
434.844	7987.08
435.052	8343.42
435.259	7921.54
435.466	8306.56
435.673	8230.79
435.88	8691.58
436.087	9142.13
436.294	9183.09
436.501	8818.55
436.708	9035.64
436.915	9404.27
437.122	9715.56
437.329	9748.33
437.537	10162.02
437.743	10313.57
437.95	10174.31
438.157	10655.58
438.364	11251.54
438.571	10850.14
438.778	11247.44
438.985	12085.06
439.192	11618.13
439.399	11849.55
439.606	11712.33
439.813	12564.29
440.02	13418.29
440.227	12992.31
440.433	12906.3
440.64	13135.67
440.847	13016.89
441.054	13629.23
441.261	14280.49
441.467	14493.47
441.674	14581.54
441.881	14958.36
442.088	14792.48
442.294	15036.19
442.501	15372.05
442.708	15482.64
442.914	16080.65
443.121	17110.78
443.328	16336.65
443.534	17444.6
443.741	17149.69
443.948	17024.76
444.154	18030.32
444.361	17975.02
444.568	18005.74
444.774	18024.17
444.981	18179.82
445.187	18851.55
445.394	19547.86
445.6	19511
445.807	21278.4
446.013	20195.02
446.22	20747.97
446.426	21210.81
446.633	21661.37
446.839	22455.98
447.046	21446.33
447.252	22679.21
447.459	22744.74
447.665	22415.02
447.871	23629.46
448.078	24542.86
448.284	23445.15
448.491	24172.18
448.697	25081.47
448.903	25489.02
449.11	25415.29
449.316	25089.67
449.522	25243.26
449.728	25988.72
449.935	26416.75
450.141	26209.9
450.347	27082.34
450.553	26068.59
450.76	26148.47
450.966	27422.3
451.172	26928.74
451.378	27729.5
451.584	26812.01
451.791	27879
451.997	27702.87
452.203	27981.4
452.409	27983.44
452.615	27965.01
452.821	26898.02
453.027	26545.77
453.233	28212.82
453.44	26922.6
453.646	27528.8
453.852	27280.99
454.058	27635.29
454.264	26725.99
454.47	27745.88
454.676	26566.25
454.882	27698.78
455.088	25253.5
455.294	25630.33
455.5	25941.62
455.705	26508.91
455.911	25140.86
456.117	24708.74
456.323	24559.24
456.529	22996.64
456.735	23955.09
456.941	23305.88
457.147	22863.52
457.352	22566.57
457.558	22111.92
457.764	22206.13
457.97	21614.26
458.176	21038.78
458.381	21358.27
458.587	20186.83
458.793	20270.79
458.999	19072.73
459.204	20416.2
459.41	20102.86
459.616	18636.52
459.821	18450.15
460.027	18755.3
460.233	18130.67
460.438	17348.34
460.644	17299.19
460.85	16756.48
461.055	16271.11
461.261	16178.95
461.466	15083.29
461.672	14739.23
461.878	15838.99
462.083	14640.93
462.289	14262.05
462.494	14335.78
462.7	13463.35
462.905	13211.45
463.111	13862.7
463.316	13676.34
463.522	13424.44
463.727	13418.29
463.932	13203.25
464.138	13256.5
464.343	13291.32
464.549	13074.23
464.754	13375.28
464.959	13225.78
465.165	13215.54
465.37	12478.27
465.575	12230.47
465.781	12801.85
465.986	12865.34
466.191	12457.79
466.397	12228.42
466.602	11636.56
466.807	11972.43
467.012	11894.6
467.218	11878.22
467.423	11648.85
467.628	11775.82
