Data from USB4F104151__40__11-30-20-113.txt Node

Date: Fri Mar 14 11:30:20 EDT 2025
User: louis
Spectrometer: USB4F10415
Trigger mode: 4
Integration Time (sec): 5.000000E-2
Scans to average: 1
Electric dark correction enabled: true
Nonlinearity correction enabled: false
Boxcar width: 0
XAxis mode: Wavelengths
Number of Pixels in Spectrum: 3648
>>>>>Begin Spectral Data<<<<<
178.204	-148.14
178.424	-148.14
178.644	-148.14
178.864	-156.33
179.084	-127.66
179.304	-17.07
179.524	9.56
179.744	-12.97
179.964	-27.31
180.184	21.85
180.404	9.56
180.624	34.13
180.844	27.99
181.064	-15.02
181.283	19.8
181.503	-90.79
181.723	40.28
181.943	-92.84
182.163	36.18
182.383	19.8
182.602	81.24
182.822	60.76
183.042	81.24
183.262	-60.07
183.482	-74.41
183.701	-23.21
183.921	15.7
184.141	-53.93
184.361	95.57
184.58	15.7
184.8	-8.87
185.02	3.41
185.239	68.95
185.459	3.41
185.679	27.99
185.898	-74.41
186.118	27.99
186.338	-29.35
186.557	85.33
186.777	-4.78
186.997	-4.78
187.216	-33.45
187.436	66.9
187.655	75.09
187.875	93.52
188.095	21.85
188.314	134.48
188.534	107.86
188.753	-23.21
188.973	66.9
189.192	118.1
189.412	77.14
189.631	46.42
189.851	38.23
190.07	52.56
190.29	3.41
190.509	34.13
190.729	32.08
190.948	11.61
191.168	130.39
191.387	40.28
191.607	27.99
191.826	40.28
192.045	38.23
192.265	-15.02
192.484	17.75
192.704	-8.87
192.923	-4.78
193.142	99.67
193.362	56.66
193.581	7.51
193.8	81.24
194.02	60.76
194.239	7.51
194.458	58.71
194.678	13.65
194.897	-12.97
195.116	-0.68
195.335	62.8
195.555	11.61
195.774	9.56
195.993	11.61
196.212	1.37
196.432	36.18
196.651	9.56
196.87	25.94
197.089	71
197.308	60.76
197.528	9.56
197.747	-6.83
197.966	46.42
198.185	19.8
198.404	-8.87
198.623	60.76
198.842	56.66
199.062	50.52
199.281	87.38
199.5	-15.02
199.719	77.14
199.938	-35.5
200.157	60.76
200.376	27.99
200.595	13.65
200.814	-27.31
201.033	-29.35
201.252	-35.5
201.471	-8.87
201.69	32.08
201.909	11.61
202.128	11.61
202.347	60.76
202.566	-37.55
202.785	-37.55
203.004	52.56
203.223	36.18
203.442	60.76
203.661	19.8
203.879	-23.21
204.098	9.56
204.317	46.42
204.536	-19.11
204.755	27.99
204.974	36.18
205.193	85.33
205.411	58.71
205.63	15.7
205.849	27.99
206.068	-6.83
206.287	44.37
206.505	36.18
206.724	101.72
206.943	17.75
207.162	-25.26
207.381	36.18
207.599	77.14
207.818	36.18
208.037	-41.64
208.255	-33.45
208.474	38.23
208.693	23.89
208.911	-39.59
209.13	38.23
209.349	68.95
209.567	60.76
209.786	42.32
210.005	124.24
210.223	-12.97
210.442	-47.79
210.661	50.52
210.879	7.51
211.098	25.94
211.316	71
211.535	11.61
211.753	-37.55
211.972	85.33
212.191	44.37
212.409	44.37
212.628	15.7
212.846	-4.78
213.065	60.76
213.283	118.1
213.502	-33.45
213.72	-33.45
213.938	25.94
214.157	60.76
214.375	-12.97
214.594	-25.26
214.812	42.32
215.031	75.09
215.249	25.94
215.467	34.13
215.686	-25.26
215.904	75.09
216.122	-25.26
216.341	89.43
216.559	36.18
216.778	1.37
216.996	-4.78
217.214	19.8
217.432	66.9
217.651	46.42
217.869	-64.17
218.087	11.61
218.306	34.13
218.524	83.28
218.742	-17.07
218.96	-4.78
219.179	52.56
219.397	60.76
219.615	44.37
219.833	19.8
220.051	-45.74
220.27	64.85
220.488	75.09
220.706	-23.21
220.924	27.99
221.142	-39.59
221.36	97.62
221.578	15.7
221.796	30.04
222.015	1.37
222.233	23.89
222.451	93.52
222.669	-76.46
222.887	-29.35
223.105	-15.02
223.323	11.61
223.541	-35.5
223.759	17.75
223.977	27.99
224.195	58.71
224.413	9.56
224.631	32.08
224.849	15.7
225.067	81.24
225.285	-35.5
225.503	-8.87
225.721	40.28
225.939	3.41
226.157	-29.35
226.375	189.78
226.592	7.51
226.81	5.46
227.028	36.18
227.246	42.32
227.464	-33.45
227.682	99.67
227.9	5.46
228.117	1.37
228.335	27.99
228.553	23.89
228.771	-0.68
228.989	-8.87
229.206	19.8
229.424	21.85
229.642	15.7
229.86	-80.55
230.077	13.65
230.295	-45.74
230.513	38.23
230.731	17.75
230.948	75.09
231.166	99.67
231.384	56.66
231.601	5.46
231.819	68.95
232.037	48.47
232.254	-49.83
232.472	-4.78
232.689	-12.97
232.907	42.32
233.125	68.95
233.342	-4.78
233.56	11.61
233.777	48.47
233.995	-17.07
234.213	81.24
234.43	27.99
234.648	-66.22
234.865	27.99
235.083	32.08
235.3	9.56
235.518	-21.16
235.735	23.89
235.953	81.24
236.17	30.04
236.388	-4.78
236.605	46.42
236.822	58.71
237.04	50.52
237.257	-12.97
237.475	-25.26
237.692	50.52
237.909	71
238.127	-29.35
238.344	93.52
238.562	-66.22
238.779	-47.79
238.996	17.75
239.214	30.04
239.431	27.99
239.648	-4.78
239.865	-23.21
240.083	19.8
240.3	60.76
240.517	-17.07
240.735	-8.87
240.952	89.43
241.169	19.8
241.386	15.7
241.603	15.7
241.821	-35.5
242.038	157.01
242.255	25.94
242.472	-68.27
242.689	64.85
242.907	27.99
243.124	11.61
243.341	3.41
243.558	7.51
243.775	-27.31
243.992	-25.26
244.209	27.99
244.426	58.71
244.643	-6.83
244.86	-4.78
245.078	3.41
245.295	-25.26
245.512	5.46
245.729	52.56
245.946	38.23
246.163	5.46
246.38	-15.02
246.597	1.37
246.814	44.37
247.031	50.52
247.248	42.32
247.464	27.99
247.681	32.08
247.898	62.8
248.115	56.66
248.332	-23.21
248.549	116.05
248.766	60.76
248.983	36.18
249.2	3.41
249.417	-6.83
249.633	-0.68
249.85	36.18
250.067	-6.83
250.284	44.37
250.501	-103.08
250.717	122.2
250.934	-17.07
251.151	15.7
251.368	-12.97
251.585	-12.97
251.801	-8.87
252.018	-45.74
252.235	56.66
252.451	-25.26
252.668	46.42
252.885	95.57
253.102	48.47
253.318	60.76
253.535	32.08
253.752	9.56
253.968	-47.79
254.185	-45.74
254.401	11.61
254.618	9.56
254.835	-2.73
255.051	52.56
255.268	-4.78
255.484	15.7
255.701	40.28
255.917	21.85
256.134	5.46
256.351	23.89
256.567	-31.4
256.784	-21.16
257	15.7
257.217	42.32
257.433	32.08
257.65	3.41
257.866	-23.21
258.082	34.13
258.299	5.46
258.515	7.51
258.732	-8.87
258.948	-4.78
259.165	-41.64
259.381	-25.26
259.597	17.75
259.814	-64.17
260.03	11.61
260.246	-41.64
260.463	89.43
260.679	114
260.895	66.9
261.112	-12.97
261.328	44.37
261.544	17.75
261.761	87.38
261.977	9.56
262.193	-37.55
262.409	1.37
262.626	36.18
262.842	44.37
263.058	-19.11
263.274	46.42
263.49	-8.87
263.707	27.99
263.923	64.85
264.139	-37.55
264.355	46.42
264.571	89.43
264.787	7.51
265.004	91.48
265.22	1.37
265.436	-12.97
265.652	36.18
265.868	42.32
266.084	52.56
266.3	68.95
266.516	-45.74
266.732	-78.51
266.948	11.61
267.164	19.8
267.38	-12.97
267.596	-23.21
267.812	66.9
268.028	-35.5
268.244	40.28
268.46	40.28
268.676	-21.16
268.892	36.18
269.108	7.51
269.324	40.28
269.54	23.89
269.756	42.32
269.972	-92.84
270.188	50.52
270.403	-66.22
270.619	27.99
270.835	44.37
271.051	-12.97
271.267	-33.45
271.483	3.41
271.698	44.37
271.914	25.94
272.13	13.65
272.346	30.04
272.562	23.89
272.777	9.56
272.993	-2.73
273.209	42.32
273.425	40.28
273.64	-64.17
273.856	-29.35
274.072	27.99
274.287	-21.16
274.503	77.14
274.719	79.19
274.934	60.76
275.15	3.41
275.366	-12.97
275.581	36.18
275.797	15.7
276.012	34.13
276.228	36.18
276.444	3.41
276.659	32.08
276.875	3.41
277.09	40.28
277.306	-31.4
277.521	5.46
277.737	77.14
277.952	9.56
278.168	3.41
278.383	36.18
278.599	-21.16
278.814	7.51
279.03	36.18
279.245	36.18
279.461	25.94
279.676	44.37
279.892	17.75
280.107	-6.83
280.322	-60.07
280.538	5.46
280.753	-21.16
280.969	19.8
281.184	15.7
281.399	132.44
281.615	56.66
281.83	81.24
282.045	-6.83
282.26	60.76
282.476	93.52
282.691	83.28
282.906	15.7
283.122	-23.21
283.337	-12.97
283.552	11.61
283.767	46.42
283.983	-4.78
284.198	27.99
284.413	-8.87
284.628	-74.41
284.843	-6.83
285.058	81.24
285.274	19.8
285.489	-12.97
285.704	19.8
285.919	9.56
286.134	27.99
286.349	-12.97
286.564	103.76
286.779	25.94
286.995	34.13
287.21	-35.5
287.425	-12.97
287.64	-15.02
287.855	25.94
288.07	7.51
288.285	32.08
288.5	52.56
288.715	17.75
288.93	124.24
289.145	-21.16
289.36	60.76
289.575	134.48
289.79	19.8
290.004	-2.73
290.219	48.47
290.434	-12.97
290.649	-64.17
290.864	-4.78
291.079	32.08
291.294	-21.16
291.509	52.56
291.724	66.9
291.938	50.52
292.153	7.51
292.368	-51.88
292.583	71
292.798	60.76
293.012	19.8
293.227	21.85
293.442	60.76
293.657	11.61
293.871	40.28
294.086	-23.21
294.301	-4.78
294.516	60.76
294.73	-62.12
294.945	11.61
295.16	15.7
295.374	66.9
295.589	126.29
295.804	11.61
296.018	11.61
296.233	52.56
296.447	-4.78
296.662	42.32
296.877	85.33
297.091	81.24
297.306	56.66
297.52	19.8
297.735	7.51
297.949	-17.07
298.164	-4.78
298.378	15.7
298.593	-8.87
298.807	48.47
299.022	-29.35
299.236	34.13
299.451	-25.26
299.665	9.56
299.88	46.42
300.094	-0.68
300.309	-58.03
300.523	-4.78
300.737	-31.4
300.952	48.47
301.166	-23.21
301.381	38.23
301.595	-39.59
301.809	15.7
302.024	64.85
302.238	48.47
302.452	87.38
302.667	3.41
302.881	50.52
303.095	15.7
303.309	21.85
303.524	40.28
303.738	48.47
303.952	11.61
304.166	122.2
304.381	-121.51
304.595	66.9
304.809	-33.45
305.023	52.56
305.237	-4.78
305.452	50.52
305.666	5.46
305.88	48.47
306.094	109.91
306.308	32.08
306.522	101.72
306.736	44.37
306.95	-25.26
307.164	42.32
307.379	44.37
307.593	105.81
307.807	3.41
308.021	91.48
308.235	66.9
308.449	-15.02
308.663	11.61
308.877	79.19
309.091	19.8
309.305	44.37
309.519	-21.16
309.733	77.14
309.947	-6.83
310.161	58.71
310.374	-4.78
310.588	60.76
310.802	-23.21
311.016	52.56
311.23	-4.78
311.444	44.37
311.658	50.52
311.872	85.33
312.085	52.56
312.299	-10.92
312.513	101.72
312.727	19.8
312.941	-62.12
313.154	89.43
313.368	17.75
313.582	-8.87
313.796	44.37
314.009	-41.64
314.223	66.9
314.437	17.75
314.651	40.28
314.864	52.56
315.078	-12.97
315.292	-33.45
315.505	11.61
315.719	-0.68
315.933	-27.31
316.146	32.08
316.36	-8.87
316.573	83.28
316.787	-15.02
317.001	3.41
317.214	-21.16
317.428	50.52
317.641	-37.55
317.855	-21.16
318.068	-31.4
318.282	38.23
318.495	44.37
318.709	85.33
318.922	34.13
319.136	71
319.349	64.85
319.563	19.8
319.776	-0.68
319.99	-66.22
320.203	66.9
320.417	-0.68
320.63	13.65
320.843	77.14
321.057	-33.45
321.27	-4.78
321.483	81.24
321.697	19.8
321.91	44.37
322.124	93.52
322.337	93.52
322.55	-31.4
322.763	52.56
322.977	7.51
323.19	-53.93
323.403	-21.16
323.617	-29.35
323.83	-17.07
324.043	66.9
324.256	50.52
324.469	-4.78
324.683	77.14
324.896	-29.35
325.109	77.14
325.322	40.28
325.535	83.28
325.748	64.85
325.962	-29.35
326.175	19.8
326.388	81.24
326.601	73.04
326.814	-15.02
327.027	-15.02
327.24	144.72
327.453	-62.12
327.666	15.7
327.879	97.62
328.092	58.71
328.305	9.56
328.518	62.8
328.731	40.28
328.944	-72.36
329.157	27.99
329.37	-78.51
329.583	56.66
329.796	23.89
330.009	-27.31
330.222	25.94
330.435	60.76
330.648	-55.98
330.861	9.56
331.073	64.85
331.286	32.08
331.499	23.89
331.712	21.85
331.925	58.71
332.138	58.71
332.35	60.76
332.563	11.61
332.776	-12.97
332.989	11.61
333.202	9.56
333.414	15.7
333.627	11.61
333.84	-4.78
334.053	27.99
334.265	-60.07
334.478	23.89
334.691	-33.45
334.903	101.72
335.116	71
335.329	-31.4
335.541	-0.68
335.754	48.47
335.966	-25.26
336.179	-33.45
336.392	9.56
336.604	-4.78
336.817	19.8
337.029	9.56
337.242	1.37
337.454	7.51
337.667	66.9
337.88	19.8
338.092	62.8
338.305	52.56
338.517	44.37
338.729	17.75
338.942	52.56
339.154	-27.31
339.367	-10.92
339.579	101.72
339.792	95.57
340.004	60.76
340.217	60.76
340.429	9.56
340.641	54.61
340.854	58.71
341.066	19.8
341.278	44.37
341.491	42.32
341.703	-21.16
341.915	5.46
342.128	-51.88
342.34	5.46
342.552	-53.93
342.764	27.99
342.977	101.72
343.189	44.37
343.401	25.94
343.613	30.04
343.826	32.08
344.038	19.8
344.25	7.51
344.462	71
344.674	42.32
344.886	44.37
345.099	19.8
345.311	34.13
345.523	-43.69
345.735	-64.17
345.947	44.37
346.159	-31.4
346.371	-4.78
346.583	50.52
346.795	97.62
347.007	-21.16
347.219	11.61
347.431	68.95
347.643	44.37
347.855	34.13
348.067	77.14
348.279	52.56
348.491	5.46
348.703	101.72
348.915	42.32
349.127	-0.68
349.339	44.37
349.551	38.23
349.763	42.32
349.975	27.99
350.187	81.24
350.399	-4.78
350.61	-10.92
350.822	-21.16
351.034	91.48
351.246	15.7
351.458	58.71
351.669	42.32
351.881	101.72
352.093	44.37
352.305	58.71
352.517	36.18
352.728	-23.21
352.94	27.99
353.152	27.99
353.363	27.99
353.575	75.09
353.787	97.62
353.999	1.37
354.21	5.46
354.422	-41.64
354.633	50.52
354.845	-10.92
355.057	-12.97
355.268	97.62
355.48	77.14
355.692	30.04
355.903	15.7
356.115	-39.59
356.326	-17.07
356.538	56.66
356.749	-25.26
356.961	75.09
357.172	11.61
357.384	-41.64
357.595	77.14
357.807	50.52
358.018	34.13
358.23	-21.16
358.441	52.56
358.653	68.95
358.864	36.18
359.075	81.24
359.287	5.46
359.498	-23.21
359.709	42.32
359.921	66.9
360.132	15.7
360.344	32.08
360.555	15.7
360.766	19.8
360.977	-10.92
361.189	60.76
361.4	17.75
361.611	44.37
361.823	1.37
362.034	15.7
362.245	-25.26
362.456	60.76
362.667	81.24
362.879	30.04
363.09	52.56
363.301	56.66
363.512	23.89
363.723	-23.21
363.935	-15.02
364.146	60.76
364.357	30.04
364.568	48.47
364.779	-15.02
364.99	27.99
365.201	-37.55
365.412	32.08
365.623	27.99
365.834	-8.87
366.045	30.04
366.256	75.09
366.467	52.56
366.678	42.32
366.889	52.56
367.1	107.86
367.311	40.28
367.522	3.41
367.733	83.28
367.944	52.56
368.155	-12.97
368.366	42.32
368.577	54.61
368.788	62.8
368.999	-29.35
369.209	-6.83
369.42	44.37
369.631	154.96
369.842	36.18
370.053	93.52
370.264	101.72
370.474	23.89
370.685	-33.45
370.896	46.42
371.107	21.85
371.317	36.18
371.528	30.04
371.739	50.52
371.95	1.37
372.16	58.71
372.371	-23.21
372.582	44.37
372.792	44.37
373.003	32.08
373.214	46.42
373.424	81.24
373.635	17.75
373.846	23.89
374.056	19.8
374.267	52.56
374.477	60.76
374.688	19.8
374.898	19.8
375.109	99.67
375.319	27.99
375.53	118.1
375.74	60.76
375.951	44.37
376.161	40.28
376.372	64.85
376.582	36.18
376.793	27.99
377.003	13.65
377.214	109.91
377.424	46.42
377.635	25.94
377.845	23.89
378.055	109.91
378.266	-10.92
378.476	9.56
378.686	-4.78
378.897	30.04
379.107	-4.78
379.317	-15.02
379.528	38.23
379.738	64.85
379.948	30.04
380.158	64.85
380.369	19.8
380.579	68.95
380.789	9.56
380.999	93.52
381.21	-0.68
381.42	157.01
381.63	50.52
381.84	58.71
382.05	3.41
382.261	68.95
382.471	118.1
382.681	75.09
382.891	118.1
383.101	71
383.311	-66.22
383.521	42.32
383.731	23.89
383.941	34.13
384.151	17.75
384.361	-41.64
384.571	83.28
384.781	36.18
384.991	107.86
385.201	85.33
385.411	68.95
385.621	68.95
385.831	23.89
386.041	50.52
386.251	11.61
386.461	122.2
386.671	19.8
386.881	11.61
387.091	-8.87
387.301	68.95
387.511	81.24
387.72	52.56
387.93	118.1
388.14	77.14
388.35	54.61
388.56	107.86
388.769	73.04
388.979	52.56
389.189	-19.11
389.399	-8.87
389.609	79.19
389.818	52.56
390.028	52.56
390.238	81.24
390.447	27.99
390.657	93.52
390.867	17.75
391.076	36.18
391.286	30.04
391.496	83.28
391.705	5.46
391.915	25.94
392.125	118.1
392.334	32.08
392.544	126.29
392.753	9.56
392.963	91.48
393.172	134.48
393.382	3.41
393.591	54.61
393.801	23.89
394.01	85.33
394.22	77.14
394.429	60.76
394.639	40.28
394.848	89.43
395.058	52.56
395.267	64.85
395.477	36.18
395.686	66.9
395.895	138.58
396.105	75.09
396.314	101.72
396.524	83.28
396.733	17.75
396.942	58.71
397.152	97.62
397.361	71
397.57	-6.83
397.78	44.37
397.989	64.85
398.198	89.43
398.407	60.76
398.617	68.95
398.826	46.42
399.035	27.99
399.244	95.57
399.453	83.28
399.663	81.24
399.872	89.43
400.081	27.99
400.29	114
400.499	109.91
400.708	66.9
400.917	40.28
401.127	48.47
401.336	77.14
401.545	144.72
401.754	142.68
401.963	89.43
402.172	118.1
402.381	142.68
402.59	109.91
402.799	62.8
403.008	159.06
403.217	107.86
403.426	107.86
403.635	81.24
403.844	134.48
404.053	85.33
404.262	95.57
404.471	134.48
404.68	36.18
404.888	116.05
405.097	163.15
405.306	89.43
405.515	103.76
405.724	68.95
405.933	107.86
406.142	152.92
406.35	165.2
406.559	191.83
406.768	85.33
406.977	206.16
407.185	126.29
407.394	81.24
407.603	146.77
407.812	140.63
408.02	148.82
408.229	157.01
408.438	191.83
408.646	134.48
408.855	101.72
409.064	204.11
409.272	212.31
409.481	173.39
409.69	189.78
409.898	81.24
410.107	224.59
410.315	204.11
410.524	216.4
410.733	261.46
410.941	232.79
411.15	273.75
411.358	197.97
411.567	355.66
411.775	175.44
411.984	220.5
412.192	257.36
412.401	222.55
412.609	349.52
412.818	400.72
413.026	382.29
413.234	308.56
413.443	351.57
413.651	331.09
413.86	310.61
414.068	410.96
414.276	451.92
414.485	380.24
414.693	460.11
414.901	501.07
415.11	501.07
415.318	462.16
415.526	429.39
415.734	513.36
415.943	476.49
416.151	601.42
416.359	507.21
416.567	568.65
416.776	648.52
416.984	617.8
417.192	609.61
417.4	664.91
417.608	638.28
417.817	634.19
418.025	740.68
418.233	847.18
418.441	750.92
418.649	841.03
418.857	855.37
419.065	955.72
419.273	904.52
419.481	892.23
419.689	998.73
419.897	945.48
420.105	976.2
420.313	1068.36
420.521	1027.4
420.729	1105.22
420.937	1195.33
421.145	1219.91
421.353	1244.48
421.561	1346.88
421.769	1340.74
421.977	1338.69
422.185	1369.41
422.393	1457.47
422.601	1482.05
422.809	1473.85
423.017	1527.1
423.224	1633.6
423.432	1641.79
423.64	1631.55
423.848	1940.79
424.056	1801.53
424.263	1914.17
424.471	1848.63
424.679	1953.08
424.887	1948.98
425.094	2227.51
425.302	2153.78
425.51	2139.44
425.718	2352.43
425.925	2317.62
426.133	2321.71
426.341	2493.74
426.548	2585.9
426.756	2706.73
426.964	2665.77
427.171	2934.06
427.379	2895.15
427.586	2936.1
427.794	3079.46
428.001	3206.44
428.209	3312.93
428.417	3140.9
428.624	3386.66
428.832	3556.64
429.039	3501.34
429.247	3409.19
429.454	3894.55
429.662	3964.18
429.869	3771.68
430.076	4119.83
430.284	3931.42
430.491	4140.31
430.699	4341.01
430.906	4310.29
431.114	4324.63
431.321	4519.18
431.528	4607.25
431.736	4803.85
431.943	5197.06
432.15	5100.81
432.358	5082.38
432.565	5311.75
432.772	5295.36
432.979	5547.26
433.187	5627.14
433.394	5739.77
433.601	6180.09
433.808	6044.92
434.016	6110.46
434.223	6474.99
434.43	6860.01
434.637	6456.56
434.844	7130.34
435.052	7144.68
435.259	6913.26
435.466	7273.7
435.673	7073
435.88	7531.75
436.087	7990.49
436.294	7972.06
436.501	7884
436.708	7787.74
436.915	8355.03
437.122	8658.13
437.329	8457.43
437.537	8660.18
437.743	8967.37
437.95	8946.89
438.157	9297.1
438.364	9813.18
438.571	9637.06
438.778	9684.16
438.985	10579.12
439.192	10091.71
439.399	10501.3
439.606	10239.16
439.813	10945.71
440.02	11420.84
440.227	11349.16
440.433	11349.16
440.64	11730.08
440.847	11521.19
441.054	11750.56
441.261	12602.52
441.467	12477.59
441.674	12559.51
441.881	12975.25
442.088	13057.17
442.294	13085.84
442.501	13569.16
442.708	13538.44
442.914	14054.53
443.121	14865.52
443.328	14492.79
443.534	15311.98
443.741	15066.22
443.948	14851.19
444.154	15668.33
444.361	16104.54
444.568	15758.44
444.774	15901.79
444.981	15920.23
445.187	16417.88
445.394	17222.73
445.6	17040.47
445.807	18715.7
446.013	17792.07
446.22	18097.22
446.426	18705.46
446.633	19010.61
446.839	19565.61
447.046	18914.36
447.252	19907.62
447.459	19909.67
447.665	19594.28
447.871	20700.19
448.078	21404.69
448.284	20524.06
448.491	21054.48
448.697	21732.36
448.903	22354.94
449.11	21992.45
449.316	21830.66
449.522	22252.55
449.728	22651.9
449.935	22965.24
450.141	23186.42
450.347	23596.01
450.553	23161.84
450.76	23092.21
450.966	23612.4
451.172	23354.35
451.378	24421.34
451.584	23735.28
451.791	24361.95
451.997	24257.51
452.203	24669.15
452.409	24267.75
452.615	24384.48
452.821	23546.86
453.027	23071.73
453.233	24548.32
453.44	23159.8
453.646	23884.78
453.852	23833.58
454.058	24177.64
454.264	23495.66
454.47	23884.78
454.676	23374.83
454.882	24175.59
455.088	21916.68
455.294	22135.81
455.5	22940.66
455.705	22942.71
455.911	22035.46
456.117	21591.05
456.323	21179.41
456.529	19899.43
456.735	20775.96
456.941	20501.53
457.147	20233.25
457.352	19291.18
457.558	19082.29
457.764	19227.7
457.97	19074.1
458.176	18517.05
458.381	18375.74
458.587	17640.52
458.793	17570.89
458.999	16610.39
459.204	17747.01
459.41	17286.22
459.616	16204.89
459.821	16161.89
460.027	15944.8
460.233	15891.55
460.438	15185.01
460.644	15139.95
460.85	14486.65
461.055	14158.97
461.261	14011.52
461.466	13075.6
461.672	12668.05
461.878	13628.55
462.083	12625.04
462.289	12567.7
462.494	12317.85
462.7	11693.22
462.905	11343.02
463.111	11969.69
463.316	11795.62
463.522	11766.95
463.727	11676.84
463.932	11699.36
464.138	11381.93
464.343	11496.61
464.549	11250.86
464.754	11537.57
464.959	11459.75
465.165	11265.19
465.37	10880.18
465.575	10427.57
465.781	10945.71
465.986	11138.22
466.191	10591.41
466.397	10620.08
466.602	10104
466.807	10443.96
467.012	10267.83
467.218	10198.2
467.423	10065.08
467.628	10144.95
467.833	10482.87
468.038	10257.59
