Data from USB4F104151__45__11-30-25-863.txt Node

Date: Fri Mar 14 11:30:25 EDT 2025
User: louis
Spectrometer: USB4F10415
Trigger mode: 4
Integration Time (sec): 5.000000E-2
Scans to average: 1
Electric dark correction enabled: true
Nonlinearity correction enabled: false
Boxcar width: 0
XAxis mode: Wavelengths
Number of Pixels in Spectrum: 3648
>>>>>Begin Spectral Data<<<<<
178.204	-94.21
178.424	-94.21
178.644	-94.21
178.864	-96.25
179.084	-198.65
179.304	4.1
179.524	14.34
179.744	-2.05
179.964	12.29
180.184	38.91
180.404	22.53
180.624	-53.25
180.844	20.48
181.064	-71.68
181.283	57.34
181.503	-53.25
181.723	10.24
181.943	20.48
182.163	94.21
182.383	-47.1
182.602	59.39
182.822	-18.43
183.042	92.16
183.262	-43.01
183.482	24.58
183.701	38.91
183.921	-30.72
184.141	55.3
184.361	51.2
184.58	10.24
184.8	-10.24
185.02	55.3
185.239	28.67
185.459	40.96
185.679	36.86
185.898	-2.05
186.118	59.39
186.338	36.86
186.557	67.58
186.777	-10.24
186.997	73.73
187.216	51.2
187.436	69.63
187.655	83.97
187.875	55.3
188.095	24.58
188.314	14.34
188.534	104.45
188.753	-55.3
188.973	30.72
189.192	112.64
189.412	22.53
189.631	43.01
189.851	-4.1
190.07	139.26
190.29	38.91
190.509	26.62
190.729	-86.01
190.948	53.25
191.168	159.74
191.387	43.01
191.607	-36.86
191.826	83.97
192.045	36.86
192.265	69.63
192.484	79.87
192.704	-40.96
192.923	4.1
193.142	102.4
193.362	20.48
193.581	81.92
193.8	75.77
194.02	61.44
194.239	51.2
194.458	86.01
194.678	96.25
194.897	71.68
195.116	4.1
195.335	8.19
195.555	12.29
195.774	-38.91
195.993	20.48
196.212	69.63
196.432	34.82
196.651	-2.05
196.87	4.1
197.089	96.25
197.308	69.63
197.528	12.29
197.747	14.34
197.966	14.34
198.185	116.73
198.404	-28.67
198.623	75.77
198.842	98.3
199.062	4.1
199.281	38.91
199.5	22.53
199.719	-12.29
199.938	47.1
200.157	120.83
200.376	30.72
200.595	100.35
200.814	90.11
201.033	47.1
201.252	38.91
201.471	63.49
201.69	83.97
201.909	28.67
202.128	51.2
202.347	-14.34
202.566	40.96
202.785	-30.72
203.004	28.67
203.223	88.06
203.442	-47.1
203.661	-2.05
203.879	-28.67
204.098	28.67
204.317	-67.58
204.536	108.54
204.755	-8.19
204.974	79.87
205.193	14.34
205.411	75.77
205.63	22.53
205.849	38.91
206.068	94.21
206.287	14.34
206.505	51.2
206.724	14.34
206.943	-67.58
207.162	6.14
207.381	45.06
207.599	6.14
207.818	94.21
208.037	24.58
208.255	-18.43
208.474	38.91
208.693	38.91
208.911	26.62
209.13	53.25
209.349	-10.24
209.567	59.39
209.786	22.53
210.005	79.87
210.223	51.2
210.442	12.29
210.661	77.82
210.879	12.29
211.098	36.86
211.316	-2.05
211.535	40.96
211.753	-55.3
211.972	-24.58
212.191	-26.62
212.409	55.3
212.628	122.88
212.846	-28.67
213.065	53.25
213.283	106.49
213.502	-2.05
213.72	18.43
213.938	53.25
214.157	79.87
214.375	30.72
214.594	-28.67
214.812	63.49
215.031	-24.58
215.249	75.77
215.467	26.62
215.686	38.91
215.904	77.82
216.122	24.58
216.341	131.07
216.559	28.67
216.778	94.21
216.996	149.5
217.214	22.53
217.432	10.24
217.651	24.58
217.869	102.4
218.087	-26.62
218.306	14.34
218.524	77.82
218.742	94.21
218.96	36.86
219.179	-2.05
219.397	22.53
219.615	161.79
219.833	96.25
220.051	6.14
220.27	106.49
220.488	94.21
220.706	59.39
220.924	51.2
221.142	34.82
221.36	-12.29
221.578	2.05
221.796	77.82
222.015	30.72
222.233	26.62
222.451	53.25
222.669	28.67
222.887	38.91
223.105	-6.14
223.323	18.43
223.541	-26.62
223.759	28.67
223.977	73.73
224.195	90.11
224.413	71.68
224.631	22.53
224.849	69.63
225.067	163.84
225.285	28.67
225.503	106.49
225.721	-92.16
225.939	88.06
226.157	92.16
226.375	71.68
226.592	55.3
226.81	92.16
227.028	32.77
227.246	100.35
227.464	-10.24
227.682	-2.05
227.9	6.14
228.117	43.01
228.335	18.43
228.553	75.77
228.771	69.63
228.989	16.38
229.206	-43.01
229.424	75.77
229.642	43.01
229.86	24.58
230.077	55.3
230.295	63.49
230.513	88.06
230.731	59.39
230.948	30.72
231.166	149.5
231.384	2.05
231.601	-38.91
231.819	61.44
232.037	38.91
232.254	30.72
232.472	38.91
232.689	6.14
232.907	38.91
233.125	26.62
233.342	-45.06
233.56	75.77
233.777	36.86
233.995	26.62
234.213	86.01
234.43	51.2
234.648	36.86
234.865	-2.05
235.083	98.3
235.3	47.1
235.518	34.82
235.735	32.77
235.953	22.53
236.17	61.44
236.388	-12.29
236.605	10.24
236.822	24.58
237.04	92.16
237.257	22.53
237.475	6.14
237.692	43.01
237.909	8.19
238.127	4.1
238.344	16.38
238.562	65.54
238.779	-26.62
238.996	-26.62
239.214	-2.05
239.431	118.78
239.648	38.91
239.865	112.64
240.083	55.3
240.3	16.38
240.517	69.63
240.735	20.48
240.952	112.64
241.169	92.16
241.386	110.59
241.603	22.53
241.821	6.14
242.038	75.77
242.255	43.01
242.472	0
242.689	83.97
242.907	43.01
243.124	69.63
243.341	6.14
243.558	55.3
243.775	-30.72
243.992	-63.49
244.209	51.2
244.426	18.43
244.643	98.3
244.86	55.3
245.078	83.97
245.295	96.25
245.512	61.44
245.729	2.05
245.946	-43.01
246.163	51.2
246.38	120.83
246.597	10.24
246.814	2.05
247.031	30.72
247.248	40.96
247.464	20.48
247.681	28.67
247.898	10.24
248.115	16.38
248.332	45.06
248.549	110.59
248.766	116.73
248.983	98.3
249.2	75.77
249.417	36.86
249.633	51.2
249.85	147.45
250.067	22.53
250.284	10.24
250.501	133.12
250.717	43.01
250.934	-2.05
251.151	75.77
251.368	-18.43
251.585	88.06
251.801	69.63
252.018	69.63
252.235	92.16
252.451	6.14
252.668	6.14
252.885	55.3
253.102	75.77
253.318	-12.29
253.535	-4.1
253.752	69.63
253.968	88.06
254.185	12.29
254.401	20.48
254.618	22.53
254.835	-18.43
255.051	77.82
255.268	69.63
255.484	22.53
255.701	22.53
255.917	61.44
256.134	-6.14
256.351	22.53
256.567	30.72
256.784	53.25
257	-14.34
257.217	71.68
257.433	43.01
257.65	34.82
257.866	71.68
258.082	-6.14
258.299	-69.63
258.515	40.96
258.732	38.91
258.948	-10.24
259.165	-22.53
259.381	-28.67
259.597	45.06
259.814	-34.82
260.03	-32.77
260.246	38.91
260.463	73.73
260.679	102.4
260.895	102.4
261.112	73.73
261.328	-2.05
261.544	-6.14
261.761	51.2
261.977	-24.58
262.193	63.49
262.409	83.97
262.626	30.72
262.842	30.72
263.058	10.24
263.274	36.86
263.49	34.82
263.707	104.45
263.923	67.58
264.139	-104.45
264.355	63.49
264.571	55.3
264.787	-10.24
265.004	96.25
265.22	12.29
265.436	40.96
265.652	-65.53
265.868	81.92
266.084	2.05
266.3	112.64
266.516	40.96
266.732	20.48
266.948	81.92
267.164	86.01
267.38	-26.62
267.596	38.91
267.812	75.77
268.028	20.48
268.244	-18.43
268.46	18.43
268.676	22.53
268.892	57.34
269.108	-10.24
269.324	63.49
269.54	14.34
269.756	43.01
269.972	-43.01
270.188	61.44
270.403	-75.77
270.619	22.53
270.835	47.1
271.051	20.48
271.267	88.06
271.483	24.58
271.698	104.45
271.914	6.14
272.13	77.82
272.346	43.01
272.562	26.62
272.777	137.21
272.993	47.1
273.209	63.49
273.425	28.67
273.64	20.48
273.856	124.93
274.072	-24.58
274.287	47.1
274.503	28.67
274.719	4.1
274.934	14.34
275.15	20.48
275.366	38.91
275.581	98.3
275.797	38.91
276.012	43.01
276.228	40.96
276.444	14.34
276.659	59.39
276.875	-12.29
277.09	28.67
277.306	51.2
277.521	38.91
277.737	34.82
277.952	129.02
278.168	79.87
278.383	26.62
278.599	69.63
278.814	32.77
279.03	77.82
279.245	63.49
279.461	53.25
279.676	96.25
279.892	-24.58
280.107	53.25
280.322	22.53
280.538	67.58
280.753	0
280.969	61.44
281.184	2.05
281.399	96.25
281.615	73.73
281.83	90.11
282.045	-18.43
282.26	-71.68
282.476	102.4
282.691	75.77
282.906	-30.72
283.122	30.72
283.337	0
283.552	51.2
283.767	-26.62
283.983	108.54
284.198	38.91
284.413	38.91
284.628	-34.82
284.843	22.53
285.058	53.25
285.274	55.3
285.489	20.48
285.704	34.82
285.919	59.39
286.134	47.1
286.349	34.82
286.564	-36.86
286.779	59.39
286.995	73.73
287.21	36.86
287.425	88.06
287.64	-20.48
287.855	49.15
288.07	14.34
288.285	40.96
288.5	86.01
288.715	118.78
288.93	-2.05
289.145	47.1
289.36	83.97
289.575	6.14
289.79	36.86
290.004	36.86
290.219	61.44
290.434	-14.34
290.649	-16.38
290.864	-2.05
291.079	10.24
291.294	-38.91
291.509	73.73
291.724	20.48
291.938	-51.2
292.153	38.91
292.368	2.05
292.583	79.87
292.798	22.53
293.012	0
293.227	30.72
293.442	-10.24
293.657	47.1
293.871	104.45
294.086	0
294.301	161.79
294.516	-16.38
294.73	4.1
294.945	51.2
295.16	71.68
295.374	104.45
295.589	90.11
295.804	55.3
296.018	-6.14
296.233	88.06
296.447	81.92
296.662	12.29
296.877	86.01
297.091	57.34
297.306	59.39
297.52	-12.29
297.735	26.62
297.949	16.38
298.164	0
298.378	-22.53
298.593	-32.77
298.807	-20.48
299.022	163.84
299.236	45.06
299.451	55.3
299.665	47.1
299.88	-30.72
300.094	6.14
300.309	2.05
300.523	6.14
300.737	-24.58
300.952	79.87
301.166	40.96
301.381	-18.43
301.595	24.58
301.809	26.62
302.024	40.96
302.238	20.48
302.452	75.77
302.667	-2.05
302.881	51.2
303.095	63.49
303.309	22.53
303.524	6.14
303.738	-18.43
303.952	126.97
304.166	63.49
304.381	-18.43
304.595	63.49
304.809	26.62
305.023	61.44
305.237	36.86
305.452	0
305.666	104.45
305.88	30.72
306.094	65.54
306.308	55.3
306.522	63.49
306.736	20.48
306.95	79.87
307.164	26.62
307.379	71.68
307.593	114.69
307.807	108.54
308.021	55.3
308.235	53.25
308.449	-4.1
308.663	67.58
308.877	79.87
309.091	14.34
309.305	73.73
309.519	-16.38
309.733	96.25
309.947	-38.91
310.161	63.49
310.374	77.82
310.588	12.29
310.802	4.1
311.016	26.62
311.23	4.1
311.444	38.91
311.658	61.44
311.872	43.01
312.085	88.06
312.299	71.68
312.513	118.78
312.727	20.48
312.941	-32.77
313.154	67.58
313.368	36.86
313.582	79.87
313.796	-2.05
314.009	38.91
314.223	55.3
314.437	73.73
314.651	6.14
314.864	24.58
315.078	-20.48
315.292	61.44
315.505	-14.34
315.719	92.16
315.933	30.72
316.146	16.38
316.36	16.38
316.573	106.49
316.787	-2.05
317.001	43.01
317.214	75.77
317.428	10.24
317.641	26.62
317.855	63.49
318.068	79.87
318.282	0
318.495	69.63
318.709	75.77
318.922	34.82
319.136	6.14
319.349	55.3
319.563	65.54
319.776	118.78
319.99	-20.48
320.203	116.73
320.417	32.77
320.63	-18.43
320.843	94.21
321.057	108.54
321.27	10.24
321.483	61.44
321.697	108.54
321.91	-18.43
322.124	40.96
322.337	38.91
322.55	6.14
322.763	61.44
322.977	2.05
323.19	83.97
323.403	-12.29
323.617	129.02
323.83	55.3
324.043	86.01
324.256	6.14
324.469	-18.43
324.683	81.92
324.896	51.2
325.109	10.24
325.322	8.19
325.535	79.87
325.748	59.39
325.962	63.49
326.175	-20.48
326.388	83.97
326.601	96.25
326.814	26.62
327.027	45.06
327.24	108.54
327.453	-30.72
327.666	-24.58
327.879	14.34
328.092	53.25
328.305	-24.58
328.518	81.92
328.731	8.19
328.944	34.82
329.157	63.49
329.37	30.72
329.583	61.44
329.796	100.35
330.009	-8.19
330.222	100.35
330.435	69.63
330.648	100.35
330.861	63.49
331.073	-26.62
331.286	38.91
331.499	-2.05
331.712	-2.05
331.925	38.91
332.138	34.82
332.35	71.68
332.563	94.21
332.776	102.4
332.989	36.86
333.202	30.72
333.414	49.15
333.627	43.01
333.84	57.34
334.053	47.1
334.265	-10.24
334.478	32.77
334.691	55.3
334.903	63.49
335.116	22.53
335.329	-55.3
335.541	36.86
335.754	51.2
335.966	67.58
336.179	-34.82
336.392	65.54
336.604	18.43
336.817	30.72
337.029	59.39
337.242	6.14
337.454	32.77
337.667	53.25
337.88	92.16
338.092	53.25
338.305	59.39
338.517	49.15
338.729	34.82
338.942	108.54
339.154	-8.19
339.367	59.39
339.579	67.58
339.792	6.14
340.004	-34.82
340.217	24.58
340.429	102.4
340.641	2.05
340.854	-43.01
341.066	71.68
341.278	106.49
341.491	18.43
341.703	43.01
341.915	104.45
342.128	96.25
342.34	55.3
342.552	-6.14
342.764	2.05
342.977	79.87
343.189	86.01
343.401	14.34
343.613	-6.14
343.826	14.34
344.038	-22.53
344.25	55.3
344.462	59.39
344.674	26.62
344.886	-18.43
345.099	6.14
345.311	63.49
345.523	43.01
345.735	12.29
345.947	22.53
346.159	4.1
346.371	32.77
346.583	77.82
346.795	83.97
347.007	20.48
347.219	94.21
347.431	47.1
347.643	47.1
347.855	30.72
348.067	112.64
348.279	55.3
348.491	-4.1
348.703	94.21
348.915	-30.72
349.127	55.3
349.339	53.25
349.551	67.58
349.763	86.01
349.975	0
350.187	-8.19
350.399	6.14
350.61	71.68
350.822	59.39
351.034	63.49
351.246	6.14
351.458	86.01
351.669	63.49
351.881	92.16
352.093	-18.43
352.305	63.49
352.517	61.44
352.728	133.12
352.94	65.54
353.152	2.05
353.363	-47.1
353.575	77.82
353.787	149.5
353.999	-4.1
354.21	83.97
354.422	-47.1
354.633	75.77
354.845	61.44
355.057	-6.14
355.268	63.49
355.48	75.77
355.692	55.3
355.903	38.91
356.115	4.1
356.326	34.82
356.538	61.44
356.749	141.31
356.961	116.73
357.172	45.06
357.384	-79.87
357.595	67.58
357.807	0
358.018	45.06
358.23	75.77
358.441	81.92
358.653	55.3
358.864	94.21
359.075	86.01
359.287	0
359.498	112.64
359.709	120.83
359.921	124.93
360.132	2.05
360.344	45.06
360.555	12.29
360.766	100.35
360.977	47.1
361.189	83.97
361.4	43.01
361.611	71.68
361.823	38.91
362.034	67.58
362.245	14.34
362.456	43.01
362.667	51.2
362.879	49.15
363.09	36.86
363.301	63.49
363.512	32.77
363.723	116.73
363.935	-2.05
364.146	55.3
364.357	22.53
364.568	88.06
364.779	59.39
364.99	98.3
365.201	43.01
365.412	110.59
365.623	-49.15
365.834	77.82
366.045	88.06
366.256	98.3
366.467	47.1
366.678	71.68
366.889	47.1
367.1	45.06
367.311	96.25
367.522	0
367.733	79.87
367.944	102.4
368.155	43.01
368.366	86.01
368.577	79.87
368.788	104.45
368.999	26.62
369.209	26.62
369.42	67.58
369.631	79.87
369.842	12.29
370.053	24.58
370.264	73.73
370.474	-10.24
370.685	47.1
370.896	30.72
371.107	94.21
371.317	55.3
371.528	59.39
371.739	102.4
371.95	124.93
372.16	20.48
372.371	-36.86
372.582	112.64
372.792	71.68
373.003	108.54
373.214	59.39
373.424	63.49
373.635	-10.24
373.846	67.58
374.056	26.62
374.267	63.49
374.477	106.49
374.688	55.3
374.898	4.1
375.109	122.88
375.319	47.1
375.53	120.83
375.74	92.16
375.951	-28.67
376.161	4.1
376.372	10.24
376.582	-30.72
376.793	51.2
377.003	26.62
377.214	0
377.424	2.05
377.635	55.3
377.845	69.63
378.055	96.25
378.266	12.29
378.476	63.49
378.686	104.45
378.897	63.49
379.107	22.53
379.317	59.39
379.528	51.2
379.738	34.82
379.948	57.34
380.158	98.3
380.369	55.3
380.579	120.83
380.789	22.53
380.999	71.68
381.21	83.97
381.42	96.25
381.63	14.34
381.84	51.2
382.05	120.83
382.261	22.53
382.471	69.63
382.681	47.1
382.891	90.11
383.101	94.21
383.311	51.2
383.521	-20.48
383.731	63.49
383.941	77.82
384.151	43.01
384.361	92.16
384.571	102.4
384.781	71.68
384.991	98.3
385.201	73.73
385.411	40.96
385.621	71.68
385.831	28.67
386.041	43.01
386.251	126.97
386.461	86.01
386.671	88.06
386.881	61.44
387.091	30.72
387.301	79.87
387.511	-4.1
387.72	131.07
387.93	143.36
388.14	-14.34
388.35	-20.48
388.56	65.54
388.769	135.17
388.979	69.63
389.189	71.68
389.399	45.06
389.609	14.34
389.818	20.48
390.028	86.01
390.238	10.24
390.447	14.34
390.657	36.86
390.867	30.72
391.076	10.24
391.286	100.35
391.496	-2.05
391.705	26.62
391.915	55.3
392.125	75.77
392.334	49.15
392.544	143.36
392.753	53.25
392.963	32.77
393.172	45.06
393.382	73.73
393.591	16.38
393.801	-2.05
394.01	167.93
394.22	34.82
394.429	79.87
394.639	22.53
394.848	126.97
395.058	53.25
395.267	-32.77
395.477	38.91
395.686	67.58
395.895	135.17
396.105	100.35
396.314	34.82
396.524	98.3
396.733	96.25
396.942	104.45
397.152	133.12
397.361	112.64
397.57	176.13
397.78	45.06
397.989	145.41
398.198	47.1
398.407	26.62
398.617	116.73
398.826	94.21
399.035	124.93
399.244	88.06
399.453	124.93
399.663	114.69
399.872	45.06
400.081	55.3
400.29	133.12
400.499	110.59
400.708	118.78
400.917	86.01
401.127	163.84
401.336	61.44
401.545	131.07
401.754	145.41
401.963	108.54
402.172	67.58
402.381	73.73
402.59	147.45
402.799	59.39
403.008	157.69
403.217	129.02
403.426	116.73
403.635	71.68
403.844	59.39
404.053	139.26
404.262	102.4
404.471	176.13
404.68	143.36
404.888	182.27
405.097	65.54
405.306	176.13
405.515	63.49
405.724	120.83
405.933	167.93
406.142	174.08
406.35	194.56
406.559	161.79
406.768	194.56
406.977	296.96
407.185	133.12
407.394	210.94
407.603	110.59
407.812	165.89
408.02	235.52
408.229	176.13
408.438	229.37
408.646	237.56
408.855	210.94
409.064	256
409.272	204.8
409.481	192.51
409.69	241.66
409.898	139.26
410.107	272.38
410.315	217.08
410.524	268.28
410.733	276.48
410.941	270.33
411.15	307.2
411.358	303.1
411.567	299
411.775	313.34
411.984	360.44
412.192	301.05
412.401	350.2
412.609	407.55
412.818	380.92
413.026	391.16
413.234	391.16
413.443	356.35
413.651	448.51
413.86	489.46
414.068	483.32
414.276	538.62
414.485	511.99
414.693	526.33
414.901	565.24
415.11	538.62
415.318	530.42
415.526	520.18
415.734	563.19
415.943	585.72
416.151	579.58
416.359	616.44
416.567	628.73
416.776	720.89
416.984	741.36
417.192	735.22
417.4	706.55
417.608	772.08
417.817	743.41
418.025	868.34
418.233	813.04
418.441	864.24
418.649	884.72
418.857	966.64
419.065	1030.13
419.273	948.21
419.481	1066.99
419.689	1030.13
419.897	1060.85
420.105	1120.24
420.313	1226.73
420.521	1265.64
420.729	1308.65
420.937	1288.17
421.145	1308.65
421.353	1406.95
421.561	1486.83
421.769	1472.49
421.977	1533.93
422.185	1509.35
422.393	1628.14
422.601	1789.92
422.809	1771.49
423.017	1724.39
423.224	1734.63
423.432	1875.94
423.64	1908.71
423.848	2047.97
424.056	1886.18
424.263	2076.64
424.471	2215.9
424.679	2172.89
424.887	2240.48
425.094	2367.45
425.302	2369.5
425.51	2527.19
425.718	2592.73
425.925	2654.17
426.133	2611.16
426.341	2809.81
426.548	2832.34
426.756	2897.88
426.964	3071.95
427.171	3164.11
427.379	3082.19
427.586	3178.45
427.794	3348.43
428.001	3553.23
428.209	3655.62
428.417	3585.99
428.624	3700.68
428.832	3848.13
429.039	3864.52
429.247	3698.63
429.454	4308.93
429.662	4493.24
429.869	4212.67
430.076	4573.11
430.284	4423.61
430.491	4466.62
430.699	4837.3
430.906	4865.97
431.114	4820.92
431.321	5035.96
431.528	5271.47
431.736	5506.99
431.943	5810.09
432.15	5523.37
432.358	5787.56
432.565	5830.57
432.772	5832.61
432.979	6301.6
433.187	6215.59
433.394	6281.12
433.601	6668.19
433.808	6889.37
434.016	6780.82
434.223	7006.1
434.43	7468.94
434.637	7311.25
434.844	7958.41
435.052	8042.37
435.259	7968.65
435.466	7870.34
435.673	8007.56
435.88	8439.68
436.087	8904.57
436.294	8697.72
436.501	8652.67
436.708	8757.11
436.915	8986.49
437.122	9488.24
437.329	9647.98
437.537	9834.35
437.743	9801.58
437.95	10086.25
438.157	10506.08
438.364	10985.3
438.571	10739.55
438.778	10776.41
438.985	11710.29
439.192	11325.27
439.399	11812.68
439.606	11556.69
439.813	12136.26
440.02	13029.18
440.227	12525.38
440.433	12339.01
440.64	13002.55
440.847	12787.52
441.054	13129.53
441.261	13995.82
441.467	14124.84
441.674	14100.26
441.881	14851.87
442.088	14561.06
442.294	14483.24
442.501	14997.28
442.708	15263.51
442.914	15673.1
443.121	16242.44
443.328	15865.61
443.534	17037.05
443.741	16330.5
443.948	16506.63
444.154	17430.26
444.361	17334.01
444.568	17817.33
444.774	17667.83
444.981	18071.28
445.187	18257.64
445.394	18839.26
445.6	18845.41
445.807	20573.89
446.013	19750.61
446.22	20047.57
446.426	20940.48
446.633	21026.5
446.839	21561.01
447.046	20973.25
447.252	22142.64
447.459	22216.37
447.665	22238.89
447.871	23197.34
448.078	24090.26
448.284	22419.11
448.491	23512.73
448.697	24202.89
448.903	24632.97
449.11	24637.06
449.316	24422.03
449.522	25060.99
449.728	25706.1
449.935	25470.59
450.141	25960.05
450.347	26056.31
450.553	25140.86
450.76	25392.76
450.966	26574.44
451.172	26308.21
451.378	26932.84
451.584	26525.29
451.791	27018.85
451.997	26719.85
452.203	27031.14
452.409	27360.86
452.615	26953.32
452.821	26244.72
453.027	26041.97
453.233	27237.98
453.44	25966.2
453.646	26590.83
453.852	26680.94
454.058	26850.92
454.264	26156.66
454.47	26781.29
454.676	25814.65
454.882	26748.52
455.088	24413.84
455.294	24868.48
455.5	25220.74
455.705	25550.46
455.911	24483.47
456.117	23897.75
456.323	23252.64
456.529	22329
456.735	23350.94
456.941	22662.82
457.147	22087.34
457.352	21419.71
457.558	21219
457.764	21241.53
457.97	20965.06
458.176	20238.03
458.381	20383.43
458.587	19578.58
458.793	19465.94
458.999	18384.62
459.204	19719.89
459.41	19109.6
459.616	17782.51
459.821	17991.41
460.027	17499.89
460.233	17444.6
460.438	16756.48
460.644	16850.69
460.85	16207.62
461.055	15785.74
461.261	15918.86
461.466	14554.91
461.672	14196.52
461.878	15300.37
462.083	14110.5
462.289	13918
462.494	13612.85
462.7	13018.94
462.905	12934.97
463.111	13170.49
463.316	13268.79
463.522	13133.62
463.727	12689.21
463.932	12896.06
464.138	12969.79
464.343	12855.1
464.549	12490.56
464.754	12980.03
464.959	12820.28
465.165	12615.49
465.37	12117.83
465.575	11888.46
465.781	12275.52
465.986	12289.86
466.191	11888.46
466.397	11759.44
466.602	11181.91
466.807	11777.87
467.012	11442
467.218	11538.26
467.423	11081.56
467.628	11413.33
467.833	11859.79
468.038	11171.67
468.244	11388.75
468.449	11409.23
