Data from USB4F104151__41__11-30-23-763.txt Node

Date: Fri Mar 14 11:30:23 EDT 2025
User: louis
Spectrometer: USB4F10415
Trigger mode: 4
Integration Time (sec): 5.000000E-2
Scans to average: 1
Electric dark correction enabled: true
Nonlinearity correction enabled: false
Boxcar width: 0
XAxis mode: Wavelengths
Number of Pixels in Spectrum: 3648
>>>>>Begin Spectral Data<<<<<
178.204	-178.86
178.424	-178.86
178.644	-178.86
178.864	-193.19
179.084	-162.47
179.304	-19.11
179.524	-64.17
179.744	77.14
179.964	36.18
180.184	34.13
180.404	38.23
180.624	-6.83
180.844	1.37
181.064	-45.74
181.283	-68.27
181.503	-19.11
181.723	36.18
181.943	-35.5
182.163	77.14
182.383	-41.64
182.602	54.61
182.822	-21.16
183.042	75.09
183.262	-74.41
183.482	58.71
183.701	-0.68
183.921	27.99
184.141	-29.35
184.361	30.04
184.58	71
184.8	38.23
185.02	-2.73
185.239	-51.88
185.459	-23.21
185.679	-35.5
185.898	-68.27
186.118	52.56
186.338	62.8
186.557	1.37
186.777	1.37
186.997	15.7
187.216	-58.03
187.436	87.38
187.655	9.56
187.875	-49.83
188.095	5.46
188.314	79.19
188.534	99.67
188.753	-55.98
188.973	9.56
189.192	52.56
189.412	13.65
189.631	62.8
189.851	-78.51
190.07	11.61
190.29	-6.83
190.509	-68.27
190.729	7.51
190.948	66.9
191.168	183.63
191.387	30.04
191.607	-43.69
191.826	-4.78
192.045	38.23
192.265	27.99
192.484	44.37
192.704	-23.21
192.923	11.61
193.142	54.61
193.362	-6.83
193.581	87.38
193.8	62.8
194.02	11.61
194.239	1.37
194.458	7.51
194.678	-35.5
194.897	-0.68
195.116	15.7
195.335	-2.73
195.555	91.48
195.774	-45.74
195.993	30.04
196.212	27.99
196.432	-12.97
196.651	36.18
196.87	-80.55
197.089	118.1
197.308	27.99
197.528	25.94
197.747	-35.5
197.966	9.56
198.185	77.14
198.404	-19.11
198.623	17.75
198.842	-17.07
199.062	-27.31
199.281	19.8
199.5	34.13
199.719	7.51
199.938	38.23
200.157	97.62
200.376	-12.97
200.595	36.18
200.814	-39.59
201.033	-15.02
201.252	95.57
201.471	5.46
201.69	58.71
201.909	68.95
202.128	77.14
202.347	-10.92
202.566	-25.26
202.785	-60.07
203.004	-21.16
203.223	60.76
203.442	-6.83
203.661	-47.79
203.879	-68.27
204.098	11.61
204.317	38.23
204.536	-64.17
204.755	21.85
204.974	-8.87
205.193	11.61
205.411	103.76
205.63	-17.07
205.849	-15.02
206.068	3.41
206.287	-27.31
206.505	-6.83
206.724	27.99
206.943	-92.84
207.162	-29.35
207.381	11.61
207.599	-15.02
207.818	-35.5
208.037	-39.59
208.255	46.42
208.474	58.71
208.693	-37.55
208.911	-29.35
209.13	42.32
209.349	-6.83
209.567	99.67
209.786	27.99
210.005	19.8
210.223	-15.02
210.442	-17.07
210.661	3.41
210.879	-19.11
211.098	44.37
211.316	50.52
211.535	11.61
211.753	15.7
211.972	-35.5
212.191	5.46
212.409	21.85
212.628	5.46
212.846	-15.02
213.065	-19.11
213.283	54.61
213.502	19.8
213.72	62.8
213.938	-15.02
214.157	13.65
214.375	50.52
214.594	5.46
214.812	-29.35
215.031	25.94
215.249	-17.07
215.467	-0.68
215.686	71
215.904	77.14
216.122	25.94
216.341	3.41
216.559	-19.11
216.778	21.85
216.996	52.56
217.214	54.61
217.432	-29.35
217.651	-23.21
217.869	17.75
218.087	15.7
218.306	17.75
218.524	62.8
218.742	21.85
218.96	-43.69
219.179	9.56
219.397	-0.68
219.615	46.42
219.833	5.46
220.051	13.65
220.27	30.04
220.488	52.56
220.706	46.42
220.924	-92.84
221.142	66.9
221.36	95.57
221.578	52.56
221.796	-51.88
222.015	60.76
222.233	-35.5
222.451	34.13
222.669	27.99
222.887	-0.68
223.105	-37.55
223.323	-53.93
223.541	11.61
223.759	42.32
223.977	-15.02
224.195	54.61
224.413	11.61
224.631	21.85
224.849	19.8
225.067	68.95
225.285	-4.78
225.503	42.32
225.721	-39.59
225.939	-23.21
226.157	42.32
226.375	101.72
226.592	-86.7
226.81	-45.74
227.028	19.8
227.246	81.24
227.464	13.65
227.682	83.28
227.9	38.23
228.117	19.8
228.335	1.37
228.553	58.71
228.771	21.85
228.989	-21.16
229.206	38.23
229.424	-74.41
229.642	-60.07
229.86	-76.46
230.077	54.61
230.295	50.52
230.513	-29.35
230.731	52.56
230.948	62.8
231.166	-51.88
231.384	-10.92
231.601	15.7
231.819	11.61
232.037	1.37
232.254	27.99
232.472	21.85
232.689	-15.02
232.907	25.94
233.125	-2.73
233.342	-37.55
233.56	-92.84
233.777	-12.97
233.995	-2.73
234.213	-15.02
234.43	38.23
234.648	-62.12
234.865	-12.97
235.083	21.85
235.3	5.46
235.518	5.46
235.735	71
235.953	77.14
236.17	-19.11
236.388	13.65
236.605	13.65
236.822	66.9
237.04	27.99
237.257	-15.02
237.475	-47.79
237.692	-51.88
237.909	36.18
238.127	38.23
238.344	-27.31
238.562	-19.11
238.779	-45.74
238.996	-27.31
239.214	3.41
239.431	50.52
239.648	-35.5
239.865	-23.21
240.083	79.19
240.3	71
240.517	-10.92
240.735	-27.31
240.952	101.72
241.169	25.94
241.386	-4.78
241.603	38.23
241.821	-37.55
242.038	-10.92
242.255	103.76
242.472	62.8
242.689	-23.21
242.907	73.04
243.124	5.46
243.341	-35.5
243.558	79.19
243.775	-60.07
243.992	-4.78
244.209	38.23
244.426	44.37
244.643	44.37
244.86	1.37
245.078	5.46
245.295	-23.21
245.512	11.61
245.729	-10.92
245.946	66.9
246.163	-45.74
246.38	66.9
246.597	-64.17
246.814	1.37
247.031	-2.73
247.248	34.13
247.464	52.56
247.681	50.52
247.898	54.61
248.115	34.13
248.332	-105.13
248.549	81.24
248.766	91.48
248.983	52.56
249.2	75.09
249.417	21.85
249.633	-80.55
249.85	46.42
250.067	-68.27
250.284	13.65
250.501	25.94
250.717	9.56
250.934	-146.09
251.151	-17.07
251.368	27.99
251.585	-6.83
251.801	1.37
252.018	-2.73
252.235	58.71
252.451	-117.42
252.668	-10.92
252.885	54.61
253.102	5.46
253.318	34.13
253.535	71
253.752	-6.83
253.968	-35.5
254.185	-29.35
254.401	-82.6
254.618	66.9
254.835	-78.51
255.051	-29.35
255.268	-10.92
255.484	50.52
255.701	34.13
255.917	11.61
256.134	34.13
256.351	-103.08
256.567	27.99
256.784	30.04
257	-43.69
257.217	30.04
257.433	15.7
257.65	23.89
257.866	40.28
258.082	-94.89
258.299	-43.69
258.515	13.65
258.732	-76.46
258.948	9.56
259.165	17.75
259.381	1.37
259.597	-23.21
259.814	46.42
260.03	-25.26
260.246	-0.68
260.463	7.51
260.679	5.46
260.895	-15.02
261.112	9.56
261.328	-21.16
261.544	-51.88
261.761	13.65
261.977	-2.73
262.193	-4.78
262.409	36.18
262.626	25.94
262.842	19.8
263.058	17.75
263.274	44.37
263.49	-23.21
263.707	77.14
263.923	11.61
264.139	-21.16
264.355	52.56
264.571	66.9
264.787	21.85
265.004	13.65
265.22	-23.21
265.436	54.61
265.652	48.47
265.868	38.23
266.084	-6.83
266.3	32.08
266.516	25.94
266.732	-0.68
266.948	-35.5
267.164	-21.16
267.38	-39.59
267.596	-15.02
267.812	46.42
268.028	124.24
268.244	-23.21
268.46	-6.83
268.676	-70.31
268.892	34.13
269.108	-43.69
269.324	-51.88
269.54	36.18
269.756	19.8
269.972	-29.35
270.188	-37.55
270.403	-10.92
270.619	30.04
270.835	30.04
271.051	1.37
271.267	-45.74
271.483	-17.07
271.698	21.85
271.914	56.66
272.13	30.04
272.346	-10.92
272.562	-8.87
272.777	42.32
272.993	46.42
273.209	5.46
273.425	-47.79
273.64	-68.27
273.856	46.42
274.072	-37.55
274.287	-51.88
274.503	48.47
274.719	-2.73
274.934	17.75
275.15	48.47
275.366	23.89
275.581	-29.35
275.797	17.75
276.012	-12.97
276.228	13.65
276.444	13.65
276.659	103.76
276.875	-10.92
277.09	9.56
277.306	-47.79
277.521	42.32
277.737	-27.31
277.952	71
278.168	52.56
278.383	-12.97
278.599	-35.5
278.814	-10.92
279.03	36.18
279.245	91.48
279.461	5.46
279.676	-10.92
279.892	-35.5
280.107	-31.4
280.322	-70.31
280.538	103.76
280.753	-49.83
280.969	30.04
281.184	5.46
281.399	-8.87
281.615	-47.79
281.83	27.99
282.045	-2.73
282.26	-101.03
282.476	-31.4
282.691	58.71
282.906	52.56
283.122	5.46
283.337	-37.55
283.552	27.99
283.767	40.28
283.983	79.19
284.198	-66.22
284.413	21.85
284.628	11.61
284.843	77.14
285.058	23.89
285.274	3.41
285.489	-19.11
285.704	101.72
285.919	-19.11
286.134	-27.31
286.349	-76.46
286.564	32.08
286.779	34.13
286.995	-29.35
287.21	11.61
287.425	36.18
287.64	5.46
287.855	54.61
288.07	-80.55
288.285	17.75
288.5	17.75
288.715	73.04
288.93	-19.11
289.145	-35.5
289.36	60.76
289.575	-19.11
289.79	95.57
290.004	-31.4
290.219	-19.11
290.434	21.85
290.649	-4.78
290.864	-45.74
291.079	-35.5
291.294	60.76
291.509	-29.35
291.724	-45.74
291.938	3.41
292.153	7.51
292.368	-10.92
292.583	44.37
292.798	79.19
293.012	-17.07
293.227	3.41
293.442	-27.31
293.657	62.8
293.871	-19.11
294.086	1.37
294.301	44.37
294.516	38.23
294.73	79.19
294.945	-25.26
295.16	46.42
295.374	34.13
295.589	-2.73
295.804	25.94
296.018	3.41
296.233	120.15
296.447	1.37
296.662	13.65
296.877	-25.26
297.091	-103.08
297.306	40.28
297.52	42.32
297.735	-6.83
297.949	3.41
298.164	23.89
298.378	71
298.593	-2.73
298.807	3.41
299.022	3.41
299.236	-53.93
299.451	-76.46
299.665	13.65
299.88	9.56
300.094	73.04
300.309	-55.98
300.523	-19.11
300.737	11.61
300.952	19.8
301.166	11.61
301.381	19.8
301.595	-10.92
301.809	1.37
302.024	30.04
302.238	5.46
302.452	36.18
302.667	5.46
302.881	62.8
303.095	34.13
303.309	-72.36
303.524	-78.51
303.738	11.61
303.952	89.43
304.166	11.61
304.381	-72.36
304.595	30.04
304.809	-0.68
305.023	-64.17
305.237	5.46
305.452	5.46
305.666	30.04
305.88	17.75
306.094	34.13
306.308	85.33
306.522	9.56
306.736	25.94
306.95	75.09
307.164	27.99
307.379	54.61
307.593	-2.73
307.807	54.61
308.021	54.61
308.235	52.56
308.449	-70.31
308.663	9.56
308.877	107.86
309.091	34.13
309.305	-2.73
309.519	-51.88
309.733	54.61
309.947	-45.74
310.161	34.13
310.374	40.28
310.588	-2.73
310.802	3.41
311.016	-82.6
311.23	62.8
311.444	-43.69
311.658	30.04
311.872	-4.78
312.085	48.47
312.299	17.75
312.513	130.39
312.727	75.09
312.941	-39.59
313.154	-43.69
313.368	13.65
313.582	7.51
313.796	21.85
314.009	42.32
314.223	114
314.437	-27.31
314.651	95.57
314.864	-101.03
315.078	79.19
315.292	1.37
315.505	-47.79
315.719	-27.31
315.933	34.13
316.146	21.85
316.36	-15.02
316.573	52.56
316.787	-10.92
317.001	11.61
317.214	-6.83
317.428	-21.16
317.641	17.75
317.855	-35.5
318.068	32.08
318.282	42.32
318.495	95.57
318.709	13.65
318.922	-35.5
319.136	71
319.349	30.04
319.563	44.37
319.776	38.23
319.99	1.37
320.203	-2.73
320.417	-23.21
320.63	-23.21
320.843	40.28
321.057	-58.03
321.27	15.7
321.483	21.85
321.697	52.56
321.91	66.9
322.124	30.04
322.337	1.37
322.55	-2.73
322.763	-17.07
322.977	19.8
323.19	38.23
323.403	19.8
323.617	66.9
323.83	27.99
324.043	-39.59
324.256	-12.97
324.469	-10.92
324.683	44.37
324.896	15.7
325.109	-37.55
325.322	-21.16
325.535	23.89
325.748	-8.87
325.962	-23.21
326.175	30.04
326.388	30.04
326.601	21.85
326.814	-6.83
327.027	50.52
327.24	46.42
327.453	-29.35
327.666	-21.16
327.879	30.04
328.092	42.32
328.305	40.28
328.518	-31.4
328.731	-31.4
328.944	11.61
329.157	7.51
329.37	38.23
329.583	128.34
329.796	73.04
330.009	-19.11
330.222	13.65
330.435	36.18
330.648	-47.79
330.861	-29.35
331.073	46.42
331.286	114
331.499	13.65
331.712	11.61
331.925	-47.79
332.138	19.8
332.35	54.61
332.563	-21.16
332.776	-78.51
332.989	-39.59
333.202	13.65
333.414	1.37
333.627	44.37
333.84	-19.11
334.053	36.18
334.265	-43.69
334.478	11.61
334.691	83.28
334.903	-4.78
335.116	-21.16
335.329	-10.92
335.541	62.8
335.754	60.76
335.966	-25.26
336.179	-62.12
336.392	30.04
336.604	77.14
336.817	44.37
337.029	87.38
337.242	36.18
337.454	23.89
337.667	46.42
337.88	27.99
338.092	58.71
338.305	60.76
338.517	-35.5
338.729	3.41
338.942	122.2
339.154	-2.73
339.367	-19.11
339.579	-12.97
339.792	-68.27
340.004	-2.73
340.217	30.04
340.429	1.37
340.641	-51.88
340.854	-35.5
341.066	25.94
341.278	58.71
341.491	42.32
341.703	-31.4
341.915	-82.6
342.128	48.47
342.34	42.32
342.552	75.09
342.764	71
342.977	13.65
343.189	34.13
343.401	38.23
343.613	-68.27
343.826	-35.5
344.038	-15.02
344.25	19.8
344.462	30.04
344.674	42.32
344.886	9.56
345.099	5.46
345.311	42.32
345.523	9.56
345.735	-4.78
345.947	58.71
346.159	-19.11
346.371	77.14
346.583	15.7
346.795	87.38
347.007	-10.92
347.219	-12.97
347.431	5.46
347.643	-23.21
347.855	-19.11
348.067	42.32
348.279	15.7
348.491	87.38
348.703	-6.83
348.915	23.89
349.127	25.94
349.339	-37.55
349.551	-62.12
349.763	30.04
349.975	-10.92
350.187	11.61
350.399	46.42
350.61	5.46
350.822	-27.31
351.034	15.7
351.246	-31.4
351.458	62.8
351.669	54.61
351.881	52.56
352.093	13.65
352.305	23.89
352.517	-2.73
352.728	15.7
352.94	9.56
353.152	89.43
353.363	-21.16
353.575	30.04
353.787	46.42
353.999	32.08
354.21	38.23
354.422	13.65
354.633	-39.59
354.845	-2.73
355.057	15.7
355.268	50.52
355.48	-6.83
355.692	-27.31
355.903	-41.64
356.115	64.85
356.326	-27.31
356.538	85.33
356.749	30.04
356.961	99.67
357.172	-25.26
357.384	-39.59
357.595	142.68
357.807	-19.11
358.018	-15.02
358.23	34.13
358.441	52.56
358.653	-2.73
358.864	-39.59
359.075	-29.35
359.287	-94.89
359.498	-2.73
359.709	50.52
359.921	122.2
360.132	-37.55
360.344	5.46
360.555	3.41
360.766	5.46
360.977	-12.97
361.189	111.96
361.4	-19.11
361.611	52.56
361.823	44.37
362.034	60.76
362.245	42.32
362.456	25.94
362.667	17.75
362.879	-10.92
363.09	46.42
363.301	7.51
363.512	79.19
363.723	9.56
363.935	13.65
364.146	13.65
364.357	-45.74
364.568	-0.68
364.779	13.65
364.99	93.52
365.201	52.56
365.412	71
365.623	-29.35
365.834	27.99
366.045	-27.31
366.256	-62.12
366.467	-17.07
366.678	-21.16
366.889	56.66
367.1	27.99
367.311	42.32
367.522	-47.79
367.733	25.94
367.944	7.51
368.155	-23.21
368.366	38.23
368.577	66.9
368.788	77.14
368.999	-23.21
369.209	66.9
369.42	99.67
369.631	79.19
369.842	-10.92
370.053	-6.83
370.264	91.48
370.474	36.18
370.685	54.61
370.896	3.41
371.107	71
371.317	15.7
371.528	5.46
371.739	11.61
371.95	79.19
372.16	21.85
372.371	-64.17
372.582	-25.26
372.792	34.13
373.003	-10.92
373.214	-25.26
373.424	13.65
373.635	-86.7
373.846	34.13
374.056	13.65
374.267	-21.16
374.477	62.8
374.688	1.37
374.898	-4.78
375.109	27.99
375.319	71
375.53	30.04
375.74	71
375.951	114
376.161	13.65
376.372	83.28
376.582	50.52
376.793	79.19
377.003	-19.11
377.214	-47.79
377.424	1.37
377.635	-12.97
377.845	-47.79
378.055	150.87
378.266	11.61
378.476	27.99
378.686	15.7
378.897	46.42
379.107	62.8
379.317	-17.07
379.528	-27.31
379.738	83.28
379.948	-19.11
380.158	44.37
380.369	21.85
380.579	66.9
380.789	17.75
380.999	56.66
381.21	-68.27
381.42	60.76
381.63	1.37
381.84	54.61
382.05	3.41
382.261	79.19
382.471	13.65
382.681	-19.11
382.891	68.95
383.101	34.13
383.311	-88.75
383.521	27.99
383.731	30.04
383.941	-0.68
384.151	-68.27
384.361	32.08
384.571	50.52
384.781	19.8
384.991	46.42
385.201	101.72
385.411	-10.92
385.621	13.65
385.831	71
386.041	15.7
386.251	89.43
386.461	46.42
386.671	-17.07
386.881	77.14
387.091	23.89
387.301	32.08
387.511	-10.92
387.72	17.75
387.93	81.24
388.14	-27.31
388.35	11.61
388.56	60.76
388.769	36.18
388.979	21.85
389.189	27.99
389.399	-37.55
389.609	19.8
389.818	42.32
390.028	97.62
390.238	116.05
390.447	-4.78
390.657	75.09
390.867	-27.31
391.076	-10.92
391.286	27.99
391.496	44.37
391.705	38.23
391.915	97.62
392.125	-19.11
392.334	109.91
392.544	30.04
392.753	-21.16
392.963	23.89
393.172	9.56
393.382	60.76
393.591	77.14
393.801	-10.92
394.01	30.04
394.22	44.37
394.429	83.28
394.639	-27.31
394.848	52.56
395.058	-27.31
395.267	85.33
395.477	62.8
395.686	38.23
395.895	91.48
396.105	103.76
396.314	103.76
396.524	114
396.733	66.9
396.942	109.91
397.152	13.65
397.361	95.57
397.57	116.05
397.78	-0.68
397.989	13.65
398.198	126.29
398.407	36.18
398.617	66.9
398.826	38.23
399.035	30.04
399.244	77.14
399.453	91.48
399.663	77.14
399.872	111.96
400.081	-15.02
400.29	81.24
400.499	34.13
400.708	136.53
400.917	116.05
401.127	25.94
401.336	46.42
401.545	71
401.754	97.62
401.963	11.61
402.172	105.81
402.381	91.48
402.59	56.66
402.799	23.89
403.008	62.8
403.217	122.2
403.426	132.44
403.635	46.42
403.844	79.19
404.053	-12.97
404.262	73.04
404.471	148.82
404.68	62.8
404.888	62.8
405.097	42.32
405.306	103.76
405.515	185.68
405.724	103.76
405.933	165.2
406.142	71
406.35	71
406.559	118.1
406.768	165.2
406.977	181.59
407.185	118.1
407.394	136.53
407.603	105.81
407.812	154.96
408.02	251.22
408.229	128.34
408.438	206.16
408.646	152.92
408.855	124.24
409.064	226.64
409.272	222.55
409.481	193.87
409.69	185.68
409.898	193.87
410.107	161.11
410.315	269.65
410.524	232.79
410.733	226.64
410.941	167.25
411.15	175.44
411.358	316.75
411.567	298.32
411.775	300.37
411.984	286.03
412.192	296.27
412.401	318.8
412.609	415.06
412.818	380.24
413.026	413.01
413.234	419.15
413.443	413.01
413.651	357.71
413.86	421.2
414.068	398.67
414.276	509.26
414.485	431.44
414.693	519.5
414.901	496.97
415.11	537.93
415.318	472.4
415.526	560.46
415.734	513.36
415.943	582.99
416.151	628.04
416.359	621.9
416.567	683.34
416.776	689.48
416.984	673.1
417.192	728.39
417.4	728.39
417.608	759.11
417.817	761.16
418.025	849.22
418.233	920.9
418.441	783.69
418.649	851.27
418.857	959.81
419.065	988.49
419.273	853.32
419.481	1029.45
419.689	1064.26
419.897	1092.93
420.105	1125.7
420.313	1232.19
420.521	1201.48
420.729	1117.51
420.937	1226.05
421.145	1215.81
421.353	1383.74
421.561	1447.23
421.769	1520.96
421.977	1553.73
422.185	1502.53
422.393	1625.4
422.601	1680.7
422.809	1738.04
423.017	1768.76
423.224	1779
423.432	1799.48
423.64	1793.34
423.848	2020.66
424.056	1905.98
424.263	2037.05
424.471	2037.05
424.679	2135.35
424.887	2346.29
425.094	2387.25
425.302	2340.15
425.51	2344.24
425.718	2542.89
425.925	2581.81
426.133	2587.95
426.341	2794.79
426.548	2886.95
426.756	2895.15
426.964	2968.87
427.171	3147.05
427.379	3175.72
427.586	3319.07
427.794	3290.4
428.001	3560.74
428.209	3689.76
428.417	3630.37
428.624	4007.19
428.832	3829.02
429.039	3947.8
429.247	3726.62
429.454	4130.07
429.662	4375.83
429.869	4150.55
430.076	4570.38
430.284	4320.53
430.491	4672.78
430.699	4795.66
430.906	4936.97
431.114	4963.59
431.321	5139.72
431.528	5033.22
431.736	5461.25
431.943	5872.89
432.15	5524.74
432.358	5610.75
432.565	5911.8
432.772	5915.9
432.979	6262.01
433.187	6262.01
433.394	6468.85
433.601	6708.46
433.808	6851.82
434.016	6700.27
434.223	7099.62
434.43	7654.62
434.637	7322.85
434.844	7908.57
435.052	7965.92
435.259	7785.69
435.466	8058.07
435.673	7941.34
435.88	8377.56
436.087	8899.79
436.294	8920.27
436.501	8686.8
436.708	8873.17
436.915	9196.75
437.122	9557.19
437.329	9553.09
437.537	9637.06
437.743	10083.52
437.95	9927.87
438.157	10339.51
438.364	10761.39
438.571	10767.54
438.778	10730.67
438.985	11594.92
439.192	11275.43
439.399	11611.3
439.606	11545.77
439.813	12100.76
440.02	12827.79
440.227	12528.79
440.433	12430.49
440.64	13114.51
440.847	12776.59
441.054	13143.18
441.261	13991.04
441.467	13896.83
441.674	14177.41
441.881	14689.4
442.088	14503.03
442.294	14419.07
442.501	14650.49
442.708	15369.32
442.914	15871.08
443.121	16299.1
443.328	16010.34
443.534	17185.87
443.741	16561.24
443.948	16192.61
444.154	17531.98
444.361	17658.95
444.568	17687.62
444.774	17554.51
444.981	17902.66
445.187	18469.95
445.394	19098.67
445.6	18916.4
445.807	20673.56
446.013	19901.48
446.22	20063.27
446.426	21234.71
446.633	21136.4
446.839	21922.82
447.046	21120.02
447.252	22012.93
447.459	22182.91
447.665	21478.41
447.871	23133.17
448.078	24253.41
448.284	22567.93
448.491	23403.5
448.697	24288.23
448.903	24677.34
449.11	24935.38
449.316	24660.96
449.522	24912.86
449.728	25881.55
449.935	25869.26
450.141	25592.78
450.347	26371.01
450.553	25340.88
450.76	25893.83
450.966	26825.66
451.172	26252.23
451.378	26923.96
451.584	26217.41
451.791	27222.97
451.997	27048.89
452.203	27532.21
452.409	27519.92
452.615	27141.05
452.821	26078.15
453.027	26176.45
453.233	27407.28
453.44	26145.73
453.646	26278.85
453.852	26620.86
454.058	27026.36
454.264	25902.03
454.47	26786.75
454.676	25959.37
454.882	26766.27
455.088	24429.54
455.294	24851.42
455.5	24972.25
455.705	25400.27
455.911	24562.65
456.117	23825.39
456.323	23483.38
456.529	22434.81
456.735	23378.93
456.941	22596.6
457.147	22436.86
457.352	21781.51
457.558	21277.71
457.764	21265.42
457.97	21070.87
458.176	20263.97
458.381	20345.89
458.587	19399.73
458.793	19383.34
458.999	18631.74
459.204	19815.46
459.41	19430.44
459.616	17873.99
459.821	18224.19
460.027	17871.94
460.233	17585.22
460.438	16651.35
460.644	16847.96
460.85	16026.72
461.055	16163.93
461.261	15529.06
461.466	14435.45
461.672	14099.58
461.878	15113.33
462.083	14161.02
462.289	13804.67
462.494	13798.53
462.7	13223.05
462.905	12901.52
463.111	13229.2
463.316	13239.44
463.522	12852.37
463.727	12971.15
463.932	12795.03
464.138	12881.04
464.343	13022.35
464.549	12518.55
464.754	12936.34
464.959	12807.31
465.165	12563.61
465.37	12266.65
465.575	11920.54
465.781	12289.18
465.986	12235.93
466.191	12072.09
466.397	11465.89
466.602	11289.77
466.807	11568.29
467.012	11635.88
