Data from USB4F104151__26__11-30-03-965.txt Node

Date: Fri Mar 14 11:30:03 EDT 2025
User: louis
Spectrometer: USB4F10415
Trigger mode: 4
Integration Time (sec): 5.000000E-2
Scans to average: 1
Electric dark correction enabled: true
Nonlinearity correction enabled: false
Boxcar width: 0
XAxis mode: Wavelengths
Number of Pixels in Spectrum: 3648
>>>>>Begin Spectral Data<<<<<
178.204	-44.88
178.424	-44.88
178.644	-44.88
178.864	-194.39
179.084	-108.37
179.304	-22.36
179.524	-20.31
179.744	-63.32
179.964	61.61
180.184	-12.12
180.404	0.17
180.624	61.61
180.844	-8.02
181.064	-28.5
181.283	0.17
181.503	18.6
181.723	12.46
181.943	-61.27
182.163	26.79
182.383	12.46
182.602	41.13
182.822	12.46
183.042	0.17
183.262	-28.5
183.482	-67.41
183.701	37.03
183.921	32.94
184.141	0.17
184.361	20.65
184.58	20.65
184.8	59.56
185.02	-36.69
185.239	-34.64
185.459	37.03
185.679	123.05
185.898	0.17
186.118	67.75
186.338	-16.21
186.557	-28.5
186.777	32.94
186.997	37.03
187.216	-46.93
187.436	61.61
187.655	-28.5
187.875	-3.93
188.095	86.19
188.314	-3.93
188.534	71.85
188.753	-3.93
188.973	43.18
189.192	61.61
189.412	-36.69
189.631	41.13
189.851	12.46
190.07	47.27
190.29	16.55
190.509	28.84
190.729	20.65
190.948	12.46
191.168	90.28
191.387	118.95
191.607	20.65
191.826	57.51
192.045	-34.64
192.265	2.22
192.484	-44.88
192.704	24.75
192.923	-12.12
193.142	73.9
193.362	63.66
193.581	26.79
193.8	20.65
194.02	100.52
194.239	-1.88
194.458	14.51
194.678	12.46
194.897	45.23
195.116	53.42
195.335	26.79
195.555	-24.4
195.774	-32.6
195.993	26.79
196.212	18.6
196.432	4.27
196.651	-8.02
196.87	10.41
197.089	96.43
197.308	69.8
197.528	20.65
197.747	-20.31
197.966	32.94
198.185	77.99
198.404	-12.12
198.623	59.56
198.842	22.7
199.062	151.72
199.281	34.99
199.5	4.27
199.719	41.13
199.938	67.75
200.157	61.61
200.376	63.66
200.595	2.22
200.814	2.22
201.033	2.22
201.252	63.66
201.471	47.27
201.69	37.03
201.909	12.46
202.128	24.75
202.347	94.38
202.566	43.18
202.785	-32.6
203.004	43.18
203.223	118.95
203.442	86.19
203.661	8.36
203.879	102.57
204.098	69.8
204.317	-20.31
204.536	53.42
204.755	69.8
204.974	20.65
205.193	51.37
205.411	127.14
205.63	90.28
205.849	37.03
206.068	-46.93
206.287	37.03
206.505	112.81
206.724	28.84
206.943	-3.93
207.162	75.95
207.381	18.6
207.599	57.51
207.818	0.17
208.037	26.79
208.255	69.8
208.474	-53.08
208.693	-14.17
208.911	-16.21
209.13	37.03
209.349	55.47
209.567	53.42
209.786	127.14
210.005	26.79
210.223	37.03
210.442	18.6
210.661	-22.36
210.879	-20.31
211.098	-8.02
211.316	43.18
211.535	20.65
211.753	49.32
211.972	96.43
212.191	-3.93
212.409	37.03
212.628	-22.36
212.846	-16.21
213.065	67.75
213.283	16.55
213.502	75.95
213.72	61.61
213.938	-1.88
214.157	-40.79
214.375	41.13
214.594	34.99
214.812	28.84
215.031	-44.88
215.249	-53.08
215.467	18.6
215.686	-24.4
215.904	88.23
216.122	32.94
216.341	118.95
216.559	102.57
216.778	45.23
216.996	20.65
217.214	37.03
217.432	-53.08
217.651	-8.02
217.869	20.65
218.087	24.75
218.306	49.32
218.524	88.23
218.742	16.55
218.96	80.04
219.179	45.23
219.397	-1.88
219.615	94.38
219.833	61.61
220.051	41.13
220.27	43.18
220.488	-44.88
220.706	16.55
220.924	49.32
221.142	-14.17
221.36	59.56
221.578	77.99
221.796	24.75
222.015	0.17
222.233	24.75
222.451	116.9
222.669	-3.93
222.887	55.47
223.105	20.65
223.323	61.61
223.541	-71.51
223.759	61.61
223.977	14.51
224.195	37.03
224.413	49.32
224.631	106.67
224.849	-46.93
225.067	84.14
225.285	-53.08
225.503	-20.31
225.721	-16.21
225.939	20.65
226.157	20.65
226.375	110.76
226.592	-3.93
226.81	45.23
227.028	22.7
227.246	137.38
227.464	61.61
227.682	18.6
227.9	67.75
228.117	86.19
228.335	100.52
228.553	8.36
228.771	18.6
228.989	43.18
229.206	-53.08
229.424	0.17
229.642	-51.03
229.86	16.55
230.077	4.27
230.295	-32.6
230.513	57.51
230.731	43.18
230.948	51.37
231.166	77.99
231.384	-10.07
231.601	-18.26
231.819	43.18
232.037	-40.79
232.254	-20.31
232.472	-12.12
232.689	14.51
232.907	71.85
233.125	61.61
233.342	37.03
233.56	2.22
233.777	26.79
233.995	-20.31
234.213	67.75
234.43	14.51
234.648	92.33
234.865	34.99
235.083	0.17
235.3	-79.7
235.518	26.79
235.735	37.03
235.953	30.89
236.17	57.51
236.388	0.17
236.605	102.57
236.822	98.47
237.04	28.84
237.257	37.03
237.475	-36.69
237.692	88.23
237.909	49.32
238.127	4.27
238.344	20.65
238.562	28.84
238.779	-22.36
238.996	24.75
239.214	73.9
239.431	47.27
239.648	-30.55
239.865	86.19
240.083	20.65
240.3	26.79
240.517	53.42
240.735	-3.93
240.952	8.36
241.169	18.6
241.386	37.03
241.603	8.36
241.821	-28.5
242.038	34.99
242.255	100.52
242.472	2.22
242.689	41.13
242.907	28.84
243.124	-46.93
243.341	71.85
243.558	12.46
243.775	49.32
243.992	8.36
244.209	39.08
244.426	88.23
244.643	37.03
244.86	2.22
245.078	53.42
245.295	80.04
245.512	75.95
245.729	-8.02
245.946	75.95
246.163	53.42
246.38	2.22
246.597	28.84
246.814	24.75
247.031	61.61
247.248	34.99
247.464	22.7
247.681	12.46
247.898	-5.97
248.115	-63.32
248.332	-18.26
248.549	53.42
248.766	26.79
248.983	12.46
249.2	32.94
249.417	28.84
249.633	12.46
249.85	73.9
250.067	16.55
250.284	12.46
250.501	16.55
250.717	-22.36
250.934	-61.27
251.151	-53.08
251.368	32.94
251.585	57.51
251.801	28.84
252.018	-46.93
252.235	80.04
252.451	-20.31
252.668	26.79
252.885	77.99
253.102	47.27
253.318	2.22
253.535	24.75
253.752	16.55
253.968	-14.17
254.185	26.79
254.401	61.61
254.618	65.71
254.835	-36.69
255.051	106.67
255.268	20.65
255.484	90.28
255.701	61.61
255.917	47.27
256.134	20.65
256.351	55.47
256.567	4.27
256.784	88.23
257	-8.02
257.217	41.13
257.433	131.24
257.65	67.75
257.866	69.8
258.082	20.65
258.299	43.18
258.515	61.61
258.732	-14.17
258.948	45.23
259.165	28.84
259.381	-32.6
259.597	43.18
259.814	53.42
260.03	12.46
260.246	86.19
260.463	28.84
260.679	41.13
260.895	18.6
261.112	28.84
261.328	45.23
261.544	-81.75
261.761	110.76
261.977	2.22
262.193	-48.98
262.409	34.99
262.626	61.61
262.842	4.27
263.058	28.84
263.274	37.03
263.49	26.79
263.707	71.85
263.923	18.6
264.139	-44.88
264.355	-10.07
264.571	143.53
264.787	53.42
265.004	47.27
265.22	20.65
265.436	100.52
265.652	0.17
265.868	0.17
266.084	73.9
266.3	86.19
266.516	-24.4
266.732	-30.55
266.948	47.27
267.164	-5.97
267.38	37.03
267.596	-8.02
267.812	80.04
268.028	28.84
268.244	-20.31
268.46	-1.88
268.676	-12.12
268.892	75.95
269.108	-48.98
269.324	55.47
269.54	2.22
269.756	30.89
269.972	-1.88
270.188	-20.31
270.403	-32.6
270.619	-57.17
270.835	22.7
271.051	102.57
271.267	0.17
271.483	-65.36
271.698	-3.93
271.914	12.46
272.13	-16.21
272.346	94.38
272.562	37.03
272.777	45.23
272.993	30.89
273.209	61.61
273.425	108.71
273.64	10.41
273.856	12.46
274.072	-65.36
274.287	-26.45
274.503	53.42
274.719	69.8
274.934	14.51
275.15	-16.21
275.366	-40.79
275.581	-51.03
275.797	82.09
276.012	10.41
276.228	-1.88
276.444	12.46
276.659	41.13
276.875	4.27
277.09	2.22
277.306	30.89
277.521	18.6
277.737	39.08
277.952	67.75
278.168	-24.4
278.383	-8.02
278.599	6.31
278.814	47.27
279.03	-10.07
279.245	8.36
279.461	-1.88
279.676	-12.12
279.892	20.65
280.107	-5.97
280.322	30.89
280.538	41.13
280.753	-5.97
280.969	-8.02
281.184	8.36
281.399	45.23
281.615	12.46
281.83	-14.17
282.045	-5.97
282.26	10.41
282.476	39.08
282.691	102.57
282.906	2.22
283.122	65.71
283.337	0.17
283.552	-20.31
283.767	32.94
283.983	49.32
284.198	51.37
284.413	49.32
284.628	-28.5
284.843	86.19
285.058	86.19
285.274	8.36
285.489	-57.17
285.704	106.67
285.919	20.65
286.134	-71.51
286.349	51.37
286.564	63.66
286.779	110.76
286.995	-53.08
287.21	30.89
287.425	59.56
287.64	28.84
287.855	22.7
288.07	-28.5
288.285	-30.55
288.5	86.19
288.715	4.27
288.93	-5.97
289.145	20.65
289.36	30.89
289.575	59.56
289.79	55.47
290.004	28.84
290.219	59.56
290.434	-55.12
290.649	73.9
290.864	18.6
291.079	37.03
291.294	-3.93
291.509	67.75
291.724	26.79
291.938	34.99
292.153	88.23
292.368	14.51
292.583	-16.21
292.798	26.79
293.012	0.17
293.227	37.03
293.442	28.84
293.657	24.75
293.871	69.8
294.086	-59.22
294.301	51.37
294.516	55.47
294.73	-3.93
294.945	-18.26
295.16	8.36
295.374	106.67
295.589	102.57
295.804	28.84
296.018	-69.46
296.233	49.32
296.447	30.89
296.662	10.41
296.877	65.71
297.091	-30.55
297.306	0.17
297.52	59.56
297.735	53.42
297.949	67.75
298.164	45.23
298.378	-30.55
298.593	-36.69
298.807	67.75
299.022	30.89
299.236	67.75
299.451	12.46
299.665	-14.17
299.88	26.79
300.094	61.61
300.309	116.9
300.523	-40.79
300.737	0.17
300.952	41.13
301.166	86.19
301.381	-3.93
301.595	41.13
301.809	80.04
302.024	12.46
302.238	-3.93
302.452	116.9
302.667	59.56
302.881	18.6
303.095	20.65
303.309	77.99
303.524	14.51
303.738	69.8
303.952	14.51
304.166	24.75
304.381	10.41
304.595	98.47
304.809	-36.69
305.023	-12.12
305.237	34.99
305.452	30.89
305.666	-5.97
305.88	37.03
306.094	86.19
306.308	51.37
306.522	12.46
306.736	16.55
306.95	41.13
307.164	77.99
307.379	4.27
307.593	32.94
307.807	90.28
308.021	123.05
308.235	57.51
308.449	-69.46
308.663	4.27
308.877	65.71
309.091	4.27
309.305	53.42
309.519	-3.93
309.733	26.79
309.947	-40.79
310.161	45.23
310.374	84.14
310.588	84.14
310.802	12.46
311.016	-20.31
311.23	-14.17
311.444	18.6
311.658	-63.32
311.872	69.8
312.085	-40.79
312.299	28.84
312.513	86.19
312.727	26.79
312.941	77.99
313.154	57.51
313.368	53.42
313.582	16.55
313.796	14.51
314.009	-14.17
314.223	28.84
314.437	63.66
314.651	-20.31
314.864	-12.12
315.078	22.7
315.292	-12.12
315.505	12.46
315.719	84.14
315.933	49.32
316.146	20.65
316.36	-8.02
316.573	-20.31
316.787	90.28
317.001	51.37
317.214	-32.6
317.428	53.42
317.641	43.18
317.855	86.19
318.068	57.51
318.282	30.89
318.495	16.55
318.709	90.28
318.922	-36.69
319.136	82.09
319.349	12.46
319.563	-12.12
319.776	75.95
319.99	-22.36
320.203	28.84
320.417	12.46
320.63	82.09
320.843	51.37
321.057	26.79
321.27	65.71
321.483	67.75
321.697	65.71
321.91	37.03
322.124	45.23
322.337	77.99
322.55	41.13
322.763	-22.36
322.977	4.27
323.19	-26.45
323.403	37.03
323.617	37.03
323.83	94.38
324.043	49.32
324.256	-5.97
324.469	28.84
324.683	51.37
324.896	-16.21
325.109	118.95
325.322	-36.69
325.535	118.95
325.748	32.94
325.962	28.84
326.175	2.22
326.388	65.71
326.601	-8.02
326.814	-89.94
327.027	28.84
327.24	41.13
327.453	-46.93
327.666	55.47
327.879	18.6
328.092	-40.79
328.305	102.57
328.518	-36.69
328.731	-61.27
328.944	-3.93
329.157	82.09
329.37	-16.21
329.583	32.94
329.796	90.28
330.009	-36.69
330.222	63.66
330.435	-10.07
330.648	37.03
330.861	8.36
331.073	43.18
331.286	94.38
331.499	20.65
331.712	4.27
331.925	2.22
332.138	69.8
332.35	71.85
332.563	127.14
332.776	53.42
332.989	-40.79
333.202	-12.12
333.414	-5.97
333.627	20.65
333.84	34.99
334.053	34.99
334.265	26.79
334.478	16.55
334.691	8.36
334.903	57.51
335.116	-44.88
335.329	118.95
335.541	61.61
335.754	67.75
335.966	-38.74
336.179	-12.12
336.392	43.18
336.604	34.99
336.817	86.19
337.029	82.09
337.242	51.37
337.454	137.38
337.667	-63.32
337.88	63.66
338.092	12.46
338.305	10.41
338.517	49.32
338.729	20.65
338.942	67.75
339.154	37.03
339.367	67.75
339.579	32.94
339.792	-44.88
340.004	20.65
340.217	2.22
340.429	41.13
340.641	43.18
340.854	41.13
341.066	20.65
341.278	26.79
341.491	110.76
341.703	-12.12
341.915	-5.97
342.128	47.27
342.34	8.36
342.552	-10.07
342.764	26.79
342.977	61.61
343.189	51.37
343.401	18.6
343.613	-20.31
343.826	77.99
344.038	22.7
344.25	22.7
344.462	26.79
344.674	71.85
344.886	-5.97
345.099	43.18
345.311	53.42
345.523	8.36
345.735	45.23
345.947	69.8
346.159	14.51
346.371	65.71
346.583	8.36
346.795	77.99
347.007	22.7
347.219	49.32
347.431	12.46
347.643	151.72
347.855	8.36
348.067	73.9
348.279	-32.6
348.491	18.6
348.703	43.18
348.915	28.84
349.127	-24.4
349.339	65.71
349.551	32.94
349.763	32.94
349.975	-44.88
350.187	69.8
350.399	-30.55
350.61	16.55
350.822	47.27
351.034	20.65
351.246	32.94
351.458	100.52
351.669	-36.69
351.881	71.85
352.093	37.03
352.305	67.75
352.517	86.19
352.728	65.71
352.94	32.94
353.152	108.71
353.363	55.47
353.575	16.55
353.787	73.9
353.999	59.56
354.21	45.23
354.422	37.03
354.633	49.32
354.845	43.18
355.057	77.99
355.268	45.23
355.48	18.6
355.692	47.27
355.903	63.66
356.115	82.09
356.326	-38.74
356.538	-28.5
356.749	84.14
356.961	102.57
357.172	-8.02
357.384	-28.5
357.595	92.33
357.807	34.99
358.018	45.23
358.23	10.41
358.441	75.95
358.653	32.94
358.864	47.27
359.075	-8.02
359.287	123.05
359.498	41.13
359.709	57.51
359.921	-5.97
360.132	4.27
360.344	90.28
360.555	-28.5
360.766	26.79
360.977	84.14
361.189	53.42
361.4	24.75
361.611	26.79
361.823	90.28
362.034	116.9
362.245	0.17
362.456	20.65
362.667	28.84
362.879	-3.93
363.09	26.79
363.301	24.75
363.512	102.57
363.723	32.94
363.935	-12.12
364.146	135.34
364.357	12.46
364.568	49.32
364.779	-38.74
364.99	135.34
365.201	-32.6
365.412	98.47
365.623	100.52
365.834	86.19
366.045	41.13
366.256	57.51
366.467	16.55
366.678	28.84
366.889	-26.45
367.1	-12.12
367.311	49.32
367.522	73.9
367.733	8.36
367.944	61.61
368.155	37.03
368.366	55.47
368.577	51.37
368.788	100.52
368.999	51.37
369.209	28.84
369.42	131.24
369.631	84.14
369.842	96.43
370.053	12.46
370.264	-12.12
370.474	-26.45
370.685	71.85
370.896	-36.69
371.107	49.32
371.317	82.09
371.528	114.86
371.739	12.46
371.95	102.57
372.16	53.42
372.371	8.36
372.582	-16.21
372.792	53.42
373.003	24.75
373.214	53.42
373.424	34.99
373.635	4.27
373.846	77.99
374.056	-8.02
374.267	69.8
374.477	34.99
374.688	51.37
374.898	4.27
375.109	4.27
375.319	4.27
375.53	12.46
375.74	57.51
375.951	41.13
376.161	43.18
376.372	98.47
376.582	34.99
376.793	84.14
377.003	37.03
377.214	32.94
377.424	53.42
377.635	53.42
377.845	-20.31
378.055	90.28
378.266	20.65
378.476	4.27
378.686	6.31
378.897	53.42
379.107	77.99
379.317	28.84
379.528	24.75
379.738	-36.69
379.948	28.84
380.158	26.79
380.369	18.6
380.579	45.23
380.789	53.42
380.999	92.33
381.21	37.03
381.42	92.33
381.63	4.27
381.84	69.8
382.05	34.99
382.261	69.8
382.471	125.1
382.681	112.81
382.891	110.76
383.101	10.41
383.311	8.36
383.521	53.42
383.731	45.23
383.941	-20.31
384.151	53.42
384.361	59.56
384.571	43.18
384.781	18.6
384.991	88.23
385.201	37.03
385.411	16.55
385.621	61.61
385.831	80.04
386.041	34.99
386.251	112.81
386.461	75.95
386.671	10.41
386.881	86.19
387.091	20.65
387.301	41.13
387.511	61.61
387.72	55.47
387.93	129.19
388.14	-40.79
388.35	28.84
388.56	57.51
388.769	106.67
388.979	45.23
389.189	45.23
389.399	61.61
389.609	88.23
389.818	102.57
390.028	10.41
390.238	98.47
390.447	0.17
390.657	41.13
390.867	37.03
391.076	-16.21
391.286	28.84
391.496	61.61
391.705	18.6
391.915	86.19
392.125	129.19
392.334	86.19
392.544	73.9
392.753	88.23
392.963	28.84
393.172	61.61
393.382	20.65
393.591	110.76
393.801	75.95
394.01	37.03
394.22	39.08
394.429	28.84
394.639	37.03
394.848	94.38
395.058	26.79
395.267	2.22
395.477	90.28
395.686	110.76
395.895	69.8
396.105	164.01
396.314	49.32
396.524	65.71
396.733	116.9
396.942	118.95
397.152	65.71
397.361	127.14
397.57	63.66
397.78	65.71
397.989	65.71
398.198	118.95
398.407	41.13
398.617	90.28
398.826	28.84
399.035	24.75
399.244	59.56
399.453	90.28
399.663	114.86
399.872	125.1
400.081	65.71
400.29	149.67
400.499	57.51
400.708	86.19
400.917	53.42
401.127	80.04
401.336	43.18
401.545	125.1
401.754	161.96
401.963	137.38
402.172	133.29
402.381	69.8
402.59	80.04
402.799	123.05
403.008	123.05
403.217	112.81
403.426	151.72
403.635	82.09
403.844	118.95
404.053	102.57
404.262	151.72
404.471	147.62
404.68	59.56
404.888	118.95
405.097	127.14
405.306	88.23
405.515	102.57
405.724	155.82
405.933	168.1
406.142	168.1
406.35	102.57
406.559	155.82
406.768	133.29
406.977	118.95
407.185	174.25
407.394	217.26
407.603	233.64
407.812	184.49
408.02	241.83
408.229	168.1
408.438	209.06
408.646	184.49
408.855	250.02
409.064	237.74
409.272	266.41
409.481	268.45
409.69	237.74
409.898	151.72
410.107	196.78
410.315	282.79
410.524	270.5
410.733	301.22
410.941	274.6
411.15	323.75
411.358	290.98
411.567	397.48
411.775	364.71
411.984	252.07
412.192	389.28
412.401	315.56
412.609	446.63
412.818	381.09
413.026	405.67
413.234	407.72
413.443	491.68
413.651	477.35
413.86	411.81
414.068	553.12
414.276	598.18
414.485	450.72
414.693	581.79
414.901	544.93
415.11	585.89
415.318	600.23
415.526	600.23
415.734	684.19
415.943	630.95
416.151	649.38
416.359	606.37
416.567	694.43
416.776	774.3
416.984	870.56
417.192	780.45
417.4	823.45
417.608	716.96
417.817	831.65
418.025	948.38
418.233	954.52
418.441	946.33
418.649	897.18
418.857	1093.79
419.065	1118.36
419.273	970.91
419.481	1112.22
419.689	1151.13
419.897	1321.11
420.105	1247.38
420.313	1310.87
420.521	1368.21
420.729	1413.27
420.937	1439.89
421.145	1462.42
421.353	1589.39
421.561	1638.55
421.769	1542.29
421.977	1732.75
422.185	1730.7
422.393	1863.82
422.601	1943.69
422.809	1929.36
423.017	1888.4
423.224	2001.04
423.432	2125.96
423.64	2035.85
423.848	2250.89
424.056	2076.81
424.263	2445.45
424.471	2355.33
424.679	2402.44
424.887	2410.63
425.094	2633.86
425.302	2533.51
425.51	2756.74
425.718	2809.98
425.925	2822.27
426.133	2963.58
426.341	3102.84
426.548	3231.87
426.756	3156.09
426.964	3389.56
427.171	3412.09
427.379	3647.6
427.586	3418.23
427.794	3723.38
428.001	3836.02
428.209	3885.17
428.417	4071.53
428.624	4255.85
428.832	4329.58
429.039	4196.46
429.247	4124.78
429.454	4591.72
429.662	5056.61
429.869	4622.44
430.076	4833.38
430.284	4747.36
430.491	5017.69
430.699	5347.42
430.906	5353.56
431.114	5537.88
431.321	5548.12
431.528	5699.67
431.736	5982.29
431.943	6230.09
432.15	6166.6
432.358	6244.43
432.565	6627.4
432.772	6498.38
432.979	6899.78
433.187	6983.74
433.394	7096.38
433.601	7530.55
433.808	7405.63
434.016	7606.33
434.223	8032.3
434.43	8278.06
434.637	8003.63
434.844	8716.33
435.052	8734.76
435.259	9005.09
435.466	8900.64
435.673	8769.57
435.88	9459.74
436.087	9830.42
436.294	10090.51
436.501	9506.84
436.708	9959.44
436.915	10086.42
437.122	10541.07
437.329	10598.41
437.537	11003.91
437.743	11276.29
437.95	11145.22
438.157	11503.61
438.364	12079.09
438.571	11804.66
438.778	12111.86
438.985	13109.22
439.192	12732.39
439.399	12986.34
439.606	12806.12
439.813	13408.22
440.02	14186.45
440.227	13944.79
440.433	13922.26
440.64	14231.51
440.847	14696.39
441.054	14522.32
441.261	15683.52
441.467	15542.21
441.674	15650.75
441.881	16314.29
442.088	16428.98
442.294	16314.29
442.501	16381.87
442.708	16813.99
442.914	17485.73
443.121	18304.92
443.328	17831.83
443.534	18821
443.741	18622.35
443.948	18317.2
444.154	19390.34
444.361	19337.09
444.568	19464.07
444.774	19564.42
444.981	19982.2
445.187	20529.01
445.394	21188.46
445.6	20897.64
445.807	23322.44
446.013	21962.59
446.22	22179.67
446.426	23369.54
446.633	23381.83
446.839	24274.74
447.046	23146.31
447.252	24416.05
447.459	24389.43
447.665	24553.27
447.871	25454.37
448.078	26564.37
448.284	24993.58
448.491	25931.55
448.697	27768.58
448.903	27602.69
449.11	27608.84
449.316	27172.62
449.522	27516.68
449.728	28471.03
449.935	28595.96
450.141	28450.55
450.347	29372.14
450.553	28233.47
450.76	28718.84
450.966	29452.01
451.172	29363.95
451.378	30015.2
451.584	29304.56
451.791	30088.93
451.997	29929.19
452.203	30172.89
452.409	30777.05
452.615	30205.66
452.821	29097.71
453.027	28819.19
453.233	30123.74
453.44	29241.07
453.646	29210.35
453.852	29744.87
454.058	29855.46
454.264	28944.11
454.47	29376.23
454.676	29083.37
454.882	29859.56
455.088	27162.38
455.294	27285.26
455.5	27762.44
455.705	28217.08
455.911	27154.19
456.117	26314.52
456.323	26408.73
456.529	24561.46
456.735	25827.1
456.941	25421.61
457.147	24766.26
457.352	23711.55
457.558	23455.56
457.764	23719.74
457.97	23398.21
458.176	22792.01
458.381	22937.42
458.587	21569.38
458.793	21839.71
458.999	20445.04
459.204	21763.93
459.41	21149.54
459.616	19881.85
459.821	20062.07
460.027	19959.67
460.233	19347.33
460.438	18288.53
460.644	18943.88
460.85	17915.8
461.055	17567.65
461.261	17536.93
461.466	16414.64
461.672	15718.33
461.878	16596.91
462.083	15873.98
462.289	15280.07
462.494	15462.33
462.7	14653.39
462.905	14442.45
463.111	14661.58
463.316	14854.09
463.522	14553.04
463.727	14462.93
463.932	14315.47
464.138	14184.4
464.343	14335.95
464.549	13850.58
464.754	14305.23
464.959	14231.51
465.165	13965.27
465.37	13416.41
465.575	13047.78
465.781	13772.76
465.986	13955.03
466.191	13406.17
466.397	13184.99
466.602	12324.85
466.807	12756.97
467.012	12980.2
467.218	12693.48
