Data from USB4F104151__95__11-32-14-300.txt Node

Date: Fri Mar 14 11:32:14 EDT 2025
User: louis
Spectrometer: USB4F10415
Trigger mode: 4
Integration Time (sec): 5.000000E-2
Scans to average: 1
Electric dark correction enabled: true
Nonlinearity correction enabled: false
Boxcar width: 0
XAxis mode: Wavelengths
Number of Pixels in Spectrum: 3648
>>>>>Begin Spectral Data<<<<<
178.204	-179.03
178.424	-179.03
178.644	-179.03
178.864	-205.65
179.084	-142.16
179.304	-52.05
179.524	62.63
179.744	-37.72
179.964	-37.72
180.184	101.55
180.404	64.68
180.624	-50
180.844	-7
181.064	29.87
181.283	3.24
181.503	-43.86
181.723	-33.62
181.943	-52.05
182.163	115.88
182.383	13.48
182.602	23.72
182.822	40.11
183.042	31.91
183.262	17.58
183.482	40.11
183.701	68.78
183.921	29.87
184.141	-39.76
184.361	40.11
184.58	50.35
184.8	17.58
185.02	-23.38
185.239	13.48
185.459	-2.9
185.679	72.87
185.898	5.29
186.118	56.49
186.338	48.3
186.557	111.78
186.777	-72.53
186.997	-13.14
187.216	21.67
187.436	48.3
187.655	60.59
187.875	36.01
188.095	-15.19
188.314	54.44
188.534	72.87
188.753	1.19
188.973	17.58
189.192	38.06
189.412	-43.86
189.631	-0.85
189.851	42.15
190.07	83.11
190.29	-50
190.509	-41.81
190.729	58.54
190.948	117.93
191.168	177.32
191.387	66.73
191.607	9.39
191.826	15.53
192.045	76.97
192.265	5.29
192.484	42.15
192.704	44.2
192.923	-25.43
193.142	113.83
193.362	15.53
193.581	64.68
193.8	-11.09
194.02	44.2
194.239	3.24
194.458	97.45
194.678	74.92
194.897	-27.48
195.116	58.54
195.335	15.53
195.555	-13.14
195.774	-50
195.993	-15.19
196.212	-4.95
196.432	-82.77
196.651	117.93
196.87	-33.62
197.089	101.55
197.308	58.54
197.528	40.11
197.747	-0.85
197.966	33.96
198.185	23.72
198.404	-13.14
198.623	9.39
198.842	60.59
199.062	58.54
199.281	31.91
199.5	58.54
199.719	27.82
199.938	27.82
200.157	17.58
200.376	21.67
200.595	62.63
200.814	17.58
201.033	-15.19
201.252	99.5
201.471	-23.38
201.69	23.72
201.909	17.58
202.128	58.54
202.347	42.15
202.566	13.48
202.785	29.87
203.004	81.07
203.223	56.49
203.442	-15.19
203.661	1.19
203.879	72.87
204.098	83.11
204.317	-58.2
204.536	93.35
204.755	23.72
204.974	9.39
205.193	-62.29
205.411	81.07
205.63	19.63
205.849	13.48
206.068	5.29
206.287	-78.68
206.505	11.43
206.724	64.68
206.943	-31.57
207.162	-58.2
207.381	42.15
207.599	70.83
207.818	58.54
208.037	44.2
208.255	93.35
208.474	3.24
208.693	62.63
208.911	11.43
209.13	23.72
209.349	-2.9
209.567	-0.85
209.786	64.68
210.005	-2.9
210.223	23.72
210.442	-101.2
210.661	-33.62
210.879	31.91
211.098	-23.38
211.316	91.31
211.535	64.68
211.753	-50
211.972	9.39
212.191	-52.05
212.409	38.06
212.628	72.87
212.846	-21.33
213.065	-7
213.283	36.01
213.502	-39.76
213.72	72.87
213.938	64.68
214.157	42.15
214.375	33.96
214.594	-21.33
214.812	81.07
215.031	38.06
215.249	-74.58
215.467	81.07
215.686	-31.57
215.904	-27.48
216.122	-31.57
216.341	87.21
216.559	46.25
216.778	58.54
216.996	36.01
217.214	-41.81
217.432	-25.43
217.651	15.53
217.869	-11.09
218.087	-9.05
218.306	31.91
218.524	40.11
218.742	44.2
218.96	54.44
219.179	-13.14
219.397	-7
219.615	179.37
219.833	66.73
220.051	29.87
220.27	23.72
220.488	-0.85
220.706	1.19
220.924	72.87
221.142	46.25
221.36	93.35
221.578	-33.62
221.796	3.24
222.015	13.48
222.233	54.44
222.451	76.97
222.669	-31.57
222.887	79.02
223.105	23.72
223.323	5.29
223.541	25.77
223.759	72.87
223.977	-2.9
224.195	3.24
224.413	54.44
224.631	81.07
224.849	-13.14
225.067	48.3
225.285	15.53
225.503	-17.24
225.721	-52.05
225.939	60.59
226.157	1.19
226.375	132.26
226.592	111.78
226.81	-7
227.028	7.34
227.246	31.91
227.464	70.83
227.682	7.34
227.9	19.63
228.117	40.11
228.335	40.11
228.553	27.82
228.771	40.11
228.989	58.54
229.206	40.11
229.424	-52.05
229.642	25.77
229.86	-45.91
230.077	99.5
230.295	38.06
230.513	31.91
230.731	19.63
230.948	87.21
231.166	29.87
231.384	25.77
231.601	-29.52
231.819	74.92
232.037	33.96
232.254	48.3
232.472	1.19
232.689	62.63
232.907	85.16
233.125	-21.33
233.342	17.58
233.56	-68.44
233.777	91.31
233.995	-11.09
234.213	23.72
234.43	58.54
234.648	13.48
234.865	-0.85
235.083	1.19
235.3	21.67
235.518	74.92
235.735	21.67
235.953	83.11
236.17	-23.38
236.388	7.34
236.605	85.16
236.822	7.34
237.04	87.21
237.257	-33.62
237.475	-31.57
237.692	-11.09
237.909	76.97
238.127	-17.24
238.344	19.63
238.562	17.58
238.779	36.01
238.996	-45.91
239.214	-9.05
239.431	-39.76
239.648	-23.38
239.865	31.91
240.083	48.3
240.3	11.43
240.517	-0.85
240.735	9.39
240.952	89.26
241.169	40.11
241.386	13.48
241.603	13.48
241.821	-33.62
242.038	21.67
242.255	48.3
242.472	-111.44
242.689	58.54
242.907	1.19
243.124	-9.05
243.341	58.54
243.558	-33.62
243.775	-31.57
243.992	-2.9
244.209	-11.09
244.426	62.63
244.643	64.68
244.86	-19.29
245.078	72.87
245.295	-0.85
245.512	-50
245.729	-19.29
245.946	31.91
246.163	66.73
246.38	11.43
246.597	15.53
246.814	23.72
247.031	17.58
247.248	62.63
247.464	-50
247.681	-0.85
247.898	25.77
248.115	60.59
248.332	-2.9
248.549	83.11
248.766	83.11
248.983	21.67
249.2	23.72
249.417	74.92
249.633	70.83
249.85	23.72
250.067	97.45
250.284	25.77
250.501	72.87
250.717	-4.95
250.934	40.11
251.151	46.25
251.368	33.96
251.585	-0.85
251.801	-17.24
252.018	-64.34
252.235	169.13
252.451	9.39
252.668	-31.57
252.885	25.77
253.102	7.34
253.318	-23.38
253.535	-17.24
253.752	19.63
253.968	33.96
254.185	-29.52
254.401	46.25
254.618	-23.38
254.835	31.91
255.051	48.3
255.268	95.4
255.484	38.06
255.701	66.73
255.917	66.73
256.134	-39.76
256.351	-9.05
256.567	-31.57
256.784	23.72
257	60.59
257.217	68.78
257.433	54.44
257.65	29.87
257.866	79.02
258.082	-119.64
258.299	-17.24
258.515	21.67
258.732	33.96
258.948	-21.33
259.165	13.48
259.381	62.63
259.597	9.39
259.814	-9.05
260.03	-9.05
260.246	66.73
260.463	-7
260.679	33.96
260.895	1.19
261.112	21.67
261.328	-33.62
261.544	-9.05
261.761	74.92
261.977	56.49
262.193	-15.19
262.409	-11.09
262.626	27.82
262.842	-54.1
263.058	-2.9
263.274	-41.81
263.49	48.3
263.707	56.49
263.923	99.5
264.139	-9.05
264.355	-2.9
264.571	15.53
264.787	25.77
265.004	50.35
265.22	-13.14
265.436	7.34
265.652	15.53
265.868	27.82
266.084	-47.96
266.3	70.83
266.516	-56.15
266.732	64.68
266.948	66.73
267.164	40.11
267.38	33.96
267.596	79.02
267.812	72.87
268.028	-19.29
268.244	-2.9
268.46	25.77
268.676	-11.09
268.892	9.39
269.108	52.39
269.324	-4.95
269.54	-37.72
269.756	3.24
269.972	9.39
270.188	56.49
270.403	-64.34
270.619	9.39
270.835	66.73
271.051	-29.52
271.267	-23.38
271.483	-15.19
271.698	64.68
271.914	7.34
272.13	38.06
272.346	50.35
272.562	-7
272.777	58.54
272.993	38.06
273.209	50.35
273.425	-19.29
273.64	-39.76
273.856	79.02
274.072	19.63
274.287	5.29
274.503	54.44
274.719	62.63
274.934	5.29
275.15	-47.96
275.366	-29.52
275.581	-2.9
275.797	-43.86
276.012	54.44
276.228	-17.24
276.444	-37.72
276.659	52.39
276.875	-37.72
277.09	42.15
277.306	-45.91
277.521	5.29
277.737	-2.9
277.952	7.34
278.168	72.87
278.383	31.91
278.599	-35.67
278.814	17.58
279.03	23.72
279.245	93.35
279.461	-43.86
279.676	42.15
279.892	5.29
280.107	7.34
280.322	42.15
280.538	-15.19
280.753	21.67
280.969	9.39
281.184	31.91
281.399	66.73
281.615	9.39
281.83	31.91
282.045	-74.58
282.26	-9.05
282.476	-23.38
282.691	42.15
282.906	-17.24
283.122	31.91
283.337	-37.72
283.552	40.11
283.767	-47.96
283.983	40.11
284.198	-39.76
284.413	101.55
284.628	-29.52
284.843	13.48
285.058	-7
285.274	-45.91
285.489	15.53
285.704	50.35
285.919	-50
286.134	-0.85
286.349	36.01
286.564	13.48
286.779	-21.33
286.995	52.39
287.21	-68.44
287.425	5.29
287.64	7.34
287.855	-23.38
288.07	25.77
288.285	122.02
288.5	7.34
288.715	56.49
288.93	-9.05
289.145	40.11
289.36	81.07
289.575	-47.96
289.79	76.97
290.004	23.72
290.219	31.91
290.434	-21.33
290.649	-47.96
290.864	85.16
291.079	23.72
291.294	-2.9
291.509	58.54
291.724	3.24
291.938	21.67
292.153	25.77
292.368	-0.85
292.583	50.35
292.798	36.01
293.012	64.68
293.227	3.24
293.442	33.96
293.657	42.15
293.871	83.11
294.086	38.06
294.301	70.83
294.516	99.5
294.73	38.06
294.945	1.19
295.16	23.72
295.374	48.3
295.589	70.83
295.804	-68.44
296.018	33.96
296.233	66.73
296.447	144.55
296.662	-39.76
296.877	50.35
297.091	79.02
297.306	-21.33
297.52	79.02
297.735	21.67
297.949	15.53
298.164	66.73
298.378	15.53
298.593	11.43
298.807	-33.62
299.022	66.73
299.236	38.06
299.451	-13.14
299.665	38.06
299.88	70.83
300.094	50.35
300.309	-43.86
300.523	64.68
300.737	-7
300.952	-15.19
301.166	-15.19
301.381	-29.52
301.595	-2.9
301.809	17.58
302.024	58.54
302.238	13.48
302.452	42.15
302.667	-25.43
302.881	148.65
303.095	7.34
303.309	79.02
303.524	1.19
303.738	1.19
303.952	13.48
304.166	58.54
304.381	-47.96
304.595	85.16
304.809	5.29
305.023	29.87
305.237	130.22
305.452	-11.09
305.666	3.24
305.88	66.73
306.094	21.67
306.308	83.11
306.522	17.58
306.736	44.2
306.95	17.58
307.164	13.48
307.379	-39.76
307.593	29.87
307.807	54.44
308.021	-39.76
308.235	23.72
308.449	-29.52
308.663	5.29
308.877	95.4
309.091	46.25
309.305	50.35
309.519	-15.19
309.733	93.35
309.947	-15.19
310.161	74.92
310.374	46.25
310.588	50.35
310.802	-17.24
311.016	33.96
311.23	15.53
311.444	-58.2
311.658	23.72
311.872	42.15
312.085	21.67
312.299	38.06
312.513	-9.05
312.727	9.39
312.941	-9.05
313.154	58.54
313.368	76.97
313.582	17.58
313.796	-9.05
314.009	-21.33
314.223	138.41
314.437	-31.57
314.651	70.83
314.864	-7
315.078	62.63
315.292	15.53
315.505	-2.9
315.719	-0.85
315.933	-7
316.146	33.96
316.36	-80.72
316.573	38.06
316.787	52.39
317.001	-37.72
317.214	17.58
317.428	25.77
317.641	-15.19
317.855	46.25
318.068	-45.91
318.282	29.87
318.495	60.59
318.709	-11.09
318.922	87.21
319.136	7.34
319.349	62.63
319.563	-84.82
319.776	66.73
319.99	-0.85
320.203	11.43
320.417	21.67
320.63	25.77
320.843	-19.29
321.057	1.19
321.27	91.31
321.483	58.54
321.697	83.11
321.91	58.54
322.124	29.87
322.337	91.31
322.55	-27.48
322.763	-11.09
322.977	58.54
323.19	-13.14
323.403	-19.29
323.617	33.96
323.83	38.06
324.043	-47.96
324.256	21.67
324.469	-47.96
324.683	19.63
324.896	44.2
325.109	-15.19
325.322	-15.19
325.535	-2.9
325.748	13.48
325.962	17.58
326.175	-27.48
326.388	36.01
326.601	97.45
326.814	23.72
327.027	-11.09
327.24	140.46
327.453	-7
327.666	60.59
327.879	62.63
328.092	13.48
328.305	15.53
328.518	38.06
328.731	-4.95
328.944	-31.57
329.157	70.83
329.37	-15.19
329.583	81.07
329.796	107.69
330.009	-21.33
330.222	21.67
330.435	50.35
330.648	115.88
330.861	15.53
331.073	-45.91
331.286	38.06
331.499	89.26
331.712	40.11
331.925	25.77
332.138	-39.76
332.35	81.07
332.563	36.01
332.776	58.54
332.989	9.39
333.202	29.87
333.414	1.19
333.627	38.06
333.84	9.39
334.053	40.11
334.265	-11.09
334.478	-23.38
334.691	31.91
334.903	-43.86
335.116	-9.05
335.329	21.67
335.541	83.11
335.754	66.73
335.966	-21.33
336.179	29.87
336.392	17.58
336.604	5.29
336.817	52.39
337.029	70.83
337.242	113.83
337.454	64.68
337.667	76.97
337.88	152.74
338.092	42.15
338.305	42.15
338.517	-39.76
338.729	-21.33
338.942	1.19
339.154	17.58
339.367	-43.86
339.579	48.3
339.792	31.91
340.004	93.35
340.217	58.54
340.429	-23.38
340.641	-11.09
340.854	19.63
341.066	85.16
341.278	113.83
341.491	97.45
341.703	46.25
341.915	-64.34
342.128	-0.85
342.34	-19.29
342.552	-19.29
342.764	17.58
342.977	-45.91
343.189	-25.43
343.401	3.24
343.613	27.82
343.826	58.54
344.038	17.58
344.25	17.58
344.462	25.77
344.674	17.58
344.886	54.44
345.099	40.11
345.311	25.77
345.523	46.25
345.735	-72.53
345.947	5.29
346.159	3.24
346.371	89.26
346.583	-7
346.795	64.68
347.007	15.53
347.219	-7
347.431	58.54
347.643	122.02
347.855	-25.43
348.067	1.19
348.279	-27.48
348.491	31.91
348.703	52.39
348.915	50.35
349.127	15.53
349.339	89.26
349.551	33.96
349.763	105.64
349.975	74.92
350.187	-2.9
350.399	72.87
350.61	99.5
350.822	7.34
351.034	23.72
351.246	25.77
351.458	107.69
351.669	81.07
351.881	46.25
352.093	50.35
352.305	64.68
352.517	11.43
352.728	91.31
352.94	50.35
353.152	-43.86
353.363	-2.9
353.575	-52.05
353.787	83.11
353.999	42.15
354.21	72.87
354.422	-99.16
354.633	-27.48
354.845	13.48
355.057	72.87
355.268	23.72
355.48	9.39
355.692	29.87
355.903	13.48
356.115	-9.05
356.326	-41.81
356.538	83.11
356.749	1.19
356.961	91.31
357.172	1.19
357.384	-19.29
357.595	70.83
357.807	25.77
358.018	13.48
358.23	-43.86
358.441	50.35
358.653	-23.38
358.864	31.91
359.075	29.87
359.287	17.58
359.498	38.06
359.709	62.63
359.921	72.87
360.132	-2.9
360.344	-35.67
360.555	27.82
360.766	95.4
360.977	-15.19
361.189	17.58
361.4	-9.05
361.611	40.11
361.823	66.73
362.034	99.5
362.245	-19.29
362.456	31.91
362.667	48.3
362.879	54.44
363.09	-39.76
363.301	38.06
363.512	54.44
363.723	-9.05
363.935	25.77
364.146	42.15
364.357	50.35
364.568	72.87
364.779	-37.72
364.99	83.11
365.201	1.19
365.412	74.92
365.623	-43.86
365.834	-11.09
366.045	-11.09
366.256	58.54
366.467	38.06
366.678	-13.14
366.889	15.53
367.1	3.24
367.311	-2.9
367.522	62.63
367.733	46.25
367.944	21.67
368.155	15.53
368.366	40.11
368.577	38.06
368.788	72.87
368.999	-7
369.209	1.19
369.42	113.83
369.631	64.68
369.842	7.34
370.053	25.77
370.264	33.96
370.474	-13.14
370.685	11.43
370.896	-15.19
371.107	42.15
371.317	72.87
371.528	42.15
371.739	99.5
371.95	40.11
372.16	72.87
372.371	48.3
372.582	-4.95
372.792	-15.19
373.003	33.96
373.214	-4.95
373.424	17.58
373.635	-4.95
373.846	56.49
374.056	-39.76
374.267	-0.85
374.477	23.72
374.688	33.96
374.898	40.11
375.109	48.3
375.319	-15.19
375.53	42.15
375.74	-7
375.951	81.07
376.161	-2.9
376.372	91.31
376.582	5.29
376.793	97.45
377.003	-41.81
377.214	5.29
377.424	7.34
377.635	23.72
377.845	46.25
378.055	36.01
378.266	-23.38
378.476	40.11
378.686	54.44
378.897	42.15
379.107	44.2
379.317	1.19
379.528	-17.24
379.738	58.54
379.948	-7
380.158	7.34
380.369	68.78
380.579	15.53
380.789	27.82
380.999	-17.24
381.21	91.31
381.42	85.16
381.63	42.15
381.84	66.73
382.05	42.15
382.261	107.69
382.471	-15.19
382.681	-39.76
382.891	48.3
383.101	-2.9
383.311	68.78
383.521	-15.19
383.731	64.68
383.941	79.02
384.151	-15.19
384.361	60.59
384.571	1.19
384.781	5.29
384.991	95.4
385.201	142.5
385.411	97.45
385.621	38.06
385.831	25.77
386.041	48.3
386.251	38.06
386.461	23.72
386.671	13.48
386.881	52.39
387.091	33.96
387.301	91.31
387.511	-9.05
387.72	56.49
387.93	74.92
388.14	27.82
388.35	7.34
388.56	70.83
388.769	99.5
388.979	11.43
389.189	33.96
389.399	-17.24
389.609	17.58
389.818	-7
390.028	-27.48
390.238	23.72
390.447	-17.24
390.657	89.26
390.867	38.06
391.076	31.91
391.286	36.01
391.496	48.3
391.705	99.5
391.915	87.21
392.125	74.92
392.334	1.19
392.544	27.82
392.753	99.5
392.963	89.26
393.172	50.35
393.382	-37.72
393.591	1.19
393.801	11.43
394.01	150.7
394.22	36.01
394.429	66.73
394.639	74.92
394.848	56.49
395.058	68.78
395.267	91.31
395.477	74.92
395.686	-52.05
395.895	115.88
396.105	246.95
396.314	48.3
396.524	31.91
396.733	-7
396.942	128.17
397.152	115.88
397.361	50.35
397.57	93.35
397.78	64.68
397.989	46.25
398.198	95.4
398.407	85.16
398.617	3.24
398.826	25.77
399.035	66.73
399.244	52.39
399.453	95.4
399.663	72.87
399.872	91.31
400.081	107.69
400.29	70.83
400.499	74.92
400.708	162.98
400.917	19.63
401.127	21.67
401.336	87.21
401.545	203.94
401.754	111.78
401.963	38.06
402.172	99.5
402.381	40.11
402.59	103.59
402.799	93.35
403.008	187.56
403.217	99.5
403.426	130.22
403.635	48.3
403.844	132.26
404.053	66.73
404.262	70.83
404.471	193.7
404.68	160.94
404.888	50.35
405.097	72.87
405.306	99.5
405.515	119.98
405.724	95.4
405.933	154.79
406.142	111.78
406.35	58.54
406.559	146.6
406.768	83.11
406.977	173.22
407.185	124.07
407.394	181.42
407.603	103.59
407.812	144.55
408.02	197.8
408.229	134.31
408.438	177.32
408.646	140.46
408.855	162.98
409.064	214.18
409.272	103.59
409.481	238.76
409.69	173.22
409.898	158.89
410.107	138.41
410.315	236.71
410.524	267.43
410.733	210.09
410.941	210.09
411.15	302.25
411.358	302.25
411.567	320.68
411.775	318.63
411.984	312.49
412.192	289.96
412.401	292.01
412.609	400.55
412.818	328.87
413.026	349.35
413.234	353.45
413.443	351.4
413.651	339.11
413.86	406.69
414.068	464.04
414.276	406.69
414.485	511.14
414.693	500.9
414.901	550.05
415.11	517.28
415.318	509.09
415.526	490.66
415.734	578.72
415.943	517.28
416.151	541.86
416.359	582.82
416.567	705.7
416.776	656.54
416.984	687.26
417.192	660.64
417.4	681.12
417.608	658.59
417.817	656.54
418.025	720.03
418.233	892.06
418.441	730.27
418.649	826.53
418.857	984.22
419.065	1041.56
419.273	1000.6
419.481	1012.89
419.689	1047.71
419.897	1072.28
420.105	1055.9
420.313	1049.75
420.521	1189.02
420.729	1148.06
420.937	1139.87
421.145	1162.39
421.353	1275.03
421.561	1359
421.769	1348.76
421.977	1430.68
422.185	1371.29
422.393	1580.18
422.601	1551.51
422.809	1606.8
423.017	1645.71
423.224	1649.81
423.432	1825.93
423.64	1721.49
423.848	1866.89
424.056	1965.2
424.263	2043.02
424.471	2063.5
424.679	1981.58
424.887	2129.03
425.094	2333.83
425.302	2182.28
425.51	2280.58
425.718	2370.69
425.925	2442.37
426.133	2522.24
426.341	2681.99
426.548	2720.9
426.756	2610.31
426.964	2796.67
427.171	2964.61
427.379	2989.18
427.586	2966.65
427.794	3073.15
428.001	3265.66
428.209	3581.04
428.417	3437.69
428.624	3548.28
428.832	3726.45
429.039	3587.19
429.247	3579
429.454	4117.61
429.662	4293.74
429.869	3980.4
430.076	4400.23
430.284	4271.21
430.491	4230.25
430.699	4533.35
430.906	4572.26
431.114	4600.93
431.321	4877.41
431.528	4959.33
431.736	5188.7
431.943	5303.39
432.15	5174.36
432.358	5280.86
432.565	5495.89
432.772	5530.71
432.979	5842
433.187	5993.55
433.394	5899.34
433.601	6345.8
433.808	6411.34
434.016	6462.54
434.223	6612.04
434.43	7105.6
434.637	6964.29
434.844	7322.68
435.052	7437.37
435.259	7388.22
435.466	7310.4
435.673	7490.62
435.88	7902.26
436.087	8385.58
436.294	8170.54
436.501	8254.51
436.708	8145.97
436.915	8606.76
437.122	8944.67
437.329	8967.2
437.537	9231.39
437.743	9384.99
437.95	9335.84
438.157	9724.95
438.364	9970.71
438.571	10036.24
438.778	10118.16
438.985	11228.16
439.192	10896.39
439.399	11021.31
439.606	10853.38
439.813	11402.24
440.02	12325.87
440.227	11903.99
440.433	11695.1
440.64	12112.88
440.847	12067.83
441.054	12321.77
441.261	13190.11
441.467	12749.8
441.674	13272.03
441.881	13820.89
442.088	13646.81
442.294	13491.16
442.501	13915.09
442.708	14222.29
442.914	14848.97
443.121	15377.34
443.328	15049.67
443.534	15938.49
443.741	15719.35
443.948	15281.09
444.154	16249.78
444.361	16235.44
444.568	16632.75
444.774	16702.38
444.981	16446.38
445.187	17120.17
445.394	17855.39
445.6	17900.44
445.807	19436.42
446.013	18471.82
446.22	18680.72
446.426	19604.35
446.633	19919.74
446.839	20493.17
447.046	19905.4
447.252	20755.31
447.459	20593.52
447.665	20407.16
447.871	21699.42
448.078	22672.21
448.284	21433.19
448.491	21986.14
448.697	22782.8
448.903	23255.88
449.11	22942.54
449.316	22786.89
449.522	23499.59
449.728	24017.72
449.935	24206.14
450.141	24265.53
450.347	24601.4
450.553	23771.97
450.76	24312.63
450.966	24732.47
451.172	24892.21
451.378	25266.99
451.584	24754.99
451.791	25486.12
451.997	25072.43
452.203	25707.3
452.409	25758.5
452.615	25309.99
452.821	24359.73
453.027	24564.53
453.233	25711.39
453.44	24693.55
453.646	24785.71
453.852	25152.3
454.058	25381.67
454.264	24425.27
454.47	25299.75
454.676	24449.85
454.882	25142.06
455.088	23044.94
455.294	23393.09
455.5	23644.99
455.705	23919.42
455.911	22885.2
456.117	22680.4
456.323	22195.03
456.529	20876.14
456.735	22307.67
456.941	21537.63
457.147	20974.44
457.352	20616.05
457.558	20360.05
457.764	20339.57
457.97	20044.66
458.176	19444.61
458.381	19342.21
458.587	18572.18
458.793	18314.13
458.999	17345.44
459.204	18561.94
459.41	18369.43
459.616	16860.07
459.821	17066.92
460.027	16819.11
460.233	16528.3
460.438	15481.79
460.644	15887.29
460.85	15119.3
461.055	14758.86
461.261	14744.52
461.466	13716.44
461.672	13562.84
461.878	14468.05
462.083	13390.81
462.289	13132.77
462.494	12940.26
462.7	12477.42
462.905	11975.67
463.111	12575.72
463.316	12733.42
463.522	12180.46
463.727	12399.6
463.932	12153.84
464.138	12233.71
464.343	12346.35
464.549	11842.55
464.754	12428.27
464.959	12067.83
465.165	12248.05
465.37	11447.29
465.575	11340.8
465.781	11590.65
465.986	11764.73
466.191	11224.06
466.397	10978.31
466.602	10519.56
466.807	11150.34
467.012	10787.85
467.218	10796.04
467.423	10785.8
467.628	10918.92
467.833	11162.62
468.038	10744.84
468.244	10478.6
