Data from USB4F104151__67__11-31-04-408.txt Node

Date: Fri Mar 14 11:31:04 EDT 2025
User: louis
Spectrometer: USB4F10415
Trigger mode: 4
Integration Time (sec): 5.000000E-2
Scans to average: 1
Electric dark correction enabled: true
Nonlinearity correction enabled: false
Boxcar width: 0
XAxis mode: Wavelengths
Number of Pixels in Spectrum: 3648
>>>>>Begin Spectral Data<<<<<
178.204	-145.75
178.424	-145.75
178.644	-145.75
178.864	-90.45
179.084	-182.61
179.304	-20.82
179.524	-29.01
179.744	-55.64
179.964	67.24
180.184	83.63
180.404	-24.92
180.624	28.33
180.844	-4.44
181.064	-14.68
181.283	-4.44
181.503	-22.87
181.723	-2.39
181.943	-98.64
182.163	18.09
182.383	1.71
182.602	34.47
182.822	26.28
183.042	75.43
183.262	50.86
183.482	-14.68
183.701	-24.92
183.921	54.95
184.141	-43.35
184.361	32.43
184.58	83.63
184.8	-22.87
185.02	-0.34
185.239	89.77
185.459	18.09
185.679	149.16
185.898	26.28
186.118	-8.53
186.338	59.05
186.557	95.91
186.777	-47.44
186.997	-18.77
187.216	52.91
187.436	79.53
187.655	73.39
187.875	1.71
188.095	13.99
188.314	16.04
188.534	100.01
188.753	-41.3
188.973	87.72
189.192	48.81
189.412	24.23
189.631	-8.53
189.851	9.9
190.07	34.47
190.29	9.9
190.509	22.19
190.729	-6.49
190.948	9.9
191.168	194.22
191.387	18.09
191.607	-18.77
191.826	79.53
192.045	-18.77
192.265	32.43
192.484	73.39
192.704	79.53
192.923	18.09
193.142	118.44
193.362	57
193.581	118.44
193.8	9.9
194.02	26.28
194.239	30.38
194.458	34.47
194.678	40.62
194.897	-39.25
195.116	32.43
195.335	26.28
195.555	93.87
195.774	-4.44
195.993	34.47
196.212	36.52
196.432	59.05
196.651	5.8
196.87	77.48
197.089	118.44
197.308	95.91
197.528	34.47
197.747	-55.64
197.966	34.47
198.185	54.95
198.404	16.04
198.623	-2.39
198.842	26.28
199.062	65.19
199.281	81.58
199.5	7.85
199.719	24.23
199.938	28.33
200.157	-29.01
200.376	34.47
200.595	79.53
200.814	-2.39
201.033	-49.49
201.252	34.47
201.471	63.15
201.69	32.43
201.909	87.72
202.128	-8.53
202.347	9.9
202.566	-0.34
202.785	9.9
203.004	-49.49
203.223	89.77
203.442	-14.68
203.661	20.14
203.879	48.81
204.098	54.95
204.317	-37.2
204.536	18.09
204.755	-0.34
204.974	83.63
205.193	5.8
205.411	153.26
205.63	32.43
205.849	130.73
206.068	-96.6
206.287	50.86
206.505	13.99
206.724	-24.92
206.943	22.19
207.162	16.04
207.381	-29.01
207.599	11.95
207.818	-67.92
208.037	50.86
208.255	22.19
208.474	9.9
208.693	13.99
208.911	-35.16
209.13	38.57
209.349	54.95
209.567	61.1
209.786	11.95
210.005	44.71
210.223	63.15
210.442	20.14
210.661	3.75
210.879	-2.39
211.098	65.19
211.316	46.76
211.535	59.05
211.753	65.19
211.972	-31.06
212.191	73.39
212.409	50.86
212.628	38.57
212.846	7.85
213.065	48.81
213.283	9.9
213.502	-16.73
213.72	81.58
213.938	-22.87
214.157	57
214.375	18.09
214.594	-2.39
214.812	-6.49
215.031	22.19
215.249	9.9
215.467	3.75
215.686	26.28
215.904	57
216.122	24.23
216.341	106.15
216.559	-6.49
216.778	38.57
216.996	81.58
217.214	26.28
217.432	-35.16
217.651	108.2
217.869	-6.49
218.087	57
218.306	-4.44
218.524	-6.49
218.742	-35.16
218.96	52.91
219.179	-26.96
219.397	-4.44
219.615	38.57
219.833	79.53
220.051	13.99
220.27	57
220.488	71.34
220.706	95.91
220.924	38.57
221.142	34.47
221.36	46.76
221.578	59.05
221.796	18.09
222.015	20.14
222.233	34.47
222.451	38.57
222.669	-59.73
222.887	85.67
223.105	-43.35
223.323	-33.11
223.541	-6.49
223.759	75.43
223.977	81.58
224.195	18.09
224.413	46.76
224.631	50.86
224.849	16.04
225.067	108.2
225.285	-33.11
225.503	59.05
225.721	-41.3
225.939	24.23
226.157	-8.53
226.375	147.11
226.592	-8.53
226.81	46.76
227.028	59.05
227.246	69.29
227.464	-12.63
227.682	22.19
227.9	26.28
228.117	50.86
228.335	-14.68
228.553	-18.77
228.771	46.76
228.989	18.09
229.206	22.19
229.424	-90.45
229.642	-6.49
229.86	-8.53
230.077	71.34
230.295	-45.4
230.513	42.67
230.731	18.09
230.948	95.91
231.166	63.15
231.384	50.86
231.601	-14.68
231.819	77.48
232.037	48.81
232.254	65.19
232.472	-22.87
232.689	-16.73
232.907	61.1
233.125	50.86
233.342	-0.34
233.56	-10.58
233.777	-14.68
233.995	48.81
234.213	108.2
234.43	1.71
234.648	-6.49
234.865	22.19
235.083	32.43
235.3	46.76
235.518	50.86
235.735	42.67
235.953	75.43
236.17	-26.96
236.388	-16.73
236.605	54.95
236.822	18.09
237.04	-16.73
237.257	16.04
237.475	-45.4
237.692	34.47
237.909	20.14
238.127	18.09
238.344	20.14
238.562	59.05
238.779	-69.97
238.996	-72.02
239.214	-6.49
239.431	26.28
239.648	18.09
239.865	9.9
240.083	16.04
240.3	20.14
240.517	-31.06
240.735	7.85
240.952	50.86
241.169	71.34
241.386	63.15
241.603	-12.63
241.821	-22.87
242.038	100.01
242.255	9.9
242.472	-33.11
242.689	-18.77
242.907	46.76
243.124	11.95
243.341	18.09
243.558	20.14
243.775	-10.58
243.992	9.9
244.209	16.04
244.426	134.82
244.643	83.63
244.86	-53.59
245.078	42.67
245.295	42.67
245.512	-12.63
245.729	34.47
245.946	-0.34
246.163	22.19
246.38	24.23
246.597	38.57
246.814	9.9
247.031	-84.31
247.248	59.05
247.464	26.28
247.681	54.95
247.898	26.28
248.115	50.86
248.332	18.09
248.549	44.71
248.766	61.1
248.983	-6.49
249.2	7.85
249.417	28.33
249.633	-10.58
249.85	69.29
250.067	-8.53
250.284	-67.92
250.501	42.67
250.717	54.95
250.934	-22.87
251.151	20.14
251.368	100.01
251.585	-16.73
251.801	-49.49
252.018	-57.68
252.235	69.29
252.451	7.85
252.668	-33.11
252.885	28.33
253.102	24.23
253.318	26.28
253.535	13.99
253.752	28.33
253.968	52.91
254.185	-33.11
254.401	-20.82
254.618	34.47
254.835	69.29
255.051	61.1
255.268	22.19
255.484	24.23
255.701	42.67
255.917	40.62
256.134	1.71
256.351	81.58
256.567	-84.31
256.784	34.47
257	-100.69
257.217	40.62
257.433	36.52
257.65	67.24
257.866	77.48
258.082	-22.87
258.299	-69.97
258.515	28.33
258.732	38.57
258.948	-31.06
259.165	30.38
259.381	48.81
259.597	9.9
259.814	57
260.03	22.19
260.246	18.09
260.463	73.39
260.679	38.57
260.895	9.9
261.112	155.3
261.328	-16.73
261.544	-26.96
261.761	83.63
261.977	-49.49
262.193	-22.87
262.409	42.67
262.626	-31.06
262.842	1.71
263.058	-18.77
263.274	18.09
263.49	118.44
263.707	11.95
263.923	59.05
264.139	-39.25
264.355	52.91
264.571	57
264.787	-4.44
265.004	67.24
265.22	81.58
265.436	63.15
265.652	71.34
265.868	95.91
266.084	65.19
266.3	79.53
266.516	-41.3
266.732	-61.78
266.948	77.48
267.164	77.48
267.38	46.76
267.596	151.21
267.812	91.82
268.028	13.99
268.244	7.85
268.46	-29.01
268.676	-26.96
268.892	83.63
269.108	26.28
269.324	-10.58
269.54	-37.2
269.756	108.2
269.972	-16.73
270.188	-49.49
270.403	30.38
270.619	-20.82
270.835	75.43
271.051	75.43
271.267	-8.53
271.483	44.71
271.698	48.81
271.914	-31.06
272.13	59.05
272.346	34.47
272.562	26.28
272.777	122.54
272.993	30.38
273.209	34.47
273.425	-2.39
273.64	57
273.856	26.28
274.072	34.47
274.287	-57.68
274.503	42.67
274.719	59.05
274.934	-31.06
275.15	-76.12
275.366	-41.3
275.581	57
275.797	42.67
276.012	50.86
276.228	106.15
276.444	-24.92
276.659	91.82
276.875	-18.77
277.09	16.04
277.306	81.58
277.521	7.85
277.737	59.05
277.952	24.23
278.168	30.38
278.383	63.15
278.599	-2.39
278.814	5.8
279.03	-12.63
279.245	26.28
279.461	-6.49
279.676	36.52
279.892	-26.96
280.107	18.09
280.322	18.09
280.538	-31.06
280.753	30.38
280.969	-18.77
281.184	54.95
281.399	87.72
281.615	59.05
281.83	11.95
282.045	-29.01
282.26	-74.07
282.476	16.04
282.691	57
282.906	67.24
283.122	59.05
283.337	-47.44
283.552	7.85
283.767	75.43
283.983	71.34
284.198	24.23
284.413	16.04
284.628	13.99
284.843	26.28
285.058	79.53
285.274	1.71
285.489	-82.26
285.704	30.38
285.919	22.19
286.134	5.8
286.349	50.86
286.564	7.85
286.779	91.82
286.995	87.72
287.21	-0.34
287.425	-41.3
287.64	-22.87
287.855	-47.44
288.07	34.47
288.285	26.28
288.5	71.34
288.715	20.14
288.93	16.04
289.145	9.9
289.36	13.99
289.575	-18.77
289.79	16.04
290.004	24.23
290.219	16.04
290.434	-14.68
290.649	-14.68
290.864	9.9
291.079	44.71
291.294	-6.49
291.509	-14.68
291.724	75.43
291.938	1.71
292.153	50.86
292.368	73.39
292.583	32.43
292.798	-24.92
293.012	1.71
293.227	-10.58
293.442	32.43
293.657	42.67
293.871	87.72
294.086	59.05
294.301	124.58
294.516	57
294.73	5.8
294.945	-47.44
295.16	30.38
295.374	-24.92
295.589	34.47
295.804	-29.01
296.018	-2.39
296.233	83.63
296.447	-10.58
296.662	26.28
296.877	65.19
297.091	-22.87
297.306	9.9
297.52	-31.06
297.735	11.95
297.949	-39.25
298.164	7.85
298.378	18.09
298.593	-59.73
298.807	42.67
299.022	18.09
299.236	97.96
299.451	5.8
299.665	-6.49
299.88	5.8
300.094	-53.59
300.309	1.71
300.523	-47.44
300.737	-6.49
300.952	7.85
301.166	-24.92
301.381	93.87
301.595	87.72
301.809	-43.35
302.024	13.99
302.238	22.19
302.452	42.67
302.667	-74.07
302.881	155.3
303.095	71.34
303.309	32.43
303.524	26.28
303.738	20.14
303.952	26.28
304.166	91.82
304.381	-55.64
304.595	59.05
304.809	16.04
305.023	59.05
305.237	-55.64
305.452	32.43
305.666	34.47
305.88	91.82
306.094	83.63
306.308	75.43
306.522	54.95
306.736	91.82
306.95	81.58
307.164	28.33
307.379	40.62
307.593	81.58
307.807	30.38
308.021	24.23
308.235	63.15
308.449	-14.68
308.663	-39.25
308.877	102.06
309.091	13.99
309.305	1.71
309.519	-63.83
309.733	38.57
309.947	54.95
310.161	116.39
310.374	3.75
310.588	59.05
310.802	-41.3
311.016	30.38
311.23	18.09
311.444	20.14
311.658	-10.58
311.872	-6.49
312.085	-2.39
312.299	42.67
312.513	59.05
312.727	16.04
312.941	-61.78
313.154	28.33
313.368	40.62
313.582	63.15
313.796	106.15
314.009	18.09
314.223	24.23
314.437	13.99
314.651	75.43
314.864	-12.63
315.078	1.71
315.292	-2.39
315.505	-14.68
315.719	87.72
315.933	77.48
316.146	-4.44
316.36	-29.01
316.573	81.58
316.787	-8.53
317.001	-61.78
317.214	-18.77
317.428	59.05
317.641	-12.63
317.855	9.9
318.068	42.67
318.282	75.43
318.495	65.19
318.709	75.43
318.922	91.82
319.136	42.67
319.349	79.53
319.563	50.86
319.776	54.95
319.99	1.71
320.203	65.19
320.417	75.43
320.63	114.34
320.843	91.82
321.057	40.62
321.27	46.76
321.483	50.86
321.697	22.19
321.91	3.75
322.124	34.47
322.337	63.15
322.55	46.76
322.763	42.67
322.977	83.63
323.19	-31.06
323.403	38.57
323.617	30.38
323.83	24.23
324.043	-22.87
324.256	38.57
324.469	73.39
324.683	1.71
324.896	-72.02
325.109	16.04
325.322	-72.02
325.535	143.02
325.748	38.57
325.962	-61.78
326.175	9.9
326.388	122.54
326.601	57
326.814	-67.92
327.027	48.81
327.24	38.57
327.453	-26.96
327.666	36.52
327.879	34.47
328.092	73.39
328.305	-16.73
328.518	18.09
328.731	9.9
328.944	-0.34
329.157	-8.53
329.37	-0.34
329.583	110.25
329.796	91.82
330.009	-16.73
330.222	9.9
330.435	3.75
330.648	-8.53
330.861	24.23
331.073	89.77
331.286	97.96
331.499	-47.44
331.712	20.14
331.925	42.67
332.138	11.95
332.35	83.63
332.563	-84.31
332.776	61.1
332.989	54.95
333.202	-43.35
333.414	-6.49
333.627	38.57
333.84	24.23
334.053	24.23
334.265	36.52
334.478	36.52
334.691	13.99
334.903	93.87
335.116	13.99
335.329	-6.49
335.541	34.47
335.754	36.52
335.966	46.76
336.179	48.81
336.392	-6.49
336.604	26.28
336.817	97.96
337.029	42.67
337.242	40.62
337.454	22.19
337.667	54.95
337.88	143.02
338.092	-16.73
338.305	-22.87
338.517	-96.6
338.729	42.67
338.942	34.47
339.154	-14.68
339.367	-96.6
339.579	46.76
339.792	-0.34
340.004	108.2
340.217	-22.87
340.429	9.9
340.641	59.05
340.854	7.85
341.066	7.85
341.278	77.48
341.491	81.58
341.703	-35.16
341.915	-18.77
342.128	83.63
342.34	48.81
342.552	9.9
342.764	1.71
342.977	-2.39
343.189	112.3
343.401	5.8
343.613	34.47
343.826	11.95
344.038	-16.73
344.25	16.04
344.462	-31.06
344.674	-6.49
344.886	-16.73
345.099	42.67
345.311	40.62
345.523	38.57
345.735	-33.11
345.947	40.62
346.159	16.04
346.371	46.76
346.583	-96.6
346.795	34.47
347.007	-47.44
347.219	69.29
347.431	-16.73
347.643	20.14
347.855	3.75
348.067	87.72
348.279	-29.01
348.491	-2.39
348.703	-8.53
348.915	108.2
349.127	32.43
349.339	83.63
349.551	77.48
349.763	81.58
349.975	-16.73
350.187	132.78
350.399	85.67
350.61	-31.06
350.822	-41.3
351.034	24.23
351.246	36.52
351.458	69.29
351.669	38.57
351.881	-14.68
352.093	48.81
352.305	9.9
352.517	38.57
352.728	50.86
352.94	-31.06
353.152	20.14
353.363	79.53
353.575	50.86
353.787	79.53
353.999	1.71
354.21	132.78
354.422	-8.53
354.633	59.05
354.845	-2.39
355.057	50.86
355.268	57
355.48	11.95
355.692	20.14
355.903	34.47
356.115	-6.49
356.326	-6.49
356.538	104.11
356.749	11.95
356.961	106.15
357.172	57
357.384	30.38
357.595	138.92
357.807	-2.39
358.018	-0.34
358.23	-2.39
358.441	120.49
358.653	100.01
358.864	26.28
359.075	-6.49
359.287	89.77
359.498	50.86
359.709	73.39
359.921	87.72
360.132	-47.44
360.344	87.72
360.555	34.47
360.766	50.86
360.977	28.33
361.189	46.76
361.4	48.81
361.611	57
361.823	87.72
362.034	91.82
362.245	13.99
362.456	-24.92
362.667	65.19
362.879	57
363.09	-31.06
363.301	13.99
363.512	22.19
363.723	54.95
363.935	54.95
364.146	7.85
364.357	59.05
364.568	65.19
364.779	40.62
364.99	91.82
365.201	-29.01
365.412	-2.39
365.623	-65.88
365.834	59.05
366.045	40.62
366.256	95.91
366.467	40.62
366.678	100.01
366.889	93.87
367.1	50.86
367.311	38.57
367.522	-2.39
367.733	38.57
367.944	67.24
368.155	-49.49
368.366	50.86
368.577	22.19
368.788	97.96
368.999	7.85
369.209	24.23
369.42	108.2
369.631	175.78
369.842	91.82
370.053	22.19
370.264	34.47
370.474	-18.77
370.685	18.09
370.896	18.09
371.107	77.48
371.317	-6.49
371.528	26.28
371.739	79.53
371.95	46.76
372.16	-4.44
372.371	-2.39
372.582	46.76
372.792	-22.87
373.003	16.04
373.214	32.43
373.424	32.43
373.635	46.76
373.846	91.82
374.056	-24.92
374.267	26.28
374.477	85.67
374.688	-2.39
374.898	87.72
375.109	79.53
375.319	91.82
375.53	73.39
375.74	57
375.951	13.99
376.161	63.15
376.372	110.25
376.582	-24.92
376.793	77.48
377.003	-18.77
377.214	91.82
377.424	44.71
377.635	-0.34
377.845	-12.63
378.055	132.78
378.266	-92.5
378.476	46.76
378.686	48.81
378.897	59.05
379.107	110.25
379.317	7.85
379.528	24.23
379.738	83.63
379.948	13.99
380.158	30.38
380.369	67.24
380.579	95.91
380.789	-10.58
380.999	20.14
381.21	38.57
381.42	116.39
381.63	46.76
381.84	5.8
382.05	36.52
382.261	20.14
382.471	95.91
382.681	95.91
382.891	26.28
383.101	91.82
383.311	-2.39
383.521	20.14
383.731	-10.58
383.941	116.39
384.151	118.44
384.361	-14.68
384.571	102.06
384.781	112.3
384.991	91.82
385.201	85.67
385.411	112.3
385.621	9.9
385.831	122.54
386.041	40.62
386.251	65.19
386.461	67.24
386.671	26.28
386.881	1.71
387.091	54.95
387.301	9.9
387.511	50.86
387.72	44.71
387.93	38.57
388.14	48.81
388.35	42.67
388.56	44.71
388.769	149.16
388.979	97.96
389.189	44.71
389.399	18.09
389.609	91.82
389.818	126.63
390.028	18.09
390.238	38.57
390.447	100.01
390.657	13.99
390.867	-0.34
391.076	-24.92
391.286	63.15
391.496	40.62
391.705	40.62
391.915	95.91
392.125	124.58
392.334	-4.44
392.544	32.43
392.753	71.34
392.963	36.52
393.172	65.19
393.382	1.71
393.591	171.69
393.801	-0.34
394.01	63.15
394.22	87.72
394.429	61.1
394.639	81.58
394.848	97.96
395.058	91.82
395.267	65.19
395.477	16.04
395.686	67.24
395.895	132.78
396.105	192.17
396.314	169.64
396.524	65.19
396.733	48.81
396.942	161.45
397.152	116.39
397.361	114.34
397.57	140.97
397.78	100.01
397.989	138.92
398.198	175.78
398.407	-0.34
398.617	73.39
398.826	71.34
399.035	36.52
399.244	169.64
399.453	57
399.663	91.82
399.872	57
400.081	59.05
400.29	128.68
400.499	13.99
400.708	91.82
400.917	48.81
401.127	34.47
401.336	59.05
401.545	71.34
401.754	42.67
401.963	143.02
402.172	9.9
402.381	50.86
402.59	100.01
402.799	124.58
403.008	114.34
403.217	118.44
403.426	212.65
403.635	-2.39
403.844	100.01
404.053	91.82
404.262	87.72
404.471	218.79
404.68	169.64
404.888	114.34
405.097	22.19
405.306	190.12
405.515	138.92
405.724	147.11
405.933	183.98
406.142	100.01
406.35	89.77
406.559	97.96
406.768	159.4
406.977	194.22
407.185	100.01
407.394	165.54
407.603	120.49
407.812	259.75
408.02	237.22
408.229	196.26
408.438	245.41
408.646	157.35
408.855	239.27
409.064	190.12
409.272	222.89
409.481	241.32
409.69	272.04
409.898	235.18
410.107	276.13
410.315	292.52
410.524	249.51
410.733	304.81
410.941	237.22
411.15	304.81
411.358	382.63
411.567	296.61
411.775	298.66
411.984	313
412.192	433.83
412.401	325.29
412.609	417.44
412.818	423.59
413.026	425.64
413.234	456.36
413.443	362.15
413.651	423.59
413.86	442.02
414.068	482.98
414.276	560.8
414.485	487.08
414.693	528.03
414.901	636.58
415.11	585.38
415.318	542.37
415.526	614.05
415.734	687.78
415.943	687.78
416.151	618.15
416.359	679.58
416.567	698.02
416.776	761.5
416.984	837.28
417.192	833.18
417.4	802.46
417.608	786.08
417.817	906.91
418.025	884.38
418.233	1001.12
418.441	947.87
418.649	1001.12
418.857	1099.42
419.065	1148.57
419.273	1021.6
419.481	1115.8
419.689	1189.53
419.897	1242.78
420.105	1115.8
420.313	1273.5
420.521	1320.6
420.729	1334.93
420.937	1339.03
421.145	1549.97
421.353	1515.16
421.561	1580.69
421.769	1705.62
421.977	1740.43
422.185	1717.9
422.393	1750.67
422.601	1887.89
422.809	1904.27
423.017	1963.66
423.224	1998.48
423.432	2057.87
423.64	2100.87
423.848	2358.92
424.056	2217.61
424.263	2459.27
424.471	2356.87
424.679	2496.13
424.887	2590.34
425.094	2729.6
425.302	2670.21
425.51	2653.83
425.718	2987.65
425.925	2903.68
426.133	3063.42
426.341	3149.43
426.548	3247.74
426.756	3286.65
426.964	3313.27
427.171	3509.88
427.379	3487.35
427.586	3597.94
427.794	3769.97
428.001	3982.96
428.209	4238.95
428.417	4060.78
428.624	4390.5
428.832	4290.15
429.039	4380.26
429.247	4453.99
429.454	4798.05
429.662	5125.72
429.869	4775.52
430.076	5162.59
430.284	5052
430.491	5111.39
430.699	5424.73
430.906	5408.34
431.114	5502.55
431.321	5807.7
431.528	5957.2
431.736	6149.71
431.943	6411.85
432.15	6180.43
432.358	6407.75
432.565	6946.37
432.772	6749.76
432.979	7018.05
433.187	7269.95
433.394	7267.9
433.601	7743.03
433.808	7747.12
434.016	7833.14
434.223	7978.54
434.43	8594.98
434.637	8345.13
434.844	8889.89
435.052	8994.34
435.259	9057.82
435.466	9115.17
435.673	9082.4
435.88	9537.05
436.087	10151.44
436.294	10016.27
436.501	9928.21
436.708	10100.24
436.915	10481.16
437.122	10929.67
437.329	10882.56
437.537	11118.08
437.743	11386.36
437.95	11302.4
438.157	11603.45
438.364	12361.2
438.571	12125.68
438.778	12369.39
438.985	13415.9
439.192	13151.71
439.399	13368.8
439.606	13213.15
439.813	13669.85
440.02	14509.52
440.227	14548.43
440.433	14321.1
440.64	14388.69
440.847	14925.25
441.054	14947.78
441.261	15957.43
441.467	15875.51
441.674	16055.73
441.881	16596.4
442.088	16686.51
442.294	16715.18
442.501	16924.07
442.708	17223.08
442.914	18068.89
443.121	18718.09
443.328	18451.86
443.534	19410.31
443.741	19002.76
443.948	18816.4
444.154	20051.32
444.361	20055.42
444.568	20209.01
444.774	20161.91
444.981	20338.04
445.187	20946.28
445.394	21761.37
445.6	21392.74
445.807	23639.36
446.013	22650.19
446.22	23063.88
446.426	23776.58
446.633	24108.35
446.839	25011.5
447.046	23733.57
447.252	25230.63
447.459	25019.69
447.665	25013.55
447.871	26236.19
448.078	27147.53
448.284	26211.61
448.491	26844.43
448.697	27647.24
448.903	28316.92
449.11	28159.23
449.316	27819.27
449.522	28224.76
449.728	29168.88
449.935	29631.72
450.141	29467.88
450.347	30182.62
450.553	29285.61
450.76	29205.74
450.966	30479.58
451.172	29955.3
451.378	30635.22
451.584	29883.62
451.791	30743.77
451.997	30909.65
452.203	31380.68
452.409	31235.28
452.615	31073.49
452.821	29977.83
453.027	29590.76
453.233	31349.96
453.44	29883.62
453.646	30211.29
453.852	30256.35
454.058	30614.74
454.264	29785.32
454.47	30455
454.676	29924.58
454.882	30414.04
455.088	28017.92
455.294	28247.29
455.5	28595.45
455.705	29201.65
455.911	27661.57
456.117	27372.81
456.323	27000.08
456.529	25576.74
456.735	26764.56
456.941	26076.44
457.147	25394.47
457.352	24417.59
457.558	24497.46
457.764	24456.5
457.97	23864.64
458.176	23377.22
458.381	23514.44
458.587	22252.89
458.793	22373.72
458.999	21050.73
459.204	22584.66
459.41	21947.74
459.616	20370.8
459.821	20604.27
460.027	20411.76
460.233	20149.62
460.438	19127.69
460.644	19350.92
460.85	18347.41
461.055	18115.99
461.261	17999.26
461.466	16639.4
461.672	16321.97
461.878	17372.58
462.083	16227.76
462.289	15971.77
462.494	15855.03
462.7	15060.42
462.905	14720.46
463.111	14953.93
463.316	15295.94
463.522	14843.34
463.727	14917.06
463.932	14857.67
464.138	14695.88
464.343	14820.81
464.549	14652.88
464.754	14892.49
464.959	14630.35
465.165	14400.97
465.37	14056.92
465.575	13694.43
465.781	14052.82
465.986	14216.66
466.191	13663.71
466.397	13358.56
466.602	12838.37
466.807	13454.81
467.012	13520.35
467.218	13149.67
467.423	13137.38
