Data from USB4F104151__98__11-32-15-850.txt Node

Date: Fri Mar 14 11:32:15 EDT 2025
User: louis
Spectrometer: USB4F10415
Trigger mode: 4
Integration Time (sec): 5.000000E-2
Scans to average: 1
Electric dark correction enabled: true
Nonlinearity correction enabled: false
Boxcar width: 0
XAxis mode: Wavelengths
Number of Pixels in Spectrum: 3648
>>>>>Begin Spectral Data<<<<<
178.204	-99.84
178.424	-99.84
178.644	-99.84
178.864	-159.23
179.084	-114.17
179.304	-1.54
179.524	-15.87
179.744	33.28
179.964	84.48
180.184	-50.69
180.404	-3.58
180.624	-46.59
180.844	82.43
181.064	-77.31
181.283	29.18
181.503	-58.88
181.723	25.09
181.943	-38.4
182.163	66.05
182.383	-95.74
182.602	6.66
182.822	20.99
183.042	41.47
183.262	-81.41
183.482	16.9
183.701	6.66
183.921	0.51
184.141	-73.21
184.361	18.94
184.58	47.62
184.8	16.9
185.02	6.66
185.239	86.53
185.459	57.86
185.679	61.95
185.898	-65.02
186.118	-3.58
186.338	31.23
186.557	72.19
186.777	-44.54
186.997	61.95
187.216	29.18
187.436	31.23
187.655	33.28
187.875	31.23
188.095	4.61
188.314	-1.54
188.534	25.09
188.753	-40.45
188.973	70.14
189.192	84.48
189.412	64
189.631	64
189.851	-48.64
190.07	55.81
190.29	-1.54
190.509	-42.5
190.729	-19.97
190.948	57.86
191.168	215.55
191.387	90.62
191.607	14.85
191.826	43.52
192.045	-7.68
192.265	90.62
192.484	12.8
192.704	41.47
192.923	-42.5
193.142	84.48
193.362	82.43
193.581	16.9
193.8	90.62
194.02	98.81
194.239	8.7
194.458	-32.26
194.678	-11.78
194.897	6.66
195.116	-36.35
195.335	-3.58
195.555	-11.78
195.774	0.51
195.993	57.86
196.212	45.57
196.432	16.9
196.651	14.85
196.87	-13.82
197.089	78.33
197.308	61.95
197.528	72.19
197.747	-11.78
197.966	86.53
198.185	25.09
198.404	-3.58
198.623	-28.16
198.842	16.9
199.062	-15.87
199.281	31.23
199.5	-126.46
199.719	31.23
199.938	14.85
200.157	59.9
200.376	-19.97
200.595	-7.68
200.814	64
201.033	18.94
201.252	12.8
201.471	64
201.69	31.23
201.909	35.33
202.128	-58.88
202.347	10.75
202.566	45.57
202.785	-69.12
203.004	68.09
203.223	137.73
203.442	-50.69
203.661	-15.87
203.879	-28.16
204.098	8.7
204.317	45.57
204.536	-19.97
204.755	-91.65
204.974	-1.54
205.193	47.62
205.411	72.19
205.63	33.28
205.849	-15.87
206.068	-65.02
206.287	-19.97
206.505	-32.26
206.724	-58.88
206.943	-3.58
207.162	4.61
207.381	61.95
207.599	45.57
207.818	-9.73
208.037	70.14
208.255	18.94
208.474	80.38
208.693	55.81
208.911	61.95
209.13	39.42
209.349	37.38
209.567	59.9
209.786	98.81
210.005	35.33
210.223	-32.26
210.442	-36.35
210.661	43.52
210.879	45.57
211.098	-1.54
211.316	123.39
211.535	59.9
211.753	-5.63
211.972	45.57
212.191	4.61
212.409	107.01
212.628	59.9
212.846	25.09
213.065	37.38
213.283	-15.87
213.502	-48.64
213.72	8.7
213.938	-1.54
214.157	12.8
214.375	82.43
214.594	33.28
214.812	55.81
215.031	-1.54
215.249	76.29
215.467	55.81
215.686	-1.54
215.904	23.04
216.122	-34.3
216.341	-19.97
216.559	39.42
216.778	35.33
216.996	74.24
217.214	-38.4
217.432	-48.64
217.651	-13.82
217.869	31.23
218.087	66.05
218.306	8.7
218.524	37.38
218.742	4.61
218.96	64
219.179	-40.45
219.397	-36.35
219.615	72.19
219.833	12.8
220.051	10.75
220.27	84.48
220.488	-34.3
220.706	-3.58
220.924	23.04
221.142	20.99
221.36	20.99
221.578	76.29
221.796	-99.84
222.015	4.61
222.233	16.9
222.451	6.66
222.669	10.75
222.887	86.53
223.105	-9.73
223.323	-9.73
223.541	-85.5
223.759	-15.87
223.977	29.18
224.195	29.18
224.413	88.57
224.631	33.28
224.849	-19.97
225.067	127.49
225.285	-65.02
225.503	25.09
225.721	-13.82
225.939	98.81
226.157	107.01
226.375	33.28
226.592	-15.87
226.81	-1.54
227.028	43.52
227.246	113.15
227.464	-7.68
227.682	4.61
227.9	-19.97
228.117	57.86
228.335	-24.06
228.553	29.18
228.771	45.57
228.989	12.8
229.206	14.85
229.424	-7.68
229.642	4.61
229.86	6.66
230.077	43.52
230.295	-32.26
230.513	37.38
230.731	47.62
230.948	80.38
231.166	31.23
231.384	-1.54
231.601	16.9
231.819	94.72
232.037	-3.58
232.254	-1.54
232.472	10.75
232.689	-7.68
232.907	53.76
233.125	23.04
233.342	-28.16
233.56	-17.92
233.777	-32.26
233.995	2.56
234.213	35.33
234.43	41.47
234.648	-118.27
234.865	18.94
235.083	0.51
235.3	-30.21
235.518	18.94
235.735	29.18
235.953	25.09
236.17	37.38
236.388	55.81
236.605	33.28
236.822	47.62
237.04	45.57
237.257	41.47
237.475	-34.3
237.692	23.04
237.909	12.8
238.127	-44.54
238.344	-26.11
238.562	4.61
238.779	-28.16
238.996	16.9
239.214	57.86
239.431	94.72
239.648	8.7
239.865	41.47
240.083	39.42
240.3	-15.87
240.517	12.8
240.735	51.71
240.952	51.71
241.169	55.81
241.386	39.42
241.603	20.99
241.821	-22.02
242.038	57.86
242.255	-34.3
242.472	-1.54
242.689	-32.26
242.907	72.19
243.124	61.95
243.341	0.51
243.558	-19.97
243.775	-19.97
243.992	-1.54
244.209	31.23
244.426	88.57
244.643	82.43
244.86	-17.92
245.078	39.42
245.295	23.04
245.512	78.33
245.729	16.9
245.946	16.9
246.163	49.66
246.38	-1.54
246.597	14.85
246.814	-3.58
247.031	20.99
247.248	29.18
247.464	29.18
247.681	-15.87
247.898	45.57
248.115	-26.11
248.332	16.9
248.549	29.18
248.766	45.57
248.983	74.24
249.2	23.04
249.417	133.63
249.633	-22.02
249.85	6.66
250.067	10.75
250.284	29.18
250.501	-17.92
250.717	2.56
250.934	-3.58
251.151	-19.97
251.368	-60.93
251.585	68.09
251.801	-3.58
252.018	8.7
252.235	53.76
252.451	-83.45
252.668	-15.87
252.885	20.99
253.102	0.51
253.318	45.57
253.535	-28.16
253.752	49.66
253.968	16.9
254.185	23.04
254.401	0.51
254.618	45.57
254.835	-11.78
255.051	82.43
255.268	0.51
255.484	27.14
255.701	12.8
255.917	53.76
256.134	4.61
256.351	27.14
256.567	-32.26
256.784	107.01
257	-7.68
257.217	-62.98
257.433	14.85
257.65	39.42
257.866	51.71
258.082	-67.07
258.299	41.47
258.515	117.25
258.732	-1.54
258.948	2.56
259.165	33.28
259.381	14.85
259.597	33.28
259.814	41.47
260.03	29.18
260.246	-32.26
260.463	12.8
260.679	10.75
260.895	102.91
261.112	55.81
261.328	8.7
261.544	8.7
261.761	61.95
261.977	-5.63
262.193	-30.21
262.409	33.28
262.626	55.81
262.842	55.81
263.058	-15.87
263.274	74.24
263.49	20.99
263.707	-3.58
263.923	74.24
264.139	23.04
264.355	-26.11
264.571	98.81
264.787	-32.26
265.004	107.01
265.22	-26.11
265.436	-75.26
265.652	68.09
265.868	53.76
266.084	27.14
266.3	23.04
266.516	-34.3
266.732	68.09
266.948	-32.26
267.164	-40.45
267.38	31.23
267.596	47.62
267.812	82.43
268.028	25.09
268.244	8.7
268.46	16.9
268.676	-15.87
268.892	23.04
269.108	33.28
269.324	-28.16
269.54	39.42
269.756	12.8
269.972	-134.65
270.188	-32.26
270.403	-58.88
270.619	14.85
270.835	4.61
271.051	31.23
271.267	20.99
271.483	-40.45
271.698	4.61
271.914	90.62
272.13	16.9
272.346	31.23
272.562	-44.54
272.777	27.14
272.993	-7.68
273.209	12.8
273.425	-62.98
273.64	-15.87
273.856	12.8
274.072	-22.02
274.287	-22.02
274.503	23.04
274.719	80.38
274.934	-3.58
275.15	-24.06
275.366	-60.93
275.581	-19.97
275.797	92.67
276.012	84.48
276.228	-19.97
276.444	45.57
276.659	45.57
276.875	29.18
277.09	23.04
277.306	-26.11
277.521	41.47
277.737	-24.06
277.952	59.9
278.168	74.24
278.383	37.38
278.599	55.81
278.814	-42.5
279.03	-15.87
279.245	80.38
279.461	45.57
279.676	20.99
279.892	8.7
280.107	-46.59
280.322	-9.73
280.538	20.99
280.753	-50.69
280.969	-22.02
281.184	49.66
281.399	37.38
281.615	-60.93
281.83	31.23
282.045	-24.06
282.26	-9.73
282.476	80.38
282.691	33.28
282.906	41.47
283.122	-19.97
283.337	-56.83
283.552	49.66
283.767	-15.87
283.983	107.01
284.198	33.28
284.413	57.86
284.628	-32.26
284.843	33.28
285.058	33.28
285.274	6.66
285.489	-48.64
285.704	23.04
285.919	-58.88
286.134	-3.58
286.349	-28.16
286.564	-32.26
286.779	70.14
286.995	-52.74
287.21	-42.5
287.425	37.38
287.64	-1.54
287.855	6.66
288.07	-79.36
288.285	86.53
288.5	-7.68
288.715	37.38
288.93	-5.63
289.145	16.9
289.36	-24.06
289.575	-15.87
289.79	37.38
290.004	-9.73
290.219	-9.73
290.434	61.95
290.649	-3.58
290.864	47.62
291.079	12.8
291.294	-40.45
291.509	8.7
291.724	-11.78
291.938	-24.06
292.153	76.29
292.368	-56.83
292.583	-3.58
292.798	20.99
293.012	25.09
293.227	57.86
293.442	23.04
293.657	31.23
293.871	18.94
294.086	-50.69
294.301	20.99
294.516	74.24
294.73	-54.78
294.945	6.66
295.16	14.85
295.374	43.52
295.589	96.77
295.804	47.62
296.018	-1.54
296.233	12.8
296.447	53.76
296.662	20.99
296.877	41.47
297.091	-91.65
297.306	-15.87
297.52	-32.26
297.735	-15.87
297.949	-3.58
298.164	90.62
298.378	49.66
298.593	-11.78
298.807	-28.16
299.022	-1.54
299.236	92.67
299.451	51.71
299.665	8.7
299.88	25.09
300.094	41.47
300.309	-40.45
300.523	25.09
300.737	16.9
300.952	-3.58
301.166	33.28
301.381	33.28
301.595	31.23
301.809	-32.26
302.024	-7.68
302.238	-15.87
302.452	104.96
302.667	23.04
302.881	33.28
303.095	53.76
303.309	-15.87
303.524	-40.45
303.738	-7.68
303.952	-36.35
304.166	-60.93
304.381	-112.13
304.595	61.95
304.809	-9.73
305.023	94.72
305.237	0.51
305.452	37.38
305.666	8.7
305.88	16.9
306.094	94.72
306.308	39.42
306.522	53.76
306.736	10.75
306.95	94.72
307.164	51.71
307.379	51.71
307.593	37.38
307.807	31.23
308.021	-67.07
308.235	55.81
308.449	-3.58
308.663	96.77
308.877	47.62
309.091	6.66
309.305	47.62
309.519	-93.69
309.733	74.24
309.947	-89.6
310.161	-9.73
310.374	27.14
310.588	82.43
310.802	-15.87
311.016	8.7
311.23	-17.92
311.444	-9.73
311.658	41.47
311.872	102.91
312.085	0.51
312.299	78.33
312.513	41.47
312.727	29.18
312.941	8.7
313.154	-9.73
313.368	10.75
313.582	55.81
313.796	41.47
314.009	18.94
314.223	90.62
314.437	14.85
314.651	16.9
314.864	88.57
315.078	-58.88
315.292	-7.68
315.505	18.94
315.719	2.56
315.933	16.9
316.146	39.42
316.36	25.09
316.573	47.62
316.787	-52.74
317.001	66.05
317.214	55.81
317.428	29.18
317.641	-9.73
317.855	8.7
318.068	10.75
318.282	47.62
318.495	98.81
318.709	27.14
318.922	-48.64
319.136	31.23
319.349	57.86
319.563	-5.63
319.776	64
319.99	8.7
320.203	14.85
320.417	-79.36
320.63	41.47
320.843	27.14
321.057	61.95
321.27	-32.26
321.483	25.09
321.697	102.91
321.91	8.7
322.124	8.7
322.337	8.7
322.55	-42.5
322.763	-40.45
322.977	-17.92
323.19	-58.88
323.403	37.38
323.617	55.81
323.83	35.33
324.043	37.38
324.256	8.7
324.469	-75.26
324.683	59.9
324.896	8.7
325.109	49.66
325.322	-40.45
325.535	29.18
325.748	88.57
325.962	-17.92
326.175	-9.73
326.388	53.76
326.601	-7.68
326.814	14.85
327.027	49.66
327.24	70.14
327.453	-19.97
327.666	-36.35
327.879	51.71
328.092	27.14
328.305	49.66
328.518	-50.69
328.731	-7.68
328.944	-28.16
329.157	25.09
329.37	-13.82
329.583	74.24
329.796	45.57
330.009	55.81
330.222	-1.54
330.435	41.47
330.648	-15.87
330.861	2.56
331.073	10.75
331.286	55.81
331.499	14.85
331.712	-56.83
331.925	14.85
332.138	31.23
332.35	35.33
332.563	-15.87
332.776	16.9
332.989	-48.64
333.202	31.23
333.414	0.51
333.627	66.05
333.84	57.86
334.053	33.28
334.265	4.61
334.478	-65.02
334.691	66.05
334.903	-48.64
335.116	0.51
335.329	-38.4
335.541	14.85
335.754	145.92
335.966	-30.21
336.179	29.18
336.392	12.8
336.604	-22.02
336.817	14.85
337.029	98.81
337.242	76.29
337.454	20.99
337.667	16.9
337.88	61.95
338.092	-34.3
338.305	-17.92
338.517	-22.02
338.729	98.81
338.942	61.95
339.154	-5.63
339.367	4.61
339.579	41.47
339.792	-75.26
340.004	47.62
340.217	20.99
340.429	-15.87
340.641	-81.41
340.854	29.18
341.066	-28.16
341.278	29.18
341.491	49.66
341.703	-24.06
341.915	14.85
342.128	92.67
342.34	2.56
342.552	-9.73
342.764	98.81
342.977	-13.82
343.189	6.66
343.401	-3.58
343.613	10.75
343.826	61.95
344.038	-24.06
344.25	37.38
344.462	45.57
344.674	-1.54
344.886	8.7
345.099	6.66
345.311	16.9
345.523	55.81
345.735	6.66
345.947	23.04
346.159	51.71
346.371	-7.68
346.583	16.9
346.795	82.43
347.007	-9.73
347.219	-26.11
347.431	-7.68
347.643	80.38
347.855	2.56
348.067	102.91
348.279	82.43
348.491	4.61
348.703	49.66
348.915	61.95
349.127	-50.69
349.339	-7.68
349.551	-19.97
349.763	51.71
349.975	45.57
350.187	86.53
350.399	102.91
350.61	68.09
350.822	-54.78
351.034	61.95
351.246	49.66
351.458	27.14
351.669	78.33
351.881	92.67
352.093	57.86
352.305	0.51
352.517	59.9
352.728	41.47
352.94	12.8
353.152	6.66
353.363	-5.63
353.575	47.62
353.787	49.66
353.999	66.05
354.21	29.18
354.422	0.51
354.633	-5.63
354.845	25.09
355.057	35.33
355.268	35.33
355.48	102.91
355.692	4.61
355.903	-40.45
356.115	-50.69
356.326	-1.54
356.538	66.05
356.749	23.04
356.961	57.86
357.172	6.66
357.384	-3.58
357.595	37.38
357.807	-26.11
358.018	49.66
358.23	20.99
358.441	115.2
358.653	-15.87
358.864	57.86
359.075	-9.73
359.287	31.23
359.498	59.9
359.709	14.85
359.921	25.09
360.132	14.85
360.344	8.7
360.555	-5.63
360.766	82.43
360.977	-42.5
361.189	25.09
361.4	14.85
361.611	74.24
361.823	37.38
362.034	31.23
362.245	-73.21
362.456	8.7
362.667	88.57
362.879	-40.45
363.09	25.09
363.301	37.38
363.512	29.18
363.723	20.99
363.935	-15.87
364.146	25.09
364.357	12.8
364.568	8.7
364.779	41.47
364.99	96.77
365.201	-24.06
365.412	35.33
365.623	10.75
365.834	33.28
366.045	-58.88
366.256	57.86
366.467	20.99
366.678	-24.06
366.889	-48.64
367.1	45.57
367.311	49.66
367.522	61.95
367.733	-17.92
367.944	35.33
368.155	-7.68
368.366	41.47
368.577	121.34
368.788	27.14
368.999	64
369.209	10.75
369.42	66.05
369.631	145.92
369.842	66.05
370.053	-28.16
370.264	66.05
370.474	-69.12
370.685	-3.58
370.896	-7.68
371.107	33.28
371.317	-7.68
371.528	16.9
371.739	25.09
371.95	-1.54
372.16	72.19
372.371	4.61
372.582	78.33
372.792	-13.82
373.003	33.28
373.214	33.28
373.424	51.71
373.635	-11.78
373.846	45.57
374.056	-24.06
374.267	107.01
374.477	4.61
374.688	-32.26
374.898	-11.78
375.109	64
375.319	68.09
375.53	70.14
375.74	111.1
375.951	66.05
376.161	86.53
376.372	102.91
376.582	-9.73
376.793	41.47
377.003	66.05
377.214	6.66
377.424	70.14
377.635	33.28
377.845	-48.64
378.055	74.24
378.266	-34.3
378.476	18.94
378.686	78.33
378.897	74.24
379.107	78.33
379.317	-7.68
379.528	-40.45
379.738	33.28
379.948	-87.55
380.158	49.66
380.369	66.05
380.579	-15.87
380.789	53.76
380.999	96.77
381.21	55.81
381.42	127.49
381.63	25.09
381.84	55.81
382.05	47.62
382.261	66.05
382.471	33.28
382.681	0.51
382.891	72.19
383.101	0.51
383.311	-62.98
383.521	80.38
383.731	55.81
383.941	70.14
384.151	20.99
384.361	23.04
384.571	59.9
384.781	14.85
384.991	131.58
385.201	74.24
385.411	57.86
385.621	111.1
385.831	-9.73
386.041	-48.64
386.251	23.04
386.461	117.25
386.671	0.51
386.881	68.09
387.091	-32.26
387.301	4.61
387.511	16.9
387.72	20.99
387.93	57.86
388.14	6.66
388.35	0.51
388.56	29.18
388.769	33.28
388.979	66.05
389.189	6.66
389.399	68.09
389.609	16.9
389.818	80.38
390.028	135.68
390.238	37.38
390.447	33.28
390.657	90.62
390.867	8.7
391.076	-11.78
391.286	4.61
391.496	113.15
391.705	25.09
391.915	86.53
392.125	66.05
392.334	49.66
392.544	2.56
392.753	78.33
392.963	-1.54
393.172	2.56
393.382	23.04
393.591	72.19
393.801	29.18
394.01	57.86
394.22	53.76
394.429	25.09
394.639	-65.02
394.848	84.48
395.058	-3.58
395.267	8.7
395.477	-52.74
395.686	33.28
395.895	86.53
396.105	107.01
396.314	64
396.524	64
396.733	53.76
396.942	72.19
397.152	27.14
397.361	45.57
397.57	61.95
397.78	12.8
397.989	78.33
398.198	133.63
398.407	0.51
398.617	29.18
398.826	94.72
399.035	6.66
399.244	109.05
399.453	31.23
399.663	74.24
399.872	98.81
400.081	57.86
400.29	119.29
400.499	-9.73
400.708	156.16
400.917	-75.26
401.127	61.95
401.336	55.81
401.545	109.05
401.754	111.1
401.963	119.29
402.172	70.14
402.381	88.57
402.59	80.38
402.799	-1.54
403.008	78.33
403.217	70.14
403.426	86.53
403.635	160.25
403.844	115.2
404.053	80.38
404.262	64
404.471	147.97
404.68	160.25
404.888	160.25
405.097	209.4
405.306	98.81
405.515	131.58
405.724	70.14
405.933	147.97
406.142	84.48
406.35	160.25
406.559	84.48
406.768	170.49
406.977	246.27
407.185	96.77
407.394	141.82
407.603	131.58
407.812	156.16
408.02	158.21
408.229	115.2
408.438	172.54
408.646	104.96
408.855	119.29
409.064	143.87
409.272	158.21
409.481	250.36
409.69	156.16
409.898	190.97
410.107	199.16
410.315	236.03
410.524	250.36
410.733	236.03
410.941	246.27
411.15	297.47
411.358	197.12
411.567	250.36
411.775	217.6
411.984	332.28
412.192	356.86
412.401	313.85
412.609	354.81
412.818	391.67
413.026	358.91
413.234	285.18
413.443	354.81
413.651	373.24
413.86	444.92
414.068	461.3
414.276	477.69
414.485	367.1
414.693	528.89
414.901	494.07
415.11	453.11
415.318	487.93
415.526	451.07
415.734	555.51
415.943	508.41
416.151	596.47
416.359	688.63
416.567	590.33
416.776	532.98
416.984	721.4
417.192	700.92
417.4	688.63
417.608	694.77
417.817	702.97
418.025	705.01
418.233	844.28
418.441	776.69
418.649	748.02
418.857	942.58
419.065	938.48
419.273	901.62
419.481	997.87
419.689	989.68
419.897	1085.94
420.105	1040.88
420.313	1079.79
420.521	1159.66
420.729	1079.79
420.937	1167.85
421.145	1237.49
421.353	1292.78
421.561	1442.28
421.769	1352.17
421.977	1452.52
422.185	1395.18
422.393	1493.48
422.601	1653.22
422.809	1632.74
423.017	1630.7
423.224	1649.13
423.432	1704.42
423.64	1726.95
423.848	1792.48
424.056	1812.96
424.263	2056.67
424.471	1960.42
424.679	2011.62
424.887	2154.98
425.094	2255.33
425.302	2224.61
425.51	2343.39
425.718	2335.2
425.925	2542.04
426.133	2429.4
426.341	2769.37
426.548	2642.39
426.756	2750.93
426.964	2783.7
427.171	2931.16
427.379	2986.45
427.586	3080.66
427.794	3170.77
428.001	3226.06
428.209	3508.68
428.417	3449.29
428.624	3586.51
428.832	3584.46
429.039	3748.29
429.247	3727.82
429.454	3953.09
429.662	4233.66
429.869	3889.6
430.076	4276.67
430.284	4252.1
430.491	4387.26
430.699	4481.47
430.906	4651.45
431.114	4729.27
431.321	4659.64
431.528	4972.98
431.736	5235.12
431.943	5353.9
432.15	5214.64
432.358	5339.57
432.565	5640.62
432.772	5657
432.979	5956.01
433.187	6070.69
433.394	6011.3
433.601	6463.9
433.808	6246.82
434.016	6197.67
434.223	6654.36
434.43	7049.62
434.637	6912.41
434.844	7278.99
435.052	7324.05
435.259	7530.89
435.466	7645.58
435.673	7414.16
435.88	8032.65
436.087	8262.02
436.294	8458.62
436.501	8284.55
436.708	8274.31
436.915	8790.39
437.122	9001.33
437.329	8835.45
437.537	9128.31
437.743	9230.71
437.95	9378.16
438.157	9847.15
438.364	10199.4
438.571	10219.88
438.778	10166.63
438.985	10893.66
439.192	10588.51
439.399	10914.14
439.606	10744.16
439.813	11309.4
440.02	12091.72
440.227	11987.27
440.433	11934.03
440.64	12190.02
440.847	12052.81
441.054	12273.99
441.261	13234.49
441.467	13029.69
441.674	13246.77
441.881	13795.63
442.088	13719.85
442.294	13748.53
442.501	14059.82
442.708	14121.26
442.914	14862.62
443.121	15462.68
443.328	14934.3
443.534	16173.32
443.741	15479.06
443.948	15327.51
444.154	16619.78
444.361	16310.54
444.568	16384.26
444.774	16619.78
444.981	16779.52
445.187	17211.64
445.394	17889.52
445.6	17752.31
445.807	19157.21
446.013	18628.84
446.22	18649.32
446.426	19454.17
446.633	19673.3
446.839	20193.48
447.046	19663.06
447.252	20474.06
447.459	20836.55
447.665	20590.79
447.871	21522.62
448.078	22214.83
448.284	21379.26
448.491	21711.03
448.697	22941.86
448.903	22939.81
449.11	23091.36
449.316	23031.97
449.522	23320.73
449.728	23849.11
449.935	24221.84
450.141	23937.17
450.347	24940.68
450.553	23834.77
450.76	24180.88
450.966	24981.63
451.172	24873.09
451.378	25239.68
451.584	25047.17
451.791	25213.06
451.997	25168
452.203	25792.63
452.409	25684.09
452.615	25610.36
452.821	24733.83
453.027	24213.65
453.233	25720.95
453.44	24526.99
453.646	24877.19
453.852	24977.54
454.058	25286.78
454.264	24793.22
454.47	25079.94
454.676	24326.28
454.882	25301.12
455.088	23206.05
455.294	23451.8
455.5	23748.76
455.705	24035.47
455.911	23105.7
456.117	22360.23
456.323	22145.2
456.529	21131.45
456.735	22094
456.941	21467.32
457.147	20961.47
457.352	20521.16
457.558	20259.02
457.764	20218.06
457.97	20084.94
458.176	19458.26
458.381	19169.5
458.587	18295.02
458.793	18368.74
458.999	17436.92
459.204	18737.38
459.41	18258.15
459.616	16939.26
459.821	16886.01
460.027	17144.06
460.233	16851.2
460.438	15704.34
460.644	15812.88
460.85	15255.83
461.055	14805.28
461.261	14969.12
461.466	13791.53
461.672	13560.11
461.878	14518.56
462.083	13449.52
462.289	13091.13
462.494	12833.08
462.7	12312.9
462.905	12017.99
463.111	12538.18
463.316	12415.3
463.522	12239.17
463.727	12353.86
463.932	12140.87
464.138	12200.26
464.343	12114.25
464.549	11821.39
464.754	12171.59
464.959	12224.84
465.165	11743.56
465.37	11622.73
465.575	11147.61
465.781	11940.17
465.986	11835.72
466.191	11231.57
466.397	11149.65
466.602	10477.92
466.807	11082.07
467.012	10869.08
467.218	10881.37
467.423	10914.14
467.628	10768.73
467.833	11395.41
468.038	10805.6
