Data from USB4F104151__23__11-29-55-256.txt Node

Date: Fri Mar 14 11:29:55 EDT 2025
User: louis
Spectrometer: USB4F10415
Trigger mode: 4
Integration Time (sec): 5.000000E-2
Scans to average: 1
Electric dark correction enabled: true
Nonlinearity correction enabled: false
Boxcar width: 0
XAxis mode: Wavelengths
Number of Pixels in Spectrum: 3648
>>>>>Begin Spectral Data<<<<<
178.204	-98.47
178.424	-98.47
178.644	-98.47
178.864	-133.29
179.084	-145.58
179.304	46.93
179.524	32.6
179.744	20.31
179.964	32.6
180.184	44.88
180.404	-28.84
180.624	8.02
180.844	-28.84
181.064	-73.9
181.283	-8.36
181.503	-59.56
181.723	14.17
181.943	-20.65
182.163	81.75
182.383	-41.13
182.602	22.36
182.822	20.31
183.042	57.17
183.262	44.88
183.482	44.88
183.701	14.17
183.921	34.64
184.141	55.12
184.361	40.79
184.58	61.27
184.8	36.69
185.02	-16.55
185.239	77.65
185.459	16.21
185.679	-4.27
185.898	30.55
186.118	79.7
186.338	53.08
186.557	77.65
186.777	14.17
186.997	51.03
187.216	-32.94
187.436	114.52
187.655	65.36
187.875	16.21
188.095	32.6
188.314	28.5
188.534	139.09
188.753	40.79
188.973	20.31
189.192	73.56
189.412	63.32
189.631	8.02
189.851	77.65
190.07	48.98
190.29	-0.17
190.509	40.79
190.729	18.26
190.948	65.36
191.168	163.67
191.387	44.88
191.607	44.88
191.826	63.32
192.045	61.27
192.265	26.45
192.484	46.93
192.704	59.22
192.923	32.6
193.142	106.32
193.362	96.08
193.581	36.69
193.8	51.03
194.02	69.46
194.239	36.69
194.458	3.93
194.678	110.42
194.897	67.41
195.116	-41.13
195.335	22.36
195.555	24.4
195.774	63.32
195.993	12.12
196.212	51.03
196.432	69.46
196.651	38.74
196.87	10.07
197.089	59.22
197.308	83.8
197.528	81.75
197.747	-67.75
197.966	85.84
198.185	77.65
198.404	40.79
198.623	44.88
198.842	130.9
199.062	94.04
199.281	57.17
199.5	77.65
199.719	65.36
199.938	-34.99
200.157	102.23
200.376	73.56
200.595	59.22
200.814	55.12
201.033	12.12
201.252	155.47
201.471	51.03
201.69	106.32
201.909	48.98
202.128	-28.84
202.347	40.79
202.566	53.08
202.785	-59.56
203.004	-37.03
203.223	104.28
203.442	20.31
203.661	48.98
203.879	-0.17
204.098	143.19
204.317	-2.22
204.536	98.13
204.755	-53.42
204.974	46.93
205.193	40.79
205.411	71.51
205.63	24.4
205.849	73.56
206.068	77.65
206.287	-4.27
206.505	112.47
206.724	38.74
206.943	22.36
207.162	16.21
207.381	89.94
207.599	10.07
207.818	-24.75
208.037	8.02
208.255	8.02
208.474	-4.27
208.693	118.61
208.911	16.21
209.13	57.17
209.349	46.93
209.567	71.51
209.786	98.13
210.005	89.94
210.223	-8.36
210.442	-8.36
210.661	44.88
210.879	77.65
211.098	91.99
211.316	20.31
211.535	-4.27
211.753	38.74
211.972	96.08
212.191	-59.56
212.409	71.51
212.628	77.65
212.846	3.93
213.065	89.94
213.283	32.6
213.502	-47.27
213.72	46.93
213.938	55.12
214.157	-4.27
214.375	73.56
214.594	-20.65
214.812	81.75
215.031	-22.7
215.249	-4.27
215.467	38.74
215.686	87.89
215.904	85.84
216.122	28.5
216.341	89.94
216.559	67.41
216.778	57.17
216.996	34.64
217.214	5.97
217.432	-26.79
217.651	-12.46
217.869	24.4
218.087	1.88
218.306	106.32
218.524	53.08
218.742	8.02
218.96	57.17
219.179	124.76
219.397	98.13
219.615	128.85
219.833	63.32
220.051	40.79
220.27	28.5
220.488	59.22
220.706	59.22
220.924	40.79
221.142	73.56
221.36	46.93
221.578	38.74
221.796	-37.03
222.015	-8.36
222.233	61.27
222.451	81.75
222.669	16.21
222.887	28.5
223.105	65.36
223.323	-8.36
223.541	94.04
223.759	118.61
223.977	40.79
224.195	89.94
224.413	114.52
224.631	28.5
224.849	75.6
225.067	147.28
225.285	-8.36
225.503	16.21
225.721	-6.31
225.939	24.4
226.157	14.17
226.375	147.28
226.592	-28.84
226.81	63.32
227.028	69.46
227.246	65.36
227.464	79.7
227.682	44.88
227.9	38.74
228.117	40.79
228.335	-0.17
228.553	-2.22
228.771	22.36
228.989	75.6
229.206	69.46
229.424	-16.55
229.642	75.6
229.86	22.36
230.077	22.36
230.295	77.65
230.513	46.93
230.731	38.74
230.948	139.09
231.166	87.89
231.384	36.69
231.601	-63.66
231.819	96.08
232.037	-20.65
232.254	8.02
232.472	77.65
232.689	32.6
232.907	67.41
233.125	-28.84
233.342	67.41
233.56	20.31
233.777	81.75
233.995	20.31
234.213	-4.27
234.43	-2.22
234.648	-53.42
234.865	-2.22
235.083	63.32
235.3	124.76
235.518	-2.22
235.735	55.12
235.953	114.52
236.17	38.74
236.388	20.31
236.605	-8.36
236.822	-12.46
237.04	40.79
237.257	36.69
237.475	94.04
237.692	63.32
237.909	24.4
238.127	12.12
238.344	59.22
238.562	102.23
238.779	46.93
238.996	26.45
239.214	24.4
239.431	30.55
239.648	-16.55
239.865	32.6
240.083	73.56
240.3	34.64
240.517	79.7
240.735	-14.51
240.952	100.18
241.169	57.17
241.386	94.04
241.603	65.36
241.821	55.12
242.038	57.17
242.255	89.94
242.472	-88.23
242.689	55.12
242.907	69.46
243.124	38.74
243.341	51.03
243.558	65.36
243.775	-16.55
243.992	8.02
244.209	28.5
244.426	65.36
244.643	67.41
244.86	-18.6
245.078	71.51
245.295	38.74
245.512	30.55
245.729	53.08
245.946	20.31
246.163	30.55
246.38	36.69
246.597	57.17
246.814	114.52
247.031	40.79
247.248	139.09
247.464	-8.36
247.681	40.79
247.898	71.51
248.115	8.02
248.332	55.12
248.549	77.65
248.766	118.61
248.983	55.12
249.2	28.5
249.417	-8.36
249.633	57.17
249.85	32.6
250.067	32.6
250.284	94.04
250.501	48.98
250.717	12.12
250.934	14.17
251.151	61.27
251.368	1.88
251.585	65.36
251.801	-18.6
252.018	46.93
252.235	14.17
252.451	-20.65
252.668	20.31
252.885	106.32
253.102	73.56
253.318	14.17
253.535	14.17
253.752	42.84
253.968	57.17
254.185	8.02
254.401	-75.95
254.618	73.56
254.835	-18.6
255.051	65.36
255.268	40.79
255.484	-28.84
255.701	44.88
255.917	20.31
256.134	38.74
256.351	-8.36
256.567	32.6
256.784	94.04
257	-26.79
257.217	85.84
257.433	91.99
257.65	38.74
257.866	3.93
258.082	63.32
258.299	22.36
258.515	98.13
258.732	-0.17
258.948	-57.51
259.165	73.56
259.381	46.93
259.597	89.94
259.814	-28.84
260.03	36.69
260.246	77.65
260.463	20.31
260.679	3.93
260.895	87.89
261.112	51.03
261.328	-16.55
261.544	10.07
261.761	34.64
261.977	53.08
262.193	-8.36
262.409	63.32
262.626	57.17
262.842	89.94
263.058	81.75
263.274	42.84
263.49	16.21
263.707	100.18
263.923	30.55
264.139	44.88
264.355	81.75
264.571	28.5
264.787	1.88
265.004	65.36
265.22	22.36
265.436	12.12
265.652	22.36
265.868	73.56
266.084	-2.22
266.3	91.99
266.516	16.21
266.732	46.93
266.948	71.51
267.164	-61.61
267.38	87.89
267.596	32.6
267.812	130.9
268.028	48.98
268.244	12.12
268.46	32.6
268.676	61.27
268.892	63.32
269.108	-57.51
269.324	-20.65
269.54	24.4
269.756	81.75
269.972	48.98
270.188	20.31
270.403	36.69
270.619	32.6
270.835	85.84
271.051	48.98
271.267	8.02
271.483	-24.75
271.698	65.36
271.914	32.6
272.13	12.12
272.346	53.08
272.562	71.51
272.777	98.13
272.993	16.21
273.209	32.6
273.425	40.79
273.64	91.99
273.856	40.79
274.072	-73.9
274.287	46.93
274.503	16.21
274.719	81.75
274.934	20.31
275.15	-2.22
275.366	48.98
275.581	16.21
275.797	28.5
276.012	3.93
276.228	77.65
276.444	-8.36
276.659	114.52
276.875	75.6
277.09	55.12
277.306	1.88
277.521	73.56
277.737	36.69
277.952	55.12
278.168	-32.94
278.383	8.02
278.599	77.65
278.814	89.94
279.03	48.98
279.245	178
279.461	81.75
279.676	48.98
279.892	36.69
280.107	63.32
280.322	5.97
280.538	128.85
280.753	53.08
280.969	124.76
281.184	-8.36
281.399	38.74
281.615	73.56
281.83	26.45
282.045	55.12
282.26	22.36
282.476	34.64
282.691	89.94
282.906	38.74
283.122	57.17
283.337	22.36
283.552	8.02
283.767	32.6
283.983	67.41
284.198	-4.27
284.413	53.08
284.628	-80.04
284.843	24.4
285.058	48.98
285.274	22.36
285.489	40.79
285.704	38.74
285.919	36.69
286.134	5.97
286.349	-8.36
286.564	40.79
286.779	38.74
286.995	1.88
287.21	-10.41
287.425	83.8
287.64	-0.17
287.855	139.09
288.07	-8.36
288.285	8.02
288.5	57.17
288.715	69.46
288.93	89.94
289.145	10.07
289.36	63.32
289.575	-34.99
289.79	22.36
290.004	16.21
290.219	57.17
290.434	16.21
290.649	77.65
290.864	75.6
291.079	53.08
291.294	-18.6
291.509	51.03
291.724	77.65
291.938	5.97
292.153	32.6
292.368	38.74
292.583	83.8
292.798	32.6
293.012	30.55
293.227	-49.32
293.442	46.93
293.657	46.93
293.871	77.65
294.086	61.27
294.301	122.71
294.516	40.79
294.73	40.79
294.945	36.69
295.16	38.74
295.374	87.89
295.589	53.08
295.804	1.88
296.018	-0.17
296.233	155.47
296.447	59.22
296.662	-65.71
296.877	91.99
297.091	40.79
297.306	32.6
297.52	38.74
297.735	44.88
297.949	12.12
298.164	18.26
298.378	87.89
298.593	102.23
298.807	-24.75
299.022	38.74
299.236	61.27
299.451	-0.17
299.665	28.5
299.88	8.02
300.094	36.69
300.309	38.74
300.523	91.99
300.737	-34.99
300.952	32.6
301.166	98.13
301.381	63.32
301.595	20.31
301.809	63.32
302.024	65.36
302.238	-16.55
302.452	28.5
302.667	16.21
302.881	96.08
303.095	79.7
303.309	5.97
303.524	22.36
303.738	79.7
303.952	24.4
304.166	32.6
304.381	10.07
304.595	114.52
304.809	65.36
305.023	36.69
305.237	18.26
305.452	63.32
305.666	30.55
305.88	118.61
306.094	85.84
306.308	40.79
306.522	102.23
306.736	67.41
306.95	14.17
307.164	-28.84
307.379	16.21
307.593	147.28
307.807	75.6
308.021	30.55
308.235	34.64
308.449	-8.36
308.663	40.79
308.877	63.32
309.091	36.69
309.305	81.75
309.519	24.4
309.733	8.02
309.947	28.5
310.161	77.65
310.374	16.21
310.588	1.88
310.802	-26.79
311.016	81.75
311.23	24.4
311.444	-6.31
311.658	-16.55
311.872	67.41
312.085	30.55
312.299	51.03
312.513	73.56
312.727	16.21
312.941	24.4
313.154	34.64
313.368	61.27
313.582	59.22
313.796	-32.94
314.009	67.41
314.223	14.17
314.437	85.84
314.651	-4.27
314.864	57.17
315.078	8.02
315.292	-20.65
315.505	20.31
315.719	36.69
315.933	24.4
316.146	-0.17
316.36	-30.89
316.573	106.32
316.787	79.7
317.001	28.5
317.214	8.02
317.428	73.56
317.641	24.4
317.855	-24.75
318.068	40.79
318.282	-10.41
318.495	110.42
318.709	16.21
318.922	53.08
319.136	16.21
319.349	32.6
319.563	46.93
319.776	51.03
319.99	32.6
320.203	87.89
320.417	-16.55
320.63	91.99
320.843	46.93
321.057	32.6
321.27	85.84
321.483	32.6
321.697	81.75
321.91	8.02
322.124	55.12
322.337	8.02
322.55	65.36
322.763	18.26
322.977	63.32
323.19	42.84
323.403	-8.36
323.617	-8.36
323.83	65.36
324.043	-59.56
324.256	65.36
324.469	8.02
324.683	63.32
324.896	24.4
325.109	14.17
325.322	-92.33
325.535	126.8
325.748	126.8
325.962	55.12
326.175	32.6
326.388	61.27
326.601	18.26
326.814	69.46
327.027	10.07
327.24	85.84
327.453	16.21
327.666	65.36
327.879	89.94
328.092	75.6
328.305	55.12
328.518	3.93
328.731	108.37
328.944	8.02
329.157	24.4
329.37	63.32
329.583	143.19
329.796	69.46
330.009	71.51
330.222	71.51
330.435	81.75
330.648	48.98
330.861	38.74
331.073	48.98
331.286	106.32
331.499	51.03
331.712	30.55
331.925	61.27
332.138	89.94
332.35	30.55
332.563	44.88
332.776	-8.36
332.989	-2.22
333.202	44.88
333.414	83.8
333.627	55.12
333.84	14.17
334.053	69.46
334.265	16.21
334.478	67.41
334.691	77.65
334.903	44.88
335.116	32.6
335.329	57.17
335.541	102.23
335.754	63.32
335.966	1.88
336.179	16.21
336.392	5.97
336.604	75.6
336.817	104.28
337.029	42.84
337.242	-10.41
337.454	104.28
337.667	57.17
337.88	79.7
338.092	57.17
338.305	48.98
338.517	14.17
338.729	53.08
338.942	122.71
339.154	-20.65
339.367	71.51
339.579	96.08
339.792	-47.27
340.004	16.21
340.217	10.07
340.429	122.71
340.641	-59.56
340.854	87.89
341.066	22.36
341.278	137.04
341.491	73.56
341.703	94.04
341.915	30.55
342.128	61.27
342.34	12.12
342.552	-8.36
342.764	91.99
342.977	1.88
343.189	81.75
343.401	53.08
343.613	-6.31
343.826	79.7
344.038	-22.7
344.25	79.7
344.462	-0.17
344.674	112.47
344.886	53.08
345.099	12.12
345.311	98.13
345.523	12.12
345.735	8.02
345.947	81.75
346.159	32.6
346.371	16.21
346.583	40.79
346.795	69.46
347.007	3.93
347.219	51.03
347.431	65.36
347.643	106.32
347.855	24.4
348.067	77.65
348.279	77.65
348.491	46.93
348.703	24.4
348.915	73.56
349.127	-16.55
349.339	65.36
349.551	30.55
349.763	87.89
349.975	61.27
350.187	98.13
350.399	145.24
350.61	-16.55
350.822	-14.51
351.034	24.4
351.246	32.6
351.458	-4.27
351.669	24.4
351.881	24.4
352.093	73.56
352.305	89.94
352.517	85.84
352.728	104.28
352.94	16.21
353.152	28.5
353.363	28.5
353.575	114.52
353.787	38.74
353.999	3.93
354.21	24.4
354.422	44.88
354.633	-8.36
354.845	48.98
355.057	69.46
355.268	73.56
355.48	85.84
355.692	-6.31
355.903	55.12
356.115	30.55
356.326	8.02
356.538	30.55
356.749	42.84
356.961	40.79
357.172	61.27
357.384	-20.65
357.595	151.38
357.807	89.94
358.018	-67.75
358.23	75.6
358.441	73.56
358.653	-14.51
358.864	55.12
359.075	-18.6
359.287	63.32
359.498	112.47
359.709	61.27
359.921	61.27
360.132	-55.47
360.344	79.7
360.555	89.94
360.766	73.56
360.977	124.76
361.189	71.51
361.4	40.79
361.611	120.66
361.823	75.6
362.034	22.36
362.245	28.5
362.456	10.07
362.667	69.46
362.879	38.74
363.09	22.36
363.301	-45.23
363.512	-0.17
363.723	57.17
363.935	28.5
364.146	24.4
364.357	5.97
364.568	106.32
364.779	8.02
364.99	65.36
365.201	40.79
365.412	141.14
365.623	38.74
365.834	16.21
366.045	77.65
366.256	32.6
366.467	94.04
366.678	42.84
366.889	57.17
367.1	67.41
367.311	89.94
367.522	79.7
367.733	59.22
367.944	73.56
368.155	26.45
368.366	77.65
368.577	57.17
368.788	73.56
368.999	34.64
369.209	89.94
369.42	57.17
369.631	139.09
369.842	12.12
370.053	30.55
370.264	94.04
370.474	51.03
370.685	8.02
370.896	44.88
371.107	46.93
371.317	57.17
371.528	59.22
371.739	18.26
371.95	-41.13
372.16	87.89
372.371	94.04
372.582	73.56
372.792	89.94
373.003	-8.36
373.214	77.65
373.424	12.12
373.635	36.69
373.846	137.04
374.056	10.07
374.267	44.88
374.477	59.22
374.688	77.65
374.898	26.45
375.109	114.52
375.319	48.98
375.53	81.75
375.74	55.12
375.951	40.79
376.161	40.79
376.372	32.6
376.582	-59.56
376.793	98.13
377.003	81.75
377.214	118.61
377.424	48.98
377.635	34.64
377.845	18.26
378.055	147.28
378.266	46.93
378.476	22.36
378.686	85.84
378.897	85.84
379.107	55.12
379.317	38.74
379.528	130.9
379.738	102.23
379.948	-51.37
380.158	89.94
380.369	40.79
380.579	24.4
380.789	57.17
380.999	89.94
381.21	83.8
381.42	130.9
381.63	104.28
381.84	104.28
382.05	77.65
382.261	83.8
382.471	114.52
382.681	65.36
382.891	104.28
383.101	57.17
383.311	51.03
383.521	34.64
383.731	61.27
383.941	102.23
384.151	81.75
384.361	118.61
384.571	87.89
384.781	89.94
384.991	147.28
385.201	161.62
385.411	24.4
385.621	18.26
385.831	-32.94
386.041	3.93
386.251	16.21
386.461	36.69
386.671	65.36
386.881	96.08
387.091	5.97
387.301	77.65
387.511	112.47
387.72	102.23
387.93	26.45
388.14	63.32
388.35	46.93
388.56	73.56
388.769	53.08
388.979	112.47
389.189	57.17
389.399	-2.22
389.609	3.93
389.818	-20.65
390.028	102.23
390.238	102.23
390.447	32.6
390.657	73.56
390.867	65.36
391.076	53.08
391.286	-24.75
391.496	55.12
391.705	65.36
391.915	65.36
392.125	75.6
392.334	55.12
392.544	53.08
392.753	53.08
392.963	73.56
393.172	83.8
393.382	1.88
393.591	165.71
393.801	98.13
394.01	153.43
394.22	118.61
394.429	44.88
394.639	12.12
394.848	1.88
395.058	114.52
395.267	59.22
395.477	108.37
395.686	122.71
395.895	139.09
396.105	169.81
396.314	24.4
396.524	139.09
396.733	147.28
396.942	137.04
397.152	75.6
397.361	122.71
397.57	98.13
397.78	61.27
397.989	102.23
398.198	233.3
398.407	102.23
398.617	-0.17
398.826	145.24
399.035	73.56
399.244	71.51
399.453	28.5
399.663	98.13
399.872	42.84
400.081	81.75
400.29	135
400.499	139.09
400.708	137.04
400.917	71.51
401.127	114.52
401.336	79.7
401.545	139.09
401.754	114.52
401.963	130.9
402.172	71.51
402.381	180.05
402.59	120.66
402.799	81.75
403.008	143.19
403.217	73.56
403.426	167.76
403.635	65.36
403.844	151.38
404.053	122.71
404.262	100.18
404.471	188.24
404.68	184.15
404.888	77.65
405.097	128.85
405.306	81.75
405.515	186.19
405.724	147.28
405.933	196.43
406.142	124.76
406.35	218.96
406.559	180.05
406.768	225.11
406.977	259.92
407.185	190.29
407.394	235.35
407.603	159.57
407.812	173.91
408.02	241.49
408.229	302.93
408.438	225.11
408.646	171.86
408.855	204.63
409.064	276.31
409.272	208.72
409.481	278.35
409.69	237.39
409.898	276.31
410.107	300.88
410.315	335.7
410.524	374.61
410.733	309.07
410.941	286.54
411.15	313.17
411.358	356.18
411.567	442.19
411.775	407.38
411.984	403.28
412.192	485.2
412.401	409.42
412.609	499.53
412.818	474.96
413.026	505.68
413.234	481.1
413.443	436.05
413.651	468.81
413.86	483.15
414.068	606.03
414.276	632.65
414.485	626.51
414.693	802.63
414.901	737.1
415.11	694.09
415.318	636.75
415.526	745.29
415.734	798.54
415.943	739.15
416.151	845.64
416.359	806.73
416.567	841.54
416.776	851.78
416.984	978.76
417.192	1064.77
417.4	1001.29
417.608	958.28
417.817	1048.39
418.025	1062.73
418.233	1212.23
418.441	1124.16
418.649	1183.56
418.857	1335.1
419.065	1255.23
419.273	1261.38
419.481	1367.87
419.689	1324.87
419.897	1494.85
420.105	1546.05
420.313	1414.98
420.521	1595.2
420.729	1634.11
420.937	1638.2
421.145	1810.23
421.353	1759.03
421.561	1865.53
421.769	1990.45
421.977	1900.34
422.185	2000.69
422.393	2047.8
422.601	2277.17
422.809	2152.24
423.017	2277.17
423.224	2465.58
423.432	2469.68
423.64	2451.25
423.848	2764.59
424.056	2647.85
424.263	2770.73
424.471	2809.64
424.679	2879.27
424.887	3020.58
425.094	3176.23
425.302	3149.61
425.51	3272.48
425.718	3309.35
425.925	3356.45
426.133	3524.38
426.341	3729.18
426.548	3921.69
426.756	3882.78
426.964	3864.35
427.171	4052.76
427.379	4208.41
427.586	4300.56
427.794	4595.47
428.001	4763.4
428.209	4921.1
428.417	4853.52
428.624	5093.13
428.832	5132.04
429.039	5201.67
429.247	5166.85
429.454	5508.87
429.662	5922.55
429.869	5549.82
430.076	6133.5
430.284	5777.15
430.491	6137.59
430.699	6299.38
430.906	6283
431.114	6577.9
431.321	6737.65
431.528	6868.72
431.736	7331.56
431.943	7651.04
432.15	7268.07
432.358	7536.35
432.565	8048.35
432.772	7765.73
432.979	8179.42
433.187	8324.82
433.394	8494.8
433.601	8883.92
433.808	9166.54
434.016	8933.07
434.223	9338.57
434.43	10067.64
434.637	9715.39
434.844	10354.36
435.052	10737.33
435.259	10329.78
435.466	10727.09
435.673	10591.92
435.88	11140.78
436.087	11644.58
436.294	11849.38
436.501	11490.98
436.708	11771.55
436.915	12228.25
437.122	12615.32
437.329	12734.1
437.537	13051.53
437.743	13362.83
437.95	13287.05
438.157	13958.78
438.364	14370.43
438.571	14259.84
438.778	14616.18
438.985	15511.14
439.192	15222.38
439.399	15593.06
439.606	15169.13
439.813	15752.8
440.02	17088.08
440.227	16838.23
440.433	16561.75
440.64	17278.54
440.847	17102.42
441.054	17571.4
441.261	18611.77
441.467	18384.44
441.674	18810.42
441.881	19562.03
442.088	19465.77
442.294	19271.22
442.501	19758.63
442.708	20303.39
442.914	21231.12
443.121	21612.04
443.328	21124.63
443.534	23045.62
443.741	22355.46
443.948	21771.79
444.154	23348.72
444.361	23447.02
444.568	23561.71
444.774	23705.07
444.981	23696.88
445.187	24417.76
445.394	25591.25
445.6	25177.56
445.807	27907.5
446.013	26324.42
446.22	26535.36
446.426	27594.16
446.633	28407.2
446.839	28986.78
447.046	27968.94
447.252	29298.07
447.459	29121.94
447.665	29179.29
447.871	30582.15
448.078	32021.87
448.284	30408.07
448.491	30815.62
448.697	32445.8
448.903	32978.27
449.11	33004.89
449.316	32478.57
449.522	33109.34
449.728	34108.75
449.935	34401.61
450.141	34207.05
450.347	34727.24
450.553	33604.95
450.76	34198.86
450.966	35267.9
451.172	34852.16
451.378	35718.45
451.584	34903.36
451.791	35648.82
451.997	35816.75
452.203	36074.8
452.409	36435.24
452.615	36193.58
452.821	34544.97
453.027	34336.07
453.233	36162.86
453.44	34561.35
453.646	35169.6
453.852	35296.57
454.058	35769.65
454.264	34555.21
454.47	35489.08
454.676	34508.1
454.882	35884.34
455.088	32482.66
455.294	33097.05
455.5	33307.99
455.705	33502.55
455.911	32144.75
456.117	31434.1
456.323	31075.71
456.529	29588.88
456.735	30541.19
456.941	29773.2
457.147	29910.41
457.352	28755.36
457.558	28431.78
457.764	28259.75
457.97	27735.47
458.176	26975.67
458.381	27145.66
458.587	25619.92
458.793	25744.84
458.999	24301.03
459.204	25746.89
459.41	25361.87
459.616	23758.31
459.821	23789.03
460.027	23672.3
460.233	23197.17
460.438	21868.04
460.644	22296.07
460.85	21231.12
461.055	20878.87
461.261	20727.32
461.466	19441.2
461.672	18781.75
461.878	19912.23
462.083	18576.95
462.289	18126.4
462.494	18193.98
462.7	17294.93
462.905	16637.53
463.111	17401.42
463.316	17440.33
463.522	17210.96
463.727	17184.34
463.932	17104.46
464.138	16866.9
464.343	17036.88
464.549	16436.83
464.754	17182.29
464.959	16852.56
465.165	16729.69
465.37	16229.98
465.575	15638.12
465.781	16113.25
465.986	16410.2
466.191	15707.75
466.397	15715.94
466.602	14564.98
466.807	15349.36
467.012	15464.04
467.218	15156.85
467.423	15076.98
467.628	15484.52
467.833	15601.26
