Data from USB4F104151__14__11-29-45-517.txt Node

Date: Fri Mar 14 11:29:45 EDT 2025
User: louis
Spectrometer: USB4F10415
Trigger mode: 4
Integration Time (sec): 5.000000E-2
Scans to average: 1
Electric dark correction enabled: true
Nonlinearity correction enabled: false
Boxcar width: 0
XAxis mode: Wavelengths
Number of Pixels in Spectrum: 3648
>>>>>Begin Spectral Data<<<<<
178.204	-167.76
178.424	-167.76
178.644	-167.76
178.864	-143.19
179.084	-137.04
179.304	24.75
179.524	37.03
179.744	-32.6
179.964	20.65
180.184	18.6
180.404	6.31
180.624	-32.6
180.844	-16.21
181.064	-94.04
181.283	-26.45
181.503	20.65
181.723	73.9
181.943	-3.93
182.163	47.27
182.383	-24.4
182.602	-5.97
182.822	26.79
183.042	-75.6
183.262	16.55
183.482	45.23
183.701	16.55
183.921	-18.26
184.141	10.41
184.361	-44.88
184.58	24.75
184.8	104.62
185.02	-75.6
185.239	20.65
185.459	8.36
185.679	69.8
185.898	37.03
186.118	-8.02
186.338	-10.07
186.557	63.66
186.777	-16.21
186.997	49.32
187.216	45.23
187.436	121
187.655	30.89
187.875	47.27
188.095	-12.12
188.314	39.08
188.534	90.28
188.753	-20.31
188.973	24.75
189.192	73.9
189.412	65.71
189.631	94.38
189.851	53.42
190.07	86.19
190.29	6.31
190.509	-10.07
190.729	71.85
190.948	65.71
191.168	164.01
191.387	129.19
191.607	16.55
191.826	82.09
192.045	0.17
192.265	82.09
192.484	-10.07
192.704	30.89
192.923	18.6
193.142	139.43
193.362	47.27
193.581	32.94
193.8	61.61
194.02	75.95
194.239	82.09
194.458	65.71
194.678	32.94
194.897	20.65
195.116	-3.93
195.335	49.32
195.555	16.55
195.774	61.61
195.993	28.84
196.212	-20.31
196.432	12.46
196.651	-48.98
196.87	28.84
197.089	82.09
197.308	32.94
197.528	-28.5
197.747	-1.88
197.966	41.13
198.185	30.89
198.404	-26.45
198.623	37.03
198.842	26.79
199.062	137.38
199.281	8.36
199.5	-8.02
199.719	16.55
199.938	77.99
200.157	34.99
200.376	73.9
200.595	108.71
200.814	49.32
201.033	22.7
201.252	121
201.471	32.94
201.69	47.27
201.909	-3.93
202.128	88.23
202.347	90.28
202.566	69.8
202.785	-10.07
203.004	-51.03
203.223	108.71
203.442	57.51
203.661	57.51
203.879	98.47
204.098	-26.45
204.317	82.09
204.536	6.31
204.755	32.94
204.974	43.18
205.193	55.47
205.411	84.14
205.63	63.66
205.849	104.62
206.068	59.56
206.287	98.47
206.505	41.13
206.724	-3.93
206.943	41.13
207.162	39.08
207.381	-1.88
207.599	41.13
207.818	65.71
208.037	106.67
208.255	41.13
208.474	108.71
208.693	59.56
208.911	16.55
209.13	-12.12
209.349	-32.6
209.567	45.23
209.786	82.09
210.005	45.23
210.223	37.03
210.442	12.46
210.661	0.17
210.879	-12.12
211.098	2.22
211.316	53.42
211.535	80.04
211.753	0.17
211.972	41.13
212.191	77.99
212.409	32.94
212.628	16.55
212.846	61.61
213.065	112.81
213.283	28.84
213.502	4.27
213.72	45.23
213.938	114.86
214.157	65.71
214.375	82.09
214.594	51.37
214.812	-26.45
215.031	18.6
215.249	22.7
215.467	26.79
215.686	-10.07
215.904	61.61
216.122	41.13
216.341	96.43
216.559	63.66
216.778	73.9
216.996	-10.07
217.214	4.27
217.432	-3.93
217.651	37.03
217.869	0.17
218.087	45.23
218.306	6.31
218.524	88.23
218.742	57.51
218.96	26.79
219.179	-14.17
219.397	10.41
219.615	135.34
219.833	49.32
220.051	61.61
220.27	63.66
220.488	61.61
220.706	30.89
220.924	-22.36
221.142	-10.07
221.36	30.89
221.578	67.75
221.796	-65.36
222.015	-40.79
222.233	61.61
222.451	65.71
222.669	39.08
222.887	41.13
223.105	45.23
223.323	-18.26
223.541	-16.21
223.759	12.46
223.977	47.27
224.195	75.95
224.413	8.36
224.631	26.79
224.849	41.13
225.067	32.94
225.285	24.75
225.503	-79.7
225.721	-8.02
225.939	55.47
226.157	-1.88
226.375	147.62
226.592	-32.6
226.81	39.08
227.028	90.28
227.246	90.28
227.464	63.66
227.682	34.99
227.9	-67.41
228.117	55.47
228.335	94.38
228.553	22.7
228.771	47.27
228.989	30.89
229.206	51.37
229.424	73.9
229.642	45.23
229.86	22.7
230.077	118.95
230.295	47.27
230.513	86.19
230.731	-1.88
230.948	61.61
231.166	10.41
231.384	73.9
231.601	18.6
231.819	98.47
232.037	10.41
232.254	80.04
232.472	16.55
232.689	24.75
232.907	102.57
233.125	30.89
233.342	37.03
233.56	39.08
233.777	34.99
233.995	16.55
234.213	4.27
234.43	-1.88
234.648	82.09
234.865	-24.4
235.083	14.51
235.3	-5.97
235.518	8.36
235.735	22.7
235.953	71.85
236.17	49.32
236.388	49.32
236.605	73.9
236.822	100.52
237.04	63.66
237.257	32.94
237.475	71.85
237.692	106.67
237.909	55.47
238.127	-36.69
238.344	65.71
238.562	-3.93
238.779	53.42
238.996	20.65
239.214	10.41
239.431	49.32
239.648	112.81
239.865	106.67
240.083	4.27
240.3	73.9
240.517	-16.21
240.735	28.84
240.952	67.75
241.169	123.05
241.386	6.31
241.603	41.13
241.821	-44.88
242.038	73.9
242.255	49.32
242.472	-5.97
242.689	75.95
242.907	30.89
243.124	24.75
243.341	57.51
243.558	-12.12
243.775	104.62
243.992	-42.84
244.209	14.51
244.426	16.55
244.643	69.8
244.86	-26.45
245.078	4.27
245.295	45.23
245.512	57.51
245.729	49.32
245.946	47.27
246.163	-1.88
246.38	20.65
246.597	49.32
246.814	88.23
247.031	8.36
247.248	20.65
247.464	8.36
247.681	92.33
247.898	73.9
248.115	159.91
248.332	49.32
248.549	69.8
248.766	106.67
248.983	90.28
249.2	129.19
249.417	12.46
249.633	26.79
249.85	39.08
250.067	26.79
250.284	41.13
250.501	53.42
250.717	86.19
250.934	-116.56
251.151	24.75
251.368	20.65
251.585	55.47
251.801	0.17
252.018	63.66
252.235	65.71
252.451	2.22
252.668	0.17
252.885	41.13
253.102	16.55
253.318	63.66
253.535	80.04
253.752	0.17
253.968	24.75
254.185	-1.88
254.401	-20.31
254.618	114.86
254.835	-18.26
255.051	127.14
255.268	77.99
255.484	12.46
255.701	69.8
255.917	84.14
256.134	82.09
256.351	30.89
256.567	57.51
256.784	16.55
257	-12.12
257.217	0.17
257.433	47.27
257.65	77.99
257.866	80.04
258.082	-34.64
258.299	53.42
258.515	30.89
258.732	30.89
258.948	39.08
259.165	-12.12
259.381	20.65
259.597	-8.02
259.814	-8.02
260.03	4.27
260.246	8.36
260.463	77.99
260.679	14.51
260.895	84.14
261.112	90.28
261.328	26.79
261.544	63.66
261.761	73.9
261.977	12.46
262.193	16.55
262.409	30.89
262.626	24.75
262.842	24.75
263.058	0.17
263.274	39.08
263.49	18.6
263.707	39.08
263.923	49.32
264.139	39.08
264.355	10.41
264.571	84.14
264.787	53.42
265.004	63.66
265.22	98.47
265.436	51.37
265.652	-32.6
265.868	47.27
266.084	47.27
266.3	-42.84
266.516	16.55
266.732	39.08
266.948	24.75
267.164	-24.4
267.38	123.05
267.596	34.99
267.812	65.71
268.028	86.19
268.244	37.03
268.46	118.95
268.676	53.42
268.892	98.47
269.108	16.55
269.324	61.61
269.54	-53.08
269.756	26.79
269.972	-65.36
270.188	59.56
270.403	14.51
270.619	59.56
270.835	8.36
271.051	20.65
271.267	30.89
271.483	88.23
271.698	61.61
271.914	49.32
272.13	20.65
272.346	8.36
272.562	49.32
272.777	151.72
272.993	-32.6
273.209	-28.5
273.425	53.42
273.64	-1.88
273.856	53.42
274.072	39.08
274.287	-36.69
274.503	73.9
274.719	55.47
274.934	57.51
275.15	53.42
275.366	80.04
275.581	12.46
275.797	6.31
276.012	16.55
276.228	37.03
276.444	26.79
276.659	116.9
276.875	-65.36
277.09	49.32
277.306	-63.32
277.521	96.43
277.737	67.75
277.952	2.22
278.168	24.75
278.383	-26.45
278.599	4.27
278.814	49.32
279.03	-18.26
279.245	82.09
279.461	90.28
279.676	55.47
279.892	-8.02
280.107	26.79
280.322	37.03
280.538	57.51
280.753	-1.88
280.969	49.32
281.184	-36.69
281.399	94.38
281.615	53.42
281.83	32.94
282.045	-20.31
282.26	-59.22
282.476	-8.02
282.691	110.76
282.906	49.32
283.122	73.9
283.337	0.17
283.552	65.71
283.767	4.27
283.983	57.51
284.198	37.03
284.413	32.94
284.628	-12.12
284.843	0.17
285.058	63.66
285.274	-24.4
285.489	30.89
285.704	57.51
285.919	-51.03
286.134	16.55
286.349	137.38
286.564	47.27
286.779	82.09
286.995	55.47
287.21	-8.02
287.425	45.23
287.64	-18.26
287.855	90.28
288.07	16.55
288.285	71.85
288.5	82.09
288.715	73.9
288.93	30.89
289.145	26.79
289.36	12.46
289.575	51.37
289.79	155.82
290.004	41.13
290.219	77.99
290.434	-8.02
290.649	32.94
290.864	22.7
291.079	8.36
291.294	20.65
291.509	10.41
291.724	80.04
291.938	45.23
292.153	73.9
292.368	69.8
292.583	121
292.798	32.94
293.012	28.84
293.227	123.05
293.442	30.89
293.657	41.13
293.871	6.31
294.086	14.51
294.301	88.23
294.516	90.28
294.73	8.36
294.945	37.03
295.16	92.33
295.374	102.57
295.589	102.57
295.804	41.13
296.018	20.65
296.233	161.96
296.447	6.31
296.662	26.79
296.877	90.28
297.091	53.42
297.306	73.9
297.52	0.17
297.735	63.66
297.949	45.23
298.164	53.42
298.378	8.36
298.593	-14.17
298.807	57.51
299.022	57.51
299.236	59.56
299.451	0.17
299.665	20.65
299.88	12.46
300.094	71.85
300.309	71.85
300.523	63.66
300.737	6.31
300.952	30.89
301.166	86.19
301.381	-3.93
301.595	63.66
301.809	16.55
302.024	-81.75
302.238	-1.88
302.452	65.71
302.667	80.04
302.881	123.05
303.095	69.8
303.309	92.33
303.524	24.75
303.738	-42.84
303.952	65.71
304.166	63.66
304.381	-34.64
304.595	149.67
304.809	28.84
305.023	12.46
305.237	30.89
305.452	61.61
305.666	14.51
305.88	114.86
306.094	104.62
306.308	16.55
306.522	80.04
306.736	8.36
306.95	28.84
307.164	47.27
307.379	0.17
307.593	114.86
307.807	112.81
308.021	61.61
308.235	159.91
308.449	20.65
308.663	-8.02
308.877	100.52
309.091	71.85
309.305	88.23
309.519	-53.08
309.733	90.28
309.947	-30.55
310.161	80.04
310.374	41.13
310.588	53.42
310.802	0.17
311.016	-32.6
311.23	53.42
311.444	61.61
311.658	90.28
311.872	30.89
312.085	57.51
312.299	55.47
312.513	77.99
312.727	45.23
312.941	57.51
313.154	39.08
313.368	24.75
313.582	4.27
313.796	61.61
314.009	98.47
314.223	82.09
314.437	102.57
314.651	61.61
314.864	32.94
315.078	77.99
315.292	-30.55
315.505	-16.21
315.719	22.7
315.933	63.66
316.146	53.42
316.36	45.23
316.573	106.67
316.787	-16.21
317.001	96.43
317.214	20.65
317.428	16.55
317.641	71.85
317.855	16.55
318.068	8.36
318.282	106.67
318.495	114.86
318.709	-28.5
318.922	55.47
319.136	80.04
319.349	82.09
319.563	-67.41
319.776	57.51
319.99	53.42
320.203	96.43
320.417	73.9
320.63	94.38
320.843	98.47
321.057	24.75
321.27	77.99
321.483	77.99
321.697	69.8
321.91	55.47
322.124	24.75
322.337	-1.88
322.55	10.41
322.763	43.18
322.977	22.7
323.19	73.9
323.403	24.75
323.617	127.14
323.83	90.28
324.043	8.36
324.256	55.47
324.469	16.55
324.683	116.9
324.896	39.08
325.109	14.51
325.322	22.7
325.535	71.85
325.748	47.27
325.962	45.23
326.175	110.76
326.388	51.37
326.601	45.23
326.814	94.38
327.027	39.08
327.24	151.72
327.453	32.94
327.666	77.99
327.879	41.13
328.092	57.51
328.305	61.61
328.518	0.17
328.731	-24.4
328.944	28.84
329.157	82.09
329.37	45.23
329.583	123.05
329.796	69.8
330.009	-59.22
330.222	88.23
330.435	57.51
330.648	47.27
330.861	-10.07
331.073	157.86
331.286	77.99
331.499	8.36
331.712	8.36
331.925	80.04
332.138	53.42
332.35	110.76
332.563	4.27
332.776	65.71
332.989	37.03
333.202	24.75
333.414	57.51
333.627	41.13
333.84	-16.21
334.053	88.23
334.265	24.75
334.478	32.94
334.691	20.65
334.903	75.95
335.116	-40.79
335.329	26.79
335.541	53.42
335.754	139.43
335.966	49.32
336.179	71.85
336.392	53.42
336.604	123.05
336.817	-12.12
337.029	16.55
337.242	-44.88
337.454	86.19
337.667	-53.08
337.88	37.03
338.092	69.8
338.305	47.27
338.517	32.94
338.729	53.42
338.942	73.9
339.154	73.9
339.367	-10.07
339.579	77.99
339.792	14.51
340.004	41.13
340.217	-22.36
340.429	82.09
340.641	41.13
340.854	53.42
341.066	84.14
341.278	90.28
341.491	123.05
341.703	82.09
341.915	-24.4
342.128	71.85
342.34	104.62
342.552	59.56
342.764	16.55
342.977	34.99
343.189	88.23
343.401	6.31
343.613	28.84
343.826	98.47
344.038	4.27
344.25	57.51
344.462	86.19
344.674	106.67
344.886	41.13
345.099	82.09
345.311	114.86
345.523	82.09
345.735	39.08
345.947	6.31
346.159	110.76
346.371	65.71
346.583	75.95
346.795	110.76
347.007	112.81
347.219	43.18
347.431	28.84
347.643	73.9
347.855	24.75
348.067	121
348.279	24.75
348.491	43.18
348.703	88.23
348.915	18.6
349.127	16.55
349.339	65.71
349.551	-24.4
349.763	123.05
349.975	63.66
350.187	145.58
350.399	112.81
350.61	71.85
350.822	26.79
351.034	80.04
351.246	73.9
351.458	-48.98
351.669	53.42
351.881	51.37
352.093	59.56
352.305	75.95
352.517	147.62
352.728	77.99
352.94	145.58
353.152	100.52
353.363	90.28
353.575	133.29
353.787	55.47
353.999	2.22
354.21	26.79
354.422	90.28
354.633	102.57
354.845	73.9
355.057	-1.88
355.268	106.67
355.48	108.71
355.692	121
355.903	28.84
356.115	8.36
356.326	-53.08
356.538	88.23
356.749	61.61
356.961	49.32
357.172	65.71
357.384	57.51
357.595	73.9
357.807	6.31
358.018	14.51
358.23	6.31
358.441	90.28
358.653	61.61
358.864	-8.02
359.075	49.32
359.287	82.09
359.498	22.7
359.709	49.32
359.921	34.99
360.132	114.86
360.344	73.9
360.555	16.55
360.766	16.55
360.977	-14.17
361.189	123.05
361.4	18.6
361.611	106.67
361.823	98.47
362.034	59.56
362.245	6.31
362.456	-1.88
362.667	114.86
362.879	-3.93
363.09	77.99
363.301	84.14
363.512	4.27
363.723	-20.31
363.935	41.13
364.146	41.13
364.357	14.51
364.568	94.38
364.779	28.84
364.99	106.67
365.201	77.99
365.412	22.7
365.623	14.51
365.834	98.47
366.045	47.27
366.256	145.58
366.467	73.9
366.678	45.23
366.889	90.28
367.1	16.55
367.311	67.75
367.522	49.32
367.733	102.57
367.944	114.86
368.155	55.47
368.366	104.62
368.577	94.38
368.788	100.52
368.999	28.84
369.209	69.8
369.42	172.2
369.631	98.47
369.842	37.03
370.053	73.9
370.264	69.8
370.474	30.89
370.685	80.04
370.896	73.9
371.107	96.43
371.317	-20.31
371.528	69.8
371.739	151.72
371.95	153.77
372.16	90.28
372.371	34.99
372.582	14.51
372.792	102.57
373.003	110.76
373.214	77.99
373.424	69.8
373.635	24.75
373.846	0.17
374.056	82.09
374.267	67.75
374.477	114.86
374.688	20.65
374.898	43.18
375.109	71.85
375.319	24.75
375.53	96.43
375.74	39.08
375.951	82.09
376.161	90.28
376.372	102.57
376.582	86.19
376.793	114.86
377.003	20.65
377.214	96.43
377.424	67.75
377.635	82.09
377.845	75.95
378.055	67.75
378.266	30.89
378.476	-24.4
378.686	24.75
378.897	37.03
379.107	139.43
379.317	98.47
379.528	-73.56
379.738	30.89
379.948	53.42
380.158	82.09
380.369	71.85
380.579	104.62
380.789	12.46
380.999	106.67
381.21	131.24
381.42	141.48
381.63	82.09
381.84	37.03
382.05	55.47
382.261	53.42
382.471	102.57
382.681	39.08
382.891	86.19
383.101	10.41
383.311	24.75
383.521	77.99
383.731	86.19
383.941	90.28
384.151	59.56
384.361	8.36
384.571	39.08
384.781	116.9
384.991	190.63
385.201	92.33
385.411	71.85
385.621	51.37
385.831	114.86
386.041	108.71
386.251	14.51
386.461	47.27
386.671	-14.17
386.881	22.7
387.091	73.9
387.301	59.56
387.511	65.71
387.72	90.28
387.93	151.72
388.14	20.65
388.35	41.13
388.56	63.66
388.769	73.9
388.979	0.17
389.189	18.6
389.399	41.13
389.609	133.29
389.818	121
390.028	51.37
390.238	55.47
390.447	30.89
390.657	88.23
390.867	8.36
391.076	102.57
391.286	-32.6
391.496	145.58
391.705	102.57
391.915	129.19
392.125	49.32
392.334	121
392.544	90.28
392.753	135.34
392.963	98.47
393.172	75.95
393.382	123.05
393.591	121
393.801	39.08
394.01	174.25
394.22	65.71
394.429	53.42
394.639	137.38
394.848	110.76
395.058	116.9
395.267	102.57
395.477	135.34
395.686	57.51
395.895	178.34
396.105	147.62
396.314	188.58
396.524	135.34
396.733	98.47
396.942	77.99
397.152	161.96
397.361	155.82
397.57	71.85
397.78	121
397.989	77.99
398.198	116.9
398.407	155.82
398.617	65.71
398.826	131.24
399.035	106.67
399.244	147.62
399.453	143.53
399.663	96.43
399.872	139.43
400.081	92.33
400.29	147.62
400.499	104.62
400.708	172.2
400.917	63.66
401.127	77.99
401.336	106.67
401.545	196.78
401.754	104.62
401.963	139.43
402.172	92.33
402.381	24.75
402.59	186.54
402.799	98.47
403.008	102.57
403.217	217.26
403.426	110.76
403.635	98.47
403.844	202.92
404.053	147.62
404.262	155.82
404.471	188.58
404.68	151.72
404.888	147.62
405.097	131.24
405.306	180.39
405.515	229.54
405.724	229.54
405.933	207.02
406.142	215.21
406.35	188.58
406.559	211.11
406.768	174.25
406.977	200.87
407.185	164.01
407.394	288.93
407.603	168.1
407.812	217.26
408.02	290.98
408.229	293.03
408.438	276.65
408.646	247.97
408.855	262.31
409.064	299.17
409.272	286.89
409.481	245.93
409.69	266.41
409.898	360.61
410.107	250.02
410.315	295.08
410.524	299.17
410.733	403.62
410.941	293.03
411.15	362.66
411.358	399.52
411.567	473.25
411.775	475.3
411.984	487.59
412.192	454.82
412.401	485.54
412.609	479.4
412.818	542.88
413.026	596.13
413.234	549.03
413.443	565.41
413.651	571.55
413.86	618.66
414.068	669.86
414.276	727.2
414.485	678.05
414.693	702.62
414.901	802.97
415.11	860.32
415.318	745.63
415.526	809.12
415.734	882.85
415.943	884.89
416.151	942.24
416.359	940.19
416.567	923.8
416.776	1024.16
416.984	1061.02
417.192	1005.72
417.4	1083.55
417.608	983.2
417.817	1118.36
418.025	1228.95
418.233	1351.83
418.441	1212.57
418.649	1323.16
418.857	1374.36
419.065	1417.37
419.273	1400.98
419.481	1482.9
419.689	1573.01
419.897	1556.63
420.105	1605.78
420.313	1679.51
420.521	1835.15
420.729	1763.47
420.937	1734.8
421.145	1904.78
421.353	2111.63
421.561	2121.87
421.769	2187.4
421.977	2207.88
422.185	2300.04
422.393	2347.14
422.601	2441.35
422.809	2527.36
423.017	2580.61
423.224	2613.38
423.432	2809.98
423.64	2816.13
423.848	3055.74
424.056	2904.19
424.263	3117.18
424.471	3242.11
424.679	3184.76
424.887	3379.32
425.094	3563.64
425.302	3532.92
425.51	3469.43
425.718	3715.19
425.925	3731.57
426.133	3973.23
426.341	4055.15
426.548	4345.96
426.756	4307.05
426.964	4444.26
427.171	4536.42
427.379	4870.24
427.586	4843.62
427.794	4970.59
428.001	5216.35
428.209	5554.26
428.417	5374.04
428.624	5722.2
428.832	5736.53
429.039	5765.2
429.247	5800.02
429.454	6326.35
429.662	6815.81
429.869	6135.89
430.076	6727.75
430.284	6420.55
430.491	7045.18
430.699	7174.21
430.906	7084.09
431.114	7297.08
431.321	7485.5
431.528	7505.98
431.736	8265.77
431.943	8509.48
432.15	8245.29
432.358	8445.99
432.565	8910.88
432.772	8714.28
432.979	9469.98
433.187	9363.48
433.394	9377.82
433.601	10186.77
433.808	10084.37
434.016	10057.75
434.223	10696.71
434.43	11065.35
434.637	10862.6
434.844	11655.16
435.052	11886.58
435.259	11628.54
435.466	11999.22
435.673	11612.15
435.88	12720.1
436.087	13268.96
436.294	13166.56
436.501	12982.24
436.708	13199.33
436.915	13311.97
437.122	14274.51
437.329	14180.31
437.537	14761.93
437.743	14938.05
437.95	14874.57
438.157	15513.53
438.364	16166.84
438.571	16160.69
438.778	16293.81
438.985	17684.38
439.192	17211.3
439.399	17594.27
439.606	17196.96
439.813	18239.38
440.02	19335.04
440.227	18907.02
440.433	18579.34
440.64	19271.56
440.847	19062.66
441.054	19730.3
441.261	20891.5
441.467	20586.35
441.674	21176.17
441.881	21722.98
442.088	21729.12
442.294	21772.13
442.501	22474.58
442.708	22839.12
442.914	23437.13
443.121	24532.79
443.328	24237.88
443.534	25806.62
443.741	24717.11
443.948	24624.95
444.154	26654.48
444.361	26263.32
444.568	26513.17
444.774	26855.18
444.981	26621.72
445.187	27356.94
445.394	28589.81
445.6	28573.43
445.807	31174.35
446.013	29773.54
446.22	30056.16
446.426	31401.68
446.633	32091.84
446.839	32786.1
447.046	31645.38
447.252	33365.68
447.459	33310.38
447.665	33185.46
447.871	34393.76
448.078	35958.41
448.284	34197.15
448.491	35350.16
448.697	36779.64
448.903	37297.78
449.11	37566.06
449.316	36927.1
449.522	37488.24
449.728	38155.88
449.935	38864.47
450.141	38069.86
450.347	39089.75
450.553	38364.77
450.76	38327.91
450.966	39947.85
451.172	39265.88
451.378	39919.18
451.584	39456.34
451.791	39831.11
451.997	40476.23
452.203	40781.37
452.409	40681.02
452.615	40797.76
452.821	39032.41
453.027	38735.45
453.233	40848.96
453.44	38905.43
453.646	39427.67
453.852	39691.85
454.058	40296
454.264	38923.86
454.47	39886.41
454.676	38473.31
454.882	39937.61
455.088	36638.33
455.294	37357.17
455.5	37660.27
455.705	38186.6
455.911	36193.92
456.117	35491.47
456.323	35612.3
456.529	33279.66
456.735	34600.6
456.941	33916.58
457.147	33230.51
457.352	32450.24
457.558	31805.13
457.764	31645.38
457.97	31219.41
458.176	30389.98
458.381	30625.5
458.587	29181.68
458.793	28907.25
458.999	27752.2
459.204	29630.18
459.41	28716.79
459.616	26855.18
459.821	26973.97
460.027	26791.7
460.233	26056.48
460.438	24850.22
460.644	25145.13
460.85	23975.74
461.055	23787.33
461.261	23830.34
461.466	21841.76
461.672	21264.23
461.878	22341.46
462.083	21106.54
462.289	20655.98
462.494	20621.17
462.7	19574.66
462.905	19132.29
463.111	19687.29
463.316	19896.19
463.522	19486.59
463.727	19488.64
463.932	19537.79
464.138	18978.7
464.343	19001.22
464.549	18798.48
464.754	19437.44
464.959	19214.21
465.165	18898.83
465.37	17948.57
465.575	17915.8
465.781	18626.45
465.986	18413.46
466.191	17956.76
466.397	17579.93
466.602	16910.25
466.807	17184.68
467.012	17297.31
