Data from USB4F104151__22__11-29-54-666.txt Node

Date: Fri Mar 14 11:29:54 EDT 2025
User: louis
Spectrometer: USB4F10415
Trigger mode: 4
Integration Time (sec): 5.000000E-2
Scans to average: 1
Electric dark correction enabled: true
Nonlinearity correction enabled: false
Boxcar width: 0
XAxis mode: Wavelengths
Number of Pixels in Spectrum: 3648
>>>>>Begin Spectral Data<<<<<
178.204	-138.58
178.424	-138.58
178.644	-138.58
178.864	-191.83
179.084	-142.68
179.304	8.87
179.524	-73.04
179.744	4.78
179.964	53.93
180.184	-1.37
180.404	-1.37
180.624	4.78
180.844	-3.41
181.064	-27.99
181.283	-7.51
181.503	33.45
181.723	8.87
181.943	-73.04
182.163	72.36
182.383	8.87
182.602	8.87
182.822	49.83
183.042	0.68
183.262	-3.41
183.482	15.02
183.701	86.7
183.921	49.83
184.141	41.64
184.361	12.97
184.58	0.68
184.8	-21.85
185.02	0.68
185.239	43.69
185.459	4.78
185.679	12.97
185.898	-23.89
186.118	-15.7
186.338	-13.65
186.557	39.59
186.777	0.68
186.997	-15.7
187.216	-44.37
187.436	39.59
187.655	53.93
187.875	51.88
188.095	-66.9
188.314	41.64
188.534	25.26
188.753	23.21
188.973	58.03
189.192	49.83
189.412	58.03
189.631	10.92
189.851	31.4
190.07	49.83
190.29	-7.51
190.509	-23.89
190.729	-11.61
190.948	80.55
191.168	189.1
191.387	8.87
191.607	-48.47
191.826	8.87
192.045	-42.32
192.265	-7.51
192.484	8.87
192.704	74.41
192.923	15.02
193.142	92.84
193.362	117.42
193.581	88.75
193.8	-5.46
194.02	66.22
194.239	-5.46
194.458	17.07
194.678	-23.89
194.897	2.73
195.116	105.13
195.335	-25.94
195.555	49.83
195.774	25.26
195.993	64.17
196.212	19.11
196.432	94.89
196.651	2.73
196.87	-5.46
197.089	33.45
197.308	41.64
197.528	41.64
197.747	-7.51
197.966	19.11
198.185	131.75
198.404	4.78
198.623	53.93
198.842	25.26
199.062	41.64
199.281	37.55
199.5	-32.08
199.719	-21.85
199.938	33.45
200.157	72.36
200.376	17.07
200.595	76.46
200.814	107.18
201.033	-7.51
201.252	53.93
201.471	-54.61
201.69	-34.13
201.909	64.17
202.128	72.36
202.347	15.02
202.566	17.07
202.785	12.97
203.004	-21.85
203.223	107.18
203.442	-40.28
203.661	-7.51
203.879	15.02
204.098	17.07
204.317	27.31
204.536	90.79
204.755	41.64
204.974	25.26
205.193	58.03
205.411	152.23
205.63	-7.51
205.849	74.41
206.068	74.41
206.287	-42.32
206.505	60.07
206.724	-3.41
206.943	62.12
207.162	-13.65
207.381	-30.04
207.599	15.02
207.818	2.73
208.037	-48.47
208.255	-36.18
208.474	82.6
208.693	37.55
208.911	-56.66
209.13	-7.51
209.349	12.97
209.567	8.87
209.786	41.64
210.005	-23.89
210.223	41.64
210.442	-32.08
210.661	-7.51
210.879	43.69
211.098	45.74
211.316	17.07
211.535	90.79
211.753	27.31
211.972	-15.7
212.191	-7.51
212.409	-19.8
212.628	62.12
212.846	-27.99
213.065	33.45
213.283	53.93
213.502	55.98
213.72	-83.28
213.938	41.64
214.157	-5.46
214.375	-44.37
214.594	-7.51
214.812	74.41
215.031	-34.13
215.249	23.21
215.467	-23.89
215.686	17.07
215.904	51.88
216.122	51.88
216.341	121.51
216.559	-38.23
216.778	78.51
216.996	-17.75
217.214	17.07
217.432	29.35
217.651	25.26
217.869	-27.99
218.087	78.51
218.306	-34.13
218.524	64.17
218.742	-77.14
218.96	33.45
219.179	25.26
219.397	123.56
219.615	109.22
219.833	90.79
220.051	-56.66
220.27	62.12
220.488	0.68
220.706	74.41
220.924	-25.94
221.142	72.36
221.36	-73.04
221.578	-17.75
221.796	96.94
222.015	94.89
222.233	8.87
222.451	64.17
222.669	-9.56
222.887	49.83
223.105	6.83
223.323	35.5
223.541	39.59
223.759	72.36
223.977	17.07
224.195	41.64
224.413	135.85
224.631	-1.37
224.849	90.79
225.067	53.93
225.285	105.13
225.503	58.03
225.721	-68.95
225.939	8.87
226.157	41.64
226.375	105.13
226.592	-27.99
226.81	6.83
227.028	74.41
227.246	37.55
227.464	6.83
227.682	60.07
227.9	17.07
228.117	25.26
228.335	25.26
228.553	-15.7
228.771	74.41
228.989	17.07
229.206	-17.75
229.424	43.69
229.642	-40.28
229.86	-17.75
230.077	78.51
230.295	39.59
230.513	74.41
230.731	15.02
230.948	68.27
231.166	92.84
231.384	6.83
231.601	29.35
231.819	121.51
232.037	17.07
232.254	-46.42
232.472	-23.89
232.689	6.83
232.907	-15.7
233.125	-91.48
233.342	-27.99
233.56	17.07
233.777	8.87
233.995	10.92
234.213	58.03
234.43	31.4
234.648	82.6
234.865	72.36
235.083	82.6
235.3	-9.56
235.518	62.12
235.735	33.45
235.953	117.42
236.17	45.74
236.388	-15.7
236.605	58.03
236.822	-1.37
237.04	37.55
237.257	49.83
237.475	-25.94
237.692	19.11
237.909	49.83
238.127	29.35
238.344	58.03
238.562	41.64
238.779	-68.95
238.996	-50.52
239.214	111.27
239.431	39.59
239.648	-83.28
239.865	74.41
240.083	41.64
240.3	25.26
240.517	12.97
240.735	39.59
240.952	90.79
241.169	49.83
241.386	8.87
241.603	-17.75
241.821	29.35
242.038	86.7
242.255	21.16
242.472	-42.32
242.689	-13.65
242.907	2.73
243.124	-13.65
243.341	17.07
243.558	-7.51
243.775	-1.37
243.992	-34.13
244.209	17.07
244.426	109.22
244.643	45.74
244.86	21.16
245.078	31.4
245.295	-60.76
245.512	-13.65
245.729	60.07
245.946	4.78
246.163	-17.75
246.38	-3.41
246.597	45.74
246.814	74.41
247.031	-9.56
247.248	15.02
247.464	15.02
247.681	-42.32
247.898	86.7
248.115	74.41
248.332	6.83
248.549	49.83
248.766	90.79
248.983	90.79
249.2	94.89
249.417	66.22
249.633	25.26
249.85	-5.46
250.067	33.45
250.284	-25.94
250.501	6.83
250.717	19.11
250.934	-32.08
251.151	25.26
251.368	29.35
251.585	64.17
251.801	0.68
252.018	-3.41
252.235	2.73
252.451	-27.99
252.668	-27.99
252.885	47.79
253.102	58.03
253.318	33.45
253.535	-25.94
253.752	47.79
253.968	0.68
254.185	-7.51
254.401	8.87
254.618	15.02
254.835	49.83
255.051	53.93
255.268	45.74
255.484	8.87
255.701	0.68
255.917	58.03
256.134	-25.94
256.351	90.79
256.567	6.83
256.784	66.22
257	86.7
257.217	41.64
257.433	74.41
257.65	82.6
257.866	88.75
258.082	0.68
258.299	-5.46
258.515	4.78
258.732	-9.56
258.948	37.55
259.165	66.22
259.381	12.97
259.597	-34.13
259.814	55.98
260.03	0.68
260.246	23.21
260.463	88.75
260.679	21.16
260.895	-9.56
261.112	64.17
261.328	-42.32
261.544	53.93
261.761	113.32
261.977	31.4
262.193	-60.76
262.409	19.11
262.626	90.79
262.842	31.4
263.058	53.93
263.274	55.98
263.49	-11.61
263.707	113.32
263.923	-66.9
264.139	-56.66
264.355	47.79
264.571	41.64
264.787	49.83
265.004	80.55
265.22	8.87
265.436	-1.37
265.652	31.4
265.868	55.98
266.084	-23.89
266.3	31.4
266.516	-32.08
266.732	-21.85
266.948	45.74
267.164	74.41
267.38	88.75
267.596	-3.41
267.812	-5.46
268.028	19.11
268.244	25.26
268.46	74.41
268.676	-1.37
268.892	53.93
269.108	-15.7
269.324	-15.7
269.54	-15.7
269.756	72.36
269.972	-25.94
270.188	8.87
270.403	-21.85
270.619	88.75
270.835	-42.32
271.051	-1.37
271.267	8.87
271.483	-15.7
271.698	-3.41
271.914	31.4
272.13	-15.7
272.346	8.87
272.562	31.4
272.777	25.26
272.993	33.45
273.209	47.79
273.425	37.55
273.64	25.26
273.856	33.45
274.072	-42.32
274.287	68.27
274.503	98.99
274.719	0.68
274.934	90.79
275.15	-93.52
275.366	0.68
275.581	-15.7
275.797	58.03
276.012	86.7
276.228	62.12
276.444	-50.52
276.659	41.64
276.875	-7.51
277.09	21.16
277.306	17.07
277.521	8.87
277.737	82.6
277.952	96.94
278.168	-21.85
278.383	23.21
278.599	21.16
278.814	55.98
279.03	25.26
279.245	33.45
279.461	12.97
279.676	8.87
279.892	-77.14
280.107	-25.94
280.322	-101.72
280.538	25.26
280.753	-17.75
280.969	-7.51
281.184	25.26
281.399	82.6
281.615	4.78
281.83	12.97
282.045	-50.52
282.26	39.59
282.476	33.45
282.691	47.79
282.906	43.69
283.122	53.93
283.337	15.02
283.552	58.03
283.767	47.79
283.983	70.31
284.198	17.07
284.413	80.55
284.628	-7.51
284.843	33.45
285.058	-11.61
285.274	58.03
285.489	-19.8
285.704	25.26
285.919	35.5
286.134	6.83
286.349	33.45
286.564	-77.14
286.779	15.02
286.995	15.02
287.21	2.73
287.425	29.35
287.64	17.07
287.855	47.79
288.07	31.4
288.285	-32.08
288.5	27.31
288.715	98.99
288.93	12.97
289.145	72.36
289.36	35.5
289.575	27.31
289.79	47.79
290.004	29.35
290.219	78.51
290.434	64.17
290.649	4.78
290.864	31.4
291.079	31.4
291.294	78.51
291.509	58.03
291.724	33.45
291.938	-11.61
292.153	86.7
292.368	-50.52
292.583	19.11
292.798	66.22
293.012	62.12
293.227	21.16
293.442	-68.95
293.657	-32.08
293.871	76.46
294.086	86.7
294.301	70.31
294.516	98.99
294.73	33.45
294.945	25.26
295.16	-46.42
295.374	15.02
295.589	86.7
295.804	-23.89
296.018	12.97
296.233	33.45
296.447	31.4
296.662	-3.41
296.877	66.22
297.091	27.31
297.306	58.03
297.52	-7.51
297.735	39.59
297.949	41.64
298.164	49.83
298.378	64.17
298.593	15.02
298.807	49.83
299.022	33.45
299.236	88.75
299.451	-50.52
299.665	47.79
299.88	47.79
300.094	-3.41
300.309	-19.8
300.523	41.64
300.737	66.22
300.952	15.02
301.166	39.59
301.381	12.97
301.595	45.74
301.809	10.92
302.024	45.74
302.238	-23.89
302.452	137.9
302.667	0.68
302.881	70.31
303.095	31.4
303.309	80.55
303.524	8.87
303.738	72.36
303.952	0.68
304.166	37.55
304.381	41.64
304.595	33.45
304.809	17.07
305.023	45.74
305.237	2.73
305.452	-5.46
305.666	-7.51
305.88	25.26
306.094	45.74
306.308	66.22
306.522	-21.85
306.736	29.35
306.95	53.93
307.164	78.51
307.379	17.07
307.593	80.55
307.807	8.87
308.021	90.79
308.235	53.93
308.449	-134.48
308.663	0.68
308.877	103.08
309.091	8.87
309.305	103.08
309.519	-54.61
309.733	4.78
309.947	-19.8
310.161	49.83
310.374	58.03
310.588	131.75
310.802	-32.08
311.016	29.35
311.23	-1.37
311.444	8.87
311.658	17.07
311.872	53.93
312.085	84.65
312.299	35.5
312.513	74.41
312.727	41.64
312.941	21.16
313.154	21.16
313.368	82.6
313.582	53.93
313.796	-15.7
314.009	17.07
314.223	103.08
314.437	-21.85
314.651	4.78
314.864	68.27
315.078	19.11
315.292	-15.7
315.505	-44.37
315.719	82.6
315.933	51.88
316.146	-3.41
316.36	-7.51
316.573	78.51
316.787	137.9
317.001	80.55
317.214	82.6
317.428	21.16
317.641	-23.89
317.855	-36.18
318.068	0.68
318.282	35.5
318.495	103.08
318.709	66.22
318.922	-1.37
319.136	15.02
319.349	66.22
319.563	41.64
319.776	-11.61
319.99	12.97
320.203	45.74
320.417	47.79
320.63	-19.8
320.843	21.16
321.057	90.79
321.27	35.5
321.483	37.55
321.697	82.6
321.91	-32.08
322.124	15.02
322.337	-50.52
322.55	21.16
322.763	12.97
322.977	4.78
323.19	23.21
323.403	8.87
323.617	66.22
323.83	82.6
324.043	-11.61
324.256	21.16
324.469	-23.89
324.683	86.7
324.896	15.02
325.109	-15.7
325.322	-25.94
325.535	135.85
325.748	25.26
325.962	31.4
326.175	49.83
326.388	111.27
326.601	4.78
326.814	29.35
327.027	62.12
327.24	29.35
327.453	-25.94
327.666	47.79
327.879	62.12
328.092	12.97
328.305	55.98
328.518	84.65
328.731	-52.56
328.944	41.64
329.157	51.88
329.37	21.16
329.583	74.41
329.796	76.46
330.009	-23.89
330.222	25.26
330.435	80.55
330.648	-13.65
330.861	8.87
331.073	64.17
331.286	41.64
331.499	58.03
331.712	8.87
331.925	-54.61
332.138	37.55
332.35	31.4
332.563	8.87
332.776	0.68
332.989	-11.61
333.202	6.83
333.414	17.07
333.627	-34.13
333.84	60.07
334.053	72.36
334.265	-15.7
334.478	115.37
334.691	-1.37
334.903	84.65
335.116	29.35
335.329	12.97
335.541	58.03
335.754	94.89
335.966	2.73
336.179	62.12
336.392	6.83
336.604	53.93
336.817	66.22
337.029	-3.41
337.242	64.17
337.454	-11.61
337.667	49.83
337.88	64.17
338.092	64.17
338.305	60.07
338.517	12.97
338.729	49.83
338.942	107.18
339.154	0.68
339.367	49.83
339.579	-11.61
339.792	-7.51
340.004	12.97
340.217	4.78
340.429	33.45
340.641	41.64
340.854	-32.08
341.066	21.16
341.278	58.03
341.491	78.51
341.703	98.99
341.915	0.68
342.128	98.99
342.34	-17.75
342.552	-1.37
342.764	33.45
342.977	21.16
343.189	-40.28
343.401	19.11
343.613	-7.51
343.826	39.59
344.038	-17.75
344.25	-46.42
344.462	-32.08
344.674	88.75
344.886	-23.89
345.099	37.55
345.311	43.69
345.523	-25.94
345.735	-36.18
345.947	29.35
346.159	37.55
346.371	-73.04
346.583	25.26
346.795	90.79
347.007	101.03
347.219	8.87
347.431	70.31
347.643	86.7
347.855	17.07
348.067	62.12
348.279	-73.04
348.491	66.22
348.703	41.64
348.915	70.31
349.127	31.4
349.339	58.03
349.551	4.78
349.763	47.79
349.975	19.11
350.187	6.83
350.399	101.03
350.61	60.07
350.822	76.46
351.034	39.59
351.246	49.83
351.458	68.27
351.669	-32.08
351.881	53.93
352.093	12.97
352.305	31.4
352.517	62.12
352.728	53.93
352.94	-38.23
353.152	66.22
353.363	0.68
353.575	25.26
353.787	76.46
353.999	55.98
354.21	62.12
354.422	-23.89
354.633	4.78
354.845	80.55
355.057	15.02
355.268	39.59
355.48	74.41
355.692	17.07
355.903	60.07
356.115	-30.04
356.326	-25.94
356.538	15.02
356.749	12.97
356.961	144.04
357.172	98.99
357.384	33.45
357.595	80.55
357.807	23.21
358.018	-40.28
358.23	2.73
358.441	137.9
358.653	15.02
358.864	-68.95
359.075	4.78
359.287	72.36
359.498	37.55
359.709	82.6
359.921	58.03
360.132	58.03
360.344	23.21
360.555	17.07
360.766	25.26
360.977	47.79
361.189	94.89
361.4	33.45
361.611	68.27
361.823	15.02
362.034	2.73
362.245	19.11
362.456	82.6
362.667	19.11
362.879	4.78
363.09	29.35
363.301	-25.94
363.512	-25.94
363.723	23.21
363.935	-30.04
364.146	33.45
364.357	47.79
364.568	76.46
364.779	-48.47
364.99	82.6
365.201	121.51
365.412	94.89
365.623	-34.13
365.834	47.79
366.045	17.07
366.256	49.83
366.467	-7.51
366.678	82.6
366.889	-44.37
367.1	103.08
367.311	17.07
367.522	33.45
367.733	25.26
367.944	90.79
368.155	8.87
368.366	90.79
368.577	60.07
368.788	31.4
368.999	-66.9
369.209	113.32
369.42	88.75
369.631	98.99
369.842	90.79
370.053	45.74
370.264	84.65
370.474	17.07
370.685	47.79
370.896	4.78
371.107	90.79
371.317	64.17
371.528	-23.89
371.739	64.17
371.95	29.35
372.16	0.68
372.371	19.11
372.582	23.21
372.792	105.13
373.003	39.59
373.214	88.75
373.424	62.12
373.635	-5.46
373.846	119.46
374.056	17.07
374.267	66.22
374.477	94.89
374.688	58.03
374.898	131.75
375.109	-9.56
375.319	62.12
375.53	74.41
375.74	51.88
375.951	0.68
376.161	19.11
376.372	62.12
376.582	19.11
376.793	80.55
377.003	41.64
377.214	64.17
377.424	62.12
377.635	74.41
377.845	-3.41
378.055	152.23
378.266	45.74
378.476	74.41
378.686	62.12
378.897	-23.89
379.107	31.4
379.317	58.03
379.528	-1.37
379.738	144.04
379.948	-17.75
380.158	82.6
380.369	0.68
380.579	39.59
380.789	15.02
380.999	29.35
381.21	49.83
381.42	74.41
381.63	-17.75
381.84	105.13
382.05	66.22
382.261	98.99
382.471	131.75
382.681	-25.94
382.891	141.99
383.101	47.79
383.311	37.55
383.521	66.22
383.731	25.26
383.941	33.45
384.151	29.35
384.361	29.35
384.571	31.4
384.781	72.36
384.991	78.51
385.201	35.5
385.411	-25.94
385.621	64.17
385.831	31.4
386.041	37.55
386.251	49.83
386.461	109.22
386.671	17.07
386.881	94.89
387.091	-7.51
387.301	82.6
387.511	53.93
387.72	68.27
387.93	55.98
388.14	19.11
388.35	49.83
388.56	68.27
388.769	92.84
388.979	86.7
389.189	-30.04
389.399	90.79
389.609	49.83
389.818	141.99
390.028	82.6
390.238	98.99
390.447	17.07
390.657	31.4
390.867	62.12
391.076	47.79
391.286	33.45
391.496	21.16
391.705	4.78
391.915	101.03
392.125	144.04
392.334	74.41
392.544	82.6
392.753	47.79
392.963	98.99
393.172	-23.89
393.382	8.87
393.591	76.46
393.801	66.22
394.01	64.17
394.22	47.79
394.429	123.56
394.639	43.69
394.848	64.17
395.058	127.66
395.267	31.4
395.477	94.89
395.686	74.41
395.895	111.27
396.105	74.41
396.314	123.56
396.524	88.75
396.733	123.56
396.942	105.13
397.152	45.74
397.361	86.7
397.57	45.74
397.78	119.46
397.989	0.68
398.198	150.18
398.407	117.42
398.617	33.45
398.826	96.94
399.035	199.34
399.244	53.93
399.453	164.52
399.663	82.6
399.872	78.51
400.081	74.41
400.29	121.51
400.499	105.13
400.708	101.03
400.917	103.08
401.127	152.23
401.336	94.89
401.545	135.85
401.754	62.12
401.963	191.14
402.172	86.7
402.381	58.03
402.59	115.37
402.799	127.66
403.008	133.8
403.217	152.23
403.426	117.42
403.635	4.78
403.844	164.52
404.053	105.13
404.262	103.08
404.471	207.53
404.68	172.71
404.888	107.18
405.097	98.99
405.306	94.89
405.515	197.29
405.724	94.89
405.933	172.71
406.142	170.66
406.35	213.67
406.559	166.57
406.768	213.67
406.977	266.92
407.185	123.56
407.394	178.86
407.603	146.09
407.812	156.33
408.02	250.53
408.229	182.95
408.438	279.21
408.646	209.58
408.855	199.34
409.064	279.21
409.272	205.48
409.481	328.36
409.69	258.73
409.898	287.4
410.107	250.53
410.315	311.97
410.524	242.34
410.733	359.08
410.941	324.26
411.15	397.99
411.358	383.65
411.567	393.89
411.775	397.99
411.984	408.23
412.192	492.2
412.401	387.75
412.609	436.9
412.818	481.96
413.026	479.91
413.234	449.19
413.443	553.63
413.651	494.24
413.86	567.97
414.068	592.55
414.276	617.12
414.485	586.4
414.693	705.18
414.901	598.69
415.11	666.27
415.318	645.79
415.526	709.28
415.734	721.57
415.943	785.05
416.151	735.9
416.359	881.31
416.567	864.93
416.776	979.61
416.984	932.51
417.192	905.88
417.4	901.79
417.608	946.84
417.817	1139.35
418.025	1053.34
418.233	1153.69
418.441	1041.05
418.649	1100.44
418.857	1194.65
419.065	1256.09
419.273	1227.42
419.481	1383.06
419.689	1342.1
419.897	1514.13
420.105	1426.07
420.313	1567.38
420.521	1610.39
420.729	1569.43
420.937	1702.54
421.145	1645.2
421.353	1761.94
421.561	1909.39
421.769	1950.35
421.977	2017.93
422.185	1915.53
422.393	2157.19
422.601	2286.22
422.809	2280.07
423.017	2267.78
423.224	2405
423.432	2497.16
423.64	2333.32
423.848	2644.61
424.056	2540.16
424.263	2726.53
424.471	2953.85
424.679	2904.7
424.887	2982.53
425.094	3072.64
425.302	3095.16
425.51	3191.42
425.718	3455.61
425.925	3318.39
426.133	3463.8
426.341	3660.4
426.548	3797.62
426.756	3850.86
426.964	3961.45
427.171	4096.62
427.379	4180.59
427.586	4315.75
427.794	4416.1
428.001	4602.47
428.209	4862.56
428.417	4801.12
428.624	5116.51
428.832	5096.03
429.039	5175.9
429.247	5065.31
429.454	5462.62
429.662	5939.79
429.869	5538.39
430.076	5947.98
430.284	5923.41
430.491	6103.63
430.699	6279.75
430.906	6525.51
431.114	6466.12
431.321	6636.1
431.528	6855.23
431.736	7340.6
431.943	7629.37
432.15	7469.62
432.358	7555.64
432.565	7977.52
432.772	7899.7
432.979	8254
433.187	8526.38
433.394	8270.38
433.601	9038.37
433.808	9089.57
434.016	9099.81
434.223	9103.9
434.43	9863.7
434.637	9634.33
434.844	10263.05
435.052	10519.05
435.259	10367.5
435.466	10551.82
435.673	10435.08
435.88	11127.3
436.087	11811.32
436.294	11823.61
436.501	11600.38
436.708	11461.12
436.915	12059.12
437.122	12698.09
437.329	12554.73
437.537	13226.46
437.743	13461.98
437.95	13267.42
438.157	14002.65
438.364	14342.61
438.571	14203.35
438.778	14385.62
438.985	15595.96
439.192	14948.81
439.399	15548.86
439.606	15198.66
439.813	16142.77
440.02	17025.45
440.227	16859.56
440.433	16540.08
440.64	17193.38
440.847	17011.11
441.054	17285.54
441.261	18422.16
441.467	18583.95
441.674	18571.66
441.881	19405.19
442.088	19284.36
442.294	19124.61
442.501	19892.6
442.708	20025.72
442.914	21145.96
443.121	22047.07
443.328	21350.76
443.534	22634.83
443.741	22141.27
443.948	21653.86
444.154	23497.03
444.361	23333.19
444.568	23419.21
444.774	23566.66
444.981	23771.46
445.187	24690.99
445.394	25592.1
445.6	24918.32
445.807	27433.22
446.013	25995.55
446.22	26618.13
446.426	27922.69
446.633	28195.07
446.839	28633.33
447.046	28008.7
447.252	29311.21
447.459	29483.24
447.665	29346.03
447.871	30595.29
448.078	31576.26
448.284	30445.79
448.491	31379.66
448.697	32372.92
448.903	32688.31
449.11	32688.31
449.316	32460.99
449.522	32772.28
449.728	33878.18
449.935	34023.59
450.141	34011.3
450.347	34916.5
450.553	34060.45
450.76	34181.28
450.966	35381.39
451.172	34640.03
451.378	35752.07
451.584	34764.95
451.791	35666.06
451.997	35844.23
452.203	36690.04
452.409	36520.06
452.615	36065.41
452.821	34850.97
453.027	34232.48
453.233	35960.97
453.44	34678.94
453.646	34785.43
453.852	34934.93
454.058	35735.69
454.264	34345.12
454.47	35350.67
454.676	34072.74
454.882	35426.45
455.088	32401.6
455.294	33048.75
455.5	33222.83
455.705	33728.68
455.911	31842.5
456.117	31373.52
456.323	31160.53
456.529	29874.4
456.735	30886.1
456.941	30124.25
457.147	29274.35
457.352	28719.35
457.558	28369.15
457.764	28360.95
457.97	27535.62
458.176	27097.36
458.381	26947.86
458.587	25796.9
458.793	25512.23
458.999	24322.36
459.204	26011.93
459.41	25141.55
459.616	23884.09
459.821	23750.98
460.027	23429.45
460.233	23263.56
460.438	22081.88
460.644	22178.14
460.85	21191.02
461.055	20744.56
461.261	20785.52
461.466	19143.05
461.672	18839.95
461.878	20119.93
462.083	18745.74
462.289	18293.14
462.494	18336.15
462.7	17428.9
462.905	16898.47
463.111	17242.53
463.316	17660.32
463.522	17256.87
463.727	17217.96
463.932	17131.94
464.138	16959.91
464.343	16865.71
464.549	16613.81
464.754	17084.84
464.959	16720.3
465.165	16681.39
465.37	16077.24
465.575	15843.77
465.781	16341.43
465.986	16439.73
466.191	15958.46
466.397	15612.35
466.602	14688.71
466.807	15516.09
467.012	15348.16
467.218	15120.84
467.423	14899.66
