Data from USB4F104151__71__11-31-06-458.txt Node

Date: Fri Mar 14 11:31:06 EDT 2025
User: louis
Spectrometer: USB4F10415
Trigger mode: 4
Integration Time (sec): 5.000000E-2
Scans to average: 1
Electric dark correction enabled: true
Nonlinearity correction enabled: false
Boxcar width: 0
XAxis mode: Wavelengths
Number of Pixels in Spectrum: 3648
>>>>>Begin Spectral Data<<<<<
178.204	-151.89
178.424	-151.89
178.644	-151.89
178.864	-123.22
179.084	-178.51
179.304	65.19
179.524	16.04
179.744	-78.16
179.964	-0.34
180.184	48.81
180.404	48.81
180.624	-43.35
180.844	18.09
181.064	-18.77
181.283	-12.63
181.503	-65.88
181.723	22.19
181.943	-110.93
182.163	116.39
182.383	24.23
182.602	73.39
182.822	30.38
183.042	48.81
183.262	-12.63
183.482	59.05
183.701	-26.96
183.921	89.77
184.141	-35.16
184.361	-4.44
184.58	16.04
184.8	38.57
185.02	-0.34
185.239	54.95
185.459	134.82
185.679	73.39
185.898	24.23
186.118	97.96
186.338	-33.11
186.557	44.71
186.777	-67.92
186.997	-57.68
187.216	67.24
187.436	102.06
187.655	63.15
187.875	-2.39
188.095	9.9
188.314	-2.39
188.534	114.34
188.753	69.29
188.973	-8.53
189.192	-0.34
189.412	44.71
189.631	22.19
189.851	11.95
190.07	106.15
190.29	-29.01
190.509	61.1
190.729	32.43
190.948	-41.3
191.168	171.69
191.387	57
191.607	63.15
191.826	16.04
192.045	7.85
192.265	-0.34
192.484	5.8
192.704	-67.92
192.923	16.04
193.142	161.45
193.362	28.33
193.581	1.71
193.8	3.75
194.02	46.76
194.239	32.43
194.458	46.76
194.678	57
194.897	44.71
195.116	24.23
195.335	42.67
195.555	57
195.774	22.19
195.993	120.49
196.212	-8.53
196.432	-8.53
196.651	-29.01
196.87	3.75
197.089	106.15
197.308	-39.25
197.528	48.81
197.747	16.04
197.966	97.96
198.185	46.76
198.404	18.09
198.623	13.99
198.842	71.34
199.062	73.39
199.281	79.53
199.5	28.33
199.719	69.29
199.938	30.38
200.157	42.67
200.376	5.8
200.595	40.62
200.814	-10.58
201.033	-8.53
201.252	11.95
201.471	79.53
201.69	40.62
201.909	-2.39
202.128	89.77
202.347	57
202.566	16.04
202.785	-18.77
203.004	13.99
203.223	102.06
203.442	50.86
203.661	81.58
203.879	-39.25
204.098	-16.73
204.317	7.85
204.536	63.15
204.755	5.8
204.974	-33.11
205.193	44.71
205.411	75.43
205.63	54.95
205.849	48.81
206.068	-0.34
206.287	-8.53
206.505	44.71
206.724	-20.82
206.943	-67.92
207.162	-0.34
207.381	16.04
207.599	16.04
207.818	9.9
208.037	20.14
208.255	-8.53
208.474	-35.16
208.693	-10.58
208.911	7.85
209.13	63.15
209.349	40.62
209.567	30.38
209.786	122.54
210.005	20.14
210.223	30.38
210.442	-67.92
210.661	40.62
210.879	69.29
211.098	30.38
211.316	-22.87
211.535	13.99
211.753	40.62
211.972	20.14
212.191	77.48
212.409	3.75
212.628	44.71
212.846	-57.68
213.065	38.57
213.283	81.58
213.502	-8.53
213.72	-4.44
213.938	89.77
214.157	36.52
214.375	38.57
214.594	32.43
214.812	24.23
215.031	63.15
215.249	59.05
215.467	73.39
215.686	22.19
215.904	95.91
216.122	-2.39
216.341	93.87
216.559	13.99
216.778	5.8
216.996	63.15
217.214	-41.3
217.432	-49.49
217.651	32.43
217.869	5.8
218.087	9.9
218.306	-4.44
218.524	36.52
218.742	32.43
218.96	32.43
219.179	65.19
219.397	24.23
219.615	73.39
219.833	16.04
220.051	13.99
220.27	16.04
220.488	22.19
220.706	54.95
220.924	-43.35
221.142	40.62
221.36	73.39
221.578	83.63
221.796	-51.54
222.015	40.62
222.233	-6.49
222.451	73.39
222.669	20.14
222.887	48.81
223.105	-51.54
223.323	57
223.541	-10.58
223.759	57
223.977	26.28
224.195	87.72
224.413	61.1
224.631	97.96
224.849	87.72
225.067	128.68
225.285	-53.59
225.503	16.04
225.721	7.85
225.939	28.33
226.157	7.85
226.375	188.07
226.592	-29.01
226.81	24.23
227.028	65.19
227.246	77.48
227.464	-16.73
227.682	97.96
227.9	95.91
228.117	73.39
228.335	73.39
228.553	38.57
228.771	24.23
228.989	3.75
229.206	26.28
229.424	-24.92
229.642	-65.88
229.86	-49.49
230.077	11.95
230.295	57
230.513	28.33
230.731	36.52
230.948	65.19
231.166	81.58
231.384	18.09
231.601	-55.64
231.819	75.43
232.037	-10.58
232.254	-16.73
232.472	46.76
232.689	-22.87
232.907	-16.73
233.125	73.39
233.342	48.81
233.56	65.19
233.777	-26.96
233.995	57
234.213	122.54
234.43	52.91
234.648	24.23
234.865	57
235.083	20.14
235.3	-10.58
235.518	18.09
235.735	65.19
235.953	48.81
236.17	28.33
236.388	13.99
236.605	54.95
236.822	-0.34
237.04	-24.92
237.257	1.71
237.475	-6.49
237.692	52.91
237.909	57
238.127	-37.2
238.344	30.38
238.562	-8.53
238.779	28.33
238.996	13.99
239.214	-90.45
239.431	69.29
239.648	-2.39
239.865	9.9
240.083	57
240.3	-22.87
240.517	-6.49
240.735	-16.73
240.952	54.95
241.169	38.57
241.386	9.9
241.603	-14.68
241.821	44.71
242.038	71.34
242.255	24.23
242.472	-29.01
242.689	69.29
242.907	52.91
243.124	81.58
243.341	18.09
243.558	30.38
243.775	13.99
243.992	30.38
244.209	40.62
244.426	106.15
244.643	46.76
244.86	24.23
245.078	50.86
245.295	-2.39
245.512	138.92
245.729	-16.73
245.946	38.57
246.163	-53.59
246.38	97.96
246.597	-24.92
246.814	24.23
247.031	-0.34
247.248	63.15
247.464	48.81
247.681	30.38
247.898	63.15
248.115	32.43
248.332	13.99
248.549	93.87
248.766	13.99
248.983	61.1
249.2	20.14
249.417	73.39
249.633	77.48
249.85	26.28
250.067	38.57
250.284	36.52
250.501	44.71
250.717	9.9
250.934	-33.11
251.151	38.57
251.368	18.09
251.585	40.62
251.801	40.62
252.018	20.14
252.235	91.82
252.451	9.9
252.668	65.19
252.885	69.29
253.102	11.95
253.318	-49.49
253.535	11.95
253.752	89.77
253.968	40.62
254.185	-35.16
254.401	7.85
254.618	57
254.835	-14.68
255.051	46.76
255.268	65.19
255.484	9.9
255.701	-8.53
255.917	-31.06
256.134	-24.92
256.351	89.77
256.567	-33.11
256.784	26.28
257	-0.34
257.217	46.76
257.433	69.29
257.65	57
257.866	91.82
258.082	-47.44
258.299	54.95
258.515	57
258.732	16.04
258.948	44.71
259.165	22.19
259.381	32.43
259.597	9.9
259.814	-31.06
260.03	61.1
260.246	-33.11
260.463	-2.39
260.679	75.43
260.895	81.58
261.112	3.75
261.328	32.43
261.544	34.47
261.761	97.96
261.977	-26.96
262.193	-49.49
262.409	73.39
262.626	-26.96
262.842	114.34
263.058	-6.49
263.274	71.34
263.49	-2.39
263.707	7.85
263.923	57
264.139	36.52
264.355	32.43
264.571	85.67
264.787	-31.06
265.004	40.62
265.22	28.33
265.436	28.33
265.652	-51.54
265.868	71.34
266.084	32.43
266.3	32.43
266.516	7.85
266.732	89.77
266.948	57
267.164	32.43
267.38	28.33
267.596	-49.49
267.812	46.76
268.028	114.34
268.244	57
268.46	-8.53
268.676	-35.16
268.892	-49.49
269.108	20.14
269.324	73.39
269.54	-6.49
269.756	87.72
269.972	32.43
270.188	93.87
270.403	57
270.619	54.95
270.835	69.29
271.051	44.71
271.267	28.33
271.483	28.33
271.698	-20.82
271.914	63.15
272.13	69.29
272.346	63.15
272.562	40.62
272.777	120.49
272.993	91.82
273.209	54.95
273.425	7.85
273.64	-22.87
273.856	77.48
274.072	18.09
274.287	65.19
274.503	7.85
274.719	57
274.934	-8.53
275.15	-37.2
275.366	3.75
275.581	71.34
275.797	38.57
276.012	13.99
276.228	-0.34
276.444	61.1
276.659	153.26
276.875	5.8
277.09	-8.53
277.306	7.85
277.521	46.76
277.737	54.95
277.952	40.62
278.168	-18.77
278.383	32.43
278.599	7.85
278.814	44.71
279.03	5.8
279.245	120.49
279.461	13.99
279.676	32.43
279.892	-37.2
280.107	-16.73
280.322	7.85
280.538	-2.39
280.753	38.57
280.969	38.57
281.184	16.04
281.399	85.67
281.615	-49.49
281.83	32.43
282.045	-4.44
282.26	11.95
282.476	-18.77
282.691	46.76
282.906	77.48
283.122	5.8
283.337	-37.2
283.552	5.8
283.767	16.04
283.983	48.81
284.198	48.81
284.413	44.71
284.628	-20.82
284.843	-20.82
285.058	52.91
285.274	69.29
285.489	-8.53
285.704	28.33
285.919	-41.3
286.134	-12.63
286.349	61.1
286.564	-8.53
286.779	67.24
286.995	30.38
287.21	9.9
287.425	48.81
287.64	-51.54
287.855	57
288.07	13.99
288.285	100.01
288.5	28.33
288.715	77.48
288.93	11.95
289.145	5.8
289.36	48.81
289.575	-51.54
289.79	36.52
290.004	-6.49
290.219	5.8
290.434	28.33
290.649	-29.01
290.864	73.39
291.079	5.8
291.294	18.09
291.509	28.33
291.724	16.04
291.938	71.34
292.153	65.19
292.368	7.85
292.583	46.76
292.798	106.15
293.012	5.8
293.227	-49.49
293.442	65.19
293.657	87.72
293.871	28.33
294.086	16.04
294.301	81.58
294.516	77.48
294.73	7.85
294.945	32.43
295.16	67.24
295.374	26.28
295.589	46.76
295.804	48.81
296.018	89.77
296.233	102.06
296.447	40.62
296.662	24.23
296.877	69.29
297.091	61.1
297.306	-2.39
297.52	32.43
297.735	61.1
297.949	114.34
298.164	65.19
298.378	61.1
298.593	52.91
298.807	40.62
299.022	-20.82
299.236	-31.06
299.451	11.95
299.665	-57.68
299.88	1.71
300.094	30.38
300.309	63.15
300.523	38.57
300.737	24.23
300.952	32.43
301.166	-37.2
301.381	7.85
301.595	26.28
301.809	5.8
302.024	-16.73
302.238	-24.92
302.452	67.24
302.667	20.14
302.881	67.24
303.095	85.67
303.309	48.81
303.524	-29.01
303.738	-4.44
303.952	7.85
304.166	-18.77
304.381	-12.63
304.595	73.39
304.809	-2.39
305.023	120.49
305.237	13.99
305.452	30.38
305.666	77.48
305.88	100.01
306.094	32.43
306.308	79.53
306.522	132.78
306.736	24.23
306.95	34.47
307.164	50.86
307.379	28.33
307.593	81.58
307.807	-4.44
308.021	71.34
308.235	11.95
308.449	-29.01
308.663	40.62
308.877	134.82
309.091	73.39
309.305	52.91
309.519	-33.11
309.733	85.67
309.947	-84.31
310.161	54.95
310.374	26.28
310.588	-0.34
310.802	-41.3
311.016	11.95
311.23	73.39
311.444	-6.49
311.658	71.34
311.872	91.82
312.085	46.76
312.299	89.77
312.513	-45.4
312.727	48.81
312.941	16.04
313.154	16.04
313.368	38.57
313.582	30.38
313.796	69.29
314.009	42.67
314.223	173.74
314.437	48.81
314.651	-108.88
314.864	54.95
315.078	38.57
315.292	-53.59
315.505	34.47
315.719	54.95
315.933	11.95
316.146	-14.68
316.36	24.23
316.573	9.9
316.787	36.52
317.001	57
317.214	-43.35
317.428	28.33
317.641	-16.73
317.855	20.14
318.068	-26.96
318.282	-41.3
318.495	34.47
318.709	81.58
318.922	75.43
319.136	147.11
319.349	-20.82
319.563	1.71
319.776	155.3
319.99	28.33
320.203	20.14
320.417	63.15
320.63	7.85
320.843	128.68
321.057	63.15
321.27	81.58
321.483	46.76
321.697	-8.53
321.91	38.57
322.124	91.82
322.337	-16.73
322.55	-35.16
322.763	38.57
322.977	24.23
323.19	34.47
323.403	5.8
323.617	11.95
323.83	132.78
324.043	30.38
324.256	79.53
324.469	-29.01
324.683	73.39
324.896	-49.49
325.109	32.43
325.322	7.85
325.535	54.95
325.748	147.11
325.962	32.43
326.175	28.33
326.388	69.29
326.601	87.72
326.814	61.1
327.027	16.04
327.24	167.59
327.453	18.09
327.666	73.39
327.879	-24.92
328.092	7.85
328.305	24.23
328.518	-0.34
328.731	-0.34
328.944	32.43
329.157	24.23
329.37	75.43
329.583	106.15
329.796	97.96
330.009	22.19
330.222	61.1
330.435	65.19
330.648	50.86
330.861	71.34
331.073	71.34
331.286	61.1
331.499	9.9
331.712	48.81
331.925	-43.35
332.138	50.86
332.35	102.06
332.563	59.05
332.776	30.38
332.989	-67.92
333.202	13.99
333.414	75.43
333.627	77.48
333.84	34.47
334.053	-0.34
334.265	22.19
334.478	32.43
334.691	57
334.903	57
335.116	7.85
335.329	-31.06
335.541	11.95
335.754	102.06
335.966	32.43
336.179	-0.34
336.392	5.8
336.604	69.29
336.817	128.68
337.029	95.91
337.242	32.43
337.454	28.33
337.667	28.33
337.88	54.95
338.092	106.15
338.305	69.29
338.517	26.28
338.729	-0.34
338.942	75.43
339.154	-98.64
339.367	-2.39
339.579	32.43
339.792	-31.06
340.004	52.91
340.217	9.9
340.429	-0.34
340.641	13.99
340.854	48.81
341.066	20.14
341.278	110.25
341.491	114.34
341.703	54.95
341.915	-78.16
342.128	24.23
342.34	87.72
342.552	40.62
342.764	75.43
342.977	65.19
343.189	13.99
343.401	1.71
343.613	-26.96
343.826	81.58
344.038	32.43
344.25	116.39
344.462	-45.4
344.674	65.19
344.886	87.72
345.099	48.81
345.311	65.19
345.523	65.19
345.735	-26.96
345.947	16.04
346.159	7.85
346.371	32.43
346.583	-4.44
346.795	77.48
347.007	22.19
347.219	36.52
347.431	-49.49
347.643	52.91
347.855	61.1
348.067	34.47
348.279	16.04
348.491	-24.92
348.703	-24.92
348.915	69.29
349.127	24.23
349.339	61.1
349.551	52.91
349.763	63.15
349.975	22.19
350.187	73.39
350.399	71.34
350.61	24.23
350.822	-16.73
351.034	24.23
351.246	1.71
351.458	48.81
351.669	48.81
351.881	81.58
352.093	77.48
352.305	122.54
352.517	38.57
352.728	122.54
352.94	18.09
353.152	61.1
353.363	-4.44
353.575	73.39
353.787	24.23
353.999	5.8
354.21	24.23
354.422	-4.44
354.633	-8.53
354.845	-10.58
355.057	71.34
355.268	75.43
355.48	36.52
355.692	3.75
355.903	-4.44
356.115	7.85
356.326	-41.3
356.538	112.3
356.749	48.81
356.961	59.05
357.172	32.43
357.384	-12.63
357.595	87.72
357.807	42.67
358.018	81.58
358.23	48.81
358.441	13.99
358.653	44.71
358.864	5.8
359.075	71.34
359.287	20.14
359.498	20.14
359.709	38.57
359.921	97.96
360.132	120.49
360.344	30.38
360.555	-8.53
360.766	-35.16
360.977	7.85
361.189	-0.34
361.4	112.3
361.611	16.04
361.823	22.19
362.034	63.15
362.245	3.75
362.456	42.67
362.667	44.71
362.879	42.67
363.09	46.76
363.301	-4.44
363.512	97.96
363.723	89.77
363.935	91.82
364.146	167.59
364.357	24.23
364.568	-2.39
364.779	-24.92
364.99	32.43
365.201	57
365.412	26.28
365.623	22.19
365.834	57
366.045	7.85
366.256	130.73
366.467	-20.82
366.678	22.19
366.889	16.04
367.1	32.43
367.311	54.95
367.522	-22.87
367.733	57
367.944	48.81
368.155	38.57
368.366	81.58
368.577	67.24
368.788	22.19
368.999	-10.58
369.209	16.04
369.42	104.11
369.631	87.72
369.842	44.71
370.053	26.28
370.264	46.76
370.474	-18.77
370.685	5.8
370.896	-6.49
371.107	44.71
371.317	102.06
371.528	-10.58
371.739	81.58
371.95	40.62
372.16	85.67
372.371	-57.68
372.582	52.91
372.792	118.44
373.003	54.95
373.214	106.15
373.424	118.44
373.635	-20.82
373.846	63.15
374.056	-4.44
374.267	11.95
374.477	7.85
374.688	16.04
374.898	79.53
375.109	79.53
375.319	11.95
375.53	75.43
375.74	32.43
375.951	54.95
376.161	93.87
376.372	9.9
376.582	16.04
376.793	85.67
377.003	-59.73
377.214	-37.2
377.424	16.04
377.635	28.33
377.845	24.23
378.055	40.62
378.266	48.81
378.476	95.91
378.686	38.57
378.897	63.15
379.107	24.23
379.317	71.34
379.528	40.62
379.738	-0.34
379.948	18.09
380.158	89.77
380.369	30.38
380.579	79.53
380.789	57
380.999	28.33
381.21	7.85
381.42	102.06
381.63	112.3
381.84	89.77
382.05	65.19
382.261	97.96
382.471	157.35
382.681	24.23
382.891	97.96
383.101	67.24
383.311	-12.63
383.521	102.06
383.731	91.82
383.941	171.69
384.151	65.19
384.361	44.71
384.571	-16.73
384.781	61.1
384.991	71.34
385.201	73.39
385.411	77.48
385.621	71.34
385.831	38.57
386.041	50.86
386.251	16.04
386.461	-0.34
386.671	-10.58
386.881	11.95
387.091	54.95
387.301	114.34
387.511	3.75
387.72	97.96
387.93	85.67
388.14	63.15
388.35	24.23
388.56	126.63
388.769	5.8
388.979	40.62
389.189	-12.63
389.399	20.14
389.609	24.23
389.818	112.3
390.028	102.06
390.238	22.19
390.447	38.57
390.657	118.44
390.867	46.76
391.076	-0.34
391.286	38.57
391.496	-8.53
391.705	130.73
391.915	7.85
392.125	116.39
392.334	50.86
392.544	16.04
392.753	102.06
392.963	-49.49
393.172	89.77
393.382	65.19
393.591	46.76
393.801	67.24
394.01	100.01
394.22	151.21
394.429	-39.25
394.639	24.23
394.848	32.43
395.058	30.38
395.267	50.86
395.477	20.14
395.686	40.62
395.895	85.67
396.105	138.92
396.314	42.67
396.524	87.72
396.733	24.23
396.942	169.64
397.152	130.73
397.361	42.67
397.57	89.77
397.78	65.19
397.989	65.19
398.198	114.34
398.407	16.04
398.617	44.71
398.826	181.93
399.035	130.73
399.244	145.06
399.453	126.63
399.663	87.72
399.872	202.41
400.081	73.39
400.29	186.02
400.499	54.95
400.708	118.44
400.917	34.47
401.127	7.85
401.336	69.29
401.545	100.01
401.754	136.87
401.963	167.59
402.172	61.1
402.381	24.23
402.59	61.1
402.799	138.92
403.008	118.44
403.217	196.26
403.426	122.54
403.635	65.19
403.844	-26.96
404.053	147.11
404.262	73.39
404.471	171.69
404.68	149.16
404.888	104.11
405.097	149.16
405.306	147.11
405.515	163.5
405.724	91.82
405.933	192.17
406.142	253.61
406.35	196.26
406.559	97.96
406.768	147.11
406.977	216.74
407.185	143.02
407.394	210.6
407.603	229.03
407.812	145.06
408.02	188.07
408.229	186.02
408.438	171.69
408.646	177.83
408.855	257.7
409.064	251.56
409.272	220.84
409.481	163.5
409.69	239.27
409.898	229.03
410.107	192.17
410.315	267.94
410.524	306.85
410.733	282.28
410.941	333.48
411.15	321.19
411.358	351.91
411.567	419.49
411.775	360.1
411.984	372.39
412.192	409.25
412.401	423.59
412.609	511.65
412.818	431.78
413.026	458.4
413.234	437.92
413.443	417.44
413.651	419.49
413.86	487.08
414.068	528.03
414.276	571.04
414.485	501.41
414.693	593.57
414.901	630.43
415.11	612
415.318	636.58
415.526	595.62
415.734	675.49
415.943	597.67
416.151	603.81
416.359	628.39
416.567	614.05
416.776	800.41
416.984	814.75
417.192	818.85
417.4	798.37
417.608	773.79
417.817	849.57
418.025	982.68
418.233	1013.4
418.441	990.88
418.649	992.92
418.857	1040.03
419.065	1121.95
419.273	1105.56
419.481	1109.66
419.689	1193.62
419.897	1244.82
420.105	1300.12
420.313	1363.61
420.521	1334.93
420.729	1392.28
420.937	1459.86
421.145	1537.68
421.353	1574.55
421.561	1689.23
421.769	1734.29
421.977	1756.82
422.185	1726.1
422.393	1848.97
422.601	1928.85
422.809	1941.13
423.017	1828.49
423.224	2064.01
423.432	2123.4
423.64	2121.35
423.848	2281.1
424.056	2242.18
424.263	2463.37
424.471	2408.07
424.679	2498.18
424.887	2578.05
425.094	2592.39
425.302	2655.87
425.51	2707.07
425.718	2903.68
425.925	2858.62
426.133	2983.55
426.341	3219.07
426.548	3341.94
426.756	3419.77
426.964	3341.94
427.171	3649.14
427.379	3556.98
427.586	3686
427.794	3847.79
428.001	3898.99
428.209	4218.47
428.417	4126.32
428.624	4390.5
428.832	4374.12
429.039	4476.52
429.247	4460.13
429.454	4798.05
429.662	5205.6
429.869	4812.39
430.076	4986.46
430.284	4933.22
430.491	5195.36
430.699	5400.15
430.906	5443.16
431.114	5637.72
431.321	5791.31
431.528	5963.34
431.736	6307.4
431.943	6512.2
432.15	6372.94
432.358	6248.01
432.565	6841.92
432.772	6749.76
432.979	7194.17
433.187	7200.32
433.394	7321.15
433.601	7702.07
433.808	7865.91
434.016	7837.24
434.223	8005.17
434.43	8494.63
434.637	8517.16
434.844	8771.11
435.052	9240.09
435.259	8865.32
435.466	9276.96
435.673	9088.54
435.88	9518.62
436.087	10067.47
436.294	10241.55
436.501	9942.55
436.708	10087.95
436.915	10370.57
437.122	10935.81
437.329	10870.28
437.537	11095.55
437.743	11181.57
437.95	11484.67
438.157	11787.77
438.364	12563.95
438.571	12252.66
438.778	12287.47
438.985	13645.27
439.192	12944.87
439.399	13520.35
439.606	13114.85
439.813	14106.07
440.02	14579.15
440.227	14460.37
440.433	14415.31
440.64	14802.38
440.847	14745.03
441.054	14964.17
441.261	15982.01
441.467	16133.56
441.674	16121.27
441.881	16838.06
442.088	16809.39
442.294	16625.07
442.501	16838.06
442.708	17694.11
442.914	17874.33
443.121	18771.34
443.328	18216.34
443.534	19637.63
443.741	18810.25
443.948	18603.41
444.154	20331.89
444.361	20196.73
444.568	20268.41
444.774	20170.1
444.981	20587.89
445.187	21159.27
445.394	21890.4
445.6	21437.8
445.807	23543.11
446.013	22629.71
446.22	23213.38
446.426	24171.83
446.633	23733.57
446.839	24735.03
447.046	23860.54
447.252	25167.15
447.459	25369.9
447.665	25326.89
447.871	26242.33
448.078	27337.99
448.284	26309.91
448.491	26801.43
448.697	28019.97
448.903	28232.96
449.11	28259.58
449.316	27716.87
449.522	28531.96
449.728	29175.02
449.935	29273.32
450.141	29187.31
450.347	29990.11
450.553	29150.45
450.76	29621.48
450.966	30332.12
451.172	30049.5
451.378	30741.72
451.584	30067.94
451.791	30964.95
451.997	30958.8
452.203	31247.57
452.409	31175.89
452.615	30966.99
452.821	29865.19
453.027	29644.01
453.233	31304.91
453.44	29809.89
453.646	30510.3
453.852	30469.34
454.058	30829.78
454.264	29910.24
454.47	30305.5
454.676	29834.47
454.882	30651.61
455.088	27964.67
455.294	28488.95
455.5	28773.62
455.705	29125.87
455.911	27639.04
456.117	27045.13
456.323	26776.85
456.529	25605.41
456.735	26828.05
456.941	26230.04
457.147	25769.25
457.352	24765.74
457.558	24284.47
457.764	24448.31
457.97	24137.02
458.176	23416.13
458.381	23416.13
458.587	22433.11
458.793	22316.37
458.999	20960.62
459.204	22533.46
459.41	21978.46
459.616	20493.68
459.821	20454.77
460.027	20272.5
460.233	19912.06
460.438	19033.48
460.644	18978.19
460.85	18574.74
461.055	18087.32
461.261	18218.39
461.466	16727.47
461.672	16457.14
461.878	17720.73
462.083	16151.99
462.289	15984.05
462.494	15728.06
462.7	15181.25
462.905	14613.96
463.111	15293.89
463.316	15359.42
463.522	15054.28
463.727	14915.02
463.932	14990.79
464.138	14800.33
464.343	14872.01
464.549	14431.69
464.754	14769.61
464.959	14675.4
465.165	14659.02
465.37	14009.81
465.575	13815.26
465.781	14308.82
465.986	14042.58
466.191	13915.61
466.397	13471.2
466.602	12936.68
466.807	13360.61
467.012	13213.15
467.218	13299.17
467.423	13145.57
467.628	13141.47
467.833	13643.23
468.038	13092.32
