Data from USB4F104151__105__11-35-14-796.txt Node

Date: Fri Mar 14 11:35:14 EDT 2025
User: louis
Spectrometer: USB4F10415
Trigger mode: 4
Integration Time (sec): 2.000000E-2
Scans to average: 1
Electric dark correction enabled: true
Nonlinearity correction enabled: false
Boxcar width: 0
XAxis mode: Wavelengths
Number of Pixels in Spectrum: 3648
>>>>>Begin Spectral Data<<<<<
178.204	-74.24
178.424	-74.24
178.644	-74.24
178.864	-123.39
179.084	-72.19
179.304	-37.38
179.524	-23.04
179.744	-23.04
179.964	-12.8
180.184	-16.9
180.404	5.63
180.624	95.74
180.844	32.26
181.064	17.92
181.283	28.16
181.503	-4.61
181.723	-61.95
181.943	-33.28
182.163	28.16
182.383	38.4
182.602	3.58
182.822	-16.9
183.042	3.58
183.262	-2.56
183.482	24.06
183.701	-10.75
183.921	7.68
184.141	-66.05
184.361	24.06
184.58	-2.56
184.8	-64
185.02	-70.14
185.239	-8.7
185.459	32.26
185.679	65.02
185.898	-59.9
186.118	19.97
186.338	1.54
186.557	-20.99
186.777	-74.24
186.997	52.74
187.216	-23.04
187.436	62.98
187.655	-8.7
187.875	28.16
188.095	19.97
188.314	89.6
188.534	7.68
188.753	17.92
188.973	-10.75
189.192	44.54
189.412	50.69
189.631	19.97
189.851	-31.23
190.07	22.02
190.29	38.4
190.509	-23.04
190.729	-14.85
190.948	-43.52
191.168	114.17
191.387	40.45
191.607	54.78
191.826	32.26
192.045	24.06
192.265	26.11
192.484	-0.51
192.704	3.58
192.923	-66.05
193.142	62.98
193.362	-2.56
193.581	17.92
193.8	-35.33
194.02	-18.94
194.239	1.54
194.458	19.97
194.678	11.78
194.897	13.82
195.116	-33.28
195.335	17.92
195.555	9.73
195.774	-57.86
195.993	-4.61
196.212	30.21
196.432	40.45
196.651	34.3
196.87	-27.14
197.089	-29.18
197.308	-0.51
197.528	73.21
197.747	-33.28
197.966	5.63
198.185	24.06
198.404	9.73
198.623	30.21
198.842	26.11
199.062	40.45
199.281	3.58
199.5	34.3
199.719	32.26
199.938	54.78
200.157	15.87
200.376	26.11
200.595	65.02
200.814	11.78
201.033	-49.66
201.252	32.26
201.471	110.08
201.69	54.78
201.909	34.3
202.128	79.36
202.347	-45.57
202.566	-41.47
202.785	-27.14
203.004	17.92
203.223	69.12
203.442	48.64
203.661	-2.56
203.879	13.82
204.098	22.02
204.317	54.78
204.536	3.58
204.755	42.5
204.974	50.69
205.193	-27.14
205.411	38.4
205.63	28.16
205.849	-10.75
206.068	7.68
206.287	34.3
206.505	52.74
206.724	83.45
206.943	-10.75
207.162	7.68
207.381	-23.04
207.599	-18.94
207.818	48.64
208.037	-68.09
208.255	-51.71
208.474	5.63
208.693	1.54
208.911	36.35
209.13	56.83
209.349	120.32
209.567	26.11
209.786	15.87
210.005	36.35
210.223	-31.23
210.442	-39.42
210.661	48.64
210.879	-0.51
211.098	40.45
211.316	83.45
211.535	22.02
211.753	11.78
211.972	-41.47
212.191	-0.51
212.409	11.78
212.628	19.97
212.846	-8.7
213.065	-18.94
213.283	36.35
213.502	15.87
213.72	9.73
213.938	-41.47
214.157	3.58
214.375	56.83
214.594	97.79
214.812	62.98
215.031	69.12
215.249	19.97
215.467	-39.42
215.686	32.26
215.904	-27.14
216.122	3.58
216.341	13.82
216.559	62.98
216.778	-20.99
216.996	-8.7
217.214	-20.99
217.432	-4.61
217.651	5.63
217.869	-33.28
218.087	-12.8
218.306	-16.9
218.524	3.58
218.742	-16.9
218.96	-53.76
219.179	24.06
219.397	32.26
219.615	32.26
219.833	60.93
220.051	-43.52
220.27	26.11
220.488	38.4
220.706	22.02
220.924	48.64
221.142	-43.52
221.36	-6.66
221.578	19.97
221.796	-61.95
222.015	42.5
222.233	-8.7
222.451	62.98
222.669	-18.94
222.887	7.68
223.105	-8.7
223.323	-31.23
223.541	-39.42
223.759	38.4
223.977	-70.14
224.195	36.35
224.413	81.41
224.631	42.5
224.849	-45.57
225.067	-33.28
225.285	-8.7
225.503	24.06
225.721	-39.42
225.939	-0.51
226.157	26.11
226.375	36.35
226.592	30.21
226.81	-66.05
227.028	50.69
227.246	-20.99
227.464	-27.14
227.682	89.6
227.9	28.16
228.117	22.02
228.335	-4.61
228.553	19.97
228.771	32.26
228.989	19.97
229.206	89.6
229.424	46.59
229.642	11.78
229.86	19.97
230.077	-4.61
230.295	-16.9
230.513	-68.09
230.731	-29.18
230.948	26.11
231.166	-33.28
231.384	5.63
231.601	-6.66
231.819	19.97
232.037	-18.94
232.254	-12.8
232.472	46.59
232.689	60.93
232.907	5.63
233.125	-25.09
233.342	54.78
233.56	15.87
233.777	52.74
233.995	-27.14
234.213	-14.85
234.43	32.26
234.648	-119.29
234.865	15.87
235.083	36.35
235.3	9.73
235.518	38.4
235.735	-12.8
235.953	19.97
236.17	-49.66
236.388	77.31
236.605	77.31
236.822	17.92
237.04	60.93
237.257	-31.23
237.475	-35.33
237.692	5.63
237.909	56.83
238.127	34.3
238.344	7.68
238.562	-2.56
238.779	-41.47
238.996	44.54
239.214	56.83
239.431	-25.09
239.648	-98.81
239.865	34.3
240.083	87.55
240.3	-31.23
240.517	-57.86
240.735	40.45
240.952	-18.94
241.169	-33.28
241.386	69.12
241.603	44.54
241.821	7.68
242.038	38.4
242.255	-82.43
242.472	5.63
242.689	67.07
242.907	22.02
243.124	-43.52
243.341	13.82
243.558	-74.24
243.775	19.97
243.992	22.02
244.209	24.06
244.426	-18.94
244.643	11.78
244.86	-2.56
245.078	54.78
245.295	24.06
245.512	17.92
245.729	3.58
245.946	85.5
246.163	40.45
246.38	30.21
246.597	48.64
246.814	42.5
247.031	36.35
247.248	89.6
247.464	-80.38
247.681	11.78
247.898	-33.28
248.115	71.17
248.332	28.16
248.549	3.58
248.766	-35.33
248.983	52.74
249.2	-16.9
249.417	36.35
249.633	56.83
249.85	56.83
250.067	-45.57
250.284	26.11
250.501	-16.9
250.717	50.69
250.934	-33.28
251.151	42.5
251.368	-35.33
251.585	5.63
251.801	48.64
252.018	44.54
252.235	24.06
252.451	30.21
252.668	26.11
252.885	77.31
253.102	-74.24
253.318	11.78
253.535	44.54
253.752	5.63
253.968	32.26
254.185	15.87
254.401	30.21
254.618	40.45
254.835	3.58
255.051	58.88
255.268	42.5
255.484	48.64
255.701	46.59
255.917	32.26
256.134	-59.9
256.351	-25.09
256.567	99.84
256.784	-12.8
257	-43.52
257.217	52.74
257.433	13.82
257.65	-14.85
257.866	19.97
258.082	40.45
258.299	-35.33
258.515	-10.75
258.732	22.02
258.948	-74.24
259.165	-0.51
259.381	48.64
259.597	69.12
259.814	30.21
260.03	22.02
260.246	-0.51
260.463	11.78
260.679	48.64
260.895	38.4
261.112	75.26
261.328	7.68
261.544	-2.56
261.761	46.59
261.977	99.84
262.193	-8.7
262.409	65.02
262.626	42.5
262.842	62.98
263.058	-64
263.274	65.02
263.49	79.36
263.707	34.3
263.923	5.63
264.139	3.58
264.355	-53.76
264.571	-35.33
264.787	-35.33
265.004	-23.04
265.22	-8.7
265.436	-90.62
265.652	91.65
265.868	-4.61
266.084	40.45
266.3	24.06
266.516	-59.9
266.732	56.83
266.948	-33.28
267.164	-20.99
267.38	56.83
267.596	38.4
267.812	1.54
268.028	42.5
268.244	22.02
268.46	54.78
268.676	13.82
268.892	38.4
269.108	-16.9
269.324	46.59
269.54	54.78
269.756	-8.7
269.972	-29.18
270.188	7.68
270.403	67.07
270.619	7.68
270.835	-2.56
271.051	22.02
271.267	-59.9
271.483	-74.24
271.698	36.35
271.914	-27.14
272.13	-8.7
272.346	46.59
272.562	11.78
272.777	5.63
272.993	30.21
273.209	48.64
273.425	40.45
273.64	5.63
273.856	13.82
274.072	7.68
274.287	13.82
274.503	67.07
274.719	67.07
274.934	1.54
275.15	-18.94
275.366	-8.7
275.581	9.73
275.797	-8.7
276.012	28.16
276.228	3.58
276.444	11.78
276.659	-6.66
276.875	-25.09
277.09	-20.99
277.306	-27.14
277.521	13.82
277.737	-31.23
277.952	5.63
278.168	3.58
278.383	-6.66
278.599	-23.04
278.814	-18.94
279.03	22.02
279.245	95.74
279.461	-12.8
279.676	34.3
279.892	-57.86
280.107	-4.61
280.322	-25.09
280.538	60.93
280.753	-8.7
280.969	-10.75
281.184	32.26
281.399	-14.85
281.615	24.06
281.83	-27.14
282.045	-10.75
282.26	-51.71
282.476	-12.8
282.691	30.21
282.906	60.93
283.122	5.63
283.337	48.64
283.552	73.21
283.767	11.78
283.983	-8.7
284.198	-66.05
284.413	-23.04
284.628	-18.94
284.843	36.35
285.058	67.07
285.274	3.58
285.489	-4.61
285.704	5.63
285.919	-29.18
286.134	65.02
286.349	13.82
286.564	46.59
286.779	28.16
286.995	-29.18
287.21	-35.33
287.425	32.26
287.64	-27.14
287.855	24.06
288.07	-12.8
288.285	65.02
288.5	48.64
288.715	56.83
288.93	3.58
289.145	65.02
289.36	34.3
289.575	87.55
289.79	22.02
290.004	-45.57
290.219	19.97
290.434	65.02
290.649	5.63
290.864	-23.04
291.079	-29.18
291.294	15.87
291.509	-47.62
291.724	89.6
291.938	-0.51
292.153	-29.18
292.368	-43.52
292.583	3.58
292.798	-35.33
293.012	-41.47
293.227	3.58
293.442	-20.99
293.657	-12.8
293.871	79.36
294.086	44.54
294.301	93.69
294.516	85.5
294.73	46.59
294.945	-4.61
295.16	56.83
295.374	15.87
295.589	30.21
295.804	24.06
296.018	7.68
296.233	-12.8
296.447	28.16
296.662	-33.28
296.877	30.21
297.091	-20.99
297.306	36.35
297.52	22.02
297.735	-6.66
297.949	3.58
298.164	19.97
298.378	-68.09
298.593	-41.47
298.807	-68.09
299.022	15.87
299.236	-2.56
299.451	62.98
299.665	-20.99
299.88	-10.75
300.094	26.11
300.309	34.3
300.523	-0.51
300.737	56.83
300.952	-43.52
301.166	38.4
301.381	44.54
301.595	15.87
301.809	30.21
302.024	9.73
302.238	28.16
302.452	77.31
302.667	30.21
302.881	46.59
303.095	91.65
303.309	7.68
303.524	-41.47
303.738	42.5
303.952	-76.29
304.166	122.37
304.381	-20.99
304.595	34.3
304.809	-35.33
305.023	48.64
305.237	-4.61
305.452	19.97
305.666	-35.33
305.88	36.35
306.094	5.63
306.308	103.93
306.522	73.21
306.736	-10.75
306.95	13.82
307.164	24.06
307.379	30.21
307.593	46.59
307.807	-4.61
308.021	46.59
308.235	-20.99
308.449	5.63
308.663	24.06
308.877	-4.61
309.091	17.92
309.305	-0.51
309.519	32.26
309.733	83.45
309.947	-12.8
310.161	52.74
310.374	24.06
310.588	38.4
310.802	46.59
311.016	19.97
311.23	52.74
311.444	34.3
311.658	46.59
311.872	15.87
312.085	32.26
312.299	28.16
312.513	46.59
312.727	-61.95
312.941	28.16
313.154	19.97
313.368	5.63
313.582	65.02
313.796	22.02
314.009	-20.99
314.223	-18.94
314.437	56.83
314.651	-16.9
314.864	1.54
315.078	-8.7
315.292	-47.62
315.505	11.78
315.719	26.11
315.933	44.54
316.146	28.16
316.36	22.02
316.573	-10.75
316.787	-51.71
317.001	110.08
317.214	-31.23
317.428	60.93
317.641	60.93
317.855	62.98
318.068	-0.51
318.282	-90.62
318.495	11.78
318.709	7.68
318.922	1.54
319.136	54.78
319.349	56.83
319.563	73.21
319.776	32.26
319.99	40.45
320.203	-23.04
320.417	7.68
320.63	-2.56
320.843	5.63
321.057	9.73
321.27	-39.42
321.483	38.4
321.697	105.98
321.91	22.02
322.124	79.36
322.337	24.06
322.55	56.83
322.763	24.06
322.977	7.68
323.19	-8.7
323.403	52.74
323.617	9.73
323.83	5.63
324.043	85.5
324.256	42.5
324.469	9.73
324.683	52.74
324.896	-33.28
325.109	17.92
325.322	30.21
325.535	87.55
325.748	-4.61
325.962	65.02
326.175	-37.38
326.388	-25.09
326.601	-49.66
326.814	-20.99
327.027	83.45
327.24	7.68
327.453	-20.99
327.666	17.92
327.879	54.78
328.092	93.69
328.305	26.11
328.518	-0.51
328.731	-18.94
328.944	-8.7
329.157	32.26
329.37	15.87
329.583	-10.75
329.796	5.63
330.009	-10.75
330.222	30.21
330.435	5.63
330.648	-12.8
330.861	-2.56
331.073	-39.42
331.286	-2.56
331.499	46.59
331.712	5.63
331.925	67.07
332.138	-18.94
332.35	85.5
332.563	-14.85
332.776	32.26
332.989	50.69
333.202	34.3
333.414	-51.71
333.627	-29.18
333.84	48.64
334.053	15.87
334.265	15.87
334.478	5.63
334.691	73.21
334.903	5.63
335.116	30.21
335.329	-45.57
335.541	15.87
335.754	28.16
335.966	-16.9
336.179	-27.14
336.392	-53.76
336.604	28.16
336.817	7.68
337.029	62.98
337.242	-10.75
337.454	28.16
337.667	-45.57
337.88	52.74
338.092	7.68
338.305	7.68
338.517	-43.52
338.729	81.41
338.942	87.55
339.154	22.02
339.367	19.97
339.579	7.68
339.792	-8.7
340.004	-10.75
340.217	48.64
340.429	-41.47
340.641	-64
340.854	56.83
341.066	-45.57
341.278	-10.75
341.491	69.12
341.703	50.69
341.915	17.92
342.128	19.97
342.34	24.06
342.552	15.87
342.764	71.17
342.977	17.92
343.189	-84.48
343.401	24.06
343.613	-2.56
343.826	30.21
344.038	1.54
344.25	24.06
344.462	-10.75
344.674	42.5
344.886	24.06
345.099	36.35
345.311	-10.75
345.523	38.4
345.735	-29.18
345.947	52.74
346.159	118.27
346.371	13.82
346.583	15.87
346.795	24.06
347.007	-25.09
347.219	-18.94
347.431	17.92
347.643	56.83
347.855	9.73
348.067	38.4
348.279	-10.75
348.491	58.88
348.703	-45.57
348.915	44.54
349.127	5.63
349.339	-16.9
349.551	32.26
349.763	-51.71
349.975	28.16
350.187	13.82
350.399	-29.18
350.61	60.93
350.822	-29.18
351.034	71.17
351.246	-16.9
351.458	56.83
351.669	-12.8
351.881	28.16
352.093	-14.85
352.305	24.06
352.517	42.5
352.728	69.12
352.94	-8.7
353.152	11.78
353.363	-64
353.575	32.26
353.787	40.45
353.999	44.54
354.21	46.59
354.422	-25.09
354.633	50.69
354.845	15.87
355.057	36.35
355.268	3.58
355.48	-29.18
355.692	32.26
355.903	-25.09
356.115	28.16
356.326	15.87
356.538	56.83
356.749	24.06
356.961	-25.09
357.172	-20.99
357.384	24.06
357.595	44.54
357.807	-0.51
358.018	77.31
358.23	15.87
358.441	56.83
358.653	-12.8
358.864	-2.56
359.075	65.02
359.287	75.26
359.498	-10.75
359.709	24.06
359.921	-0.51
360.132	73.21
360.344	60.93
360.555	-29.18
360.766	7.68
360.977	38.4
361.189	7.68
361.4	-0.51
361.611	91.65
361.823	44.54
362.034	50.69
362.245	77.31
362.456	30.21
362.667	22.02
362.879	-10.75
363.09	50.69
363.301	7.68
363.512	34.3
363.723	-45.57
363.935	52.74
364.146	-14.85
364.357	-18.94
364.568	24.06
364.779	-45.57
364.99	30.21
365.201	-16.9
365.412	-6.66
365.623	32.26
365.834	-35.33
366.045	81.41
366.256	-4.61
366.467	-4.61
366.678	36.35
366.889	67.07
367.1	58.88
367.311	7.68
367.522	65.02
367.733	28.16
367.944	97.79
368.155	-82.43
368.366	26.11
368.577	56.83
368.788	85.5
368.999	15.87
369.209	34.3
369.42	42.5
369.631	60.93
369.842	-33.28
370.053	38.4
370.264	-6.66
370.474	40.45
370.685	62.98
370.896	50.69
371.107	32.26
371.317	52.74
371.528	67.07
371.739	24.06
371.95	15.87
372.16	32.26
372.371	-49.66
372.582	34.3
372.792	38.4
373.003	36.35
373.214	89.6
373.424	48.64
373.635	46.59
373.846	28.16
374.056	9.73
374.267	46.59
374.477	-25.09
374.688	50.69
374.898	19.97
375.109	7.68
375.319	28.16
375.53	38.4
375.74	48.64
375.951	65.02
376.161	-2.56
376.372	110.08
376.582	30.21
376.793	36.35
377.003	-25.09
377.214	-6.66
377.424	7.68
377.635	65.02
377.845	32.26
378.055	-18.94
378.266	73.21
378.476	40.45
378.686	54.78
378.897	83.45
379.107	-18.94
379.317	17.92
379.528	81.41
379.738	34.3
379.948	-41.47
380.158	93.69
380.369	-2.56
380.579	-12.8
380.789	44.54
380.999	22.02
381.21	28.16
381.42	69.12
381.63	40.45
381.84	13.82
382.05	71.17
382.261	9.73
382.471	40.45
382.681	-20.99
382.891	24.06
383.101	-35.33
383.311	42.5
383.521	-29.18
383.731	56.83
383.941	-10.75
384.151	-25.09
384.361	40.45
384.571	-33.28
384.781	17.92
384.991	108.03
385.201	56.83
385.411	52.74
385.621	40.45
385.831	44.54
386.041	32.26
386.251	34.3
386.461	65.02
386.671	71.17
386.881	52.74
387.091	26.11
387.301	52.74
387.511	42.5
387.72	7.68
387.93	81.41
388.14	13.82
388.35	-68.09
388.56	32.26
388.769	15.87
388.979	38.4
389.189	32.26
389.399	-25.09
389.609	91.65
389.818	81.41
390.028	101.89
390.238	46.59
390.447	67.07
390.657	52.74
390.867	89.6
391.076	36.35
391.286	-16.9
391.496	34.3
391.705	22.02
391.915	81.41
392.125	-12.8
392.334	87.55
392.544	-6.66
392.753	22.02
392.963	36.35
393.172	15.87
393.382	65.02
393.591	15.87
393.801	-23.04
394.01	46.59
394.22	15.87
394.429	48.64
394.639	73.21
394.848	87.55
395.058	9.73
395.267	79.36
395.477	73.21
395.686	36.35
395.895	89.6
396.105	69.12
396.314	69.12
396.524	-2.56
396.733	36.35
396.942	48.64
397.152	-18.94
397.361	85.5
397.57	112.13
397.78	-41.47
397.989	101.89
398.198	62.98
398.407	7.68
398.617	73.21
398.826	89.6
399.035	114.17
399.244	81.41
399.453	128.51
399.663	140.8
399.872	99.84
400.081	62.98
400.29	153.09
400.499	73.21
400.708	85.5
400.917	19.97
401.127	89.6
401.336	40.45
401.545	161.28
401.754	32.26
401.963	112.13
402.172	71.17
402.381	132.61
402.59	71.17
402.799	159.23
403.008	73.21
403.217	114.17
403.426	126.46
403.635	108.03
403.844	97.79
404.053	130.56
404.262	126.46
404.471	196.09
404.68	194.05
404.888	52.74
405.097	67.07
405.306	79.36
405.515	130.56
405.724	128.51
405.933	62.98
406.142	103.93
406.35	128.51
406.559	62.98
406.768	208.38
406.977	151.04
407.185	132.61
407.394	105.98
407.603	185.85
407.812	144.89
408.02	200.19
408.229	230.91
408.438	157.18
408.646	204.28
408.855	138.75
409.064	235
409.272	245.24
409.481	269.82
409.69	200.19
409.898	243.2
410.107	263.68
410.315	304.64
410.524	218.62
410.733	278.01
410.941	235
411.15	280.06
411.358	335.35
411.567	308.73
411.775	298.49
411.984	382.46
412.192	296.44
412.401	286.2
412.609	488.95
412.818	437.75
413.026	472.57
413.234	466.42
413.443	431.61
413.651	458.23
413.86	519.67
414.068	470.52
414.276	583.16
414.485	538.1
414.693	581.11
414.901	548.34
415.11	609.78
415.318	572.92
415.526	597.49
415.734	568.82
415.943	691.7
416.151	706.04
416.359	691.7
416.567	685.56
416.776	761.33
416.984	777.72
417.192	802.29
417.4	867.83
417.608	851.44
417.817	910.83
418.025	953.84
418.233	1005.04
418.441	1037.81
418.649	957.94
418.857	1097.2
419.065	1064.43
419.273	1111.54
419.481	1097.2
419.689	1191.41
419.897	1265.13
420.105	1318.38
420.313	1324.52
420.521	1326.57
420.729	1504.75
420.937	1451.5
421.145	1582.57
421.353	1607.14
421.561	1594.86
421.769	1701.35
421.977	1697.25
422.185	1730.02
422.393	1842.66
422.601	2004.45
422.809	1879.52
423.017	2010.59
423.224	2078.18
423.432	2108.9
423.64	2115.04
423.848	2385.37
424.056	2301.4
424.263	2522.59
424.471	2489.82
424.679	2520.54
424.887	2749.91
425.094	2629.08
425.302	2715.09
425.51	2801.11
425.718	2985.43
425.925	2960.85
426.133	3098.06
426.341	3171.79
426.548	3378.64
426.756	3476.94
426.964	3556.81
427.171	3573.19
427.379	3751.37
427.586	3618.25
427.794	3982.79
428.001	4003.27
428.209	4324.8
428.417	4138.43
428.624	4517.31
428.832	4545.98
429.039	4443.58
429.247	4574.65
429.454	5006.77
429.662	5289.39
429.869	4931
430.076	5111.22
430.284	5062.07
430.491	5336.49
430.699	5756.33
430.906	5557.68
431.114	5694.89
431.321	5916.07
431.528	6174.11
431.736	6378.91
431.943	6655.39
432.15	6383.01
432.358	6499.74
432.565	6815.13
432.772	7032.21
432.979	7251.35
433.187	7538.06
433.394	7529.87
433.601	8134.02
433.808	7998.85
434.016	8074.63
434.223	8119.68
434.43	8811.9
434.637	8695.16
434.844	9287.03
435.052	9332.08
435.259	9211.25
435.466	9350.51
435.673	9493.87
435.88	9735.53
436.087	10319.2
436.294	10278.24
436.501	10073.45
436.708	10237.28
436.915	10640.73
437.122	11197.78
437.329	11230.55
437.537	11414.87
437.743	11820.36
437.95	11746.64
438.157	12508.48
438.364	12692.8
438.571	12830.01
438.778	12858.68
438.985	13757.74
439.192	13315.38
439.399	13767.98
439.606	13595.95
439.813	14126.38
440.02	15021.34
440.227	14847.26
440.433	14849.31
440.64	15056.15
440.847	14980.38
441.054	15480.08
441.261	16612.61
441.467	16207.11
441.674	16604.42
441.881	17317.11
442.088	17102.08
442.294	16973.05
442.501	17390.84
442.708	17749.23
442.914	18590.95
443.121	19268.83
443.328	18754.79
443.534	20251.85
443.741	19322.07
443.948	19258.59
444.154	20546.76
444.361	20763.84
444.568	20753.6
444.774	20815.04
444.981	20837.57
445.187	21349.56
445.394	22398.12
445.6	22080.69
445.807	24636.55
446.013	23477.4
446.22	23717.01
446.426	24579.21
446.633	24835.21
446.839	25533.56
447.046	24738.95
447.252	26141.81
447.459	26125.43
447.665	25818.23
447.871	27470.94
448.078	28148.82
448.284	27173.99
448.491	27659.35
448.697	28890.18
448.903	29375.55
449.11	29600.83
449.316	28544.08
449.522	29199.43
449.728	30178.36
449.935	30512.17
450.141	30368.82
450.347	31134.76
450.553	29709.37
450.76	30434.35
450.966	31169.57
451.172	31069.22
451.378	31646.75
451.584	31343.65
451.791	32058.39
451.997	31745.05
452.203	32318.48
452.409	32277.52
452.615	32338.96
452.821	31231.01
453.027	30778.41
453.233	32353.3
453.44	31237.16
453.646	31425.57
453.852	31710.24
454.058	31554.59
454.264	30776.36
454.47	31622.17
454.676	30587.95
454.882	32287.76
455.088	29043.78
455.294	29512.77
455.5	29920.31
455.705	30225.46
455.911	28904.52
456.117	28681.29
456.323	27927.64
456.529	26639.47
456.735	27769.94
456.941	27126.88
457.147	26635.37
457.352	25508.99
457.558	25621.63
457.764	25543.8
457.97	24927.36
458.176	24292.49
458.381	24710.28
458.587	23180.45
458.793	23194.78
458.999	22127.79
459.204	23592.09
459.41	22973.6
459.616	21226.68
459.821	21486.78
460.027	21611.7
460.233	21132.48
460.438	19967.18
460.644	20278.47
460.85	19367.13
461.055	18992.35
461.261	18769.12
461.466	17476.85
461.672	16700.67
461.878	18210.03
462.083	17011.96
462.289	16653.57
462.494	16616.71
462.7	15619.35
462.905	15088.92
463.111	15996.17
463.316	15936.78
463.522	15635.73
463.727	15426.84
463.932	15453.46
464.138	15697.17
464.343	15381.78
464.549	14912.8
464.754	15478.04
464.959	15400.21
465.165	15236.38
465.37	14695.71
465.575	14259.49
465.781	14808.35
465.986	14554.4
466.191	14214.44
466.397	13970.73
466.602	13385.01
466.807	13897
467.012	14015.79
467.218	13759.79
467.423	13595.95
467.628	13757.74
