Data from USB4F104151__10__11-29-37-907.txt Node

Date: Fri Mar 14 11:29:37 EDT 2025
User: louis
Spectrometer: USB4F10415
Trigger mode: 4
Integration Time (sec): 5.000000E-2
Scans to average: 1
Electric dark correction enabled: true
Nonlinearity correction enabled: false
Boxcar width: 0
XAxis mode: Wavelengths
Number of Pixels in Spectrum: 3648
>>>>>Begin Spectral Data<<<<<
178.204	-150.87
178.424	-150.87
178.644	-150.87
178.864	-159.06
179.084	-171.35
179.304	-36.18
179.524	45.74
179.744	-46.42
179.964	-25.94
180.184	4.78
180.404	8.87
180.624	-27.99
180.844	101.03
181.064	-36.18
181.283	15.02
181.503	41.64
181.723	-44.37
181.943	-101.72
182.163	29.35
182.383	10.92
182.602	86.7
182.822	55.98
183.042	60.07
183.262	53.93
183.482	-83.28
183.701	-30.04
183.921	37.55
184.141	55.98
184.361	8.87
184.58	2.73
184.8	33.45
185.02	4.78
185.239	45.74
185.459	29.35
185.679	109.22
185.898	4.78
186.118	-7.51
186.338	72.36
186.557	55.98
186.777	-32.08
186.997	8.87
187.216	33.45
187.436	141.99
187.655	111.27
187.875	70.31
188.095	-5.46
188.314	119.46
188.534	115.37
188.753	-11.61
188.973	115.37
189.192	27.31
189.412	141.99
189.631	25.26
189.851	51.88
190.07	117.42
190.29	41.64
190.509	19.11
190.729	27.31
190.948	109.22
191.168	137.9
191.387	117.42
191.607	-44.37
191.826	66.22
192.045	12.97
192.265	-19.8
192.484	60.07
192.704	53.93
192.923	-68.95
193.142	123.56
193.362	74.41
193.581	58.03
193.8	51.88
194.02	17.07
194.239	-3.41
194.458	21.16
194.678	2.73
194.897	19.11
195.116	37.55
195.335	82.6
195.555	131.75
195.774	-36.18
195.993	62.12
196.212	-19.8
196.432	21.16
196.651	-87.38
196.87	4.78
197.089	182.95
197.308	127.66
197.528	-48.47
197.747	4.78
197.966	33.45
198.185	109.22
198.404	19.11
198.623	66.22
198.842	53.93
199.062	72.36
199.281	98.99
199.5	-46.42
199.719	-5.46
199.938	119.46
200.157	66.22
200.376	33.45
200.595	78.51
200.814	45.74
201.033	-19.8
201.252	43.69
201.471	21.16
201.69	37.55
201.909	60.07
202.128	45.74
202.347	33.45
202.566	-17.75
202.785	-21.85
203.004	70.31
203.223	139.94
203.442	82.6
203.661	58.03
203.879	66.22
204.098	70.31
204.317	4.78
204.536	70.31
204.755	-44.37
204.974	94.89
205.193	0.68
205.411	74.41
205.63	-44.37
205.849	45.74
206.068	78.51
206.287	15.02
206.505	21.16
206.724	60.07
206.943	51.88
207.162	51.88
207.381	-11.61
207.599	27.31
207.818	29.35
208.037	43.69
208.255	21.16
208.474	80.55
208.693	35.5
208.911	27.31
209.13	-7.51
209.349	82.6
209.567	53.93
209.786	103.08
210.005	35.5
210.223	12.97
210.442	21.16
210.661	35.5
210.879	49.83
211.098	66.22
211.316	-13.65
211.535	41.64
211.753	101.03
211.972	82.6
212.191	-48.47
212.409	29.35
212.628	-5.46
212.846	-1.37
213.065	64.17
213.283	68.27
213.502	31.4
213.72	6.83
213.938	70.31
214.157	-32.08
214.375	84.65
214.594	-38.23
214.812	66.22
215.031	29.35
215.249	37.55
215.467	78.51
215.686	17.07
215.904	127.66
216.122	-11.61
216.341	98.99
216.559	45.74
216.778	-3.41
216.996	53.93
217.214	37.55
217.432	37.55
217.651	45.74
217.869	-27.99
218.087	-13.65
218.306	0.68
218.524	53.93
218.742	-46.42
218.96	53.93
219.179	62.12
219.397	-7.51
219.615	70.31
219.833	25.26
220.051	0.68
220.27	117.42
220.488	103.08
220.706	4.78
220.924	-15.7
221.142	-5.46
221.36	45.74
221.578	-11.61
221.796	53.93
222.015	45.74
222.233	39.59
222.451	0.68
222.669	70.31
222.887	113.32
223.105	-5.46
223.323	0.68
223.541	21.16
223.759	70.31
223.977	27.31
224.195	96.94
224.413	74.41
224.631	-7.51
224.849	4.78
225.067	37.55
225.285	10.92
225.503	80.55
225.721	-27.99
225.939	-3.41
226.157	-3.41
226.375	78.51
226.592	-3.41
226.81	0.68
227.028	86.7
227.246	105.13
227.464	-11.61
227.682	84.65
227.9	4.78
228.117	55.98
228.335	35.5
228.553	4.78
228.771	64.17
228.989	-56.66
229.206	84.65
229.424	37.55
229.642	25.26
229.86	35.5
230.077	31.4
230.295	53.93
230.513	37.55
230.731	72.36
230.948	125.61
231.166	37.55
231.384	-23.89
231.601	10.92
231.819	76.46
232.037	0.68
232.254	-21.85
232.472	2.73
232.689	-3.41
232.907	49.83
233.125	-60.76
233.342	94.89
233.56	0.68
233.777	10.92
233.995	27.31
234.213	49.83
234.43	94.89
234.648	41.64
234.865	0.68
235.083	53.93
235.3	66.22
235.518	0.68
235.735	-5.46
235.953	27.31
236.17	35.5
236.388	33.45
236.605	55.98
236.822	70.31
237.04	92.84
237.257	66.22
237.475	-36.18
237.692	43.69
237.909	62.12
238.127	51.88
238.344	49.83
238.562	60.07
238.779	4.78
238.996	-75.09
239.214	2.73
239.431	121.51
239.648	4.78
239.865	29.35
240.083	68.27
240.3	-3.41
240.517	-36.18
240.735	-7.51
240.952	94.89
241.169	96.94
241.386	43.69
241.603	-23.89
241.821	94.89
242.038	123.56
242.255	41.64
242.472	43.69
242.689	-40.28
242.907	12.97
243.124	23.21
243.341	47.79
243.558	8.87
243.775	-15.7
243.992	-85.33
244.209	55.98
244.426	-3.41
244.643	51.88
244.86	8.87
245.078	78.51
245.295	62.12
245.512	25.26
245.729	-52.56
245.946	53.93
246.163	-15.7
246.38	-9.56
246.597	76.46
246.814	80.55
247.031	35.5
247.248	23.21
247.464	139.94
247.681	53.93
247.898	-13.65
248.115	45.74
248.332	27.31
248.549	21.16
248.766	58.03
248.983	133.8
249.2	72.36
249.417	53.93
249.633	4.78
249.85	17.07
250.067	37.55
250.284	33.45
250.501	12.97
250.717	74.41
250.934	4.78
251.151	70.31
251.368	2.73
251.585	41.64
251.801	0.68
252.018	29.35
252.235	115.37
252.451	49.83
252.668	45.74
252.885	41.64
253.102	92.84
253.318	6.83
253.535	17.07
253.752	25.26
253.968	17.07
254.185	25.26
254.401	0.68
254.618	31.4
254.835	4.78
255.051	66.22
255.268	25.26
255.484	64.17
255.701	-5.46
255.917	53.93
256.134	53.93
256.351	21.16
256.567	53.93
256.784	-9.56
257	-17.75
257.217	47.79
257.433	29.35
257.65	35.5
257.866	4.78
258.082	-32.08
258.299	4.78
258.515	109.22
258.732	74.41
258.948	-13.65
259.165	72.36
259.381	66.22
259.597	68.27
259.814	-36.18
260.03	-11.61
260.246	4.78
260.463	-19.8
260.679	64.17
260.895	60.07
261.112	96.94
261.328	4.78
261.544	74.41
261.761	125.61
261.977	-36.18
262.193	58.03
262.409	60.07
262.626	19.11
262.842	78.51
263.058	35.5
263.274	12.97
263.49	29.35
263.707	109.22
263.923	45.74
264.139	-27.99
264.355	-5.46
264.571	27.31
264.787	43.69
265.004	49.83
265.22	66.22
265.436	23.21
265.652	117.42
265.868	90.79
266.084	-15.7
266.3	33.45
266.516	31.4
266.732	82.6
266.948	35.5
267.164	70.31
267.38	37.55
267.596	-30.04
267.812	86.7
268.028	74.41
268.244	-3.41
268.46	58.03
268.676	15.02
268.892	-11.61
269.108	-13.65
269.324	-62.8
269.54	-15.7
269.756	70.31
269.972	2.73
270.188	12.97
270.403	-40.28
270.619	53.93
270.835	45.74
271.051	62.12
271.267	58.03
271.483	23.21
271.698	53.93
271.914	17.07
272.13	2.73
272.346	21.16
272.562	4.78
272.777	8.87
272.993	-34.13
273.209	37.55
273.425	90.79
273.64	27.31
273.856	49.83
274.072	4.78
274.287	-3.41
274.503	84.65
274.719	-60.76
274.934	21.16
275.15	-19.8
275.366	66.22
275.581	0.68
275.797	-46.42
276.012	29.35
276.228	78.51
276.444	-3.41
276.659	66.22
276.875	-44.37
277.09	58.03
277.306	72.36
277.521	80.55
277.737	33.45
277.952	33.45
278.168	51.88
278.383	141.99
278.599	78.51
278.814	76.46
279.03	35.5
279.245	101.03
279.461	35.5
279.676	88.75
279.892	-15.7
280.107	62.12
280.322	58.03
280.538	78.51
280.753	45.74
280.969	-13.65
281.184	12.97
281.399	21.16
281.615	86.7
281.83	41.64
282.045	0.68
282.26	0.68
282.476	-25.94
282.691	74.41
282.906	55.98
283.122	47.79
283.337	21.16
283.552	49.83
283.767	45.74
283.983	70.31
284.198	62.12
284.413	-5.46
284.628	-11.61
284.843	4.78
285.058	82.6
285.274	4.78
285.489	-13.65
285.704	58.03
285.919	-42.32
286.134	51.88
286.349	19.11
286.564	27.31
286.779	74.41
286.995	-42.32
287.21	-40.28
287.425	62.12
287.64	10.92
287.855	55.98
288.07	-25.94
288.285	66.22
288.5	23.21
288.715	12.97
288.93	2.73
289.145	76.46
289.36	74.41
289.575	17.07
289.79	66.22
290.004	62.12
290.219	35.5
290.434	68.27
290.649	-9.56
290.864	21.16
291.079	-3.41
291.294	15.02
291.509	68.27
291.724	94.89
291.938	62.12
292.153	51.88
292.368	23.21
292.583	109.22
292.798	4.78
293.012	92.84
293.227	96.94
293.442	35.5
293.657	47.79
293.871	119.46
294.086	125.61
294.301	70.31
294.516	62.12
294.73	8.87
294.945	60.07
295.16	17.07
295.374	37.55
295.589	33.45
295.804	49.83
296.018	84.65
296.233	62.12
296.447	66.22
296.662	2.73
296.877	111.27
297.091	119.46
297.306	60.07
297.52	-66.9
297.735	51.88
297.949	101.03
298.164	39.59
298.378	29.35
298.593	8.87
298.807	17.07
299.022	68.27
299.236	58.03
299.451	68.27
299.665	58.03
299.88	41.64
300.094	35.5
300.309	55.98
300.523	15.02
300.737	35.5
300.952	70.31
301.166	29.35
301.381	-46.42
301.595	-46.42
301.809	4.78
302.024	-5.46
302.238	0.68
302.452	33.45
302.667	64.17
302.881	98.99
303.095	117.42
303.309	-9.56
303.524	-54.61
303.738	45.74
303.952	47.79
304.166	58.03
304.381	-38.23
304.595	33.45
304.809	68.27
305.023	-11.61
305.237	-44.37
305.452	51.88
305.666	33.45
305.88	111.27
306.094	49.83
306.308	27.31
306.522	21.16
306.736	19.11
306.95	109.22
307.164	72.36
307.379	60.07
307.593	-23.89
307.807	49.83
308.021	53.93
308.235	-40.28
308.449	39.59
308.663	21.16
308.877	33.45
309.091	49.83
309.305	41.64
309.519	-13.65
309.733	88.75
309.947	-21.85
310.161	0.68
310.374	70.31
310.588	29.35
310.802	31.4
311.016	25.26
311.23	53.93
311.444	-23.89
311.658	66.22
311.872	98.99
312.085	41.64
312.299	94.89
312.513	62.12
312.727	78.51
312.941	-19.8
313.154	-19.8
313.368	53.93
313.582	84.65
313.796	101.03
314.009	60.07
314.223	76.46
314.437	23.21
314.651	53.93
314.864	78.51
315.078	19.11
315.292	-7.51
315.505	-36.18
315.719	51.88
315.933	47.79
316.146	12.97
316.36	27.31
316.573	105.13
316.787	27.31
317.001	21.16
317.214	6.83
317.428	10.92
317.641	-36.18
317.855	53.93
318.068	74.41
318.282	84.65
318.495	78.51
318.709	82.6
318.922	-19.8
319.136	98.99
319.349	70.31
319.563	37.55
319.776	37.55
319.99	43.69
320.203	-5.46
320.417	31.4
320.63	45.74
320.843	94.89
321.057	53.93
321.27	64.17
321.483	-9.56
321.697	133.8
321.91	21.16
322.124	35.5
322.337	107.18
322.55	47.79
322.763	41.64
322.977	58.03
323.19	45.74
323.403	90.79
323.617	19.11
323.83	94.89
324.043	12.97
324.256	23.21
324.469	-32.08
324.683	90.79
324.896	76.46
325.109	74.41
325.322	21.16
325.535	74.41
325.748	41.64
325.962	17.07
326.175	94.89
326.388	62.12
326.601	25.26
326.814	-56.66
327.027	27.31
327.24	107.18
327.453	21.16
327.666	45.74
327.879	49.83
328.092	-17.75
328.305	-38.23
328.518	-46.42
328.731	45.74
328.944	37.55
329.157	8.87
329.37	19.11
329.583	131.75
329.796	117.42
330.009	-5.46
330.222	49.83
330.435	58.03
330.648	0.68
330.861	90.79
331.073	37.55
331.286	-7.51
331.499	86.7
331.712	0.68
331.925	8.87
332.138	-7.51
332.35	98.99
332.563	23.21
332.776	117.42
332.989	15.02
333.202	19.11
333.414	41.64
333.627	62.12
333.84	84.65
334.053	86.7
334.265	-32.08
334.478	-5.46
334.691	-5.46
334.903	45.74
335.116	60.07
335.329	37.55
335.541	-11.61
335.754	70.31
335.966	-52.56
336.179	41.64
336.392	78.51
336.604	53.93
336.817	92.84
337.029	-13.65
337.242	86.7
337.454	53.93
337.667	70.31
337.88	41.64
338.092	43.69
338.305	43.69
338.517	4.78
338.729	109.22
338.942	133.8
339.154	53.93
339.367	58.03
339.579	51.88
339.792	45.74
340.004	76.46
340.217	27.31
340.429	92.84
340.641	21.16
340.854	10.92
341.066	86.7
341.278	80.55
341.491	43.69
341.703	70.31
341.915	-11.61
342.128	103.08
342.34	131.75
342.552	72.36
342.764	12.97
342.977	23.21
343.189	86.7
343.401	-9.56
343.613	12.97
343.826	10.92
344.038	-19.8
344.25	29.35
344.462	92.84
344.674	35.5
344.886	64.17
345.099	12.97
345.311	129.7
345.523	29.35
345.735	-19.8
345.947	41.64
346.159	4.78
346.371	-32.08
346.583	39.59
346.795	103.08
347.007	53.93
347.219	127.66
347.431	-13.65
347.643	82.6
347.855	33.45
348.067	72.36
348.279	10.92
348.491	23.21
348.703	66.22
348.915	53.93
349.127	37.55
349.339	45.74
349.551	12.97
349.763	47.79
349.975	45.74
350.187	94.89
350.399	68.27
350.61	70.31
350.822	17.07
351.034	94.89
351.246	45.74
351.458	33.45
351.669	53.93
351.881	86.7
352.093	74.41
352.305	37.55
352.517	66.22
352.728	98.99
352.94	90.79
353.152	21.16
353.363	49.83
353.575	105.13
353.787	96.94
353.999	66.22
354.21	109.22
354.422	76.46
354.633	-5.46
354.845	-27.99
355.057	53.93
355.268	-11.61
355.48	86.7
355.692	70.31
355.903	45.74
356.115	8.87
356.326	-23.89
356.538	121.51
356.749	-52.56
356.961	107.18
357.172	84.65
357.384	-15.7
357.595	141.99
357.807	51.88
358.018	-9.56
358.23	21.16
358.441	105.13
358.653	74.41
358.864	74.41
359.075	10.92
359.287	55.98
359.498	94.89
359.709	37.55
359.921	2.73
360.132	62.12
360.344	107.18
360.555	-11.61
360.766	10.92
360.977	-30.04
361.189	4.78
361.4	92.84
361.611	53.93
361.823	49.83
362.034	41.64
362.245	49.83
362.456	19.11
362.667	12.97
362.879	-23.89
363.09	60.07
363.301	4.78
363.512	62.12
363.723	43.69
363.935	53.93
364.146	66.22
364.357	76.46
364.568	25.26
364.779	-11.61
364.99	51.88
365.201	37.55
365.412	53.93
365.623	-23.89
365.834	41.64
366.045	82.6
366.256	62.12
366.467	86.7
366.678	-27.99
366.889	12.97
367.1	21.16
367.311	139.94
367.522	51.88
367.733	78.51
367.944	78.51
368.155	8.87
368.366	117.42
368.577	-3.41
368.788	119.46
368.999	4.78
369.209	23.21
369.42	101.03
369.631	82.6
369.842	51.88
370.053	-40.28
370.264	103.08
370.474	58.03
370.685	68.27
370.896	29.35
371.107	25.26
371.317	12.97
371.528	49.83
371.739	137.9
371.95	103.08
372.16	76.46
372.371	64.17
372.582	-15.7
372.792	45.74
373.003	23.21
373.214	62.12
373.424	37.55
373.635	37.55
373.846	66.22
374.056	72.36
374.267	10.92
374.477	53.93
374.688	90.79
374.898	27.31
375.109	4.78
375.319	27.31
375.53	158.38
375.74	51.88
375.951	29.35
376.161	88.75
376.372	84.65
376.582	0.68
376.793	94.89
377.003	35.5
377.214	0.68
377.424	94.89
377.635	29.35
377.845	-15.7
378.055	94.89
378.266	-36.18
378.476	92.84
378.686	-32.08
378.897	45.74
379.107	170.66
379.317	115.37
379.528	68.27
379.738	68.27
379.948	-15.7
380.158	98.99
380.369	66.22
380.579	-32.08
380.789	31.4
380.999	21.16
381.21	37.55
381.42	111.27
381.63	103.08
381.84	82.6
382.05	62.12
382.261	47.79
382.471	76.46
382.681	76.46
382.891	98.99
383.101	78.51
383.311	-13.65
383.521	62.12
383.731	144.04
383.941	80.55
384.151	12.97
384.361	58.03
384.571	119.46
384.781	-17.75
384.991	-3.41
385.201	53.93
385.411	66.22
385.621	156.33
385.831	74.41
386.041	10.92
386.251	-54.61
386.461	41.64
386.671	78.51
386.881	70.31
387.091	70.31
387.301	29.35
387.511	51.88
387.72	23.21
387.93	78.51
388.14	98.99
388.35	103.08
388.56	78.51
388.769	60.07
388.979	64.17
389.189	49.83
389.399	70.31
389.609	133.8
389.818	125.61
390.028	68.27
390.238	29.35
390.447	84.65
390.657	55.98
390.867	-21.85
391.076	-19.8
391.286	49.83
391.496	41.64
391.705	53.93
391.915	29.35
392.125	84.65
392.334	98.99
392.544	94.89
392.753	117.42
392.963	80.55
393.172	141.99
393.382	84.65
393.591	58.03
393.801	29.35
394.01	144.04
394.22	78.51
394.429	68.27
394.639	-3.41
394.848	107.18
395.058	55.98
395.267	51.88
395.477	76.46
395.686	74.41
395.895	148.14
396.105	43.69
396.314	150.18
396.524	43.69
396.733	125.61
396.942	115.37
397.152	70.31
397.361	70.31
397.57	4.78
397.78	101.03
397.989	156.33
398.198	94.89
398.407	-11.61
398.617	84.65
398.826	90.79
399.035	78.51
399.244	62.12
399.453	80.55
399.663	76.46
399.872	158.38
400.081	70.31
400.29	107.18
400.499	94.89
400.708	133.8
400.917	133.8
401.127	62.12
401.336	45.74
401.545	199.34
401.754	105.13
401.963	58.03
402.172	25.26
402.381	125.61
402.59	113.32
402.799	86.7
403.008	78.51
403.217	68.27
403.426	121.51
403.635	47.79
403.844	160.42
404.053	62.12
404.262	168.62
404.471	139.94
404.68	127.66
404.888	139.94
405.097	103.08
405.306	115.37
405.515	211.62
405.724	154.28
405.933	217.77
406.142	172.71
406.35	137.9
406.559	162.47
406.768	135.85
406.977	158.38
407.185	258.73
407.394	119.46
407.603	199.34
407.812	105.13
408.02	254.63
408.229	199.34
408.438	180.9
408.646	248.49
408.855	250.53
409.064	275.11
409.272	225.96
409.481	248.49
409.69	236.2
409.898	242.34
410.107	359.08
410.315	303.78
410.524	324.26
410.733	365.22
410.941	322.21
411.15	311.97
411.358	363.17
411.567	422.56
411.775	438.95
411.984	334.5
412.192	463.52
412.401	436.9
412.609	447.14
412.818	512.67
413.026	434.85
413.234	512.67
413.443	504.48
413.651	467.62
413.86	463.52
414.068	529.06
414.276	602.79
414.485	479.91
414.693	651.94
414.901	660.13
415.11	606.88
415.318	598.69
415.526	623.27
415.734	766.62
415.943	701.09
416.151	823.97
416.359	717.47
416.567	862.88
416.776	813.73
416.984	803.49
417.192	971.42
417.4	991.9
417.608	848.54
417.817	836.25
418.025	967.32
418.233	1024.67
418.441	1077.91
418.649	1069.72
418.857	1198.74
419.065	1208.98
419.273	1184.41
419.481	1188.5
419.689	1254.04
419.897	1282.71
420.105	1417.88
420.313	1424.02
420.521	1446.55
420.729	1477.27
420.937	1548.95
421.145	1573.52
421.353	1725.07
421.561	1823.37
421.769	1806.99
421.977	1835.66
422.185	1823.37
422.393	1948.3
422.601	2001.55
422.809	2058.89
423.017	2187.91
423.224	2216.58
423.432	2214.54
423.64	2261.64
423.848	2503.3
424.056	2433.67
424.263	2626.18
424.471	2560.64
424.679	2742.91
424.887	2736.77
425.094	2757.25
425.302	2824.83
425.51	3013.24
425.718	2992.76
425.925	3107.45
426.133	3267.19
426.341	3437.17
426.548	3502.71
426.756	3560.05
426.964	3617.4
427.171	3928.69
427.379	4010.61
427.586	3977.84
427.794	4151.92
428.001	4377.19
428.209	4416.1
428.417	4475.49
428.624	4762.21
428.832	4780.64
429.039	4573.8
429.247	4811.36
429.454	5059.17
429.662	5464.66
429.869	5180
430.076	5567.06
430.284	5288.54
430.491	5589.59
430.699	5923.41
430.906	5941.84
431.114	5964.37
431.321	6230.6
431.528	6216.27
431.736	6773.32
431.943	7025.22
432.15	6894.15
432.358	7094.85
432.565	7426.62
432.772	7096.89
432.979	7725.62
433.187	7709.24
433.394	7844.4
433.601	8495.66
433.808	8475.18
434.016	8327.72
434.223	8600.1
434.43	9325.08
434.637	9134.62
434.844	9781.78
435.052	9718.29
435.259	9701.91
435.466	9830.93
435.673	9626.14
435.88	10543.63
436.087	10875.4
436.294	10998.27
436.501	10668.55
436.708	11125.25
436.915	11459.07
437.122	11981.3
437.329	11772.41
437.537	12257.78
437.743	12349.93
437.95	12257.78
438.157	12929.51
438.364	13177.31
438.571	13232.61
438.778	13398.49
438.985	14467.53
439.192	14090.71
439.399	14528.97
439.606	14285.26
439.813	14961.09
440.02	15741.37
440.227	15546.81
440.433	15389.12
440.64	16015.8
440.847	15864.25
441.054	15999.41
441.261	17469.86
441.467	17097.13
441.674	17619.36
441.881	18121.11
442.088	18010.52
442.294	18033.05
442.501	18260.37
442.708	19042.7
442.914	19472.77
443.121	20230.52
443.328	19855.74
443.534	21193.06
443.741	20633.97
443.948	20162.93
444.154	21782.88
444.361	21961.05
444.568	21723.49
444.774	21967.2
444.981	22094.17
445.187	22892.88
445.394	23970.11
445.6	23705.92
445.807	25536.81
446.013	24582.45
446.22	25069.87
446.426	25467.17
446.633	26224.92
446.839	26636.56
447.046	26118.43
447.252	27656.45
447.459	27621.64
447.665	27199.76
447.871	28487.93
448.078	29651.17
448.284	28418.3
448.491	29077.74
448.697	30200.03
448.903	30744.79
449.11	30832.85
449.316	30322.91
449.522	30853.33
449.728	31973.57
449.935	31920.32
450.141	31508.68
450.347	32624.82
450.553	31695.05
450.76	32090.31
450.966	33052.85
451.172	32762.04
451.378	33630.38
451.584	32800.95
451.791	33593.51
451.997	33210.54
452.203	33833.13
452.409	33902.76
452.615	33820.84
452.821	32450.75
453.027	32063.68
453.233	33231.02
453.44	32200.9
453.646	32673.98
453.852	32735.42
454.058	33061.04
454.264	32164.03
454.47	32925.88
454.676	31693
454.882	33294.51
455.088	30351.58
455.294	30484.7
455.5	30824.66
455.705	31199.44
455.911	29794.53
456.117	29335.79
456.323	28946.67
456.529	27275.53
456.735	28432.63
456.941	27803.91
457.147	27556.1
457.352	26581.27
457.558	26548.5
457.764	26173.72
457.97	25633.06
458.176	25229.61
458.381	25053.48
458.587	23769.41
458.793	23550.28
458.999	22745.42
459.204	24117.56
459.41	23359.81
459.616	21879.13
459.821	21862.75
460.027	21907.8
460.233	21533.03
460.438	20478.32
460.644	20726.13
460.85	19661.18
461.055	19280.26
461.261	19095.94
461.466	17682.84
461.672	17326.5
461.878	18493.84
462.083	17295.78
462.289	16896.42
462.494	16808.36
462.7	16347.57
462.905	15458.75
463.111	16288.18
463.316	16312.75
463.522	16026.04
463.727	16085.43
463.932	16140.72
464.138	15860.15
464.343	15819.19
464.549	15301.06
464.754	15890.87
464.959	15634.88
465.165	15389.12
465.37	15169.99
465.575	14500.3
465.781	15180.23
465.986	15335.87
466.191	14565.84
466.397	14141.91
466.602	13603.29
466.807	14559.69
467.012	14119.38
467.218	14207.44
