Data from USB4F104151__7__11-29-36-168.txt Node

Date: Fri Mar 14 11:29:36 EDT 2025
User: louis
Spectrometer: USB4F10415
Trigger mode: 4
Integration Time (sec): 5.000000E-2
Scans to average: 1
Electric dark correction enabled: true
Nonlinearity correction enabled: false
Boxcar width: 0
XAxis mode: Wavelengths
Number of Pixels in Spectrum: 3648
>>>>>Begin Spectral Data<<<<<
178.204	-98.99
178.424	-98.99
178.644	-98.99
178.864	-125.61
179.084	-160.42
179.304	3.41
179.524	-19.11
179.744	11.61
179.964	54.61
180.184	9.56
180.404	-41.64
180.624	3.41
180.844	-25.26
181.064	-4.78
181.283	40.28
181.503	-58.03
181.723	25.94
181.943	-19.11
182.163	58.71
182.383	-70.31
182.602	38.23
182.822	46.42
183.042	21.85
183.262	-70.31
183.482	-6.83
183.701	38.23
183.921	5.46
184.141	-2.73
184.361	161.11
184.58	-45.74
184.8	-4.78
185.02	-37.55
185.239	58.71
185.459	38.23
185.679	58.71
185.898	-45.74
186.118	7.51
186.338	-0.68
186.557	46.42
186.777	-10.92
186.997	-86.7
187.216	34.13
187.436	89.43
187.655	-2.73
187.875	-12.97
188.095	-62.12
188.314	77.14
188.534	93.52
188.753	-10.92
188.973	-10.92
189.192	101.72
189.412	9.56
189.631	36.18
189.851	11.61
190.07	68.95
190.29	-62.12
190.509	9.56
190.729	-17.07
190.948	93.52
191.168	142.68
191.387	-37.55
191.607	15.7
191.826	-39.59
192.045	1.37
192.265	-27.31
192.484	-23.21
192.704	46.42
192.923	21.85
193.142	48.47
193.362	38.23
193.581	-2.73
193.8	5.46
194.02	-15.02
194.239	-10.92
194.458	-2.73
194.678	7.51
194.897	42.32
195.116	52.56
195.335	38.23
195.555	19.8
195.774	-2.73
195.993	-19.11
196.212	-60.07
196.432	3.41
196.651	77.14
196.87	25.94
197.089	120.15
197.308	-12.97
197.528	21.85
197.747	1.37
197.966	36.18
198.185	30.04
198.404	46.42
198.623	-2.73
198.842	-4.78
199.062	83.28
199.281	-4.78
199.5	13.65
199.719	-29.35
199.938	3.41
200.157	25.94
200.376	21.85
200.595	75.09
200.814	42.32
201.033	-12.97
201.252	48.47
201.471	118.1
201.69	91.48
201.909	46.42
202.128	11.61
202.347	-25.26
202.566	27.99
202.785	-37.55
203.004	-6.83
203.223	142.68
203.442	13.65
203.661	-68.27
203.879	13.65
204.098	5.46
204.317	-25.26
204.536	-23.21
204.755	91.48
204.974	17.75
205.193	-51.88
205.411	83.28
205.63	95.57
205.849	-37.55
206.068	-19.11
206.287	-19.11
206.505	-43.69
206.724	73.04
206.943	-12.97
207.162	5.46
207.381	-10.92
207.599	-17.07
207.818	-31.4
208.037	54.61
208.255	93.52
208.474	13.65
208.693	-2.73
208.911	19.8
209.13	11.61
209.349	-78.51
209.567	-27.31
209.786	64.85
210.005	-10.92
210.223	-10.92
210.442	-29.35
210.661	42.32
210.879	32.08
211.098	-23.21
211.316	9.56
211.535	89.43
211.753	46.42
211.972	21.85
212.191	23.89
212.409	-10.92
212.628	3.41
212.846	34.13
213.065	95.57
213.283	52.56
213.502	-39.59
213.72	19.8
213.938	9.56
214.157	-2.73
214.375	36.18
214.594	5.46
214.812	46.42
215.031	-51.88
215.249	-78.51
215.467	75.09
215.686	-0.68
215.904	38.23
216.122	36.18
216.341	85.33
216.559	38.23
216.778	54.61
216.996	-10.92
217.214	15.7
217.432	-15.02
217.651	5.46
217.869	-23.21
218.087	36.18
218.306	-19.11
218.524	34.13
218.742	-47.79
218.96	34.13
219.179	58.71
219.397	54.61
219.615	81.24
219.833	17.75
220.051	-6.83
220.27	95.57
220.488	54.61
220.706	36.18
220.924	-62.12
221.142	-25.26
221.36	3.41
221.578	-17.07
221.796	21.85
222.015	40.28
222.233	-35.5
222.451	83.28
222.669	25.94
222.887	-29.35
223.105	-6.83
223.323	27.99
223.541	-49.83
223.759	54.61
223.977	54.61
224.195	19.8
224.413	132.44
224.631	50.52
224.849	46.42
225.067	48.47
225.285	-70.31
225.503	-19.11
225.721	-6.83
225.939	-90.79
226.157	-12.97
226.375	118.1
226.592	87.38
226.81	-21.16
227.028	87.38
227.246	54.61
227.464	27.99
227.682	21.85
227.9	-43.69
228.117	-0.68
228.335	-15.02
228.553	-21.16
228.771	79.19
228.989	5.46
229.206	38.23
229.424	-0.68
229.642	13.65
229.86	-45.74
230.077	25.94
230.295	21.85
230.513	32.08
230.731	52.56
230.948	-2.73
231.166	-31.4
231.384	25.94
231.601	-45.74
231.819	11.61
232.037	-10.92
232.254	7.51
232.472	21.85
232.689	-21.16
232.907	58.71
233.125	-2.73
233.342	-37.55
233.56	-43.69
233.777	36.18
233.995	1.37
234.213	48.47
234.43	-23.21
234.648	11.61
234.865	-17.07
235.083	-2.73
235.3	-27.31
235.518	99.67
235.735	60.76
235.953	5.46
236.17	-96.94
236.388	25.94
236.605	71
236.822	-19.11
237.04	95.57
237.257	-2.73
237.475	54.61
237.692	1.37
237.909	52.56
238.127	-21.16
238.344	-2.73
238.562	44.37
238.779	1.37
238.996	-19.11
239.214	68.95
239.431	36.18
239.648	5.46
239.865	130.39
240.083	-8.87
240.3	-6.83
240.517	3.41
240.735	-2.73
240.952	11.61
241.169	66.9
241.386	-10.92
241.603	64.85
241.821	-37.55
242.038	52.56
242.255	30.04
242.472	11.61
242.689	-15.02
242.907	83.28
243.124	56.66
243.341	11.61
243.558	7.51
243.775	40.28
243.992	-6.83
244.209	19.8
244.426	68.95
244.643	21.85
244.86	-31.4
245.078	99.67
245.295	-37.55
245.512	11.61
245.729	-55.98
245.946	44.37
246.163	48.47
246.38	-35.5
246.597	34.13
246.814	25.94
247.031	27.99
247.248	60.76
247.464	83.28
247.681	-51.88
247.898	25.94
248.115	-2.73
248.332	-15.02
248.549	107.86
248.766	42.32
248.983	30.04
249.2	103.76
249.417	30.04
249.633	48.47
249.85	71
250.067	21.85
250.284	27.99
250.501	25.94
250.717	9.56
250.934	-80.55
251.151	-4.78
251.368	9.56
251.585	60.76
251.801	-27.31
252.018	-35.5
252.235	44.37
252.451	13.65
252.668	13.65
252.885	42.32
253.102	-10.92
253.318	50.52
253.535	-84.65
253.752	25.94
253.968	-0.68
254.185	46.42
254.401	-4.78
254.618	38.23
254.835	11.61
255.051	40.28
255.268	9.56
255.484	1.37
255.701	52.56
255.917	21.85
256.134	-23.21
256.351	-88.75
256.567	-29.35
256.784	-4.78
257	5.46
257.217	19.8
257.433	-2.73
257.65	21.85
257.866	30.04
258.082	-84.65
258.299	-35.5
258.515	21.85
258.732	-43.69
258.948	15.7
259.165	30.04
259.381	3.41
259.597	42.32
259.814	9.56
260.03	71
260.246	9.56
260.463	-31.4
260.679	-39.59
260.895	-10.92
261.112	11.61
261.328	68.95
261.544	-2.73
261.761	85.33
261.977	54.61
262.193	-19.11
262.409	25.94
262.626	7.51
262.842	27.99
263.058	-6.83
263.274	54.61
263.49	-60.07
263.707	27.99
263.923	13.65
264.139	-72.36
264.355	58.71
264.571	91.48
264.787	15.7
265.004	50.52
265.22	30.04
265.436	36.18
265.652	60.76
265.868	-23.21
266.084	-70.31
266.3	1.37
266.516	-35.5
266.732	58.71
266.948	-6.83
267.164	-8.87
267.38	46.42
267.596	17.75
267.812	77.14
268.028	-64.17
268.244	11.61
268.46	-0.68
268.676	-19.11
268.892	9.56
269.108	9.56
269.324	-47.79
269.54	-64.17
269.756	3.41
269.972	-33.45
270.188	5.46
270.403	-47.79
270.619	52.56
270.835	34.13
271.051	-12.97
271.267	-43.69
271.483	30.04
271.698	21.85
271.914	83.28
272.13	17.75
272.346	48.47
272.562	30.04
272.777	25.94
272.993	23.89
273.209	30.04
273.425	11.61
273.64	36.18
273.856	-4.78
274.072	34.13
274.287	-60.07
274.503	58.71
274.719	19.8
274.934	42.32
275.15	30.04
275.366	-31.4
275.581	-10.92
275.797	-21.16
276.012	-15.02
276.228	-43.69
276.444	-27.31
276.659	52.56
276.875	-80.55
277.09	25.94
277.306	42.32
277.521	91.48
277.737	-6.83
277.952	17.75
278.168	9.56
278.383	-6.83
278.599	21.85
278.814	19.8
279.03	-47.79
279.245	40.28
279.461	60.76
279.676	-15.02
279.892	17.75
280.107	-29.35
280.322	19.8
280.538	23.89
280.753	-29.35
280.969	40.28
281.184	27.99
281.399	38.23
281.615	3.41
281.83	120.15
282.045	9.56
282.26	30.04
282.476	42.32
282.691	50.52
282.906	38.23
283.122	83.28
283.337	-39.59
283.552	56.66
283.767	17.75
283.983	44.37
284.198	-33.45
284.413	17.75
284.628	-60.07
284.843	38.23
285.058	42.32
285.274	46.42
285.489	-60.07
285.704	50.52
285.919	5.46
286.134	-51.88
286.349	-0.68
286.564	-8.87
286.779	34.13
286.995	-4.78
287.21	15.7
287.425	17.75
287.64	13.65
287.855	-31.4
288.07	-84.65
288.285	15.7
288.5	87.38
288.715	103.76
288.93	32.08
289.145	-51.88
289.36	13.65
289.575	-2.73
289.79	-12.97
290.004	-53.93
290.219	38.23
290.434	-43.69
290.649	-2.73
290.864	-31.4
291.079	-45.74
291.294	-19.11
291.509	13.65
291.724	-10.92
291.938	27.99
292.153	23.89
292.368	-12.97
292.583	101.72
292.798	71
293.012	50.52
293.227	30.04
293.442	17.75
293.657	71
293.871	68.95
294.086	71
294.301	87.38
294.516	77.14
294.73	17.75
294.945	32.08
295.16	-4.78
295.374	120.15
295.589	91.48
295.804	-19.11
296.018	-6.83
296.233	27.99
296.447	3.41
296.662	9.56
296.877	101.72
297.091	21.85
297.306	87.38
297.52	21.85
297.735	62.8
297.949	-92.84
298.164	15.7
298.378	3.41
298.593	-21.16
298.807	-2.73
299.022	46.42
299.236	73.04
299.451	-10.92
299.665	111.96
299.88	60.76
300.094	66.9
300.309	50.52
300.523	-12.97
300.737	-31.4
300.952	30.04
301.166	34.13
301.381	-101.03
301.595	42.32
301.809	46.42
302.024	44.37
302.238	-103.08
302.452	54.61
302.667	68.95
302.881	75.09
303.095	50.52
303.309	30.04
303.524	54.61
303.738	19.8
303.952	60.76
304.166	44.37
304.381	-12.97
304.595	23.89
304.809	-37.55
305.023	21.85
305.237	-70.31
305.452	-19.11
305.666	95.57
305.88	54.61
306.094	68.95
306.308	66.9
306.522	71
306.736	34.13
306.95	9.56
307.164	13.65
307.379	-2.73
307.593	56.66
307.807	38.23
308.021	-6.83
308.235	25.94
308.449	-62.12
308.663	19.8
308.877	36.18
309.091	62.8
309.305	64.85
309.519	-45.74
309.733	-23.21
309.947	-39.59
310.161	5.46
310.374	77.14
310.588	118.1
310.802	48.47
311.016	-0.68
311.23	-23.21
311.444	-27.31
311.658	-10.92
311.872	21.85
312.085	25.94
312.299	66.9
312.513	34.13
312.727	5.46
312.941	-4.78
313.154	44.37
313.368	-12.97
313.582	13.65
313.796	34.13
314.009	21.85
314.223	54.61
314.437	36.18
314.651	36.18
314.864	-37.55
315.078	-6.83
315.292	1.37
315.505	-76.46
315.719	38.23
315.933	13.65
316.146	83.28
316.36	-64.17
316.573	42.32
316.787	36.18
317.001	27.99
317.214	34.13
317.428	52.56
317.641	-53.93
317.855	13.65
318.068	30.04
318.282	-27.31
318.495	116.05
318.709	-21.16
318.922	-27.31
319.136	32.08
319.349	3.41
319.563	-2.73
319.776	19.8
319.99	-51.88
320.203	77.14
320.417	36.18
320.63	75.09
320.843	21.85
321.057	30.04
321.27	9.56
321.483	79.19
321.697	1.37
321.91	46.42
322.124	25.94
322.337	30.04
322.55	15.7
322.763	62.8
322.977	-39.59
323.19	-2.73
323.403	23.89
323.617	21.85
323.83	-12.97
324.043	3.41
324.256	54.61
324.469	21.85
324.683	62.8
324.896	50.52
325.109	81.24
325.322	-82.6
325.535	62.8
325.748	109.91
325.962	-17.07
326.175	11.61
326.388	-15.02
326.601	27.99
326.814	5.46
327.027	23.89
327.24	87.38
327.453	71
327.666	116.05
327.879	13.65
328.092	-4.78
328.305	27.99
328.518	-31.4
328.731	50.52
328.944	25.94
329.157	71
329.37	68.95
329.583	25.94
329.796	87.38
330.009	-27.31
330.222	38.23
330.435	17.75
330.648	21.85
330.861	17.75
331.073	38.23
331.286	-6.83
331.499	48.47
331.712	5.46
331.925	60.76
332.138	-23.21
332.35	107.86
332.563	27.99
332.776	73.04
332.989	-17.07
333.202	30.04
333.414	64.85
333.627	81.24
333.84	30.04
334.053	-37.55
334.265	-51.88
334.478	23.89
334.691	60.76
334.903	87.38
335.116	25.94
335.329	107.86
335.541	19.8
335.754	68.95
335.966	-43.69
336.179	46.42
336.392	58.71
336.604	9.56
336.817	85.33
337.029	25.94
337.242	13.65
337.454	71
337.667	-47.79
337.88	40.28
338.092	60.76
338.305	-27.31
338.517	38.23
338.729	19.8
338.942	-4.78
339.154	5.46
339.367	-6.83
339.579	87.38
339.792	-4.78
340.004	83.28
340.217	30.04
340.429	5.46
340.641	17.75
340.854	38.23
341.066	19.8
341.278	79.19
341.491	105.81
341.703	3.41
341.915	-21.16
342.128	9.56
342.34	30.04
342.552	1.37
342.764	58.71
342.977	44.37
343.189	9.56
343.401	42.32
343.613	38.23
343.826	1.37
344.038	32.08
344.25	93.52
344.462	13.65
344.674	25.94
344.886	-10.92
345.099	85.33
345.311	5.46
345.523	34.13
345.735	-39.59
345.947	46.42
346.159	68.95
346.371	-47.79
346.583	-15.02
346.795	30.04
347.007	-2.73
347.219	36.18
347.431	-2.73
347.643	52.56
347.855	19.8
348.067	1.37
348.279	-2.73
348.491	68.95
348.703	54.61
348.915	15.7
349.127	-15.02
349.339	103.76
349.551	-0.68
349.763	93.52
349.975	42.32
350.187	38.23
350.399	85.33
350.61	36.18
350.822	-51.88
351.034	128.34
351.246	21.85
351.458	79.19
351.669	-15.02
351.881	44.37
352.093	42.32
352.305	52.56
352.517	1.37
352.728	107.86
352.94	52.56
353.152	71
353.363	-6.83
353.575	81.24
353.787	9.56
353.999	32.08
354.21	73.04
354.422	1.37
354.633	-33.45
354.845	95.57
355.057	19.8
355.268	-84.65
355.48	87.38
355.692	-23.21
355.903	79.19
356.115	27.99
356.326	-70.31
356.538	21.85
356.749	103.76
356.961	154.96
357.172	81.24
357.384	48.47
357.595	36.18
357.807	-58.03
358.018	9.56
358.23	44.37
358.441	-15.02
358.653	105.81
358.864	-21.16
359.075	-41.64
359.287	38.23
359.498	21.85
359.709	75.09
359.921	-25.26
360.132	-10.92
360.344	48.47
360.555	54.61
360.766	52.56
360.977	85.33
361.189	44.37
361.4	85.33
361.611	62.8
361.823	62.8
362.034	17.75
362.245	17.75
362.456	60.76
362.667	46.42
362.879	23.89
363.09	56.66
363.301	25.94
363.512	15.7
363.723	27.99
363.935	71
364.146	79.19
364.357	11.61
364.568	56.66
364.779	13.65
364.99	124.24
365.201	30.04
365.412	60.76
365.623	-6.83
365.834	11.61
366.045	81.24
366.256	99.67
366.467	114
366.678	89.43
366.889	-27.31
367.1	58.71
367.311	62.8
367.522	64.85
367.733	128.34
367.944	13.65
368.155	34.13
368.366	95.57
368.577	-0.68
368.788	46.42
368.999	13.65
369.209	5.46
369.42	93.52
369.631	85.33
369.842	77.14
370.053	30.04
370.264	136.53
370.474	75.09
370.685	75.09
370.896	-45.74
371.107	44.37
371.317	-29.35
371.528	-4.78
371.739	40.28
371.95	89.43
372.16	83.28
372.371	-29.35
372.582	50.52
372.792	-8.87
373.003	167.25
373.214	38.23
373.424	44.37
373.635	32.08
373.846	120.15
374.056	77.14
374.267	66.9
374.477	3.41
374.688	-60.07
374.898	13.65
375.109	-2.73
375.319	62.8
375.53	95.57
375.74	99.67
375.951	85.33
376.161	5.46
376.372	81.24
376.582	11.61
376.793	-39.59
377.003	38.23
377.214	-15.02
377.424	83.28
377.635	50.52
377.845	21.85
378.055	77.14
378.266	54.61
378.476	71
378.686	-19.11
378.897	25.94
379.107	25.94
379.317	54.61
379.528	60.76
379.738	75.09
379.948	-2.73
380.158	71
380.369	19.8
380.579	122.2
380.789	-31.4
380.999	42.32
381.21	23.89
381.42	13.65
381.63	-10.92
381.84	15.7
382.05	77.14
382.261	30.04
382.471	97.62
382.681	99.67
382.891	34.13
383.101	75.09
383.311	54.61
383.521	-17.07
383.731	11.61
383.941	1.37
384.151	52.56
384.361	46.42
384.571	27.99
384.781	44.37
384.991	103.76
385.201	5.46
385.411	44.37
385.621	116.05
385.831	54.61
386.041	17.75
386.251	5.46
386.461	71
386.671	11.61
386.881	17.75
387.091	46.42
387.301	58.71
387.511	62.8
387.72	71
387.93	52.56
388.14	-27.31
388.35	-80.55
388.56	85.33
388.769	103.76
388.979	71
389.189	25.94
389.399	60.76
389.609	13.65
389.818	109.91
390.028	62.8
390.238	52.56
390.447	46.42
390.657	118.1
390.867	21.85
391.076	58.71
391.286	34.13
391.496	25.94
391.705	46.42
391.915	179.54
392.125	93.52
392.334	21.85
392.544	46.42
392.753	68.95
392.963	-62.12
393.172	9.56
393.382	42.32
393.591	79.19
393.801	38.23
394.01	99.67
394.22	1.37
394.429	38.23
394.639	40.28
394.848	95.57
395.058	124.24
395.267	38.23
395.477	66.9
395.686	93.52
395.895	62.8
396.105	138.58
396.314	85.33
396.524	52.56
396.733	-2.73
396.942	60.76
397.152	11.61
397.361	169.3
397.57	93.52
397.78	62.8
397.989	38.23
398.198	64.85
398.407	3.41
398.617	134.48
398.826	140.63
399.035	36.18
399.244	109.91
399.453	97.62
399.663	68.95
399.872	195.92
400.081	114
400.29	99.67
400.499	34.13
400.708	99.67
400.917	62.8
401.127	38.23
401.336	101.72
401.545	124.24
401.754	62.8
401.963	116.05
402.172	93.52
402.381	-0.68
402.59	111.96
402.799	116.05
403.008	126.29
403.217	91.48
403.426	177.49
403.635	75.09
403.844	40.28
404.053	107.86
404.262	114
404.471	208.21
404.68	144.72
404.888	99.67
405.097	75.09
405.306	169.3
405.515	171.35
405.724	136.53
405.933	118.1
406.142	181.59
406.35	122.2
406.559	126.29
406.768	177.49
406.977	269.65
407.185	128.34
407.394	214.35
407.603	116.05
407.812	193.87
408.02	218.45
408.229	243.03
408.438	308.56
408.646	95.57
408.855	210.26
409.064	134.48
409.272	167.25
409.481	310.61
409.69	218.45
409.898	185.68
410.107	267.6
410.315	296.27
410.524	234.83
410.733	265.55
410.941	279.89
411.15	329.04
411.358	345.42
411.567	410.96
411.775	320.85
411.984	374.1
412.192	372.05
412.401	345.42
412.609	488.78
412.818	482.64
413.026	445.77
413.234	427.34
413.443	415.06
413.651	527.69
413.86	503.12
414.068	451.92
414.276	550.22
414.485	550.22
414.693	683.34
414.901	568.65
415.11	554.32
415.318	669
415.526	585.04
415.734	642.38
415.943	699.72
416.151	808.26
416.359	750.92
416.567	841.03
416.776	795.98
416.984	896.33
417.192	884.04
417.4	849.22
417.608	910.66
417.817	918.86
418.025	1017.16
418.233	1029.45
418.441	951.62
418.649	1076.55
418.857	1043.78
419.065	1215.81
419.273	1144.13
419.481	1299.78
419.689	1314.11
419.897	1369.41
420.105	1387.84
420.313	1342.78
420.521	1502.53
420.729	1432.9
420.937	1574.21
421.145	1543.49
421.353	1705.28
421.561	1660.22
421.769	1758.52
421.977	1930.55
422.185	1791.29
422.393	1918.26
422.601	2086.2
422.809	1989.94
423.017	2002.23
423.224	2180.4
423.432	2247.99
423.64	2303.28
423.848	2485.55
424.056	2430.26
424.263	2618.67
424.471	2540.85
424.679	2565.42
424.887	2696.49
425.094	2815.27
425.302	2823.47
425.51	3075.37
425.718	3063.08
425.925	3044.65
426.133	3167.52
426.341	3362.08
426.548	3575.07
426.756	3462.43
426.964	3790.11
427.171	3839.26
427.379	3843.35
427.586	4080.92
427.794	4068.63
428.001	4492.56
428.209	4388.11
428.417	4416.79
428.624	4853
428.832	4840.72
429.039	4623.63
429.247	4719.89
429.454	5330.18
429.662	5522.69
429.869	5147.91
430.076	5543.17
430.284	5215.49
430.491	5641.47
430.699	5797.12
430.906	5866.75
431.114	5963
431.321	6239.48
431.528	6386.93
431.736	6728.94
431.943	7116.01
432.15	6946.03
432.358	7040.23
432.565	7415.01
432.772	7298.28
432.979	7687.39
433.187	7914.72
433.394	7943.39
433.601	8320.21
433.808	8643.79
434.016	8449.24
434.223	8762.58
434.43	9290.95
434.637	9039.05
434.844	9639.11
435.052	9723.07
435.259	9735.36
435.466	10030.27
435.673	9753.79
435.88	10396.85
436.087	10910.89
436.294	10814.64
436.501	10589.36
436.708	10958
436.915	11531.43
437.122	11807.91
437.329	11635.88
437.537	12104.86
437.743	12465.3
437.95	12287.13
438.157	13091.98
438.364	13403.27
438.571	13280.39
438.778	13526.15
438.985	14546.04
439.192	13905.03
439.399	14388.35
439.606	14111.87
439.813	14799.99
440.02	15875.17
440.227	15694.95
440.433	15473.77
440.64	15955.04
440.847	15733.86
441.054	16254.05
441.261	17351.76
441.467	17226.83
441.674	17161.3
441.881	18121.79
442.088	18222.14
442.294	17849.41
442.501	18535.48
442.708	18693.18
442.914	19524.65
443.121	20192.29
443.328	19749.93
443.534	21089.3
443.741	20341.79
443.948	20280.35
444.154	21742.6
444.361	21697.55
444.568	21801.99
444.774	21992.45
444.981	22082.56
445.187	22782.97
445.394	23772.14
445.6	23346.16
445.807	25451.47
446.013	24331.23
446.22	24974.3
446.426	25988.04
446.633	26162.12
446.839	27198.39
447.046	25969.61
447.252	27194.29
447.459	27280.31
447.665	27454.39
447.871	28226.47
448.078	29424.53
448.284	28320.68
448.491	28799.9
448.697	30073.74
448.903	30763.9
449.11	30747.52
449.316	29975.44
449.522	31007.61
449.728	31525.75
449.935	31597.43
450.141	32150.38
450.347	32338.79
450.553	31587.19
450.76	31382.39
450.966	32631.65
451.172	32396.13
451.378	33303.39
451.584	32799.58
451.791	33508.18
451.997	33102.68
452.203	33078.11
452.409	33688.4
452.615	33557.33
452.821	32398.18
453.027	31613.81
453.233	33528.66
453.44	32133.99
453.646	32701.28
453.852	32711.52
454.058	33258.33
454.264	31789.94
454.47	32645.99
454.676	31818.61
454.882	32951.13
455.088	30233.48
455.294	30743.42
455.5	31157.11
455.705	31155.07
455.911	29973.39
456.117	29105.05
456.323	29117.34
456.529	27448.24
456.735	28656.54
456.941	27700.14
457.147	27452.34
457.352	26729.41
457.558	25891.79
457.764	26375.11
457.97	25613.26
458.176	25123.8
458.381	25148.37
458.587	23765.99
458.793	23903.21
458.999	22557.69
459.204	24230.88
459.41	23237.62
459.616	22385.66
459.821	21808.14
460.027	21785.61
460.233	21482.51
460.438	20409.37
460.644	20419.61
460.85	19647.53
461.055	19500.08
461.261	19457.07
461.466	17908.8
461.672	17189.97
461.878	18402.36
462.083	17353.8
462.289	17116.24
462.494	16802.9
462.7	16106.59
462.905	15715.43
463.111	16290.91
463.316	16415.83
463.522	15905.89
463.727	16151.65
463.932	15799.4
464.138	15604.84
464.343	15877.22
464.549	15279.21
464.754	16059.49
464.959	16039.01
465.165	15766.63
465.37	15170.67
465.575	14339.19
465.781	15150.19
465.986	15367.27
466.191	14703.73
466.397	14445.69
466.602	13694.08
466.807	14386.3
467.012	14228.6
467.218	14165.12
467.423	13991.04
