Data from USB4F104151__35__11-30-11-464.txt Node

Date: Fri Mar 14 11:30:11 EDT 2025
User: louis
Spectrometer: USB4F10415
Trigger mode: 4
Integration Time (sec): 5.000000E-2
Scans to average: 1
Electric dark correction enabled: true
Nonlinearity correction enabled: false
Boxcar width: 0
XAxis mode: Wavelengths
Number of Pixels in Spectrum: 3648
>>>>>Begin Spectral Data<<<<<
178.204	-104.96
178.424	-104.96
178.644	-104.96
178.864	-162.3
179.084	-113.15
179.304	-33.28
179.524	-14.85
179.744	-41.47
179.964	5.63
180.184	-2.56
180.404	24.06
180.624	13.82
180.844	56.83
181.064	-39.42
181.283	-0.51
181.503	30.21
181.723	1.54
181.943	-88.57
182.163	83.45
182.383	9.73
182.602	34.3
182.822	62.98
183.042	9.73
183.262	52.74
183.482	97.79
183.701	69.12
183.921	36.35
184.141	32.26
184.361	34.3
184.58	75.26
184.8	-64
185.02	34.3
185.239	34.3
185.459	30.21
185.679	-14.85
185.898	-88.57
186.118	40.45
186.338	42.5
186.557	50.69
186.777	15.87
186.997	58.88
187.216	42.5
187.436	108.03
187.655	130.56
187.875	32.26
188.095	26.11
188.314	52.74
188.534	17.92
188.753	-16.9
188.973	67.07
189.192	19.97
189.412	34.3
189.631	-29.18
189.851	-33.28
190.07	142.85
190.29	-29.18
190.509	24.06
190.729	9.73
190.948	54.78
191.168	91.65
191.387	34.3
191.607	7.68
191.826	50.69
192.045	7.68
192.265	-31.23
192.484	38.4
192.704	9.73
192.923	24.06
193.142	77.31
193.362	22.02
193.581	58.88
193.8	103.93
194.02	48.64
194.239	-8.7
194.458	22.02
194.678	1.54
194.897	151.04
195.116	-10.75
195.335	30.21
195.555	-12.8
195.774	42.5
195.993	75.26
196.212	28.16
196.432	40.45
196.651	-25.09
196.87	56.83
197.089	116.22
197.308	91.65
197.528	9.73
197.747	71.17
197.966	58.88
198.185	48.64
198.404	28.16
198.623	13.82
198.842	73.21
199.062	30.21
199.281	77.31
199.5	-35.33
199.719	11.78
199.938	79.36
200.157	40.45
200.376	46.59
200.595	34.3
200.814	26.11
201.033	83.45
201.252	36.35
201.471	22.02
201.69	22.02
201.909	56.83
202.128	17.92
202.347	38.4
202.566	42.5
202.785	24.06
203.004	-47.62
203.223	167.42
203.442	-6.66
203.661	-31.23
203.879	62.98
204.098	40.45
204.317	-23.04
204.536	124.41
204.755	40.45
204.974	-10.75
205.193	26.11
205.411	73.21
205.63	24.06
205.849	58.88
206.068	48.64
206.287	-49.66
206.505	99.84
206.724	5.63
206.943	36.35
207.162	46.59
207.381	1.54
207.599	-18.94
207.818	-6.66
208.037	-25.09
208.255	34.3
208.474	65.02
208.693	58.88
208.911	9.73
209.13	42.5
209.349	42.5
209.567	28.16
209.786	60.93
210.005	50.69
210.223	-16.9
210.442	15.87
210.661	22.02
210.879	48.64
211.098	24.06
211.316	5.63
211.535	56.83
211.753	38.4
211.972	1.54
212.191	38.4
212.409	-76.29
212.628	17.92
212.846	71.17
213.065	73.21
213.283	32.26
213.502	17.92
213.72	-37.38
213.938	-33.28
214.157	5.63
214.375	-0.51
214.594	-41.47
214.812	11.78
215.031	42.5
215.249	22.02
215.467	130.56
215.686	-72.19
215.904	44.54
216.122	58.88
216.341	91.65
216.559	30.21
216.778	11.78
216.996	40.45
217.214	-31.23
217.432	9.73
217.651	-49.66
217.869	-23.04
218.087	22.02
218.306	24.06
218.524	7.68
218.742	46.59
218.96	17.92
219.179	50.69
219.397	52.74
219.615	1.54
219.833	26.11
220.051	-27.14
220.27	112.13
220.488	38.4
220.706	-0.51
220.924	-68.09
221.142	17.92
221.36	75.26
221.578	17.92
221.796	24.06
222.015	50.69
222.233	67.07
222.451	15.87
222.669	26.11
222.887	11.78
223.105	-0.51
223.323	-80.38
223.541	-0.51
223.759	9.73
223.977	-8.7
224.195	48.64
224.413	9.73
224.631	58.88
224.849	32.26
225.067	38.4
225.285	-4.61
225.503	67.07
225.721	-27.14
225.939	132.61
226.157	-8.7
226.375	73.21
226.592	34.3
226.81	1.54
227.028	-14.85
227.246	75.26
227.464	-8.7
227.682	-31.23
227.9	44.54
228.117	22.02
228.335	-4.61
228.553	50.69
228.771	-14.85
228.989	22.02
229.206	9.73
229.424	48.64
229.642	79.36
229.86	24.06
230.077	112.13
230.295	28.16
230.513	62.98
230.731	26.11
230.948	19.97
231.166	5.63
231.384	38.4
231.601	9.73
231.819	9.73
232.037	-12.8
232.254	-72.19
232.472	38.4
232.689	-14.85
232.907	114.17
233.125	44.54
233.342	11.78
233.56	42.5
233.777	34.3
233.995	75.26
234.213	67.07
234.43	-27.14
234.648	50.69
234.865	15.87
235.083	32.26
235.3	50.69
235.518	48.64
235.735	89.6
235.953	24.06
236.17	65.02
236.388	32.26
236.605	32.26
236.822	73.21
237.04	87.55
237.257	-6.66
237.475	24.06
237.692	-0.51
237.909	26.11
238.127	9.73
238.344	40.45
238.562	-31.23
238.779	-16.9
238.996	7.68
239.214	38.4
239.431	-47.62
239.648	42.5
239.865	-10.75
240.083	120.32
240.3	34.3
240.517	-2.56
240.735	-2.56
240.952	-2.56
241.169	89.6
241.386	30.21
241.603	48.64
241.821	5.63
242.038	83.45
242.255	-14.85
242.472	11.78
242.689	79.36
242.907	67.07
243.124	9.73
243.341	-10.75
243.558	-14.85
243.775	67.07
243.992	-57.86
244.209	83.45
244.426	105.98
244.643	153.09
244.86	24.06
245.078	24.06
245.295	28.16
245.512	89.6
245.729	56.83
245.946	26.11
246.163	42.5
246.38	26.11
246.597	15.87
246.814	38.4
247.031	26.11
247.248	67.07
247.464	30.21
247.681	-25.09
247.898	-0.51
248.115	77.31
248.332	-8.7
248.549	22.02
248.766	77.31
248.983	50.69
249.2	15.87
249.417	89.6
249.633	34.3
249.85	11.78
250.067	17.92
250.284	62.98
250.501	58.88
250.717	-14.85
250.934	-55.81
251.151	42.5
251.368	17.92
251.585	83.45
251.801	42.5
252.018	17.92
252.235	26.11
252.451	30.21
252.668	17.92
252.885	54.78
253.102	22.02
253.318	-8.7
253.535	1.54
253.752	-41.47
253.968	38.4
254.185	-37.38
254.401	44.54
254.618	26.11
254.835	-10.75
255.051	146.94
255.268	40.45
255.484	54.78
255.701	-4.61
255.917	67.07
256.134	-51.71
256.351	-14.85
256.567	7.68
256.784	148.99
257	-4.61
257.217	50.69
257.433	-43.52
257.65	40.45
257.866	17.92
258.082	-31.23
258.299	-31.23
258.515	89.6
258.732	17.92
258.948	-18.94
259.165	36.35
259.381	9.73
259.597	22.02
259.814	-41.47
260.03	54.78
260.246	38.4
260.463	50.69
260.679	91.65
260.895	9.73
261.112	13.82
261.328	-8.7
261.544	30.21
261.761	56.83
261.977	-33.28
262.193	-0.51
262.409	48.64
262.626	-2.56
262.842	-14.85
263.058	50.69
263.274	-8.7
263.49	-27.14
263.707	56.83
263.923	50.69
264.139	-2.56
264.355	15.87
264.571	30.21
264.787	-4.61
265.004	19.97
265.22	77.31
265.436	36.35
265.652	-47.62
265.868	15.87
266.084	13.82
266.3	-31.23
266.516	38.4
266.732	11.78
266.948	36.35
267.164	-55.81
267.38	99.84
267.596	56.83
267.812	124.41
268.028	7.68
268.244	26.11
268.46	15.87
268.676	81.41
268.892	114.17
269.108	26.11
269.324	67.07
269.54	-12.8
269.756	81.41
269.972	7.68
270.188	-61.95
270.403	7.68
270.619	91.65
270.835	-8.7
271.051	-33.28
271.267	83.45
271.483	30.21
271.698	7.68
271.914	116.22
272.13	124.41
272.346	-6.66
272.562	60.93
272.777	71.17
272.993	7.68
273.209	130.56
273.425	24.06
273.64	22.02
273.856	7.68
274.072	-25.09
274.287	-74.24
274.503	83.45
274.719	54.78
274.934	-20.99
275.15	-2.56
275.366	22.02
275.581	108.03
275.797	5.63
276.012	-33.28
276.228	44.54
276.444	-10.75
276.659	28.16
276.875	-49.66
277.09	42.5
277.306	22.02
277.521	30.21
277.737	-23.04
277.952	75.26
278.168	19.97
278.383	67.07
278.599	-14.85
278.814	124.41
279.03	87.55
279.245	134.65
279.461	38.4
279.676	89.6
279.892	-14.85
280.107	-33.28
280.322	11.78
280.538	34.3
280.753	95.74
280.969	1.54
281.184	-27.14
281.399	34.3
281.615	-39.42
281.83	81.41
282.045	-74.24
282.26	-25.09
282.476	34.3
282.691	77.31
282.906	46.59
283.122	101.89
283.337	19.97
283.552	7.68
283.767	24.06
283.983	-16.9
284.198	17.92
284.413	75.26
284.628	62.98
284.843	67.07
285.058	48.64
285.274	71.17
285.489	42.5
285.704	67.07
285.919	-4.61
286.134	-37.38
286.349	-6.66
286.564	5.63
286.779	65.02
286.995	58.88
287.21	-39.42
287.425	28.16
287.64	-39.42
287.855	44.54
288.07	24.06
288.285	75.26
288.5	114.17
288.715	5.63
288.93	-80.38
289.145	58.88
289.36	42.5
289.575	56.83
289.79	112.13
290.004	-27.14
290.219	54.78
290.434	-57.86
290.649	15.87
290.864	58.88
291.079	-12.8
291.294	120.32
291.509	32.26
291.724	38.4
291.938	65.02
292.153	3.58
292.368	42.5
292.583	-12.8
292.798	50.69
293.012	44.54
293.227	54.78
293.442	-39.42
293.657	-6.66
293.871	83.45
294.086	69.12
294.301	58.88
294.516	30.21
294.73	91.65
294.945	-72.19
295.16	42.5
295.374	81.41
295.589	42.5
295.804	46.59
296.018	34.3
296.233	40.45
296.447	161.28
296.662	13.82
296.877	-16.9
297.091	85.5
297.306	48.64
297.52	-27.14
297.735	22.02
297.949	77.31
298.164	38.4
298.378	62.98
298.593	73.21
298.807	19.97
299.022	42.5
299.236	60.93
299.451	7.68
299.665	22.02
299.88	48.64
300.094	42.5
300.309	26.11
300.523	9.73
300.737	1.54
300.952	24.06
301.166	26.11
301.381	50.69
301.595	58.88
301.809	50.69
302.024	9.73
302.238	34.3
302.452	60.93
302.667	34.3
302.881	22.02
303.095	112.13
303.309	26.11
303.524	-10.75
303.738	46.59
303.952	54.78
304.166	38.4
304.381	-43.52
304.595	60.93
304.809	30.21
305.023	54.78
305.237	1.54
305.452	71.17
305.666	58.88
305.88	30.21
306.094	73.21
306.308	71.17
306.522	126.46
306.736	42.5
306.95	97.79
307.164	42.5
307.379	114.17
307.593	24.06
307.807	34.3
308.021	58.88
308.235	62.98
308.449	67.07
308.663	-14.85
308.877	69.12
309.091	67.07
309.305	34.3
309.519	26.11
309.733	62.98
309.947	-14.85
310.161	62.98
310.374	140.8
310.588	42.5
310.802	13.82
311.016	-55.81
311.23	58.88
311.444	67.07
311.658	81.41
311.872	73.21
312.085	81.41
312.299	93.69
312.513	124.41
312.727	26.11
312.941	32.26
313.154	79.36
313.368	54.78
313.582	105.98
313.796	-23.04
314.009	26.11
314.223	44.54
314.437	-10.75
314.651	65.02
314.864	26.11
315.078	42.5
315.292	-0.51
315.505	50.69
315.719	19.97
315.933	38.4
316.146	50.69
316.36	54.78
316.573	132.61
316.787	22.02
317.001	-8.7
317.214	-20.99
317.428	62.98
317.641	65.02
317.855	-18.94
318.068	26.11
318.282	62.98
318.495	83.45
318.709	34.3
318.922	46.59
319.136	9.73
319.349	15.87
319.563	67.07
319.776	22.02
319.99	-43.52
320.203	89.6
320.417	7.68
320.63	89.6
320.843	67.07
321.057	42.5
321.27	24.06
321.483	42.5
321.697	65.02
321.91	36.35
322.124	83.45
322.337	75.26
322.55	36.35
322.763	120.32
322.977	28.16
323.19	-18.94
323.403	32.26
323.617	83.45
323.83	50.69
324.043	-39.42
324.256	34.3
324.469	56.83
324.683	112.13
324.896	54.78
325.109	75.26
325.322	24.06
325.535	44.54
325.748	136.7
325.962	42.5
326.175	44.54
326.388	87.55
326.601	-6.66
326.814	24.06
327.027	58.88
327.24	95.74
327.453	-20.99
327.666	97.79
327.879	38.4
328.092	-14.85
328.305	54.78
328.518	1.54
328.731	48.64
328.944	116.22
329.157	1.54
329.37	26.11
329.583	65.02
329.796	124.41
330.009	40.45
330.222	24.06
330.435	71.17
330.648	75.26
330.861	13.82
331.073	-20.99
331.286	99.84
331.499	-12.8
331.712	58.88
331.925	108.03
332.138	30.21
332.35	120.32
332.563	24.06
332.776	54.78
332.989	42.5
333.202	38.4
333.414	62.98
333.627	40.45
333.84	1.54
334.053	-6.66
334.265	67.07
334.478	42.5
334.691	17.92
334.903	13.82
335.116	50.69
335.329	75.26
335.541	34.3
335.754	89.6
335.966	5.63
336.179	30.21
336.392	58.88
336.604	-18.94
336.817	93.69
337.029	71.17
337.242	52.74
337.454	50.69
337.667	48.64
337.88	116.22
338.092	-20.99
338.305	42.5
338.517	-33.28
338.729	26.11
338.942	50.69
339.154	48.64
339.367	13.82
339.579	30.21
339.792	58.88
340.004	97.79
340.217	50.69
340.429	71.17
340.641	-27.14
340.854	-6.66
341.066	-43.52
341.278	38.4
341.491	79.36
341.703	56.83
341.915	3.58
342.128	32.26
342.34	17.92
342.552	56.83
342.764	9.73
342.977	48.64
343.189	26.11
343.401	87.55
343.613	9.73
343.826	26.11
344.038	26.11
344.25	32.26
344.462	34.3
344.674	5.63
344.886	38.4
345.099	38.4
345.311	9.73
345.523	-74.24
345.735	-68.09
345.947	42.5
346.159	34.3
346.371	-27.14
346.583	22.02
346.795	99.84
347.007	34.3
347.219	81.41
347.431	5.63
347.643	83.45
347.855	67.07
348.067	48.64
348.279	11.78
348.491	87.55
348.703	62.98
348.915	-57.86
349.127	9.73
349.339	56.83
349.551	-6.66
349.763	126.46
349.975	58.88
350.187	19.97
350.399	99.84
350.61	114.17
350.822	24.06
351.034	30.21
351.246	-23.04
351.458	73.21
351.669	-4.61
351.881	50.69
352.093	71.17
352.305	36.35
352.517	-6.66
352.728	65.02
352.94	128.51
353.152	36.35
353.363	30.21
353.575	26.11
353.787	48.64
353.999	-31.23
354.21	69.12
354.422	-37.38
354.633	87.55
354.845	-16.9
355.057	42.5
355.268	91.65
355.48	11.78
355.692	65.02
355.903	40.45
356.115	38.4
356.326	42.5
356.538	54.78
356.749	58.88
356.961	67.07
357.172	34.3
357.384	50.69
357.595	161.28
357.807	32.26
358.018	34.3
358.23	42.5
358.441	99.84
358.653	116.22
358.864	-6.66
359.075	-2.56
359.287	9.73
359.498	75.26
359.709	26.11
359.921	105.98
360.132	73.21
360.344	9.73
360.555	-107.01
360.766	30.21
360.977	89.6
361.189	42.5
361.4	50.69
361.611	77.31
361.823	130.56
362.034	26.11
362.245	-39.42
362.456	77.31
362.667	73.21
362.879	38.4
363.09	38.4
363.301	58.88
363.512	71.17
363.723	75.26
363.935	7.68
364.146	7.68
364.357	22.02
364.568	48.64
364.779	-35.33
364.99	56.83
365.201	46.59
365.412	101.89
365.623	73.21
365.834	-14.85
366.045	34.3
366.256	83.45
366.467	17.92
366.678	30.21
366.889	-18.94
367.1	67.07
367.311	50.69
367.522	62.98
367.733	32.26
367.944	62.98
368.155	-10.75
368.366	116.22
368.577	32.26
368.788	116.22
368.999	15.87
369.209	91.65
369.42	112.13
369.631	114.17
369.842	-16.9
370.053	-4.61
370.264	132.61
370.474	99.84
370.685	17.92
370.896	17.92
371.107	87.55
371.317	103.93
371.528	24.06
371.739	91.65
371.95	116.22
372.16	83.45
372.371	-10.75
372.582	30.21
372.792	62.98
373.003	34.3
373.214	22.02
373.424	46.59
373.635	15.87
373.846	101.89
374.056	67.07
374.267	52.74
374.477	67.07
374.688	32.26
374.898	40.45
375.109	54.78
375.319	79.36
375.53	60.93
375.74	5.63
375.951	7.68
376.161	-6.66
376.372	97.79
376.582	1.54
376.793	95.74
377.003	-66.05
377.214	85.5
377.424	91.65
377.635	-0.51
377.845	73.21
378.055	44.54
378.266	60.93
378.476	58.88
378.686	95.74
378.897	75.26
379.107	17.92
379.317	9.73
379.528	24.06
379.738	79.36
379.948	17.92
380.158	24.06
380.369	65.02
380.579	30.21
380.789	75.26
380.999	73.21
381.21	3.58
381.42	89.6
381.63	-18.94
381.84	46.59
382.05	77.31
382.261	62.98
382.471	34.3
382.681	112.13
382.891	26.11
383.101	120.32
383.311	-35.33
383.521	52.74
383.731	26.11
383.941	91.65
384.151	75.26
384.361	17.92
384.571	58.88
384.781	89.6
384.991	116.22
385.201	136.7
385.411	9.73
385.621	46.59
385.831	24.06
386.041	40.45
386.251	67.07
386.461	79.36
386.671	62.98
386.881	116.22
387.091	124.41
387.301	60.93
387.511	3.58
387.72	42.5
387.93	58.88
388.14	-14.85
388.35	62.98
388.56	79.36
388.769	58.88
388.979	-8.7
389.189	83.45
389.399	-12.8
389.609	79.36
389.818	-6.66
390.028	-6.66
390.238	36.35
390.447	30.21
390.657	126.46
390.867	67.07
391.076	65.02
391.286	30.21
391.496	69.12
391.705	77.31
391.915	67.07
392.125	87.55
392.334	44.54
392.544	148.99
392.753	114.17
392.963	17.92
393.172	87.55
393.382	26.11
393.591	185.85
393.801	103.93
394.01	120.32
394.22	89.6
394.429	38.4
394.639	54.78
394.848	19.97
395.058	202.24
395.267	126.46
395.477	89.6
395.686	75.26
395.895	101.89
396.105	228.86
396.314	112.13
396.524	122.37
396.733	75.26
396.942	83.45
397.152	89.6
397.361	97.79
397.57	58.88
397.78	97.79
397.989	130.56
398.198	110.08
398.407	62.98
398.617	91.65
398.826	79.36
399.035	124.41
399.244	126.46
399.453	142.85
399.663	187.9
399.872	173.57
400.081	157.18
400.29	173.57
400.499	42.5
400.708	124.41
400.917	151.04
401.127	30.21
401.336	58.88
401.545	140.8
401.754	163.33
401.963	69.12
402.172	126.46
402.381	116.22
402.59	148.99
402.799	126.46
403.008	235
403.217	116.22
403.426	194.05
403.635	95.74
403.844	189.95
404.053	165.37
404.262	42.5
404.471	124.41
404.68	187.9
404.888	179.71
405.097	91.65
405.306	97.79
405.515	222.72
405.724	140.8
405.933	214.52
406.142	216.57
406.35	163.33
406.559	173.57
406.768	177.66
406.977	296.44
407.185	235
407.394	237.05
407.603	155.13
407.812	179.71
408.02	247.29
408.229	214.52
408.438	212.48
408.646	245.24
408.855	292.35
409.064	206.33
409.272	251.39
409.481	296.44
409.69	263.68
409.898	261.63
410.107	312.83
410.315	380.41
410.524	327.16
410.733	341.5
410.941	394.75
411.15	388.6
411.358	427.51
411.567	476.66
411.775	407.03
411.984	404.99
412.192	470.52
412.401	441.85
412.609	531.96
412.818	587.26
413.026	542.2
413.234	515.58
413.443	482.81
413.651	562.68
413.86	546.3
414.068	693.75
414.276	757.24
414.485	609.78
414.693	714.23
414.901	820.72
415.11	835.06
415.318	796.15
415.526	898.55
415.734	888.31
415.943	787.96
416.151	910.83
416.359	976.37
416.567	955.89
416.776	902.64
416.984	1000.94
417.192	1091.06
417.4	1037.81
417.608	1062.38
417.817	1072.62
418.025	1132.01
418.233	1224.17
418.441	1050.1
418.649	1349.1
418.857	1437.16
419.065	1371.63
419.273	1312.24
419.481	1502.7
419.689	1590.76
419.897	1619.43
420.105	1695.21
420.313	1742.31
420.521	1773.03
420.729	1719.78
420.937	1758.69
421.145	1879.52
421.353	1891.81
421.561	2018.79
421.769	2063.84
421.977	2246.11
422.185	2260.45
422.393	2342.36
422.601	2518.49
422.809	2457.05
423.017	2500.06
423.224	2639.32
423.432	2733.53
423.64	2672.09
423.848	2913.75
424.056	2885.08
424.263	3155.41
424.471	3069.39
424.679	3245.52
424.887	3478.99
425.094	3571.15
425.302	3423.69
425.51	3614.15
425.718	3833.29
425.925	3784.13
426.133	3835.33
426.341	4089.28
426.548	4218.3
426.756	4292.03
426.964	4396.48
427.171	4617.66
427.379	4701.62
427.586	4611.51
427.794	4949.43
428.001	4996.53
428.209	5330.35
428.417	5346.73
428.624	5787.05
428.832	5660.07
429.039	5633.45
429.247	5733.8
429.454	6268.32
429.662	6589.85
429.869	6194.59
430.076	6634.91
430.284	6340
430.491	6784.41
430.699	7054.74
430.906	7038.36
431.114	7157.14
431.321	7601.55
431.528	7439.76
431.736	7998.85
431.943	8289.67
432.15	8289.67
432.358	8322.43
432.565	8805.75
432.772	8781.18
432.979	9256.31
433.187	9338.23
433.394	9454.96
433.601	10065.25
433.808	9850.22
434.016	10118.5
434.223	10421.6
434.43	10972.5
434.637	10837.34
434.844	11507.02
435.052	11754.83
435.259	11486.54
435.466	11601.23
435.673	11781.45
435.88	12533.06
436.087	13012.28
436.294	12903.74
436.501	12551.49
436.708	13061.43
436.915	13391.16
437.122	14136.62
437.329	13995.31
437.537	14359.84
437.743	14775.58
437.95	14544.16
438.157	15367.45
438.364	15871.25
438.571	15908.11
438.778	16004.36
438.985	17491.19
439.192	16706.82
439.399	17218.81
439.606	16913.66
439.813	17704.18
440.02	18666.72
440.227	18543.85
440.433	18314.47
440.64	19186.91
440.847	19221.72
441.054	19408.09
441.261	20507.85
441.467	20350.15
441.674	20763.84
441.881	21568.69
442.088	21714.1
442.294	21189.82
442.501	21834.93
442.708	22426.79
442.914	23272.6
443.121	24061.07
443.328	23553.18
443.534	25369.72
443.741	24722.57
443.948	23921.81
444.154	25857.14
444.361	25730.17
444.568	26242.16
444.774	25957.49
444.981	26133.62
445.187	27071.59
445.394	28111.96
445.6	28191.83
445.807	30317.62
446.013	29004.87
446.22	29852.73
446.426	30829.61
446.633	31185.96
446.839	32414.74
447.046	30716.97
447.252	32525.33
447.459	32623.63
447.665	32670.73
447.871	33805.31
448.078	35382.24
448.284	33555.46
448.491	34450.42
448.697	35986.39
448.903	36412.37
449.11	36277.21
449.316	35759.07
449.522	37016.52
449.728	37415.88
449.935	38005.69
450.141	37860.29
450.347	38448.05
450.553	37202.89
450.76	38190.01
450.966	39095.21
451.172	38615.99
451.378	39439.27
451.584	38798.26
451.791	39463.85
451.997	39521.19
452.203	40289.18
452.409	39895.97
452.615	39693.22
452.821	38491.06
453.027	37632.96
453.233	40123.29
453.44	38478.77
453.646	38677.43
453.852	38710.19
454.058	39144.36
454.264	38050.75
454.47	39246.76
454.676	37784.51
454.882	38972.33
455.088	35718.11
455.294	36465.62
455.5	36932.56
455.705	37362.63
455.911	35294.18
456.117	34989.03
456.323	34354.16
456.529	32756.75
456.735	33979.39
456.941	33393.67
457.147	32635.92
457.352	31745.05
457.558	31198.24
457.764	31349.79
457.97	30512.17
458.176	30067.77
458.381	29893.69
458.587	28107.86
458.793	28388.43
458.999	26868.84
459.204	28697.67
459.41	28077.14
459.616	26502.25
459.821	26424.43
460.027	26229.87
460.233	25441.4
460.438	24360.08
460.644	24605.83
460.85	23405.72
461.055	23112.86
461.261	23139.49
461.466	21296.32
461.672	20518.09
461.878	21886.13
462.083	20858.05
462.289	20251.85
462.494	19963.09
462.7	19119.32
462.905	18613.48
463.111	19213.53
463.316	19393.75
463.522	19029.21
463.727	19154.14
463.932	19113.18
464.138	18838.75
464.343	18859.23
464.549	18756.83
464.754	18554.08
464.959	18744.55
465.165	18525.41
465.37	17816.82
465.575	17306.87
465.781	18019.57
465.986	18130.16
466.191	17444.09
466.397	17067.26
466.602	16608.51
466.807	17073.4
467.012	17069.31
467.218	17028.35
467.423	16596.23
467.628	16860.41
