Data from USB4F104151__9__11-29-37-368.txt Node

Date: Fri Mar 14 11:29:37 EDT 2025
User: louis
Spectrometer: USB4F10415
Trigger mode: 4
Integration Time (sec): 5.000000E-2
Scans to average: 1
Electric dark correction enabled: true
Nonlinearity correction enabled: false
Boxcar width: 0
XAxis mode: Wavelengths
Number of Pixels in Spectrum: 3648
>>>>>Begin Spectral Data<<<<<
178.204	-144.72
178.424	-144.72
178.644	-144.72
178.864	-122.2
179.084	-48.47
179.304	29.35
179.524	-44.37
179.744	-27.99
179.964	4.78
180.184	21.16
180.404	-3.41
180.624	10.92
180.844	45.74
181.064	-68.95
181.283	31.4
181.503	-44.37
181.723	45.74
181.943	-48.47
182.163	47.79
182.383	2.73
182.602	86.7
182.822	125.61
183.042	86.7
183.262	-68.95
183.482	15.02
183.701	-3.41
183.921	68.27
184.141	103.08
184.361	47.79
184.58	78.51
184.8	78.51
185.02	62.12
185.239	12.97
185.459	92.84
185.679	64.17
185.898	17.07
186.118	29.35
186.338	101.03
186.557	27.31
186.777	-21.84
186.997	107.18
187.216	27.31
187.436	66.22
187.655	27.31
187.875	92.84
188.095	-15.7
188.314	78.51
188.534	119.46
188.753	88.75
188.973	92.84
189.192	29.35
189.412	41.64
189.631	45.74
189.851	66.22
190.07	70.31
190.29	-32.08
190.509	-19.8
190.729	27.31
190.948	27.31
191.168	168.62
191.387	82.6
191.607	-5.46
191.826	17.07
192.045	76.46
192.265	21.16
192.484	70.31
192.704	23.21
192.923	-30.04
193.142	113.32
193.362	53.93
193.581	113.32
193.8	43.69
194.02	74.41
194.239	62.12
194.458	58.03
194.678	12.97
194.897	-3.41
195.116	39.59
195.335	53.93
195.555	27.31
195.774	64.17
195.993	41.64
196.212	58.03
196.432	-17.75
196.651	70.31
196.87	4.78
197.089	58.03
197.308	47.79
197.528	-13.65
197.747	-120.15
197.966	29.35
198.185	115.37
198.404	53.93
198.623	53.93
198.842	55.98
199.062	53.93
199.281	144.04
199.5	74.41
199.719	-44.37
199.938	58.03
200.157	66.22
200.376	2.73
200.595	51.88
200.814	37.55
201.033	-13.65
201.252	103.08
201.471	84.65
201.69	37.55
201.909	117.42
202.128	94.89
202.347	55.98
202.566	25.26
202.785	41.64
203.004	-87.38
203.223	160.42
203.442	-23.89
203.661	-32.08
203.879	107.18
204.098	103.08
204.317	-30.04
204.536	27.31
204.755	25.26
204.974	101.03
205.193	49.83
205.411	123.56
205.63	-15.7
205.849	78.51
206.068	29.35
206.287	15.02
206.505	76.46
206.724	21.16
206.943	96.94
207.162	21.16
207.381	35.5
207.599	12.97
207.818	33.45
208.037	27.31
208.255	76.46
208.474	29.35
208.693	76.46
208.911	47.79
209.13	29.35
209.349	33.45
209.567	68.27
209.786	58.03
210.005	47.79
210.223	111.27
210.442	-38.23
210.661	84.65
210.879	4.78
211.098	64.17
211.316	66.22
211.535	45.74
211.753	27.31
211.972	66.22
212.191	78.51
212.409	21.16
212.628	66.22
212.846	15.02
213.065	70.31
213.283	72.36
213.502	37.55
213.72	53.93
213.938	-19.8
214.157	31.4
214.375	94.89
214.594	-25.94
214.812	78.51
215.031	33.45
215.249	68.27
215.467	4.78
215.686	37.55
215.904	66.22
216.122	-3.41
216.341	53.93
216.559	0.68
216.778	4.78
216.996	53.93
217.214	51.88
217.432	39.59
217.651	39.59
217.869	76.46
218.087	86.7
218.306	35.5
218.524	64.17
218.742	10.92
218.96	27.31
219.179	-79.19
219.397	111.27
219.615	88.75
219.833	21.16
220.051	78.51
220.27	60.07
220.488	35.5
220.706	103.08
220.924	25.26
221.142	2.73
221.36	10.92
221.578	103.08
221.796	17.07
222.015	-7.51
222.233	49.83
222.451	72.36
222.669	-3.41
222.887	51.88
223.105	21.16
223.323	55.98
223.541	17.07
223.759	-3.41
223.977	-46.42
224.195	70.31
224.413	43.69
224.631	-3.41
224.849	0.68
225.067	90.79
225.285	-66.9
225.503	-44.37
225.721	10.92
225.939	78.51
226.157	8.87
226.375	70.31
226.592	94.89
226.81	-5.46
227.028	62.12
227.246	94.89
227.464	51.88
227.682	86.7
227.9	2.73
228.117	101.03
228.335	60.07
228.553	92.84
228.771	-5.46
228.989	35.5
229.206	49.83
229.424	76.46
229.642	15.02
229.86	58.03
230.077	84.65
230.295	27.31
230.513	45.74
230.731	70.31
230.948	92.84
231.166	86.7
231.384	68.27
231.601	84.65
231.819	76.46
232.037	-11.61
232.254	60.07
232.472	-3.41
232.689	53.93
232.907	43.69
233.125	-5.46
233.342	-11.61
233.56	58.03
233.777	-3.41
233.995	35.5
234.213	-27.99
234.43	66.22
234.648	98.99
234.865	86.7
235.083	27.31
235.3	103.08
235.518	72.36
235.735	47.79
235.953	47.79
236.17	-5.46
236.388	12.97
236.605	12.97
236.822	51.88
237.04	27.31
237.257	-30.04
237.475	35.5
237.692	37.55
237.909	17.07
238.127	17.07
238.344	144.04
238.562	37.55
238.779	2.73
238.996	27.31
239.214	6.83
239.431	98.99
239.648	-15.7
239.865	78.51
240.083	94.89
240.3	-48.47
240.517	29.35
240.735	80.55
240.952	70.31
241.169	49.83
241.386	17.07
241.603	10.92
241.821	8.87
242.038	70.31
242.255	90.79
242.472	-19.8
242.689	103.08
242.907	25.26
243.124	62.12
243.341	41.64
243.558	15.02
243.775	8.87
243.992	8.87
244.209	60.07
244.426	17.07
244.643	78.51
244.86	31.4
245.078	119.46
245.295	62.12
245.512	19.11
245.729	-19.8
245.946	41.64
246.163	8.87
246.38	8.87
246.597	53.93
246.814	-23.89
247.031	29.35
247.248	45.74
247.464	101.03
247.681	8.87
247.898	49.83
248.115	49.83
248.332	-3.41
248.549	117.42
248.766	70.31
248.983	47.79
249.2	41.64
249.417	78.51
249.633	6.83
249.85	82.6
250.067	78.51
250.284	58.03
250.501	35.5
250.717	98.99
250.934	19.11
251.151	0.68
251.368	62.12
251.585	109.23
251.801	10.92
252.018	41.64
252.235	60.07
252.451	6.83
252.668	90.79
252.885	68.27
253.102	62.12
253.318	12.97
253.535	27.31
253.752	35.5
253.968	-11.61
254.185	-30.04
254.401	62.12
254.618	31.4
254.835	88.75
255.051	131.75
255.268	15.02
255.484	127.66
255.701	-15.7
255.917	135.85
256.134	21.16
256.351	10.92
256.567	19.11
256.784	0.68
257	2.73
257.217	45.74
257.433	-27.99
257.65	68.27
257.866	49.83
258.082	29.35
258.299	21.16
258.515	10.92
258.732	-13.65
258.948	60.07
259.165	-3.41
259.381	62.12
259.597	15.02
259.814	6.83
260.03	21.16
260.246	33.45
260.463	111.27
260.679	88.75
260.895	53.93
261.112	76.46
261.328	6.83
261.544	41.64
261.761	162.47
261.977	53.93
262.193	23.21
262.409	37.55
262.626	8.87
262.842	74.41
263.058	-3.41
263.274	49.83
263.49	31.4
263.707	86.7
263.923	70.31
264.139	35.5
264.355	96.94
264.571	86.7
264.787	68.27
265.004	103.08
265.22	62.12
265.436	4.78
265.652	55.98
265.868	-21.84
266.084	19.11
266.3	4.78
266.516	-19.8
266.732	64.17
266.948	15.02
267.164	62.12
267.38	111.27
267.596	70.31
267.812	33.45
268.028	78.51
268.244	70.31
268.46	62.12
268.676	23.21
268.892	109.23
269.108	-7.51
269.324	0.68
269.54	-17.75
269.756	64.17
269.972	60.07
270.188	37.55
270.403	-3.41
270.619	2.73
270.835	45.74
271.051	94.89
271.267	35.5
271.483	27.31
271.698	127.66
271.914	8.87
272.13	6.83
272.346	21.16
272.562	21.16
272.777	43.69
272.993	31.4
273.209	33.45
273.425	127.66
273.64	17.07
273.856	115.37
274.072	-56.66
274.287	-32.08
274.503	10.92
274.719	101.03
274.934	-19.8
275.15	25.26
275.366	27.31
275.581	8.87
275.797	78.51
276.012	84.65
276.228	66.22
276.444	53.93
276.659	123.56
276.875	72.36
277.09	45.74
277.306	92.84
277.521	58.03
277.737	17.07
277.952	41.64
278.168	33.45
278.383	58.03
278.599	-30.04
278.814	86.7
279.03	8.87
279.245	123.56
279.461	-38.23
279.676	82.6
279.892	45.74
280.107	-46.42
280.322	17.07
280.538	64.17
280.753	86.7
280.969	58.03
281.184	39.59
281.399	107.18
281.615	51.88
281.83	66.22
282.045	33.45
282.26	119.46
282.476	45.74
282.691	84.65
282.906	62.12
283.122	53.93
283.337	37.55
283.552	53.93
283.767	-36.18
283.983	21.16
284.198	43.69
284.413	43.69
284.628	31.4
284.843	84.65
285.058	78.51
285.274	45.74
285.489	-38.23
285.704	53.93
285.919	33.45
286.134	62.12
286.349	12.97
286.564	12.97
286.779	107.18
286.995	-36.18
287.21	49.83
287.425	78.51
287.64	41.64
287.855	45.74
288.07	-32.08
288.285	51.88
288.5	62.12
288.715	35.5
288.93	29.35
289.145	-3.41
289.36	98.99
289.575	78.51
289.79	137.9
290.004	62.12
290.219	58.03
290.434	33.45
290.649	43.69
290.864	-1.37
291.079	-36.18
291.294	10.92
291.509	94.89
291.724	4.78
291.938	35.5
292.153	76.46
292.368	2.73
292.583	-13.65
292.798	94.89
293.012	70.31
293.227	55.98
293.442	33.45
293.657	90.79
293.871	101.03
294.086	90.79
294.301	82.6
294.516	113.32
294.73	37.55
294.945	29.35
295.16	4.78
295.374	94.89
295.589	80.55
295.804	15.02
296.018	17.07
296.233	90.79
296.447	37.55
296.662	10.92
296.877	70.31
297.091	125.61
297.306	76.46
297.52	-13.65
297.735	49.83
297.949	37.55
298.164	53.93
298.378	31.4
298.593	-19.8
298.807	-17.75
299.022	107.18
299.236	70.31
299.451	64.17
299.665	41.64
299.88	92.84
300.094	66.22
300.309	2.73
300.523	64.17
300.737	66.22
300.952	90.79
301.166	92.84
301.381	62.12
301.595	35.5
301.809	37.55
302.024	53.93
302.238	10.92
302.452	62.12
302.667	41.64
302.881	111.27
303.095	84.65
303.309	84.65
303.524	19.11
303.738	72.36
303.952	17.07
304.166	17.07
304.381	-36.18
304.595	45.74
304.809	-52.56
305.023	4.78
305.237	82.6
305.452	49.83
305.666	60.07
305.88	47.79
306.094	25.26
306.308	45.74
306.522	60.07
306.736	68.27
306.95	111.27
307.164	88.75
307.379	84.65
307.593	-19.8
307.807	84.65
308.021	45.74
308.235	62.12
308.449	29.35
308.663	39.59
308.877	107.18
309.091	31.4
309.305	35.5
309.519	2.73
309.733	51.88
309.947	2.73
310.161	62.12
310.374	98.99
310.588	66.22
310.802	-46.42
311.016	-5.46
311.23	45.74
311.444	-3.41
311.658	-5.46
311.872	88.75
312.085	12.97
312.299	127.66
312.513	51.88
312.727	29.35
312.941	21.16
313.154	62.12
313.368	119.46
313.582	49.83
313.796	76.46
314.009	62.12
314.223	70.31
314.437	64.17
314.651	19.11
314.864	62.12
315.078	35.5
315.292	21.16
315.505	4.78
315.719	43.69
315.933	45.74
316.146	90.79
316.36	-3.41
316.573	127.66
316.787	10.92
317.001	101.03
317.214	78.51
317.428	53.93
317.641	35.5
317.855	62.12
318.068	-3.41
318.282	-19.8
318.495	94.89
318.709	-19.8
318.922	-11.61
319.136	96.94
319.349	43.69
319.563	86.7
319.776	78.51
319.99	70.31
320.203	131.75
320.417	-13.65
320.63	27.31
320.843	158.38
321.057	101.03
321.27	113.32
321.483	88.75
321.697	158.38
321.91	-11.61
322.124	4.78
322.337	23.21
322.55	-15.7
322.763	33.45
322.977	37.55
323.19	-7.51
323.403	72.36
323.617	33.45
323.83	103.08
324.043	21.16
324.256	12.97
324.469	27.31
324.683	78.51
324.896	10.92
325.109	68.27
325.322	0.68
325.535	94.89
325.748	49.83
325.962	60.07
326.175	37.55
326.388	12.97
326.601	37.55
326.814	53.93
327.027	123.56
327.24	113.32
327.453	-7.51
327.666	115.37
327.879	62.12
328.092	33.45
328.305	43.69
328.518	31.4
328.731	78.51
328.944	117.42
329.157	25.26
329.37	-27.99
329.583	88.75
329.796	70.31
330.009	-15.7
330.222	127.66
330.435	37.55
330.648	103.08
330.861	58.03
331.073	74.41
331.286	21.16
331.499	86.7
331.712	-60.76
331.925	17.07
332.138	17.07
332.35	94.89
332.563	-17.75
332.776	94.89
332.989	41.64
333.202	113.32
333.414	10.92
333.627	139.94
333.84	60.07
334.053	25.26
334.265	53.93
334.478	-5.46
334.691	-21.84
334.903	8.87
335.116	82.6
335.329	62.12
335.541	29.35
335.754	86.7
335.966	98.99
336.179	92.84
336.392	41.64
336.604	-19.8
336.817	35.5
337.029	31.4
337.242	27.31
337.454	62.12
337.667	19.11
337.88	33.45
338.092	-5.46
338.305	125.61
338.517	-3.41
338.729	72.36
338.942	90.79
339.154	35.5
339.367	-32.08
339.579	62.12
339.792	88.75
340.004	70.31
340.217	45.74
340.429	68.27
340.641	15.02
340.854	60.07
341.066	76.46
341.278	43.69
341.491	107.18
341.703	19.11
341.915	78.51
342.128	68.27
342.34	45.74
342.552	-36.18
342.764	-7.51
342.977	43.69
343.189	53.93
343.401	86.7
343.613	27.31
343.826	92.84
344.038	-19.8
344.25	53.93
344.462	74.41
344.674	154.28
344.886	25.26
345.099	53.93
345.311	70.31
345.523	78.51
345.735	-3.41
345.947	92.84
346.159	60.07
346.371	82.6
346.583	62.12
346.795	125.61
347.007	98.99
347.219	-40.28
347.431	41.64
347.643	90.79
347.855	62.12
348.067	105.13
348.279	-19.8
348.491	49.83
348.703	78.51
348.915	33.45
349.127	17.07
349.339	41.64
349.551	41.64
349.763	53.93
349.975	35.5
350.187	41.64
350.399	94.89
350.61	21.16
350.822	37.55
351.034	35.5
351.246	-9.56
351.458	49.83
351.669	74.41
351.881	117.42
352.093	105.13
352.305	12.97
352.517	101.03
352.728	168.62
352.94	53.93
353.152	78.51
353.363	62.12
353.575	29.35
353.787	168.62
353.999	125.61
354.21	82.6
354.422	25.26
354.633	39.59
354.845	-5.46
355.057	76.46
355.268	58.03
355.48	111.27
355.692	62.12
355.903	-21.84
356.115	33.45
356.326	68.27
356.538	178.86
356.749	45.74
356.961	94.89
357.172	31.4
357.384	29.35
357.595	107.18
357.807	94.89
358.018	33.45
358.23	25.26
358.441	29.35
358.653	10.92
358.864	25.26
359.075	37.55
359.287	35.5
359.498	166.57
359.709	62.12
359.921	37.55
360.132	33.45
360.344	62.12
360.555	62.12
360.766	33.45
360.977	41.64
361.189	84.65
361.4	4.78
361.611	82.6
361.823	37.55
362.034	33.45
362.245	37.55
362.456	4.78
362.667	78.51
362.879	21.16
363.09	53.93
363.301	58.03
363.512	49.83
363.723	51.88
363.935	70.31
364.146	90.79
364.357	72.36
364.568	111.27
364.779	27.31
364.99	111.27
365.201	119.46
365.412	-19.8
365.623	-52.56
365.834	29.35
366.045	76.46
366.256	92.84
366.467	84.65
366.678	25.26
366.889	127.66
367.1	49.83
367.311	12.97
367.522	17.07
367.733	96.94
367.944	78.51
368.155	70.31
368.366	-13.65
368.577	74.41
368.788	43.69
368.999	33.45
369.209	60.07
369.42	90.79
369.631	176.81
369.842	49.83
370.053	33.45
370.264	49.83
370.474	-13.65
370.685	121.51
370.896	17.07
371.107	111.27
371.317	62.12
371.528	53.93
371.739	185
371.95	74.41
372.16	84.65
372.371	35.5
372.582	92.84
372.792	86.7
373.003	-9.56
373.214	107.18
373.424	98.99
373.635	45.74
373.846	66.22
374.056	62.12
374.267	94.89
374.477	37.55
374.688	10.92
374.898	33.45
375.109	21.16
375.319	90.79
375.53	62.12
375.74	70.31
375.951	94.89
376.161	45.74
376.372	172.71
376.582	17.07
376.793	82.6
377.003	4.78
377.214	117.42
377.424	90.79
377.635	47.79
377.845	-44.37
378.055	168.62
378.266	-27.99
378.476	35.5
378.686	98.99
378.897	76.46
379.107	51.88
379.317	25.26
379.528	111.27
379.738	47.79
379.948	19.11
380.158	37.55
380.369	74.41
380.579	41.64
380.789	4.78
380.999	156.33
381.21	125.61
381.42	74.41
381.63	39.59
381.84	68.27
382.05	121.51
382.261	17.07
382.471	68.27
382.681	-21.84
382.891	115.37
383.101	82.6
383.311	111.27
383.521	-5.46
383.731	86.7
383.941	135.85
384.151	19.11
384.361	47.79
384.571	47.79
384.781	21.16
384.991	113.32
385.201	133.8
385.411	78.51
385.621	98.99
385.831	45.74
386.041	25.26
386.251	58.03
386.461	146.09
386.671	119.46
386.881	25.26
387.091	2.73
387.301	29.35
387.511	43.69
387.72	92.84
387.93	92.84
388.14	66.22
388.35	17.07
388.56	209.58
388.769	101.03
388.979	125.61
389.189	66.22
389.399	141.99
389.609	86.7
389.818	107.18
390.028	60.07
390.238	144.04
390.447	45.74
390.657	68.27
390.867	49.83
391.076	45.74
391.286	-3.41
391.496	53.93
391.705	164.52
391.915	166.57
392.125	144.04
392.334	-21.84
392.544	62.12
392.753	150.18
392.963	4.78
393.172	53.93
393.382	68.27
393.591	160.42
393.801	55.98
394.01	123.56
394.22	92.84
394.429	82.6
394.639	84.65
394.848	156.33
395.058	64.17
395.267	66.22
395.477	64.17
395.686	86.7
395.895	90.79
396.105	137.9
396.314	51.88
396.524	76.46
396.733	123.56
396.942	178.86
397.152	150.18
397.361	101.03
397.57	98.99
397.78	156.33
397.989	62.12
398.198	135.85
398.407	187.05
398.617	119.46
398.826	117.42
399.035	60.07
399.244	31.4
399.453	144.04
399.663	154.28
399.872	144.04
400.081	62.12
400.29	78.51
400.499	133.8
400.708	76.46
400.917	135.85
401.127	78.51
401.336	107.18
401.545	131.75
401.754	107.18
401.963	168.62
402.172	156.33
402.381	82.6
402.59	141.99
402.799	158.38
403.008	150.18
403.217	70.31
403.426	193.19
403.635	133.8
403.844	129.7
404.053	62.12
404.262	154.28
404.471	207.53
404.68	172.71
404.888	193.19
405.097	76.46
405.306	164.52
405.515	199.34
405.724	127.66
405.933	217.77
406.142	195.24
406.35	168.62
406.559	125.61
406.768	250.53
406.977	234.15
407.185	158.38
407.394	225.96
407.603	185
407.812	250.53
408.02	281.25
408.229	205.48
408.438	238.25
408.646	217.77
408.855	266.92
409.064	266.92
409.272	232.1
409.481	221.86
409.69	232.1
409.898	281.25
410.107	223.91
410.315	289.45
410.524	332.45
410.733	301.73
410.941	248.49
411.15	336.55
411.358	295.59
411.567	447.14
411.775	377.51
411.984	422.56
412.192	410.28
412.401	418.47
412.609	527.01
412.818	445.09
413.026	422.56
413.234	434.85
413.443	445.09
413.651	475.81
413.86	594.59
414.068	737.95
414.276	518.82
414.485	524.96
414.693	635.55
414.901	613.03
415.11	660.13
415.318	656.03
415.526	709.28
415.734	723.62
415.943	772.77
416.151	799.39
416.359	696.99
416.567	873.12
416.776	914.08
416.984	791.2
417.192	887.45
417.4	1028.76
417.608	916.12
417.817	922.27
418.025	965.28
418.233	1088.15
418.441	1079.96
418.649	1139.35
418.857	1204.89
419.065	1204.89
419.273	1125.02
419.481	1270.42
419.689	1327.77
419.897	1389.21
420.105	1274.52
420.313	1495.7
420.521	1536.66
420.729	1512.08
420.937	1503.89
421.145	1630.87
421.353	1774.22
421.561	1811.09
421.769	1839.76
421.977	1796.75
422.185	1870.48
422.393	1989.26
422.601	2114.19
422.809	2071.18
423.017	2097.8
423.224	2261.64
423.432	2337.41
423.64	2323.08
423.848	2454.15
424.056	2478.72
424.263	2585.22
424.471	2663.04
424.679	2624.13
424.887	2714.24
425.094	2880.13
425.302	3074.68
425.51	3043.96
425.718	3172.99
425.925	3109.5
426.133	3279.48
426.341	3297.91
426.548	3580.53
426.756	3623.54
426.964	3609.2
427.171	3723.89
427.379	4047.47
427.586	4026.99
427.794	4115.05
428.001	4319.85
428.209	4530.79
428.417	4467.3
428.624	4643.43
428.832	4672.1
429.039	4649.57
429.247	4817.51
429.454	5057.12
429.662	5583.45
429.869	5169.76
430.076	5610.07
430.284	5485.14
430.491	5648.98
430.699	6093.39
430.906	5849.68
431.114	5947.98
431.321	6148.68
431.528	6482.5
431.736	6842.95
431.943	7117.37
432.15	6869.57
432.358	6890.05
432.565	7242.3
432.772	7279.16
432.979	7922.23
433.187	7729.72
433.394	7770.68
433.601	8270.38
433.808	8307.24
434.016	8376.87
434.223	8890.91
434.43	9189.92
434.637	9099.81
434.844	9583.13
435.052	9724.44
435.259	9785.88
435.466	9933.33
435.673	9712.15
435.88	10611.21
436.087	11012.61
436.294	10969.6
436.501	10916.36
436.708	10971.65
436.915	11334.14
437.122	11919.86
437.329	11899.38
437.537	12083.7
437.743	12378.61
437.95	12474.86
438.157	12855.78
438.364	13230.56
438.571	13130.21
438.778	13308.38
438.985	14688.71
439.192	14029.27
439.399	14590.41
439.606	13988.31
439.813	14957
440.02	15675.84
440.227	15403.46
440.433	15712.7
440.64	15946.17
440.847	16107.96
441.054	16361.9
441.261	17267.11
441.467	17293.73
441.674	17396.13
441.881	17994.14
442.088	18100.63
442.294	17805.72
442.501	18219.41
442.708	18801.04
442.914	19421.57
443.121	20547.95
443.328	19765.63
443.534	21258.6
443.741	20490.61
443.948	20302.2
444.154	21963.1
444.361	21721.44
444.568	21782.88
444.774	21582.18
444.981	22042.97
445.187	22872.4
445.394	23687.49
445.6	23439.68
445.807	25819.42
446.013	24647.99
446.22	25076.01
446.426	26073.37
446.633	25997.6
446.839	26958.1
447.046	26026.27
447.252	27371.78
447.459	27347.21
447.665	27179.28
447.871	28520.7
448.078	29806.82
448.284	28229.88
448.491	29098.22
448.697	30144.73
448.903	30746.84
449.11	30822.61
449.316	29964.51
449.522	30755.03
449.728	31619.27
449.935	32010.43
450.141	31744.2
450.347	32344.25
450.553	31240.4
450.76	31652.04
450.966	32874.68
451.172	32415.93
451.378	33325.23
451.584	32952.5
451.791	33253.55
451.997	33290.41
452.203	33431.72
452.409	33613.99
452.615	33695.91
452.821	32385.21
453.027	31834.31
453.233	33454.25
453.44	32444.6
453.646	32172.22
453.852	32858.29
454.058	33292.46
454.264	31846.6
454.47	32757.94
454.676	31523.02
454.882	32995.51
455.088	30253.28
455.294	30593.24
455.5	31279.31
455.705	31375.56
455.911	29989.09
456.117	29378.79
456.323	29016.3
456.529	27404.55
456.735	28707.06
456.941	27957.5
457.147	27451.66
457.352	26540.31
457.558	26087.71
457.764	26388.76
457.97	25803.04
458.176	24967.47
458.381	25090.35
458.587	24086.84
458.793	24191.29
458.999	22387.03
459.204	24224.06
459.41	23310.66
459.616	21676.38
459.821	21961.05
460.027	21991.77
460.233	21571.94
460.438	20400.5
460.644	20783.47
460.85	19747.2
461.055	19356.04
461.261	19091.85
461.466	18014.62
461.672	17303.97
461.878	18682.25
462.083	17535.39
462.289	17269.16
462.494	16941.48
462.7	16146.87
462.905	15583.68
463.111	16216.5
463.316	16429.49
463.522	16062.9
463.727	15956.41
463.932	15983.03
464.138	15751.61
464.343	15739.32
464.549	15292.87
464.754	16175.54
464.959	15722.94
465.165	15763.9
465.37	14756.3
465.575	14680.52
465.781	15151.56
465.986	15421.89
466.191	14799.3
466.397	14393.81
466.602	13861.34
466.807	14090.71
467.012	14062.04
467.218	14320.08
