Data from USB4F104151__55__11-30-36-962.txt Node

Date: Fri Mar 14 11:30:36 EDT 2025
User: louis
Spectrometer: USB4F10415
Trigger mode: 4
Integration Time (sec): 5.000000E-2
Scans to average: 1
Electric dark correction enabled: true
Nonlinearity correction enabled: false
Boxcar width: 0
XAxis mode: Wavelengths
Number of Pixels in Spectrum: 3648
>>>>>Begin Spectral Data<<<<<
178.204	-183.29
178.424	-183.29
178.644	-183.29
178.864	-168.96
179.084	-148.48
179.304	56.32
179.524	35.84
179.744	-107.52
179.964	25.6
180.184	7.17
180.404	-27.65
180.624	35.84
180.844	-21.5
181.064	-25.6
181.283	64.51
181.503	-9.22
181.723	-33.79
181.943	-74.75
182.163	76.8
182.383	9.22
182.602	-11.26
182.822	56.32
183.042	-19.46
183.262	35.84
183.482	29.7
183.701	29.7
183.921	7.17
184.141	-29.7
184.361	58.37
184.58	11.26
184.8	19.46
185.02	-66.56
185.239	44.03
185.459	121.85
185.679	64.51
185.898	-103.42
186.118	76.8
186.338	39.94
186.557	58.37
186.777	-21.5
186.997	50.18
187.216	-1.02
187.436	37.89
187.655	31.74
187.875	-19.46
188.095	35.84
188.314	35.84
188.534	9.22
188.753	39.94
188.973	3.07
189.192	19.46
189.412	-21.5
189.631	58.37
189.851	1.02
190.07	-1.02
190.29	39.94
190.509	48.13
190.729	21.5
190.948	58.37
191.168	138.24
191.387	117.76
191.607	-5.12
191.826	-23.55
192.045	29.7
192.265	46.08
192.484	66.56
192.704	54.27
192.923	39.94
193.142	101.37
193.362	72.7
193.581	72.7
193.8	19.46
194.02	21.5
194.239	-17.41
194.458	-7.17
194.678	-9.22
194.897	44.03
195.116	33.79
195.335	13.31
195.555	-25.6
195.774	-39.94
195.993	15.36
196.212	-13.31
196.432	13.31
196.651	25.6
196.87	-33.79
197.089	128
197.308	15.36
197.528	70.65
197.747	-64.51
197.966	-3.07
198.185	72.7
198.404	44.03
198.623	46.08
198.842	-1.02
199.062	-13.31
199.281	115.71
199.5	37.89
199.719	29.7
199.938	39.94
200.157	-25.6
200.376	-21.5
200.595	60.42
200.814	7.17
201.033	-33.79
201.252	64.51
201.471	5.12
201.69	37.89
201.909	23.55
202.128	64.51
202.347	7.17
202.566	11.26
202.785	17.41
203.004	64.51
203.223	87.04
203.442	48.13
203.661	-25.6
203.879	31.74
204.098	25.6
204.317	-78.85
204.536	-1.02
204.755	21.5
204.974	70.65
205.193	19.46
205.411	56.32
205.63	-50.18
205.849	15.36
206.068	-5.12
206.287	11.26
206.505	39.94
206.724	-25.6
206.943	23.55
207.162	-27.65
207.381	-17.41
207.599	-11.26
207.818	50.18
208.037	48.13
208.255	15.36
208.474	-11.26
208.693	72.7
208.911	3.07
209.13	74.75
209.349	35.84
209.567	-17.41
209.786	132.09
210.005	-25.6
210.223	41.98
210.442	11.26
210.661	-25.6
210.879	15.36
211.098	13.31
211.316	-13.31
211.535	31.74
211.753	-31.74
211.972	-29.7
212.191	-21.5
212.409	19.46
212.628	-15.36
212.846	3.07
213.065	21.5
213.283	37.89
213.502	31.74
213.72	-13.31
213.938	-3.07
214.157	44.03
214.375	72.7
214.594	64.51
214.812	-17.41
215.031	15.36
215.249	-23.55
215.467	123.9
215.686	21.5
215.904	5.12
216.122	-19.46
216.341	21.5
216.559	-33.79
216.778	11.26
216.996	64.51
217.214	78.85
217.432	-11.26
217.651	-33.79
217.869	56.32
218.087	-1.02
218.306	48.13
218.524	44.03
218.742	15.36
218.96	62.46
219.179	25.6
219.397	23.55
219.615	93.18
219.833	54.27
220.051	44.03
220.27	56.32
220.488	27.65
220.706	11.26
220.924	64.51
221.142	48.13
221.36	37.89
221.578	39.94
221.796	-58.37
222.015	-9.22
222.233	9.22
222.451	21.5
222.669	33.79
222.887	27.65
223.105	-25.6
223.323	-70.65
223.541	-50.18
223.759	29.7
223.977	1.02
224.195	80.89
224.413	11.26
224.631	21.5
224.849	-9.22
225.067	29.7
225.285	5.12
225.503	7.17
225.721	-99.33
225.939	66.56
226.157	-27.65
226.375	105.47
226.592	1.02
226.81	-1.02
227.028	-9.22
227.246	156.67
227.464	-91.13
227.682	62.46
227.9	35.84
228.117	48.13
228.335	97.28
228.553	31.74
228.771	113.66
228.989	11.26
229.206	64.51
229.424	95.23
229.642	3.07
229.86	46.08
230.077	60.42
230.295	-33.79
230.513	121.85
230.731	-1.02
230.948	52.22
231.166	138.24
231.384	-50.18
231.601	-50.18
231.819	119.81
232.037	15.36
232.254	37.89
232.472	97.28
232.689	21.5
232.907	48.13
233.125	9.22
233.342	-11.26
233.56	-21.5
233.777	-5.12
233.995	68.61
234.213	58.37
234.43	23.55
234.648	80.89
234.865	9.22
235.083	23.55
235.3	29.7
235.518	15.36
235.735	60.42
235.953	76.8
236.17	15.36
236.388	-15.36
236.605	23.55
236.822	31.74
237.04	68.61
237.257	-9.22
237.475	-33.79
237.692	-50.18
237.909	33.79
238.127	-11.26
238.344	3.07
238.562	21.5
238.779	-13.31
238.996	-25.6
239.214	29.7
239.431	11.26
239.648	-33.79
239.865	-3.07
240.083	101.37
240.3	9.22
240.517	39.94
240.735	54.27
240.952	78.85
241.169	23.55
241.386	37.89
241.603	48.13
241.821	56.32
242.038	48.13
242.255	68.61
242.472	-9.22
242.689	44.03
242.907	13.31
243.124	80.89
243.341	64.51
243.558	-9.22
243.775	-9.22
243.992	-1.02
244.209	35.84
244.426	19.46
244.643	80.89
244.86	-13.31
245.078	46.08
245.295	19.46
245.512	25.6
245.729	-29.7
245.946	39.94
246.163	37.89
246.38	29.7
246.597	44.03
246.814	-21.5
247.031	11.26
247.248	-33.79
247.464	121.85
247.681	25.6
247.898	80.89
248.115	60.42
248.332	-23.55
248.549	7.17
248.766	11.26
248.983	41.98
249.2	7.17
249.417	80.89
249.633	21.5
249.85	17.41
250.067	-41.98
250.284	-11.26
250.501	64.51
250.717	35.84
250.934	9.22
251.151	9.22
251.368	-66.56
251.585	27.65
251.801	-17.41
252.018	31.74
252.235	150.53
252.451	31.74
252.668	-44.03
252.885	48.13
253.102	64.51
253.318	-9.22
253.535	3.07
253.752	-54.27
253.968	48.13
254.185	-46.08
254.401	72.7
254.618	-11.26
254.835	31.74
255.051	35.84
255.268	39.94
255.484	3.07
255.701	-23.55
255.917	78.85
256.134	-31.74
256.351	48.13
256.567	-33.79
256.784	52.22
257	-21.5
257.217	60.42
257.433	-5.12
257.65	111.61
257.866	95.23
258.082	-1.02
258.299	25.6
258.515	72.7
258.732	44.03
258.948	-3.07
259.165	117.76
259.381	37.89
259.597	46.08
259.814	31.74
260.03	-52.22
260.246	-41.98
260.463	23.55
260.679	41.98
260.895	5.12
261.112	58.37
261.328	52.22
261.544	13.31
261.761	113.66
261.977	-27.65
262.193	19.46
262.409	17.41
262.626	35.84
262.842	66.56
263.058	50.18
263.274	46.08
263.49	52.22
263.707	31.74
263.923	72.7
264.139	7.17
264.355	-5.12
264.571	87.04
264.787	19.46
265.004	117.76
265.22	44.03
265.436	-11.26
265.652	-50.18
265.868	-15.36
266.084	-11.26
266.3	52.22
266.516	23.55
266.732	-41.98
266.948	64.51
267.164	-23.55
267.38	9.22
267.596	27.65
267.812	154.62
268.028	5.12
268.244	56.32
268.46	-3.07
268.676	21.5
268.892	35.84
269.108	66.56
269.324	15.36
269.54	11.26
269.756	23.55
269.972	-9.22
270.188	-11.26
270.403	-17.41
270.619	70.65
270.835	58.37
271.051	27.65
271.267	-7.17
271.483	52.22
271.698	72.7
271.914	56.32
272.13	-29.7
272.346	35.84
272.562	-1.02
272.777	21.5
272.993	19.46
273.209	35.84
273.425	31.74
273.64	-123.9
273.856	64.51
274.072	-15.36
274.287	-17.41
274.503	60.42
274.719	31.74
274.934	-9.22
275.15	-128
275.366	-13.31
275.581	7.17
275.797	-21.5
276.012	37.89
276.228	-37.89
276.444	-41.98
276.659	39.94
276.875	31.74
277.09	60.42
277.306	1.02
277.521	7.17
277.737	-54.27
277.952	56.32
278.168	39.94
278.383	-9.22
278.599	11.26
278.814	56.32
279.03	-11.26
279.245	76.8
279.461	72.7
279.676	68.61
279.892	-5.12
280.107	70.65
280.322	-25.6
280.538	39.94
280.753	64.51
280.969	29.7
281.184	19.46
281.399	130.05
281.615	-33.79
281.83	31.74
282.045	-25.6
282.26	19.46
282.476	25.6
282.691	80.89
282.906	-25.6
283.122	15.36
283.337	5.12
283.552	23.55
283.767	27.65
283.983	17.41
284.198	46.08
284.413	21.5
284.628	19.46
284.843	62.46
285.058	23.55
285.274	15.36
285.489	-50.18
285.704	31.74
285.919	56.32
286.134	-31.74
286.349	-21.5
286.564	23.55
286.779	35.84
286.995	21.5
287.21	-37.89
287.425	54.27
287.64	13.31
287.855	58.37
288.07	39.94
288.285	56.32
288.5	15.36
288.715	31.74
288.93	21.5
289.145	72.7
289.36	-3.07
289.575	11.26
289.79	89.09
290.004	-52.22
290.219	29.7
290.434	-9.22
290.649	-66.56
290.864	-19.46
291.079	21.5
291.294	17.41
291.509	7.17
291.724	56.32
291.938	-11.26
292.153	103.42
292.368	-5.12
292.583	37.89
292.798	-46.08
293.012	-58.37
293.227	-1.02
293.442	52.22
293.657	103.42
293.871	101.37
294.086	31.74
294.301	37.89
294.516	7.17
294.73	33.79
294.945	-93.18
295.16	-15.36
295.374	-35.84
295.589	-1.02
295.804	11.26
296.018	-15.36
296.233	105.47
296.447	103.42
296.662	95.23
296.877	29.7
297.091	27.65
297.306	9.22
297.52	-13.31
297.735	13.31
297.949	33.79
298.164	56.32
298.378	39.94
298.593	-52.22
298.807	-13.31
299.022	-48.13
299.236	11.26
299.451	35.84
299.665	-17.41
299.88	56.32
300.094	39.94
300.309	-9.22
300.523	44.03
300.737	-82.94
300.952	39.94
301.166	-1.02
301.381	-1.02
301.595	-60.42
301.809	62.46
302.024	-25.6
302.238	3.07
302.452	68.61
302.667	52.22
302.881	3.07
303.095	23.55
303.309	123.9
303.524	-5.12
303.738	72.7
303.952	-31.74
304.166	31.74
304.381	-31.74
304.595	48.13
304.809	-46.08
305.023	58.37
305.237	7.17
305.452	21.5
305.666	11.26
305.88	35.84
306.094	35.84
306.308	80.89
306.522	46.08
306.736	41.98
306.95	62.46
307.164	3.07
307.379	-13.31
307.593	39.94
307.807	35.84
308.021	15.36
308.235	58.37
308.449	-84.99
308.663	60.42
308.877	56.32
309.091	29.7
309.305	-44.03
309.519	-3.07
309.733	56.32
309.947	-27.65
310.161	48.13
310.374	70.65
310.588	58.37
310.802	56.32
311.016	5.12
311.23	-35.84
311.444	-25.6
311.658	3.07
311.872	52.22
312.085	56.32
312.299	48.13
312.513	70.65
312.727	76.8
312.941	-9.22
313.154	48.13
313.368	23.55
313.582	41.98
313.796	31.74
314.009	5.12
314.223	-39.94
314.437	31.74
314.651	31.74
314.864	-9.22
315.078	23.55
315.292	-19.46
315.505	13.31
315.719	95.23
315.933	44.03
316.146	80.89
316.36	-17.41
316.573	21.5
316.787	74.75
317.001	68.61
317.214	17.41
317.428	80.89
317.641	-46.08
317.855	97.28
318.068	33.79
318.282	11.26
318.495	72.7
318.709	134.14
318.922	27.65
319.136	66.56
319.349	78.85
319.563	13.31
319.776	-41.98
319.99	44.03
320.203	48.13
320.417	84.99
320.63	44.03
320.843	56.32
321.057	111.61
321.27	48.13
321.483	29.7
321.697	97.28
321.91	54.27
322.124	19.46
322.337	70.65
322.55	-17.41
322.763	121.85
322.977	87.04
323.19	37.89
323.403	1.02
323.617	13.31
323.83	97.28
324.043	-1.02
324.256	68.61
324.469	-13.31
324.683	56.32
324.896	13.31
325.109	-5.12
325.322	-58.37
325.535	95.23
325.748	56.32
325.962	13.31
326.175	62.46
326.388	54.27
326.601	39.94
326.814	72.7
327.027	-5.12
327.24	113.66
327.453	31.74
327.666	15.36
327.879	46.08
328.092	11.26
328.305	1.02
328.518	19.46
328.731	-9.22
328.944	-9.22
329.157	-17.41
329.37	-13.31
329.583	39.94
329.796	113.66
330.009	-66.56
330.222	35.84
330.435	89.09
330.648	56.32
330.861	3.07
331.073	-9.22
331.286	101.37
331.499	60.42
331.712	-11.26
331.925	-19.46
332.138	80.89
332.35	78.85
332.563	-15.36
332.776	56.32
332.989	-39.94
333.202	74.75
333.414	31.74
333.627	-7.17
333.84	-9.22
334.053	-3.07
334.265	-37.89
334.478	25.6
334.691	23.55
334.903	72.7
335.116	41.98
335.329	23.55
335.541	5.12
335.754	64.51
335.966	19.46
336.179	50.18
336.392	-9.22
336.604	31.74
336.817	35.84
337.029	9.22
337.242	80.89
337.454	46.08
337.667	-25.6
337.88	72.7
338.092	52.22
338.305	48.13
338.517	15.36
338.729	37.89
338.942	46.08
339.154	-3.07
339.367	48.13
339.579	68.61
339.792	7.17
340.004	70.65
340.217	46.08
340.429	-29.7
340.641	19.46
340.854	15.36
341.066	15.36
341.278	19.46
341.491	80.89
341.703	68.61
341.915	-3.07
342.128	15.36
342.34	21.5
342.552	80.89
342.764	56.32
342.977	80.89
343.189	-37.89
343.401	-66.56
343.613	-37.89
343.826	56.32
344.038	-19.46
344.25	72.7
344.462	-13.31
344.674	27.65
344.886	48.13
345.099	115.71
345.311	-19.46
345.523	-17.41
345.735	-9.22
345.947	128
346.159	-58.37
346.371	48.13
346.583	19.46
346.795	39.94
347.007	-31.74
347.219	54.27
347.431	33.79
347.643	125.95
347.855	15.36
348.067	56.32
348.279	-56.32
348.491	15.36
348.703	97.28
348.915	50.18
349.127	5.12
349.339	-13.31
349.551	29.7
349.763	19.46
349.975	89.09
350.187	9.22
350.399	23.55
350.61	15.36
350.822	11.26
351.034	80.89
351.246	46.08
351.458	68.61
351.669	-1.02
351.881	132.09
352.093	54.27
352.305	70.65
352.517	-1.02
352.728	111.61
352.94	50.18
353.152	117.76
353.363	15.36
353.575	97.28
353.787	80.89
353.999	72.7
354.21	119.81
354.422	-54.27
354.633	39.94
354.845	-15.36
355.057	27.65
355.268	70.65
355.48	-46.08
355.692	-19.46
355.903	19.46
356.115	89.09
356.326	-66.56
356.538	84.99
356.749	-13.31
356.961	72.7
357.172	31.74
357.384	7.17
357.595	17.41
357.807	-9.22
358.018	35.84
358.23	15.36
358.441	87.04
358.653	46.08
358.864	3.07
359.075	50.18
359.287	19.46
359.498	119.81
359.709	70.65
359.921	5.12
360.132	-35.84
360.344	44.03
360.555	35.84
360.766	64.51
360.977	19.46
361.189	35.84
361.4	31.74
361.611	-25.6
361.823	37.89
362.034	128
362.245	-29.7
362.456	25.6
362.667	48.13
362.879	41.98
363.09	5.12
363.301	31.74
363.512	87.04
363.723	70.65
363.935	-31.74
364.146	80.89
364.357	-25.6
364.568	48.13
364.779	-82.94
364.99	9.22
365.201	-7.17
365.412	60.42
365.623	-27.65
365.834	-9.22
366.045	13.31
366.256	7.17
366.467	29.7
366.678	-23.55
366.889	7.17
367.1	27.65
367.311	-25.6
367.522	46.08
367.733	56.32
367.944	80.89
368.155	56.32
368.366	150.53
368.577	-1.02
368.788	33.79
368.999	-27.65
369.209	62.46
369.42	72.7
369.631	121.85
369.842	158.72
370.053	-54.27
370.264	80.89
370.474	11.26
370.685	-9.22
370.896	19.46
371.107	87.04
371.317	58.37
371.528	-29.7
371.739	-3.07
371.95	48.13
372.16	37.89
372.371	56.32
372.582	37.89
372.792	-31.74
373.003	91.13
373.214	91.13
373.424	39.94
373.635	-31.74
373.846	125.95
374.056	17.41
374.267	27.65
374.477	46.08
374.688	29.7
374.898	56.32
375.109	50.18
375.319	39.94
375.53	35.84
375.74	37.89
375.951	80.89
376.161	35.84
376.372	21.5
376.582	-1.02
376.793	87.04
377.003	-27.65
377.214	-1.02
377.424	7.17
377.635	-35.84
377.845	15.36
378.055	101.37
378.266	9.22
378.476	23.55
378.686	27.65
378.897	84.99
379.107	-3.07
379.317	60.42
379.528	54.27
379.738	19.46
379.948	25.6
380.158	-5.12
380.369	15.36
380.579	72.7
380.789	46.08
380.999	19.46
381.21	105.47
381.42	130.05
381.63	-41.98
381.84	-1.02
382.05	80.89
382.261	113.66
382.471	113.66
382.681	-31.74
382.891	62.46
383.101	56.32
383.311	37.89
383.521	7.17
383.731	37.89
383.941	84.99
384.151	31.74
384.361	5.12
384.571	74.75
384.781	70.65
384.991	117.76
385.201	95.23
385.411	56.32
385.621	56.32
385.831	-17.41
386.041	46.08
386.251	13.31
386.461	35.84
386.671	62.46
386.881	78.85
387.091	-3.07
387.301	23.55
387.511	35.84
387.72	27.65
387.93	66.56
388.14	-25.6
388.35	-1.02
388.56	48.13
388.769	21.5
388.979	13.31
389.189	-3.07
389.399	1.02
389.609	66.56
389.818	29.7
390.028	-23.55
390.238	87.04
390.447	64.51
390.657	19.46
390.867	80.89
391.076	23.55
391.286	121.85
391.496	39.94
391.705	11.26
391.915	58.37
392.125	-44.03
392.334	111.61
392.544	66.56
392.753	-7.17
392.963	60.42
393.172	105.47
393.382	-3.07
393.591	152.57
393.801	58.37
394.01	121.85
394.22	48.13
394.429	56.32
394.639	-5.12
394.848	78.85
395.058	56.32
395.267	15.36
395.477	7.17
395.686	54.27
395.895	111.61
396.105	95.23
396.314	80.89
396.524	68.61
396.733	3.07
396.942	121.85
397.152	89.09
397.361	95.23
397.57	56.32
397.78	87.04
397.989	97.28
398.198	101.37
398.407	97.28
398.617	-17.41
398.826	54.27
399.035	101.37
399.244	-1.02
399.453	138.24
399.663	89.09
399.872	46.08
400.081	44.03
400.29	93.18
400.499	46.08
400.708	144.38
400.917	44.03
401.127	91.13
401.336	89.09
401.545	121.85
401.754	84.99
401.963	103.42
402.172	62.46
402.381	7.17
402.59	89.09
402.799	171.01
403.008	121.85
403.217	74.75
403.426	123.9
403.635	72.7
403.844	58.37
404.053	113.66
404.262	48.13
404.471	166.91
404.68	187.39
404.888	89.09
405.097	113.66
405.306	115.71
405.515	146.43
405.724	117.76
405.933	117.76
406.142	119.81
406.35	109.57
406.559	142.33
406.768	128
406.977	207.87
407.185	146.43
407.394	205.82
407.603	91.13
407.812	218.11
408.02	179.2
408.229	209.92
408.438	134.14
408.646	171.01
408.855	183.29
409.064	244.73
409.272	150.53
409.481	267.26
409.69	203.77
409.898	146.43
410.107	285.69
410.315	179.2
410.524	263.16
410.733	265.21
410.941	343.03
411.15	316.41
411.358	293.88
411.567	355.32
411.775	289.79
411.984	343.03
412.192	345.08
412.401	289.79
412.609	412.67
412.818	457.72
413.026	320.51
413.234	310.27
413.443	400.38
413.651	334.84
413.86	457.72
414.068	445.43
414.276	537.59
414.485	496.63
414.693	539.64
414.901	515.06
415.11	474.1
415.318	478.2
415.526	504.82
415.734	621.56
415.943	523.26
416.151	574.46
416.359	584.7
416.567	676.85
416.776	658.42
416.984	766.96
417.192	709.62
417.4	775.16
417.608	801.78
417.817	726
418.025	826.36
418.233	889.84
418.441	920.56
418.649	955.38
418.857	979.95
419.065	1025.01
419.273	963.57
419.481	957.43
419.689	1106.93
419.897	1166.32
420.105	1168.37
420.313	1199.09
420.521	1199.09
420.729	1317.87
420.937	1258.48
421.145	1252.33
421.353	1481.71
421.561	1510.38
421.769	1391.59
421.977	1481.71
422.185	1668.07
422.393	1698.79
422.601	1706.98
422.809	1698.79
423.017	1778.66
423.224	1770.47
423.432	1872.87
423.64	1915.87
423.848	2120.67
424.056	2010.08
424.263	2083.81
424.471	2153.44
424.679	2153.44
424.887	2333.66
425.094	2438.11
425.302	2348
425.51	2335.71
425.718	2552.79
425.925	2644.95
426.133	2677.72
426.341	2821.08
426.548	2886.61
426.756	3015.63
426.964	2837.46
427.171	3242.96
427.379	3226.57
427.586	3349.45
427.794	3367.88
428.001	3724.23
428.209	3701.7
428.417	3636.17
428.624	3816.39
428.832	3951.56
429.039	3820.49
429.247	3865.54
429.454	4369.34
429.662	4592.57
429.869	4291.52
430.076	4627.39
430.284	4426.68
430.491	4676.54
430.699	4846.52
430.906	4910.01
431.114	5000.12
431.321	5219.25
431.528	5176.24
431.736	5381.04
431.943	5880.74
432.15	5628.84
432.358	5639.08
432.565	6075.3
432.772	6048.68
432.979	6286.24
433.187	6337.44
433.394	6564.76
433.601	6828.95
433.808	6831
434.016	6722.46
434.223	7201.68
434.43	7611.28
434.637	7441.29
434.844	7758.73
435.052	7928.71
435.259	8022.92
435.466	7975.81
435.673	8158.08
435.88	8637.31
436.087	8942.46
436.294	8913.78
436.501	8942.46
436.708	9141.11
436.915	9253.75
437.122	9562.99
437.329	9681.77
437.537	9937.77
437.743	10097.51
437.95	9964.39
438.157	10529.63
438.364	11123.54
438.571	10967.9
438.778	10910.55
438.985	11926.35
439.192	11375.44
439.399	11764.56
439.606	11692.88
439.813	12337.99
440.02	13157.18
440.227	12784.44
440.433	12450.63
440.64	13024.06
440.847	12897.08
441.054	13218.61
441.261	14195.5
441.467	13964.07
441.674	14394.15
441.881	14752.54
442.088	14695.2
442.294	14611.23
442.501	15053.59
442.708	15495.96
442.914	16014.09
443.121	16739.07
443.328	15913.74
443.534	17146.62
443.741	16855.81
443.948	16399.11
444.154	18010.86
444.361	17668.85
444.568	17963.76
444.774	17746.67
444.981	18143.98
445.187	18602.72
445.394	19276.51
445.6	18950.88
445.807	21002.94
446.013	19868.37
446.22	20224.72
446.426	21060.29
446.633	21365.43
446.839	21863.09
447.046	21224.12
447.252	22469.29
447.459	22481.58
447.665	22260.4
447.871	23171.74
448.078	24525.45
448.284	23231.13
448.491	24171.15
448.697	24865.41
448.903	25254.53
449.11	25227.9
449.316	24535.69
449.522	25350.78
449.728	25832.05
449.935	25997.94
450.141	25860.73
450.347	26298.99
450.553	25670.26
450.76	25932.4
450.966	27083.36
451.172	26651.24
451.378	26960.48
451.584	26958.44
451.791	27454.05
451.997	27449.95
452.203	27861.59
452.409	27714.14
452.615	27765.34
452.821	26421.87
453.027	26567.27
453.233	27732.57
453.44	26501.74
453.646	26909.29
453.852	26950.24
454.058	27150.95
454.264	26466.92
454.47	27079.27
454.676	26339.95
454.882	27220.58
455.088	24795.78
455.294	25352.83
455.5	25692.79
455.705	25999.99
455.911	24935.04
456.117	24099.47
456.323	23988.88
456.529	22633.13
456.735	23616.15
456.941	23354.01
457.147	22569.64
457.352	21834.42
457.558	21695.16
457.764	21856.95
457.97	21392.06
458.176	21039.81
458.381	20925.12
458.587	19849.94
458.793	19718.87
458.999	18948.83
459.204	20234.96
459.41	19665.62
459.616	18184.94
459.821	18232.04
460.027	18197.23
460.233	18027.24
460.438	17263.35
460.644	17298.17
460.85	16444.17
461.055	16147.21
461.261	16075.53
461.466	14992.16
461.672	14242.6
461.878	15430.42
462.083	14433.06
462.289	14283.56
462.494	13871.92
462.7	13445.94
462.905	13007.67
463.111	13566.77
463.316	13458.23
463.522	13290.29
463.727	13269.81
463.932	13208.37
464.138	13165.37
464.343	13028.15
464.549	12874.56
464.754	13212.47
464.959	12946.23
465.165	12858.17
465.37	12405.57
465.575	12200.77
465.781	12694.33
465.986	12639.04
466.191	12358.47
466.397	12104.52
466.602	11406.16
466.807	11877.19
467.012	11768.65
467.218	11774.8
467.423	11467.6
