Data from USB4F104151__92__11-32-07-801.txt Node

Date: Fri Mar 14 11:32:07 EDT 2025
User: louis
Spectrometer: USB4F10415
Trigger mode: 4
Integration Time (sec): 5.000000E-2
Scans to average: 1
Electric dark correction enabled: true
Nonlinearity correction enabled: false
Boxcar width: 0
XAxis mode: Wavelengths
Number of Pixels in Spectrum: 3648
>>>>>Begin Spectral Data<<<<<
178.204	-146.26
178.424	-146.26
178.644	-146.26
178.864	-176.98
179.084	-193.36
179.304	-25.43
179.524	-37.72
179.744	-29.52
179.964	60.59
180.184	-0.85
180.404	25.77
180.624	-0.85
180.844	27.82
181.064	-47.96
181.283	40.11
181.503	-0.85
181.723	-11.09
181.943	-127.83
182.163	3.24
182.383	-11.09
182.602	93.35
182.822	83.11
183.042	21.67
183.262	-25.43
183.482	21.67
183.701	-50
183.921	66.73
184.141	23.72
184.361	99.5
184.58	9.39
184.8	-17.24
185.02	-29.52
185.239	-41.81
185.459	11.43
185.679	60.59
185.898	-7
186.118	23.72
186.338	48.3
186.557	44.2
186.777	13.48
186.997	56.49
187.216	79.02
187.436	60.59
187.655	101.55
187.875	40.11
188.095	52.39
188.314	60.59
188.534	105.64
188.753	89.26
188.973	29.87
189.192	85.16
189.412	11.43
189.631	27.82
189.851	101.55
190.07	74.92
190.29	-37.72
190.509	-21.33
190.729	-11.09
190.948	72.87
191.168	152.74
191.387	21.67
191.607	-19.29
191.826	54.44
192.045	40.11
192.265	58.54
192.484	5.29
192.704	5.29
192.923	-47.96
193.142	111.78
193.362	74.92
193.581	52.39
193.8	68.78
194.02	48.3
194.239	72.87
194.458	87.21
194.678	-0.85
194.897	29.87
195.116	-0.85
195.335	50.35
195.555	48.3
195.774	91.31
195.993	68.78
196.212	23.72
196.432	58.54
196.651	44.2
196.87	62.63
197.089	113.83
197.308	70.83
197.528	13.48
197.747	31.91
197.966	31.91
198.185	74.92
198.404	48.3
198.623	79.02
198.842	101.55
199.062	124.07
199.281	81.07
199.5	7.34
199.719	85.16
199.938	36.01
200.157	23.72
200.376	117.93
200.595	111.78
200.814	115.88
201.033	89.26
201.252	15.53
201.471	15.53
201.69	9.39
201.909	33.96
202.128	27.82
202.347	23.72
202.566	74.92
202.785	-52.05
203.004	-4.95
203.223	54.44
203.442	21.67
203.661	11.43
203.879	-17.24
204.098	79.02
204.317	-58.2
204.536	70.83
204.755	81.07
204.974	38.06
205.193	-9.05
205.411	195.75
205.63	85.16
205.849	21.67
206.068	-17.24
206.287	3.24
206.505	70.83
206.724	-9.05
206.943	5.29
207.162	81.07
207.381	1.19
207.599	9.39
207.818	83.11
208.037	17.58
208.255	27.82
208.474	58.54
208.693	50.35
208.911	25.77
209.13	3.24
209.349	27.82
209.567	27.82
209.786	85.16
210.005	72.87
210.223	97.45
210.442	-0.85
210.661	-33.62
210.879	79.02
211.098	68.78
211.316	3.24
211.535	83.11
211.753	70.83
211.972	76.97
212.191	42.15
212.409	36.01
212.628	50.35
212.846	15.53
213.065	171.18
213.283	136.36
213.502	68.78
213.72	107.69
213.938	-4.95
214.157	27.82
214.375	85.16
214.594	48.3
214.812	40.11
215.031	52.39
215.249	-29.52
215.467	48.3
215.686	48.3
215.904	23.72
216.122	52.39
216.341	5.29
216.559	23.72
216.778	42.15
216.996	101.55
217.214	23.72
217.432	3.24
217.651	79.02
217.869	150.7
218.087	42.15
218.306	19.63
218.524	25.77
218.742	72.87
218.96	89.26
219.179	19.63
219.397	83.11
219.615	56.49
219.833	44.2
220.051	-31.57
220.27	89.26
220.488	85.16
220.706	36.01
220.924	-23.38
221.142	-27.48
221.36	52.39
221.578	58.54
221.796	62.63
222.015	60.59
222.233	36.01
222.451	-11.09
222.669	1.19
222.887	33.96
223.105	-33.62
223.323	15.53
223.541	-56.15
223.759	11.43
223.977	9.39
224.195	27.82
224.413	21.67
224.631	76.97
224.849	52.39
225.067	95.4
225.285	23.72
225.503	5.29
225.721	-60.24
225.939	113.83
226.157	5.29
226.375	79.02
226.592	44.2
226.81	66.73
227.028	48.3
227.246	97.45
227.464	-9.05
227.682	25.77
227.9	36.01
228.117	31.91
228.335	68.78
228.553	13.48
228.771	1.19
228.989	50.35
229.206	50.35
229.424	3.24
229.642	97.45
229.86	-9.05
230.077	95.4
230.295	74.92
230.513	38.06
230.731	-2.9
230.948	17.58
231.166	93.35
231.384	-29.52
231.601	-4.95
231.819	-21.33
232.037	44.2
232.254	40.11
232.472	23.72
232.689	15.53
232.907	68.78
233.125	64.68
233.342	103.59
233.56	-2.9
233.777	9.39
233.995	91.31
234.213	93.35
234.43	-33.62
234.648	15.53
234.865	101.55
235.083	119.98
235.3	85.16
235.518	23.72
235.735	40.11
235.953	122.02
236.17	19.63
236.388	-13.14
236.605	31.91
236.822	101.55
237.04	93.35
237.257	46.25
237.475	15.53
237.692	27.82
237.909	68.78
238.127	54.44
238.344	29.87
238.562	44.2
238.779	-7
238.996	-0.85
239.214	-29.52
239.431	44.2
239.648	-17.24
239.865	25.77
240.083	89.26
240.3	56.49
240.517	-7
240.735	33.96
240.952	17.58
241.169	81.07
241.386	60.59
241.603	-47.96
241.821	-7
242.038	79.02
242.255	33.96
242.472	-0.85
242.689	132.26
242.907	11.43
243.124	17.58
243.341	46.25
243.558	-0.85
243.775	56.49
243.992	-37.72
244.209	31.91
244.426	42.15
244.643	60.59
244.86	87.21
245.078	132.26
245.295	40.11
245.512	27.82
245.729	21.67
245.946	81.07
246.163	101.55
246.38	48.3
246.597	40.11
246.814	38.06
247.031	46.25
247.248	46.25
247.464	54.44
247.681	36.01
247.898	113.83
248.115	-9.05
248.332	29.87
248.549	44.2
248.766	81.07
248.983	31.91
249.2	25.77
249.417	66.73
249.633	29.87
249.85	99.5
250.067	-21.33
250.284	21.67
250.501	-43.86
250.717	33.96
250.934	-15.19
251.151	38.06
251.368	79.02
251.585	74.92
251.801	-9.05
252.018	31.91
252.235	-15.19
252.451	83.11
252.668	-58.2
252.885	74.92
253.102	68.78
253.318	11.43
253.535	50.35
253.752	-19.29
253.968	-4.95
254.185	-21.33
254.401	72.87
254.618	27.82
254.835	-2.9
255.051	142.5
255.268	60.59
255.484	60.59
255.701	58.54
255.917	70.83
256.134	-25.43
256.351	11.43
256.567	-17.24
256.784	44.2
257	-13.14
257.217	64.68
257.433	124.07
257.65	54.44
257.866	38.06
258.082	-31.57
258.299	-21.33
258.515	56.49
258.732	13.48
258.948	31.91
259.165	-58.2
259.381	-39.76
259.597	46.25
259.814	140.46
260.03	27.82
260.246	19.63
260.463	9.39
260.679	1.19
260.895	42.15
261.112	58.54
261.328	27.82
261.544	-31.57
261.761	113.83
261.977	11.43
262.193	33.96
262.409	85.16
262.626	83.11
262.842	76.97
263.058	-88.92
263.274	33.96
263.49	-29.52
263.707	-21.33
263.923	70.83
264.139	1.19
264.355	64.68
264.571	117.93
264.787	58.54
265.004	91.31
265.22	58.54
265.436	-11.09
265.652	36.01
265.868	38.06
266.084	-17.24
266.3	83.11
266.516	-17.24
266.732	109.74
266.948	23.72
267.164	126.12
267.38	68.78
267.596	105.64
267.812	146.6
268.028	107.69
268.244	44.2
268.46	58.54
268.676	-7
268.892	56.49
269.108	50.35
269.324	54.44
269.54	-41.81
269.756	66.73
269.972	36.01
270.188	97.45
270.403	-0.85
270.619	-0.85
270.835	-7
271.051	13.48
271.267	11.43
271.483	-21.33
271.698	52.39
271.914	17.58
272.13	3.24
272.346	46.25
272.562	74.92
272.777	113.83
272.993	62.63
273.209	-56.15
273.425	29.87
273.64	-2.9
273.856	81.07
274.072	15.53
274.287	44.2
274.503	58.54
274.719	48.3
274.934	21.67
275.15	-4.95
275.366	-13.14
275.581	7.34
275.797	19.63
276.012	44.2
276.228	-33.62
276.444	33.96
276.659	122.02
276.875	-88.92
277.09	-7
277.306	54.44
277.521	81.07
277.737	17.58
277.952	101.55
278.168	60.59
278.383	76.97
278.599	27.82
278.814	64.68
279.03	111.78
279.245	54.44
279.461	68.78
279.676	44.2
279.892	-23.38
280.107	-15.19
280.322	56.49
280.538	31.91
280.753	-15.19
280.969	52.39
281.184	48.3
281.399	109.74
281.615	68.78
281.83	36.01
282.045	9.39
282.26	11.43
282.476	-43.86
282.691	50.35
282.906	85.16
283.122	122.02
283.337	17.58
283.552	50.35
283.767	58.54
283.983	101.55
284.198	89.26
284.413	58.54
284.628	-82.77
284.843	54.44
285.058	52.39
285.274	60.59
285.489	-72.53
285.704	36.01
285.919	9.39
286.134	101.55
286.349	33.96
286.564	36.01
286.779	122.02
286.995	138.41
287.21	5.29
287.425	27.82
287.64	44.2
287.855	5.29
288.07	-4.95
288.285	29.87
288.5	109.74
288.715	85.16
288.93	31.91
289.145	40.11
289.36	46.25
289.575	11.43
289.79	36.01
290.004	17.58
290.219	-0.85
290.434	42.15
290.649	-2.9
290.864	64.68
291.079	83.11
291.294	-7
291.509	54.44
291.724	93.35
291.938	25.77
292.153	17.58
292.368	60.59
292.583	19.63
292.798	3.24
293.012	33.96
293.227	-31.57
293.442	11.43
293.657	46.25
293.871	60.59
294.086	29.87
294.301	107.69
294.516	3.24
294.73	-13.14
294.945	-9.05
295.16	21.67
295.374	56.49
295.589	105.64
295.804	-47.96
296.018	52.39
296.233	126.12
296.447	144.55
296.662	-45.91
296.877	109.74
297.091	74.92
297.306	72.87
297.52	27.82
297.735	50.35
297.949	76.97
298.164	76.97
298.378	64.68
298.593	64.68
298.807	13.48
299.022	-39.76
299.236	134.31
299.451	50.35
299.665	40.11
299.88	19.63
300.094	76.97
300.309	66.73
300.523	97.45
300.737	89.26
300.952	36.01
301.166	46.25
301.381	99.5
301.595	-17.24
301.809	44.2
302.024	31.91
302.238	-29.52
302.452	-13.14
302.667	27.82
302.881	87.21
303.095	33.96
303.309	122.02
303.524	19.63
303.738	89.26
303.952	38.06
304.166	91.31
304.381	-21.33
304.595	154.79
304.809	5.29
305.023	54.44
305.237	117.93
305.452	25.77
305.666	74.92
305.88	117.93
306.094	23.72
306.308	44.2
306.522	111.78
306.736	60.59
306.95	42.15
307.164	27.82
307.379	97.45
307.593	103.59
307.807	19.63
308.021	146.6
308.235	109.74
308.449	50.35
308.663	25.77
308.877	142.5
309.091	54.44
309.305	89.26
309.519	-17.24
309.733	-9.05
309.947	3.24
310.161	66.73
310.374	74.92
310.588	74.92
310.802	58.54
311.016	21.67
311.23	48.3
311.444	-80.72
311.658	36.01
311.872	130.22
312.085	17.58
312.299	103.59
312.513	74.92
312.727	144.55
312.941	36.01
313.154	72.87
313.368	1.19
313.582	83.11
313.796	1.19
314.009	11.43
314.223	54.44
314.437	46.25
314.651	40.11
314.864	79.02
315.078	-21.33
315.292	-60.24
315.505	-27.48
315.719	19.63
315.933	85.16
316.146	25.77
316.36	66.73
316.573	50.35
316.787	11.43
317.001	42.15
317.214	3.24
317.428	52.39
317.641	48.3
317.855	54.44
318.068	-29.52
318.282	97.45
318.495	66.73
318.709	23.72
318.922	58.54
319.136	76.97
319.349	52.39
319.563	5.29
319.776	13.48
319.99	21.67
320.203	60.59
320.417	27.82
320.63	44.2
320.843	85.16
321.057	85.16
321.27	44.2
321.483	76.97
321.697	150.7
321.91	11.43
322.124	21.67
322.337	91.31
322.55	48.3
322.763	101.55
322.977	23.72
323.19	11.43
323.403	11.43
323.617	68.78
323.83	103.59
324.043	48.3
324.256	60.59
324.469	11.43
324.683	72.87
324.896	31.91
325.109	-15.19
325.322	44.2
325.535	9.39
325.748	85.16
325.962	76.97
326.175	-45.91
326.388	19.63
326.601	89.26
326.814	29.87
327.027	31.91
327.24	76.97
327.453	1.19
327.666	36.01
327.879	142.5
328.092	56.49
328.305	33.96
328.518	-0.85
328.731	-58.2
328.944	27.82
329.157	-7
329.37	56.49
329.583	134.31
329.796	101.55
330.009	3.24
330.222	109.74
330.435	27.82
330.648	60.59
330.861	-41.81
331.073	93.35
331.286	48.3
331.499	68.78
331.712	66.73
331.925	79.02
332.138	40.11
332.35	68.78
332.563	-21.33
332.776	48.3
332.989	31.91
333.202	-7
333.414	68.78
333.627	54.44
333.84	115.88
334.053	31.91
334.265	33.96
334.478	5.29
334.691	56.49
334.903	11.43
335.116	50.35
335.329	93.35
335.541	52.39
335.754	124.07
335.966	-4.95
336.179	42.15
336.392	60.59
336.604	11.43
336.817	36.01
337.029	46.25
337.242	33.96
337.454	140.46
337.667	52.39
337.88	29.87
338.092	9.39
338.305	11.43
338.517	21.67
338.729	107.69
338.942	109.74
339.154	21.67
339.367	15.53
339.579	169.13
339.792	64.68
340.004	74.92
340.217	21.67
340.429	15.53
340.641	42.15
340.854	-17.24
341.066	-37.72
341.278	138.41
341.491	89.26
341.703	3.24
341.915	27.82
342.128	5.29
342.34	15.53
342.552	31.91
342.764	40.11
342.977	81.07
343.189	60.59
343.401	85.16
343.613	21.67
343.826	31.91
344.038	21.67
344.25	33.96
344.462	76.97
344.674	52.39
344.886	7.34
345.099	93.35
345.311	-21.33
345.523	62.63
345.735	-50
345.947	97.45
346.159	48.3
346.371	5.29
346.583	38.06
346.795	40.11
347.007	46.25
347.219	52.39
347.431	36.01
347.643	93.35
347.855	54.44
348.067	81.07
348.279	64.68
348.491	70.83
348.703	95.4
348.915	52.39
349.127	23.72
349.339	68.78
349.551	-7
349.763	136.36
349.975	85.16
350.187	158.89
350.399	76.97
350.61	11.43
350.822	142.5
351.034	64.68
351.246	93.35
351.458	68.78
351.669	36.01
351.881	48.3
352.093	93.35
352.305	93.35
352.517	101.55
352.728	97.45
352.94	74.92
353.152	113.83
353.363	-17.24
353.575	15.53
353.787	83.11
353.999	68.78
354.21	105.64
354.422	36.01
354.633	29.87
354.845	48.3
355.057	19.63
355.268	25.77
355.48	33.96
355.692	36.01
355.903	54.44
356.115	68.78
356.326	17.58
356.538	152.74
356.749	31.91
356.961	144.55
357.172	33.96
357.384	-11.09
357.595	165.03
357.807	-56.15
358.018	19.63
358.23	87.21
358.441	99.5
358.653	13.48
358.864	89.26
359.075	36.01
359.287	93.35
359.498	50.35
359.709	66.73
359.921	15.53
360.132	132.26
360.344	29.87
360.555	44.2
360.766	62.63
360.977	74.92
361.189	99.5
361.4	33.96
361.611	33.96
361.823	89.26
362.034	64.68
362.245	-76.63
362.456	-7
362.667	54.44
362.879	74.92
363.09	44.2
363.301	-9.05
363.512	50.35
363.723	-13.14
363.935	42.15
364.146	64.68
364.357	89.26
364.568	58.54
364.779	-29.52
364.99	74.92
365.201	1.19
365.412	126.12
365.623	-41.81
365.834	85.16
366.045	91.31
366.256	21.67
366.467	42.15
366.678	42.15
366.889	23.72
367.1	9.39
367.311	19.63
367.522	15.53
367.733	40.11
367.944	-29.52
368.155	1.19
368.366	132.26
368.577	122.02
368.788	138.41
368.999	103.59
369.209	-21.33
369.42	117.93
369.631	81.07
369.842	42.15
370.053	42.15
370.264	48.3
370.474	40.11
370.685	83.11
370.896	21.67
371.107	60.59
371.317	85.16
371.528	-21.33
371.739	66.73
371.95	27.82
372.16	103.59
372.371	-21.33
372.582	33.96
372.792	19.63
373.003	128.17
373.214	54.44
373.424	107.69
373.635	-13.14
373.846	109.74
374.056	89.26
374.267	44.2
374.477	-0.85
374.688	33.96
374.898	42.15
375.109	68.78
375.319	91.31
375.53	58.54
375.74	56.49
375.951	111.78
376.161	119.98
376.372	89.26
376.582	79.02
376.793	62.63
377.003	17.58
377.214	81.07
377.424	97.45
377.635	99.5
377.845	91.31
378.055	60.59
378.266	29.87
378.476	89.26
378.686	3.24
378.897	17.58
379.107	95.4
379.317	113.83
379.528	11.43
379.738	66.73
379.948	25.77
380.158	54.44
380.369	68.78
380.579	56.49
380.789	40.11
380.999	58.54
381.21	76.97
381.42	122.02
381.63	5.29
381.84	101.55
382.05	85.16
382.261	52.39
382.471	60.59
382.681	11.43
382.891	148.65
383.101	42.15
383.311	56.49
383.521	36.01
383.731	101.55
383.941	48.3
384.151	91.31
384.361	23.72
384.571	60.59
384.781	60.59
384.991	115.88
385.201	113.83
385.411	119.98
385.621	72.87
385.831	95.4
386.041	-4.95
386.251	66.73
386.461	87.21
386.671	-19.29
386.881	31.91
387.091	31.91
387.301	150.7
387.511	93.35
387.72	27.82
387.93	132.26
388.14	-4.95
388.35	-23.38
388.56	68.78
388.769	99.5
388.979	85.16
389.189	5.29
389.399	138.41
389.609	89.26
389.818	113.83
390.028	19.63
390.238	126.12
390.447	46.25
390.657	119.98
390.867	93.35
391.076	-29.52
391.286	124.07
391.496	25.77
391.705	103.59
391.915	134.31
392.125	158.89
392.334	44.2
392.544	142.5
392.753	21.67
392.963	-31.57
393.172	40.11
393.382	81.07
393.591	62.63
393.801	87.21
394.01	103.59
394.22	150.7
394.429	56.49
394.639	81.07
394.848	81.07
395.058	60.59
395.267	64.68
395.477	68.78
395.686	109.74
395.895	146.6
396.105	189.61
396.314	113.83
396.524	68.78
396.733	138.41
396.942	173.22
397.152	150.7
397.361	99.5
397.57	113.83
397.78	89.26
397.989	146.6
398.198	148.65
398.407	93.35
398.617	97.45
398.826	99.5
399.035	48.3
399.244	140.46
399.453	138.41
399.663	134.31
399.872	134.31
400.081	36.01
400.29	148.65
400.499	91.31
400.708	132.26
400.917	81.07
401.127	76.97
401.336	181.42
401.545	165.03
401.754	175.27
401.963	142.5
402.172	156.84
402.381	140.46
402.59	60.59
402.799	105.64
403.008	144.55
403.217	126.12
403.426	183.46
403.635	89.26
403.844	177.32
404.053	150.7
404.262	79.02
404.471	205.99
404.68	249
404.888	142.5
405.097	144.55
405.306	171.18
405.515	109.74
405.724	113.83
405.933	97.45
406.142	177.32
406.35	183.46
406.559	146.6
406.768	203.94
406.977	230.57
407.185	179.37
407.394	277.67
407.603	181.42
407.812	228.52
408.02	201.9
408.229	171.18
408.438	259.24
408.646	189.61
408.855	259.24
409.064	300.2
409.272	298.15
409.481	240.81
409.69	289.96
409.898	212.14
410.107	230.57
410.315	408.74
410.524	251.05
410.733	412.84
410.941	296.1
411.15	412.84
411.358	347.3
411.567	380.07
411.775	371.88
411.984	394.4
412.192	433.32
412.401	406.69
412.609	396.45
412.818	466.08
413.026	453.8
413.234	451.75
413.443	449.7
413.651	441.51
413.86	560.29
414.068	574.63
414.276	498.85
414.485	494.76
414.693	648.35
414.901	670.88
415.11	660.64
415.318	619.68
415.526	674.98
415.734	740.51
415.943	666.78
416.151	793.76
416.359	847.01
416.567	799.9
416.776	883.87
416.984	865.44
417.192	916.64
417.4	918.68
417.608	896.16
417.817	967.84
418.025	980.12
418.233	1072.28
418.441	1086.62
418.649	1051.8
418.857	1131.67
419.065	1125.53
419.273	1285.27
419.481	1287.32
419.689	1279.13
419.897	1520.79
420.105	1424.53
420.313	1406.1
420.521	1559.7
420.729	1598.61
420.937	1492.12
421.145	1629.33
421.353	1707.15
421.561	1715.34
421.769	1848.46
421.977	1805.46
422.185	1870.99
422.393	1903.76
422.601	2026.64
422.809	2108.55
423.017	2067.6
423.224	2237.58
423.432	2311.3
423.64	2342.02
423.848	2567.3
424.056	2405.51
424.263	2579.59
424.471	2598.02
424.679	2722.95
424.887	2905.21
425.094	2897.02
425.302	2925.69
425.51	3001.47
425.718	3122.3
425.925	3163.26
426.133	3275.9
426.341	3470.45
426.548	3572.85
426.756	3501.17
426.964	3685.49
427.171	3820.66
427.379	4088.94
427.586	4187.24
427.794	4148.33
428.001	4265.07
428.209	4531.3
428.417	4359.27
428.624	4766.82
428.832	4725.86
429.039	4729.95
429.247	4775.01
429.454	5076.06
429.662	5682.26
429.869	5104.73
430.076	5569.62
430.284	5442.65
430.491	5639.25
430.699	5823.57
430.906	6022.22
431.114	6034.51
431.321	6325.32
431.528	6433.86
431.736	6761.54
431.943	7179.33
432.15	6833.22
432.358	6896.71
432.565	7504.95
432.772	7461.94
432.979	7842.87
433.187	7668.79
433.394	7771.19
433.601	8307.76
433.808	8442.92
434.016	8299.56
434.223	8586.28
434.43	9243.68
434.637	8930.34
434.844	9411.61
435.052	9872.4
435.259	9585.69
435.466	9890.84
435.673	9788.44
435.88	10243.09
436.087	10873.86
436.294	10931.2
436.501	10630.15
436.708	10863.62
436.915	11455.48
437.122	11592.7
437.329	11668.47
437.537	11906.04
437.743	12155.89
437.95	12028.92
438.157	12743.66
438.364	13362.14
438.571	13134.82
438.778	13274.08
438.985	14296.02
439.192	13757.4
439.399	14240.72
439.606	14031.83
439.813	14973.89
440.02	15506.37
440.227	15363.01
440.433	15377.34
440.64	15477.69
440.847	15655.87
441.054	16186.29
441.261	17091.49
441.467	17046.44
441.674	17165.22
441.881	18111.38
442.088	17890.2
442.294	17787.8
442.501	18156.44
442.708	18490.26
442.914	19479.43
443.121	20134.78
443.328	19602.3
443.534	20994.92
443.741	20372.34
443.948	19968.89
444.154	21300.07
444.361	21367.65
444.568	21629.79
444.774	21427.04
444.981	21691.23
445.187	22448.98
445.394	23155.53
445.6	23010.12
445.807	25242.41
446.013	24238.9
446.22	24615.73
446.426	25416.49
446.633	25998.11
446.839	26352.41
447.046	25494.31
447.252	27005.71
447.459	26923.79
447.665	26940.18
447.871	28091.13
448.078	29168.37
448.284	28031.74
448.491	28762.87
448.697	29680.36
448.903	30227.17
449.11	30333.66
449.316	29854.44
449.522	30321.37
449.728	31429.32
449.935	31419.08
450.141	31343.31
450.347	32234.17
450.553	31036.11
450.76	31822.53
450.966	32338.62
451.172	31941.32
451.378	32967.35
451.584	32047.81
451.791	33163.95
451.997	32883.38
452.203	33661.61
452.409	33514.16
452.615	33215.15
452.821	31781.57
453.027	31775.43
453.233	33227.44
453.44	32428.73
453.646	32262.85
453.852	32719.54
454.058	32879.28
454.264	32092.86
454.47	32608.95
454.676	31969.99
454.882	33045.17
455.088	30284.51
455.294	30743.25
455.5	31111.89
455.705	30986.96
455.911	30081.76
456.117	29381.35
456.323	29127.41
456.529	27370.25
456.735	28646.13
456.941	27818.75
457.147	27392.78
457.352	26479.38
457.558	26379.03
457.764	26127.13
457.97	25791.27
458.176	25180.97
458.381	25584.42
458.587	24257.34
458.793	24298.3
458.999	22883.15
459.204	24275.77
459.41	23739.2
459.616	22025.05
459.821	22250.33
460.027	22156.12
460.233	21719.9
460.438	20216.69
460.644	20607.86
460.85	19968.89
461.055	19422.08
461.261	19497.86
461.466	17984.41
461.672	17441.7
461.878	18742.16
462.083	17550.24
462.289	17281.95
462.494	16931.75
462.7	16395.18
462.905	15676.35
463.111	16321.46
463.316	16513.97
463.522	16083.89
463.727	16274.35
463.932	15815.61
464.138	15772.6
464.343	15973.3
464.549	15348.67
464.754	16122.8
464.959	15842.23
465.165	15774.65
465.37	15315.9
465.575	14607.31
465.781	15219.65
465.986	15156.16
466.191	14701.51
466.397	14662.6
466.602	13583.32
466.807	14412.75
467.012	14289.87
467.218	14099.41
